Data from 815655_chest_Reflection__2__142.txt Node

Date: Fri Sep 16 15:51:17 CDT 2022
User: ToomeyLab
Spectrometer: FLMS14357
Trigger mode: 0
Integration Time (sec): 1.000000E-2
Scans to average: 100
Electric dark correction enabled: true
Nonlinearity correction enabled: false
Boxcar width: 0
XAxis mode: Wavelengths
Number of Pixels in Spectrum: 2048
>>>>>Begin Spectral Data<<<<<
189.047	-96.56
189.435	-96.56
189.823	-96.56
190.211	892.74
190.599	16.7
190.987	192.86
191.375	116.63
191.763	1545.91
192.151	276.17
192.538	0.37
192.926	28.94
193.314	184.56
193.702	101.56
194.089	122.72
194.477	94.49
194.864	126.11
195.252	-208.67
195.639	110.4
196.027	-83.83
196.414	175.91
196.801	-10.87
197.189	-151.68
197.576	-43.94
197.963	-90.45
198.351	-15.21
198.738	-23.29
199.125	8.59
199.512	-64.09
199.899	-9.29
200.286	4.72
200.673	-1.61
201.06	-7.51
201.447	26.14
201.833	10.66
202.22	38.6
202.607	-105.6
202.994	31.12
203.38	19.33
203.767	15.4
204.154	-36.47
204.54	21.97
204.927	16.87
205.313	35.35
205.699	42.87
206.086	36.47
206.472	33.14
206.858	2.73
207.245	13.33
207.631	27.63
208.017	7.6
208.403	1.26
208.789	12.64
209.175	30.15
209.561	21.4
209.947	-16.98
210.333	-19.59
210.719	24.82
211.105	41.28
211.491	-47.57
211.876	12.46
212.262	26.47
212.648	-11.42
213.034	-7.8
213.419	-6.56
213.805	16.04
214.19	16.51
214.576	6.52
214.961	-9.61
215.346	-7.35
215.732	-53.07
216.117	17.24
216.502	-3.58
216.888	-28.32
217.273	32.93
217.658	13.73
218.043	-59.2
218.428	-1.46
218.813	17.06
219.198	9.53
219.583	20.39
219.968	7.13
220.353	-5.24
220.738	1.14
221.122	-28.13
221.507	24.45
221.892	26.76
222.276	3.59
222.661	-6.47
223.046	6.2
223.43	9.19
223.815	-2.83
224.199	11.46
224.583	4.42
224.968	5.79
225.352	1.86
225.736	10.64
226.121	12.66
226.505	5.63
226.889	8.65
227.273	9.84
227.657	8.38
228.041	1.34
228.425	1.12
228.809	8.21
229.193	2.14
229.577	4.56
229.961	4.56
230.344	6.67
230.728	6.23
231.112	5.98
231.495	5.26
231.879	6.99
232.263	6.02
232.646	5.07
233.03	5.67
233.413	6.91
233.797	5.64
234.18	6.59
234.563	3.74
234.946	5.59
235.33	7.49
235.713	6.54
236.096	5.68
236.479	6.29
236.862	4.22
237.245	5.93
237.628	9.07
238.011	6.06
238.394	5.7
238.777	5.65
239.16	4.67
239.543	6.26
239.925	6.68
240.308	4.94
240.691	5.6
241.073	6.24
241.456	5.19
241.838	5.38
242.221	6.02
242.603	5.57
242.986	5.56
243.368	5.79
243.75	5.61
244.133	6.13
244.515	5.59
244.897	6.26
245.279	5.71
245.661	4.77
246.043	6.24
246.425	5.39
246.807	4.99
247.189	5.21
247.571	5.32
247.953	5.54
248.335	5.74
248.717	5.49
249.098	5.39
249.48	5.19
249.862	5.33
250.243	5.86
250.625	5.41
251.006	5.36
251.388	5.48
251.769	4.98
252.151	5.59
252.532	3.85
252.913	5.77
253.295	5.77
253.676	5.94
254.057	4.85
254.438	4.18
254.819	3.75
255.2	4.36
255.581	5.37
255.962	4.98
256.343	5.08
256.724	4.01
257.105	4.45
257.486	5.06
257.867	6.07
258.247	6.27
258.628	5.47
259.009	5.36
259.389	4.93
259.77	4.69
260.15	5.68
260.531	5.13
260.911	5.09
261.292	4.86
261.672	5.03
262.052	4.79
262.432	4.74
262.813	5.62
263.193	5.1
263.573	5.99
263.953	5.48
264.333	5.46
264.713	4.61
265.093	4.48
265.473	5.19
265.853	5.73
266.233	4.92
266.612	5.99
266.992	4.04
267.372	5.02
267.752	4.57
268.131	5.31
268.511	5.3
268.89	5.39
269.27	5.1
269.649	5.03
270.029	5.46
270.408	5.39
270.787	5.04
271.167	4.78
271.546	5.61
271.925	5.08
272.304	5.12
272.683	4.95
273.062	4.64
273.441	5.14
273.82	4.9
274.199	5.01
274.578	4.74
274.957	5.01
275.336	4.66
275.715	5.11
276.093	4.81
276.472	5.21
276.851	4.84
277.229	5.27
277.608	4.96
277.986	4.78
278.365	4.37
278.743	5.22
279.122	4.95
279.5	4.71
279.878	5.01
280.257	4.97
280.635	5.21
281.013	4.23
281.391	5.28
281.769	5.06
282.147	5.19
282.525	4.36
282.903	5.04
283.281	4.5
283.659	4.92
284.037	5.09
284.415	5.26
284.792	5.23
285.17	4.91
285.548	4.77
285.925	4.38
286.303	5.26
286.68	4.68
287.058	4.54
287.435	4.79
287.813	5.19
288.19	4.55
288.567	4.58
288.945	4.42
289.322	4.86
289.699	4.82
290.076	4.39
290.453	5.17
290.83	5.01
291.207	4.56
291.584	4.7
291.961	4.89
292.338	4.76
292.715	4.6
293.092	4.62
293.469	4.47
293.845	5.09
294.222	4.27
294.599	4.17
294.975	4.41
295.352	4.54
295.728	4.44
296.105	4.88
296.481	4.36
296.858	4.73
297.234	4.37
297.61	5.29
297.986	4.72
298.363	4.44
298.739	4.38
299.115	4.71
299.491	4.62
299.867	4.11
300.243	4.55
300.619	4.57
300.995	4.42
301.371	4.49
301.746	3.84
302.122	4.46
302.498	4.15
302.874	4.24
303.249	4.69
303.625	3.93
304	4.45
304.376	3.79
304.751	4.44
305.127	4.25
305.502	4.44
305.878	4.52
306.253	4.92
306.628	4.2
307.003	4.64
307.378	4.86
307.754	4.76
308.129	4.91
308.504	4.66
308.879	4.99
309.254	4.32
309.629	4.19
310.003	4.39
310.378	4.31
310.753	4.24
311.128	4.16
311.502	4.02
311.877	4.11
312.252	4.61
312.626	4.49
313.001	4.15
313.375	4.32
313.75	4.11
314.124	4.4
314.498	4.32
314.873	4.81
315.247	4.27
315.621	4.1
315.995	4.26
316.369	4.26
316.743	4.68
317.117	4.07
317.491	3.8
317.865	4.73
318.239	3.92
318.613	4.16
318.987	3.8
319.361	4.14
319.734	3.88
320.108	4.1
320.482	4.61
320.855	4.1
321.229	4.45
321.602	4.4
321.976	3.88
322.349	4.29
322.723	3.91
323.096	3.94
323.469	4.16
323.843	4.99
324.216	4.54
324.589	4.91
324.962	3.98
325.335	4.14
325.708	4.3
326.081	4.66
326.454	4.29
326.827	4.08
327.2	4.36
327.573	3.79
327.945	4.34
328.318	4.16
328.691	4.09
329.063	3.91
329.436	3.82
329.809	3.58
330.181	4
330.553	4.24
330.926	4.34
331.298	3.7
331.671	4.19
332.043	4.03
332.415	4.17
332.787	4.29
333.159	4.41
333.532	4.35
333.904	4.06
334.276	4.19
334.648	4.09
335.02	4.3
335.391	4.13
335.763	4.09
336.135	4.05
336.507	4.19
336.879	4.39
337.25	3.89
337.622	4.5
337.993	4.04
338.365	4.76
338.736	4.78
339.108	4.01
339.479	4.33
339.851	4.23
340.222	4.16
340.593	4.21
340.964	4.25
341.336	4.54
341.707	3.76
342.078	4.46
342.449	4.4
342.82	4.08
343.191	4.35
343.562	4.36
343.933	4.37
344.303	4.32
344.674	3.8
345.045	4.68
345.416	4.2
345.786	4.55
346.157	4.52
346.527	4.47
346.898	4.1
347.268	4.23
347.639	3.87
348.009	4.16
348.38	4.39
348.75	3.96
349.12	4.19
349.49	4.61
349.861	4.29
350.231	4.18
350.601	3.92
350.971	4.88
351.341	4.41
351.711	4.34
352.081	4.11
352.45	4.46
352.82	4.67
353.19	4.05
353.56	4.52
353.929	4.13
354.299	4.16
354.669	4.15
355.038	4.42
355.408	4.16
355.777	4.14
356.147	4.18
356.516	4.51
356.885	4.31
357.254	4.27
357.624	4.06
357.993	4.16
358.362	4.15
358.731	4.3
359.1	4.62
359.469	4.27
359.838	4.17
360.207	4.36
360.576	4.35
360.945	4.23
361.314	3.97
361.682	4.06
362.051	4.22
362.42	4.71
362.788	4.48
363.157	4.26
363.525	4.26
363.894	4.51
364.262	4.11
364.631	4.37
364.999	4.2
365.367	4.27
365.735	4.33
366.104	4.68
366.472	4.2
366.84	4.5
367.208	4.34
367.576	4.24
367.944	4.32
368.312	4.24
368.68	4.39
369.048	4.42
369.416	4.08
369.783	4.43
370.151	4.06
370.519	4.19
370.886	4.35
371.254	4.05
371.621	4.75
371.989	4.07
372.356	4.58
372.724	4.59
373.091	4.25
373.458	4.1
373.826	4.24
374.193	4.67
374.56	4.18
374.927	4.3
375.294	4.56
375.661	4.34
376.028	4.91
376.395	4
376.762	4.61
377.129	4.33
377.496	4.49
377.863	4.32
378.229	4.54
378.596	4.11
378.963	4.39
379.329	4.18
379.696	4.39
380.062	4.39
380.429	4.46
380.795	4.53
381.161	4.51
381.528	4.44
381.894	4.32
382.26	4.45
382.626	4.49
382.993	3.95
383.359	4.28
383.725	4.18
384.091	4.6
384.457	4.23
384.823	4.18
385.188	4.42
385.554	4.35
385.92	4.43
386.286	4.35
386.651	4.31
387.017	4.2
387.383	4.17
387.748	3.81
388.114	4.05
388.479	4.29
388.845	4.25
389.21	4.5
389.575	4.19
389.94	4.54
390.306	4.47
390.671	4.42
391.036	4.31
391.401	4.17
391.766	4.47
392.131	4.37
392.496	4.41
392.861	4.34
393.226	4.54
393.591	4.45
393.956	4.41
394.32	4.64
394.685	4.31
395.05	4.66
395.414	4.28
395.779	4.43
396.143	4.42
396.508	4.32
396.872	4.44
397.236	4.44
397.601	4.31
397.965	4.21
398.329	4.43
398.694	4.48
399.058	4.79
399.422	4.38
399.786	4.49
400.15	4.6
400.514	4.44
400.878	4.38
401.242	4.26
401.605	4.36
401.969	4.43
402.333	4.45
402.697	4.36
403.06	4.71
403.424	4.44
403.787	4.7
404.151	4.58
404.514	4.48
404.878	4.45
405.241	4.37
405.604	4.54
405.968	4.63
406.331	4.44
406.694	4.43
407.057	4.33
407.42	4.18
407.783	4.48
408.146	4.65
408.509	4.65
408.872	4.45
409.235	4.67
409.598	4.37
409.961	4.55
410.323	4.66
410.686	4.74
411.049	4.57
411.411	4.41
411.774	4.61
412.136	4.47
412.499	4.59
412.861	4.51
413.223	4.49
413.586	4.62
413.948	4.63
414.31	4.62
414.672	4.46
415.035	4.75
415.397	4.38
415.759	4.47
416.121	4.63
416.483	4.46
416.845	4.47
417.206	4.7
417.568	4.66
417.93	4.71
418.292	4.67
418.653	4.4
419.015	4.48
419.377	4.71
419.738	4.5
420.1	4.6
420.461	4.64
420.822	4.46
421.184	4.49
421.545	4.48
421.906	4.53
422.267	4.55
422.629	4.48
422.99	4.35
423.351	4.5
423.712	4.43
424.073	4.54
424.434	4.45
424.795	4.53
425.155	4.5
425.516	4.57
425.877	4.47
426.238	4.47
426.598	4.5
426.959	4.51
427.32	4.39
427.68	4.58
428.041	4.46
428.401	4.47
428.761	4.62
429.122	4.64
429.482	4.64
429.842	4.55
430.202	4.62
430.563	4.67
430.923	4.75
431.283	4.82
431.643	4.82
432.003	4.63
432.363	4.52
432.722	4.78
433.082	4.67
433.442	4.58
433.802	4.62
434.161	4.62
434.521	4.78
434.881	4.63
435.24	4.57
435.6	4.68
435.959	4.75
436.319	4.62
436.678	4.69
437.037	4.57
437.396	4.71
437.756	4.72
438.115	4.72
438.474	4.6
438.833	4.62
439.192	4.64
439.551	4.71
439.91	4.64
440.269	4.75
440.628	4.62
440.987	4.74
441.345	4.62
441.704	4.72
442.063	4.8
442.421	4.6
442.78	4.58
443.138	4.6
443.497	4.64
443.855	4.61
444.214	4.6
444.572	4.72
444.93	4.73
445.288	4.68
445.647	4.64
446.005	4.57
446.363	4.72
446.721	4.8
447.079	4.69
447.437	4.7
447.795	4.69
448.153	4.67
448.51	4.68
448.868	4.63
449.226	4.6
449.584	4.73
449.941	4.69
450.299	4.68
450.656	4.67
451.014	4.77
451.371	4.7
451.729	4.61
452.086	4.58
452.443	4.65
452.801	4.78
453.158	4.72
453.515	4.61
453.872	4.68
454.229	4.7
454.586	4.57
454.943	4.7
455.3	4.82
455.657	4.61
456.014	4.8
456.371	4.78
456.727	4.79
457.084	4.86
457.441	4.8
457.797	4.87
458.154	4.73
458.51	4.72
458.867	4.74
459.223	4.74
459.58	4.73
459.936	4.86
460.292	4.97
460.648	4.74
461.005	4.9
461.361	4.78
461.717	4.69
462.073	4.71
462.429	4.79
462.785	4.71
463.141	4.77
463.496	4.84
463.852	4.9
464.208	4.73
464.564	4.85
464.919	4.81
465.275	4.94
465.631	4.85
465.986	4.78
466.342	4.9
466.697	4.81
467.052	4.81
467.408	4.98
467.763	4.84
468.118	4.95
468.473	5.01
468.829	4.85
469.184	4.78
469.539	4.95
469.894	4.95
470.249	4.99
470.603	4.98
470.958	4.84
471.313	4.95
471.668	4.82
472.023	4.71
472.377	4.92
472.732	4.98
473.086	4.79
473.441	4.77
473.795	5.02
474.15	4.99
474.504	5.04
474.859	4.94
475.213	4.8
475.567	4.63
475.921	4.84
476.275	4.97
476.63	4.92
476.984	4.97
477.338	5.06
477.692	4.78
478.045	4.96
478.399	4.87
478.753	4.85
479.107	4.88
479.461	4.86
479.814	4.79
480.168	4.87
480.521	5.02
480.875	4.96
481.228	4.96
481.582	4.95
481.935	4.92
482.289	5.01
482.642	4.94
482.995	4.95
483.348	4.99
483.701	4.85
484.055	4.92
484.408	4.9
484.761	4.86
485.114	4.78
485.466	4.77
485.819	4.71
486.172	4.66
486.525	4.63
486.878	4.61
487.23	4.69
487.583	4.76
487.936	4.83
488.288	4.86
488.641	4.89
488.993	4.86
489.345	4.79
489.698	4.72
490.05	4.74
490.402	4.73
490.754	4.88
491.107	4.72
491.459	4.88
491.811	4.8
492.163	4.86
492.515	4.9
492.866	4.9
493.218	4.94
493.57	4.84
493.922	4.79
494.274	4.81
494.625	4.8
494.977	4.85
495.328	4.84
495.68	4.97
496.031	5.01
496.383	5.03
496.734	5.07
497.086	5.09
497.437	5.13
497.788	5.11
498.139	5.18
498.49	5.23
498.842	5.15
499.193	5.02
499.544	5.02
499.894	4.95
500.245	5.11
500.596	5.07
500.947	5.13
501.298	5.14
501.648	5.14
501.999	5.18
502.35	5.15
502.7	5.13
503.051	5.21
503.401	5.1
503.752	5.11
504.102	5.13
504.452	5.05
504.803	5.11
505.153	5.26
505.503	5.16
505.853	5.19
506.203	5.29
506.553	5.04
506.903	5.13
507.253	5.12
507.603	5.29
507.953	5.12
508.303	5.19
508.652	5.2
509.002	5.3
509.352	5.17
509.701	5.17
510.051	5.34
510.4	5.24
510.75	5.17
511.099	5.17
511.449	5.07
511.798	5.18
512.147	5.21
512.496	5.27
512.846	5.21
513.195	5.19
513.544	5.18
513.893	5.29
514.242	5.29
514.591	5.36
514.939	5.32
515.288	5.34
515.637	5.29
515.986	5.25
516.334	5.19
516.683	5.37
517.032	5.37
517.38	5.47
517.729	5.47
518.077	5.31
518.426	5.33
518.774	5.43
519.122	5.48
519.47	5.34
519.819	5.21
520.167	5.4
520.515	5.27
520.863	5.29
521.211	5.34
521.559	5.4
521.907	5.38
522.255	5.29
522.602	5.44
522.95	5.47
523.298	5.28
523.645	5.48
523.993	5.53
524.341	5.44
524.688	5.5
525.036	5.49
525.383	5.5
525.73	5.46
526.078	5.44
526.425	5.42
526.772	5.51
527.119	5.42
527.466	5.42
527.814	5.48
528.161	5.31
528.508	5.45
528.854	5.45
529.201	5.41
529.548	5.43
529.895	5.42
530.242	5.51
530.588	5.42
530.935	5.37
531.282	5.31
531.628	5.38
531.975	5.34
532.321	5.46
532.667	5.54
533.014	5.65
533.36	5.54
533.706	5.65
534.052	5.61
534.399	5.68
534.745	5.66
535.091	5.59
535.437	5.55
535.783	5.5
536.129	5.59
536.474	5.51
536.82	5.58
537.166	5.65
537.512	5.74
537.857	5.68
538.203	5.71
538.549	5.7
538.894	5.64
539.239	5.78
539.585	5.76
539.93	5.61
540.276	5.81
540.621	5.93
540.966	5.87
541.311	5.84
541.656	5.86
542.001	5.85
542.346	5.88
542.691	5.87
543.036	5.81
543.381	5.7
543.726	5.73
544.071	5.73
544.415	5.68
544.76	5.76
545.105	5.79
545.449	5.93
545.794	5.91
546.138	5.89
546.483	5.99
546.827	6.02
547.171	6
547.516	5.89
547.86	6.05
548.204	6.05
548.548	6.07
548.892	5.94
549.236	6.11
549.58	6.17
549.924	6.17
550.268	6.12
550.612	6.17
550.956	6.22
551.3	6.32
551.643	6.37
551.987	6.28
552.33	6.26
552.674	6.27
553.017	6.28
553.361	6.47
553.704	6.32
554.048	6.29
554.391	6.48
554.734	6.3
555.077	6.4
555.42	6.53
555.764	6.59
556.107	6.48
556.45	6.32
556.793	6.52
557.135	6.46
557.478	6.38
557.821	6.44
558.164	6.63
558.507	6.59
558.849	6.46
559.192	6.68
559.534	6.73
559.877	6.64
560.219	6.57
560.562	6.7
560.904	6.73
561.246	6.6
561.589	6.83
561.931	6.82
562.273	6.65
562.615	6.91
562.957	6.82
563.299	6.82
563.641	6.91
563.983	6.86
564.325	6.77
564.667	6.74
565.008	6.9
565.35	6.78
565.692	6.86
566.033	7.02
566.375	6.92
566.716	6.95
567.058	6.92
567.399	7.12
567.741	6.96
568.082	7.12
568.423	6.97
568.764	6.99
569.105	7.14
569.447	6.87
569.788	7.1
570.129	7.17
570.47	7.15
570.811	7.13
571.151	7.28
571.492	7.12
571.833	7.29
572.174	7.23
572.514	7.21
572.855	7.21
573.195	7.46
573.536	7.17
573.876	7.45
574.217	7.32
574.557	7.38
574.898	7.38
575.238	7.39
575.578	7.41
575.918	7.45
576.258	7.59
576.598	7.4
576.938	7.5
577.278	7.4
577.618	7.46
577.958	7.62
578.298	7.59
578.638	7.49
578.977	7.62
579.317	7.7
579.657	7.69
579.996	7.69
580.336	7.8
580.675	7.55
581.014	7.82
581.354	7.91
581.693	7.64
582.032	8.08
582.372	8.09
582.711	7.97
583.05	7.93
583.389	7.83
583.728	7.96
584.067	8.17
584.406	8.27
584.745	8.15
585.083	8.18
585.422	8.25
585.761	8.4
586.1	7.89
586.438	8.42
586.777	8.07
587.115	8.39
587.454	8.39
587.792	8.37
588.13	8.31
588.469	8.3
588.807	8.17
589.145	8.33
589.483	8.45
589.821	8.63
590.159	8.49
590.497	8.47
590.835	8.41
591.173	8.86
591.511	8.52
591.849	8.71
592.187	8.66
592.524	8.38
592.862	8.62
593.2	8.47
593.537	8.63
593.875	8.68
594.212	8.87
594.55	8.71
594.887	8.97
595.224	8.78
595.561	9.14
595.899	8.93
596.236	9
596.573	8.92
596.91	8.74
597.247	8.77
597.584	8.87
597.921	8.87
598.258	9.07
598.594	8.91
598.931	8.98
599.268	9.11
599.604	8.88
599.941	9.08
600.277	9.03
600.614	9.37
600.95	9.07
601.287	9.4
601.623	9.12
601.959	9.63
602.296	9.22
602.632	9.5
602.968	9.73
603.304	9.39
603.64	9.26
603.976	9.56
604.312	9.8
604.648	9.83
604.984	9.66
605.319	9.77
605.655	9.71
605.991	9.61
606.326	9.77
606.662	9.8
606.998	9.73
607.333	9.89
607.668	9.68
608.004	9.69
608.339	9.82
608.674	9.98
609.01	9.89
609.345	10.13
609.68	10.05
610.015	10.01
610.35	9.88
610.685	10.37
611.02	10.15
611.355	10.33
611.689	10.3
612.024	10.21
612.359	10.24
612.694	10.09
613.028	10.23
613.363	10.26
613.697	10.41
614.032	10.43
614.366	9.92
614.7	10.3
615.035	10.53
615.369	10.37
615.703	10.58
616.037	10.47
616.371	10.64
616.705	10.54
617.039	10.9
617.373	10.41
617.707	10.79
618.041	11.07
618.375	10.77
618.709	10.81
619.042	10.85
619.376	11.05
619.71	11.15
620.043	11.03
620.377	11.09
620.71	11.07
621.043	11.17
621.377	11.41
621.71	11.18
622.043	10.69
622.376	11.25
622.709	11.32
623.043	11.23
623.376	10.95
623.709	10.77
624.041	11.56
624.374	11.4
624.707	11.38
625.04	11.25
625.373	11.27
625.705	11.45
626.038	11.71
626.37	11.86
626.703	11.25
627.035	11.62
627.368	11.92
627.7	12.14
628.032	11.5
628.365	11.84
628.697	11.85
629.029	12.12
629.361	11.78
629.693	11.81
630.025	11.82
630.357	12.13
630.689	12.02
631.021	12.21
631.353	12.02
631.684	11.92
632.016	11.82
632.348	12.28
632.679	12.13
633.011	12.24
633.342	12.09
633.674	12.56
634.005	12.34
634.336	12.26
634.668	12.56
634.999	12.08
635.33	12.75
635.661	12.62
635.992	12.46
636.323	12.67
636.654	12.34
636.985	12.89
637.316	12.78
637.647	12.54
637.977	12.47
638.308	12.7
638.639	13.17
638.969	12.53
639.3	13.02
639.63	12.54
639.961	13.05
640.291	12.93
640.622	12.87
640.952	13.29
641.282	13.12
641.612	13.12
641.943	13.07
642.273	12.72
642.603	13.35
642.933	12.95
643.263	13.37
643.592	13.49
643.922	13.07
644.252	13.12
644.582	13.46
644.911	13.17
645.241	13.52
645.571	13.96
645.9	13.8
646.23	13.7
646.559	13.53
646.888	13.82
647.218	13.55
647.547	13.57
647.876	13.82
648.205	13.92
648.534	13.85
648.863	14.18
649.192	13.98
649.521	14.24
649.85	13.96
650.179	13.82
650.508	14.44
650.837	14.4
651.165	14.2
651.494	14.57
651.822	14.06
652.151	13.96
652.479	14.67
652.808	14.93
653.136	14.65
653.465	14.3
653.793	14.14
654.121	14.46
654.449	14.43
654.777	14.42
655.105	14.13
655.433	14.54
655.761	14.78
656.089	14.63
656.417	14.29
656.745	14.38
657.073	15
657.4	14.67
657.728	14.89
658.056	14.27
658.383	14.97
658.711	15.15
659.038	14.81
659.365	15.18
659.693	14.7
660.02	15.1
660.347	15.52
660.674	15.02
661.001	15.24
661.329	15.03
661.656	15.21
661.982	15.08
662.309	15.64
662.636	15.29
662.963	15.71
663.29	15.28
663.616	15.73
663.943	15.46
664.27	15.31
664.596	15.44
664.923	15.5
665.249	15.67
665.576	15.99
665.902	15.67
666.228	15.11
666.554	15.62
666.881	16
667.207	15.68
667.533	15.96
667.859	15.49
668.185	16.42
668.511	16.04
668.837	16.04
669.162	16.3
669.488	16.62
669.814	16.03
670.139	16.25
670.465	16.01
670.791	16.26
671.116	16.41
671.442	16.53
671.767	16.3
672.092	16.8
672.418	16.16
672.743	16.5
673.068	17.24
673.393	15.87
673.718	17.12
674.043	15.92
674.368	17.09
674.693	16.86
675.018	17.1
675.343	16.72
675.667	16.87
675.992	16.93
676.317	16.59
676.641	16.95
676.966	16.82
677.29	16.96
677.615	17.15
677.939	16.96
678.264	17.86
678.588	16.97
678.912	17.33
679.236	17.74
679.56	17.99
679.885	17.7
680.209	17.27
680.532	17.85
680.856	17.22
681.18	17.9
681.504	17.64
681.828	17.75
682.152	17.52
682.475	17.66
682.799	17.62
683.122	17.72
683.446	17.63
683.769	18.09
684.093	17.83
684.416	17.6
684.739	17.73
685.062	18.25
685.386	17.66
685.709	17.58
686.032	18
686.355	17.92
686.678	18.43
