Data from 815655_chest_Reflection__3__143.txt Node

Date: Fri Sep 16 15:51:31 CDT 2022
User: ToomeyLab
Spectrometer: FLMS14357
Trigger mode: 0
Integration Time (sec): 1.000000E-2
Scans to average: 100
Electric dark correction enabled: true
Nonlinearity correction enabled: false
Boxcar width: 0
XAxis mode: Wavelengths
Number of Pixels in Spectrum: 2048
>>>>>Begin Spectral Data<<<<<
189.047	-204.39
189.435	-204.39
189.823	-204.39
190.211	230.34
190.599	-17.63
190.987	144.73
191.375	116.02
191.763	2321.93
192.151	166.29
192.538	-148.6
192.926	26.52
193.314	108.93
193.702	153.59
194.089	123.9
194.477	209.78
194.864	78.25
195.252	-2812.67
195.639	97.06
196.027	435.93
196.414	105.69
196.801	-84.03
197.189	6.18
197.576	0.63
197.963	-59.16
198.351	-49.49
198.738	33.89
199.125	1.09
199.512	-62.07
199.899	73.06
200.286	-3.89
200.673	-26.27
201.06	-6.17
201.447	21.61
201.833	6.51
202.22	-11.47
202.607	-35.75
202.994	20.23
203.38	-6.15
203.767	34.53
204.154	-0.21
204.54	30.62
204.927	-42.57
205.313	24.81
205.699	52.27
206.086	31.06
206.472	19.44
206.858	-1.42
207.245	8.61
207.631	-22.53
208.017	-2.71
208.403	27.47
208.789	-18.4
209.175	35.28
209.561	12.73
209.947	-16.42
210.333	24.3
210.719	-1.8
211.105	-16.93
211.491	1.32
211.876	30.43
212.262	32.48
212.648	-10.49
213.034	-24.94
213.419	-26.5
213.805	19.27
214.19	19.16
214.576	-4.78
214.961	0.79
215.346	-33.36
215.732	-32.08
216.117	15.75
216.502	-3.97
216.888	-50.71
217.273	-14.48
217.658	17
218.043	-37.61
218.428	25.71
218.813	7.17
219.198	-16.3
219.583	-0.76
219.968	1.24
220.353	-7.8
220.738	-0.72
221.122	-4.76
221.507	6.55
221.892	-17.78
222.276	6.69
222.661	19.15
223.046	1.04
223.43	10.13
223.815	-4.43
224.199	5.46
224.583	8.33
224.968	14.95
225.352	2.57
225.736	7.41
226.121	8.61
226.505	12.58
226.889	8.91
227.273	8.65
227.657	8.71
228.041	2.9
228.425	-4.23
228.809	11.12
229.193	4.44
229.577	6.97
229.961	5.61
230.344	6.59
230.728	5.38
231.112	5.17
231.495	5.42
231.879	5.93
232.263	4.72
232.646	6.02
233.03	5.56
233.413	5.96
233.797	4.24
234.18	7.07
234.563	2.23
234.946	5.09
235.33	5.52
235.713	6.02
236.096	4.91
236.479	4.34
236.862	6.64
237.245	5.77
237.628	6.49
238.011	6.79
238.394	7.37
238.777	6.04
239.16	6.38
239.543	7.34
239.925	4.4
240.308	5.56
240.691	5.86
241.073	6.05
241.456	5.61
241.838	3.81
242.221	5.38
242.603	4.97
242.986	5.51
243.368	5.28
243.75	4.67
244.133	5.65
244.515	5.3
244.897	5.87
245.279	4.74
245.661	5.07
246.043	5.34
246.425	5.28
246.807	5.48
247.189	4.87
247.571	5.17
247.953	4.95
248.335	5.31
248.717	5.29
249.098	5.33
249.48	5.12
249.862	5.24
250.243	5.26
250.625	5.28
251.006	5.17
251.388	5.31
251.769	5.15
252.151	5.17
252.532	4.42
252.913	4.9
253.295	4.64
253.676	5.89
254.057	4.96
254.438	4.71
254.819	4.02
255.2	4.67
255.581	5.38
255.962	5.11
256.343	5.95
256.724	4.17
257.105	3.95
257.486	4.84
257.867	5.54
258.247	4.36
258.628	5.66
259.009	5.06
259.389	5.31
259.77	4.95
260.15	5.52
260.531	4.56
260.911	4.93
261.292	5.04
261.672	5.12
262.052	4.66
262.432	4.63
262.813	5.47
263.193	4.88
263.573	4.9
263.953	4.81
264.333	4.98
264.713	4.55
265.093	4.36
265.473	5.25
265.853	5.78
266.233	4.84
266.612	5.74
266.992	4.93
267.372	4.99
267.752	4.67
268.131	5.18
268.511	5.16
268.89	5.3
269.27	4.29
269.649	4.71
270.029	5.58
270.408	5.13
270.787	4.67
271.167	5.07
271.546	5.77
271.925	5.13
272.304	4.96
272.683	4.62
273.062	4.81
273.441	4.88
273.82	4.74
274.199	4.82
274.578	4.85
274.957	4.97
275.336	4.71
275.715	5.18
276.093	5.46
276.472	4.68
276.851	4.69
277.229	4.59
277.608	5.12
277.986	5.54
278.365	4.28
278.743	4.67
279.122	4.87
279.5	4.54
279.878	4.82
280.257	5.03
280.635	5.02
281.013	4.6
281.391	5.27
281.769	5.4
282.147	5.24
282.525	4.22
282.903	4.51
283.281	4.68
283.659	5.13
284.037	5.05
284.415	4.99
284.792	5.04
285.17	4.94
285.548	4.77
285.925	4.2
286.303	5.27
286.68	4.55
287.058	4.54
287.435	4.63
287.813	4.91
288.19	4.39
288.567	4.5
288.945	4.69
289.322	4.97
289.699	4.61
290.076	4.35
290.453	4.97
290.83	4.89
291.207	4.57
291.584	4.34
291.961	4.86
292.338	4.85
292.715	4.73
293.092	4.54
293.469	4.57
293.845	4.52
294.222	4.72
294.599	4.81
294.975	4.43
295.352	4.69
295.728	4.23
296.105	4.98
296.481	4.83
296.858	4.44
297.234	4.24
297.61	5.05
297.986	4.7
298.363	4.56
298.739	4.36
299.115	4.98
299.491	4.58
299.867	4.44
300.243	4.53
300.619	4.63
300.995	4.77
301.371	4.79
301.746	4.42
302.122	4.85
302.498	4.8
302.874	4.92
303.249	4.59
303.625	4.6
304	4.28
304.376	4.33
304.751	4.66
305.127	4.66
305.502	4.82
305.878	4.51
306.253	4.64
306.628	3.9
307.003	4.79
307.378	5.02
307.754	5.14
308.129	4.99
308.504	4.84
308.879	4.86
309.254	4.55
309.629	4.28
310.003	4.85
310.378	4.25
310.753	4.62
311.128	4.64
311.502	4.31
311.877	4.91
312.252	4.9
312.626	4.57
313.001	4.69
313.375	4.8
313.75	4.96
314.124	4.22
314.498	4.47
314.873	4.43
315.247	4.68
315.621	4.73
315.995	4.41
316.369	4.96
316.743	5.2
317.117	4.52
317.491	4.62
317.865	4.79
318.239	4.55
318.613	4.46
318.987	4.14
319.361	4.3
319.734	4.8
320.108	4.63
320.482	4.93
320.855	4.31
321.229	4.35
321.602	4.91
321.976	4.45
322.349	4.7
322.723	4.74
323.096	4.38
323.469	4.66
323.843	4.45
324.216	5.03
324.589	4.53
324.962	4.91
325.335	5.31
325.708	4.58
326.081	4.94
326.454	4.75
326.827	4.31
327.2	4.49
327.573	4.31
327.945	4.77
328.318	4.46
328.691	4.46
329.063	4.07
329.436	4.21
329.809	3.39
330.181	4.5
330.553	4.46
330.926	4.37
331.298	4.64
331.671	4.38
332.043	4.43
332.415	4.66
332.787	4.52
333.159	4.51
333.532	4.6
333.904	4.45
334.276	4.65
334.648	4.94
335.02	4.9
335.391	5.22
335.763	4.2
336.135	3.81
336.507	4.46
336.879	4.72
337.25	3.92
337.622	4.86
337.993	4.82
338.365	4.93
338.736	5.36
339.108	4.51
339.479	4.58
339.851	4.29
340.222	4.69
340.593	4.56
340.964	4.84
341.336	4.7
341.707	4.28
342.078	5.13
342.449	4.7
342.82	4.65
343.191	4.41
343.562	4.73
343.933	4.61
344.303	4.83
344.674	4.13
345.045	5.27
345.416	4.74
345.786	4.51
346.157	4.64
346.527	4.51
346.898	4.51
347.268	4.69
347.639	4.02
348.009	4.65
348.38	4.57
348.75	4.36
349.12	4.89
349.49	4.75
349.861	4.7
350.231	4.69
350.601	4.55
350.971	4.56
351.341	4.99
351.711	4.88
352.081	4.61
352.45	4.64
352.82	5.1
353.19	4.46
353.56	4.37
353.929	4.24
354.299	4.52
354.669	4.58
355.038	4.5
355.408	4.68
355.777	4.19
356.147	4.72
356.516	4.85
356.885	4.63
357.254	4.89
357.624	4.39
357.993	4.78
358.362	4.55
358.731	4.49
359.1	4.65
359.469	4.48
359.838	4.41
360.207	4.89
360.576	4.61
360.945	4.6
361.314	4.43
361.682	4.34
362.051	4.52
362.42	4.73
362.788	5.14
363.157	4.64
363.525	4.67
363.894	4.74
364.262	4.58
364.631	4.66
364.999	4.76
365.367	4.59
365.735	4.88
366.104	4.84
366.472	4.74
366.84	4.78
367.208	5.08
367.576	4.72
367.944	4.4
368.312	4.58
368.68	4.64
369.048	4.69
369.416	4.85
369.783	4.68
370.151	4.75
370.519	4.82
370.886	4.49
371.254	4.52
371.621	4.94
371.989	4.54
372.356	4.61
372.724	4.85
373.091	4.64
373.458	4.78
373.826	4.54
374.193	5.11
374.56	4.39
374.927	4.48
375.294	4.52
375.661	4.6
376.028	4.81
376.395	4.76
376.762	4.79
377.129	4.66
377.496	4.84
377.863	4.92
378.229	4.79
378.596	4.49
378.963	4.71
379.329	4.47
379.696	4.91
380.062	4.62
380.429	4.57
380.795	4.92
381.161	5.24
381.528	5.15
381.894	4.76
382.26	4.75
382.626	4.8
382.993	4.56
383.359	4.67
383.725	4.77
384.091	4.82
384.457	4.37
384.823	4.63
385.188	4.69
385.554	4.62
385.92	4.74
386.286	4.72
386.651	4.61
387.017	4.69
387.383	4.35
387.748	4.2
388.114	4.2
388.479	4.78
388.845	4.73
389.21	5.02
389.575	4.62
389.94	4.86
390.306	4.75
390.671	4.8
391.036	4.5
391.401	4.47
391.766	4.8
392.131	4.86
392.496	4.53
392.861	4.73
393.226	4.89
393.591	4.7
393.956	4.77
394.32	5.02
394.685	4.81
395.05	4.85
395.414	4.68
395.779	4.69
396.143	4.94
396.508	4.52
396.872	4.84
397.236	4.68
397.601	4.65
397.965	4.45
398.329	4.56
398.694	4.74
399.058	4.98
399.422	4.79
399.786	4.73
400.15	4.89
400.514	4.67
400.878	4.79
401.242	4.5
401.605	4.61
401.969	4.63
402.333	4.77
402.697	4.51
403.06	4.83
403.424	4.68
403.787	4.7
404.151	4.66
404.514	4.84
404.878	4.85
405.241	4.82
405.604	4.88
405.968	4.79
406.331	4.95
406.694	4.5
407.057	4.74
407.42	4.84
407.783	4.84
408.146	5.12
408.509	4.86
408.872	4.81
409.235	4.84
409.598	4.76
409.961	4.84
410.323	4.85
410.686	5.18
411.049	4.63
411.411	4.62
411.774	4.73
412.136	4.78
412.499	4.88
412.861	4.71
413.223	4.77
413.586	4.85
413.948	4.7
414.31	5.1
414.672	4.62
415.035	4.87
415.397	4.6
415.759	4.82
416.121	4.89
416.483	4.83
416.845	4.87
417.206	4.75
417.568	4.96
417.93	5.07
418.292	4.83
418.653	4.65
419.015	4.84
419.377	4.92
419.738	4.79
420.1	4.8
420.461	4.91
420.822	4.71
421.184	4.73
421.545	4.8
421.906	4.8
422.267	4.81
422.629	4.69
422.99	4.65
423.351	4.69
423.712	4.7
424.073	4.78
424.434	4.75
424.795	4.77
425.155	4.85
425.516	4.83
425.877	4.69
426.238	4.77
426.598	4.72
426.959	4.74
427.32	4.77
427.68	4.81
428.041	4.82
428.401	4.78
428.761	5.04
429.122	4.89
429.482	4.77
429.842	4.84
430.202	4.97
430.563	4.96
430.923	5.08
431.283	5
431.643	4.97
432.003	4.93
432.363	4.81
432.722	5.01
433.082	5.01
433.442	4.96
433.802	4.88
434.161	4.86
434.521	4.87
434.881	4.89
435.24	4.85
435.6	4.9
435.959	4.92
436.319	4.8
436.678	4.85
437.037	4.77
437.396	4.83
437.756	4.93
438.115	5.01
438.474	4.87
438.833	4.87
439.192	4.85
439.551	5.04
439.91	4.87
440.269	5.02
440.628	4.89
440.987	5
441.345	4.76
441.704	5.01
442.063	4.93
442.421	4.88
442.78	4.86
443.138	4.83
443.497	4.97
443.855	4.84
444.214	4.93
444.572	5.04
444.93	4.91
445.288	5.01
445.647	4.89
446.005	4.83
446.363	4.95
446.721	5.02
447.079	4.84
447.437	4.92
447.795	4.92
448.153	4.93
448.51	4.87
448.868	4.95
449.226	4.91
449.584	4.96
449.941	4.85
450.299	4.9
450.656	4.97
451.014	4.97
451.371	5.08
451.729	4.93
452.086	4.92
452.443	4.9
452.801	5.01
453.158	4.99
453.515	4.98
453.872	5
454.229	4.97
454.586	5.09
454.943	4.93
455.3	4.96
455.657	4.97
456.014	5.05
456.371	5.02
456.727	5.08
457.084	5.13
457.441	4.96
457.797	5.2
458.154	5.14
458.51	5.1
458.867	5.07
459.223	4.98
459.58	5.13
459.936	5.11
460.292	5.09
460.648	4.94
461.005	5
461.361	4.88
461.717	4.97
462.073	4.98
462.429	5.06
462.785	5.03
463.141	5.1
463.496	4.97
463.852	5.15
464.208	5.08
464.564	5.09
464.919	5.08
465.275	5.2
465.631	5.28
465.986	5.06
466.342	5.11
466.697	5.21
467.052	5.12
467.408	5.05
467.763	5.16
468.118	5.07
468.473	5.02
468.829	5.18
469.184	5.05
469.539	5.12
469.894	5.17
470.249	5.28
470.603	5.22
470.958	5.02
471.313	5.28
471.668	5.14
472.023	4.96
472.377	5.25
472.732	5.1
473.086	5.19
473.441	4.99
473.795	5.18
474.15	5.06
474.504	5.14
474.859	5.02
475.213	5.13
475.567	5.06
475.921	5.26
476.275	5.1
476.63	5.21
476.984	5.3
477.338	5.14
477.692	5.09
478.045	5.28
478.399	5.28
478.753	5.1
479.107	5.17
479.461	5.14
479.814	5.1
480.168	5.1
480.521	5.17
480.875	5.18
481.228	5.11
481.582	5.12
481.935	5.1
482.289	5.23
482.642	5.26
482.995	5.2
483.348	5.23
483.701	5.15
484.055	5.13
484.408	5.14
484.761	4.97
485.114	4.93
485.466	4.88
485.819	4.9
486.172	4.92
486.525	4.98
486.878	4.99
487.23	5.01
487.583	5.07
487.936	5.08
488.288	5.14
488.641	5.06
488.993	5.04
489.345	4.99
489.698	4.99
490.05	5.03
490.402	4.99
490.754	5.17
491.107	5.15
491.459	5.17
491.811	5.19
492.163	5.19
492.515	5.17
492.866	5.03
493.218	5.03
493.57	5
493.922	5.08
494.274	5.16
494.625	5.16
494.977	5.16
495.328	5.19
495.68	5.28
496.031	5.32
496.383	5.3
496.734	5.27
497.086	5.33
497.437	5.46
497.788	5.33
498.139	5.38
498.49	5.36
498.842	5.31
499.193	5.3
499.544	5.38
499.894	5.24
500.245	5.32
500.596	5.31
500.947	5.44
501.298	5.28
501.648	5.32
501.999	5.3
502.35	5.4
502.7	5.46
503.051	5.42
503.401	5.29
503.752	5.32
504.102	5.62
504.452	5.39
504.803	5.58
505.153	5.51
505.503	5.44
505.853	5.51
506.203	5.42
506.553	5.42
506.903	5.45
507.253	5.43
507.603	5.56
507.953	5.47
508.303	5.59
508.652	5.46
509.002	5.47
509.352	5.41
509.701	5.52
510.051	5.53
510.4	5.42
510.75	5.47
511.099	5.36
511.449	5.34
511.798	5.51
512.147	5.47
512.496	5.56
512.846	5.43
513.195	5.47
513.544	5.57
513.893	5.54
514.242	5.51
514.591	5.56
514.939	5.65
515.288	5.68
515.637	5.6
515.986	5.61
516.334	5.57
516.683	5.68
517.032	5.58
517.38	5.74
517.729	5.71
518.077	5.74
518.426	5.67
518.774	5.7
519.122	5.66
519.47	5.63
519.819	5.53
520.167	5.53
520.515	5.54
520.863	5.64
521.211	5.6
521.559	5.6
521.907	5.69
522.255	5.54
522.602	5.65
522.95	5.62
523.298	5.7
523.645	5.78
523.993	5.61
524.341	5.77
524.688	5.7
525.036	5.81
525.383	5.76
525.73	5.78
526.078	5.78
526.425	5.6
526.772	5.74
527.119	5.62
527.466	5.78
527.814	5.71
528.161	5.71
528.508	5.66
528.854	5.7
529.201	5.65
529.548	5.66
529.895	5.55
530.242	5.56
530.588	5.6
530.935	5.63
531.282	5.66
531.628	5.69
531.975	5.75
532.321	5.73
532.667	5.82
533.014	5.92
533.36	5.82
533.706	5.8
534.052	5.81
534.399	5.87
534.745	5.72
535.091	5.77
535.437	5.79
535.783	5.83
536.129	5.94
536.474	5.8
536.82	5.93
537.166	5.92
537.512	5.93
537.857	6.01
538.203	5.92
538.549	5.93
538.894	5.92
539.239	6.11
539.585	6.06
539.93	6
540.276	6.14
540.621	6.21
540.966	6.08
541.311	6.18
541.656	6.17
542.001	6.09
542.346	6.06
542.691	5.98
543.036	5.93
543.381	5.91
543.726	5.96
544.071	6.04
544.415	6.03
544.76	6.03
545.105	6.15
545.449	6.16
545.794	6.21
546.138	6.16
546.483	6.28
546.827	6.29
547.171	6.29
547.516	6.14
547.86	6.32
548.204	6.35
548.548	6.3
548.892	6.27
549.236	6.29
549.58	6.48
549.924	6.41
550.268	6.44
550.612	6.47
550.956	6.43
551.3	6.54
551.643	6.5
551.987	6.6
552.33	6.42
552.674	6.48
553.017	6.5
553.361	6.63
553.704	6.64
554.048	6.56
554.391	6.7
554.734	6.75
555.077	6.61
555.42	6.81
555.764	6.64
556.107	6.74
556.45	6.72
556.793	6.81
557.135	6.72
557.478	6.57
557.821	6.58
558.164	7.08
558.507	6.94
558.849	6.73
559.192	6.8
559.534	6.9
559.877	6.79
560.219	6.8
560.562	6.75
560.904	6.94
561.246	6.85
561.589	7.02
561.931	6.99
562.273	6.95
562.615	6.96
562.957	6.93
563.299	7.07
563.641	7
563.983	6.92
564.325	7.04
564.667	7.1
565.008	7.2
565.35	7.1
565.692	7
566.033	7.29
566.375	7.05
566.716	7.07
567.058	7.23
567.399	7.33
567.741	7.16
568.082	7.19
568.423	7.11
568.764	7.28
569.105	7.21
569.447	7.32
569.788	7.35
570.129	7.49
570.47	7.43
570.811	7.52
571.151	7.46
571.492	7.48
571.833	7.39
572.174	7.56
572.514	7.45
572.855	7.5
573.195	7.57
573.536	7.41
573.876	7.48
574.217	7.47
574.557	7.61
574.898	7.53
575.238	7.7
575.578	7.64
575.918	7.74
576.258	7.63
576.598	7.62
576.938	7.74
577.278	7.65
577.618	7.82
577.958	7.83
578.298	7.66
578.638	7.81
578.977	7.8
579.317	7.88
579.657	8.03
579.996	7.99
580.336	8.02
580.675	7.94
581.014	7.92
581.354	8.07
581.693	8.05
582.032	7.99
582.372	8
582.711	8.44
583.05	8.21
583.389	8.16
583.728	8.25
584.067	8.22
584.406	8.38
584.745	8.26
585.083	8.4
585.422	8.47
585.761	8.5
586.1	8.26
586.438	8.43
586.777	8.1
587.115	8.32
587.454	8.8
587.792	8.3
588.13	8.54
588.469	8.46
588.807	8.3
589.145	8.68
589.483	8.76
589.821	8.66
590.159	8.58
590.497	8.5
590.835	8.81
591.173	8.72
591.511	8.63
591.849	8.61
592.187	8.58
592.524	8.64
592.862	8.87
593.2	8.74
593.537	8.96
593.875	8.82
594.212	8.8
594.55	8.74
594.887	9
595.224	8.88
595.561	8.98
595.899	9.02
596.236	9.27
596.573	8.94
596.91	8.99
597.247	9.05
597.584	9.07
597.921	9.01
598.258	8.95
598.594	8.8
598.931	8.95
599.268	9.17
599.604	9.11
599.941	9.21
600.277	9.28
600.614	9.39
600.95	9.29
601.287	9.22
601.623	9.59
601.959	9.51
602.296	9.38
602.632	9.63
602.968	9.65
603.304	9.58
603.64	9.59
603.976	9.68
604.312	9.55
604.648	9.78
604.984	9.84
605.319	9.85
605.655	9.69
605.991	9.63
606.326	9.76
606.662	9.74
606.998	9.77
607.333	9.59
607.668	9.89
608.004	9.69
608.339	9.75
608.674	10.02
609.01	9.94
609.345	10.16
609.68	9.97
610.015	10.03
610.35	10.19
610.685	10.14
611.02	10.05
611.355	10.28
611.689	10.32
612.024	10.02
612.359	10.31
612.694	10.25
613.028	10.15
613.363	10.18
613.697	10.3
614.032	10.5
614.366	10.23
614.7	10.65
615.035	10.46
615.369	10.54
615.703	10.22
616.037	10.41
616.371	10.78
616.705	10.72
617.039	10.92
617.373	10.7
617.707	10.7
618.041	10.81
618.375	10.87
618.709	10.49
619.042	10.71
619.376	11.07
619.71	10.9
620.043	10.89
620.377	11.17
620.71	10.89
621.043	11.09
621.377	10.99
621.71	10.98
622.043	10.92
622.376	10.95
622.709	10.95
623.043	10.91
623.376	11.06
623.709	10.93
624.041	11.37
624.374	11.2
624.707	11.45
625.04	11.47
625.373	11.23
625.705	11.67
626.038	11.62
626.37	11.55
626.703	11.14
627.035	11.47
627.368	11.81
627.7	11.95
628.032	11.55
628.365	11.47
628.697	11.71
629.029	11.56
629.361	11.67
629.693	11.86
630.025	11.63
630.357	11.83
630.689	12.1
631.021	11.93
631.353	11.95
631.684	12.07
632.016	11.93
632.348	12.27
632.679	11.83
633.011	11.86
633.342	11.9
633.674	12.42
634.005	12.26
634.336	12.03
634.668	12.17
634.999	11.95
635.33	12.43
635.661	12.32
635.992	12.12
636.323	12.45
636.654	12.36
636.985	12.88
637.316	12.55
637.647	12.39
637.977	12.29
638.308	12.81
638.639	12.73
638.969	12.63
639.3	12.99
639.63	12.74
639.961	12.9
640.291	12.73
640.622	12.83
640.952	12.76
641.282	12.87
641.612	13.15
641.943	13.51
642.273	13.05
642.603	13.47
642.933	12.85
643.263	13.01
643.592	12.75
643.922	12.66
644.252	12.63
644.582	13.04
644.911	13.34
645.241	13.25
645.571	13.67
645.9	13.52
646.23	13.1
646.559	13.19
646.888	13.43
647.218	14.01
647.547	13.42
647.876	13.9
648.205	13.59
648.534	13.38
648.863	13.64
649.192	13.84
649.521	13.61
649.85	14.01
650.179	13.77
650.508	13.63
650.837	14.7
651.165	13.77
651.494	14.15
651.822	13.64
652.151	13.93
652.479	13.97
652.808	13.88
653.136	14.16
653.465	13.77
653.793	13.74
654.121	14.41
654.449	14
654.777	14.43
655.105	14.41
655.433	13.89
655.761	14.52
656.089	14.2
656.417	14.18
656.745	14.18
657.073	14.46
657.4	14.34
657.728	15.05
658.056	14.35
658.383	14.51
658.711	14.61
659.038	14.38
659.365	14.47
659.693	14.43
660.02	14.36
660.347	15.11
660.674	14.62
661.001	14.62
661.329	14.75
661.656	14.74
661.982	14.98
662.309	14.78
662.636	14.79
662.963	15.1
663.29	15.27
663.616	15.28
663.943	15.37
664.27	14.99
664.596	15.03
664.923	14.97
665.249	15.37
665.576	15.15
665.902	14.99
666.228	15.03
666.554	15.43
666.881	15.83
667.207	15.43
667.533	15.38
667.859	16.02
668.185	15.66
668.511	14.97
668.837	15.66
669.162	15.73
669.488	15.9
669.814	15.95
670.139	15.5
670.465	15.55
670.791	15.38
671.116	16.1
671.442	15.78
671.767	15.78
672.092	15.7
672.418	15.78
672.743	16.42
673.068	16.8
673.393	15.87
673.718	16.39
674.043	15.81
674.368	16.54
674.693	17.17
675.018	16.08
675.343	16.43
675.667	16.06
675.992	17.38
676.317	16.33
676.641	16.36
676.966	16.14
677.29	16.38
677.615	17.15
677.939	16.89
678.264	17.05
678.588	15.9
678.912	16.44
679.236	16.74
679.56	16.96
679.885	17.15
680.209	16.63
680.532	17.03
680.856	16.77
681.18	16.83
681.504	17.68
681.828	17.3
682.152	16.79
682.475	17.37
682.799	16.79
683.122	17.04
683.446	17.34
683.769	18
684.093	17.03
684.416	17.63
684.739	17.24
685.062	17.39
685.386	17.49
685.709	17.62
686.032	17.9
686.355	17.19
686.678	17.78
687.001	17.43
