Data from 815655_crown_Reflection__3__153.txt Node

Date: Fri Sep 16 15:56:33 CDT 2022
User: ToomeyLab
Spectrometer: FLMS14357
Trigger mode: 0
Integration Time (sec): 1.000000E-2
Scans to average: 100
Electric dark correction enabled: true
Nonlinearity correction enabled: false
Boxcar width: 0
XAxis mode: Wavelengths
Number of Pixels in Spectrum: 2048
>>>>>Begin Spectral Data<<<<<
189.047	214.51
189.435	214.51
189.823	214.51
190.211	2391.03
190.599	-31.77
190.987	94.8
191.375	100.44
191.763	464.62
192.151	-80.44
192.538	45.3
192.926	-51.55
193.314	-95.41
193.702	78.05
194.089	36.44
194.477	-11.35
194.864	45.25
195.252	-2119.33
195.639	66.58
196.027	793.46
196.414	-162.54
196.801	28.89
197.189	559.64
197.576	-44
197.963	-118.96
198.351	-22.37
198.738	-40.94
199.125	-1.13
199.512	-108.04
199.899	30.78
200.286	-61.33
200.673	-18.51
201.06	3.53
201.447	3.93
201.833	7.2
202.22	-14.6
202.607	6.13
202.994	34.17
203.38	-18.51
203.767	4.84
204.154	21.71
204.54	-30.98
204.927	-26.67
205.313	49.5
205.699	20.51
206.086	-2.72
206.472	12.36
206.858	-7.89
207.245	-27.32
207.631	10.07
208.017	5.51
208.403	-24.18
208.789	15.65
209.175	11.58
209.561	-17.85
209.947	-29.85
210.333	-12.49
210.719	8.76
211.105	-15.31
211.491	-6.5
211.876	-19.43
212.262	1.49
212.648	0.03
213.034	-28.33
213.419	-10.62
213.805	-6.02
214.19	8.99
214.576	-4.43
214.961	1.92
215.346	-16.89
215.732	-27.14
216.117	-10.8
216.502	-29.02
216.888	-35.87
217.273	-12.63
217.658	-5.05
218.043	-55.63
218.428	3.02
218.813	12.16
219.198	-17.49
219.583	-11.17
219.968	-3.69
220.353	-5.35
220.738	11.84
221.122	-18.26
221.507	14.02
221.892	7.11
222.276	25.75
222.661	3.43
223.046	13.72
223.43	10.56
223.815	-5.98
224.199	6.4
224.583	-2.02
224.968	3.52
225.352	4.23
225.736	14.81
226.121	8.78
226.505	7.37
226.889	6.65
227.273	3.67
227.657	7.86
228.041	4.36
228.425	-4.55
228.809	8.49
229.193	5.69
229.577	5.98
229.961	4.91
230.344	6.36
230.728	5.55
231.112	4.74
231.495	4.52
231.879	4.79
232.263	5.41
232.646	4.42
233.03	6.78
233.413	5.76
233.797	5.06
234.18	5.91
234.563	5.05
234.946	5.72
235.33	4.38
235.713	5.73
236.096	4.71
236.479	4.58
236.862	5.11
237.245	4.97
237.628	7.22
238.011	5.98
238.394	4.37
238.777	5.82
239.16	5.73
239.543	7.32
239.925	5.57
240.308	4.38
240.691	5.6
241.073	5.69
241.456	4.7
241.838	4.71
242.221	4.59
242.603	5.54
242.986	4.3
243.368	5.39
243.75	5.32
244.133	5.84
244.515	5.3
244.897	5.58
245.279	5.16
245.661	5.38
246.043	5.12
246.425	5.03
246.807	5.23
247.189	5.19
247.571	4.99
247.953	5.38
248.335	5.62
248.717	5.25
249.098	5.32
249.48	5.09
249.862	4.86
250.243	5.29
250.625	5.41
251.006	5.35
251.388	5.3
251.769	4.95
252.151	5.32
252.532	4.11
252.913	5.79
253.295	5.68
253.676	5.57
254.057	4.6
254.438	4.34
254.819	4.1
255.2	4.4
255.581	4.81
255.962	4.68
256.343	5.32
256.724	4.36
257.105	3.42
257.486	4.68
257.867	4.65
258.247	4.75
258.628	5.67
259.009	5.2
259.389	4.95
259.77	4.3
260.15	5.49
260.531	5.1
260.911	5.12
261.292	5.09
261.672	5.12
262.052	4.53
262.432	4.7
262.813	5.65
263.193	5.32
263.573	5.7
263.953	5.2
264.333	5.33
264.713	4.34
265.093	4.39
265.473	4.83
265.853	6.25
266.233	4.8
266.612	5.92
266.992	4.03
267.372	5.26
267.752	4.28
268.131	4.93
268.511	5.13
268.89	4.96
269.27	4.15
269.649	5.13
270.029	5.02
270.408	5.6
270.787	4.61
271.167	4.17
271.546	5.04
271.925	4.9
272.304	4.85
272.683	4.82
273.062	4.73
273.441	4.77
273.82	4.63
274.199	4.8
274.578	5.07
274.957	5.01
275.336	4.57
275.715	4.45
276.093	4.74
276.472	4.58
276.851	4.56
277.229	4.72
277.608	4.96
277.986	5.24
278.365	4.4
278.743	4.68
279.122	4.46
279.5	4.14
279.878	4.59
280.257	4.32
280.635	4.85
281.013	4.45
281.391	5.01
281.769	4.82
282.147	4.94
282.525	4.1
282.903	4.75
283.281	4.64
283.659	4.66
284.037	4.74
284.415	4.79
284.792	5.05
285.17	4.42
285.548	4.36
285.925	4.61
286.303	4.87
286.68	4.28
287.058	4.35
287.435	4.38
287.813	4.82
288.19	4.13
288.567	4.05
288.945	4.34
289.322	4.68
289.699	4.53
290.076	4.18
290.453	4.52
290.83	4.57
291.207	4.31
291.584	4.26
291.961	4.37
292.338	4.38
292.715	4.18
293.092	4.26
293.469	4.46
293.845	4.22
294.222	3.61
294.599	3.89
294.975	3.98
295.352	4.65
295.728	4.22
296.105	4.45
296.481	3.61
296.858	4.19
297.234	4.01
297.61	4.53
297.986	4.46
298.363	4.12
298.739	3.86
299.115	4.43
299.491	4.15
299.867	4.25
300.243	4.14
300.619	4.21
300.995	3.95
301.371	4.13
301.746	4
302.122	4.46
302.498	4.26
302.874	4.18
303.249	4.27
303.625	4.09
304	4.3
304.376	3.75
304.751	3.99
305.127	3.76
305.502	3.96
305.878	4.16
306.253	4.15
306.628	3.83
307.003	4.27
307.378	4.51
307.754	4
308.129	4.67
308.504	4.46
308.879	4.59
309.254	4.02
309.629	3.79
310.003	4.18
310.378	3.65
310.753	4.02
311.128	4.04
311.502	3.66
311.877	4.01
312.252	3.91
312.626	4.09
313.001	3.91
313.375	3.94
313.75	3.9
314.124	3.9
314.498	3.68
314.873	4.34
315.247	3.88
315.621	3.79
315.995	3.87
316.369	3.85
316.743	4.27
317.117	3.45
317.491	3.55
317.865	3.8
318.239	3.68
318.613	3.09
318.987	3.47
319.361	3.66
319.734	3.71
320.108	3.49
320.482	4.29
320.855	3.99
321.229	3.7
321.602	3.51
321.976	3.65
322.349	3.61
322.723	3.36
323.096	3.27
323.469	3.78
323.843	4.05
324.216	4.13
324.589	3.98
324.962	3.46
325.335	3.91
325.708	3.96
326.081	3.5
326.454	3.66
326.827	3.87
327.2	3.79
327.573	3.38
327.945	3.89
328.318	3.8
328.691	3.49
329.063	3.22
329.436	3.45
329.809	3.19
330.181	3.56
330.553	3.68
330.926	3.85
331.298	3.54
331.671	3.74
332.043	3.54
332.415	3.41
332.787	3.51
333.159	3.24
333.532	3.69
333.904	3.64
334.276	3.71
334.648	3.7
335.02	3.83
335.391	3.88
335.763	3.27
336.135	2.8
336.507	3.43
336.879	3.76
337.25	2.93
337.622	3.73
337.993	3.57
338.365	3.56
338.736	4.08
339.108	3.84
339.479	3.83
339.851	3.58
340.222	3.69
340.593	3.66
340.964	3.97
341.336	3.67
341.707	3.12
342.078	3.75
342.449	3.54
342.82	3.48
343.191	3.34
343.562	3.49
343.933	3.73
344.303	4.17
344.674	3.09
345.045	3.94
345.416	3.69
345.786	3.73
346.157	3.64
346.527	3.44
346.898	3.35
347.268	3.64
347.639	3.56
348.009	3.62
348.38	3.66
348.75	3.23
349.12	3.81
349.49	3.77
349.861	3.52
350.231	3.42
350.601	3.61
350.971	3.62
351.341	3.95
351.711	3.53
352.081	3.72
352.45	3.97
352.82	3.95
353.19	3.41
353.56	3.9
353.929	3.93
354.299	3.66
354.669	3.96
355.038	3.58
355.408	3.73
355.777	3.62
356.147	3.82
356.516	3.53
356.885	3.68
357.254	3.86
357.624	3.55
357.993	3.86
358.362	3.39
358.731	3.83
359.1	3.73
359.469	3.66
359.838	3.42
360.207	3.88
360.576	3.66
360.945	3.6
361.314	3.83
361.682	3.6
362.051	3.86
362.42	3.99
362.788	4.03
363.157	3.96
363.525	3.74
363.894	3.93
364.262	3.68
364.631	3.71
364.999	3.76
365.367	3.8
365.735	4.14
366.104	4.06
366.472	4.01
366.84	4.15
367.208	4.01
367.576	3.72
367.944	3.52
368.312	3.85
368.68	3.71
369.048	3.93
369.416	3.97
369.783	3.8
370.151	4.18
370.519	3.86
370.886	3.59
371.254	3.59
371.621	3.98
371.989	3.9
372.356	3.88
372.724	3.99
373.091	3.72
373.458	3.65
373.826	3.91
374.193	4.13
374.56	3.65
374.927	3.87
375.294	4.02
375.661	4.04
376.028	4.18
376.395	3.54
376.762	4.5
377.129	3.81
377.496	3.84
377.863	3.75
378.229	4.11
378.596	3.85
378.963	4.05
379.329	4.08
379.696	4.11
380.062	4
380.429	3.9
380.795	4.22
381.161	4.2
381.528	4.24
381.894	4.04
382.26	4.2
382.626	3.93
382.993	3.98
383.359	3.67
383.725	3.97
384.091	4.07
384.457	3.84
384.823	3.76
385.188	3.86
385.554	3.78
385.92	3.85
386.286	4.28
386.651	4.05
387.017	4.07
387.383	3.68
387.748	3.88
388.114	3.84
388.479	3.94
388.845	4.27
389.21	4.36
389.575	4.07
389.94	4.37
390.306	4.11
390.671	4.07
391.036	3.94
391.401	4.26
391.766	4.26
392.131	4.43
392.496	3.92
392.861	4.15
393.226	4.25
393.591	4.19
393.956	4.08
394.32	4.42
394.685	4.05
395.05	4.29
395.414	4.06
395.779	3.99
396.143	4.24
396.508	4.16
396.872	4.19
397.236	4.31
397.601	4.14
397.965	3.94
398.329	4.13
398.694	4.22
399.058	4.38
399.422	4.17
399.786	4.29
400.15	4.38
400.514	4.23
400.878	4.24
401.242	4.21
401.605	4.18
401.969	4.17
402.333	4.29
402.697	4.26
403.06	4.26
403.424	4.32
403.787	4.09
404.151	4.31
404.514	4.11
404.878	4.06
405.241	4.17
405.604	4.31
405.968	4.4
406.331	4.24
406.694	4.21
407.057	4.21
407.42	4.21
407.783	4.15
408.146	4.69
408.509	4.46
408.872	4.31
409.235	4.49
409.598	4.24
409.961	4.33
410.323	4.27
410.686	4.39
411.049	4.12
411.411	4.05
411.774	4.38
412.136	4.25
412.499	4.28
412.861	4.25
413.223	4.38
413.586	4.4
413.948	4.34
414.31	4.5
414.672	4.31
415.035	4.55
415.397	4.11
415.759	4.38
416.121	4.32
416.483	4.33
416.845	4.61
417.206	4.49
417.568	4.63
417.93	4.59
418.292	4.44
418.653	4.31
419.015	4.35
419.377	4.45
419.738	4.41
420.1	4.41
420.461	4.42
420.822	4.29
421.184	4.41
421.545	4.38
421.906	4.3
422.267	4.41
422.629	4.36
422.99	4.32
423.351	4.37
423.712	4.43
424.073	4.45
424.434	4.45
424.795	4.47
425.155	4.45
425.516	4.47
425.877	4.38
426.238	4.3
426.598	4.35
426.959	4.35
427.32	4.26
427.68	4.52
428.041	4.39
428.401	4.36
428.761	4.77
429.122	4.58
429.482	4.46
429.842	4.45
430.202	4.57
430.563	4.6
430.923	4.7
431.283	4.67
431.643	4.89
432.003	4.51
432.363	4.67
432.722	4.61
433.082	4.51
433.442	4.62
433.802	4.61
434.161	4.41
434.521	4.65
434.881	4.52
435.24	4.56
435.6	4.66
435.959	4.58
436.319	4.64
436.678	4.67
437.037	4.45
437.396	4.57
437.756	4.71
438.115	4.61
438.474	4.45
438.833	4.63
439.192	4.61
439.551	4.53
439.91	4.71
440.269	4.76
440.628	4.48
440.987	4.57
441.345	4.61
441.704	4.7
442.063	4.83
442.421	4.65
442.78	4.51
443.138	4.57
443.497	4.47
443.855	4.56
444.214	4.57
444.572	4.57
444.93	4.62
445.288	4.54
445.647	4.66
446.005	4.56
446.363	4.72
446.721	4.64
447.079	4.54
447.437	4.6
447.795	4.66
448.153	4.63
448.51	4.57
448.868	4.52
449.226	4.51
449.584	4.68
449.941	4.51
450.299	4.63
450.656	4.64
451.014	4.65
451.371	4.82
451.729	4.66
452.086	4.51
452.443	4.61
452.801	4.79
453.158	4.76
453.515	4.6
453.872	4.58
454.229	4.73
454.586	4.79
454.943	4.57
455.3	4.73
455.657	4.55
456.014	4.74
456.371	4.66
456.727	4.76
457.084	4.9
457.441	4.75
457.797	4.8
458.154	4.85
458.51	4.85
458.867	4.66
459.223	4.65
459.58	4.73
459.936	4.85
460.292	4.89
460.648	4.77
461.005	4.84
461.361	4.7
461.717	4.7
462.073	4.69
462.429	4.67
462.785	4.67
463.141	4.58
463.496	4.8
463.852	4.8
464.208	4.8
464.564	4.65
464.919	4.75
465.275	4.86
465.631	4.78
465.986	4.61
466.342	4.95
466.697	4.9
467.052	4.81
467.408	4.82
467.763	4.87
468.118	4.86
468.473	4.86
468.829	4.76
469.184	4.78
469.539	4.84
469.894	4.8
470.249	4.93
470.603	4.81
470.958	4.68
471.313	4.91
471.668	4.75
472.023	4.69
472.377	4.83
472.732	4.69
473.086	4.71
473.441	4.64
473.795	4.78
474.15	4.76
474.504	5.05
474.859	4.82
475.213	4.73
475.567	4.5
475.921	4.87
476.275	4.79
476.63	4.91
476.984	4.87
477.338	4.88
477.692	4.91
478.045	4.88
478.399	4.96
478.753	4.89
479.107	4.76
479.461	4.92
479.814	4.87
480.168	4.82
480.521	4.87
480.875	4.93
481.228	4.8
481.582	4.87
481.935	4.85
482.289	4.93
482.642	4.84
482.995	4.84
483.348	4.94
483.701	4.84
484.055	4.82
484.408	4.93
484.761	4.81
485.114	4.76
485.466	4.75
485.819	4.72
486.172	4.63
486.525	4.59
486.878	4.56
487.23	4.67
487.583	4.71
487.936	4.72
488.288	4.78
488.641	4.73
488.993	4.8
489.345	4.73
489.698	4.71
490.05	4.66
490.402	4.7
490.754	4.78
491.107	4.71
491.459	4.81
491.811	4.67
492.163	4.8
492.515	4.82
492.866	4.86
493.218	4.77
493.57	4.74
493.922	4.75
494.274	4.69
494.625	4.68
494.977	4.72
495.328	4.82
495.68	4.77
496.031	4.9
496.383	4.93
496.734	4.9
497.086	4.9
497.437	4.97
497.788	4.98
498.139	4.95
498.49	5.01
498.842	4.89
499.193	4.88
499.544	4.93
499.894	4.8
500.245	4.9
500.596	4.87
500.947	5.04
501.298	4.96
501.648	4.93
501.999	4.99
502.35	5.03
502.7	5.02
503.051	5.01
503.401	4.92
503.752	5
504.102	4.93
504.452	4.93
504.803	5
505.153	5
505.503	5.06
505.853	5
506.203	5.02
506.553	4.89
506.903	4.93
507.253	4.93
507.603	5.08
507.953	5.03
508.303	5.06
508.652	4.99
509.002	4.95
509.352	5.05
509.701	4.99
510.051	5.02
510.4	5.01
510.75	4.98
511.099	4.98
511.449	4.88
511.798	4.95
512.147	4.98
512.496	5.05
512.846	4.99
513.195	4.94
513.544	4.99
513.893	5.01
514.242	5.07
514.591	5.04
514.939	5.04
515.288	5.06
515.637	5.07
515.986	5.02
516.334	4.96
516.683	5.07
517.032	5.02
517.38	5.2
517.729	5.06
518.077	5.08
518.426	5.16
518.774	5.1
519.122	5.07
519.47	5.08
519.819	4.98
520.167	4.99
520.515	4.94
520.863	5.05
521.211	5.03
521.559	4.98
521.907	5.02
522.255	5.05
522.602	5.08
522.95	5.1
523.298	5.08
523.645	5.1
523.993	5.12
524.341	5.07
524.688	5.17
525.036	5.11
525.383	5.05
525.73	5.15
526.078	5.09
526.425	5.1
526.772	5.07
527.119	5.05
527.466	5.13
527.814	5.06
528.161	5
528.508	5.04
528.854	5.06
529.201	5.06
529.548	5.1
529.895	5.03
530.242	5.01
530.588	4.98
530.935	4.93
531.282	4.88
531.628	4.84
531.975	4.89
532.321	4.98
532.667	5
533.014	5.08
533.36	5.01
533.706	5.05
534.052	5.05
534.399	5.17
534.745	5.11
535.091	5.03
535.437	4.98
535.783	5
536.129	5.05
536.474	4.96
536.82	4.95
537.166	5.08
537.512	5.21
537.857	5.04
538.203	5.05
538.549	5.08
538.894	5.01
539.239	5.09
539.585	5.02
539.93	4.95
540.276	5.19
540.621	5.23
540.966	5.07
541.311	5.12
541.656	5.23
542.001	5.18
542.346	5.18
542.691	5.15
543.036	5.1
543.381	5.01
543.726	5.04
544.071	4.96
544.415	4.99
544.76	5
545.105	5.08
545.449	5.08
545.794	5.14
546.138	5.11
546.483	5.19
546.827	5.25
547.171	5.21
547.516	5.09
547.86	5.23
548.204	5.23
548.548	5.15
548.892	5
549.236	5.15
549.58	5.25
549.924	5.19
550.268	5.18
550.612	5.22
550.956	5.1
551.3	5.3
551.643	5.34
551.987	5.34
552.33	5.21
552.674	5.14
553.017	5.26
553.361	5.24
553.704	5.42
554.048	5.27
554.391	5.44
554.734	5.29
555.077	5.26
555.42	5.46
555.764	5.38
556.107	5.46
556.45	5.26
556.793	5.35
557.135	5.17
557.478	5.19
557.821	5.18
558.164	5.37
558.507	5.29
558.849	5.25
559.192	5.31
559.534	5.39
559.877	5.09
560.219	5.16
560.562	5.41
560.904	5.37
561.246	5.33
561.589	5.41
561.931	5.16
562.273	5.27
562.615	5.38
562.957	5.38
563.299	5.35
563.641	5.27
563.983	5.43
564.325	5.2
564.667	5.13
565.008	5.52
565.35	5.15
565.692	5.47
566.033	5.39
566.375	5.34
566.716	5.33
567.058	5.37
567.399	5.44
567.741	5.39
568.082	5.47
568.423	5.13
568.764	5.33
569.105	5.36
569.447	5.26
569.788	5.35
570.129	5.44
570.47	5.37
570.811	5.43
571.151	5.4
571.492	5.38
571.833	5.29
572.174	5.45
572.514	5.43
572.855	5.33
573.195	5.46
573.536	5.42
573.876	5.49
574.217	5.43
574.557	5.45
574.898	5.38
575.238	5.42
575.578	5.31
575.918	5.55
576.258	5.51
576.598	5.29
576.938	5.29
577.278	5.42
577.618	5.27
577.958	5.29
578.298	5.34
578.638	5.22
578.977	5.4
579.317	5.41
579.657	5.32
579.996	5.5
580.336	5.39
580.675	5.39
581.014	5.59
581.354	5.4
581.693	5.24
582.032	5.39
582.372	5.43
582.711	5.56
583.05	5.39
583.389	5.52
583.728	5.41
584.067	5.52
584.406	5.55
584.745	5.53
585.083	5.52
585.422	5.55
585.761	5.57
586.1	5.2
586.438	5.57
586.777	5.12
587.115	5.21
587.454	5.55
587.792	5.31
588.13	5.79
588.469	5.61
588.807	5.26
589.145	5.37
589.483	5.5
589.821	5.65
590.159	5.37
590.497	5.45
590.835	5.73
591.173	5.75
591.511	5.31
591.849	5.45
592.187	5.44
592.524	5.35
592.862	5.51
593.2	5.18
593.537	5.53
593.875	5.52
594.212	5.48
594.55	5.31
594.887	5.59
595.224	5.4
595.561	5.47
595.899	5.6
596.236	5.72
596.573	5.27
596.91	5.46
597.247	5.61
597.584	5.3
597.921	5.63
598.258	5.47
598.594	5.29
598.931	5.42
599.268	5.64
599.604	5.33
599.941	5.34
600.277	5.47
600.614	5.57
600.95	5.51
601.287	5.5
601.623	5.52
601.959	5.44
602.296	5.28
602.632	5.44
602.968	5.37
603.304	5.4
603.64	5.71
603.976	5.52
604.312	5.68
604.648	5.71
604.984	5.43
605.319	5.53
605.655	5.79
605.991	5.57
606.326	5.52
606.662	5.51
606.998	5.61
607.333	5.58
607.668	5.57
608.004	5.27
608.339	5.43
608.674	5.57
609.01	5.5
609.345	5.6
609.68	5.67
610.015	5.56
610.35	5.62
610.685	5.62
611.02	5.62
611.355	5.57
611.689	5.64
612.024	5.68
612.359	5.71
612.694	5.52
613.028	5.44
613.363	5.48
613.697	5.44
614.032	5.57
614.366	5.31
614.7	5.91
615.035	5.75
615.369	5.46
615.703	5.55
616.037	5.64
616.371	5.81
616.705	5.98
617.039	5.75
617.373	5.5
617.707	5.6
618.041	5.68
618.375	5.45
618.709	5.8
619.042	5.48
619.376	5.81
619.71	5.89
620.043	5.87
620.377	5.67
620.71	5.68
621.043	5.85
621.377	5.66
621.71	5.42
622.043	5.52
622.376	5.82
622.709	5.55
623.043	5.62
623.376	5.4
623.709	5.41
624.041	5.75
624.374	5.54
624.707	5.71
625.04	5.97
625.373	5.37
625.705	5.75
626.038	6.03
626.37	5.95
626.703	5.39
627.035	5.45
627.368	5.75
627.7	5.82
628.032	5.51
628.365	5.7
628.697	5.61
629.029	6.05
629.361	5.54
629.693	5.64
630.025	5.63
630.357	5.64
630.689	5.83
631.021	5.65
631.353	5.62
631.684	5.74
632.016	5.62
632.348	5.81
632.679	5.3
633.011	5.7
633.342	5.62
633.674	5.85
634.005	5.52
634.336	5.4
634.668	5.76
634.999	5.51
635.33	5.59
635.661	5.51
635.992	5.51
636.323	5.92
636.654	5.65
636.985	5.58
637.316	5.44
637.647	5.48
637.977	5.43
638.308	5.62
638.639	5.67
638.969	5.89
639.3	5.88
639.63	5.65
639.961	5.58
640.291	5.61
640.622	5.67
640.952	5.89
641.282	5.97
641.612	5.38
641.943	5.75
642.273	5.71
642.603	5.68
642.933	5.5
643.263	5.82
643.592	5.52
643.922	5.54
644.252	5.65
644.582	5.56
644.911	5.64
645.241	5.63
645.571	6.09
645.9	6.23
646.23	5.28
646.559	5.59
646.888	5.81
647.218	5.98
647.547	5.64
647.876	5.73
648.205	6.13
648.534	5.57
648.863	5.5
649.192	5.68
649.521	5.43
649.85	5.97
650.179	5.7
650.508	5.97
650.837	5.75
651.165	5.37
651.494	5.92
651.822	5.59
652.151	5.97
652.479	5.87
652.808	6.17
653.136	5.97
653.465	5.89
653.793	5.4
654.121	6.26
654.449	5.95
654.777	6.26
655.105	6.24
655.433	5.64
655.761	5.89
656.089	5.31
656.417	5.44
656.745	5.56
657.073	5.79
657.4	5.73
657.728	6.01
658.056	5.43
658.383	5.61
658.711	6.14
659.038	5.92
659.365	5.71
659.693	5.77
660.02	5.73
660.347	5.84
660.674	5.8
661.001	5.9
661.329	5.74
661.656	5.68
661.982	6.03
662.309	6.05
662.636	6.03
662.963	5.73
663.29	6.43
663.616	6.17
663.943	6.22
664.27	5.45
664.596	5.95
664.923	5.8
665.249	6
665.576	6.14
665.902	6.28
666.228	5.3
666.554	6.24
666.881	6.12
667.207	6.23
667.533	6.03
667.859	6.19
668.185	5.83
668.511	6.01
668.837	5.73
669.162	6.3
669.488	6.8
669.814	5.83
670.139	5.87
670.465	6.01
670.791	5.38
671.116	6.14
671.442	6.28
671.767	5.95
672.092	5.7
672.418	5.78
672.743	6.15
673.068	6.28
673.393	5.54
673.718	6.36
674.043	5.95
674.368	5.6
674.693	6.69
675.018	6.02
675.343	5.89
675.667	5.82
675.992	5.98
676.317	5.92
676.641	5.95
676.966	6.19
677.29	5.94
677.615	6.09
677.939	5.84
678.264	6.03
678.588	6.09
678.912	5.75
679.236	6.04
679.56	6.08
679.885	6.15
680.209	5.88
680.532	6.34
680.856	6.06
681.18	6.17
681.504	6.1
681.828	5.7
682.152	6.15
682.475	6.33
682.799	6.04
683.122	5.92
683.446	6.38
683.769	6.05
684.093	6.56
684.416	6.22
684.739	5.7
685.062	6.01
685.386	6.07
685.709	6
686.032	6.62
686.355	5.54
686.678	6.54
687.001	6.01
687.324	6.24
687.646	6.87
687.969	6.06
688.292	5.83
688.614	5.49
688.937	6.33
689.26	7.06
689.582	5.31
689.904	5.44
690.227	6.71
690.549	5.85
690.871	6.49
691.194	6.44
691.516	6.5
691.838	6.08
692.16	6.82
692.482	6.2
