Data from 815655_forehead_Reflection__0__145.txt Node

Date: Fri Sep 16 15:52:50 CDT 2022
User: ToomeyLab
Spectrometer: FLMS14357
Trigger mode: 0
Integration Time (sec): 1.000000E-2
Scans to average: 100
Electric dark correction enabled: true
Nonlinearity correction enabled: false
Boxcar width: 0
XAxis mode: Wavelengths
Number of Pixels in Spectrum: 2048
>>>>>Begin Spectral Data<<<<<
189.047	367.21
189.435	367.21
189.823	367.21
190.211	1395.73
190.599	-72.28
190.987	131.62
191.375	162.42
191.763	1220.47
192.151	121.9
192.538	4.04
192.926	-14.01
193.314	87.76
193.702	98.11
194.089	200.05
194.477	59.55
194.864	160.7
195.252	286.67
195.639	6.45
196.027	312.35
196.414	4.81
196.801	137.56
197.189	183.02
197.576	71.45
197.963	92.53
198.351	-8.59
198.738	0.46
199.125	39.97
199.512	-42.41
199.899	15.13
200.286	35.85
200.673	-23.29
201.06	34.51
201.447	35.35
201.833	58.08
202.22	38.34
202.607	-37.87
202.994	57.12
203.38	-4.52
203.767	31.75
204.154	25.06
204.54	23.56
204.927	13.67
205.313	36.51
205.699	63.69
206.086	27.19
206.472	23.28
206.858	5.12
207.245	16.57
207.631	49.79
208.017	5.85
208.403	-5.37
208.789	34.35
209.175	45.51
209.561	-7.92
209.947	-13.59
210.333	47.19
210.719	13.13
211.105	32.72
211.491	71.07
211.876	48.14
212.262	35.54
212.648	4.12
213.034	46.71
213.419	14.8
213.805	34.24
214.19	41.37
214.576	42.44
214.961	-13.45
215.346	-22.99
215.732	-61.67
216.117	31.88
216.502	-17.18
216.888	-10.27
217.273	-2.78
217.658	12.65
218.043	-33.42
218.428	27.02
218.813	30.9
219.198	3.11
219.583	14.14
219.968	22.07
220.353	-4.71
220.738	10.62
221.122	-0.7
221.507	18.41
221.892	13.79
222.276	2.82
222.661	20.92
223.046	16.42
223.43	14.87
223.815	-3.2
224.199	16.33
224.583	11.39
224.968	14.9
225.352	2.59
225.736	20.55
226.121	8.48
226.505	7.55
226.889	10.38
227.273	9.64
227.657	7.45
228.041	0.93
228.425	-1.35
228.809	10.09
229.193	4.84
229.577	4.31
229.961	3.45
230.344	4.47
230.728	4.44
231.112	3.75
231.495	3.98
231.879	5.12
232.263	3.02
232.646	3.52
233.03	5.39
233.413	6.2
233.797	4.72
234.18	5.82
234.563	4.77
234.946	3.04
235.33	4.25
235.713	4.61
236.096	4.59
236.479	4.32
236.862	4.27
237.245	4.16
237.628	6.05
238.011	6.71
238.394	4.65
238.777	6.7
239.16	5.39
239.543	6.49
239.925	6.5
240.308	3.93
240.691	5.71
241.073	4.94
241.456	3.01
241.838	3.33
242.221	3.49
242.603	3.75
242.986	3.04
243.368	4.13
243.75	3.87
244.133	4.19
244.515	3.78
244.897	4.58
245.279	4.33
245.661	4.76
246.043	4.15
246.425	4.01
246.807	4.29
247.189	3.59
247.571	3.98
247.953	3.92
248.335	4.12
248.717	4
249.098	3.94
249.48	3.92
249.862	3.59
250.243	4.49
250.625	4.54
251.006	4.18
251.388	4.55
251.769	3.66
252.151	4.04
252.532	4.86
252.913	4.2
253.295	4.43
253.676	4.7
254.057	3.69
254.438	3.33
254.819	3.31
255.2	3.86
255.581	4.44
255.962	4.51
256.343	4.48
256.724	4.16
257.105	3.61
257.486	3.7
257.867	5.01
258.247	5.44
258.628	4.89
259.009	4.28
259.389	3.85
259.77	3.78
260.15	3.95
260.531	4.16
260.911	4.02
261.292	3.98
261.672	3.91
262.052	3.76
262.432	3.52
262.813	4.24
263.193	4.17
263.573	4.19
263.953	4.36
264.333	4.26
264.713	4.16
265.093	4.03
265.473	4.16
265.853	4.57
266.233	3.95
266.612	4.54
266.992	3.51
267.372	3.62
267.752	3.49
268.131	4
268.511	4.24
268.89	4.67
269.27	3.24
269.649	4.05
270.029	3.85
270.408	4.45
270.787	3.99
271.167	4.13
271.546	4.18
271.925	4.31
272.304	4.17
272.683	4.06
273.062	3.81
273.441	4.15
273.82	3.6
274.199	3.87
274.578	3.94
274.957	4.06
275.336	4.09
275.715	4.31
276.093	3.86
276.472	3.23
276.851	4.42
277.229	4.11
277.608	4.3
277.986	4.57
278.365	3.19
278.743	3.75
279.122	3.62
279.5	3.3
279.878	3.7
280.257	4.03
280.635	4.38
281.013	3.33
281.391	4.42
281.769	4.33
282.147	4.16
282.525	3.73
282.903	4.19
283.281	3.85
283.659	4.38
284.037	3.88
284.415	4.8
284.792	4.07
285.17	4.31
285.548	4.08
285.925	3.51
286.303	4.3
286.68	3.92
287.058	3.93
287.435	4.17
287.813	4.28
288.19	4
288.567	4.08
288.945	4.4
289.322	4.48
289.699	4.33
290.076	4.19
290.453	4.62
290.83	4.46
291.207	4.03
291.584	3.84
291.961	4.24
292.338	4.34
292.715	4.32
293.092	4.44
293.469	4.31
293.845	4.3
294.222	4.46
294.599	4.55
294.975	4.15
295.352	4.69
295.728	4.57
296.105	5.34
296.481	4.23
296.858	4.69
297.234	4.89
297.61	5.03
297.986	4.8
298.363	4.68
298.739	4.61
299.115	4.99
299.491	4.73
299.867	4.7
300.243	4.73
300.619	5.47
300.995	5.17
301.371	4.89
301.746	4.61
302.122	5.45
302.498	5.05
302.874	4.85
303.249	5.38
303.625	4.61
304	5.04
304.376	5.27
304.751	5.43
305.127	5.04
305.502	5.55
305.878	5.72
306.253	5.54
306.628	5.43
307.003	5.81
307.378	5.63
307.754	5.49
308.129	6.26
308.504	5.71
308.879	6.43
309.254	6.19
309.629	5.77
310.003	5.9
310.378	5.54
310.753	5.98
311.128	6.29
311.502	5.98
311.877	6.06
312.252	6.38
312.626	6.12
313.001	6.42
313.375	6.6
313.75	6.18
314.124	6.16
314.498	6.4
314.873	6.81
315.247	5.9
315.621	6.72
315.995	6.61
316.369	6.83
316.743	7.16
317.117	6.88
317.491	6.73
317.865	7.54
318.239	6.97
318.613	7.03
318.987	6.88
319.361	6.51
319.734	6.99
320.108	7.16
320.482	7.82
320.855	6.79
321.229	7.49
321.602	7.52
321.976	7.32
322.349	7.69
322.723	7.08
323.096	7.39
323.469	7.33
323.843	8.09
324.216	7.8
324.589	8.03
324.962	7.75
325.335	7.76
325.708	8.13
326.081	7.64
326.454	7.93
326.827	7.63
327.2	7.71
327.573	7.67
327.945	8.11
328.318	7.69
328.691	7.89
329.063	7.82
329.436	8.22
329.809	7.74
330.181	8.6
330.553	8.56
330.926	8.21
331.298	8.62
331.671	8.33
332.043	8.39
332.415	8.97
332.787	7.97
333.159	8.38
333.532	9.18
333.904	8.83
334.276	9.06
334.648	8.65
335.02	9.06
335.391	8.84
335.763	8.07
336.135	8.52
336.507	9
336.879	9.4
337.25	8.64
337.622	8.95
337.993	9.17
338.365	9.06
338.736	9.51
339.108	9.2
339.479	9.19
339.851	9.15
340.222	9.82
340.593	9.49
340.964	10.04
341.336	9.48
341.707	9.46
342.078	9.57
342.449	9.88
342.82	9.69
343.191	9.76
343.562	9.66
343.933	9.83
344.303	9.76
344.674	9.23
345.045	10.19
345.416	9.95
345.786	9.87
346.157	10.42
346.527	9.96
346.898	9.85
347.268	10.1
347.639	9.98
348.009	10.38
348.38	10.48
348.75	10
349.12	10.38
349.49	10.66
349.861	10.85
350.231	10.26
350.601	10.41
350.971	10.6
351.341	10.81
351.711	10.86
352.081	10.32
352.45	11.13
352.82	11.36
353.19	10.42
353.56	10.87
353.929	11.04
354.299	10.68
354.669	10.7
355.038	10.86
355.408	10.99
355.777	11.19
356.147	11.31
356.516	11.39
356.885	11.4
357.254	11.56
357.624	11.38
357.993	11.36
358.362	11.4
358.731	11.63
359.1	11.66
359.469	11.2
359.838	11.46
360.207	11.77
360.576	11.6
360.945	11.25
361.314	11.68
361.682	11.32
362.051	11.76
362.42	12.16
362.788	12.14
363.157	12.16
363.525	11.9
363.894	12.06
364.262	11.97
364.631	12.21
364.999	12.05
365.367	11.83
365.735	12.46
366.104	12.47
366.472	12.68
366.84	12.47
367.208	12.61
367.576	12.65
367.944	12.37
368.312	12.43
368.68	12.72
369.048	12.9
369.416	12.53
369.783	12.94
370.151	13.02
370.519	12.96
370.886	13.01
371.254	12.75
371.621	12.81
371.989	12.98
372.356	12.94
372.724	13.14
373.091	13.22
373.458	13.46
373.826	13.14
374.193	13.56
374.56	13.08
374.927	12.81
375.294	13.44
375.661	13.31
376.028	13.78
376.395	13.39
376.762	13.97
377.129	13.58
377.496	13.74
377.863	13.91
378.229	13.97
378.596	13.68
378.963	14.01
379.329	13.84
379.696	14.26
380.062	13.68
380.429	13.95
380.795	14.09
381.161	14.52
381.528	14.42
381.894	14.11
382.26	14.32
382.626	14.41
382.993	14.04
383.359	14.23
383.725	14.6
384.091	14.35
384.457	14.35
384.823	14.86
385.188	14.76
385.554	14.61
385.92	14.58
386.286	14.69
386.651	14.82
387.017	15.03
387.383	14.83
387.748	14.55
388.114	14.63
388.479	15.04
388.845	14.71
389.21	15.29
389.575	14.95
389.94	15.27
390.306	15.25
390.671	15.24
391.036	15.3
391.401	15.38
391.766	15.43
392.131	15.51
392.496	15.24
392.861	15.5
393.226	15.68
393.591	15.65
393.956	15.51
394.32	15.9
394.685	15.27
395.05	15.89
395.414	15.24
395.779	15.77
396.143	15.87
396.508	15.71
396.872	15.81
397.236	15.86
397.601	15.83
397.965	15.69
398.329	16.14
398.694	16.04
399.058	16.41
399.422	16.14
399.786	16.42
400.15	16.38
400.514	16.42
400.878	16.41
401.242	16.45
401.605	16.52
401.969	16.41
402.333	16.47
402.697	16.37
403.06	16.69
403.424	16.57
403.787	16.75
404.151	16.65
404.514	16.59
404.878	16.87
405.241	16.68
405.604	16.93
405.968	17.06
406.331	16.69
406.694	16.71
407.057	16.75
407.42	16.72
407.783	17.3
408.146	17.37
408.509	17.29
408.872	17.39
409.235	17.22
409.598	17.3
409.961	17.45
410.323	17.53
410.686	17.74
411.049	17.33
411.411	17.34
411.774	17.73
412.136	17.46
412.499	17.57
412.861	17.56
413.223	17.62
413.586	17.88
413.948	17.81
414.31	17.86
414.672	17.74
415.035	17.78
415.397	17.78
415.759	18.19
416.121	18
416.483	18.38
416.845	18.23
417.206	18.24
417.568	18.29
417.93	18.33
418.292	18.19
418.653	18.07
419.015	18.37
419.377	18.2
419.738	18.32
420.1	18.36
420.461	18.35
420.822	18.3
421.184	18.25
421.545	18.26
421.906	18.38
422.267	18.42
422.629	18.16
422.99	18.25
423.351	18.4
423.712	18.39
424.073	18.41
424.434	18.63
424.795	18.76
425.155	18.73
425.516	18.62
425.877	18.6
426.238	18.6
426.598	18.63
426.959	18.77
427.32	18.77
427.68	18.96
428.041	18.99
428.401	19.05
428.761	19.39
429.122	19.1
429.482	19.2
429.842	19.31
430.202	19.6
430.563	19.48
430.923	19.48
431.283	19.58
431.643	19.87
432.003	19.46
432.363	19.53
432.722	19.7
433.082	19.84
433.442	19.78
433.802	19.75
434.161	19.87
434.521	19.87
434.881	19.74
435.24	19.81
435.6	19.9
435.959	19.88
436.319	19.97
436.678	20.03
437.037	20.08
437.396	20.11
437.756	20.2
438.115	20.3
438.474	20.12
438.833	20.22
439.192	20.17
439.551	20.27
439.91	20.26
440.269	20.49
440.628	20.5
440.987	20.45
441.345	20.5
441.704	20.59
442.063	20.62
442.421	20.43
442.78	20.37
443.138	20.45
443.497	20.57
443.855	20.49
444.214	20.76
444.572	20.73
444.93	21.02
445.288	20.73
445.647	20.96
446.005	20.92
446.363	21.02
446.721	20.92
447.079	20.95
447.437	20.97
447.795	20.91
448.153	20.89
448.51	20.87
448.868	20.91
449.226	20.88
449.584	21.15
449.941	21.15
450.299	21.23
450.656	21.38
451.014	21.61
451.371	21.33
451.729	21.53
452.086	21.51
452.443	21.45
452.801	21.69
453.158	21.68
453.515	21.74
453.872	21.71
454.229	21.82
454.586	21.8
454.943	21.61
455.3	21.97
455.657	21.8
456.014	21.97
456.371	22.09
456.727	22.21
457.084	22.17
457.441	22.3
457.797	22.35
458.154	22.3
458.51	22.2
458.867	22.19
459.223	22.23
459.58	22.41
459.936	22.49
460.292	22.47
460.648	22.48
461.005	22.5
461.361	22.35
461.717	22.15
462.073	22.24
462.429	22.25
462.785	22.39
463.141	22.47
463.496	22.63
463.852	22.69
464.208	22.87
464.564	22.91
464.919	22.88
465.275	23.16
465.631	23.24
465.986	23.1
466.342	23.27
466.697	23.22
467.052	23.33
467.408	23.42
467.763	23.24
468.118	23.28
468.473	23.38
468.829	23.39
469.184	23.26
469.539	23.36
469.894	23.51
470.249	23.52
470.603	23.56
470.958	23.25
471.313	23.61
471.668	23.65
472.023	23.76
472.377	23.79
472.732	23.79
473.086	23.78
473.441	23.62
473.795	23.64
474.15	23.74
474.504	23.93
474.859	23.83
475.213	23.92
475.567	23.79
475.921	23.98
476.275	24.11
476.63	24.28
476.984	24.34
477.338	24.33
477.692	24.39
478.045	24.37
478.399	24.26
478.753	24.21
479.107	24.19
479.461	24.39
479.814	24.36
480.168	24.33
480.521	24.39
480.875	24.54
481.228	24.45
481.582	24.38
481.935	24.62
482.289	24.68
482.642	24.69
482.995	24.44
483.348	24.45
483.701	24.47
484.055	24.4
484.408	24.48
484.761	24.3
485.114	24.07
485.466	24.13
485.819	24.01
486.172	23.86
486.525	23.83
486.878	23.89
487.23	24.02
487.583	24.23
487.936	24.51
488.288	24.51
488.641	24.47
488.993	24.4
489.345	24.33
489.698	24.35
490.05	24.42
490.402	24.34
490.754	24.55
491.107	24.6
491.459	24.84
491.811	24.95
492.163	25.15
492.515	25.12
492.866	24.97
493.218	24.84
493.57	24.78
493.922	24.82
494.274	24.74
494.625	24.87
494.977	25.07
495.328	25.44
495.68	25.64
496.031	25.71
496.383	25.85
496.734	25.87
497.086	26.11
497.437	25.99
497.788	26.15
498.139	26.15
498.49	26.04
498.842	25.96
499.193	26.06
499.544	26.04
499.894	25.86
500.245	26.15
500.596	26.14
500.947	26.23
501.298	26.31
501.648	26.41
501.999	26.38
502.35	26.52
502.7	26.68
503.051	26.63
503.401	26.67
503.752	26.65
504.102	26.68
504.452	26.64
504.803	26.85
505.153	26.84
505.503	26.83
505.853	26.66
506.203	26.99
506.553	26.73
506.903	26.99
507.253	26.96
507.603	27.06
507.953	27.03
508.303	27.27
508.652	27.27
509.002	27.16
509.352	27.25
509.701	27.27
510.051	27.22
510.4	27.16
510.75	27.13
511.099	27.18
511.449	27.06
511.798	27.21
512.147	27.45
512.496	27.31
512.846	27.4
513.195	27.4
513.544	27.48
513.893	27.35
514.242	27.46
514.591	27.51
514.939	27.62
515.288	27.65
515.637	27.57
515.986	27.79
516.334	27.67
516.683	27.88
517.032	27.98
517.38	27.94
517.729	28.12
518.077	27.98
518.426	28.1
518.774	28.02
519.122	27.9
519.47	28.03
519.819	27.87
520.167	27.78
520.515	27.79
520.863	27.9
521.211	27.95
521.559	27.87
521.907	28.03
522.255	28.03
522.602	28.13
522.95	28.48
523.298	28.38
523.645	28.34
523.993	28.48
524.341	28.51
524.688	28.7
525.036	28.71
525.383	28.65
525.73	28.62
526.078	28.62
526.425	28.54
526.772	28.55
527.119	28.52
527.466	28.57
527.814	28.59
528.161	28.35
528.508	28.51
528.854	28.62
529.201	28.61
529.548	28.6
529.895	28.45
530.242	28.4
530.588	28.46
530.935	28.37
531.282	28.22
531.628	28.21
531.975	28.43
532.321	28.6
532.667	28.84
533.014	29.02
533.36	29.14
533.706	29.14
534.052	29.24
534.399	29.11
534.745	29.15
535.091	29
535.437	29.08
535.783	28.89
536.129	28.99
536.474	29.08
536.82	29.2
537.166	29.4
537.512	29.56
537.857	29.68
538.203	29.6
538.549	29.54
538.894	29.61
539.239	29.65
539.585	29.52
539.93	29.51
540.276	30.07
540.621	30.04
540.966	30.21
541.311	30.15
541.656	30.19
542.001	30.19
542.346	30.03
542.691	29.92
543.036	29.75
543.381	29.68
543.726	29.69
544.071	29.6
544.415	29.69
544.76	29.85
545.105	30.05
545.449	30.26
545.794	30.2
546.138	30.26
546.483	30.52
546.827	30.6
547.171	30.8
547.516	30.59
547.86	30.7
548.204	30.78
548.548	30.68
548.892	30.74
549.236	30.98
549.58	30.96
549.924	30.92
550.268	30.86
550.612	31.21
550.956	31.16
551.3	31.4
551.643	31.55
551.987	31.69
552.33	31.53
552.674	31.34
553.017	31.58
553.361	31.4
553.704	31.53
554.048	31.64
554.391	31.7
554.734	31.65
555.077	31.71
555.42	31.78
555.764	32.03
556.107	31.81
556.45	31.98
556.793	31.79
557.135	31.8
557.478	32.04
557.821	31.89
558.164	32.25
558.507	31.95
558.849	32.26
559.192	32.21
559.534	32.24
559.877	32.13
560.219	32.06
560.562	32.4
560.904	32.49
561.246	32.26
561.589	32.4
561.931	32.53
562.273	32.47
562.615	32.72
562.957	32.74
563.299	32.66
563.641	32.67
563.983	32.87
564.325	32.81
564.667	32.6
565.008	33.03
565.35	32.84
565.692	32.87
566.033	33.12
566.375	32.8
566.716	32.84
567.058	32.92
567.399	33.01
567.741	33.06
568.082	32.92
568.423	33.06
568.764	32.82
569.105	32.81
569.447	32.99
569.788	33.06
570.129	33.14
570.47	33.23
570.811	33.36
571.151	33.4
571.492	33.39
571.833	33.66
572.174	33.52
572.514	33.44
572.855	33.4
573.195	33.6
573.536	33.57
573.876	33.58
574.217	33.54
574.557	33.49
574.898	33.6
575.238	33.6
575.578	33.57
575.918	34.03
576.258	33.86
576.598	33.75
576.938	33.83
577.278	33.62
577.618	33.8
577.958	34.04
578.298	34
578.638	33.97
578.977	34.02
579.317	34.35
579.657	34.22
579.996	34.1
580.336	34.49
580.675	34.28
581.014	34.6
581.354	34.48
581.693	34.59
582.032	34.67
582.372	34.72
582.711	34.72
583.05	34.81
583.389	34.44
583.728	34.88
584.067	34.78
584.406	34.86
584.745	34.65
585.083	34.89
585.422	34.97
585.761	35.15
586.1	34.64
586.438	35.38
586.777	34.9
587.115	35.16
587.454	35
587.792	34.95
588.13	35.19
588.469	35.19
588.807	35.04
589.145	35.28
589.483	35.15
589.821	35.49
590.159	35.34
590.497	35.18
590.835	35.57
591.173	35.59
591.511	35.26
591.849	35.43
592.187	35.4
592.524	35.32
592.862	35.63
593.2	35.5
593.537	35.62
593.875	35.54
594.212	35.72
594.55	35.58
594.887	35.94
595.224	35.74
595.561	35.8
595.899	36.05
596.236	36.08
596.573	35.7
596.91	35.96
597.247	35.85
597.584	35.98
597.921	35.81
598.258	35.68
598.594	35.83
598.931	35.79
599.268	36.13
599.604	35.82
599.941	35.8
600.277	35.75
600.614	36.2
600.95	36.15
601.287	36.3
601.623	36.37
601.959	36.43
602.296	36.51
602.632	36.51
602.968	36.4
603.304	36.37
603.64	36.62
603.976	36.77
604.312	36.68
604.648	36.87
604.984	36.52
605.319	36.82
605.655	36.46
605.991	36.65
606.326	36.49
606.662	36.65
606.998	36.6
607.333	36.76
607.668	36.69
608.004	36.49
608.339	36.76
608.674	36.9
609.01	36.81
609.345	37.21
609.68	37.02
610.015	37.27
610.35	37.26
610.685	37.21
611.02	37.14
611.355	37.14
611.689	37.39
612.024	37.09
612.359	37.05
612.694	37.07
613.028	37.31
613.363	37.25
613.697	37.4
614.032	37.57
614.366	37.24
614.7	37.54
615.035	37.53
615.369	37.43
615.703	37.69
616.037	37.65
616.371	37.67
616.705	37.76
617.039	38.02
617.373	37.62
617.707	37.66
618.041	38.04
618.375	37.94
618.709	38.11
619.042	37.79
619.376	37.89
619.71	38.13
620.043	38.12
620.377	38.05
620.71	37.99
621.043	38.24
621.377	38.2
621.71	38.13
622.043	38.14
622.376	38.32
622.709	38.31
623.043	38.75
623.376	38.68
623.709	37.95
624.041	38.43
624.374	38.6
624.707	38.53
625.04	38.45
625.373	37.98
625.705	38.51
626.038	39.1
626.37	38.65
626.703	38.29
627.035	38.74
627.368	38.65
627.7	38.65
628.032	38.67
628.365	39
628.697	39.02
629.029	39.01
629.361	38.72
629.693	38.71
630.025	38.89
630.357	38.47
630.689	39.15
631.021	38.66
631.353	38.94
631.684	38.51
632.016	39.02
632.348	39.28
632.679	38.78
633.011	39.07
633.342	39.15
633.674	38.69
634.005	39.2
634.336	39.24
634.668	39.17
634.999	39.25
635.33	39.24
635.661	39.25
635.992	39.05
636.323	39.6
636.654	39.41
636.985	39.59
637.316	39.42
637.647	39.09
637.977	39.25
638.308	39.95
638.639	39.23
638.969	39.33
639.3	40.04
639.63	39.64
639.961	40.03
640.291	39.87
640.622	39.64
640.952	40.01
641.282	39.92
641.612	39.71
641.943	39.65
642.273	39.61
642.603	39.71
642.933	39.69
643.263	39.9
643.592	39.95
643.922	39.93
644.252	40.2
644.582	39.92
644.911	39.71
645.241	40.35
645.571	40.26
645.9	40.54
646.23	40.28
646.559	39.97
646.888	39.8
647.218	40.29
647.547	40.3
647.876	40.47
648.205	40.85
648.534	40.11
648.863	40.73
649.192	40.58
649.521	39.98
649.85	40.63
650.179	40.54
650.508	40.55
650.837	41
651.165	40.93
651.494	41.16
651.822	40.43
652.151	40.73
652.479	41.29
652.808	41.2
653.136	40.46
653.465	40.78
653.793	40.6
654.121	40.48
654.449	40.91
654.777	41.02
655.105	40.95
655.433	40.94
655.761	41.3
656.089	41.41
656.417	40.79
656.745	40.82
657.073	40.93
657.4	41.24
657.728	40.84
658.056	40.53
658.383	41.43
658.711	41.13
659.038	41.54
659.365	40.93
659.693	41.09
660.02	41.02
660.347	41.21
660.674	41.34
661.001	41.24
661.329	41.64
661.656	41.06
661.982	41.15
662.309	41.17
662.636	41.28
662.963	41.22
663.29	41.5
663.616	41.26
663.943	41.77
664.27	41.42
664.596	41.54
664.923	41.76
665.249	41.75
665.576	41.68
665.902	42.21
666.228	41.64
666.554	41.55
666.881	42.29
667.207	41.73
667.533	42.43
667.859	41.54
668.185	42.01
668.511	41.66
668.837	42
669.162	42.67
669.488	42.74
669.814	41.81
670.139	41.73
670.465	42
670.791	42.2
671.116	41.82
