Data from 815655_chest_Reflection__1__141.txt Node

Date: Fri Sep 16 15:51:06 CDT 2022
User: ToomeyLab
Spectrometer: FLMS14357
Trigger mode: 0
Integration Time (sec): 1.000000E-2
Scans to average: 100
Electric dark correction enabled: true
Nonlinearity correction enabled: false
Boxcar width: 0
XAxis mode: Wavelengths
Number of Pixels in Spectrum: 2048
>>>>>Begin Spectral Data<<<<<
189.047	13.09
189.435	13.09
189.823	13.09
190.211	971.79
190.599	51.26
190.987	119.05
191.375	96.91
191.763	850.88
192.151	-52.2
192.538	-45.42
192.926	169.95
193.314	65.94
193.702	52.79
194.089	54.41
194.477	104.49
194.864	18.13
195.252	-1452
195.639	65.14
196.027	592.84
196.414	10.43
196.801	-54
197.189	692.87
197.576	73.37
197.963	-28.99
198.351	-14.91
198.738	-51.02
199.125	24.3
199.512	-75.79
199.899	22.91
200.286	-94.22
200.673	16.11
201.06	-8.14
201.447	-10.42
201.833	5.76
202.22	12.16
202.607	-50.74
202.994	17.24
203.38	-15.31
203.767	15.47
204.154	32.86
204.54	34.97
204.927	-19.82
205.313	26.91
205.699	59.57
206.086	21.3
206.472	-0.21
206.858	-2.81
207.245	9.5
207.631	33.38
208.017	2.35
208.403	-44.84
208.789	-0.33
209.175	2.99
209.561	21.16
209.947	11.54
210.333	-31.53
210.719	-9.38
211.105	-3.12
211.491	2.54
211.876	32.43
212.262	-3.8
212.648	-0.01
213.034	2.91
213.419	-25.59
213.805	-0.23
214.19	15.11
214.576	-10.6
214.961	8.27
215.346	-20.86
215.732	-53.76
216.117	3.55
216.502	-8.66
216.888	-16.93
217.273	-0.1
217.658	12.88
218.043	-64.18
218.428	-10.94
218.813	12.7
219.198	5.78
219.583	6.28
219.968	3.06
220.353	-10.88
220.738	0.51
221.122	-8.91
221.507	12.64
221.892	7.48
222.276	21.2
222.661	10.57
223.046	7.9
223.43	2.01
223.815	-6.29
224.199	0.86
224.583	-3.39
224.968	-3.64
225.352	4.38
225.736	0.17
226.121	7.51
226.505	1.09
226.889	6.59
227.273	-1.19
227.657	3.63
228.041	-0.45
228.425	-1.85
228.809	4.74
229.193	2.7
229.577	1.32
229.961	0.09
230.344	2.05
230.728	2.2
231.112	1.83
231.495	1.24
231.879	1.81
232.263	0.72
232.646	1.79
233.03	2.15
233.413	3.52
233.797	1.03
234.18	3.61
234.563	2.28
234.946	1.08
235.33	1.52
235.713	2.44
236.096	0.97
236.479	1.6
236.862	1.48
237.245	0.58
237.628	3.91
238.011	3.21
238.394	2.27
238.777	1.41
239.16	2.4
239.543	3.18
239.925	1.8
240.308	0.52
240.691	2.73
241.073	1.8
241.456	0.85
241.838	1.26
242.221	1.41
242.603	1.09
242.986	1.43
243.368	1.38
243.75	1.95
244.133	2.16
244.515	1.59
244.897	1.94
245.279	1.6
245.661	2.69
246.043	2.4
246.425	2.13
246.807	1.54
247.189	0.78
247.571	1.11
247.953	1.81
248.335	1.91
248.717	1.85
249.098	1.81
249.48	1.64
249.862	1.39
250.243	1.68
250.625	1.94
251.006	1.97
251.388	1.78
251.769	1.38
252.151	2.01
252.532	1.27
252.913	1.81
253.295	1.94
253.676	2.5
254.057	1.36
254.438	1.02
254.819	0.94
255.2	1.64
255.581	1.76
255.962	2.1
256.343	1.99
256.724	0.43
257.105	1.01
257.486	1.53
257.867	1.52
258.247	3.14
258.628	2.33
259.009	1.96
259.389	2.06
259.77	1.09
260.15	1.4
260.531	1.16
260.911	1.68
261.292	1.44
261.672	1.62
262.052	1.37
262.432	1.4
262.813	1.84
263.193	1.96
263.573	2.08
263.953	1.5
264.333	1.45
264.713	1.01
265.093	1.08
265.473	1.7
265.853	1.56
266.233	1.97
266.612	2.75
266.992	0.54
267.372	1.84
267.752	1.28
268.131	1.5
268.511	1.76
268.89	1.68
269.27	0.89
269.649	1.88
270.029	1.46
270.408	1.78
270.787	1.2
271.167	1.69
271.546	1.97
271.925	1.57
272.304	2.16
272.683	0.89
273.062	1.33
273.441	1.45
273.82	1.24
274.199	1.8
274.578	1.62
274.957	2.07
275.336	1.79
275.715	1.29
276.093	1.67
276.472	1.62
276.851	1.56
277.229	1.35
277.608	1.98
277.986	1.97
278.365	1.1
278.743	1.83
279.122	1.78
279.5	1.82
279.878	1.56
280.257	1.85
280.635	1.6
281.013	0.93
281.391	1.57
281.769	2.2
282.147	1.71
282.525	1.25
282.903	1.71
283.281	1.45
283.659	1.76
284.037	1.95
284.415	2.2
284.792	1.92
285.17	1.72
285.548	1.33
285.925	1.15
286.303	1.99
286.68	1.68
287.058	1.2
287.435	1.62
287.813	2.06
288.19	1.63
288.567	1.42
288.945	1.4
289.322	1.73
289.699	1.39
290.076	1.49
290.453	1.9
290.83	1.59
291.207	1.56
291.584	1.43
291.961	1.61
292.338	1.86
292.715	1.57
293.092	1.9
293.469	2.07
293.845	1.58
294.222	1.16
294.599	1.18
294.975	1.42
295.352	1.89
295.728	1.41
296.105	1.93
296.481	1.53
296.858	1.84
297.234	1.78
297.61	1.95
297.986	1.48
298.363	1.64
298.739	1.32
299.115	1.95
299.491	1.83
299.867	1.54
300.243	1.81
300.619	2.08
300.995	1.57
301.371	1.34
301.746	1.62
302.122	2.1
302.498	1.6
302.874	1.75
303.249	2.04
303.625	1.52
304	1.87
304.376	1.37
304.751	1.75
305.127	1.91
305.502	1.38
305.878	1.7
306.253	1.81
306.628	1.8
307.003	1.84
307.378	1.99
307.754	1.92
308.129	2.44
308.504	2.29
308.879	1.75
309.254	1.52
309.629	1.5
310.003	1.68
310.378	1.3
310.753	1.93
311.128	1.75
311.502	1.21
311.877	1.67
312.252	2.08
312.626	1.58
313.001	1.83
313.375	2.28
313.75	1.91
314.124	1.88
314.498	1.48
314.873	2.33
315.247	1.74
315.621	1.74
315.995	1.52
316.369	2.27
316.743	2.11
317.117	1.98
317.491	1.55
317.865	2.12
318.239	1.78
318.613	2.13
318.987	1.13
319.361	1.84
319.734	2.21
320.108	1.92
320.482	2.17
320.855	1.64
321.229	1.6
321.602	2.39
321.976	1.83
322.349	2.02
322.723	1.81
323.096	1.87
323.469	1.83
323.843	2.24
324.216	2.29
324.589	2.26
324.962	1.59
325.335	2.36
325.708	2.23
326.081	1.92
326.454	2
326.827	1.88
327.2	2.07
327.573	1.49
327.945	2.34
328.318	2.05
328.691	1.9
329.063	1.79
329.436	1.79
329.809	1.49
330.181	1.71
330.553	1.96
330.926	1.71
331.298	2.39
331.671	1.92
332.043	2.07
332.415	1.99
332.787	1.53
333.159	1.47
333.532	2.35
333.904	2.24
334.276	1.89
334.648	2.24
335.02	2.02
335.391	1.99
335.763	1.55
336.135	1.61
336.507	2.05
336.879	1.99
337.25	1.73
337.622	2.32
337.993	2.35
338.365	1.94
338.736	2.42
339.108	2.04
339.479	2.06
339.851	2.05
340.222	1.66
340.593	2.03
340.964	2.04
341.336	1.73
341.707	1.67
342.078	2.46
342.449	2.12
342.82	1.94
343.191	1.54
343.562	2.5
343.933	2.15
344.303	1.99
344.674	1.27
345.045	2.28
345.416	1.66
345.786	1.99
346.157	1.79
346.527	2.16
346.898	1.64
347.268	2.29
347.639	2
348.009	2.17
348.38	2.53
348.75	1.94
349.12	2.05
349.49	2.2
349.861	2.3
350.231	2.23
350.601	2.13
350.971	2.24
351.341	2.31
351.711	2.23
352.081	2.11
352.45	2.26
352.82	2.2
353.19	1.88
353.56	2.24
353.929	2.17
354.299	2.09
354.669	1.77
355.038	2.13
355.408	2.27
355.777	1.82
356.147	1.97
356.516	2.06
356.885	2.22
357.254	2.16
357.624	2.09
357.993	1.93
358.362	2.1
358.731	2.13
359.1	2.24
359.469	1.96
359.838	1.93
360.207	2.33
360.576	2.21
360.945	1.97
361.314	1.86
361.682	1.93
362.051	2.17
362.42	2.44
362.788	2.18
363.157	2.16
363.525	2.03
363.894	2.27
364.262	2.08
364.631	2.11
364.999	1.98
365.367	2.09
365.735	2.43
366.104	2.19
366.472	2.25
366.84	2.34
367.208	2.21
367.576	2.12
367.944	1.76
368.312	2.04
368.68	2.16
369.048	2.46
369.416	2.18
369.783	2.11
370.151	2.43
370.519	2.17
370.886	2.48
371.254	2.03
371.621	2.41
371.989	1.91
372.356	2.11
372.724	2.5
373.091	1.98
373.458	2.02
373.826	1.87
374.193	2.29
374.56	2.15
374.927	2.08
375.294	2.17
375.661	2.07
376.028	2.41
376.395	2.06
376.762	2.41
377.129	2.15
377.496	2.04
377.863	2.16
378.229	2.44
378.596	1.97
378.963	2.22
379.329	2.05
379.696	2.38
380.062	2.22
380.429	2.19
380.795	2.3
381.161	2.36
381.528	2.26
381.894	2.04
382.26	2.25
382.626	2.16
382.993	2.09
383.359	2.24
383.725	2.16
384.091	2.44
384.457	1.86
384.823	1.93
385.188	1.96
385.554	2.16
385.92	2.15
386.286	2.24
386.651	2.07
387.017	2.1
387.383	1.94
387.748	1.97
388.114	1.82
388.479	2.24
388.845	2.07
389.21	2.38
389.575	2.3
389.94	2.47
390.306	2.1
390.671	2.37
391.036	2.23
391.401	2.25
391.766	2.22
392.131	2.43
392.496	2.07
392.861	2.17
393.226	2.32
393.591	2.39
393.956	2.14
394.32	2.31
394.685	2.07
395.05	2.56
395.414	2.08
395.779	2.24
396.143	2.22
396.508	1.99
396.872	2.3
397.236	2.03
397.601	2.15
397.965	2.07
398.329	2.25
398.694	2.14
399.058	2.44
399.422	2.08
399.786	2.24
400.15	2.28
400.514	2.26
400.878	2.54
401.242	2.13
401.605	2.14
401.969	2.12
402.333	2.24
402.697	2.17
403.06	2.51
403.424	2.28
403.787	2.46
404.151	2.17
404.514	2.39
404.878	2.08
405.241	2.07
405.604	2.43
405.968	2.29
406.331	2.17
406.694	2.17
407.057	2.18
407.42	2.03
407.783	2.31
408.146	2.46
408.509	2.43
408.872	2.49
409.235	2.49
409.598	2.21
409.961	2.39
410.323	2.37
410.686	2.52
411.049	2.43
411.411	2.24
411.774	2.31
412.136	2.21
412.499	2.37
412.861	2.32
413.223	2.24
413.586	2.5
413.948	2.4
414.31	2.53
414.672	2.22
415.035	2.59
415.397	2.26
415.759	2.47
416.121	2.44
416.483	2.4
416.845	2.61
417.206	2.51
417.568	2.31
417.93	2.47
418.292	2.38
418.653	2.35
419.015	2.34
419.377	2.51
419.738	2.29
420.1	2.41
420.461	2.46
420.822	2.26
421.184	2.42
421.545	2.28
421.906	2.42
422.267	2.45
422.629	2.27
422.99	2.31
423.351	2.47
423.712	2.26
424.073	2.44
424.434	2.43
424.795	2.31
425.155	2.31
425.516	2.45
425.877	2.39
426.238	2.37
426.598	2.33
426.959	2.35
427.32	2.28
427.68	2.49
428.041	2.36
428.401	2.39
428.761	2.56
429.122	2.48
429.482	2.34
429.842	2.45
430.202	2.59
430.563	2.39
430.923	2.61
431.283	2.64
431.643	2.5
432.003	2.52
432.363	2.55
432.722	2.45
433.082	2.46
433.442	2.59
433.802	2.54
434.161	2.37
434.521	2.67
434.881	2.4
435.24	2.52
435.6	2.45
435.959	2.51
436.319	2.45
436.678	2.58
437.037	2.24
437.396	2.49
437.756	2.57
438.115	2.54
438.474	2.52
438.833	2.54
439.192	2.45
439.551	2.6
439.91	2.54
440.269	2.63
440.628	2.51
440.987	2.53
441.345	2.41
441.704	2.54
442.063	2.57
442.421	2.53
442.78	2.45
443.138	2.54
443.497	2.61
443.855	2.62
444.214	2.55
444.572	2.65
444.93	2.57
445.288	2.48
445.647	2.5
446.005	2.47
446.363	2.63
446.721	2.54
447.079	2.53
447.437	2.5
447.795	2.49
448.153	2.59
448.51	2.46
448.868	2.54
449.226	2.53
449.584	2.57
449.941	2.55
450.299	2.45
450.656	2.58
451.014	2.48
451.371	2.55
451.729	2.64
452.086	2.51
452.443	2.42
452.801	2.7
453.158	2.57
453.515	2.47
453.872	2.58
454.229	2.54
454.586	2.59
454.943	2.48
455.3	2.72
455.657	2.52
456.014	2.55
456.371	2.49
456.727	2.58
457.084	2.81
457.441	2.59
457.797	2.62
458.154	2.7
458.51	2.68
458.867	2.58
459.223	2.69
459.58	2.72
459.936	2.6
460.292	2.81
460.648	2.63
461.005	2.65
461.361	2.6
461.717	2.56
462.073	2.63
462.429	2.65
462.785	2.66
463.141	2.59
463.496	2.79
463.852	2.63
464.208	2.85
464.564	2.85
464.919	2.58
465.275	2.74
465.631	2.61
465.986	2.77
466.342	2.76
466.697	2.73
467.052	2.7
467.408	2.73
467.763	2.79
468.118	2.79
468.473	2.81
468.829	2.76
469.184	2.73
469.539	2.83
469.894	2.82
470.249	2.89
470.603	2.93
470.958	2.73
471.313	2.79
471.668	2.83
472.023	2.71
472.377	2.85
472.732	2.73
473.086	2.79
473.441	2.7
473.795	2.8
474.15	2.8
474.504	2.81
474.859	2.7
475.213	2.89
475.567	2.64
475.921	2.9
476.275	2.89
476.63	2.97
476.984	2.84
477.338	2.89
477.692	2.79
478.045	2.72
478.399	2.93
478.753	2.85
479.107	2.77
479.461	2.82
479.814	2.71
480.168	2.82
480.521	2.86
480.875	2.82
481.228	2.9
481.582	2.81
481.935	2.92
482.289	2.95
482.642	2.77
482.995	2.89
483.348	2.75
483.701	2.85
484.055	2.81
484.408	2.88
484.761	2.71
485.114	2.71
485.466	2.66
485.819	2.71
486.172	2.7
486.525	2.74
486.878	2.76
487.23	2.77
487.583	2.8
487.936	2.81
488.288	2.87
488.641	2.71
488.993	2.79
489.345	2.77
489.698	2.75
490.05	2.77
490.402	2.79
490.754	2.88
491.107	2.87
491.459	2.94
491.811	2.84
492.163	2.86
492.515	2.82
492.866	2.86
493.218	2.73
493.57	2.76
493.922	2.84
494.274	2.91
494.625	2.91
494.977	2.94
495.328	2.98
495.68	2.96
496.031	3.04
496.383	3
496.734	2.89
497.086	3.01
497.437	2.9
497.788	3
498.139	3.02
498.49	3.07
498.842	3.04
499.193	2.98
499.544	3.07
499.894	2.87
500.245	3.01
500.596	2.96
500.947	3.06
501.298	3.17
501.648	3.02
501.999	3.03
502.35	3.01
502.7	3.11
503.051	3.16
503.401	3.05
503.752	3.1
504.102	3.15
504.452	3.13
504.803	3.25
505.153	3.17
505.503	3.16
505.853	3.17
506.203	3.13
506.553	3.1
506.903	3.16
507.253	3.16
507.603	3.19
507.953	3.14
508.303	3.34
508.652	3.12
509.002	3.28
509.352	3.18
509.701	3.22
510.051	3.2
510.4	3.13
510.75	3.15
511.099	3.12
511.449	3.11
511.798	3.22
512.147	3.25
512.496	3.3
512.846	3.2
513.195	3.23
513.544	3.22
513.893	3.21
514.242	3.25
514.591	3.28
514.939	3.29
515.288	3.37
515.637	3.36
515.986	3.37
516.334	3.23
516.683	3.36
517.032	3.39
517.38	3.48
517.729	3.48
518.077	3.42
518.426	3.25
518.774	3.38
519.122	3.41
519.47	3.4
519.819	3.31
520.167	3.31
520.515	3.26
520.863	3.35
521.211	3.4
521.559	3.35
521.907	3.49
522.255	3.36
522.602	3.46
522.95	3.48
523.298	3.42
523.645	3.53
523.993	3.52
524.341	3.62
524.688	3.58
525.036	3.5
525.383	3.61
525.73	3.61
526.078	3.49
526.425	3.49
526.772	3.52
527.119	3.41
527.466	3.54
527.814	3.53
528.161	3.53
528.508	3.57
528.854	3.55
529.201	3.49
529.548	3.49
529.895	3.46
530.242	3.43
530.588	3.46
530.935	3.45
531.282	3.48
531.628	3.52
531.975	3.55
532.321	3.6
532.667	3.59
533.014	3.71
533.36	3.62
533.706	3.66
534.052	3.7
534.399	3.68
534.745	3.62
535.091	3.62
535.437	3.68
535.783	3.73
536.129	3.8
536.474	3.7
536.82	3.76
537.166	3.81
537.512	3.89
537.857	3.76
538.203	3.72
538.549	3.75
538.894	3.69
539.239	3.88
539.585	3.81
539.93	3.87
540.276	4.01
540.621	3.96
540.966	3.97
541.311	3.94
541.656	3.97
542.001	3.98
542.346	3.96
542.691	3.88
543.036	3.83
543.381	3.78
543.726	3.83
544.071	3.88
544.415	3.94
544.76	3.92
545.105	3.99
545.449	4.06
545.794	3.99
546.138	4.05
546.483	4.09
546.827	4.16
547.171	4.1
547.516	3.98
547.86	4.17
548.204	4.13
548.548	4.12
548.892	4.08
549.236	4.17
549.58	4.34
549.924	4.28
550.268	4.15
550.612	4.32
550.956	4.31
551.3	4.39
551.643	4.52
551.987	4.56
552.33	4.5
552.674	4.33
553.017	4.43
553.361	4.4
553.704	4.43
554.048	4.47
554.391	4.44
554.734	4.44
555.077	4.5
555.42	4.57
555.764	4.72
556.107	4.72
556.45	4.49
556.793	4.69
557.135	4.49
557.478	4.56
557.821	4.66
558.164	4.79
558.507	4.66
558.849	4.65
559.192	4.68
559.534	4.82
559.877	4.48
560.219	4.69
560.562	4.81
560.904	4.8
561.246	4.78
561.589	4.82
561.931	5
562.273	4.92
562.615	4.97
562.957	4.85
563.299	4.94
563.641	4.9
563.983	5
564.325	4.99
564.667	4.9
565.008	5.05
565.35	4.84
565.692	4.94
566.033	4.94
566.375	5.19
566.716	4.94
567.058	5.11
567.399	5.17
567.741	4.97
568.082	5.3
568.423	5.05
568.764	5.03
569.105	5.11
569.447	5.27
569.788	5.35
570.129	5.29
570.47	5.28
570.811	5.21
571.151	5.36
571.492	5.34
571.833	5.31
572.174	5.39
572.514	5.46
572.855	5.44
573.195	5.56
573.536	5.38
573.876	5.53
574.217	5.36
574.557	5.46
574.898	5.58
575.238	5.45
575.578	5.51
575.918	5.7
576.258	5.72
576.598	5.44
576.938	5.61
577.278	5.56
577.618	5.62
577.958	5.69
578.298	5.74
578.638	5.62
578.977	5.82
579.317	5.77
579.657	5.66
579.996	5.79
580.336	5.99
580.675	5.83
581.014	6.11
581.354	5.99
581.693	5.73
582.032	5.96
582.372	5.84
582.711	6.22
583.05	6.01
583.389	6.23
583.728	6.1
584.067	6.29
584.406	6.61
584.745	6.13
585.083	6.3
585.422	6.23
585.761	6.09
586.1	5.94
586.438	6.37
586.777	6.2
587.115	6.41
587.454	6.29
587.792	6.22
588.13	6.59
588.469	6.59
588.807	6.25
589.145	6.4
589.483	6.66
589.821	6.6
590.159	6.44
590.497	6.42
590.835	6.74
591.173	6.69
591.511	6.8
591.849	6.82
592.187	6.56
592.524	6.45
592.862	6.83
593.2	6.67
593.537	6.83
593.875	6.83
594.212	6.92
594.55	6.61
594.887	6.83
595.224	6.98
595.561	7.21
595.899	7.03
596.236	6.88
596.573	6.74
596.91	7.11
597.247	6.92
597.584	6.97
597.921	7.02
598.258	6.93
598.594	7
598.931	7.03
599.268	7.16
599.604	6.99
599.941	7.03
600.277	7.03
600.614	7.45
600.95	7.32
601.287	7.28
601.623	7.48
601.959	7.57
602.296	7.3
602.632	7.38
602.968	7.42
603.304	7.38
603.64	7.33
603.976	7.56
604.312	7.55
604.648	7.74
604.984	7.59
605.319	7.68
605.655	7.61
605.991	7.79
606.326	7.56
606.662	7.74
606.998	7.44
607.333	7.68
607.668	7.85
608.004	7.5
608.339	7.75
608.674	7.94
609.01	8.08
609.345	8.23
609.68	7.84
610.015	7.92
610.35	8.03
610.685	8.26
611.02	7.96
611.355	8.17
611.689	8.11
612.024	8.07
612.359	8.13
612.694	8.08
613.028	8.12
613.363	8.26
613.697	8.29
614.032	8.1
614.366	8.18
614.7	8.22
615.035	8.21
615.369	8.28
615.703	8.46
616.037	8.51
616.371	8.49
616.705	8.32
617.039	8.79
617.373	8.38
617.707	8.29
618.041	8.68
618.375	8.46
618.709	8.16
619.042	8.38
619.376	8.64
619.71	8.71
620.043	8.6
620.377	8.45
620.71	8.91
621.043	8.8
621.377	8.66
621.71	9.01
622.043	8.65
622.376	8.98
622.709	8.87
623.043	8.94
623.376	8.8
623.709	8.68
624.041	9.37
624.374	8.85
624.707	8.92
625.04	8.99
625.373	9.14
625.705	9.25
626.038	9.61
626.37	9.11
626.703	9
627.035	9.08
627.368	9.48
627.7	9.43
628.032	9.28
628.365	9.2
628.697	9.46
629.029	9.72
629.361	9.65
629.693	9.55
630.025	9.44
630.357	9.78
630.689	9.48
631.021	9.77
631.353	9.9
631.684	9.68
632.016	9.6
632.348	10.23
632.679	9.49
633.011	9.27
633.342	9.75
633.674	9.92
634.005	9.89
634.336	9.92
634.668	9.96
634.999	9.87
635.33	9.95
635.661	10.14
635.992	9.82
636.323	9.91
636.654	10.13
636.985	10.48
637.316	10
637.647	10.34
637.977	9.76
638.308	10.46
638.639	10.3
638.969	10.53
639.3	10.31
639.63	9.99
639.961	10.11
640.291	10.27
640.622	10.26
640.952	10.86
641.282	10.46
641.612	10.75
641.943	10.64
642.273	10.54
642.603	10.5
642.933	10.51
643.263	10.53
643.592	10.25
643.922	10.67
644.252	10.8
644.582	10.71
644.911	10.76
645.241	11.06
645.571	10.94
645.9	10.75
646.23	10.63
646.559	10.74
646.888	10.84
647.218	10.86
647.547	11.01
647.876	11.66
648.205	10.96
648.534	10.91
648.863	11.26
649.192	11.41
649.521	11.14
649.85	11.2
650.179	10.85
650.508	11.4
650.837	11.26
651.165	11.19
651.494	11.52
651.822	11.14
652.151	11.41
652.479	11.49
652.808	11.83
653.136	11.18
653.465	11.65
653.793	11.4
654.121	11.53
654.449	11.42
654.777	11.31
655.105	11.6
655.433	11.46
655.761	11.9
656.089	11.82
656.417	11.89
656.745	11.64
657.073	12.01
657.4	11.78
657.728	12.27
658.056	11.49
658.383	11.89
658.711	11.99
659.038	12
659.365	12.05
659.693	11.85
660.02	12.01
660.347	12.16
660.674	11.72
661.001	12.17
661.329	12.28
661.656	11.94
661.982	12.11
662.309	12.15
662.636	12.32
662.963	12.49
663.29	12.36
663.616	12.57
663.943	12.48
664.27	12.42
664.596	12.52
664.923	12.12
665.249	12.5
665.576	12.55
665.902	12.62
666.228	12.04
666.554	13.01
666.881	13.3
667.207	12.75
667.533	12.91
667.859	12.85
668.185	12.86
668.511	12.83
668.837	12.43
669.162	13.05
669.488	13.65
669.814	13.25
670.139	12.82
670.465	12.87
670.791	12.57
671.116	12.86
671.442	13.5
671.767	13.12
672.092	13
672.418	13.26
672.743	13.44
673.068	13.5
673.393	12.93
673.718	13.2
674.043	13.55
674.368	13.56
674.693	13.96
675.018	13.36
675.343	13.8
675.667	13.4
675.992	13.62
676.317	13.92
676.641	13.58
676.966	13.79
677.29	13.59
677.615	13.98
677.939	13.44
678.264	14.47
678.588	12.83
678.912	13.33
679.236	13.62
679.56	14.35
679.885	14.36
680.209	13.71
680.532	14.41
680.856	14.24
681.18	13.87
681.504	14.04
681.828	13.95
682.152	14.05
682.475	14.04
682.799	13.84
683.122	13.91
683.446	13.73
683.769	14.09
684.093	14.03
684.416	14.21
684.739	14.16
685.062	14.67
685.386	14.45
685.709	14.37
686.032	14.49
686.355	14.78
686.678	14.7
687.001	14.09
687.324	14.91
687.646	15.15
687.969	14.96
688.292	14.16
688.614	14.69
688.937	14.53
