Data from 815655_chest_Reflection__4__144.txt Node

Date: Fri Sep 16 15:51:45 CDT 2022
User: ToomeyLab
Spectrometer: FLMS14357
Trigger mode: 0
Integration Time (sec): 1.000000E-2
Scans to average: 100
Electric dark correction enabled: true
Nonlinearity correction enabled: false
Boxcar width: 0
XAxis mode: Wavelengths
Number of Pixels in Spectrum: 2048
>>>>>Begin Spectral Data<<<<<
189.047	232.39
189.435	232.39
189.823	232.39
190.211	1444.44
190.599	-172.84
190.987	153.03
191.375	115.07
191.763	1678.36
192.151	119.89
192.538	-18.3
192.926	-24.93
193.314	45.08
193.702	14.16
194.089	78.29
194.477	137.08
194.864	96.65
195.252	1394.67
195.639	67.37
196.027	-62.72
196.414	295.66
196.801	-23.82
197.189	399.58
197.576	-27.95
197.963	-13.14
198.351	0.36
198.738	-19.74
199.125	40.65
199.512	-60.42
199.899	-40.34
200.286	-28.45
200.673	-7.34
201.06	3.69
201.447	-10.44
201.833	-19.45
202.22	-28.2
202.607	-49.51
202.994	2.14
203.38	0.39
203.767	4.27
204.154	22.37
204.54	11.68
204.927	-46.42
205.313	17.58
205.699	53.88
206.086	4.79
206.472	-11.48
206.858	3.55
207.245	0.65
207.631	-6.53
208.017	-6.54
208.403	-38.57
208.789	-5.54
209.175	-6.93
209.561	-10.03
209.947	-27.77
210.333	25.94
210.719	-4.98
211.105	49.67
211.491	-4.59
211.876	17.16
212.262	21.45
212.648	-19.28
213.034	-16.85
213.419	-60.45
213.805	-33.85
214.19	-16.12
214.576	-19.67
214.961	-26.78
215.346	-37.23
215.732	-67.37
216.117	31.8
216.502	-9.68
216.888	-12.69
217.273	-11.66
217.658	16.48
218.043	-80.5
218.428	0.36
218.813	-17.63
219.198	4.21
219.583	4.01
219.968	9.78
220.353	-16.96
220.738	8.99
221.122	-10.49
221.507	26.58
221.892	-4.75
222.276	-14.49
222.661	-9.75
223.046	0.36
223.43	4.62
223.815	-12.54
224.199	-8.16
224.583	-2.39
224.968	3.66
225.352	-4.39
225.736	2.46
226.121	-4.39
226.505	2.04
226.889	6.46
227.273	2.2
227.657	3.98
228.041	0.09
228.425	-4.98
228.809	4.74
229.193	-0.29
229.577	2.08
229.961	0.18
230.344	1.35
230.728	1.55
231.112	0.58
231.495	-0.02
231.879	2.51
232.263	-0.3
232.646	0.61
233.03	0.71
233.413	3.03
233.797	-1.89
234.18	1.83
234.563	-0.28
234.946	1.53
235.33	0.34
235.713	1.15
236.096	0.43
236.479	2.1
236.862	1.35
237.245	-0.29
237.628	2.41
238.011	1.54
238.394	0.67
238.777	0.03
239.16	-0.05
239.543	1.44
239.925	1.9
240.308	0.38
240.691	0.54
241.073	1.01
241.456	1.08
241.838	0.87
242.221	0.69
242.603	0.95
242.986	0.34
243.368	1.42
243.75	0.72
244.133	1.3
244.515	1.29
244.897	1.15
245.279	1.02
245.661	1.81
246.043	1.23
246.425	1.51
246.807	0.81
247.189	0.89
247.571	0.59
247.953	0.74
248.335	1.23
248.717	1.11
249.098	1.2
249.48	0.99
249.862	1.54
250.243	1.44
250.625	0.85
251.006	1.52
251.388	1.71
251.769	-0.34
252.151	1.24
252.532	0.03
252.913	1.49
253.295	0.57
253.676	1.64
254.057	0.85
254.438	0.4
254.819	-0.25
255.2	0.21
255.581	1.57
255.962	0.7
256.343	2.86
256.724	0.27
257.105	-0.62
257.486	0.71
257.867	-0.63
258.247	1.69
258.628	1.35
259.009	0.65
259.389	0.87
259.77	0.79
260.15	0.94
260.531	0.84
260.911	0.96
261.292	0.92
261.672	1.26
262.052	0.92
262.432	1.11
262.813	1.75
263.193	0.89
263.573	1.39
263.953	1.2
264.333	0.91
264.713	0.54
265.093	0.79
265.473	0.77
265.853	1.4
266.233	1.11
266.612	1.97
266.992	-0.12
267.372	0.23
267.752	0.15
268.131	0.92
268.511	1.58
268.89	1.2
269.27	0.58
269.649	1.43
270.029	0.93
270.408	1.51
270.787	0.44
271.167	1.1
271.546	1.56
271.925	0.8
272.304	1.26
272.683	0.66
273.062	1.1
273.441	1.17
273.82	0.71
274.199	1.2
274.578	0.82
274.957	1.44
275.336	0.97
275.715	1.76
276.093	1.06
276.472	1.23
276.851	0.74
277.229	0.76
277.608	0.94
277.986	0.82
278.365	0.28
278.743	0.77
279.122	1.16
279.5	0.23
279.878	1.4
280.257	1.63
280.635	1.52
281.013	1.36
281.391	1.12
281.769	0.76
282.147	1.52
282.525	0.43
282.903	0.95
283.281	1.17
283.659	1.1
284.037	1.14
284.415	1.47
284.792	1.44
285.17	1.23
285.548	0.76
285.925	0.6
286.303	1.43
286.68	1.02
287.058	0.9
287.435	0.97
287.813	1.44
288.19	0.91
288.567	0.98
288.945	0.97
289.322	0.67
289.699	0.79
290.076	0.99
290.453	1.8
290.83	1.16
291.207	0.98
291.584	0.86
291.961	1.11
292.338	0.81
292.715	0.74
293.092	0.95
293.469	1.04
293.845	0.95
294.222	1.1
294.599	0.8
294.975	0.62
295.352	1.22
295.728	0.5
296.105	1.29
296.481	0.77
296.858	0.95
297.234	0.87
297.61	1.48
297.986	1.21
298.363	0.89
298.739	0.81
299.115	1.38
299.491	1.29
299.867	0.93
300.243	0.95
300.619	1.39
300.995	0.89
301.371	1.53
301.746	0.65
302.122	1.43
302.498	1.02
302.874	1.04
303.249	1.36
303.625	1.03
304	1.39
304.376	1.09
304.751	1.22
305.127	1.18
305.502	0.87
305.878	1.09
306.253	1.23
306.628	1.01
307.003	1.26
307.378	1.09
307.754	1.21
308.129	1.85
308.504	1.79
308.879	1.75
309.254	1.38
309.629	0.68
310.003	1.21
310.378	0.95
310.753	1.43
311.128	1.15
311.502	0.54
311.877	1.69
312.252	1.36
312.626	1.21
313.001	0.99
313.375	1.57
313.75	1.21
314.124	1.19
314.498	1.08
314.873	1.8
315.247	1.37
315.621	1.27
315.995	1.32
316.369	1.17
316.743	1.48
317.117	1.15
317.491	0.95
317.865	1.13
318.239	1.85
318.613	0.68
318.987	0.86
319.361	1.17
319.734	1.4
320.108	1.28
320.482	1.44
320.855	1.17
321.229	1.16
321.602	2.02
321.976	1.83
322.349	1.14
322.723	1.37
323.096	1.17
323.469	1.42
323.843	1.85
324.216	1.97
324.589	1.36
324.962	1.4
325.335	1.46
325.708	1.5
326.081	1.43
326.454	1.43
326.827	1.21
327.2	1.25
327.573	0.53
327.945	1.46
328.318	1.18
328.691	1.18
329.063	1.18
329.436	0.83
329.809	0.92
330.181	1.3
330.553	1.18
330.926	0.82
331.298	1.46
331.671	1.41
332.043	1.1
332.415	1.29
332.787	1.04
333.159	1.43
333.532	2.13
333.904	1.59
334.276	1.75
334.648	0.94
335.02	1.39
335.391	1.3
335.763	1.21
336.135	0.49
336.507	1.67
336.879	1.53
337.25	0.84
337.622	1.89
337.993	1.6
338.365	1.19
338.736	1.77
339.108	1.45
339.479	1.21
339.851	1.47
340.222	1.25
340.593	1.26
340.964	1.67
341.336	1.46
341.707	1.21
342.078	1.84
342.449	1.35
342.82	1.28
343.191	1.06
343.562	1.49
343.933	1.48
344.303	1.37
344.674	1.04
345.045	1.85
345.416	1.52
345.786	1.53
346.157	1.63
346.527	1.39
346.898	1.29
347.268	1.24
347.639	1.32
348.009	1.07
348.38	1.29
348.75	1.2
349.12	1.2
349.49	1.82
349.861	1.9
350.231	1.13
350.601	1.33
350.971	1.7
351.341	1.72
351.711	1.54
352.081	1.23
352.45	1.61
352.82	1.37
353.19	0.99
353.56	1.84
353.929	1.6
354.299	1.34
354.669	1.46
355.038	1.32
355.408	1.44
355.777	1.09
356.147	1.61
356.516	1.63
356.885	1.49
357.254	1.52
357.624	1.5
357.993	1.51
358.362	1.45
358.731	1.6
359.1	1.51
359.469	1.36
359.838	1.51
360.207	1.8
360.576	1.48
360.945	1.29
361.314	1.51
361.682	1.11
362.051	1.54
362.42	1.58
362.788	1.77
363.157	1.27
363.525	1.52
363.894	1.51
364.262	1.57
364.631	1.47
364.999	1.52
365.367	1.41
365.735	1.72
366.104	1.42
366.472	1.75
366.84	1.4
367.208	1.56
367.576	1.46
367.944	1.46
368.312	1.42
368.68	1.52
369.048	1.9
369.416	1.71
369.783	1.6
370.151	1.75
370.519	1.36
370.886	1.63
371.254	1.43
371.621	1.87
371.989	1.37
372.356	1.7
372.724	1.72
373.091	1.29
373.458	1.39
373.826	1.33
374.193	1.64
374.56	1.4
374.927	1.01
375.294	1.65
375.661	1.38
376.028	2.04
376.395	1.22
376.762	1.91
377.129	1.31
377.496	1.62
377.863	1.52
378.229	1.64
378.596	1.15
378.963	1.76
379.329	1.52
379.696	1.91
380.062	1.45
380.429	1.7
380.795	1.72
381.161	1.65
381.528	1.9
381.894	1.4
382.26	1.45
382.626	1.6
382.993	1.31
383.359	1.37
383.725	1.37
384.091	1.52
384.457	1.19
384.823	1.31
385.188	1.34
385.554	1.37
385.92	1.57
386.286	1.62
386.651	1.69
387.017	1.74
387.383	1.41
387.748	1.37
388.114	1.26
388.479	1.51
388.845	1.55
389.21	1.75
389.575	1.82
389.94	1.65
390.306	1.55
390.671	1.53
391.036	1.39
391.401	1.48
391.766	1.62
392.131	1.78
392.496	1.4
392.861	1.71
393.226	1.83
393.591	1.75
393.956	1.62
394.32	1.93
394.685	1.49
395.05	1.83
395.414	1.44
395.779	1.51
396.143	1.68
396.508	1.48
396.872	1.65
397.236	1.7
397.601	1.56
397.965	1.34
398.329	1.39
398.694	1.73
399.058	1.71
399.422	1.47
399.786	1.67
400.15	1.87
400.514	1.42
400.878	1.79
401.242	1.6
401.605	1.74
401.969	1.53
402.333	1.73
402.697	1.71
403.06	1.71
403.424	1.7
403.787	1.67
404.151	1.56
404.514	1.69
404.878	1.62
405.241	1.73
405.604	1.77
405.968	1.82
406.331	1.76
406.694	1.68
407.057	1.56
407.42	1.59
407.783	1.71
408.146	1.98
408.509	1.87
408.872	1.75
409.235	1.81
409.598	1.71
409.961	1.61
410.323	1.51
410.686	1.67
411.049	1.59
411.411	1.56
411.774	1.62
412.136	1.52
412.499	1.68
412.861	1.78
413.223	1.38
413.586	1.73
413.948	1.54
414.31	1.9
414.672	1.39
415.035	1.9
415.397	1.45
415.759	1.94
416.121	1.71
416.483	1.57
416.845	1.66
417.206	1.77
417.568	1.93
417.93	1.83
418.292	1.63
418.653	1.59
419.015	1.62
419.377	1.76
419.738	1.73
420.1	1.8
420.461	1.91
420.822	1.63
421.184	1.74
421.545	1.66
421.906	1.7
422.267	1.7
422.629	1.7
422.99	1.7
423.351	1.71
423.712	1.6
424.073	1.76
424.434	1.86
424.795	1.7
425.155	1.76
425.516	1.79
425.877	1.69
426.238	1.71
426.598	1.7
426.959	1.77
427.32	1.72
427.68	1.82
428.041	1.69
428.401	1.82
428.761	1.98
429.122	1.85
429.482	1.69
429.842	1.73
430.202	1.83
430.563	1.73
430.923	1.8
431.283	2.08
431.643	1.87
432.003	1.91
432.363	1.69
432.722	1.7
433.082	1.87
433.442	1.84
433.802	1.83
434.161	1.75
434.521	1.76
434.881	1.87
435.24	1.76
435.6	1.81
435.959	1.92
436.319	1.73
436.678	1.71
437.037	1.64
437.396	1.87
437.756	1.96
438.115	1.76
438.474	1.75
438.833	1.68
439.192	1.69
439.551	1.83
439.91	1.86
440.269	1.95
440.628	1.7
440.987	1.88
441.345	1.77
441.704	1.83
442.063	1.9
442.421	1.82
442.78	1.84
443.138	1.87
443.497	1.92
443.855	1.85
444.214	1.89
444.572	1.89
444.93	1.85
445.288	1.95
445.647	1.79
446.005	1.88
446.363	1.86
446.721	1.86
447.079	1.73
447.437	1.86
447.795	1.89
448.153	1.82
448.51	1.87
448.868	1.9
449.226	1.84
449.584	1.91
449.941	1.87
450.299	1.84
450.656	1.91
451.014	1.95
451.371	1.98
451.729	1.87
452.086	1.9
452.443	1.93
452.801	1.94
453.158	1.94
453.515	1.91
453.872	1.92
454.229	2.01
454.586	1.8
454.943	1.74
455.3	2.08
455.657	1.84
456.014	1.98
456.371	1.81
456.727	2.01
457.084	1.99
457.441	1.96
457.797	1.98
458.154	1.89
458.51	2.03
458.867	1.86
459.223	1.93
459.58	1.97
459.936	1.95
460.292	1.95
460.648	1.99
461.005	1.93
461.361	1.84
461.717	1.87
462.073	1.87
462.429	1.98
462.785	1.94
463.141	1.91
463.496	1.99
463.852	1.95
464.208	2.14
464.564	1.94
464.919	2
465.275	2.08
465.631	2.04
465.986	2.05
466.342	2.08
466.697	2.05
467.052	1.95
467.408	2.07
467.763	2.07
468.118	1.93
468.473	2.07
468.829	2.04
469.184	2.05
469.539	1.99
469.894	2.04
470.249	2.29
470.603	2.27
470.958	1.93
471.313	1.99
471.668	2.08
472.023	2.13
472.377	2.19
472.732	1.97
473.086	2.13
473.441	1.92
473.795	2.14
474.15	2.02
474.504	2.18
474.859	1.97
475.213	2.1
475.567	1.94
475.921	2.12
476.275	2.15
476.63	2.07
476.984	2.2
477.338	2.09
477.692	1.87
478.045	2.14
478.399	2.14
478.753	2.07
479.107	2.08
479.461	2.03
479.814	2
480.168	2.09
480.521	2.01
480.875	2.05
481.228	1.98
481.582	2.16
481.935	2.03
482.289	2.23
482.642	1.99
482.995	2.05
483.348	2.1
483.701	2.12
484.055	2.04
484.408	2.14
484.761	2.01
485.114	1.96
485.466	1.93
485.819	1.97
486.172	1.98
486.525	2.04
486.878	2.01
487.23	2.09
487.583	2.07
487.936	2.1
488.288	2.05
488.641	2.02
488.993	2.06
489.345	2.04
489.698	1.99
490.05	2.08
490.402	2.01
490.754	2.15
491.107	2.09
491.459	2.18
491.811	2.1
492.163	2.06
492.515	2.1
492.866	2.1
493.218	2.08
493.57	2.05
493.922	2.06
494.274	2.11
494.625	2.12
494.977	2.23
495.328	2.2
495.68	2.14
496.031	2.25
496.383	2.2
496.734	2.2
497.086	2.22
497.437	2.21
497.788	2.29
498.139	2.26
498.49	2.27
498.842	2.24
499.193	2.25
499.544	2.31
499.894	2.2
500.245	2.3
500.596	2.24
500.947	2.3
501.298	2.16
501.648	2.32
501.999	2.27
502.35	2.26
502.7	2.36
503.051	2.31
503.401	2.32
503.752	2.4
504.102	2.47
504.452	2.28
504.803	2.37
505.153	2.42
505.503	2.27
505.853	2.27
506.203	2.32
506.553	2.26
506.903	2.35
507.253	2.17
507.603	2.34
507.953	2.34
508.303	2.37
508.652	2.17
509.002	2.35
509.352	2.32
509.701	2.37
510.051	2.37
510.4	2.37
510.75	2.39
511.099	2.31
511.449	2.32
511.798	2.28
512.147	2.25
512.496	2.43
512.846	2.44
513.195	2.37
513.544	2.37
513.893	2.37
514.242	2.4
514.591	2.47
514.939	2.45
515.288	2.43
515.637	2.5
515.986	2.44
516.334	2.34
516.683	2.43
517.032	2.46
517.38	2.58
517.729	2.54
518.077	2.39
518.426	2.48
518.774	2.54
519.122	2.51
519.47	2.54
519.819	2.38
520.167	2.47
520.515	2.38
520.863	2.48
521.211	2.48
521.559	2.48
521.907	2.54
522.255	2.45
522.602	2.47
522.95	2.63
523.298	2.65
523.645	2.66
523.993	2.56
524.341	2.6
524.688	2.52
525.036	2.63
525.383	2.6
525.73	2.57
526.078	2.54
526.425	2.56
526.772	2.55
527.119	2.5
527.466	2.63
527.814	2.62
528.161	2.59
528.508	2.6
528.854	2.63
529.201	2.6
529.548	2.54
529.895	2.5
530.242	2.5
530.588	2.5
530.935	2.53
531.282	2.58
531.628	2.57
531.975	2.63
532.321	2.64
532.667	2.73
533.014	2.77
533.36	2.7
533.706	2.66
534.052	2.65
534.399	2.74
534.745	2.64
535.091	2.6
535.437	2.64
535.783	2.69
536.129	2.8
536.474	2.67
536.82	2.74
537.166	2.8
537.512	2.85
537.857	2.78
538.203	2.66
538.549	2.76
538.894	2.67
539.239	2.89
539.585	2.85
539.93	2.73
540.276	2.95
540.621	3.05
540.966	2.9
541.311	2.96
541.656	2.9
542.001	2.83
542.346	2.85
542.691	2.83
543.036	2.8
543.381	2.74
543.726	2.81
544.071	2.87
544.415	2.86
544.76	2.9
545.105	3.04
545.449	3.01
545.794	2.94
546.138	2.95
546.483	3.1
546.827	3.06
547.171	3.04
547.516	2.93
547.86	3.06
548.204	3.04
548.548	3.06
548.892	2.99
549.236	3.09
549.58	3.22
549.924	3.13
550.268	3.18
550.612	3.13
550.956	3.01
551.3	3.26
551.643	3.23
551.987	3.14
552.33	3.12
552.674	3.1
553.017	3.22
553.361	3.32
553.704	3.25
554.048	3.23
554.391	3.4
554.734	3.2
555.077	3.39
555.42	3.31
555.764	3.35
556.107	3.41
556.45	3.36
556.793	3.46
557.135	3.23
557.478	3.32
557.821	3.34
558.164	3.48
558.507	3.47
558.849	3.29
559.192	3.44
559.534	3.65
559.877	3.45
560.219	3.52
560.562	3.59
560.904	3.54
561.246	3.45
561.589	3.65
561.931	3.52
562.273	3.47
562.615	3.5
562.957	3.6
563.299	3.6
563.641	3.63
563.983	3.82
564.325	3.49
564.667	3.67
565.008	3.82
565.35	3.56
565.692	3.7
566.033	3.75
566.375	3.67
566.716	3.78
567.058	3.63
567.399	3.8
567.741	3.7
568.082	3.84
568.423	3.66
568.764	3.67
569.105	3.78
569.447	3.93
569.788	3.93
570.129	4
570.47	3.97
570.811	3.93
571.151	3.95
571.492	3.98
571.833	3.93
572.174	3.97
572.514	3.97
572.855	3.85
573.195	4.02
573.536	4
573.876	3.97
574.217	3.93
574.557	3.95
574.898	4.01
575.238	3.99
575.578	4.01
575.918	4.23
576.258	4.08
576.598	3.95
576.938	4.22
577.278	4.12
577.618	4.12
577.958	4.3
578.298	4.26
578.638	4.07
578.977	4.13
579.317	4.34
579.657	4.2
579.996	4.34
580.336	4.37
580.675	4.16
581.014	4.53
581.354	4.4
581.693	4.33
582.032	4.48
582.372	4.41
582.711	4.56
583.05	4.65
583.389	4.54
583.728	4.4
584.067	4.66
584.406	4.71
584.745	4.75
585.083	4.62
585.422	4.83
585.761	4.61
586.1	4.47
586.438	4.71
586.777	4.3
587.115	4.7
587.454	4.72
587.792	4.75
588.13	4.85
588.469	4.75
588.807	4.76
589.145	4.91
589.483	5.04
589.821	4.76
590.159	4.68
590.497	4.73
590.835	4.74
591.173	4.94
591.511	4.7
591.849	4.99
592.187	5
592.524	4.77
592.862	4.98
593.2	4.72
593.537	5.08
593.875	4.89
594.212	5.12
594.55	4.83
594.887	5.11
595.224	4.91
595.561	5.09
595.899	5.3
596.236	5.3
596.573	5.16
596.91	5.34
597.247	5.23
597.584	5.2
597.921	5.27
598.258	5.19
598.594	4.95
598.931	5.17
599.268	5.13
599.604	5.31
599.941	5.31
600.277	5.3
600.614	5.49
600.95	5.37
601.287	5.46
601.623	5.54
601.959	5.37
602.296	5.59
602.632	5.42
602.968	5.55
603.304	5.68
603.64	5.59
603.976	5.8
604.312	5.57
604.648	5.94
604.984	5.69
605.319	5.81
605.655	5.78
605.991	5.59
606.326	5.52
606.662	5.65
606.998	5.79
607.333	5.81
607.668	5.87
608.004	5.84
608.339	5.79
608.674	5.98
609.01	5.71
609.345	6.01
609.68	6.04
610.015	5.85
610.35	5.88
610.685	6.2
611.02	6.12
611.355	6.15
611.689	6.1
612.024	6.06
612.359	5.97
612.694	6.14
613.028	5.92
613.363	5.9
613.697	6.38
614.032	6.21
614.366	6.03
614.7	6.28
615.035	6.22
615.369	6.35
615.703	6.21
616.037	6.37
616.371	6.55
616.705	6.41
617.039	6.71
617.373	6.44
617.707	6.4
618.041	6.36
618.375	6.23
618.709	6.41
619.042	6.57
619.376	6.52
619.71	7
620.043	6.56
620.377	6.71
620.71	6.85
621.043	6.76
621.377	6.75
621.71	6.87
622.043	6.59
622.376	6.75
622.709	6.92
623.043	6.93
623.376	6.7
623.709	6.77
624.041	7.25
624.374	6.83
624.707	7.13
625.04	6.85
625.373	6.94
625.705	7.25
626.038	7.43
626.37	7.32
626.703	7.03
627.035	6.93
627.368	7.51
627.7	7.39
628.032	6.93
628.365	7.27
628.697	7.2
629.029	7.44
629.361	7.29
629.693	7.45
630.025	7.42
630.357	7.22
630.689	7.52
631.021	7.49
631.353	7.43
631.684	7.07
632.016	7.53
632.348	7.59
632.679	7.86
633.011	7.39
633.342	7.34
633.674	7.84
634.005	7.6
634.336	7.78
634.668	7.8
634.999	7.53
635.33	7.78
635.661	7.56
635.992	7.56
636.323	8
636.654	7.76
636.985	8.01
637.316	7.98
637.647	8.01
637.977	8
638.308	8.22
638.639	8.2
638.969	8.2
639.3	8.13
639.63	8.22
639.961	8.34
640.291	8.24
640.622	8.5
640.952	8.27
641.282	8
641.612	8.02
641.943	8.08
642.273	8.33
642.603	8.44
642.933	8.48
643.263	7.95
643.592	8.61
643.922	7.91
644.252	8.48
644.582	8.41
644.911	8.52
645.241	8.59
645.571	8.86
645.9	8.95
646.23	8.89
646.559	8.11
646.888	8.83
647.218	8.77
647.547	9.01
647.876	8.74
648.205	9.01
648.534	8.94
648.863	8.89
649.192	8.95
649.521	8.77
649.85	9.7
650.179	8.82
650.508	9.43
650.837	8.83
651.165	8.85
651.494	9.23
651.822	9.08
652.151	9.21
652.479	9.53
652.808	9.46
653.136	9.09
653.465	9.39
653.793	9.39
654.121	9.57
654.449	9.26
654.777	9.36
655.105	9.68
655.433	9.3
655.761	9.79
656.089	9.44
656.417	9.51
656.745	9.64
657.073	9.61
657.4	9.76
657.728	9.84
658.056	9.23
658.383	9.87
658.711	9.49
659.038	9.59
659.365	9.58
659.693	9.48
660.02	9.84
660.347	9.89
660.674	9.69
661.001	10.07
661.329	9.93
661.656	9.67
661.982	9.93
662.309	10.22
662.636	10.33
662.963	10.58
663.29	10.46
663.616	10.4
663.943	10.49
664.27	10.21
664.596	10.12
664.923	10.31
665.249	10.72
665.576	10.31
665.902	10.47
666.228	9.93
666.554	10.89
666.881	10.51
667.207	10.3
667.533	10.56
667.859	10.68
668.185	10.56
668.511	10.73
668.837	10.44
669.162	11.14
669.488	11.3
669.814	11.12
670.139	10.6
670.465	10.9
670.791	11.03
671.116	10.77
671.442	11.42
671.767	10.65
672.092	10.46
672.418	11.32
672.743	11.28
673.068	11.86
673.393	10.87
673.718	11.65
674.043	11.03
674.368	10.85
674.693	11.81
675.018	11.18
675.343	11.07
675.667	11.66
675.992	11.17
676.317	11.09
676.641	11.3
676.966	11.76
677.29	11.34
677.615	11.56
677.939	11.68
678.264	11.61
678.588	11.29
678.912	11.04
679.236	11.7
679.56	11.83
679.885	11.16
680.209	11.66
680.532	12.15
680.856	11.54
681.18	11.41
681.504	12.22
681.828	11.86
682.152	11.9
682.475	12.34
682.799	11.84
683.122	11.8
683.446	11.89
683.769	12.32
684.093	12.79
684.416	11.89
684.739	11.66
685.062	12.61
685.386	12.22
685.709	12.06
686.032	12.13
686.355	12.01
686.678	13.06
687.001	12.24
687.324	12.71
687.646	13.42
687.969	12.67
688.292	12.64
688.614	12.55
688.937	12.78
689.26	13.05
689.582	11.86
689.904	12.01
690.227	13.01
