Data from 815655_crown_Reflection__1__151.txt Node

Date: Fri Sep 16 15:55:47 CDT 2022
User: ToomeyLab
Spectrometer: FLMS14357
Trigger mode: 0
Integration Time (sec): 1.000000E-2
Scans to average: 100
Electric dark correction enabled: true
Nonlinearity correction enabled: false
Boxcar width: 0
XAxis mode: Wavelengths
Number of Pixels in Spectrum: 2048
>>>>>Begin Spectral Data<<<<<
189.047	197.5
189.435	197.5
189.823	197.5
190.211	874.79
190.599	32.79
190.987	150.92
191.375	107.54
191.763	622.51
192.151	-73.77
192.538	-57.42
192.926	20.14
193.314	129.08
193.702	158.69
194.089	110.6
194.477	-289.55
194.864	199.81
195.252	-362
195.639	37.31
196.027	495.68
196.414	77.78
196.801	2.55
197.189	343.71
197.576	-77.23
197.963	-58.8
198.351	-23.44
198.738	7.16
199.125	27.95
199.512	-53.92
199.899	62.24
200.286	8.16
200.673	43.06
201.06	21.1
201.447	7.91
201.833	6.48
202.22	3.8
202.607	-4.53
202.994	-6.25
203.38	-17.28
203.767	4.16
204.154	-10.22
204.54	35
204.927	-2.47
205.313	12.3
205.699	58.22
206.086	24.16
206.472	14.47
206.858	-8.48
207.245	30.97
207.631	22.92
208.017	11.82
208.403	-3.07
208.789	-13.74
209.175	-18.43
209.561	13.29
209.947	-19.92
210.333	-6.06
210.719	0.22
211.105	9.3
211.491	23.61
211.876	33.48
212.262	26.82
212.648	1.42
213.034	7.88
213.419	-2.87
213.805	22.7
214.19	63.42
214.576	-18.22
214.961	-16.44
215.346	-31.37
215.732	-10.37
216.117	25.96
216.502	-21.66
216.888	-6
217.273	5.64
217.658	4.98
218.043	-40.56
218.428	17.53
218.813	18.1
219.198	-0.66
219.583	29.2
219.968	10.37
220.353	-9.98
220.738	16.77
221.122	-30.41
221.507	24.78
221.892	-5.58
222.276	22.11
222.661	12.59
223.046	17.13
223.43	11.71
223.815	5.61
224.199	6.15
224.583	7.87
224.968	5.81
225.352	8.6
225.736	10.97
226.121	5.36
226.505	4.39
226.889	6.52
227.273	4.02
227.657	9.33
228.041	4.75
228.425	2.69
228.809	7.91
229.193	5.32
229.577	7.21
229.961	5.51
230.344	8.04
230.728	7.05
231.112	5.93
231.495	5.69
231.879	6.6
232.263	5.72
232.646	6.3
233.03	7.71
233.413	7.23
233.797	7.25
234.18	6.88
234.563	6.44
234.946	5.93
235.33	7.02
235.713	5.56
236.096	6.29
236.479	6.37
236.862	6.17
237.245	5.83
237.628	9.11
238.011	7.22
238.394	6.66
238.777	8.32
239.16	5.87
239.543	7.96
239.925	6.18
240.308	5.05
240.691	7.49
241.073	6.1
241.456	6.06
241.838	5.05
242.221	5.63
242.603	6.89
242.986	5.73
243.368	6.24
243.75	6.16
244.133	6.43
244.515	5.69
244.897	6.88
245.279	6.15
245.661	6.32
246.043	5.42
246.425	6.31
246.807	6.39
247.189	6.39
247.571	5.81
247.953	5.56
248.335	6.03
248.717	5.83
249.098	5.97
249.48	5.67
249.862	5.82
250.243	6.29
250.625	6.22
251.006	6.29
251.388	6.1
251.769	5.03
252.151	6.05
252.532	5.8
252.913	5.65
253.295	6.11
253.676	6.01
254.057	5.42
254.438	4.73
254.819	4.81
255.2	5.26
255.581	6.46
255.962	5.99
256.343	5.92
256.724	4.92
257.105	5.41
257.486	6.02
257.867	5.38
258.247	4.7
258.628	6.44
259.009	5.24
259.389	5.68
259.77	5.41
260.15	5.97
260.531	5.27
260.911	5.54
261.292	5.34
261.672	5.77
262.052	5.19
262.432	5.34
262.813	6.36
263.193	5.73
263.573	5.57
263.953	5.51
264.333	5.31
264.713	5.01
265.093	5
265.473	5.04
265.853	6.39
266.233	5.62
266.612	6.39
266.992	5.72
267.372	5.41
267.752	5.36
268.131	5.93
268.511	5.9
268.89	5.57
269.27	5.22
269.649	5.1
270.029	6
270.408	5.84
270.787	5.35
271.167	5.35
271.546	6.03
271.925	5.34
272.304	5.59
272.683	5.13
273.062	5.23
273.441	5.73
273.82	5.29
274.199	5.51
274.578	5.4
274.957	5.51
275.336	5.12
275.715	5.88
276.093	4.86
276.472	5.73
276.851	4.96
277.229	5.49
277.608	5.37
277.986	5.37
278.365	4.78
278.743	5.23
279.122	5.24
279.5	5
279.878	5.37
280.257	5.33
280.635	5.49
281.013	4.89
281.391	4.94
281.769	5.97
282.147	5.81
282.525	4.89
282.903	5.24
283.281	4.9
283.659	5.6
284.037	5.4
284.415	5.24
284.792	5.58
285.17	5.58
285.548	5.01
285.925	5.21
286.303	5.27
286.68	4.95
287.058	5.06
287.435	5.1
287.813	5.37
288.19	4.89
288.567	4.36
288.945	5.08
289.322	5.24
289.699	5.14
290.076	4.95
290.453	5.15
290.83	4.9
291.207	4.92
291.584	4.69
291.961	5.03
292.338	5.26
292.715	4.79
293.092	4.75
293.469	4.73
293.845	4.79
294.222	4.65
294.599	4.46
294.975	4.7
295.352	5.25
295.728	4.69
296.105	4.82
296.481	4.54
296.858	4.64
297.234	4.86
297.61	4.82
297.986	5.04
298.363	4.78
298.739	4.47
299.115	4.9
299.491	4.85
299.867	4.72
300.243	4.72
300.619	4.72
300.995	4.38
301.371	4.56
301.746	4.22
302.122	5.03
302.498	4.56
302.874	4.29
303.249	4.85
303.625	4.54
304	4.52
304.376	4.22
304.751	5
305.127	4.66
305.502	4.27
305.878	4.45
306.253	4.72
306.628	4.6
307.003	4.65
307.378	4.33
307.754	5.34
308.129	5.3
308.504	4.97
308.879	4.56
309.254	4.66
309.629	4.08
310.003	4.54
310.378	4.55
310.753	4.55
311.128	4.35
311.502	4.2
311.877	4.67
312.252	4.54
312.626	4.53
313.001	4.41
313.375	4.86
313.75	4.48
314.124	4.12
314.498	4.28
314.873	4.79
315.247	4.32
315.621	4.33
315.995	4.68
316.369	4.41
316.743	4.8
317.117	4.39
317.491	4.09
317.865	4.62
318.239	4.72
318.613	4.49
318.987	3.26
319.361	3.7
319.734	4.38
320.108	3.87
320.482	4.11
320.855	4.38
321.229	4.4
321.602	4.82
321.976	4.08
322.349	4.19
322.723	3.92
323.096	4.17
323.469	4.11
323.843	4.76
324.216	4.42
324.589	4.63
324.962	4.2
325.335	4.89
325.708	4.25
326.081	4.71
326.454	4.21
326.827	4.04
327.2	4.06
327.573	4.21
327.945	4.32
328.318	4.03
328.691	4.32
329.063	4.15
329.436	3.93
329.809	3.51
330.181	4.23
330.553	4.17
330.926	4.23
331.298	4.09
331.671	3.9
332.043	3.98
332.415	4.31
332.787	3.91
333.159	4.06
333.532	4.31
333.904	4.27
334.276	4.44
334.648	4.34
335.02	4.28
335.391	4.59
335.763	4.37
336.135	3.78
336.507	4.39
336.879	4.42
337.25	3.82
337.622	3.89
337.993	4.36
338.365	4.32
338.736	4.29
339.108	3.77
339.479	4.22
339.851	4.19
340.222	4.3
340.593	4.19
340.964	4.23
341.336	3.95
341.707	4.14
342.078	4.37
342.449	4.24
342.82	4.25
343.191	4.18
343.562	4.19
343.933	4.29
344.303	4.67
344.674	3.66
345.045	4.71
345.416	4.38
345.786	4.31
346.157	4.48
346.527	4.42
346.898	4.23
347.268	4.39
347.639	4.14
348.009	4.24
348.38	4.45
348.75	3.65
349.12	4.57
349.49	4.54
349.861	4.3
350.231	4.1
350.601	4.16
350.971	4.42
351.341	4.74
351.711	4.13
352.081	4.21
352.45	4.11
352.82	4.64
353.19	4.26
353.56	4.44
353.929	4.44
354.299	4.45
354.669	4.37
355.038	4.11
355.408	4.28
355.777	3.79
356.147	4.23
356.516	4.45
356.885	4.32
357.254	4.42
357.624	4.17
357.993	4.24
358.362	4.19
358.731	4.34
359.1	4.37
359.469	4.25
359.838	3.97
360.207	4.62
360.576	4.22
360.945	4.02
361.314	4.19
361.682	4.18
362.051	4.64
362.42	4.53
362.788	4.61
363.157	4.43
363.525	4.46
363.894	4.42
364.262	4.31
364.631	4.26
364.999	4.38
365.367	4.12
365.735	4.42
366.104	4.41
366.472	4.4
366.84	4.39
367.208	4.38
367.576	4.19
367.944	4.29
368.312	4.25
368.68	4.63
369.048	4.72
369.416	4.23
369.783	4.42
370.151	4.17
370.519	4.31
370.886	4.1
371.254	4.1
371.621	4.42
371.989	4.38
372.356	4.31
372.724	4.44
373.091	4.27
373.458	4.25
373.826	4.55
374.193	4.53
374.56	4.36
374.927	4.17
375.294	4.58
375.661	4.56
376.028	4.62
376.395	3.93
376.762	4.58
377.129	4.06
377.496	4.62
377.863	4.58
378.229	4.65
378.596	4.41
378.963	4.39
379.329	4.26
379.696	4.79
380.062	4.38
380.429	4.6
380.795	4.59
381.161	4.55
381.528	4.68
381.894	4.52
382.26	4.45
382.626	4.36
382.993	4.26
383.359	4.43
383.725	4.64
384.091	4.83
384.457	4.09
384.823	4.46
385.188	4.44
385.554	4.73
385.92	4.42
386.286	4.59
386.651	4.64
387.017	4.65
387.383	4.39
387.748	4.02
388.114	4.08
388.479	4.46
388.845	4.62
389.21	4.8
389.575	4.51
389.94	4.43
390.306	4.33
390.671	4.51
391.036	4.48
391.401	4.71
391.766	4.74
392.131	4.7
392.496	4.51
392.861	4.56
393.226	4.58
393.591	4.59
393.956	4.61
394.32	4.76
394.685	4.36
395.05	4.75
395.414	4.47
395.779	4.55
396.143	4.64
396.508	4.26
396.872	4.6
397.236	4.5
397.601	4.5
397.965	4.44
398.329	4.79
398.694	4.54
399.058	4.77
399.422	4.48
399.786	4.77
400.15	4.72
400.514	4.6
400.878	4.59
401.242	4.49
401.605	4.38
401.969	4.4
402.333	4.48
402.697	4.64
403.06	4.76
403.424	4.59
403.787	4.69
404.151	4.58
404.514	4.49
404.878	4.44
405.241	4.63
405.604	4.78
405.968	4.77
406.331	4.54
406.694	4.65
407.057	4.36
407.42	4.58
407.783	4.49
408.146	4.94
408.509	4.64
408.872	4.86
409.235	4.68
409.598	4.54
409.961	4.54
410.323	4.69
410.686	4.8
411.049	4.64
411.411	4.68
411.774	4.62
412.136	4.56
412.499	4.8
412.861	4.74
413.223	4.71
413.586	4.78
413.948	4.86
414.31	4.88
414.672	4.7
415.035	4.83
415.397	4.6
415.759	4.82
416.121	4.73
416.483	4.84
416.845	4.77
417.206	4.92
417.568	4.88
417.93	4.9
418.292	4.66
418.653	4.62
419.015	4.74
419.377	4.79
419.738	4.63
420.1	4.83
420.461	4.82
420.822	4.61
421.184	4.73
421.545	4.67
421.906	4.66
422.267	4.77
422.629	4.59
422.99	4.53
423.351	4.65
423.712	4.52
424.073	4.73
424.434	4.71
424.795	4.76
425.155	4.71
425.516	4.75
425.877	4.65
426.238	4.65
426.598	4.68
426.959	4.74
427.32	4.67
427.68	4.8
428.041	4.63
428.401	4.76
428.761	4.94
429.122	4.87
429.482	4.74
429.842	4.58
430.202	4.9
430.563	4.9
430.923	4.91
431.283	4.94
431.643	4.96
432.003	4.89
432.363	4.75
432.722	4.85
433.082	4.73
433.442	4.96
433.802	4.72
434.161	4.74
434.521	4.81
434.881	4.81
435.24	4.69
435.6	4.81
435.959	4.85
436.319	4.76
436.678	4.9
437.037	4.73
437.396	4.82
437.756	5
438.115	4.91
438.474	4.83
438.833	4.85
439.192	4.64
439.551	4.75
439.91	4.73
440.269	4.95
440.628	4.79
440.987	4.68
441.345	4.77
441.704	4.81
442.063	4.86
442.421	4.81
442.78	4.7
443.138	4.85
443.497	4.92
443.855	4.78
444.214	4.81
444.572	4.84
444.93	4.87
445.288	4.81
445.647	4.85
446.005	4.76
446.363	4.91
446.721	4.79
447.079	4.8
447.437	4.82
447.795	4.86
448.153	4.83
448.51	4.84
448.868	4.84
449.226	4.85
449.584	4.78
449.941	4.77
450.299	4.75
450.656	4.91
451.014	4.87
451.371	4.9
451.729	4.85
452.086	4.88
452.443	4.87
452.801	4.94
453.158	4.82
453.515	4.75
453.872	4.74
454.229	4.92
454.586	4.81
454.943	4.77
455.3	4.91
455.657	4.71
456.014	4.99
456.371	4.73
456.727	4.96
457.084	5.01
457.441	4.83
457.797	4.87
458.154	4.91
458.51	4.98
458.867	4.92
459.223	4.81
459.58	4.96
459.936	4.88
460.292	5.01
460.648	4.82
461.005	4.93
461.361	4.81
461.717	4.79
462.073	4.84
462.429	4.89
462.785	4.9
463.141	4.87
463.496	4.92
463.852	4.87
464.208	4.92
464.564	4.86
464.919	4.95
465.275	5.02
465.631	4.99
465.986	4.92
466.342	5.05
466.697	4.99
467.052	4.93
467.408	4.97
467.763	4.97
468.118	4.81
468.473	4.91
468.829	5.03
469.184	4.86
469.539	5.02
469.894	4.87
470.249	5.06
470.603	4.97
470.958	4.72
471.313	4.94
471.668	4.97
472.023	4.87
472.377	4.9
472.732	4.93
473.086	4.88
473.441	4.89
473.795	4.94
474.15	4.84
474.504	5.07
474.859	4.92
475.213	4.97
475.567	4.77
475.921	4.93
476.275	5.07
476.63	4.92
476.984	5.06
477.338	5.01
477.692	4.84
478.045	4.98
478.399	4.97
478.753	4.87
479.107	4.78
479.461	4.88
479.814	4.92
480.168	4.83
480.521	4.91
480.875	4.93
481.228	4.82
481.582	4.9
481.935	4.95
482.289	4.89
482.642	4.96
482.995	4.91
483.348	4.82
483.701	4.99
484.055	4.83
484.408	4.9
484.761	4.75
485.114	4.7
485.466	4.65
485.819	4.64
486.172	4.65
486.525	4.7
486.878	4.71
487.23	4.71
487.583	4.77
487.936	4.79
488.288	4.81
488.641	4.71
488.993	4.82
489.345	4.72
489.698	4.65
490.05	4.72
490.402	4.73
490.754	4.85
491.107	4.73
491.459	4.89
491.811	4.8
492.163	4.7
492.515	4.85
492.866	4.74
493.218	4.76
493.57	4.64
493.922	4.7
494.274	4.76
494.625	4.77
494.977	4.8
495.328	4.84
495.68	4.84
496.031	4.92
496.383	4.93
496.734	4.89
497.086	4.93
497.437	4.98
497.788	5.04
498.139	4.93
498.49	4.9
498.842	4.91
499.193	4.86
499.544	5.03
499.894	4.83
500.245	4.94
500.596	4.85
500.947	4.91
501.298	4.82
501.648	4.96
501.999	4.89
502.35	4.92
502.7	4.96
503.051	4.89
503.401	4.87
503.752	4.95
504.102	5.1
504.452	5
504.803	5.07
505.153	4.99
505.503	4.91
505.853	4.87
506.203	4.98
506.553	4.87
506.903	4.91
507.253	4.85
507.603	5.02
507.953	5.01
508.303	4.85
508.652	4.92
509.002	4.98
509.352	4.97
509.701	4.9
510.051	4.94
510.4	4.87
510.75	4.98
511.099	4.96
511.449	4.78
511.798	4.82
512.147	4.81
512.496	4.96
512.846	4.85
513.195	4.84
513.544	4.88
513.893	4.91
514.242	4.89
514.591	4.99
514.939	4.94
515.288	4.93
515.637	4.98
515.986	4.85
516.334	4.87
516.683	4.78
517.032	5
517.38	5.1
517.729	5.02
518.077	4.92
518.426	5.01
518.774	4.94
519.122	5
519.47	5
519.819	4.92
520.167	4.82
520.515	4.82
520.863	4.91
521.211	4.88
521.559	4.89
521.907	4.89
522.255	4.91
522.602	4.9
522.95	4.96
523.298	5.01
523.645	4.92
523.993	4.85
524.341	5.04
524.688	4.96
525.036	5.03
525.383	4.98
525.73	5.02
526.078	4.97
526.425	4.91
526.772	4.85
527.119	4.82
527.466	4.83
527.814	4.87
528.161	4.86
528.508	4.81
528.854	4.9
529.201	4.87
529.548	4.84
529.895	4.77
530.242	4.76
530.588	4.78
530.935	4.76
531.282	4.74
531.628	4.81
531.975	4.83
532.321	4.87
532.667	4.95
533.014	4.96
533.36	4.84
533.706	4.84
534.052	4.96
534.399	4.93
534.745	4.86
535.091	4.83
535.437	4.8
535.783	4.89
536.129	4.89
536.474	4.85
536.82	4.9
537.166	4.89
537.512	4.95
537.857	4.92
538.203	4.81
538.549	4.84
538.894	4.78
539.239	4.98
539.585	4.94
539.93	4.89
540.276	4.98
540.621	5.04
540.966	4.95
541.311	4.88
541.656	4.92
542.001	4.82
542.346	4.96
542.691	4.88
543.036	4.81
543.381	4.68
543.726	4.81
544.071	4.77
544.415	4.83
544.76	4.85
545.105	4.93
545.449	4.97
545.794	4.88
546.138	4.94
546.483	5.06
546.827	5
547.171	5.01
547.516	4.85
547.86	4.9
548.204	4.97
548.548	4.86
548.892	4.86
549.236	4.92
549.58	5.01
549.924	5.1
550.268	5
550.612	5.03
550.956	4.85
551.3	5.07
551.643	5.08
551.987	5.15
552.33	4.95
552.674	4.86
553.017	5.12
553.361	5.1
553.704	5.05
554.048	5
554.391	5.01
554.734	5
555.077	4.93
555.42	5.07
555.764	5.14
556.107	5.09
556.45	5.01
556.793	5.23
557.135	4.93
557.478	5.06
557.821	4.95
558.164	5.33
558.507	5.09
558.849	4.99
559.192	5.19
559.534	5.17
559.877	4.91
560.219	4.9
560.562	4.9
560.904	5.13
561.246	5.06
561.589	5.24
561.931	5.27
562.273	5.06
562.615	5.13
562.957	4.99
563.299	4.89
563.641	4.97
563.983	5.06
564.325	4.97
564.667	4.85
565.008	5.13
565.35	4.91
565.692	4.94
566.033	5.03
566.375	5.12
566.716	4.95
567.058	5.01
567.399	5.19
567.741	5.02
568.082	5.06
568.423	4.84
568.764	4.92
569.105	5.06
569.447	5.17
569.788	5.03
570.129	5.11
570.47	5.16
570.811	5.05
571.151	5.09
571.492	5.09
571.833	5.11
572.174	5.16
572.514	5.04
572.855	4.99
573.195	5.07
573.536	5.05
573.876	5.1
574.217	5.02
574.557	5.08
574.898	4.97
575.238	5.12
575.578	5.06
575.918	5.16
576.258	5.03
576.598	4.97
576.938	5.06
577.278	4.95
577.618	5.03
577.958	5.08
578.298	4.97
578.638	4.95
578.977	4.96
579.317	5
579.657	4.96
579.996	5.21
580.336	5.07
580.675	5.1
581.014	5.22
581.354	5.07
581.693	5.09
582.032	5.27
582.372	5.19
582.711	5.22
583.05	5.08
583.389	4.97
583.728	4.94
584.067	5.13
584.406	5.35
584.745	5.3
585.083	5.2
585.422	5.15
585.761	5.13
586.1	5.03
586.438	5.29
586.777	4.77
587.115	5.04
587.454	5.18
587.792	4.9
588.13	5.08
588.469	5.07
588.807	5
589.145	4.9
589.483	5.21
589.821	5.14
590.159	4.94
590.497	5.07
590.835	5.2
591.173	5.25
591.511	5.01
591.849	5.24
592.187	5.16
592.524	4.96
592.862	5.22
593.2	4.95
593.537	5.1
593.875	5.02
594.212	5.11
594.55	4.79
594.887	5.17
595.224	5.09
595.561	5.1
595.899	5.13
596.236	5.26
596.573	5.06
596.91	5.11
597.247	4.96
597.584	5.15
597.921	5.07
598.258	4.94
598.594	4.89
598.931	5.04
599.268	4.95
599.604	4.94
599.941	5.08
600.277	5.12
600.614	5.13
600.95	5.01
601.287	5.06
601.623	5.19
601.959	5.29
602.296	5.07
602.632	5.07
602.968	5.1
603.304	4.98
603.64	5.06
603.976	4.97
604.312	5.17
604.648	5.16
604.984	5.09
605.319	5.26
605.655	5.31
605.991	5.07
606.326	5.07
606.662	5.09
606.998	4.89
607.333	5.15
607.668	5.17
608.004	5.06
608.339	5.03
608.674	5.06
609.01	5.21
609.345	5.08
609.68	5.13
610.015	5.14
610.35	5.16
610.685	5.37
611.02	5.17
611.355	5.15
611.689	5.09
612.024	5.06
612.359	5.22
612.694	5.06
613.028	4.94
613.363	5.07
613.697	5.2
614.032	5.16
614.366	4.94
614.7	5.26
615.035	5.07
615.369	4.97
615.703	5.12
616.037	5.39
616.371	5.14
616.705	5.08
617.039	5.39
617.373	5.01
617.707	5.14
618.041	4.95
618.375	5.13
618.709	4.91
619.042	5.04
619.376	5.07
619.71	5.45
620.043	5.16
620.377	5.14
620.71	5.02
621.043	5.42
621.377	5.11
621.71	5.06
622.043	4.75
622.376	5.23
622.709	5.06
623.043	4.98
623.376	4.82
623.709	5.08
624.041	5.22
624.374	5.1
624.707	5.29
625.04	5.05
625.373	4.84
625.705	5.33
626.038	5.35
626.37	5.32
626.703	4.76
627.035	5.11
627.368	5.55
627.7	5.35
628.032	4.85
628.365	5.03
628.697	5.05
629.029	5.19
629.361	5.02
629.693	5.22
630.025	5.18
630.357	5
630.689	5.31
631.021	5.18
631.353	5.16
631.684	5.29
632.016	5.15
632.348	5.16
632.679	4.88
633.011	5.09
633.342	4.85
633.674	5.37
634.005	5.18
634.336	5.16
634.668	5.22
634.999	4.77
635.33	5.08
635.661	5.2
635.992	4.87
636.323	5.26
636.654	5.06
636.985	5.22
637.316	5.17
637.647	5.36
637.977	4.88
638.308	5.07
638.639	5.18
638.969	5.19
639.3	5.27
639.63	4.96
639.961	5.29
640.291	5.3
640.622	5.1
640.952	5.31
641.282	5.28
641.612	5.11
641.943	5.26
642.273	4.9
642.603	5.01
642.933	5.01
643.263	5.39
643.592	4.92
643.922	4.89
644.252	5.27
644.582	5.3
644.911	5.53
645.241	5.41
645.571	5.23
645.9	4.96
646.23	4.83
646.559	4.68
646.888	5.19
647.218	5.41
647.547	5.47
647.876	5.29
648.205	5.16
648.534	4.86
648.863	5.2
649.192	5.34
649.521	5.36
649.85	5.38
650.179	4.94
650.508	5.33
650.837	4.97
651.165	4.9
651.494	5.4
651.822	5.71
652.151	4.96
652.479	5.35
652.808	5.31
653.136	4.87
653.465	5.01
653.793	4.71
654.121	5.21
654.449	5.1
654.777	5.27
655.105	5.31
655.433	4.72
655.761	5.06
656.089	5.17
656.417	4.87
656.745	4.77
657.073	5.14
657.4	5.22
657.728	5.51
658.056	4.73
658.383	5.25
658.711	4.68
659.038	5.02
659.365	5.06
659.693	4.44
660.02	5.21
660.347	4.95
660.674	4.96
661.001	5.05
661.329	5.16
661.656	4.76
661.982	5.05
662.309	5.23
662.636	5.05
662.963	5.53
663.29	5.35
663.616	5.43
663.943	5.45
664.27	4.54
664.596	5.1
664.923	4.85
665.249	5.41
665.576	5.28
665.902	4.98
666.228	4.63
666.554	5.89
666.881	5.35
667.207	5.55
667.533	5.31
667.859	5.09
668.185	5.37
668.511	4.95
668.837	5.09
669.162	5.41
669.488	5.54
669.814	5.35
670.139	5.3
670.465	5.68
670.791	5.1
671.116	5.42
671.442	5.36
671.767	5.6
672.092	4.5
672.418	5.33
672.743	5.22
673.068	5.88
673.393	4.55
673.718	5.7
674.043	5.11
674.368	4.94
674.693	6.35
675.018	4.87
675.343	5.21
675.667	5.15
675.992	5.28
676.317	5.3
676.641	4.56
676.966	5.42
677.29	5.11
677.615	5.3
677.939	4.77
678.264	5.49
678.588	5.05
678.912	5.29
679.236	5.46
679.56	5.87
679.885	5.26
680.209	4.77
680.532	5.32
680.856	4.86
681.18	5.39
681.504	5.34
681.828	5.27
682.152	4.82
682.475	5.27
682.799	5.03
683.122	5.08
683.446	5.46
683.769	5.29
684.093	5.1
684.416	5.23
684.739	5.11
685.062	5.26
685.386	5.4
685.709	5.28
686.032	5.63
686.355	5.14
686.678	5.33
687.001	4.76
687.324	5.49
687.646	5.83
687.969	4.86
688.292	5.23
688.614	4.87
688.937	4.88
689.26	5.33
689.582	5.01
689.904	5.35
690.227	5.28
690.549	5.69
690.871	5.23
691.194	5.1
691.516	4.65
691.838	5.62
692.16	5.61
692.482	4.79
692.804	5.56
693.126	5.53
