Data from 815655_chest_Reflection__0__140.txt Node

Date: Fri Sep 16 15:50:54 CDT 2022
User: ToomeyLab
Spectrometer: FLMS14357
Trigger mode: 0
Integration Time (sec): 1.000000E-2
Scans to average: 100
Electric dark correction enabled: true
Nonlinearity correction enabled: false
Boxcar width: 0
XAxis mode: Wavelengths
Number of Pixels in Spectrum: 2048
>>>>>Begin Spectral Data<<<<<
189.047	101.01
189.435	101.01
189.823	101.01
190.211	-221.79
190.599	21.16
190.987	224.66
191.375	105.32
191.763	465.2
192.151	159.75
192.538	-272.01
192.926	-23.62
193.314	-18.89
193.702	-89.57
194.089	35.66
194.477	63.93
194.864	27.74
195.252	762
195.639	-13.48
196.027	141.36
196.414	94.31
196.801	-117.74
197.189	490.67
197.576	-65.54
197.963	-37.88
198.351	-15.82
198.738	19.77
199.125	30.68
199.512	-73.34
199.899	10.06
200.286	-23.89
200.673	-1.3
201.06	-13.94
201.447	-12.74
201.833	-29.4
202.22	14.4
202.607	-113.17
202.994	34.05
203.38	5.91
203.767	13.32
204.154	8.33
204.54	-25.95
204.927	-30.44
205.313	29.67
205.699	47.97
206.086	30.29
206.472	32.36
206.858	-23.29
207.245	-0.55
207.631	15.89
208.017	12.7
208.403	-15.73
208.789	6.61
209.175	31.78
209.561	3.65
209.947	-36.19
210.333	-12.21
210.719	-27.42
211.105	-4.66
211.491	-7.62
211.876	31.36
212.262	28.6
212.648	4.17
213.034	17.19
213.419	-7.09
213.805	22.09
214.19	-5.03
214.576	-9.59
214.961	-26.69
215.346	14.84
215.732	-35.41
216.117	37.41
216.502	9.7
216.888	-30.83
217.273	-30.82
217.658	17.35
218.043	-58.8
218.428	-17.04
218.813	-7.78
219.198	4.26
219.583	-0.94
219.968	7.9
220.353	-20.32
220.738	5.13
221.122	-31.06
221.507	25.92
221.892	-12.25
222.276	15.63
222.661	14.74
223.046	7.18
223.43	-4.74
223.815	-21.07
224.199	0.13
224.583	15.92
224.968	11.22
225.352	-0.89
225.736	8.86
226.121	-2.51
226.505	-2.36
226.889	1.78
227.273	6.44
227.657	4.08
228.041	-1.29
228.425	-5.99
228.809	4.04
229.193	1.9
229.577	2.01
229.961	1.59
230.344	3.17
230.728	2.58
231.112	1.48
231.495	1.84
231.879	2.02
232.263	0.19
232.646	2.11
233.03	2.96
233.413	2.75
233.797	0.43
234.18	2.8
234.563	-0.28
234.946	3.09
235.33	2.38
235.713	1.61
236.096	1.98
236.479	1.93
236.862	1.42
237.245	1.92
237.628	2.68
238.011	1.72
238.394	3.05
238.777	2.72
239.16	0.42
239.543	3.4
239.925	3.72
240.308	1.43
240.691	2.65
241.073	1.11
241.456	2.57
241.838	1.46
242.221	1.85
242.603	2.19
242.986	1.12
243.368	1.96
243.75	1.79
244.133	2.59
244.515	1.91
244.897	2.76
245.279	2.57
245.661	2.41
246.043	2.12
246.425	1.81
246.807	2.24
247.189	1.81
247.571	1.82
247.953	1.6
248.335	2.08
248.717	2.1
249.098	2.14
249.48	2.2
249.862	1.97
250.243	2.47
250.625	2.22
251.006	2.27
251.388	2.8
251.769	1.4
252.151	2.33
252.532	1.19
252.913	1.95
253.295	2
253.676	2.23
254.057	1.92
254.438	1.36
254.819	1.24
255.2	1.15
255.581	3.09
255.962	1.28
256.343	2.11
256.724	1.62
257.105	0.84
257.486	2.2
257.867	1.16
258.247	1.91
258.628	1.71
259.009	2.53
259.389	2.55
259.77	1.29
260.15	2.42
260.531	1.63
260.911	1.93
261.292	1.75
261.672	1.89
262.052	1.76
262.432	1.85
262.813	2.28
263.193	1.66
263.573	2.12
263.953	2.37
264.333	1.56
264.713	1.97
265.093	1.52
265.473	2.1
265.853	2.73
266.233	2.94
266.612	2.65
266.992	2.03
267.372	1.57
267.752	1.7
268.131	1.77
268.511	2.51
268.89	2.47
269.27	1.66
269.649	1.92
270.029	1.22
270.408	2.39
270.787	2.1
271.167	1.61
271.546	2.59
271.925	2.13
272.304	1.98
272.683	1.46
273.062	2.07
273.441	1.94
273.82	2.04
274.199	2
274.578	1.98
274.957	2.26
275.336	1.95
275.715	2.11
276.093	1.77
276.472	1.82
276.851	1.22
277.229	2.36
277.608	2.32
277.986	2.71
278.365	0.83
278.743	1.88
279.122	1.29
279.5	1.46
279.878	2.23
280.257	1.99
280.635	2.32
281.013	1.89
281.391	1.63
281.769	2.39
282.147	1.72
282.525	1.48
282.903	1.86
283.281	1.71
283.659	2.14
284.037	1.89
284.415	2.17
284.792	2.46
285.17	2.28
285.548	1.42
285.925	1.86
286.303	1.83
286.68	1.94
287.058	1.73
287.435	1.84
287.813	1.96
288.19	1.53
288.567	1.55
288.945	1.74
289.322	2.15
289.699	1.91
290.076	1.74
290.453	1.91
290.83	1.55
291.207	1.63
291.584	1.18
291.961	2.2
292.338	2.15
292.715	1.6
293.092	2.32
293.469	1.74
293.845	1.75
294.222	1.49
294.599	1.64
294.975	1.41
295.352	2.07
295.728	1.42
296.105	1.86
296.481	1.47
296.858	1.83
297.234	2.2
297.61	2.12
297.986	1.99
298.363	1.78
298.739	1.61
299.115	2.07
299.491	1.98
299.867	1.72
300.243	1.79
300.619	1.84
300.995	1.73
301.371	2.09
301.746	1.87
302.122	2.13
302.498	1.88
302.874	1.97
303.249	2.06
303.625	1.59
304	1.65
304.376	1.12
304.751	1.94
305.127	1.97
305.502	1.55
305.878	1.86
306.253	2.08
306.628	1.63
307.003	1.6
307.378	2.11
307.754	2.06
308.129	2.8
308.504	2.35
308.879	2.12
309.254	1.91
309.629	1.45
310.003	1.29
310.378	1.54
310.753	1.87
311.128	1.78
311.502	1.34
311.877	1.99
312.252	1.78
312.626	1.99
313.001	1.91
313.375	2.24
313.75	1.68
314.124	1.63
314.498	1.3
314.873	2.52
315.247	1.44
315.621	1.98
315.995	1.21
316.369	2.03
316.743	2.38
317.117	1.7
317.491	1.76
317.865	2.54
318.239	1.55
318.613	1.61
318.987	1.87
319.361	1.26
319.734	1.64
320.108	1.59
320.482	1.94
320.855	1.6
321.229	1.63
321.602	1.85
321.976	1.85
322.349	1.5
322.723	1.32
323.096	1.63
323.469	1.45
323.843	2.05
324.216	1.78
324.589	2.01
324.962	1.54
325.335	2.37
325.708	2.12
326.081	1.85
326.454	1.73
326.827	1.61
327.2	1.83
327.573	1.29
327.945	1.89
328.318	2.03
328.691	1.91
329.063	1.59
329.436	1.72
329.809	0.9
330.181	2.01
330.553	2.06
330.926	1.75
331.298	2.17
331.671	1.73
332.043	1.54
332.415	1.96
332.787	1.93
333.159	1.22
333.532	1.88
333.904	2.03
334.276	1.72
334.648	1.66
335.02	2.16
335.391	1.85
335.763	1.74
336.135	1.54
336.507	1.78
336.879	2.08
337.25	1.27
337.622	1.75
337.993	1.91
338.365	1.79
338.736	2.48
339.108	2.06
339.479	1.91
339.851	1.89
340.222	1.4
340.593	1.85
340.964	2.08
341.336	1.66
341.707	1.64
342.078	2.3
342.449	2.26
342.82	1.66
343.191	1.47
343.562	1.97
343.933	2.16
344.303	2.42
344.674	1.63
345.045	2.11
345.416	1.79
345.786	2.24
346.157	2.26
346.527	1.81
346.898	1.79
347.268	2.23
347.639	1.66
348.009	1.71
348.38	1.87
348.75	1.56
349.12	1.88
349.49	1.91
349.861	2.16
350.231	1.76
350.601	1.95
350.971	1.98
351.341	2.32
351.711	1.88
352.081	1.4
352.45	2.34
352.82	2.36
353.19	1.97
353.56	2.01
353.929	1.83
354.299	2.14
354.669	1.83
355.038	1.69
355.408	2.02
355.777	1.94
356.147	2.05
356.516	2.04
356.885	1.83
357.254	1.88
357.624	1.92
357.993	1.74
358.362	1.59
358.731	2.42
359.1	1.94
359.469	2.04
359.838	1.89
360.207	2.17
360.576	2.13
360.945	1.96
361.314	1.71
361.682	1.84
362.051	1.89
362.42	2.36
362.788	2.12
363.157	2
363.525	1.83
363.894	2.21
364.262	1.93
364.631	1.89
364.999	2.3
365.367	2.01
365.735	2.15
366.104	2.09
366.472	2.23
366.84	1.86
367.208	2.08
367.576	1.76
367.944	1.79
368.312	1.89
368.68	2.18
369.048	2.41
369.416	2.12
369.783	2.06
370.151	2.34
370.519	1.74
370.886	2.04
371.254	1.47
371.621	2.07
371.989	2.18
372.356	2.13
372.724	2.12
373.091	1.81
373.458	1.92
373.826	2.09
374.193	2.24
374.56	1.84
374.927	1.84
375.294	2.09
375.661	2.05
376.028	2.27
376.395	1.87
376.762	2.24
377.129	1.97
377.496	2.06
377.863	2.09
378.229	2.13
378.596	1.96
378.963	1.86
379.329	1.91
379.696	2.39
380.062	2
380.429	1.79
380.795	2.04
381.161	2.44
381.528	1.99
381.894	1.96
382.26	2.03
382.626	2.28
382.993	2.09
383.359	2.15
383.725	1.89
384.091	2.26
384.457	1.87
384.823	1.97
385.188	1.95
385.554	2.13
385.92	2.17
386.286	2.27
386.651	2.02
387.017	1.95
387.383	1.62
387.748	1.82
388.114	1.73
388.479	2.28
388.845	1.98
389.21	2.21
389.575	1.96
389.94	2.33
390.306	2.07
390.671	1.95
391.036	1.98
391.401	2.09
391.766	2.05
392.131	2.1
392.496	2.06
392.861	1.91
393.226	2.22
393.591	2.14
393.956	2.28
394.32	2.14
394.685	1.91
395.05	2.15
395.414	1.9
395.779	2.21
396.143	2.26
396.508	1.98
396.872	2.17
397.236	2.21
397.601	1.95
397.965	2.02
398.329	1.78
398.694	2.29
399.058	2.34
399.422	2.31
399.786	2.21
400.15	2.32
400.514	1.85
400.878	2.23
401.242	2.09
401.605	1.92
401.969	2.05
402.333	2.15
402.697	2.21
403.06	2.36
403.424	2.23
403.787	2.23
404.151	2.03
404.514	1.99
404.878	2.06
405.241	2.09
405.604	2.17
405.968	2.11
406.331	2.06
406.694	2.1
407.057	2.1
407.42	2.12
407.783	2.37
408.146	2.33
408.509	2.2
408.872	2.25
409.235	2.42
409.598	1.94
409.961	2.32
410.323	2.07
410.686	2.36
411.049	2.3
411.411	2.07
411.774	2.13
412.136	2.16
412.499	2.03
412.861	2.31
413.223	2.34
413.586	2.32
413.948	2.4
414.31	2.45
414.672	2.15
415.035	2.35
415.397	1.99
415.759	2.38
416.121	2.14
416.483	2.31
416.845	2.26
417.206	2.33
417.568	2.24
417.93	2.48
418.292	2.27
418.653	2.14
419.015	2.02
419.377	2.26
419.738	2.12
420.1	2.23
420.461	2.25
420.822	2.08
421.184	2.23
421.545	2.19
421.906	2.28
422.267	2.2
422.629	2.19
422.99	2.17
423.351	2.28
423.712	2.16
424.073	2.28
424.434	2.17
424.795	2.26
425.155	2.2
425.516	2.25
425.877	2.16
426.238	2.17
426.598	2.19
426.959	2.22
427.32	2.16
427.68	2.29
428.041	2.26
428.401	2.26
428.761	2.3
429.122	2.33
429.482	2.24
429.842	2.09
430.202	2.07
430.563	2.42
430.923	2.4
431.283	2.55
431.643	2.47
432.003	2.36
432.363	2.35
432.722	2.42
433.082	2.42
433.442	2.33
433.802	2.29
434.161	2.35
434.521	2.32
434.881	2.3
435.24	2.26
435.6	2.39
435.959	2.45
436.319	2.26
436.678	2.52
437.037	2.23
437.396	2.33
437.756	2.49
438.115	2.29
438.474	2.17
438.833	2.33
439.192	2.17
439.551	2.27
439.91	2.21
440.269	2.41
440.628	2.27
440.987	2.39
441.345	2.29
441.704	2.37
442.063	2.37
442.421	2.3
442.78	2.3
443.138	2.4
443.497	2.32
443.855	2.43
444.214	2.34
444.572	2.45
444.93	2.43
445.288	2.23
445.647	2.34
446.005	2.21
446.363	2.36
446.721	2.44
447.079	2.28
447.437	2.38
447.795	2.39
448.153	2.37
448.51	2.3
448.868	2.34
449.226	2.35
449.584	2.46
449.941	2.23
450.299	2.33
450.656	2.47
451.014	2.43
451.371	2.46
451.729	2.43
452.086	2.33
452.443	2.3
452.801	2.36
453.158	2.49
453.515	2.45
453.872	2.42
454.229	2.29
454.586	2.44
454.943	2.24
455.3	2.52
455.657	2.41
456.014	2.57
456.371	2.3
456.727	2.39
457.084	2.45
457.441	2.5
457.797	2.48
458.154	2.49
458.51	2.56
458.867	2.36
459.223	2.38
459.58	2.41
459.936	2.54
460.292	2.45
460.648	2.36
461.005	2.39
461.361	2.28
461.717	2.36
462.073	2.48
462.429	2.47
462.785	2.39
463.141	2.55
463.496	2.49
463.852	2.55
464.208	2.47
464.564	2.53
464.919	2.5
465.275	2.48
465.631	2.49
465.986	2.56
466.342	2.5
466.697	2.54
467.052	2.5
467.408	2.6
467.763	2.59
468.118	2.56
468.473	2.52
468.829	2.59
469.184	2.56
469.539	2.51
469.894	2.62
470.249	2.65
470.603	2.55
470.958	2.61
471.313	2.7
471.668	2.63
472.023	2.38
472.377	2.58
472.732	2.48
473.086	2.56
473.441	2.48
473.795	2.5
474.15	2.34
474.504	2.56
474.859	2.58
475.213	2.5
475.567	2.4
475.921	2.58
476.275	2.63
476.63	2.52
476.984	2.83
477.338	2.56
477.692	2.41
478.045	2.53
478.399	2.56
478.753	2.47
479.107	2.55
479.461	2.49
479.814	2.54
480.168	2.48
480.521	2.63
480.875	2.55
481.228	2.61
481.582	2.61
481.935	2.72
482.289	2.66
482.642	2.69
482.995	2.62
483.348	2.61
483.701	2.58
484.055	2.55
484.408	2.63
484.761	2.54
485.114	2.37
485.466	2.38
485.819	2.36
486.172	2.44
486.525	2.52
486.878	2.52
487.23	2.58
487.583	2.58
487.936	2.56
488.288	2.51
488.641	2.53
488.993	2.52
489.345	2.43
489.698	2.49
490.05	2.52
490.402	2.55
490.754	2.6
491.107	2.59
491.459	2.62
491.811	2.61
492.163	2.61
492.515	2.6
492.866	2.53
493.218	2.48
493.57	2.53
493.922	2.56
494.274	2.64
494.625	2.69
494.977	2.65
495.328	2.71
495.68	2.61
496.031	2.69
496.383	2.72
496.734	2.66
497.086	2.64
497.437	2.67
497.788	2.65
498.139	2.69
498.49	2.76
498.842	2.73
499.193	2.74
499.544	2.7
499.894	2.66
500.245	2.69
500.596	2.66
500.947	2.78
501.298	2.81
501.648	2.79
501.999	2.7
502.35	2.81
502.7	2.82
503.051	2.88
503.401	2.72
503.752	2.79
504.102	2.79
504.452	2.72
504.803	2.81
505.153	2.9
505.503	2.85
505.853	2.77
506.203	2.83
506.553	2.69
506.903	2.79
507.253	2.8
507.603	2.88
507.953	2.84
508.303	2.96
508.652	2.81
509.002	2.79
509.352	2.85
509.701	2.8
510.051	2.92
510.4	2.82
510.75	2.81
511.099	2.82
511.449	2.8
511.798	2.81
512.147	2.78
512.496	2.96
512.846	2.87
513.195	2.8
513.544	2.9
513.893	2.94
514.242	2.86
514.591	2.99
514.939	2.94
515.288	2.99
515.637	2.88
515.986	3.04
516.334	2.94
516.683	3.02
517.032	3
517.38	3.13
517.729	3
518.077	3.07
518.426	3.04
518.774	2.9
519.122	2.96
519.47	2.98
519.819	2.85
520.167	2.88
520.515	2.91
520.863	2.98
521.211	2.96
521.559	2.99
521.907	3
522.255	2.98
522.602	2.96
522.95	3.11
523.298	3.04
523.645	3.06
523.993	3.11
524.341	3.16
524.688	3.18
525.036	3.17
525.383	3.13
525.73	3.08
526.078	3.22
526.425	3.08
526.772	3.1
527.119	3.01
527.466	3.02
527.814	3.06
528.161	3.1
528.508	3.06
528.854	3.15
529.201	3
529.548	3.04
529.895	3
530.242	3
530.588	3.04
530.935	3.03
531.282	3.08
531.628	3.15
531.975	3.14
532.321	3.18
532.667	3.26
533.014	3.29
533.36	3.18
533.706	3.23
534.052	3.22
534.399	3.27
534.745	3.19
535.091	3.13
535.437	3.14
535.783	3.24
536.129	3.31
536.474	3.24
536.82	3.27
537.166	3.36
537.512	3.33
537.857	3.34
538.203	3.17
538.549	3.27
538.894	3.26
539.239	3.46
539.585	3.41
539.93	3.33
540.276	3.53
540.621	3.58
540.966	3.38
541.311	3.4
541.656	3.51
542.001	3.42
542.346	3.37
542.691	3.38
543.036	3.29
543.381	3.27
543.726	3.38
544.071	3.42
544.415	3.4
544.76	3.44
545.105	3.54
545.449	3.52
545.794	3.53
546.138	3.55
546.483	3.7
546.827	3.74
547.171	3.6
547.516	3.5
547.86	3.57
548.204	3.59
548.548	3.59
548.892	3.52
549.236	3.64
549.58	3.74
549.924	3.68
550.268	3.73
550.612	3.83
550.956	3.65
551.3	3.78
551.643	3.86
551.987	3.94
552.33	3.68
552.674	3.76
553.017	3.96
553.361	3.78
553.704	3.95
554.048	4.03
554.391	3.88
554.734	3.83
555.077	3.92
555.42	3.98
555.764	4
556.107	3.98
556.45	4.04
556.793	4.14
557.135	4.06
557.478	3.95
557.821	3.95
558.164	4.25
558.507	4.08
558.849	4.04
559.192	4.14
559.534	4.18
559.877	3.98
560.219	4.03
560.562	4.25
560.904	4.05
561.246	4.16
561.589	4.21
561.931	4.13
562.273	4.3
562.615	4.28
562.957	4.33
563.299	4.41
563.641	4.35
563.983	4.37
564.325	4.26
564.667	4.08
565.008	4.52
565.35	4.16
565.692	4.33
566.033	4.36
566.375	4.19
566.716	4.46
567.058	4.45
567.399	4.64
567.741	4.27
568.082	4.39
568.423	4.32
568.764	4.47
569.105	4.49
569.447	4.68
569.788	4.57
570.129	4.67
570.47	4.62
570.811	4.84
571.151	4.86
571.492	4.62
571.833	4.71
572.174	4.79
572.514	4.7
572.855	4.66
573.195	4.77
573.536	4.67
573.876	4.67
574.217	4.74
574.557	4.73
574.898	4.62
575.238	4.82
575.578	4.79
575.918	4.8
576.258	4.92
576.598	4.68
576.938	4.77
577.278	4.81
577.618	4.98
577.958	4.99
578.298	5.03
578.638	5.02
578.977	5.03
579.317	5.06
579.657	5.16
579.996	5.05
580.336	5.2
580.675	4.97
581.014	5.17
581.354	5.25
581.693	5.06
582.032	5.5
582.372	5.22
582.711	5.54
583.05	5.29
583.389	5.44
583.728	5.35
584.067	5.4
584.406	5.56
584.745	5.48
585.083	5.47
585.422	5.6
585.761	5.54
586.1	5.42
586.438	5.85
586.777	5.24
587.115	5.72
587.454	5.73
587.792	5.57
588.13	5.64
588.469	5.72
588.807	5.56
589.145	5.56
589.483	5.88
589.821	5.8
590.159	5.75
590.497	5.6
590.835	5.99
591.173	5.94
591.511	5.71
591.849	6
592.187	5.73
592.524	5.67
592.862	5.89
593.2	5.79
593.537	5.95
593.875	6.12
594.212	6.09
594.55	5.96
594.887	6.04
595.224	6.21
595.561	6.16
595.899	6.27
596.236	6.2
596.573	5.89
596.91	6.18
597.247	6.07
597.584	6.2
597.921	6.22
598.258	6.04
598.594	6
598.931	6.17
599.268	6.29
599.604	6.13
599.941	6.18
600.277	6.38
600.614	6.53
600.95	6.46
601.287	6.43
601.623	6.41
601.959	6.57
602.296	6.38
602.632	6.44
602.968	6.56
603.304	6.65
603.64	6.61
603.976	6.67
604.312	6.72
604.648	6.82
604.984	6.6
605.319	6.74
605.655	6.83
605.991	6.64
606.326	6.61
606.662	6.62
606.998	6.74
607.333	6.89
607.668	7.09
608.004	6.95
608.339	6.69
608.674	6.91
609.01	7.01
609.345	7.04
609.68	7.12
610.015	7.18
610.35	7.15
610.685	7.33
611.02	7.06
611.355	7.27
611.689	7.2
612.024	7.25
612.359	7.36
612.694	7.06
613.028	7.24
613.363	7
613.697	7.46
614.032	7.12
614.366	7.14
614.7	7.64
615.035	7.48
615.369	7.55
615.703	7.42
616.037	7.61
616.371	7.77
616.705	7.64
617.039	7.89
617.373	7.38
617.707	7.46
618.041	7.72
618.375	7.73
618.709	7.5
619.042	7.63
619.376	8
619.71	8.04
620.043	7.83
620.377	8.03
620.71	7.95
621.043	8.15
621.377	8.26
621.71	7.97
622.043	7.91
622.376	8.28
622.709	8.21
623.043	8.16
623.376	7.88
623.709	7.95
624.041	8.13
624.374	8.06
624.707	8.29
625.04	8.19
625.373	8.19
625.705	8.54
626.038	8.67
626.37	8.47
626.703	8.04
627.035	8.24
627.368	8.66
627.7	8.63
628.032	8.29
628.365	8.3
628.697	8.66
629.029	8.69
629.361	8.69
629.693	8.68
630.025	8.64
630.357	8.77
630.689	8.72
631.021	8.7
631.353	9.17
631.684	8.72
632.016	8.96
632.348	9.19
632.679	8.78
633.011	9.05
633.342	9.07
633.674	8.98
634.005	9.03
634.336	8.79
634.668	9.01
634.999	8.64
635.33	9.15
635.661	9.24
635.992	8.74
636.323	8.92
636.654	9.02
636.985	9.44
637.316	9.5
637.647	9.25
637.977	9.23
638.308	9.42
638.639	9.66
638.969	9.49
639.3	9.69
639.63	9.23
639.961	9.81
640.291	9.53
640.622	9.88
640.952	9.85
641.282	9.73
641.612	9.37
641.943	9.62
642.273	9.69
642.603	10.2
642.933	9.69
643.263	9.94
643.592	9.7
643.922	9.75
644.252	9.74
644.582	9.88
644.911	9.92
645.241	10.28
645.571	10.01
645.9	10.43
646.23	10.19
646.559	9.84
646.888	9.61
647.218	10.17
647.547	10
647.876	10.47
648.205	10.17
648.534	10.37
648.863	10.46
649.192	10.27
649.521	10.23
649.85	10.6
650.179	10.4
650.508	10.98
650.837	10.71
651.165	10.17
651.494	10.99
651.822	10.22
652.151	10.79
652.479	10.95
652.808	10.73
653.136	10.38
653.465	10.93
653.793	10.83
654.121	11.07
654.449	10.46
654.777	10.98
655.105	11.1
655.433	10.78
655.761	11.42
656.089	10.86
656.417	10.95
656.745	11.26
657.073	10.91
657.4	11.07
657.728	11.38
658.056	10.78
658.383	11.32
658.711	11.28
659.038	11.46
659.365	11.31
659.693	10.76
660.02	11.34
660.347	11.39
660.674	11.34
661.001	11.29
661.329	11.26
661.656	11.41
661.982	11.69
662.309	11.66
662.636	11.57
662.963	11.7
663.29	11.97
663.616	11.79
663.943	11.82
664.27	11.59
664.596	12.23
664.923	11.94
665.249	11.74
665.576	11.39
665.902	12.11
666.228	11.69
666.554	12.18
666.881	12.48
667.207	12.09
667.533	12.21
667.859	11.73
668.185	11.78
668.511	12.1
668.837	11.78
669.162	12.65
669.488	12.31
669.814	12.23
670.139	11.88
670.465	12.18
670.791	12.54
671.116	12.47
671.442	12.72
671.767	12.19
672.092	12.54
672.418	12.77
672.743	12.5
673.068	12.39
673.393	12.11
673.718	12.97
674.043	12.46
674.368	13.01
674.693	13.2
675.018	13.27
675.343	12.8
675.667	12.73
675.992	12.99
676.317	12.79
676.641	12.59
676.966	13.33
677.29	13.21
677.615	13.3
677.939	13.21
678.264	13.38
678.588	12.59
678.912	13.24
679.236	12.95
679.56	13.75
679.885	13.75
680.209	12.34
680.532	14.07
680.856	13.87
681.18	13.23
681.504	13.4
681.828	13.52
682.152	13.36
682.475	14.02
682.799	13.42
683.122	13.32
683.446	14.18
683.769	14.08
684.093	14.03
684.416	13.16
684.739	13.79
685.062	13.94
685.386	14.27
685.709	13.97
686.032	14.23
686.355	14.27
686.678	14.37
687.001	13.72
687.324	14.34
687.646	14.29
687.969	14.37
688.292	13.98
688.614	13.8
688.937	13.99
