Data from 815655_crown_Reflection__4__154.txt Node

Date: Fri Sep 16 15:56:51 CDT 2022
User: ToomeyLab
Spectrometer: FLMS14357
Trigger mode: 0
Integration Time (sec): 1.000000E-2
Scans to average: 100
Electric dark correction enabled: true
Nonlinearity correction enabled: false
Boxcar width: 0
XAxis mode: Wavelengths
Number of Pixels in Spectrum: 2048
>>>>>Begin Spectral Data<<<<<
189.047	97.77
189.435	97.77
189.823	97.77
190.211	-556.84
190.599	-87.49
190.987	72.65
191.375	104.89
191.763	1143.57
192.151	-211.95
192.538	-45.8
192.926	-190.58
193.314	96.86
193.702	20.73
194.089	16.68
194.477	-27.75
194.864	-10.86
195.252	260.67
195.639	91.26
196.027	431.73
196.414	58.68
196.801	61.22
197.189	19.39
197.576	-32.42
197.963	-81.77
198.351	-63.94
198.738	-22.65
199.125	5.78
199.512	-57.16
199.899	25.22
200.286	2.08
200.673	-28.38
201.06	17.65
201.447	-2.96
201.833	-22.93
202.22	31.85
202.607	-45.81
202.994	25.11
203.38	-28.56
203.767	28.97
204.154	-12.97
204.54	10.56
204.927	-25.22
205.313	4.05
205.699	50.61
206.086	43.25
206.472	33.62
206.858	14.9
207.245	30.16
207.631	20.57
208.017	10.81
208.403	-25.1
208.789	8.48
209.175	-1.07
209.561	10.36
209.947	-53.09
210.333	1.51
210.719	7.59
211.105	4.23
211.491	-17.85
211.876	39.1
212.262	17.72
212.648	-14.05
213.034	14.72
213.419	-21.69
213.805	33.87
214.19	-12.53
214.576	15.93
214.961	-22.8
215.346	-8.24
215.732	-48.5
216.117	22.8
216.502	-17.73
216.888	-7.48
217.273	5.21
217.658	32.16
218.043	-23.54
218.428	12.01
218.813	25.38
219.198	-5.61
219.583	-11.95
219.968	12.19
220.353	-35.01
220.738	10.66
221.122	-32.53
221.507	14.56
221.892	3.77
222.276	16.99
222.661	1.37
223.046	3.58
223.43	6.54
223.815	-12.31
224.199	3.5
224.583	-0.61
224.968	12
225.352	-4.04
225.736	8.29
226.121	8.24
226.505	1.16
226.889	7.71
227.273	1.51
227.657	5.45
228.041	3.24
228.425	-0.71
228.809	5.73
229.193	3.54
229.577	2.87
229.961	3.86
230.344	3.98
230.728	4.28
231.112	4.5
231.495	3.93
231.879	4.83
232.263	3.34
232.646	4.61
233.03	4.92
233.413	5.98
233.797	4.07
234.18	5.64
234.563	3.85
234.946	3.94
235.33	4.77
235.713	3.47
236.096	3.25
236.479	3.27
236.862	3.79
237.245	3.04
237.628	5.05
238.011	4.41
238.394	4.34
238.777	5.6
239.16	4.61
239.543	5.68
239.925	4.52
240.308	3.55
240.691	3.78
241.073	4.93
241.456	3.61
241.838	3.11
242.221	3.01
242.603	4.2
242.986	3.14
243.368	3.87
243.75	2.96
244.133	4.4
244.515	3.88
244.897	3.88
245.279	3.86
245.661	3.43
246.043	3.88
246.425	3.37
246.807	3.66
247.189	3.55
247.571	2.98
247.953	3.37
248.335	3.36
248.717	3.61
249.098	3.96
249.48	3.58
249.862	3.68
250.243	4.16
250.625	3.51
251.006	4.51
251.388	4.36
251.769	3.1
252.151	3.55
252.532	2.72
252.913	3.77
253.295	3.39
253.676	3.58
254.057	3.62
254.438	2.91
254.819	2.57
255.2	3.13
255.581	3.62
255.962	3.07
256.343	3.95
256.724	2.19
257.105	2.25
257.486	4.07
257.867	2.43
258.247	3.54
258.628	3.41
259.009	3.27
259.389	3.01
259.77	3.18
260.15	3.73
260.531	3.56
260.911	3.38
261.292	3.21
261.672	3.42
262.052	3.37
262.432	3.46
262.813	4.15
263.193	3.16
263.573	3.78
263.953	2.96
264.333	3.81
264.713	3.19
265.093	2.99
265.473	3.06
265.853	4.01
266.233	3.42
266.612	3.41
266.992	2.5
267.372	2.8
267.752	2.88
268.131	3.44
268.511	3.68
268.89	3.51
269.27	3.12
269.649	3.21
270.029	3.26
270.408	2.96
270.787	3
271.167	3.63
271.546	3.92
271.925	4.02
272.304	3.24
272.683	2.79
273.062	3.24
273.441	3.11
273.82	3.4
274.199	3.36
274.578	3.33
274.957	3.53
275.336	3.13
275.715	3.67
276.093	3.32
276.472	3.48
276.851	2.75
277.229	2.9
277.608	3.69
277.986	3.56
278.365	2.86
278.743	2.94
279.122	3.54
279.5	2.98
279.878	3.53
280.257	3.55
280.635	4
281.013	2.51
281.391	3.09
281.769	3.6
282.147	3.87
282.525	2.95
282.903	3.42
283.281	2.75
283.659	3.53
284.037	3.13
284.415	3.44
284.792	3.57
285.17	3.52
285.548	3.03
285.925	2.51
286.303	3.32
286.68	2.82
287.058	3.04
287.435	3.06
287.813	3.39
288.19	2.91
288.567	3
288.945	2.55
289.322	3.36
289.699	2.74
290.076	2.69
290.453	2.94
290.83	3.52
291.207	3.1
291.584	2.65
291.961	3.25
292.338	3.01
292.715	3.12
293.092	3
293.469	2.67
293.845	2.92
294.222	2.63
294.599	2.52
294.975	2.73
295.352	3.2
295.728	3.25
296.105	3.11
296.481	2.5
296.858	2.89
297.234	2.95
297.61	3.19
297.986	2.92
298.363	2.67
298.739	2.78
299.115	3.08
299.491	2.94
299.867	2.73
300.243	2.73
300.619	3.07
300.995	2.7
301.371	2.98
301.746	2.62
302.122	2.7
302.498	2.36
302.874	2.74
303.249	2.78
303.625	2.57
304	2.54
304.376	2.64
304.751	2.77
305.127	2.66
305.502	2.81
305.878	2.67
306.253	2.77
306.628	2.23
307.003	2.88
307.378	3.02
307.754	3.08
308.129	3.35
308.504	3.03
308.879	2.89
309.254	2.96
309.629	2.73
310.003	2.7
310.378	2.26
310.753	2.43
311.128	2.7
311.502	2.1
311.877	2.68
312.252	2.59
312.626	2.85
313.001	2.53
313.375	3.09
313.75	2.92
314.124	2.72
314.498	2.52
314.873	2.42
315.247	2.63
315.621	3.11
315.995	2.27
316.369	2.81
316.743	2.93
317.117	2.87
317.491	2.63
317.865	3.07
318.239	2.88
318.613	2.44
318.987	2.37
319.361	1.91
319.734	2.77
320.108	2.56
320.482	3.05
320.855	2.69
321.229	2.06
321.602	2.89
321.976	2.52
322.349	2.54
322.723	2.33
323.096	2.77
323.469	2.59
323.843	2.81
324.216	2.57
324.589	3.15
324.962	2.49
325.335	2.83
325.708	2.86
326.081	2.66
326.454	2.89
326.827	2.68
327.2	2.95
327.573	2.08
327.945	3.03
328.318	2.62
328.691	2.71
329.063	2.36
329.436	2.37
329.809	2.34
330.181	3.01
330.553	2.53
330.926	1.78
331.298	2.19
331.671	2.48
332.043	2.41
332.415	2.38
332.787	2.96
333.159	2.28
333.532	2.66
333.904	2.73
334.276	2.82
334.648	2.4
335.02	2.5
335.391	2.43
335.763	2.35
336.135	2.33
336.507	2.53
336.879	2.32
337.25	1.76
337.622	2.35
337.993	3.27
338.365	2.28
338.736	3.02
339.108	2.63
339.479	2.64
339.851	2.45
340.222	2.55
340.593	2.42
340.964	2.68
341.336	2.6
341.707	2.29
342.078	2.79
342.449	2.7
342.82	2.38
343.191	2.31
343.562	2.89
343.933	2.92
344.303	2.67
344.674	2.06
345.045	2.93
345.416	2.44
345.786	2.95
346.157	2.72
346.527	2.55
346.898	2.37
347.268	2.44
347.639	2.11
348.009	2.64
348.38	2.81
348.75	2.26
349.12	2.57
349.49	2.79
349.861	2.56
350.231	2.49
350.601	2.36
350.971	2.38
351.341	2.71
351.711	2.66
352.081	2.48
352.45	2.97
352.82	2.81
353.19	2.61
353.56	2.69
353.929	2.54
354.299	2.62
354.669	2.76
355.038	2.54
355.408	2.79
355.777	2.15
356.147	2.75
356.516	2.72
356.885	2.72
357.254	2.75
357.624	2.61
357.993	2.54
358.362	2.55
358.731	2.71
359.1	2.69
359.469	2.43
359.838	2.56
360.207	2.86
360.576	2.54
360.945	2.72
361.314	2.77
361.682	2.21
362.051	2.66
362.42	2.62
362.788	2.85
363.157	2.67
363.525	2.49
363.894	2.78
364.262	2.8
364.631	2.72
364.999	2.64
365.367	2.51
365.735	2.75
366.104	2.88
366.472	3.15
366.84	2.7
367.208	3.01
367.576	2.94
367.944	2.6
368.312	2.59
368.68	2.8
369.048	2.86
369.416	2.42
369.783	2.61
370.151	2.96
370.519	2.41
370.886	2.6
371.254	2.52
371.621	2.81
371.989	2.49
372.356	2.82
372.724	3.14
373.091	2.56
373.458	2.65
373.826	2.63
374.193	3.1
374.56	2.34
374.927	2.54
375.294	2.53
375.661	2.84
376.028	2.75
376.395	2.62
376.762	3.03
377.129	2.34
377.496	2.6
377.863	2.83
378.229	2.94
378.596	2.37
378.963	2.77
379.329	2.62
379.696	3.02
380.062	2.82
380.429	2.79
380.795	2.79
381.161	3.05
381.528	2.81
381.894	2.72
382.26	2.83
382.626	2.68
382.993	2.7
383.359	2.52
383.725	2.84
384.091	3.04
384.457	2.35
384.823	2.53
385.188	2.6
385.554	2.75
385.92	2.79
386.286	2.72
386.651	2.93
387.017	3.01
387.383	2.64
387.748	2.28
388.114	2.53
388.479	2.77
388.845	2.88
389.21	2.94
389.575	2.68
389.94	3.04
390.306	2.58
390.671	2.93
391.036	2.76
391.401	2.75
391.766	2.94
392.131	2.85
392.496	2.72
392.861	2.73
393.226	2.7
393.591	2.72
393.956	2.87
394.32	3.14
394.685	2.6
395.05	3
395.414	2.72
395.779	2.93
396.143	3.03
396.508	2.69
396.872	2.85
397.236	2.91
397.601	2.87
397.965	2.55
398.329	2.65
398.694	2.75
399.058	3.09
399.422	2.9
399.786	3.08
400.15	2.95
400.514	3.01
400.878	3.08
401.242	2.85
401.605	2.74
401.969	2.48
402.333	2.8
402.697	2.9
403.06	2.98
403.424	2.92
403.787	2.88
404.151	2.83
404.514	2.95
404.878	2.72
405.241	2.74
405.604	3.02
405.968	2.97
406.331	2.89
406.694	2.6
407.057	2.83
407.42	2.84
407.783	3.03
408.146	3
408.509	2.85
408.872	3.03
409.235	3.08
409.598	2.82
409.961	3.05
410.323	2.92
410.686	3.08
411.049	2.86
411.411	3.01
411.774	2.86
412.136	2.77
412.499	2.93
412.861	2.95
413.223	2.99
413.586	3.08
413.948	3.01
414.31	3.07
414.672	3.06
415.035	2.97
415.397	3.01
415.759	2.97
416.121	3.02
416.483	3.02
416.845	2.95
417.206	3.11
417.568	3.07
417.93	3.11
418.292	3.03
418.653	2.88
419.015	2.83
419.377	3.02
419.738	2.86
420.1	2.95
420.461	3
420.822	2.88
421.184	2.88
421.545	2.88
421.906	2.91
422.267	2.91
422.629	2.76
422.99	2.84
423.351	2.85
423.712	2.83
424.073	2.99
424.434	2.91
424.795	2.88
425.155	2.85
425.516	2.84
425.877	2.74
426.238	2.82
426.598	2.92
426.959	2.93
427.32	2.91
427.68	3.05
428.041	2.88
428.401	2.89
428.761	3.2
429.122	3.1
429.482	3.05
429.842	2.93
430.202	3.09
430.563	2.88
430.923	3.02
431.283	3.14
431.643	3.07
432.003	3.12
432.363	3.04
432.722	3.23
433.082	3.02
433.442	3.05
433.802	2.91
434.161	2.95
434.521	3.04
434.881	2.88
435.24	2.95
435.6	3.07
435.959	3.08
436.319	3.08
436.678	3.02
437.037	2.97
437.396	2.93
437.756	3.08
438.115	2.98
438.474	3.03
438.833	3
439.192	2.81
439.551	3.09
439.91	2.99
440.269	2.99
440.628	2.9
440.987	2.81
441.345	2.87
441.704	3.05
442.063	3.05
442.421	2.9
442.78	2.98
443.138	2.97
443.497	3.04
443.855	2.89
444.214	2.91
444.572	3.06
444.93	3.13
445.288	2.98
445.647	2.97
446.005	2.87
446.363	3.07
446.721	2.99
447.079	2.83
447.437	2.99
447.795	3
448.153	2.93
448.51	2.93
448.868	2.95
449.226	2.91
449.584	2.98
449.941	2.97
450.299	2.99
450.656	3.03
451.014	3.1
451.371	2.92
451.729	3.03
452.086	2.97
452.443	3.02
452.801	3.09
453.158	2.97
453.515	2.9
453.872	2.85
454.229	2.96
454.586	2.93
454.943	3.03
455.3	3.12
455.657	2.9
456.014	3.08
456.371	2.94
456.727	3.04
457.084	3.29
457.441	2.89
457.797	3.01
458.154	3.16
458.51	3
458.867	2.97
459.223	2.97
459.58	3.04
459.936	3.09
460.292	2.96
460.648	2.9
461.005	3.04
461.361	2.82
461.717	2.97
462.073	2.96
462.429	3.06
462.785	3.13
463.141	3.08
463.496	3.12
463.852	3.05
464.208	3.19
464.564	3.07
464.919	3.1
465.275	3.04
465.631	3.09
465.986	2.93
466.342	3.09
466.697	3.13
467.052	3.07
467.408	3.11
467.763	2.91
468.118	3.02
468.473	2.95
468.829	3
469.184	3.09
469.539	3.14
469.894	3.02
470.249	3.24
470.603	3.22
470.958	2.92
471.313	3.07
471.668	2.95
472.023	3
472.377	3.14
472.732	2.93
473.086	2.99
473.441	2.93
473.795	3.11
474.15	2.99
474.504	3.11
474.859	3.14
475.213	3.05
475.567	2.97
475.921	3.17
476.275	3.03
476.63	3.06
476.984	3.15
477.338	3.17
477.692	3.08
478.045	3.01
478.399	3.04
478.753	3.05
479.107	3
479.461	2.97
479.814	3
480.168	3.04
480.521	3.13
480.875	3.04
481.228	3.06
481.582	3.08
481.935	3.09
482.289	3.11
482.642	3.04
482.995	2.88
483.348	2.93
483.701	2.93
484.055	2.98
484.408	2.94
484.761	2.85
485.114	2.65
485.466	2.68
485.819	2.72
486.172	2.89
486.525	2.98
486.878	2.97
487.23	3.04
487.583	2.99
487.936	2.95
488.288	2.91
488.641	2.78
488.993	2.85
489.345	2.79
489.698	2.85
490.05	2.87
490.402	2.97
490.754	3.01
491.107	3
491.459	3.05
491.811	3
492.163	2.95
492.515	2.89
492.866	2.83
493.218	2.75
493.57	2.77
493.922	2.9
494.274	2.99
494.625	3.07
494.977	3.04
495.328	3.02
495.68	3.06
496.031	3.02
496.383	2.99
496.734	3.17
497.086	3.08
497.437	2.96
497.788	2.96
498.139	3.03
498.49	3
498.842	2.88
499.193	3.01
499.544	3.06
499.894	3.07
500.245	3.06
500.596	3.03
500.947	3.1
501.298	3.08
501.648	3.14
501.999	2.98
502.35	3.07
502.7	3.09
503.051	3.01
503.401	2.94
503.752	3.07
504.102	3.04
504.452	3.01
504.803	3.16
505.153	3.08
505.503	3.04
505.853	2.96
506.203	3.02
506.553	2.97
506.903	3.16
507.253	3.01
507.603	3.12
507.953	3.09
508.303	3.18
508.652	3.09
509.002	3.05
509.352	3.09
509.701	3.01
510.051	3.05
510.4	2.99
510.75	3.01
511.099	3.03
511.449	2.97
511.798	3.02
512.147	3.05
512.496	3.05
512.846	2.89
513.195	3.08
513.544	3.05
513.893	2.97
514.242	3.02
514.591	3.01
514.939	3.12
515.288	3.06
515.637	3.01
515.986	3.03
516.334	3
516.683	3.04
517.032	3.11
517.38	3.1
517.729	3.06
518.077	3.05
518.426	2.98
518.774	3.04
519.122	3.07
519.47	2.95
519.819	2.89
520.167	2.88
520.515	2.9
520.863	3.05
521.211	3.05
521.559	3.01
521.907	3.03
522.255	2.93
522.602	3.06
522.95	2.99
523.298	3.07
523.645	3.11
523.993	3.05
524.341	3.13
524.688	3.21
525.036	3.22
525.383	3.01
525.73	3.05
526.078	3.04
526.425	3.01
526.772	2.95
527.119	2.88
527.466	3.02
527.814	2.99
528.161	2.96
528.508	3.01
528.854	3.03
529.201	2.95
529.548	2.87
529.895	2.78
530.242	2.77
530.588	2.84
530.935	2.91
531.282	2.97
531.628	3.02
531.975	3.04
532.321	3.01
532.667	3.04
533.014	3.01
533.36	2.91
533.706	2.88
534.052	2.99
534.399	2.98
534.745	2.85
535.091	2.78
535.437	2.91
535.783	2.98
536.129	3.03
536.474	3.06
536.82	3
537.166	3.03
537.512	3.03
537.857	2.91
538.203	2.93
538.549	2.88
538.894	2.89
539.239	3.07
539.585	3.01
539.93	2.91
540.276	3.03
540.621	3.24
540.966	3
541.311	3
541.656	2.99
542.001	2.89
542.346	2.94
542.691	2.85
543.036	2.8
543.381	2.79
543.726	2.88
544.071	2.98
544.415	3
544.76	3
545.105	3.06
545.449	3.04
545.794	3.11
546.138	3.02
546.483	3.19
546.827	3.11
547.171	3
547.516	2.82
547.86	3.04
548.204	3.02
548.548	2.94
548.892	2.83
549.236	3.02
549.58	3.14
549.924	3.06
550.268	3.09
550.612	3.12
550.956	2.99
551.3	3.14
551.643	3.23
551.987	3.2
552.33	3.05
552.674	2.93
553.017	3.18
553.361	3.17
553.704	3.05
554.048	3.12
554.391	3.07
554.734	3.09
555.077	3.14
555.42	3.12
555.764	3.1
556.107	3.3
556.45	3.09
556.793	3.17
557.135	3.11
557.478	3.09
557.821	3.01
558.164	3.16
558.507	3.18
558.849	3.06
559.192	3.06
559.534	3.17
559.877	2.97
560.219	3.18
560.562	3.11
560.904	3.08
561.246	2.86
561.589	3.11
561.931	3.28
562.273	3.21
562.615	3.16
562.957	3.09
563.299	3.11
563.641	3.02
563.983	3.22
564.325	2.92
564.667	3.06
565.008	2.95
565.35	3.05
565.692	3.05
566.033	3.04
566.375	2.92
566.716	3.13
567.058	3.16
567.399	3.09
567.741	2.95
568.082	3.13
568.423	2.98
568.764	2.98
569.105	3.19
569.447	3.07
569.788	3.19
570.129	3.22
570.47	3.1
570.811	3.16
571.151	3.12
571.492	3.09
571.833	3.2
572.174	3.26
572.514	3.05
572.855	3
573.195	3.07
573.536	3.1
573.876	3.03
574.217	3.01
574.557	3.05
574.898	3.2
575.238	3.14
575.578	3.3
575.918	3.16
576.258	3.02
576.598	2.98
576.938	3.06
577.278	3.01
577.618	3.14
577.958	3.11
578.298	3.05
578.638	2.97
578.977	3.04
579.317	3.08
579.657	2.99
579.996	3.22
580.336	3.3
580.675	3.05
581.014	3.29
581.354	3.13
581.693	3
582.032	3.29
582.372	3.22
582.711	3.21
583.05	3.09
583.389	3.13
583.728	3.05
584.067	3.2
584.406	3.31
584.745	3.18
585.083	3.11
585.422	3.33
585.761	3.09
586.1	2.98
586.438	3.19
586.777	2.91
587.115	3.3
587.454	3.26
587.792	3.2
588.13	3.2
588.469	2.91
588.807	2.97
589.145	3.11
589.483	3.19
589.821	3.07
590.159	3.04
590.497	3.14
590.835	3.24
591.173	3.19
591.511	3.4
591.849	3.08
592.187	2.95
592.524	2.95
592.862	3.24
593.2	3.11
593.537	3.21
593.875	3.17
594.212	3.07
594.55	2.96
594.887	3.13
595.224	2.88
595.561	3.11
595.899	3.28
596.236	3.09
596.573	3.03
596.91	3.16
597.247	3.07
597.584	3.07
597.921	3.18
598.258	2.84
598.594	2.84
598.931	3.06
599.268	3
599.604	2.91
599.941	3.11
600.277	3.15
600.614	3.28
600.95	3.07
601.287	3.03
601.623	3.21
601.959	3.22
602.296	3.08
602.632	3.08
602.968	3.34
603.304	3.12
603.64	3.11
603.976	3.1
604.312	3.28
604.648	3.05
604.984	3.02
605.319	3.11
605.655	3.23
605.991	3.2
606.326	3.05
606.662	3.17
606.998	2.99
607.333	3.23
607.668	3.26
608.004	3.18
608.339	3.04
608.674	3.07
609.01	3.11
609.345	3.35
609.68	3.16
610.015	3.2
610.35	3.18
610.685	3.22
611.02	3.1
611.355	3.16
611.689	3.29
612.024	3.32
612.359	3.14
612.694	3.08
613.028	3.04
613.363	3.15
613.697	3.11
614.032	3.14
614.366	3.01
614.7	3.15
615.035	3.2
615.369	3.09
615.703	3.04
616.037	3.07
616.371	3.42
616.705	2.83
617.039	3.2
617.373	2.82
617.707	3.17
618.041	3.2
618.375	3.13
618.709	2.92
619.042	2.84
619.376	3.02
619.71	3.38
620.043	3.26
620.377	3.47
620.71	3.31
621.043	3.57
621.377	3.22
621.71	3.08
622.043	2.97
622.376	3.16
622.709	3.34
623.043	3.12
623.376	3.13
623.709	2.82
624.041	3.59
624.374	3.08
624.707	3.18
625.04	3.17
625.373	2.96
625.705	2.81
626.038	3.42
626.37	3.28
626.703	3.02
627.035	3.13
627.368	3.74
627.7	3.29
628.032	2.93
628.365	2.89
628.697	3.12
629.029	3.33
629.361	3.08
629.693	2.96
630.025	3.37
630.357	3.24
630.689	3.28
631.021	3.37
631.353	3.22
631.684	3.01
632.016	3.28
632.348	3.19
632.679	3.01
633.011	2.54
633.342	2.94
633.674	3.57
634.005	3.24
634.336	3.13
634.668	3.26
634.999	2.69
635.33	3.03
635.661	3.07
635.992	2.58
636.323	3.18
636.654	3.12
636.985	3.23
637.316	3.42
637.647	2.89
637.977	2.86
638.308	3.14
638.639	3.32
638.969	3.04
639.3	3.43
639.63	2.91
639.961	3.45
640.291	3.17
640.622	3.16
640.952	3.24
641.282	3.25
641.612	3.12
641.943	2.92
642.273	3.14
642.603	3.5
642.933	2.77
643.263	3.04
643.592	3.08
643.922	2.91
644.252	3.4
644.582	3.03
644.911	3.3
645.241	2.82
645.571	3.41
645.9	3.53
646.23	2.82
646.559	2.83
646.888	3.02
647.218	3.32
647.547	3.65
647.876	3.34
648.205	3.42
648.534	3.07
648.863	3.11
649.192	3.47
649.521	3.01
649.85	3.39
650.179	3.14
650.508	3.67
650.837	3.25
651.165	2.86
651.494	3.38
651.822	2.65
652.151	3.48
652.479	3.4
652.808	3.35
653.136	2.91
653.465	2.92
653.793	2.8
654.121	3.49
654.449	3.16
654.777	3.19
655.105	3.03
655.433	3.08
655.761	3.06
656.089	2.84
656.417	3.17
656.745	3.17
657.073	3.46
657.4	2.84
657.728	3.08
658.056	2.55
658.383	3.08
658.711	3.09
659.038	3.51
659.365	3.39
659.693	2.76
660.02	3.26
660.347	3.39
660.674	3.02
661.001	3.28
661.329	2.8
661.656	2.89
661.982	3.11
662.309	3.32
662.636	3.03
662.963	3.41
663.29	3.12
663.616	3.4
663.943	3.5
664.27	3.3
664.596	3.21
664.923	3.04
665.249	3.15
665.576	3.31
665.902	3.42
666.228	2.86
666.554	3.66
666.881	3.44
667.207	3.48
667.533	3.23
667.859	3.24
668.185	3.14
668.511	3.09
668.837	2.98
669.162	3.88
669.488	3.53
669.814	3.54
670.139	3.29
670.465	3.07
670.791	2.83
671.116	3.3
671.442	3.11
671.767	3.2
672.092	3.45
672.418	3.5
672.743	3.22
673.068	3.78
673.393	2.8
673.718	3.79
674.043	2.7
674.368	3.41
674.693	4.1
675.018	3.62
675.343	3.23
675.667	3.19
675.992	3.68
676.317	3.03
676.641	2.52
676.966	2.98
677.29	3.22
677.615	3.45
677.939	3.04
678.264	3.17
678.588	3
678.912	2.6
679.236	2.89
679.56	3.55
679.885	3.78
680.209	2.79
680.532	3.67
680.856	3.14
681.18	2.83
681.504	3.12
681.828	3.16
682.152	3.08
682.475	3.17
682.799	3.02
683.122	2.91
683.446	3.43
683.769	3.2
684.093	3.06
684.416	3.17
684.739	2.95
685.062	3.99
685.386	3.27
685.709	3.96
686.032	3.2
686.355	3.23
686.678	3.17
687.001	2.94
687.324	3.46
687.646	3.61
687.969	3.2
688.292	2.66
688.614	2.98
688.937	3.32
689.26	3.93
689.582	2.82
689.904	3.64
690.227	3.95
690.549	3.24
690.871	4.25
691.194	3
691.516	3.12
691.838	3.03
692.16	3.41
692.482	2.63
692.804	3.27
693.126	3.82
