Data from 815655_crown_Reflection__2__152.txt Node

Date: Fri Sep 16 15:56:13 CDT 2022
User: ToomeyLab
Spectrometer: FLMS14357
Trigger mode: 0
Integration Time (sec): 1.000000E-2
Scans to average: 100
Electric dark correction enabled: true
Nonlinearity correction enabled: false
Boxcar width: 0
XAxis mode: Wavelengths
Number of Pixels in Spectrum: 2048
>>>>>Begin Spectral Data<<<<<
189.047	462.82
189.435	462.82
189.823	462.82
190.211	3567.09
190.599	-147.12
190.987	171.73
191.375	96.17
191.763	1283.33
192.151	-116.76
192.538	-21.97
192.926	54.35
193.314	134.75
193.702	87.11
194.089	127.62
194.477	258.31
194.864	108.13
195.252	78
195.639	44.53
196.027	228.52
196.414	333.59
196.801	10.74
197.189	163.84
197.576	-62.72
197.963	-111.24
198.351	-17.27
198.738	-40.47
199.125	28.68
199.512	-95.97
199.899	-9.71
200.286	33.96
200.673	22.71
201.06	17.64
201.447	3.55
201.833	10.23
202.22	14.54
202.607	-94.02
202.994	-1.11
203.38	-39.26
203.767	-17.19
204.154	9.66
204.54	11
204.927	-49.61
205.313	28.72
205.699	33.16
206.086	11.91
206.472	-3.46
206.858	-16.16
207.245	5.58
207.631	13.71
208.017	9.57
208.403	-12.27
208.789	2.84
209.175	-12.13
209.561	18.69
209.947	-56.86
210.333	-3.78
210.719	-30.99
211.105	8.8
211.491	-29.95
211.876	6.98
212.262	-27.27
212.648	12.43
213.034	16.55
213.419	-41
213.805	-3.1
214.19	-3.59
214.576	-35.71
214.961	-0.71
215.346	-59.47
215.732	-37.89
216.117	13.22
216.502	-22.26
216.888	-16.12
217.273	-24.82
217.658	12.02
218.043	-84.66
218.428	12.08
218.813	-33.81
219.198	-8.22
219.583	-27.98
219.968	16.28
220.353	-6.14
220.738	-6.03
221.122	-6.52
221.507	12.61
221.892	-1.16
222.276	17.94
222.661	-1.61
223.046	8.3
223.43	1.34
223.815	-3.61
224.199	4.44
224.583	13.5
224.968	6.86
225.352	-3.4
225.736	7.98
226.121	9.87
226.505	3.47
226.889	7.63
227.273	5.38
227.657	12.53
228.041	7
228.425	1.75
228.809	9.26
229.193	6.16
229.577	7.14
229.961	5.71
230.344	8.5
230.728	7.9
231.112	6.91
231.495	7.55
231.879	7.27
232.263	6.46
232.646	5.52
233.03	8.41
233.413	7.29
233.797	5.75
234.18	7.98
234.563	5.36
234.946	5.27
235.33	8.42
235.713	6.52
236.096	6.12
236.479	7.6
236.862	8.24
237.245	6.33
237.628	7.12
238.011	6.23
238.394	7.74
238.777	8
239.16	8
239.543	7.16
239.925	7.63
240.308	8.13
240.691	7.43
241.073	6.13
241.456	6.84
241.838	5.54
242.221	6.77
242.603	7.13
242.986	6.5
243.368	7.07
243.75	7.28
244.133	7.26
244.515	7.17
244.897	7.45
245.279	6.36
245.661	6.59
246.043	7.35
246.425	6.41
246.807	7.18
247.189	6.87
247.571	6.81
247.953	7.04
248.335	7.38
248.717	7.15
249.098	7.06
249.48	7.01
249.862	6.96
250.243	7.42
250.625	6.98
251.006	6.43
251.388	7.18
251.769	6.22
252.151	6.79
252.532	6.04
252.913	6.66
253.295	7
253.676	7.32
254.057	6.5
254.438	5.93
254.819	5.44
255.2	6.23
255.581	7.56
255.962	6.71
256.343	6.95
256.724	6.14
257.105	6.92
257.486	6.46
257.867	7.39
258.247	6.86
258.628	6.18
259.009	7.08
259.389	6.85
259.77	6.35
260.15	7.29
260.531	6.88
260.911	6.69
261.292	6.4
261.672	6.68
262.052	6.46
262.432	6.27
262.813	7.13
263.193	6.88
263.573	6.56
263.953	6.47
264.333	6.71
264.713	6.07
265.093	5.27
265.473	5.76
265.853	6.87
266.233	6.23
266.612	7.46
266.992	5.24
267.372	6.75
267.752	6.14
268.131	6.55
268.511	6.75
268.89	6.64
269.27	6.02
269.649	6.32
270.029	6.3
270.408	7.28
270.787	6.48
271.167	6.34
271.546	6.96
271.925	6.46
272.304	6.81
272.683	6.19
273.062	6.48
273.441	6.75
273.82	6.27
274.199	6.31
274.578	6.31
274.957	6.37
275.336	6.08
275.715	6.5
276.093	6.07
276.472	6.24
276.851	5.98
277.229	6.12
277.608	5.75
277.986	6.17
278.365	5.3
278.743	6.34
279.122	6.05
279.5	6.23
279.878	6.44
280.257	6.46
280.635	6.14
281.013	5.7
281.391	6.22
281.769	6.23
282.147	6.45
282.525	5.82
282.903	6.31
283.281	5.92
283.659	6.21
284.037	5.82
284.415	6.23
284.792	6.36
285.17	5.97
285.548	5.58
285.925	5.78
286.303	6.33
286.68	5.87
287.058	5.88
287.435	5.87
287.813	6.22
288.19	5.89
288.567	5.56
288.945	5.78
289.322	6.16
289.699	5.66
290.076	5.81
290.453	6.14
290.83	5.77
291.207	5.78
291.584	5.43
291.961	5.82
292.338	5.94
292.715	5.98
293.092	5.71
293.469	5.56
293.845	5.51
294.222	5.72
294.599	5.1
294.975	5.3
295.352	5.55
295.728	5.58
296.105	5.66
296.481	5.42
296.858	5.36
297.234	5.55
297.61	5.81
297.986	5.34
298.363	5.43
298.739	5.31
299.115	5.72
299.491	5.52
299.867	5.3
300.243	5.38
300.619	5.16
300.995	5.3
301.371	5.51
301.746	5.37
302.122	5.89
302.498	5.01
302.874	5.15
303.249	5.43
303.625	4.98
304	5.21
304.376	4.9
304.751	5.29
305.127	4.9
305.502	5.32
305.878	5.23
306.253	5.39
306.628	4.83
307.003	4.78
307.378	5.29
307.754	5.44
308.129	5.88
308.504	5.31
308.879	4.9
309.254	5
309.629	5
310.003	5.36
310.378	4.76
310.753	4.94
311.128	4.91
311.502	4.63
311.877	5.18
312.252	5.04
312.626	5.03
313.001	4.81
313.375	5.29
313.75	5.19
314.124	4.66
314.498	4.57
314.873	4.67
315.247	5.02
315.621	4.78
315.995	4.54
316.369	4.36
316.743	4.93
317.117	5.28
317.491	4.93
317.865	4.84
318.239	4.94
318.613	4.5
318.987	4.36
319.361	4.48
319.734	4.73
320.108	4.51
320.482	4.53
320.855	4.53
321.229	4.24
321.602	4.97
321.976	4.22
322.349	4.77
322.723	4.7
323.096	4.23
323.469	4.16
323.843	5.3
324.216	5.15
324.589	4.84
324.962	4.39
325.335	4.8
325.708	4.95
326.081	4.63
326.454	4.57
326.827	4.23
327.2	4.43
327.573	4.45
327.945	4.75
328.318	4.55
328.691	4.29
329.063	4.23
329.436	4.37
329.809	4.27
330.181	4.85
330.553	4.31
330.926	4.65
331.298	4.49
331.671	4.27
332.043	4.41
332.415	4.62
332.787	4.48
333.159	4.53
333.532	4.97
333.904	4.1
334.276	3.96
334.648	4.45
335.02	4.64
335.391	4.98
335.763	3.97
336.135	3.84
336.507	4.85
336.879	4.76
337.25	4.11
337.622	4.08
337.993	4.49
338.365	3.99
338.736	4.78
339.108	4.19
339.479	4.64
339.851	4.45
340.222	4.54
340.593	4.73
340.964	4.54
341.336	4.05
341.707	4.09
342.078	4.82
342.449	4.89
342.82	4.44
343.191	4.59
343.562	4.65
343.933	4.66
344.303	4.72
344.674	4.23
345.045	5.32
345.416	4.67
345.786	4.54
346.157	4.71
346.527	4.33
346.898	4.53
347.268	4.34
347.639	4.17
348.009	4.52
348.38	4.69
348.75	4.29
349.12	4.48
349.49	4.73
349.861	4.93
350.231	4.47
350.601	4.38
350.971	4.65
351.341	4.9
351.711	4.87
352.081	4.43
352.45	4.72
352.82	4.83
353.19	3.98
353.56	4.69
353.929	4.56
354.299	4.58
354.669	4.53
355.038	4.48
355.408	4.66
355.777	4.38
356.147	4.51
356.516	4.53
356.885	4.63
357.254	4.51
357.624	4.34
357.993	4.31
358.362	4.49
358.731	5
359.1	4.73
359.469	4.82
359.838	4.57
360.207	4.75
360.576	4.77
360.945	4.82
361.314	4.4
361.682	4.45
362.051	4.69
362.42	4.9
362.788	4.86
363.157	4.73
363.525	4.6
363.894	4.77
364.262	4.8
364.631	4.59
364.999	4.67
365.367	4.58
365.735	4.68
366.104	4.99
366.472	4.92
366.84	4.65
367.208	4.79
367.576	4.7
367.944	4.65
368.312	4.87
368.68	4.92
369.048	5.13
369.416	4.86
369.783	4.95
370.151	4.82
370.519	4.74
370.886	4.84
371.254	4.7
371.621	5
371.989	4.72
372.356	4.87
372.724	5.06
373.091	5.03
373.458	4.96
373.826	4.58
374.193	5.05
374.56	4.83
374.927	4.72
375.294	4.66
375.661	4.76
376.028	4.98
376.395	4.39
376.762	5.25
377.129	4.48
377.496	4.96
377.863	5.07
378.229	5.29
378.596	4.69
378.963	5.17
379.329	5
379.696	5.02
380.062	5.02
380.429	4.96
380.795	5.03
381.161	5.38
381.528	5.33
381.894	5.08
382.26	5.13
382.626	5.04
382.993	5.04
383.359	4.96
383.725	5.05
384.091	5.08
384.457	4.57
384.823	4.75
385.188	5.06
385.554	4.84
385.92	4.95
386.286	5.02
386.651	4.95
387.017	5.13
387.383	4.87
387.748	4.78
388.114	4.91
388.479	4.98
388.845	5.09
389.21	5.18
389.575	5.08
389.94	5.28
390.306	5.04
390.671	5.2
391.036	4.99
391.401	5.06
391.766	4.96
392.131	5.44
392.496	5.13
392.861	4.97
393.226	5.08
393.591	5.29
393.956	5.2
394.32	5.34
394.685	5.02
395.05	5.32
395.414	4.93
395.779	5.32
396.143	5.31
396.508	5.19
396.872	5.21
397.236	5.21
397.601	5
397.965	5.15
398.329	5.09
398.694	5.14
399.058	5.44
399.422	5.21
399.786	5.24
400.15	5.31
400.514	5.26
400.878	5.35
401.242	5.37
401.605	5.18
401.969	5.24
402.333	5.01
402.697	5.27
403.06	5.47
403.424	5.23
403.787	5.25
404.151	5.22
404.514	5.29
404.878	5.17
405.241	5.18
405.604	5.39
405.968	5.49
406.331	5.23
406.694	5.34
407.057	5.31
407.42	5.2
407.783	5.45
408.146	5.62
408.509	5.55
408.872	5.32
409.235	5.6
409.598	5.19
409.961	5.4
410.323	5.48
410.686	5.56
411.049	5.31
411.411	5.26
411.774	5.49
412.136	5.34
412.499	5.4
412.861	5.42
413.223	5.34
413.586	5.59
413.948	5.46
414.31	5.44
414.672	5.4
415.035	5.69
415.397	5.31
415.759	5.41
416.121	5.52
416.483	5.69
416.845	5.69
417.206	5.69
417.568	5.67
417.93	5.72
418.292	5.57
418.653	5.39
419.015	5.45
419.377	5.68
419.738	5.43
420.1	5.47
420.461	5.67
420.822	5.46
421.184	5.6
421.545	5.46
421.906	5.53
422.267	5.57
422.629	5.55
422.99	5.47
423.351	5.55
423.712	5.46
424.073	5.56
424.434	5.6
424.795	5.52
425.155	5.66
425.516	5.53
425.877	5.49
426.238	5.47
426.598	5.47
426.959	5.54
427.32	5.54
427.68	5.59
428.041	5.44
428.401	5.73
428.761	5.84
429.122	5.87
429.482	5.67
429.842	5.56
430.202	5.74
430.563	5.6
430.923	5.79
431.283	5.86
431.643	5.81
432.003	5.81
432.363	5.55
432.722	5.85
433.082	5.81
433.442	5.75
433.802	5.7
434.161	5.55
434.521	5.81
434.881	5.73
435.24	5.76
435.6	5.84
435.959	5.79
436.319	5.69
436.678	5.8
437.037	5.82
437.396	5.82
437.756	5.74
438.115	5.79
438.474	5.78
438.833	5.68
439.192	5.66
439.551	5.97
439.91	5.67
440.269	5.82
440.628	5.76
440.987	5.85
441.345	5.89
441.704	5.85
442.063	5.85
442.421	5.77
442.78	5.73
443.138	5.88
443.497	5.78
443.855	5.71
444.214	5.73
444.572	5.93
444.93	5.82
445.288	5.74
445.647	5.71
446.005	5.82
446.363	5.77
446.721	5.77
447.079	5.76
447.437	5.82
447.795	5.71
448.153	5.77
448.51	5.75
448.868	5.7
449.226	5.8
449.584	5.87
449.941	5.7
450.299	5.75
450.656	5.85
451.014	5.79
451.371	6.01
451.729	5.82
452.086	5.8
452.443	5.9
452.801	5.98
453.158	5.95
453.515	5.83
453.872	5.76
454.229	5.76
454.586	5.79
454.943	5.79
455.3	6.01
455.657	5.83
456.014	6.07
456.371	5.71
456.727	5.79
457.084	6.1
457.441	5.98
457.797	5.86
458.154	5.9
458.51	5.8
458.867	5.98
459.223	5.81
459.58	5.92
459.936	5.85
460.292	6.02
460.648	5.91
461.005	5.82
461.361	5.75
461.717	5.9
462.073	5.88
462.429	5.93
462.785	5.95
463.141	5.94
463.496	5.93
463.852	5.98
464.208	6.07
464.564	6.03
464.919	5.93
465.275	6.15
465.631	5.96
465.986	5.99
466.342	5.99
466.697	6.02
467.052	5.97
467.408	6.08
467.763	5.87
468.118	5.98
468.473	5.94
468.829	6
469.184	5.97
469.539	5.98
469.894	6.01
470.249	6.11
470.603	6.15
470.958	5.9
471.313	6.04
471.668	6.1
472.023	5.98
472.377	6.08
472.732	5.99
473.086	5.88
473.441	5.96
473.795	5.94
474.15	5.88
474.504	6.05
474.859	6.02
475.213	6.04
475.567	6.01
475.921	6.21
476.275	6.05
476.63	6.02
476.984	6
477.338	5.95
477.692	5.98
478.045	6.06
478.399	6.1
478.753	5.99
479.107	6.06
479.461	6.03
479.814	5.94
480.168	6.05
480.521	6.12
480.875	6
481.228	5.97
481.582	5.98
481.935	5.97
482.289	6.12
482.642	6.1
482.995	5.98
483.348	6
483.701	6.01
484.055	6.04
484.408	5.96
484.761	5.95
485.114	5.78
485.466	5.73
485.819	5.71
486.172	5.75
486.525	5.77
486.878	5.77
487.23	5.82
487.583	5.88
487.936	5.87
488.288	5.94
488.641	5.86
488.993	5.82
489.345	5.82
489.698	5.76
490.05	5.85
490.402	5.82
490.754	5.92
491.107	5.92
491.459	5.98
491.811	5.91
492.163	5.99
492.515	5.97
492.866	5.92
493.218	5.81
493.57	5.83
493.922	5.88
494.274	5.91
494.625	5.88
494.977	5.96
495.328	5.92
495.68	5.98
496.031	6.06
496.383	5.96
496.734	6.02
497.086	5.97
497.437	6.14
497.788	6.03
498.139	6.1
498.49	6.09
498.842	6.03
499.193	6.06
499.544	6.04
499.894	5.91
500.245	6.06
500.596	6.08
500.947	6.21
501.298	6.04
501.648	6.05
501.999	6.06
502.35	6.15
502.7	6.27
503.051	6.18
503.401	5.98
503.752	6.01
504.102	6.27
504.452	6.01
504.803	6.24
505.153	6.17
505.503	6.16
505.853	6.14
506.203	6.26
506.553	6.02
506.903	6.12
507.253	6.07
507.603	6.26
507.953	6.13
508.303	6.13
508.652	6.01
509.002	6.18
509.352	6.16
509.701	6.06
510.051	6.08
510.4	6.08
510.75	6.03
511.099	6.08
511.449	5.98
511.798	6.03
512.147	6.1
512.496	6.07
512.846	6.14
513.195	6.08
513.544	6.1
513.893	6.16
514.242	6.18
514.591	6.17
514.939	6.12
515.288	6.18
515.637	6.17
515.986	6.16
516.334	6.06
516.683	6.14
517.032	6.11
517.38	6.22
517.729	6.21
518.077	6.13
518.426	6.19
518.774	6.09
519.122	6.12
519.47	6.15
519.819	5.97
520.167	6.03
520.515	6.04
520.863	6.09
521.211	6.1
521.559	6.13
521.907	6.13
522.255	6.03
522.602	6.13
522.95	6.19
523.298	6.27
523.645	6.14
523.993	6.24
524.341	6.15
524.688	6.15
525.036	6.23
525.383	6.37
525.73	6.28
526.078	6.12
526.425	6.09
526.772	6.13
527.119	6.03
527.466	6.08
527.814	6.14
528.161	6.13
528.508	6.06
528.854	6.15
529.201	6.06
529.548	6.05
529.895	5.99
530.242	5.92
530.588	5.94
530.935	5.98
531.282	5.95
531.628	5.97
531.975	6.03
532.321	6.09
532.667	6.07
533.014	6.15
533.36	6.13
533.706	6.07
534.052	6.14
534.399	6.13
534.745	6.15
535.091	6.04
535.437	5.99
535.783	6.01
536.129	6.06
536.474	6.04
536.82	6.13
537.166	6.23
537.512	6.19
537.857	6.08
538.203	6.02
538.549	6.12
538.894	6
539.239	6.12
539.585	6.1
539.93	6.07
540.276	6.32
540.621	6.35
540.966	6.24
541.311	6.19
541.656	6.22
542.001	6.11
542.346	6.1
542.691	6.03
543.036	5.99
543.381	5.93
543.726	6.01
544.071	6.05
544.415	6.06
544.76	6.01
545.105	6.04
545.449	6.08
545.794	6.1
546.138	6.1
546.483	6.18
546.827	6.21
547.171	6.27
547.516	5.96
547.86	6.22
548.204	6.23
548.548	6.15
548.892	6.09
549.236	6.15
549.58	6.2
549.924	6.27
550.268	6.35
550.612	6.3
550.956	6.15
551.3	6.17
551.643	6.46
551.987	6.45
552.33	6.18
552.674	5.98
553.017	6.14
553.361	6.26
553.704	6.14
554.048	6.3
554.391	6.22
554.734	6.31
555.077	6.33
555.42	6.28
555.764	6.29
556.107	6.41
556.45	6.21
556.793	6.25
557.135	6.2
557.478	6.14
557.821	6.22
558.164	6.34
558.507	6.28
558.849	6.09
559.192	6.26
559.534	6.36
559.877	6.13
560.219	6.13
560.562	6.22
560.904	6.25
561.246	6.22
561.589	6.24
561.931	6.36
562.273	6.27
562.615	6.26
562.957	6.12
563.299	6.38
563.641	6.24
563.983	6.23
564.325	6.25
564.667	6.27
565.008	6.5
565.35	6.25
565.692	6.17
566.033	6.09
566.375	6.21
566.716	6.2
567.058	6.16
567.399	6.37
567.741	6.06
568.082	6.43
568.423	6.03
568.764	6.14
569.105	6.3
569.447	6.31
569.788	6.36
570.129	6.23
570.47	6.39
570.811	6.28
571.151	6.25
571.492	6.25
571.833	6.12
572.174	6.34
572.514	6.22
572.855	6.19
573.195	6.45
573.536	6.24
573.876	6.13
574.217	6.14
574.557	6.27
574.898	6.19
575.238	6.31
575.578	6.19
575.918	6.3
576.258	6.19
576.598	6.13
576.938	6.2
577.278	6.25
577.618	6.2
577.958	6.26
578.298	6.16
578.638	6.1
578.977	6.16
579.317	6.22
579.657	6.38
579.996	6.39
580.336	6.25
580.675	6.26
581.014	6.37
581.354	6.24
581.693	6.11
582.032	6.34
582.372	6.44
582.711	6.33
583.05	6.48
583.389	6.33
583.728	6.14
584.067	6.18
584.406	6.39
584.745	6.3
585.083	6.23
585.422	6.27
585.761	6.38
586.1	6.03
586.438	6.2
586.777	6.03
587.115	6.26
587.454	6.36
587.792	6.36
588.13	6.46
588.469	6.28
588.807	6.05
589.145	6.08
589.483	6.26
589.821	6.22
590.159	6.11
590.497	6.27
590.835	6.33
591.173	6.32
591.511	6.46
591.849	6.3
592.187	6.02
592.524	5.99
592.862	6.31
593.2	6.07
593.537	6.17
593.875	6.3
594.212	6.12
594.55	5.98
594.887	6.33
595.224	6.03
595.561	5.96
595.899	6.2
596.236	6.21
596.573	5.97
596.91	6.25
597.247	5.92
597.584	6.22
597.921	6.25
598.258	6.08
598.594	5.9
598.931	6.04
599.268	6.08
599.604	6.13
599.941	5.94
600.277	6.05
600.614	6.37
600.95	6.18
601.287	6
601.623	6.04
601.959	6.35
602.296	6.11
602.632	6.2
602.968	6.14
603.304	6.15
603.64	6.11
603.976	6.17
604.312	6.17
604.648	6.04
604.984	6.05
605.319	6.34
605.655	6.31
605.991	6.22
606.326	6.02
606.662	6.32
606.998	6.14
607.333	6.09
607.668	6.24
608.004	6.04
608.339	6.09
608.674	6.3
609.01	6.29
609.345	6.19
609.68	6.05
610.015	6.19
610.35	6.06
610.685	6.39
611.02	6.18
611.355	6.07
611.689	6.13
612.024	6.04
612.359	6.07
612.694	5.82
613.028	6.18
613.363	6.02
613.697	6.16
614.032	6.31
614.366	5.97
614.7	6.07
615.035	5.96
615.369	6.02
615.703	6.16
616.037	5.98
616.371	6.15
616.705	6
617.039	6.28
617.373	5.82
617.707	5.97
618.041	6.44
618.375	6.37
618.709	5.85
619.042	6.03
619.376	6.11
619.71	6.17
620.043	6.18
620.377	6.29
620.71	6.29
621.043	6.18
621.377	6.14
621.71	6.09
622.043	5.73
622.376	5.94
622.709	6.05
623.043	5.84
623.376	5.93
623.709	5.94
624.041	6.51
624.374	6.16
624.707	6.08
625.04	5.99
625.373	5.75
625.705	6.15
626.038	6.14
626.37	6.3
626.703	5.66
627.035	6.12
627.368	6.44
627.7	6.2
628.032	5.9
628.365	5.94
628.697	6.06
629.029	6.12
629.361	5.97
629.693	6.05
630.025	6.15
630.357	5.88
630.689	5.92
631.021	6.32
631.353	6.13
631.684	5.7
632.016	6.03
632.348	6.12
632.679	5.66
633.011	5.79
633.342	5.81
633.674	6.32
634.005	6.17
634.336	5.94
634.668	5.81
634.999	5.86
635.33	6.11
635.661	6.05
635.992	5.53
636.323	5.97
636.654	6.02
636.985	5.97
637.316	5.88
637.647	5.85
637.977	5.79
638.308	6.15
638.639	6.2
638.969	6.09
639.3	6.34
639.63	5.68
639.961	6.39
640.291	6.19
640.622	5.83
640.952	6.15
641.282	6.24
641.612	6.02
641.943	5.67
642.273	5.69
642.603	6.13
642.933	5.98
643.263	5.89
643.592	5.86
643.922	5.76
644.252	5.95
644.582	6.02
644.911	6.13
645.241	6.28
645.571	5.99
645.9	5.98
646.23	5.59
646.559	5.72
646.888	5.57
647.218	6.05
647.547	6.02
647.876	6.38
648.205	5.99
648.534	5.72
648.863	6.09
649.192	5.98
649.521	6.13
649.85	6.12
650.179	6.01
650.508	6.12
650.837	5.89
651.165	5.8
651.494	6.16
651.822	5.65
652.151	6.12
652.479	6.06
652.808	6.28
653.136	6.03
653.465	6.21
653.793	6.11
654.121	5.87
654.449	5.85
654.777	6.01
655.105	5.93
655.433	5.63
655.761	5.81
656.089	5.6
656.417	6.04
656.745	5.64
657.073	5.79
657.4	6.3
657.728	6.41
658.056	5.31
658.383	5.92
658.711	5.81
659.038	6.05
659.365	6.28
659.693	5.71
660.02	5.99
660.347	5.61
660.674	5.84
661.001	5.84
661.329	5.64
661.656	5.64
661.982	6.27
662.309	6.15
662.636	5.8
662.963	6.03
663.29	6.25
663.616	6.3
663.943	5.98
664.27	5.64
664.596	5.98
664.923	5.88
665.249	6.35
665.576	5.75
665.902	5.8
666.228	5.63
666.554	6.27
666.881	6.07
667.207	6.26
667.533	5.5
667.859	5.98
668.185	6.14
668.511	5.82
668.837	6
669.162	6.05
669.488	6.52
669.814	6.15
670.139	5.53
670.465	5.96
670.791	6.02
671.116	6.1
671.442	6.03
671.767	6.24
672.092	5.85
672.418	5.73
672.743	6.17
673.068	5.91
673.393	5.5
673.718	5.99
674.043	5.58
674.368	6.55
674.693	6.55
675.018	5.81
675.343	6.21
675.667	5.86
675.992	5.93
676.317	5.35
676.641	5.64
676.966	5.75
677.29	6.1
677.615	6.1
677.939	5.9
678.264	6.14
678.588	5.53
678.912	5.97
679.236	6.23
679.56	6.33
679.885	5.96
680.209	5.69
680.532	6.07
680.856	6.14
681.18	6.02
681.504	5.45
681.828	6.05
682.152	5.57
682.475	5.96
682.799	5.82
683.122	6.1
683.446	6.53
683.769	6.27
684.093	5.71
684.416	5.97
684.739	5.79
685.062	5.84
685.386	5.24
685.709	5.89
686.032	5.92
686.355	5.61
686.678	6.11
687.001	5.92
687.324	6.19
687.646	6.52
687.969	6.19
688.292	5.45
688.614	5.35
688.937	6.22
689.26	6.3
689.582	5.45
689.904	5.89
690.227	5.98
690.549	6.61
690.871	6.18
691.194	5.52
691.516	5.06
691.838	6.26
692.16	6
692.482	5.2
