Data from 815655_forehead_Reflection__2__147.txt Node

Date: Fri Sep 16 15:53:31 CDT 2022
User: ToomeyLab
Spectrometer: FLMS14357
Trigger mode: 0
Integration Time (sec): 1.000000E-2
Scans to average: 100
Electric dark correction enabled: true
Nonlinearity correction enabled: false
Boxcar width: 0
XAxis mode: Wavelengths
Number of Pixels in Spectrum: 2048
>>>>>Begin Spectral Data<<<<<
189.047	267.81
189.435	267.81
189.823	267.81
190.211	-744.87
190.599	206.84
190.987	149.77
191.375	108.84
191.763	1571.64
192.151	-67.22
192.538	97.65
192.926	145.27
193.314	68.59
193.702	143.48
194.089	74.65
194.477	194.27
194.864	34.9
195.252	-150
195.639	-19.8
196.027	533.46
196.414	127.61
196.801	47.86
197.189	238.26
197.576	123.31
197.963	-24.62
198.351	-80.56
198.738	3.64
199.125	54.12
199.512	-9.52
199.899	61.22
200.286	106.95
200.673	48.06
201.06	7.21
201.447	46.14
201.833	3.16
202.22	37.2
202.607	73.4
202.994	36.55
203.38	-6.29
203.767	23.46
204.154	32.74
204.54	5.77
204.927	-13.3
205.313	46.02
205.699	56.84
206.086	42.12
206.472	5.62
206.858	29.37
207.245	26.59
207.631	48.09
208.017	13.6
208.403	23.81
208.789	-4.9
209.175	49.03
209.561	52.35
209.947	26.57
210.333	25.97
210.719	17.87
211.105	48.35
211.491	33.12
211.876	41.43
212.262	19.23
212.648	10.42
213.034	-4.95
213.419	3.3
213.805	3.78
214.19	45.25
214.576	-17.53
214.961	12.3
215.346	-16.48
215.732	-23.61
216.117	48.65
216.502	4.38
216.888	-20.74
217.273	19.86
217.658	9.6
218.043	-31.96
218.428	10.7
218.813	14.67
219.198	15.36
219.583	11.89
219.968	14.85
220.353	5.09
220.738	11.59
221.122	-5.29
221.507	40.83
221.892	5.05
222.276	23.52
222.661	20.59
223.046	15.81
223.43	5.96
223.815	-15.14
224.199	3.45
224.583	13.77
224.968	10
225.352	11.13
225.736	16.58
226.121	4.41
226.505	1.88
226.889	-4.53
227.273	11.68
227.657	2.61
228.041	3.75
228.425	-0.06
228.809	6.74
229.193	3.62
229.577	4.65
229.961	2.23
230.344	3.95
230.728	2.91
231.112	3.19
231.495	2.33
231.879	3.16
232.263	2.6
232.646	2.8
233.03	4.15
233.413	4.5
233.797	2.61
234.18	5.35
234.563	2.82
234.946	3.44
235.33	3.71
235.713	3.03
236.096	2.81
236.479	3.18
236.862	1.48
237.245	1.74
237.628	6.03
238.011	6.15
238.394	3.68
238.777	3.64
239.16	2.49
239.543	4.35
239.925	3.67
240.308	3.63
240.691	4.77
241.073	3.28
241.456	2.81
241.838	1.51
242.221	3.11
242.603	3.73
242.986	2.47
243.368	2.94
243.75	2.54
244.133	3.12
244.515	2.71
244.897	3.21
245.279	3.03
245.661	3.1
246.043	2.14
246.425	2.98
246.807	3.42
247.189	2.22
247.571	2.28
247.953	2.82
248.335	2.98
248.717	2.77
249.098	2.92
249.48	2.62
249.862	2.91
250.243	3.14
250.625	3.1
251.006	3.79
251.388	2.7
251.769	2.33
252.151	2.59
252.532	2.64
252.913	3.51
253.295	2.9
253.676	3.38
254.057	2.65
254.438	2.42
254.819	1.26
255.2	2.43
255.581	2.87
255.962	2.8
256.343	3.73
256.724	2.81
257.105	2.31
257.486	2.61
257.867	3.5
258.247	3.9
258.628	2.94
259.009	3.24
259.389	2.84
259.77	2.56
260.15	3
260.531	2.64
260.911	2.66
261.292	2.67
261.672	2.73
262.052	2.46
262.432	2.59
262.813	3.18
263.193	3.01
263.573	2.49
263.953	2.9
264.333	2.6
264.713	2.24
265.093	2.3
265.473	2.45
265.853	2.78
266.233	2.74
266.612	3.25
266.992	2.24
267.372	2.49
267.752	2.3
268.131	3.26
268.511	3.11
268.89	3.08
269.27	2.19
269.649	3.25
270.029	2.96
270.408	3.44
270.787	2.95
271.167	3.27
271.546	3.17
271.925	2.86
272.304	3.24
272.683	2.23
273.062	2.63
273.441	2.59
273.82	2.37
274.199	2.93
274.578	2.69
274.957	2.57
275.336	2.77
275.715	3.47
276.093	2.74
276.472	2.36
276.851	2.62
277.229	2.28
277.608	3.14
277.986	3.29
278.365	2.45
278.743	3.21
279.122	2.42
279.5	2.08
279.878	3.31
280.257	2.91
280.635	3.11
281.013	2.48
281.391	2.61
281.769	3.1
282.147	2.67
282.525	2.57
282.903	2.97
283.281	2.42
283.659	2.98
284.037	2.89
284.415	3.62
284.792	2.79
285.17	2.6
285.548	2.51
285.925	2.63
286.303	3.08
286.68	2.59
287.058	2.64
287.435	2.64
287.813	3.14
288.19	2.04
288.567	2.77
288.945	3.04
289.322	2.99
289.699	2.95
290.076	2.82
290.453	3.28
290.83	3.01
291.207	2.97
291.584	2.43
291.961	3.04
292.338	3.12
292.715	2.75
293.092	2.74
293.469	3.38
293.845	3.54
294.222	2.82
294.599	3.03
294.975	2.78
295.352	3.46
295.728	2.86
296.105	3.23
296.481	3.23
296.858	2.84
297.234	3.55
297.61	3.45
297.986	3.37
298.363	3.37
298.739	2.85
299.115	3.54
299.491	3.62
299.867	3.19
300.243	3.28
300.619	3.41
300.995	2.98
301.371	3.52
301.746	3.19
302.122	4.07
302.498	3.06
302.874	3.59
303.249	3.85
303.625	3.68
304	3.92
304.376	2.82
304.751	3.72
305.127	3.35
305.502	3.62
305.878	4.18
306.253	3.97
306.628	3.72
307.003	3.92
307.378	4.08
307.754	4.15
308.129	4.55
308.504	4.28
308.879	4.03
309.254	4.29
309.629	3.89
310.003	4.05
310.378	4.05
310.753	4.26
311.128	4.18
311.502	3.97
311.877	4.3
312.252	4.45
312.626	4.4
313.001	4.19
313.375	4.79
313.75	4.36
314.124	4.37
314.498	4.37
314.873	5.17
315.247	4.97
315.621	4.9
315.995	4.2
316.369	4.89
316.743	4.87
317.117	4.61
317.491	4.32
317.865	5.43
318.239	5.14
318.613	4.58
318.987	4.54
319.361	4.7
319.734	4.57
320.108	5.03
320.482	5.28
320.855	5.21
321.229	5
321.602	5.44
321.976	5.39
322.349	5.63
322.723	5.26
323.096	5.54
323.469	5.43
323.843	6.08
324.216	5.99
324.589	5.41
324.962	5.47
325.335	5.59
325.708	5.53
326.081	5.42
326.454	5.7
326.827	5.8
327.2	5.96
327.573	5.03
327.945	5.56
328.318	5.7
328.691	5.66
329.063	5.82
329.436	5.21
329.809	5.19
330.181	6.25
330.553	5.43
330.926	6.17
331.298	6.19
331.671	5.76
332.043	5.78
332.415	6.02
332.787	6.25
333.159	6.3
333.532	6.12
333.904	6.22
334.276	6.33
334.648	6.76
335.02	6.24
335.391	6.65
335.763	5.99
336.135	6.17
336.507	6.48
336.879	6.85
337.25	5.69
337.622	6.4
337.993	6.97
338.365	6.54
338.736	6.73
339.108	6.54
339.479	6.8
339.851	6.26
340.222	6.64
340.593	6.95
340.964	6.84
341.336	6.77
341.707	6.55
342.078	7.33
342.449	6.92
342.82	6.9
343.191	6.83
343.562	7.25
343.933	7
344.303	7.49
344.674	6.68
345.045	7.34
345.416	6.86
345.786	7.35
346.157	7.56
346.527	7.38
346.898	7.23
347.268	7.31
347.639	7.03
348.009	7.22
348.38	7.39
348.75	6.94
349.12	7.71
349.49	7.85
349.861	7.94
350.231	7.44
350.601	7.35
350.971	8
351.341	8.24
351.711	7.59
352.081	7.35
352.45	8.25
352.82	8.03
353.19	7.92
353.56	7.8
353.929	7.94
354.299	8.08
354.669	7.79
355.038	7.92
355.408	8.4
355.777	7.93
356.147	8.15
356.516	8.26
356.885	8.03
357.254	8.19
357.624	8.19
357.993	7.98
358.362	8.13
358.731	8.57
359.1	8.65
359.469	8.44
359.838	8.18
360.207	8.46
360.576	8.75
360.945	8.46
361.314	8.56
361.682	8.18
362.051	8.58
362.42	8.97
362.788	8.8
363.157	8.59
363.525	8.57
363.894	8.79
364.262	8.51
364.631	8.78
364.999	8.78
365.367	8.68
365.735	9.03
366.104	8.97
366.472	9.17
366.84	8.89
367.208	8.98
367.576	9.31
367.944	8.94
368.312	9.21
368.68	9.24
369.048	9.37
369.416	9.3
369.783	9.63
370.151	9.63
370.519	9.36
370.886	9.17
371.254	9.11
371.621	9.74
371.989	9.63
372.356	9.91
372.724	9.84
373.091	9.52
373.458	9.59
373.826	9.47
374.193	9.71
374.56	9.69
374.927	9.58
375.294	9.5
375.661	9.72
376.028	10.2
376.395	9.74
376.762	10.07
377.129	9.79
377.496	10.05
377.863	9.83
378.229	10.28
378.596	10.09
378.963	10.09
379.329	10.15
379.696	10.45
380.062	10.22
380.429	10.26
380.795	10.43
381.161	10.76
381.528	10.61
381.894	10.54
382.26	10.72
382.626	10.34
382.993	10.33
383.359	10.69
383.725	10.55
384.091	10.64
384.457	10.47
384.823	10.62
385.188	10.52
385.554	10.59
385.92	10.71
386.286	10.83
386.651	10.93
387.017	10.57
387.383	10.52
387.748	10.71
388.114	10.69
388.479	10.94
388.845	10.96
389.21	11.45
389.575	10.95
389.94	11.13
390.306	11.25
390.671	11.13
391.036	11.35
391.401	11.26
391.766	11.49
392.131	11.42
392.496	11.37
392.861	11.32
393.226	11.46
393.591	11.41
393.956	11.47
394.32	11.93
394.685	11.3
395.05	11.8
395.414	11.34
395.779	11.57
396.143	11.81
396.508	11.47
396.872	11.89
397.236	11.86
397.601	11.67
397.965	11.49
398.329	11.84
398.694	11.95
399.058	12.11
399.422	12.1
399.786	12.18
400.15	12.4
400.514	12.29
400.878	12.23
401.242	12.02
401.605	12.1
401.969	11.95
402.333	12.38
402.697	12.3
403.06	12.6
403.424	12.21
403.787	12.44
404.151	12.5
404.514	12.57
404.878	12.46
405.241	12.44
405.604	12.63
405.968	12.45
406.331	12.47
406.694	12.44
407.057	12.37
407.42	12.54
407.783	12.8
408.146	13.03
408.509	12.81
408.872	12.79
409.235	12.92
409.598	12.61
409.961	12.9
410.323	12.78
410.686	13.08
411.049	13.25
411.411	12.9
411.774	13.19
412.136	13.03
412.499	13.17
412.861	13.07
413.223	13.05
413.586	13.25
413.948	13.18
414.31	13.46
414.672	13.27
415.035	13.5
415.397	13.36
415.759	13.31
416.121	13.72
416.483	13.53
416.845	13.64
417.206	13.53
417.568	13.63
417.93	13.66
418.292	13.53
418.653	13.36
419.015	13.48
419.377	13.65
419.738	13.44
420.1	13.68
420.461	13.69
420.822	13.57
421.184	13.61
421.545	13.61
421.906	13.62
422.267	13.69
422.629	13.53
422.99	13.59
423.351	13.7
423.712	13.56
424.073	13.91
424.434	13.77
424.795	13.88
425.155	13.9
425.516	13.86
425.877	13.86
426.238	13.88
426.598	13.84
426.959	13.9
427.32	14
427.68	14.18
428.041	14.06
428.401	14.17
428.761	14.6
429.122	14.46
429.482	14.48
429.842	14.51
430.202	14.71
430.563	14.49
430.923	14.83
431.283	14.63
431.643	14.76
432.003	14.76
432.363	14.79
432.722	14.94
433.082	14.88
433.442	14.93
433.802	14.72
434.161	14.83
434.521	14.79
434.881	14.79
435.24	14.82
435.6	14.98
435.959	14.89
436.319	14.94
436.678	14.98
437.037	14.97
437.396	15.01
437.756	15.33
438.115	15.19
438.474	15.2
438.833	14.99
439.192	15.22
439.551	15.28
439.91	15.34
440.269	15.29
440.628	15.39
440.987	15.24
441.345	15.38
441.704	15.37
442.063	15.61
442.421	15.36
442.78	15.35
443.138	15.48
443.497	15.61
443.855	15.52
444.214	15.66
444.572	15.73
444.93	15.74
445.288	15.57
445.647	15.75
446.005	15.71
446.363	15.74
446.721	15.71
447.079	15.72
447.437	15.77
447.795	15.73
448.153	15.88
448.51	15.72
448.868	15.81
449.226	15.74
449.584	15.87
449.941	16.03
450.299	15.94
450.656	16.21
451.014	16.31
451.371	16.2
451.729	16.15
452.086	16.15
452.443	16.33
452.801	16.47
453.158	16.52
453.515	16.42
453.872	16.35
454.229	16.34
454.586	16.43
454.943	16.37
455.3	16.68
455.657	16.69
456.014	16.84
456.371	16.71
456.727	16.61
457.084	16.79
457.441	16.76
457.797	16.82
458.154	17.01
458.51	17.01
458.867	16.82
459.223	16.87
459.58	17.02
459.936	16.94
460.292	17.08
460.648	16.94
461.005	17.05
461.361	16.78
461.717	16.7
462.073	16.85
462.429	16.97
462.785	16.91
463.141	17.04
463.496	17.2
463.852	17.44
464.208	17.53
464.564	17.41
464.919	17.44
465.275	17.63
465.631	17.54
465.986	17.43
466.342	17.74
466.697	17.76
467.052	17.69
467.408	17.83
467.763	17.72
468.118	17.79
468.473	17.67
468.829	17.74
469.184	17.78
469.539	17.69
469.894	17.98
470.249	18.18
470.603	17.85
470.958	17.64
471.313	18.13
471.668	18.07
472.023	18.1
472.377	18.12
472.732	17.89
473.086	18.32
473.441	17.98
473.795	18.06
474.15	17.96
474.504	18.22
474.859	18.21
475.213	18.14
475.567	18.11
475.921	18.33
476.275	18.54
476.63	18.5
476.984	18.54
477.338	18.41
477.692	18.45
478.045	18.65
478.399	18.48
478.753	18.51
479.107	18.5
479.461	18.6
479.814	18.59
480.168	18.61
480.521	18.64
480.875	18.79
481.228	18.67
481.582	18.79
481.935	18.67
482.289	18.71
482.642	18.83
482.995	18.75
483.348	18.74
483.701	18.8
484.055	18.6
484.408	18.56
484.761	18.49
485.114	18.24
485.466	18.3
485.819	18.21
486.172	18.12
486.525	18.12
486.878	18.24
487.23	18.39
487.583	18.53
487.936	18.68
488.288	18.79
488.641	18.68
488.993	18.64
489.345	18.61
489.698	18.49
490.05	18.63
490.402	18.53
490.754	18.74
491.107	18.88
491.459	18.99
491.811	19.06
492.163	19.26
492.515	19.25
492.866	19.11
493.218	19.06
493.57	18.88
493.922	19.01
494.274	19.06
494.625	19.08
494.977	19.25
495.328	19.51
495.68	19.69
496.031	19.78
496.383	19.73
496.734	19.91
497.086	20.12
497.437	19.98
497.788	19.99
498.139	20.02
498.49	20
498.842	20
499.193	19.97
499.544	19.97
499.894	19.92
500.245	20
500.596	20.17
500.947	20.16
501.298	20.19
501.648	20.37
501.999	20.22
502.35	20.42
502.7	20.46
503.051	20.66
503.401	20.56
503.752	20.75
504.102	20.76
504.452	20.68
504.803	20.75
505.153	20.76
505.503	20.75
505.853	20.84
506.203	20.79
506.553	20.64
506.903	20.83
507.253	20.78
507.603	20.9
507.953	20.93
508.303	21.04
508.652	20.86
509.002	20.96
509.352	21.15
509.701	20.97
510.051	20.88
510.4	21.03
510.75	21.02
511.099	20.78
511.449	21.01
511.798	21
512.147	21.06
512.496	21.09
512.846	21.18
513.195	21.16
513.544	21.14
513.893	21.07
514.242	21.31
514.591	21.18
514.939	21.47
515.288	21.45
515.637	21.48
515.986	21.54
516.334	21.46
516.683	21.6
517.032	21.68
517.38	21.66
517.729	21.77
518.077	21.69
518.426	21.83
518.774	21.79
519.122	21.69
519.47	21.67
519.819	21.56
520.167	21.57
520.515	21.46
520.863	21.56
521.211	21.58
521.559	21.78
521.907	21.7
522.255	21.77
522.602	21.92
522.95	21.93
523.298	22.05
523.645	22.02
523.993	22.16
524.341	21.99
524.688	22.27
525.036	22.32
525.383	22.39
525.73	22.18
526.078	22.32
526.425	22.36
526.772	22.18
527.119	22.21
527.466	22.19
527.814	22.02
528.161	22.09
528.508	22.18
528.854	22.24
529.201	22.13
529.548	22.1
529.895	21.97
530.242	21.94
530.588	21.97
530.935	21.89
531.282	21.83
531.628	21.84
531.975	22.03
532.321	22.22
532.667	22.35
533.014	22.54
533.36	22.54
533.706	22.62
534.052	22.67
534.399	22.67
534.745	22.54
535.091	22.49
535.437	22.36
535.783	22.41
536.129	22.59
536.474	22.68
536.82	22.84
537.166	22.92
537.512	23.04
537.857	23.04
538.203	22.99
538.549	22.95
538.894	22.92
539.239	23.12
539.585	23.14
539.93	23.18
540.276	23.48
540.621	23.65
540.966	23.43
541.311	23.55
541.656	23.61
542.001	23.46
542.346	23.32
542.691	23.24
543.036	23.07
543.381	22.98
543.726	22.99
544.071	23.03
544.415	23.23
544.76	23.18
545.105	23.41
545.449	23.49
545.794	23.59
546.138	23.68
546.483	23.82
546.827	23.79
547.171	23.85
547.516	23.84
547.86	23.98
548.204	24.01
548.548	23.99
548.892	23.87
549.236	23.98
549.58	24.2
549.924	24.15
550.268	24.25
550.612	24.47
550.956	24.48
551.3	24.64
551.643	24.79
551.987	24.7
552.33	24.55
552.674	24.44
553.017	24.77
553.361	24.65
553.704	24.78
554.048	24.72
554.391	24.72
554.734	24.83
555.077	24.87
555.42	24.79
555.764	25.02
556.107	24.98
556.45	24.85
556.793	25.08
557.135	24.9
557.478	25.04
557.821	25.29
558.164	25.44
558.507	25.4
558.849	25.24
559.192	25.24
559.534	25.28
559.877	25.14
560.219	25.04
560.562	25.39
560.904	25.62
561.246	25.51
561.589	25.64
561.931	25.62
562.273	25.73
562.615	25.64
562.957	25.83
563.299	25.64
563.641	25.69
563.983	25.85
564.325	25.49
564.667	25.45
565.008	25.88
565.35	25.91
565.692	26
566.033	25.86
566.375	25.81
566.716	25.92
567.058	26.09
567.399	25.97
567.741	25.94
568.082	26.08
568.423	25.83
568.764	25.81
569.105	26.08
569.447	25.96
569.788	26
570.129	26.03
570.47	26.24
570.811	26.32
571.151	26.3
571.492	26.18
571.833	26.19
572.174	26.48
572.514	26.39
572.855	26.49
573.195	26.5
573.536	26.41
573.876	26.53
574.217	26.36
574.557	26.6
574.898	26.43
575.238	26.44
575.578	26.5
575.918	26.77
576.258	26.66
576.598	26.52
576.938	26.6
577.278	26.52
577.618	26.65
577.958	26.79
578.298	26.76
578.638	26.71
578.977	26.94
579.317	26.8
579.657	26.84
579.996	26.95
580.336	27.23
580.675	27.2
581.014	27.34
581.354	27.33
581.693	27.31
582.032	27.31
582.372	27.31
582.711	27.59
583.05	27.54
583.389	27.42
583.728	27.61
584.067	27.41
584.406	27.45
584.745	27.72
585.083	27.71
585.422	27.57
585.761	27.73
586.1	27.42
586.438	27.98
586.777	27.25
587.115	27.77
587.454	27.81
587.792	27.83
588.13	27.77
588.469	27.91
588.807	27.68
589.145	28.1
589.483	27.98
589.821	28.21
590.159	28.04
590.497	27.78
590.835	28.14
591.173	28.14
591.511	27.92
591.849	28.2
592.187	28
592.524	27.94
592.862	28.21
593.2	28.18
593.537	28.02
593.875	28.15
594.212	28.07
594.55	28.29
594.887	28.51
595.224	28.25
595.561	28.32
595.899	28.6
596.236	28.52
596.573	28.15
596.91	28.35
597.247	28.14
597.584	28.3
597.921	28.52
598.258	28.19
598.594	28.37
598.931	28.54
599.268	28.55
599.604	28.51
599.941	28.46
600.277	28.47
600.614	28.9
600.95	29.01
601.287	29.06
601.623	28.98
601.959	28.98
602.296	28.58
602.632	28.75
602.968	29.05
603.304	29.02
603.64	28.9
603.976	29.05
604.312	29.19
604.648	29.26
604.984	29.25
605.319	29.17
605.655	29.11
605.991	29
606.326	28.88
606.662	29.18
606.998	28.89
607.333	28.71
607.668	29.24
608.004	29.03
608.339	29.36
608.674	29.34
609.01	29.45
609.345	29.72
609.68	29.56
610.015	29.48
610.35	29.64
610.685	29.7
611.02	29.62
611.355	29.43
611.689	29.57
612.024	29.66
612.359	29.51
612.694	29.21
613.028	29.57
613.363	29.45
613.697	29.69
614.032	29.91
614.366	29.47
614.7	29.78
615.035	29.82
615.369	29.81
615.703	30.19
616.037	29.63
616.371	30.16
616.705	29.89
617.039	29.98
617.373	29.91
617.707	30.21
618.041	29.93
618.375	30.38
618.709	30.21
619.042	29.85
619.376	30.15
619.71	30.33
620.043	30.14
620.377	30.23
620.71	30.16
621.043	30.21
621.377	30.45
621.71	30.32
622.043	30.2
622.376	30.62
622.709	29.89
623.043	30.26
623.376	30.2
623.709	30.32
624.041	30.29
624.374	30.64
624.707	30.68
625.04	30.97
625.373	30.94
625.705	30.76
626.038	31.28
626.37	30.68
626.703	30.48
627.035	30.95
627.368	31.21
627.7	31.07
628.032	30.58
628.365	30.68
628.697	30.84
629.029	30.97
629.361	30.91
629.693	30.65
630.025	30.79
630.357	31.09
630.689	31.27
631.021	31.26
631.353	30.87
631.684	30.69
632.016	30.64
632.348	31.65
632.679	30.58
633.011	30.85
633.342	31.15
633.674	31.3
634.005	31.18
634.336	31.44
634.668	31.09
634.999	31.09
635.33	30.95
635.661	31.23
635.992	31.53
636.323	31.56
636.654	31.36
636.985	31.52
637.316	31.52
637.647	31.28
637.977	31.19
638.308	31.98
638.639	31.37
638.969	31.5
639.3	31.69
639.63	31.5
639.961	31.86
640.291	31.73
640.622	31.92
640.952	31.94
641.282	32.1
641.612	31.84
641.943	32.01
642.273	31.96
642.603	31.76
642.933	31.65
643.263	31.75
643.592	32.13
643.922	31.52
644.252	31.82
644.582	32.14
644.911	32.26
645.241	32.24
645.571	31.96
645.9	32.57
646.23	31.79
646.559	31.63
646.888	32.53
647.218	31.95
647.547	32.06
647.876	32.29
648.205	32.2
648.534	32.38
648.863	32.38
649.192	32.34
649.521	32.21
649.85	32.12
650.179	32.13
650.508	32.47
650.837	32.94
651.165	31.95
651.494	32.78
651.822	32.22
652.151	32.23
652.479	32.88
652.808	32.67
653.136	32.95
653.465	32.5
653.793	32.27
654.121	32.58
654.449	32.81
654.777	32.8
655.105	33.05
655.433	32.5
655.761	32.87
656.089	32.81
656.417	32.31
656.745	32.72
657.073	32.75
657.4	33.08
657.728	32.46
658.056	32.5
658.383	32.74
658.711	33.04
659.038	33.61
659.365	32.98
659.693	32.82
660.02	33.24
660.347	33.08
660.674	33.12
661.001	32.98
661.329	33
661.656	32.99
661.982	33.17
662.309	33.17
662.636	32.74
662.963	32.89
663.29	33.58
663.616	33.66
663.943	33.46
664.27	32.49
664.596	33.5
664.923	33.25
665.249	33.42
665.576	33.28
665.902	33.54
666.228	33.21
666.554	33.6
666.881	33.62
667.207	33.28
667.533	33.6
667.859	33.39
668.185	33.6
668.511	33.69
668.837	33.75
669.162	33.61
669.488	34.32
669.814	34.23
670.139	32.95
670.465	33.5
670.791	33.19
671.116	34.14
671.442	34.1
671.767	33.71
672.092	34
672.418	34.14
672.743	33.69
