Data from 0041_chest_Reflection__2__107.txt Node

Date: Fri Nov 04 15:41:42 CDT 2022
User: ToomeyLab
Spectrometer: FLMS14357
Trigger mode: 0
Integration Time (sec): 1.000000E-2
Scans to average: 100
Electric dark correction enabled: true
Nonlinearity correction enabled: false
Boxcar width: 0
XAxis mode: Wavelengths
Number of Pixels in Spectrum: 2048
>>>>>Begin Spectral Data<<<<<
189.047	-222.55
189.435	-222.55
189.823	-222.55
190.211	-194.32
190.599	-338.9
190.987	443.34
191.375	23.93
191.763	85.65
192.151	128.14
192.538	-13.68
192.926	-26.05
193.314	-17.75
193.702	154.97
194.089	11.05
194.477	-1.54
194.864	25.02
195.252	126.39
195.639	-28.05
196.027	-67.9
196.414	323.37
196.801	119.31
197.189	1360.87
197.576	167.05
197.963	121.01
198.351	-59.81
198.738	34.93
199.125	23.45
199.512	-29.43
199.899	102.13
200.286	-16.61
200.673	8.06
201.06	27.32
201.447	-72.53
201.833	28.15
202.22	19.99
202.607	41.69
202.994	13.54
203.38	52.21
203.767	13.88
204.154	24.26
204.54	-43.35
204.927	10.27
205.313	16.47
205.699	57.71
206.086	32.86
206.472	-6.56
206.858	8.09
207.245	5.58
207.631	6.74
208.017	27.69
208.403	19.96
208.789	35.95
209.175	-21.79
209.561	-88.3
209.947	-11.54
210.333	14.61
210.719	12.87
211.105	-10.97
211.491	19.32
211.876	0.68
212.262	-49.36
212.648	-10.55
213.034	40.19
213.419	-4.37
213.805	-1.7
214.19	-20.1
214.576	4.27
214.961	6.88
215.346	28.39
215.732	26.98
216.117	-1.97
216.502	37.58
216.888	13.31
217.273	17.57
217.658	17.13
218.043	5.92
218.428	24.74
218.813	-3.14
219.198	15.47
219.583	-26.52
219.968	21.3
220.353	-26.04
220.738	-27.57
221.122	1.65
221.507	11.72
221.892	-10.83
222.276	-6.46
222.661	-3
223.046	6.29
223.43	7.61
223.815	6.42
224.199	14.54
224.583	3.66
224.968	-3.5
225.352	4.74
225.736	-1.19
226.121	-8.11
226.505	9.33
226.889	4.02
227.273	5.93
227.657	0.8
228.041	2.78
228.425	5.76
228.809	4.29
229.193	6.91
229.577	2.07
229.961	5.57
230.344	4.38
230.728	3.56
231.112	3.61
231.495	3.45
231.879	4.36
232.263	3.82
232.646	3.38
233.03	2.23
233.413	1.8
233.797	3.9
234.18	4.71
234.563	3.75
234.946	2.97
235.33	7.02
235.713	4.7
236.096	4.04
236.479	4.39
236.862	3.62
237.245	1.78
237.628	3.73
238.011	2.75
238.394	5.77
238.777	5.82
239.16	4.38
239.543	3.16
239.925	6.45
240.308	5.15
240.691	3.69
241.073	3.63
241.456	5.11
241.838	3.95
242.221	4.54
242.603	3.85
242.986	4.08
243.368	4.46
243.75	4.25
244.133	4.56
244.515	4.4
244.897	3.94
245.279	4.35
245.661	4.55
246.043	4.15
246.425	3.97
246.807	5.14
247.189	5.09
247.571	4.99
247.953	4.46
248.335	4.59
248.717	4.37
249.098	4.45
249.48	4.32
249.862	4.52
250.243	4.12
250.625	4.07
251.006	4.6
251.388	4.49
251.769	4.57
252.151	5.24
252.532	5.4
252.913	4.27
253.295	5.09
253.676	4.46
254.057	4.69
254.438	4.3
254.819	4.36
255.2	3.67
255.581	5.39
255.962	4.85
256.343	3.77
256.724	4.8
257.105	3.2
257.486	5.56
257.867	6.73
258.247	5.2
258.628	4.77
259.009	3.71
259.389	3.87
259.77	4.57
260.15	4.29
260.531	4.33
260.911	4.11
261.292	4.23
261.672	4.19
262.052	4.41
262.432	4.55
262.813	4.08
263.193	3.61
263.573	4.21
263.953	3.9
264.333	4.05
264.713	4.41
265.093	4.07
265.473	5.01
265.853	3.63
266.233	4.34
266.612	5.57
266.992	4.43
267.372	3.61
267.752	3.63
268.131	4.32
268.511	4
268.89	4.38
269.27	4.08
269.649	4.09
270.029	3.89
270.408	3.82
270.787	4.63
271.167	4.19
271.546	5.07
271.925	4.31
272.304	3.56
272.683	3.78
273.062	4.32
273.441	4.66
273.82	3.75
274.199	4.17
274.578	3.82
274.957	4.13
275.336	4.07
275.715	3.95
276.093	4.23
276.472	3.95
276.851	3.61
277.229	4.24
277.608	3.74
277.986	3.9
278.365	4.5
278.743	4.46
279.122	3.59
279.5	4.46
279.878	4.15
280.257	3.45
280.635	3.55
281.013	4.28
281.391	4.86
281.769	4.24
282.147	3.72
282.525	4.46
282.903	3.86
283.281	4.5
283.659	4.45
284.037	4.1
284.415	4.13
284.792	4.33
285.17	4.34
285.548	4.14
285.925	4.15
286.303	4.41
286.68	4.43
287.058	4.24
287.435	3.98
287.813	4.02
288.19	4.11
288.567	3.89
288.945	4.33
289.322	4.38
289.699	4.77
290.076	4.2
290.453	4.02
290.83	4.17
291.207	4.44
291.584	4.69
291.961	4.63
292.338	4.45
292.715	4.51
293.092	4.39
293.469	4.39
293.845	4.28
294.222	3.77
294.599	4.37
294.975	4.36
295.352	4.39
295.728	5.1
296.105	4.63
296.481	4.61
296.858	4.86
297.234	5.04
297.61	5.09
297.986	4.56
298.363	4.62
298.739	4.67
299.115	4.9
299.491	4.87
299.867	4.68
300.243	4.73
300.619	5.01
300.995	5.23
301.371	5.48
301.746	4.6
302.122	5.02
302.498	5.01
302.874	5.27
303.249	4.48
303.625	5.24
304	5.14
304.376	5.32
304.751	5.02
305.127	4.69
305.502	4.93
305.878	5.57
306.253	5.34
306.628	4.83
307.003	4.45
307.378	5.3
307.754	4.86
308.129	4.38
308.504	4.98
308.879	4.57
309.254	5.5
309.629	5.44
310.003	5.8
310.378	5.4
310.753	5.77
311.128	5.2
311.502	4.88
311.877	5.59
312.252	5.4
312.626	5.52
313.001	5.26
313.375	5.39
313.75	5.16
314.124	5.07
314.498	5.13
314.873	6.19
315.247	5.35
315.621	5.18
315.995	5.45
316.369	5.22
316.743	5.93
317.117	5.74
317.491	5.24
317.865	5.35
318.239	5.65
318.613	5.67
318.987	5.95
319.361	5.75
319.734	5.76
320.108	5.11
320.482	4.91
320.855	5.97
321.229	5.49
321.602	5.14
321.976	5.36
322.349	6.24
322.723	5.42
323.096	5.97
323.469	5.57
323.843	5.86
324.216	5.23
324.589	5.75
324.962	5.93
325.335	5.57
325.708	5.38
326.081	5.54
326.454	5.59
326.827	5.91
327.2	5.79
327.573	5.61
327.945	5.45
328.318	5.44
328.691	5.45
329.063	5.38
329.436	5.9
329.809	6.01
330.181	5.52
330.553	5.89
330.926	5.97
331.298	6.01
331.671	5.37
332.043	6.37
332.415	5.76
332.787	5.5
333.159	5.68
333.532	5.58
333.904	5.69
334.276	6.21
334.648	6.58
335.02	5.43
335.391	6.17
335.763	6.11
336.135	5.96
336.507	5.77
336.879	6.35
337.25	5.93
337.622	6.15
337.993	5.64
338.365	5.59
338.736	6.07
339.108	6.37
339.479	6.08
339.851	5.8
340.222	5.85
340.593	6.1
340.964	6.09
341.336	5.86
341.707	5.76
342.078	5.81
342.449	6.08
342.82	5.83
343.191	5.74
343.562	6.3
343.933	6.54
344.303	6.49
344.674	6.35
345.045	5.96
345.416	5.86
345.786	6.57
346.157	6.1
346.527	6.11
346.898	6.48
347.268	5.94
347.639	6.08
348.009	6.49
348.38	6.02
348.75	5.87
349.12	5.84
349.49	6.17
349.861	5.92
350.231	6.2
350.601	6.15
350.971	5.78
351.341	6.07
351.711	5.99
352.081	6.04
352.45	6.25
352.82	6.11
353.19	6.1
353.56	6.17
353.929	5.98
354.299	6.58
354.669	6.18
355.038	6.22
355.408	6.13
355.777	6.29
356.147	5.99
356.516	6.19
356.885	6.26
357.254	6.16
357.624	6.31
357.993	6.33
358.362	6.26
358.731	6.44
359.1	6.42
359.469	6.18
359.838	6.48
360.207	6.14
360.576	6.35
360.945	6.15
361.314	6.66
361.682	6.38
362.051	6.22
362.42	6.11
362.788	6.22
363.157	6.24
363.525	6.16
363.894	6.37
364.262	6.37
364.631	6.59
364.999	6.55
365.367	6.03
365.735	6.51
366.104	6.08
366.472	6.61
366.84	6.06
367.208	6.34
367.576	6.34
367.944	6.08
368.312	6.46
368.68	6.3
369.048	6.46
369.416	6.28
369.783	6.33
370.151	6.26
370.519	7.13
370.886	6.26
371.254	6.65
371.621	6.16
371.989	6.38
372.356	6.44
372.724	6.63
373.091	6.38
373.458	6.53
373.826	6.67
374.193	6.46
374.56	6.3
374.927	6.57
375.294	6.71
375.661	6.83
376.028	6.6
376.395	6.82
376.762	6.45
377.129	6.68
377.496	6.85
377.863	6.74
378.229	6.54
378.596	6.57
378.963	6.74
379.329	6.22
379.696	6.66
380.062	7.07
380.429	6.59
380.795	6.81
381.161	6.81
381.528	7.23
381.894	6.06
382.26	6.68
382.626	6.33
382.993	6.78
383.359	6.8
383.725	6.46
384.091	6.73
384.457	6.9
384.823	6.78
385.188	6.84
385.554	6.56
385.92	6.6
386.286	6.92
386.651	6.69
387.017	6.85
387.383	6.72
387.748	6.47
388.114	6.53
388.479	7.27
388.845	6.63
389.21	7.06
389.575	7.06
389.94	6.78
390.306	6.65
390.671	6.86
391.036	6.69
391.401	7.28
391.766	6.58
392.131	6.55
392.496	6.86
392.861	6.8
393.226	6.8
393.591	6.92
393.956	7.14
394.32	6.84
394.685	6.88
395.05	6.96
395.414	6.95
395.779	6.7
396.143	6.63
396.508	6.97
396.872	6.93
397.236	6.98
397.601	6.87
397.965	6.89
398.329	6.6
398.694	6.97
399.058	6.89
399.422	7.14
399.786	6.75
400.15	7.03
400.514	6.92
400.878	6.87
401.242	7.3
401.605	6.98
401.969	7.26
402.333	6.91
402.697	7.23
403.06	7.2
403.424	7.13
403.787	7.15
404.151	6.95
404.514	7.39
404.878	7.17
405.241	7.14
405.604	7.1
405.968	6.92
406.331	6.96
406.694	6.82
407.057	7
407.42	7.16
407.783	7
408.146	6.99
408.509	6.93
408.872	7.04
409.235	7.04
409.598	7.06
409.961	7.14
410.323	7.13
410.686	7.14
411.049	7.04
411.411	6.96
411.774	7.36
412.136	7.24
412.499	7.38
412.861	7.13
413.223	7.22
413.586	7.26
413.948	7.37
414.31	7.15
414.672	7.12
415.035	7.44
415.397	7.15
415.759	7.35
416.121	7.02
416.483	7.42
416.845	7.47
417.206	7.13
417.568	7.5
417.93	7.23
418.292	7.31
418.653	7.34
419.015	7.21
419.377	7.33
419.738	7.03
420.1	7.24
420.461	7.3
420.822	7.15
421.184	7.2
421.545	7.21
421.906	7.28
422.267	7.25
422.629	7.35
422.99	7.07
423.351	7.1
423.712	7.28
424.073	7.23
424.434	7.25
424.795	7.31
425.155	7.47
425.516	7.33
425.877	7.13
426.238	7.18
426.598	7.24
426.959	7.26
427.32	7.27
427.68	7.4
428.041	7.32
428.401	7.36
428.761	7.4
429.122	7.5
429.482	7.55
429.842	7.45
430.202	7.49
430.563	7.43
430.923	7.57
431.283	7.39
431.643	7.52
432.003	7.66
432.363	7.6
432.722	7.49
433.082	7.6
433.442	7.65
433.802	7.45
434.161	7.53
434.521	7.49
434.881	7.57
435.24	7.55
435.6	7.55
435.959	7.63
436.319	7.4
436.678	7.5
437.037	7.59
437.396	7.77
437.756	7.58
438.115	7.51
438.474	7.68
438.833	7.64
439.192	7.66
439.551	7.71
439.91	7.79
440.269	7.63
440.628	7.63
440.987	7.63
441.345	7.57
441.704	7.56
442.063	7.51
442.421	7.62
442.78	7.65
443.138	7.8
443.497	7.72
443.855	7.78
444.214	7.89
444.572	7.69
444.93	7.78
445.288	7.8
445.647	7.86
446.005	7.73
446.363	7.68
446.721	7.81
447.079	7.74
447.437	7.7
447.795	7.76
448.153	7.54
448.51	7.69
448.868	7.66
449.226	7.67
449.584	7.82
449.941	7.74
450.299	7.84
450.656	7.91
451.014	7.92
451.371	8.07
451.729	7.95
452.086	7.83
452.443	7.93
452.801	8.05
453.158	8.01
453.515	8.18
453.872	8.11
454.229	8.1
454.586	7.89
454.943	7.96
455.3	7.95
455.657	7.95
456.014	8.17
456.371	8.04
456.727	8.24
457.084	8.08
457.441	8.07
457.797	8.01
458.154	8.21
458.51	8.08
458.867	7.89
459.223	8.12
459.58	8.57
459.936	8
460.292	8.14
460.648	8.18
461.005	8.02
461.361	8.08
461.717	8
462.073	8.05
462.429	8.07
462.785	8.08
463.141	8.16
463.496	8.11
463.852	8.3
464.208	8.28
464.564	8.13
464.919	8.35
465.275	8.3
465.631	8.38
465.986	8.39
466.342	8.29
466.697	8.25
467.052	8.32
467.408	8.38
467.763	8.45
468.118	8.49
468.473	8.39
468.829	8.2
469.184	8.38
469.539	8.31
469.894	8.52
470.249	8.32
470.603	8.47
470.958	8.32
471.313	8.37
471.668	8.3
472.023	8.32
472.377	8.48
472.732	8.38
473.086	8.45
473.441	8.33
473.795	8.56
474.15	8.57
474.504	8.46
474.859	8.38
475.213	8.48
475.567	8.46
475.921	8.48
476.275	8.6
476.63	8.57
476.984	8.46
477.338	8.48
477.692	8.66
478.045	8.75
478.399	8.63
478.753	8.56
479.107	8.67
479.461	8.75
479.814	8.65
480.168	8.7
480.521	8.56
480.875	8.56
481.228	8.64
481.582	8.64
481.935	8.62
482.289	8.62
482.642	8.7
482.995	8.7
483.348	8.68
483.701	8.77
484.055	8.56
484.408	8.63
484.761	8.59
485.114	8.34
485.466	8.28
485.819	8.23
486.172	8.22
486.525	8.29
486.878	8.35
487.23	8.45
487.583	8.49
487.936	8.57
488.288	8.58
488.641	8.58
488.993	8.47
489.345	8.47
489.698	8.44
490.05	8.48
490.402	8.4
490.754	8.58
491.107	8.7
491.459	8.7
491.811	8.75
492.163	8.84
492.515	8.91
492.866	8.72
493.218	8.71
493.57	8.59
493.922	8.7
494.274	8.62
494.625	8.68
494.977	8.85
495.328	8.9
495.68	8.8
496.031	8.91
496.383	9.06
496.734	9.04
497.086	9.29
497.437	9.14
497.788	9.22
498.139	9.05
498.49	9.02
498.842	9.16
499.193	9.07
499.544	9.13
499.894	9.01
500.245	9.08
500.596	9.11
500.947	9.18
501.298	9.17
501.648	9.29
501.999	9.42
502.35	9.32
502.7	9.34
503.051	9.31
503.401	9.37
503.752	9.42
504.102	9.44
504.452	9.46
504.803	9.48
505.153	9.37
505.503	9.27
505.853	9.38
506.203	9.33
506.553	9.47
506.903	9.41
507.253	9.47
507.603	9.37
507.953	9.56
508.303	9.38
508.652	9.48
509.002	9.56
509.352	9.7
509.701	9.5
510.051	9.55
510.4	9.57
510.75	9.53
511.099	9.56
511.449	9.59
511.798	9.49
512.147	9.63
512.496	9.51
512.846	9.5
513.195	9.76
513.544	9.6
513.893	9.69
514.242	9.58
514.591	9.51
514.939	9.74
515.288	9.72
515.637	9.71
515.986	9.78
516.334	9.69
516.683	9.67
517.032	9.85
517.38	9.88
517.729	9.9
518.077	9.86
518.426	9.71
518.774	9.98
519.122	9.8
519.47	9.77
519.819	9.8
520.167	9.88
520.515	9.71
520.863	9.74
521.211	9.77
521.559	9.82
521.907	9.83
522.255	10
522.602	9.96
522.95	9.88
523.298	10.03
523.645	10.02
523.993	10.13
524.341	10.13
524.688	10.25
525.036	10.1
525.383	10.26
525.73	10.22
526.078	10.25
526.425	10.12
526.772	10.11
527.119	10.07
527.466	10.06
527.814	9.95
528.161	10.04
528.508	10.07
528.854	10.13
529.201	10.02
529.548	9.96
529.895	9.99
530.242	9.83
530.588	9.79
530.935	9.83
531.282	9.91
531.628	9.91
531.975	9.94
532.321	10.17
532.667	10.14
533.014	10.18
533.36	10.38
533.706	10.36
534.052	10.25
534.399	10.28
534.745	10.34
535.091	10.14
535.437	10.14
535.783	10.27
536.129	10.33
536.474	10.31
536.82	10.41
537.166	10.46
537.512	10.51
537.857	10.45
538.203	10.48
538.549	10.41
538.894	10.52
539.239	10.55
539.585	10.57
539.93	10.63
540.276	10.73
540.621	10.85
540.966	10.7
541.311	10.74
541.656	10.76
542.001	10.84
542.346	10.72
542.691	10.7
543.036	10.5
543.381	10.6
543.726	10.51
544.071	10.59
544.415	10.67
544.76	10.67
545.105	10.71
545.449	10.79
545.794	10.89
546.138	10.86
546.483	11.1
546.827	11.03
547.171	11.02
547.516	11.01
547.86	11.1
548.204	11.28
548.548	11.21
548.892	11.09
549.236	11.1
549.58	11.23
549.924	11.28
550.268	11.31
550.612	11.21
550.956	11.31
551.3	11.39
551.643	11.52
551.987	11.47
552.33	11.59
552.674	11.53
553.017	11.53
553.361	11.79
553.704	11.36
554.048	11.58
554.391	11.65
554.734	11.71
555.077	11.63
555.42	11.62
555.764	11.83
556.107	11.77
556.45	11.81
556.793	11.85
557.135	11.89
557.478	11.65
557.821	11.83
558.164	11.99
558.507	11.9
558.849	12.09
559.192	11.91
559.534	11.88
559.877	11.88
560.219	12.11
560.562	12.08
560.904	12.11
561.246	11.83
561.589	12.07
561.931	12.05
562.273	12.29
562.615	12.1
562.957	12.26
563.299	12.08
563.641	12.32
563.983	12.25
564.325	12.21
564.667	12.37
565.008	12.27
565.35	12.14
565.692	12.47
566.033	12.54
566.375	12.34
566.716	12.42
567.058	12.48
567.399	12.49
567.741	12.49
568.082	12.45
568.423	12.4
568.764	12.36
569.105	12.55
569.447	12.58
569.788	12.45
570.129	12.62
570.47	12.72
570.811	12.55
571.151	12.73
571.492	12.98
571.833	12.6
572.174	12.88
572.514	12.8
572.855	12.45
573.195	12.84
573.536	12.78
573.876	12.83
574.217	12.97
574.557	12.89
574.898	12.91
575.238	12.75
575.578	13.15
575.918	12.91
576.258	13.03
576.598	13.03
576.938	13.12
577.278	12.97
577.618	13.16
577.958	12.96
578.298	13.18
578.638	13.28
578.977	13.35
579.317	13.3
579.657	13.19
579.996	13.19
580.336	13.39
580.675	13.32
581.014	13.54
581.354	13.42
581.693	13.57
582.032	13.52
582.372	13.47
582.711	13.6
583.05	13.55
583.389	13.49
583.728	13.81
584.067	13.81
584.406	13.43
584.745	13.9
585.083	13.48
585.422	13.85
585.761	13.65
586.1	13.82
586.438	13.56
586.777	13.84
587.115	14.17
587.454	13.93
587.792	14.18
588.13	14.09
588.469	13.99
588.807	14.06
589.145	14.26
589.483	13.7
589.821	14.21
590.159	13.9
590.497	14.47
590.835	14.02
591.173	14.12
591.511	14.37
591.849	14.16
592.187	14.14
592.524	14.25
592.862	14.23
593.2	14.37
593.537	14.44
593.875	14.38
594.212	14.31
594.55	14.24
594.887	14.5
595.224	14.72
595.561	14.08
595.899	14.25
596.236	14.46
596.573	14.27
596.91	14.54
597.247	14.35
597.584	14.43
597.921	14.89
598.258	14.64
598.594	14.17
598.931	14.65
599.268	14.72
599.604	14.71
599.941	14.74
600.277	14.78
600.614	14.87
600.95	14.76
601.287	14.73
601.623	14.8
601.959	14.93
602.296	14.9
602.632	14.59
602.968	14.91
603.304	15.15
603.64	15.14
603.976	15
604.312	15.11
604.648	14.86
604.984	15
605.319	15.05
605.655	14.98
605.991	15.23
606.326	15.06
606.662	15.14
606.998	15.07
607.333	14.96
607.668	15.48
608.004	15.1
608.339	15.48
608.674	15.6
609.01	15.55
609.345	15.55
609.68	15.26
610.015	15.48
610.35	15.45
610.685	16
611.02	15.36
611.355	15.58
611.689	15.72
612.024	15.46
612.359	15.41
612.694	15.68
613.028	15.9
613.363	16.12
613.697	15.87
614.032	15.65
614.366	15.86
614.7	15.67
615.035	16.18
615.369	16.11
615.703	15.8
616.037	15.97
616.371	16.05
616.705	15.87
617.039	16.17
617.373	16.54
617.707	16.23
618.041	16.25
618.375	16.17
618.709	16.2
619.042	16.65
619.376	16.19
619.71	16.23
620.043	16.65
620.377	16.51
620.71	16.92
621.043	16.45
621.377	16.2
621.71	16.59
622.043	16.66
622.376	16.61
622.709	16.77
623.043	16.41
623.376	16.94
623.709	16.48
624.041	17.03
624.374	16.97
624.707	16.71
625.04	17.21
625.373	16.68
625.705	16.53
626.038	16.73
626.37	16.72
626.703	17.12
627.035	16.74
627.368	16.61
627.7	16.91
628.032	16.85
628.365	17.21
628.697	16.96
629.029	17.05
629.361	16.84
629.693	16.92
630.025	17.31
630.357	16.6
630.689	17.1
631.021	17.02
631.353	16.96
631.684	17.25
632.016	17.61
632.348	17.53
632.679	16.91
633.011	17.04
633.342	17.48
633.674	17.05
634.005	17.42
634.336	17.52
634.668	17.56
634.999	17.6
635.33	17.35
635.661	17.37
635.992	17.19
636.323	17.65
636.654	17.11
636.985	17.39
637.316	17.32
637.647	17.5
637.977	17.9
638.308	17.8
638.639	17.6
638.969	17.66
639.3	17.99
639.63	17.59
639.961	18.29
640.291	18.02
640.622	17.73
640.952	17.7
641.282	18.01
641.612	18.32
641.943	18.08
642.273	18.18
642.603	18.2
642.933	17.81
643.263	17.74
643.592	18.06
643.922	18.51
644.252	18.16
644.582	17.95
644.911	17.98
645.241	18.04
645.571	18
645.9	18.44
646.23	18.17
646.559	18.32
646.888	18.26
647.218	18.31
647.547	18.06
647.876	18.43
648.205	18.23
648.534	18.83
648.863	18.68
649.192	18.74
649.521	17.89
649.85	19
650.179	18.54
650.508	18.83
650.837	18.58
651.165	18.71
651.494	19.01
651.822	18.76
652.151	18.89
652.479	18.86
652.808	18.89
653.136	18.57
653.465	18.76
653.793	18.94
654.121	18.88
654.449	18.65
654.777	18.88
655.105	18.82
655.433	19.42
655.761	19.42
656.089	18.77
656.417	18.76
656.745	18.53
657.073	18.68
657.4	19.2
657.728	18.96
658.056	18.48
658.383	19.21
658.711	18.98
659.038	19.3
659.365	19.66
659.693	19.2
660.02	19.35
660.347	18.99
660.674	19.65
661.001	19.25
661.329	19.47
661.656	19.47
661.982	19.2
662.309	19.34
662.636	19.45
662.963	18.79
663.29	19.25
663.616	19.75
663.943	19.49
664.27	19.97
664.596	19.96
664.923	20.08
665.249	19.73
665.576	19.74
665.902	19.12
666.228	19.49
666.554	20.22
666.881	19.64
667.207	20.68
667.533	20.21
667.859	19.88
668.185	19.69
668.511	20.69
668.837	19.54
669.162	19.85
669.488	19.32
669.814	19.35
670.139	19.91
670.465	19.76
670.791	19.83
671.116	20.11
671.442	19.81
671.767	20.41
672.092	20.3
672.418	20.17
672.743	20.14
673.068	20.11
673.393	20.44
673.718	20.66
674.043	20.41
674.368	20.06
674.693	20.8
675.018	20.31
675.343	20.52
675.667	20.38
675.992	20.76
676.317	20.15
676.641	19.75
676.966	20.25
677.29	20.61
677.615	21.29
677.939	20.54
678.264	20.5
678.588	20.31
678.912	20.73
679.236	20.47
679.56	21.5
679.885	20.88
680.209	20.63
680.532	20.55
680.856	20.69
681.18	20.24
681.504	20.68
681.828	20.72
