Data from 0041_chest_Reflection__0__105.txt Node

Date: Fri Nov 04 15:41:10 CDT 2022
User: ToomeyLab
Spectrometer: FLMS14357
Trigger mode: 0
Integration Time (sec): 1.000000E-2
Scans to average: 100
Electric dark correction enabled: true
Nonlinearity correction enabled: false
Boxcar width: 0
XAxis mode: Wavelengths
Number of Pixels in Spectrum: 2048
>>>>>Begin Spectral Data<<<<<
189.047	197.85
189.435	197.85
189.823	197.85
190.211	-444.76
190.599	-434.66
190.987	-453.75
191.375	102.3
191.763	97.65
192.151	287.24
192.538	266.69
192.926	228.63
193.314	54.46
193.702	63.89
194.089	78.27
194.477	-323.01
194.864	234.29
195.252	124.8
195.639	-4.6
196.027	160.77
196.414	212.54
196.801	49.61
197.189	1399.28
197.576	172.45
197.963	324.06
198.351	-1.05
198.738	12.99
199.125	4.64
199.512	-17.83
199.899	11.81
200.286	10.56
200.673	-17.35
201.06	19.04
201.447	2.85
201.833	28.94
202.22	1.55
202.607	-64.08
202.994	35.92
203.38	-12.83
203.767	-10.82
204.154	21.44
204.54	-28.92
204.927	22.39
205.313	15.93
205.699	33.98
206.086	-11.12
206.472	17.76
206.858	-3.7
207.245	9.37
207.631	-6.94
208.017	16.36
208.403	11.99
208.789	27.44
209.175	5.36
209.561	-49.3
209.947	-50.8
210.333	5.56
210.719	12.18
211.105	-34.07
211.491	23.69
211.876	-8.74
212.262	30.21
212.648	-21.97
213.034	6.77
213.419	20.3
213.805	-15.35
214.19	-91.51
214.576	-14.09
214.961	29.09
215.346	24.75
215.732	15.88
216.117	-12.53
216.502	13.13
216.888	-4.28
217.273	17.75
217.658	17.92
218.043	-12.5
218.428	29.19
218.813	2.81
219.198	10.42
219.583	-32.01
219.968	5.79
220.353	-11.87
220.738	-13.28
221.122	14.81
221.507	16.52
221.892	-27.25
222.276	2.32
222.661	11.09
223.046	-20.62
223.43	-5.91
223.815	-15.47
224.199	4.08
224.583	1.45
224.968	8.16
225.352	4.21
225.736	-0.21
226.121	-6.44
226.505	3.24
226.889	1.88
227.273	8.48
227.657	-1.21
228.041	6.13
228.425	4.38
228.809	4.23
229.193	2.75
229.577	-0.21
229.961	3.67
230.344	3.08
230.728	2.77
231.112	1.87
231.495	2.62
231.879	3.01
232.263	2.22
232.646	1.89
233.03	0.51
233.413	1.49
233.797	2.83
234.18	1.7
234.563	3.07
234.946	-0.42
235.33	3.69
235.713	2.27
236.096	2.4
236.479	2.55
236.862	1.25
237.245	2.23
237.628	2.58
238.011	-0.74
238.394	3.32
238.777	2.21
239.16	1.23
239.543	3.65
239.925	1.73
240.308	4.05
240.691	2.06
241.073	1.59
241.456	1.67
241.838	1.04
242.221	2.08
242.603	1.57
242.986	2.35
243.368	2.88
243.75	2.4
244.133	2.54
244.515	2.59
244.897	2.39
245.279	2.83
245.661	3.21
246.043	2.64
246.425	1.47
246.807	2.66
247.189	2.44
247.571	2.81
247.953	2.18
248.335	2.07
248.717	2.45
249.098	2.34
249.48	2.39
249.862	2.32
250.243	1.92
250.625	1.98
251.006	2.48
251.388	2.77
251.769	2.95
252.151	2.94
252.532	2.94
252.913	1.75
253.295	2.97
253.676	1.9
254.057	2.47
254.438	2.01
254.819	2.23
255.2	2.57
255.581	3.08
255.962	2.73
256.343	2.6
256.724	2.07
257.105	1.18
257.486	2.39
257.867	3.83
258.247	3.74
258.628	1.29
259.009	2.1
259.389	2.47
259.77	2.64
260.15	2.14
260.531	2.61
260.911	2.08
261.292	2.25
261.672	2.17
262.052	2.24
262.432	2.32
262.813	2.29
263.193	2.09
263.573	2.04
263.953	2.01
264.333	2.65
264.713	2.54
265.093	2.23
265.473	1.95
265.853	1.08
266.233	1.9
266.612	2.73
266.992	3.17
267.372	2.05
267.752	1.92
268.131	2.66
268.511	2.4
268.89	2.68
269.27	2.22
269.649	2.01
270.029	2
270.408	2.6
270.787	2.33
271.167	2.56
271.546	2.72
271.925	2.53
272.304	2.14
272.683	2.14
273.062	2.12
273.441	2.21
273.82	2.28
274.199	2.61
274.578	1.88
274.957	2.29
275.336	2.11
275.715	2.03
276.093	2.61
276.472	2.12
276.851	2.01
277.229	1.9
277.608	2.34
277.986	2.62
278.365	2.24
278.743	2.2
279.122	2.3
279.5	2.65
279.878	2.7
280.257	2.3
280.635	1.63
281.013	1.65
281.391	2.61
281.769	1.85
282.147	1.72
282.525	2.61
282.903	2.15
283.281	2.67
283.659	2.24
284.037	2.22
284.415	2.06
284.792	2.41
285.17	2.16
285.548	2.52
285.925	2.17
286.303	2.24
286.68	2.45
287.058	2.56
287.435	2.19
287.813	2
288.19	2.38
288.567	1.91
288.945	2.48
289.322	2.54
289.699	2.43
290.076	2.84
290.453	2
290.83	1.91
291.207	2.36
291.584	2.54
291.961	2.57
292.338	2.4
292.715	2.58
293.092	2.68
293.469	2.34
293.845	2.48
294.222	2
294.599	2.25
294.975	2.38
295.352	2.44
295.728	3.01
296.105	2.37
296.481	2.5
296.858	2.58
297.234	2.86
297.61	2.82
297.986	2.23
298.363	2.14
298.739	2.48
299.115	2.62
299.491	2.44
299.867	2.45
300.243	2.42
300.619	2.63
300.995	3.14
301.371	2.89
301.746	2.74
302.122	2.63
302.498	2.74
302.874	2.56
303.249	1.97
303.625	2.42
304	2.4
304.376	2.45
304.751	2.64
305.127	1.72
305.502	2.37
305.878	2.85
306.253	2.4
306.628	2.08
307.003	2.71
307.378	3.06
307.754	2.8
308.129	2.38
308.504	2.87
308.879	2.97
309.254	2.71
309.629	2.43
310.003	2.89
310.378	2.31
310.753	2.41
311.128	2.79
311.502	2.53
311.877	2.83
312.252	2.63
312.626	2.72
313.001	2.33
313.375	2.39
313.75	2.48
314.124	2.56
314.498	3.08
314.873	3.03
315.247	2.25
315.621	2.94
315.995	2.9
316.369	2.84
316.743	3.22
317.117	3.17
317.491	3.38
317.865	3.18
318.239	2.88
318.613	3.36
318.987	3.05
319.361	2.53
319.734	3.14
320.108	2.51
320.482	2.19
320.855	3.19
321.229	3.21
321.602	3.03
321.976	2.75
322.349	3.69
322.723	2.87
323.096	2.94
323.469	2.61
323.843	3.09
324.216	3.09
324.589	3.06
324.962	3.15
325.335	2.96
325.708	2.43
326.081	2.6
326.454	2.98
326.827	2.93
327.2	2.92
327.573	2.64
327.945	3.07
328.318	2.53
328.691	3.01
329.063	2.77
329.436	3.5
329.809	2.79
330.181	2.75
330.553	2.55
330.926	3.19
331.298	3.2
331.671	2.88
332.043	3.03
332.415	2.88
332.787	2.72
333.159	2.49
333.532	2.66
333.904	3.44
334.276	3.26
334.648	3.15
335.02	2.06
335.391	2.93
335.763	3.14
336.135	2.87
336.507	2.79
336.879	3.29
337.25	2.98
337.622	2.84
337.993	3.29
338.365	3.21
338.736	3.37
339.108	3.62
339.479	3.17
339.851	2.58
340.222	2.6
340.593	3.28
340.964	2.9
341.336	2.5
341.707	2.39
342.078	3.05
342.449	3.37
342.82	3.07
343.191	2.8
343.562	3
343.933	3.44
344.303	3.39
344.674	3.08
345.045	2.94
345.416	2.74
345.786	2.87
346.157	3.05
346.527	2.72
346.898	3.22
347.268	2.99
347.639	2.99
348.009	3.13
348.38	3.1
348.75	3.06
349.12	2.63
349.49	3.22
349.861	2.79
350.231	3.63
350.601	3.34
350.971	3.13
351.341	3.01
351.711	3.09
352.081	2.95
352.45	3.18
352.82	2.91
353.19	3.27
353.56	3.14
353.929	3.16
354.299	3.35
354.669	3.55
355.038	3.3
355.408	3.04
355.777	3.13
356.147	2.72
356.516	2.98
356.885	2.93
357.254	3.17
357.624	3.34
357.993	3.17
358.362	3.09
358.731	3.07
359.1	3.26
359.469	3.21
359.838	3.51
360.207	2.95
360.576	3.26
360.945	3.43
361.314	3.09
361.682	2.96
362.051	3.01
362.42	3.13
362.788	3.12
363.157	3.05
363.525	3.13
363.894	3.15
364.262	3.22
364.631	3.13
364.999	3.23
365.367	3
365.735	3.39
366.104	3.25
366.472	3.54
366.84	2.89
367.208	3.39
367.576	3.23
367.944	3.44
368.312	3.35
368.68	3.02
369.048	3.11
369.416	3.2
369.783	2.89
370.151	2.97
370.519	3.76
370.886	3.16
371.254	3.3
371.621	3.1
371.989	3.12
372.356	3.24
372.724	3.44
373.091	3.37
373.458	3.2
373.826	3.43
374.193	3.18
374.56	3.15
374.927	3.45
375.294	3.04
375.661	3.28
376.028	2.95
376.395	3.34
376.762	3.58
377.129	3.38
377.496	3.27
377.863	3.71
378.229	3.04
378.596	3.14
378.963	3.58
379.329	3.02
379.696	3.2
380.062	3.54
380.429	3.26
380.795	3.51
381.161	3.23
381.528	3.29
381.894	3.22
382.26	3.11
382.626	3.24
382.993	3.65
383.359	3.31
383.725	3.44
384.091	3.33
384.457	3.82
384.823	3.4
385.188	3.32
385.554	3.36
385.92	3.22
386.286	3.19
386.651	3.14
387.017	3.42
387.383	3.3
387.748	3.19
388.114	3.33
388.479	3.81
388.845	3.57
389.21	3.76
389.575	3.69
389.94	3.45
390.306	3.44
390.671	3.23
391.036	3.46
391.401	3.77
391.766	3.07
392.131	3.42
392.496	3.64
392.861	3.71
393.226	3.34
393.591	3.38
393.956	3.74
394.32	3.48
394.685	3.49
395.05	3.86
395.414	3.46
395.779	3.4
396.143	3.25
396.508	3.54
396.872	3.56
397.236	3.55
397.601	3.3
397.965	3.44
398.329	3.58
398.694	3.62
399.058	3.82
399.422	3.26
399.786	3.54
400.15	3.31
400.514	3.44
400.878	3.59
401.242	3.64
401.605	3.47
401.969	3.74
402.333	3.57
402.697	3.61
403.06	3.79
403.424	3.6
403.787	3.55
404.151	3.71
404.514	3.5
404.878	3.67
405.241	3.58
405.604	3.55
405.968	3.46
406.331	3.46
406.694	3.49
407.057	3.62
407.42	3.78
407.783	3.49
408.146	3.77
408.509	3.68
408.872	3.59
409.235	3.62
409.598	3.66
409.961	3.62
410.323	3.64
410.686	3.53
411.049	3.68
411.411	3.56
411.774	3.76
412.136	3.75
412.499	3.75
412.861	3.67
413.223	3.61
413.586	3.37
413.948	3.67
414.31	3.69
414.672	3.66
415.035	3.57
415.397	3.76
415.759	3.85
416.121	3.38
416.483	3.74
416.845	3.67
417.206	3.66
417.568	3.75
417.93	3.83
418.292	3.67
418.653	3.84
419.015	3.6
419.377	3.61
419.738	3.68
420.1	3.65
420.461	3.63
420.822	3.58
421.184	3.6
421.545	3.55
421.906	3.76
422.267	3.51
422.629	3.68
422.99	3.51
423.351	3.68
423.712	3.58
424.073	3.8
424.434	3.65
424.795	3.71
425.155	3.84
425.516	3.69
425.877	3.75
426.238	3.73
426.598	3.69
426.959	3.57
427.32	3.66
427.68	3.73
428.041	3.73
428.401	3.83
428.761	3.81
429.122	3.78
429.482	3.71
429.842	3.58
430.202	3.94
430.563	3.74
430.923	3.87
431.283	3.64
431.643	4.01
432.003	4.05
432.363	3.98
432.722	3.81
433.082	3.8
433.442	3.87
433.802	3.63
434.161	3.65
434.521	3.85
434.881	3.84
435.24	3.75
435.6	4.03
435.959	3.81
436.319	3.92
436.678	3.94
437.037	3.9
437.396	3.97
437.756	4.05
438.115	3.86
438.474	3.82
438.833	4.01
439.192	3.9
439.551	3.84
439.91	3.95
440.269	3.78
440.628	4.02
440.987	3.94
441.345	3.92
441.704	3.92
442.063	3.84
442.421	3.93
442.78	3.92
443.138	3.82
443.497	3.99
443.855	3.89
444.214	4.01
444.572	3.92
444.93	3.9
445.288	3.97
445.647	3.8
446.005	3.92
446.363	3.97
446.721	3.85
447.079	3.94
447.437	3.96
447.795	3.99
448.153	3.81
448.51	3.96
448.868	3.99
449.226	3.95
449.584	3.92
449.941	3.89
450.299	4.01
450.656	3.89
451.014	4.13
451.371	4.16
451.729	4.16
452.086	4.15
452.443	4.16
452.801	4.07
453.158	4.21
453.515	4.07
453.872	3.96
454.229	4.11
454.586	4.06
454.943	4.07
455.3	4
455.657	3.96
456.014	4.11
456.371	4.03
456.727	4.13
457.084	4.18
457.441	4.23
457.797	4.19
458.154	4.28
458.51	4.23
458.867	4.17
459.223	4.07
459.58	4.43
459.936	4.01
460.292	4.11
460.648	4
461.005	4
461.361	4.09
461.717	4.11
462.073	4.17
462.429	4.18
462.785	4.15
463.141	4.25
463.496	4.13
463.852	4.19
464.208	4.27
464.564	4.22
464.919	4.26
465.275	4.29
465.631	4.35
465.986	4.26
466.342	4.13
466.697	4.17
467.052	4.08
467.408	4.28
467.763	4.33
468.118	4.28
468.473	4.25
468.829	4.21
469.184	4.25
469.539	4.1
469.894	4.38
470.249	4.1
470.603	4.24
470.958	4.24
471.313	4.15
471.668	4.17
472.023	4.08
472.377	4.35
472.732	4.33
473.086	4.27
473.441	4.33
473.795	4.41
474.15	4.34
474.504	4.4
474.859	4.31
475.213	4.32
475.567	4.34
475.921	4.23
476.275	4.39
476.63	4.4
476.984	4.32
477.338	4.5
477.692	4.62
478.045	4.46
478.399	4.28
478.753	4.48
479.107	4.52
479.461	4.51
479.814	4.54
480.168	4.51
480.521	4.42
480.875	4.37
481.228	4.6
481.582	4.45
481.935	4.46
482.289	4.39
482.642	4.45
482.995	4.53
483.348	4.46
483.701	4.4
484.055	4.37
484.408	4.37
484.761	4.4
485.114	4.27
485.466	4.13
485.819	4.11
486.172	4.14
486.525	4.19
486.878	4.36
487.23	4.45
487.583	4.4
487.936	4.44
488.288	4.46
488.641	4.37
488.993	4.32
489.345	4.21
489.698	4.3
490.05	4.29
490.402	4.36
490.754	4.46
491.107	4.48
491.459	4.49
491.811	4.48
492.163	4.57
492.515	4.55
492.866	4.46
493.218	4.43
493.57	4.34
493.922	4.41
494.274	4.46
494.625	4.53
494.977	4.63
495.328	4.69
495.68	4.54
496.031	4.66
496.383	4.65
496.734	4.64
497.086	4.86
497.437	4.76
497.788	4.75
498.139	4.65
498.49	4.63
498.842	4.7
499.193	4.59
499.544	4.7
499.894	4.69
500.245	4.81
500.596	4.74
500.947	4.74
501.298	4.68
501.648	4.85
501.999	4.86
502.35	4.77
502.7	4.82
503.051	4.82
503.401	4.91
503.752	4.9
504.102	4.78
504.452	4.85
504.803	4.8
505.153	4.86
505.503	4.82
505.853	4.9
506.203	4.87
506.553	4.9
506.903	4.87
507.253	4.89
507.603	4.82
507.953	4.83
508.303	4.88
508.652	4.87
509.002	5.01
509.352	5
509.701	4.88
510.051	4.88
510.4	4.91
510.75	4.9
511.099	4.91
511.449	4.84
511.798	4.83
512.147	5.03
512.496	4.91
512.846	4.96
513.195	5.07
513.544	5.03
513.893	5.05
514.242	4.95
514.591	4.9
514.939	5.08
515.288	5.13
515.637	5.02
515.986	5.15
516.334	5.07
516.683	5.13
517.032	5.11
517.38	5.12
517.729	5.17
518.077	5.13
518.426	5.22
518.774	5.08
519.122	5.07
519.47	5.03
519.819	5.04
520.167	5.02
520.515	5.02
520.863	5.05
521.211	5.07
521.559	5.19
521.907	5.1
522.255	5.2
522.602	5.16
522.95	5.22
523.298	5.25
523.645	5.31
523.993	5.24
524.341	5.28
524.688	5.4
525.036	5.2
525.383	5.4
525.73	5.28
526.078	5.43
526.425	5.31
526.772	5.2
527.119	5.24
527.466	5.14
527.814	5.14
528.161	5.12
528.508	5.29
528.854	5.29
529.201	5.24
529.548	5.23
529.895	5.15
530.242	5.05
530.588	5.04
530.935	5.06
531.282	5.18
531.628	5.18
531.975	5.28
532.321	5.41
532.667	5.44
533.014	5.42
533.36	5.47
533.706	5.49
534.052	5.45
534.399	5.4
534.745	5.41
535.091	5.3
535.437	5.22
535.783	5.29
536.129	5.46
536.474	5.6
536.82	5.55
537.166	5.6
537.512	5.69
537.857	5.6
538.203	5.52
538.549	5.41
538.894	5.62
539.239	5.62
539.585	5.64
539.93	5.75
540.276	5.57
540.621	5.68
540.966	5.73
541.311	5.66
541.656	5.84
542.001	5.71
542.346	5.71
542.691	5.57
543.036	5.49
543.381	5.53
543.726	5.54
544.071	5.56
544.415	5.67
544.76	5.8
545.105	5.82
545.449	5.89
545.794	5.86
546.138	5.88
546.483	5.88
546.827	5.9
547.171	6.03
547.516	5.93
547.86	5.85
548.204	6.02
548.548	5.98
548.892	5.89
549.236	6.02
549.58	6.09
549.924	6.09
550.268	6.15
550.612	6.14
550.956	6.19
551.3	6.26
551.643	6.13
551.987	6.05
552.33	6.19
552.674	6.13
553.017	6.35
553.361	6.42
553.704	6.16
554.048	6.28
554.391	6.13
554.734	6.37
555.077	6.3
555.42	6.19
555.764	6.45
556.107	6.24
556.45	6.41
556.793	6.41
557.135	6.41
557.478	6.33
557.821	6.53
558.164	6.56
558.507	6.5
558.849	6.58
559.192	6.7
559.534	6.49
559.877	6.59
560.219	6.66
560.562	6.48
560.904	6.73
561.246	6.48
561.589	6.71
561.931	6.69
562.273	6.69
562.615	6.53
562.957	6.64
563.299	6.64
563.641	6.77
563.983	6.79
564.325	6.74
564.667	6.81
565.008	6.63
565.35	6.78
565.692	7.03
566.033	6.93
566.375	6.84
566.716	6.78
567.058	6.87
567.399	6.8
567.741	6.97
568.082	7.07
568.423	6.75
568.764	6.83
569.105	6.91
569.447	7.11
569.788	7.04
570.129	7.1
570.47	7.07
570.811	7.03
571.151	7.07
571.492	7.15
571.833	7.06
572.174	7.29
572.514	6.96
572.855	7.06
573.195	7.07
573.536	7.12
573.876	7.15
574.217	7.04
574.557	7.13
574.898	7.37
575.238	7.1
575.578	7.44
575.918	7.32
576.258	7.49
576.598	7.3
576.938	7.39
577.278	7.3
577.618	7.25
577.958	7.29
578.298	7.46
578.638	7.39
578.977	7.55
579.317	7.67
579.657	7.54
579.996	7.69
580.336	7.64
580.675	7.55
581.014	7.87
581.354	7.77
581.693	8.21
582.032	7.79
582.372	7.89
582.711	7.66
583.05	7.92
583.389	7.8
583.728	7.65
584.067	8.08
584.406	7.66
584.745	8.13
585.083	7.91
585.422	8.08
585.761	8.06
586.1	7.65
586.438	7.57
586.777	8.17
587.115	8.07
587.454	8.35
587.792	8.15
588.13	8.34
588.469	8.24
588.807	8.16
589.145	8.32
589.483	8.06
589.821	8.27
590.159	8.31
590.497	8.39
590.835	8.13
591.173	8.14
591.511	8.35
591.849	8.4
592.187	8.39
592.524	8.43
592.862	8.27
593.2	8.44
593.537	8.42
593.875	8.36
594.212	8.51
594.55	8.3
594.887	8.65
595.224	8.41
595.561	8.12
595.899	8.49
596.236	8.44
596.573	8.59
596.91	8.62
597.247	8.71
597.584	8.46
597.921	8.68
598.258	8.29
598.594	8.45
598.931	8.59
599.268	8.71
599.604	8.6
599.941	8.67
600.277	8.86
600.614	9.06
600.95	8.86
601.287	8.86
601.623	9
601.959	8.98
602.296	9.14
602.632	8.96
602.968	9.13
603.304	9.06
603.64	9.07
603.976	8.85
604.312	9.35
604.648	9.03
604.984	9.16
605.319	9.01
605.655	9.07
605.991	9.22
606.326	9.11
606.662	9.13
606.998	9
607.333	9.25
607.668	9.44
608.004	9.17
608.339	9.22
608.674	9.34
609.01	9.55
609.345	9.64
609.68	9.41
610.015	9.51
610.35	9.28
610.685	9.52
611.02	9.41
611.355	9.61
611.689	9.58
612.024	9.56
612.359	9.53
612.694	9.52
613.028	9.76
613.363	9.99
613.697	9.39
614.032	9.68
614.366	9.62
614.7	9.95
615.035	10.05
615.369	9.76
615.703	10.29
616.037	9.81
616.371	9.98
616.705	9.83
617.039	9.92
617.373	10.31
617.707	10.45
618.041	10.2
618.375	10.13
618.709	10.02
619.042	10.11
619.376	10.3
619.71	10.4
620.043	10.55
620.377	10.34
620.71	10.54
621.043	10.21
621.377	10.05
621.71	10.61
622.043	10.61
622.376	10.48
622.709	10.64
623.043	10.49
623.376	10.93
623.709	10.41
624.041	10.51
624.374	10.55
624.707	10.29
625.04	10.88
625.373	10.9
625.705	10.45
626.038	10.82
626.37	10.73
626.703	10.99
627.035	10.42
627.368	10.63
627.7	10.44
628.032	10.45
628.365	11.18
628.697	10.72
629.029	10.8
629.361	10.63
629.693	10.87
630.025	10.85
630.357	10.57
630.689	11.12
631.021	10.87
631.353	10.81
631.684	10.83
632.016	11.28
632.348	10.93
632.679	11.04
633.011	11.22
633.342	11.38
633.674	11.03
634.005	11.09
634.336	11.33
634.668	11.34
634.999	11.14
635.33	10.85
635.661	11.67
635.992	11.26
636.323	11.37
636.654	11.27
636.985	11.48
637.316	11.37
637.647	11.5
637.977	11.78
638.308	11.97
638.639	11.44
638.969	11.66
639.3	11.95
639.63	11.62
639.961	11.44
640.291	12.23
640.622	12
640.952	11.76
641.282	11.89
641.612	11.92
641.943	11.74
642.273	11.48
642.603	11.78
642.933	11.75
643.263	11.59
643.592	12.17
643.922	12.01
644.252	12.21
644.582	11.83
644.911	12.01
645.241	12
645.571	11.86
645.9	11.68
646.23	12.21
646.559	12.54
646.888	12.39
647.218	12.65
647.547	12.27
647.876	12.2
648.205	12.21
648.534	12.44
648.863	12.18
649.192	12.04
649.521	12.57
649.85	12.49
650.179	12.58
650.508	12.8
650.837	12.83
651.165	12.84
651.494	12.66
651.822	12.68
652.151	12.57
652.479	12.7
652.808	12.61
653.136	12.68
653.465	12.62
653.793	13.33
654.121	12.53
654.449	12.58
654.777	12.79
655.105	13.01
655.433	12.73
655.761	12.92
656.089	12.81
656.417	12.66
656.745	12.85
657.073	12.87
657.4	12.86
657.728	12.83
658.056	12.57
658.383	12.99
658.711	13
659.038	13.17
659.365	13.47
659.693	13.98
660.02	13.04
660.347	13.18
660.674	13.3
661.001	12.97
661.329	13.26
661.656	13.3
661.982	12.98
662.309	13.07
662.636	13.27
662.963	12.97
663.29	13.01
663.616	13.83
663.943	13.74
664.27	13.71
664.596	13.57
664.923	13.28
665.249	14.07
665.576	13.8
665.902	13.18
666.228	13.42
666.554	14.35
666.881	13.17
667.207	13.97
667.533	13.99
667.859	13.25
668.185	13.53
668.511	13.9
668.837	13.33
669.162	13.87
669.488	13.13
669.814	13.46
670.139	13.91
670.465	14.1
670.791	14.1
671.116	13.75
671.442	14.16
671.767	14.32
672.092	14.48
672.418	14.05
672.743	14.45
673.068	14.18
673.393	15.2
673.718	14.48
674.043	13.61
674.368	13.73
674.693	14.06
675.018	14.34
675.343	14.55
675.667	14.41
675.992	14.49
676.317	14.15
676.641	14.16
676.966	14.11
677.29	14.44
677.615	15.01
677.939	14.7
678.264	14.97
678.588	14
678.912	15.11
679.236	14.9
679.56	14.2
679.885	14.55
680.209	14.89
680.532	14.75
680.856	14.67
681.18	14.7
681.504	15.15
681.828	14.64
682.152	15.35
682.475	14.87
682.799	14.93
683.122	14.84
683.446	14.52
683.769	14.83
684.093	14.81
684.416	14.59
684.739	14.97
685.062	15.49
685.386	14.73
685.709	15.43
686.032	15.47
686.355	16.02
686.678	15.33
687.001	16.3
687.324	15.27
