Data from 0041_chest_Reflection__3__108.txt Node

Date: Fri Nov 04 15:41:55 CDT 2022
User: ToomeyLab
Spectrometer: FLMS14357
Trigger mode: 0
Integration Time (sec): 1.000000E-2
Scans to average: 100
Electric dark correction enabled: true
Nonlinearity correction enabled: false
Boxcar width: 0
XAxis mode: Wavelengths
Number of Pixels in Spectrum: 2048
>>>>>Begin Spectral Data<<<<<
189.047	114.11
189.435	114.11
189.823	114.11
190.211	635.37
190.599	-153.7
190.987	92.87
191.375	71.06
191.763	83.87
192.151	110.71
192.538	34
192.926	171.4
193.314	-95.34
193.702	99.74
194.089	17.62
194.477	1.26
194.864	202.24
195.252	155.55
195.639	-70.02
196.027	318.59
196.414	-398.28
196.801	62.29
197.189	1042.03
197.576	117.52
197.963	-136.84
198.351	-64.86
198.738	55.92
199.125	-14.65
199.512	-13.81
199.899	-22.76
200.286	-17.4
200.673	-50.73
201.06	-35.58
201.447	-4.95
201.833	-10.59
202.22	-23.35
202.607	16.8
202.994	45.58
203.38	7.67
203.767	4.26
204.154	42.75
204.54	11.66
204.927	5.91
205.313	37.68
205.699	19.42
206.086	16.85
206.472	-47.13
206.858	-42.17
207.245	-7.18
207.631	7.57
208.017	-0.99
208.403	25.89
208.789	37.7
209.175	5.95
209.561	-72.74
209.947	-91.05
210.333	-2.35
210.719	21.07
211.105	-49.32
211.491	24.81
211.876	-3.97
212.262	6.02
212.648	-41.48
213.034	17.1
213.419	-5.79
213.805	-21.6
214.19	-26.47
214.576	18.71
214.961	27.35
215.346	0.93
215.732	-12.61
216.117	-5.11
216.502	25.57
216.888	-5.77
217.273	-9.72
217.658	-15.52
218.043	-7.2
218.428	1.39
218.813	-20.95
219.198	-3.59
219.583	-24.88
219.968	27.79
220.353	-8.41
220.738	-3.02
221.122	-12.3
221.507	0.83
221.892	-5.9
222.276	-4.65
222.661	6.56
223.046	-4.82
223.43	-2.42
223.815	-8.21
224.199	2.66
224.583	1.06
224.968	2.44
225.352	4.96
225.736	3.64
226.121	-3.66
226.505	1.16
226.889	4.76
227.273	3.33
227.657	0.72
228.041	2.89
228.425	2.29
228.809	6.88
229.193	6.53
229.577	4.43
229.961	5.07
230.344	4.45
230.728	4.31
231.112	3.59
231.495	4.15
231.879	4.73
232.263	3.63
232.646	3.85
233.03	2.74
233.413	1.85
233.797	4.28
234.18	3.91
234.563	5.37
234.946	4.61
235.33	6.77
235.713	4.25
236.096	5.05
236.479	4.23
236.862	4.48
237.245	2.99
237.628	2.56
238.011	2.2
238.394	5.24
238.777	3.85
239.16	3.46
239.543	3.96
239.925	3.45
240.308	4.31
240.691	3.76
241.073	3.78
241.456	3.57
241.838	3.33
242.221	3.94
242.603	3.13
242.986	3.37
243.368	4.03
243.75	4.17
244.133	4.11
244.515	4.03
244.897	4.09
245.279	3.6
245.661	4.45
246.043	4.76
246.425	3.19
246.807	5.74
247.189	3.67
247.571	3.8
247.953	3.64
248.335	3.73
248.717	4.15
249.098	3.94
249.48	4.04
249.862	4.06
250.243	3.79
250.625	3.45
251.006	3.89
251.388	4.3
251.769	4.84
252.151	4.81
252.532	4.21
252.913	2.4
253.295	3.22
253.676	3.76
254.057	3.29
254.438	3.7
254.819	3.48
255.2	2.71
255.581	4.39
255.962	3.67
256.343	3.83
256.724	3.89
257.105	3.52
257.486	3.48
257.867	5.26
258.247	4.53
258.628	3.85
259.009	2.77
259.389	3.78
259.77	3.85
260.15	3.89
260.531	3.7
260.911	3.17
261.292	3.84
261.672	3.82
262.052	3.87
262.432	3.87
262.813	3.54
263.193	3.11
263.573	3.36
263.953	3.75
264.333	4.11
264.713	4.18
265.093	3.51
265.473	4.01
265.853	3.18
266.233	3.59
266.612	3.87
266.992	3.99
267.372	2.84
267.752	3.84
268.131	3.76
268.511	3.78
268.89	4.24
269.27	3.64
269.649	3.7
270.029	3.55
270.408	3.75
270.787	3.6
271.167	3.42
271.546	4.37
271.925	3.31
272.304	3.29
272.683	3.33
273.062	3.65
273.441	3.77
273.82	3.46
274.199	3.68
274.578	3.49
274.957	3.44
275.336	3.37
275.715	3.61
276.093	3.45
276.472	3.51
276.851	3.24
277.229	3.6
277.608	3.63
277.986	3.94
278.365	3.75
278.743	3.83
279.122	3.09
279.5	3.38
279.878	3.75
280.257	3.38
280.635	2.69
281.013	3.76
281.391	3.8
281.769	3.95
282.147	3.26
282.525	3.37
282.903	3.66
283.281	4.03
283.659	3.24
284.037	3.64
284.415	3.61
284.792	3.61
285.17	3.51
285.548	3.73
285.925	3.36
286.303	3.79
286.68	3.59
287.058	3.36
287.435	3.08
287.813	3.25
288.19	3.37
288.567	3.51
288.945	3.52
289.322	3.63
289.699	3.82
290.076	3.5
290.453	3.41
290.83	3.33
291.207	3.03
291.584	3.42
291.961	3.56
292.338	3.64
292.715	3.43
293.092	3.47
293.469	3.76
293.845	3.28
294.222	3.51
294.599	2.75
294.975	3.23
295.352	3.39
295.728	3.69
296.105	3.36
296.481	3.17
296.858	3.45
297.234	4.03
297.61	3.69
297.986	3.25
298.363	3.27
298.739	3.66
299.115	3.56
299.491	3.37
299.867	3.37
300.243	3.45
300.619	3.86
300.995	3.75
301.371	3.61
301.746	3.42
302.122	3.37
302.498	3.31
302.874	3.45
303.249	3.16
303.625	3.03
304	3.16
304.376	3.39
304.751	3.78
305.127	3.26
305.502	3.24
305.878	3.68
306.253	3.93
306.628	3.39
307.003	3.29
307.378	3.24
307.754	3.37
308.129	3.29
308.504	3.12
308.879	3.68
309.254	3.37
309.629	3.57
310.003	3.2
310.378	3.47
310.753	3.38
311.128	3.29
311.502	3.07
311.877	3.31
312.252	3.1
312.626	3.22
313.001	3.27
313.375	3.2
313.75	3.07
314.124	3.19
314.498	3.44
314.873	3.62
315.247	3.61
315.621	3.92
315.995	3.24
316.369	3.59
316.743	3.33
317.117	3.71
317.491	3.38
317.865	3.24
318.239	3.47
318.613	3.7
318.987	3.23
319.361	3.36
319.734	3.86
320.108	2.9
320.482	2.7
320.855	3.39
321.229	3.56
321.602	3.19
321.976	3.14
322.349	4.18
322.723	3.52
323.096	3.6
323.469	3.51
323.843	3.3
324.216	3.64
324.589	3.35
324.962	3.94
325.335	3.21
325.708	3.02
326.081	3.51
326.454	3.47
326.827	3.07
327.2	3.41
327.573	3.04
327.945	3.25
328.318	3.05
328.691	3.29
329.063	3.13
329.436	3.74
329.809	3.72
330.181	3.4
330.553	3.13
330.926	3.32
331.298	3.53
331.671	3.71
332.043	3.47
332.415	3.29
332.787	2.71
333.159	2.93
333.532	2.95
333.904	3.42
334.276	3.12
334.648	3.9
335.02	3.39
335.391	3.38
335.763	3.44
336.135	3.49
336.507	3.41
336.879	3.47
337.25	3.67
337.622	3.46
337.993	3.69
338.365	3.21
338.736	3.72
339.108	3.71
339.479	3.67
339.851	3.24
340.222	3.47
340.593	3.64
340.964	3.32
341.336	3.31
341.707	3.05
342.078	3.2
342.449	3.59
342.82	3.37
343.191	3.39
343.562	3.27
343.933	3.41
344.303	3.95
344.674	3.56
345.045	3.35
345.416	3.24
345.786	3.5
346.157	3.66
346.527	3.68
346.898	3.44
347.268	3.56
347.639	3.51
348.009	3.45
348.38	3.2
348.75	3.12
349.12	3.31
349.49	3.5
349.861	3.12
350.231	3.67
350.601	3.68
350.971	3.39
351.341	3.69
351.711	3.55
352.081	3.57
352.45	3.62
352.82	3.35
353.19	3.38
353.56	3.44
353.929	3.43
354.299	3.52
354.669	3.61
355.038	3.79
355.408	3.04
355.777	3.52
356.147	3.41
356.516	3.19
356.885	3.52
357.254	3.57
357.624	3.47
357.993	3.28
358.362	3.31
358.731	3.67
359.1	3.62
359.469	3.74
359.838	3.47
360.207	3.22
360.576	3.66
360.945	3.8
361.314	3.88
361.682	3.47
362.051	3.45
362.42	3.7
362.788	3.53
363.157	3.57
363.525	3.66
363.894	3.48
364.262	3.85
364.631	3.76
364.999	3.63
365.367	3.26
365.735	3.55
366.104	3.84
366.472	3.71
366.84	3.25
367.208	3.52
367.576	3.38
367.944	3.65
368.312	3.4
368.68	3.52
369.048	3.4
369.416	3.78
369.783	2.92
370.151	3.6
370.519	3.96
370.886	3.43
371.254	3.93
371.621	3.76
371.989	3.51
372.356	3.46
372.724	3.57
373.091	3.51
373.458	3.61
373.826	3.55
374.193	3.31
374.56	3.36
374.927	3.92
375.294	3.22
375.661	3.73
376.028	3.24
376.395	4
376.762	3.87
377.129	3.85
377.496	4.13
377.863	3.86
378.229	3.31
378.596	3.27
378.963	3.8
379.329	3.57
379.696	3.59
380.062	3.57
380.429	3.58
380.795	3.86
381.161	3.85
381.528	3.64
381.894	3.44
382.26	3.65
382.626	3.65
382.993	3.63
383.359	3.64
383.725	3.66
384.091	3.75
384.457	3.61
384.823	3.77
385.188	3.88
385.554	3.91
385.92	3.55
386.286	3.81
386.651	3.51
387.017	3.51
387.383	3.72
387.748	3.68
388.114	3.46
388.479	4.15
388.845	4.08
389.21	4.1
389.575	3.95
389.94	3.85
390.306	3.63
390.671	3.65
391.036	3.6
391.401	4.11
391.766	3.42
392.131	3.65
392.496	3.83
392.861	4.14
393.226	3.7
393.591	3.86
393.956	3.77
394.32	3.65
394.685	3.65
395.05	3.95
395.414	3.85
395.779	3.86
396.143	3.63
396.508	3.93
396.872	3.89
397.236	3.97
397.601	3.9
397.965	4.08
398.329	3.7
398.694	4.13
399.058	3.96
399.422	3.69
399.786	3.62
400.15	3.69
400.514	3.66
400.878	3.87
401.242	3.94
401.605	3.76
401.969	3.85
402.333	4.06
402.697	3.86
403.06	4.02
403.424	3.74
403.787	3.71
404.151	4.22
404.514	4.02
404.878	3.87
405.241	3.96
405.604	3.79
405.968	3.89
406.331	3.63
406.694	3.77
407.057	3.98
407.42	3.86
407.783	3.82
408.146	3.84
408.509	3.78
408.872	3.85
409.235	3.86
409.598	4.04
409.961	3.9
410.323	3.99
410.686	3.84
411.049	3.88
411.411	3.68
411.774	3.9
412.136	4.09
412.499	4
412.861	3.98
413.223	3.77
413.586	3.84
413.948	3.96
414.31	3.81
414.672	4.01
415.035	4.22
415.397	3.83
415.759	4.18
416.121	3.92
416.483	3.83
416.845	3.97
417.206	3.76
417.568	4.03
417.93	3.94
418.292	3.88
418.653	3.99
419.015	3.9
419.377	3.84
419.738	3.9
420.1	4.04
420.461	3.96
420.822	3.85
421.184	3.96
421.545	3.8
421.906	3.94
422.267	3.92
422.629	3.96
422.99	3.82
423.351	3.67
423.712	3.88
424.073	3.89
424.434	3.78
424.795	3.97
425.155	3.93
425.516	3.95
425.877	3.85
426.238	3.83
426.598	3.93
426.959	3.85
427.32	3.96
427.68	3.95
428.041	3.96
428.401	4.02
428.761	4.05
429.122	3.79
429.482	4
429.842	3.79
430.202	4.06
430.563	3.99
430.923	4.07
431.283	3.79
431.643	4.07
432.003	4.22
432.363	4.15
432.722	4.18
433.082	4.11
433.442	3.89
433.802	4.1
434.161	3.84
434.521	4.01
434.881	4.04
435.24	4.02
435.6	4.05
435.959	4
436.319	3.97
436.678	3.98
437.037	4.02
437.396	4.17
437.756	3.99
438.115	3.91
438.474	4.07
438.833	4.2
439.192	4.11
439.551	3.97
439.91	4.18
440.269	3.97
440.628	4.04
440.987	4.11
441.345	4
441.704	4.04
442.063	3.93
442.421	4.03
442.78	3.96
443.138	3.94
443.497	4.03
443.855	3.99
444.214	4.18
444.572	4.01
444.93	4.08
445.288	4.11
445.647	4.16
446.005	4.02
446.363	4.07
446.721	4
447.079	4.11
447.437	3.99
447.795	4.03
448.153	4.01
448.51	4.11
448.868	3.98
449.226	3.99
449.584	4.02
449.941	4.04
450.299	4.07
450.656	4.01
451.014	4.1
451.371	4.22
451.729	4.26
452.086	4.04
452.443	4.06
452.801	4.2
453.158	4.18
453.515	4.28
453.872	4.09
454.229	4.24
454.586	4.04
454.943	4.2
455.3	4.11
455.657	4.01
456.014	4.17
456.371	4.01
456.727	4.28
457.084	4.27
457.441	4.06
457.797	4.13
458.154	4.26
458.51	4.07
458.867	4.07
459.223	4.23
459.58	4.35
459.936	4.11
460.292	4.1
460.648	4.02
461.005	4.14
461.361	4.14
461.717	4.16
462.073	4.11
462.429	4.25
462.785	4.14
463.141	4.14
463.496	4.11
463.852	4.22
464.208	4.21
464.564	4.11
464.919	4.32
465.275	4.35
465.631	4.32
465.986	4.36
466.342	4.23
466.697	4.13
467.052	4.26
467.408	4.21
467.763	4.28
468.118	4.27
468.473	4.24
468.829	4.11
469.184	4.18
469.539	4.29
469.894	4.29
470.249	4.2
470.603	4.28
470.958	4.11
471.313	4.19
471.668	4.18
472.023	4.11
472.377	4.35
472.732	4.25
473.086	4.23
473.441	4.26
473.795	4.18
474.15	4.23
474.504	4.29
474.859	4.28
475.213	4.37
475.567	4.19
475.921	4.29
476.275	4.37
476.63	4.33
476.984	4.22
477.338	4.41
477.692	4.24
478.045	4.15
478.399	4.28
478.753	4.34
479.107	4.25
479.461	4.4
479.814	4.27
480.168	4.24
480.521	4.21
480.875	4.22
481.228	4.35
481.582	4.31
481.935	4.21
482.289	4.26
482.642	4.27
482.995	4.3
483.348	4.21
483.701	4.2
484.055	4.21
484.408	4.22
484.761	4.2
485.114	4.06
485.466	4.02
485.819	4.01
486.172	4.04
486.525	4.06
486.878	4.14
487.23	4.19
487.583	4.2
487.936	4.23
488.288	4.17
488.641	4.14
488.993	4.14
489.345	4.13
489.698	4.18
490.05	4.17
490.402	4.12
490.754	4.22
491.107	4.26
491.459	4.21
491.811	4.21
492.163	4.27
492.515	4.33
492.866	4.27
493.218	4.18
493.57	4.17
493.922	4.18
494.274	4.12
494.625	4.24
494.977	4.36
495.328	4.3
495.68	4.22
496.031	4.42
496.383	4.29
496.734	4.4
497.086	4.45
497.437	4.46
497.788	4.52
498.139	4.47
498.49	4.26
498.842	4.39
499.193	4.36
499.544	4.41
499.894	4.31
500.245	4.37
500.596	4.35
500.947	4.35
501.298	4.48
501.648	4.5
501.999	4.62
502.35	4.29
502.7	4.35
503.051	4.35
503.401	4.45
503.752	4.45
504.102	4.42
504.452	4.46
504.803	4.52
505.153	4.53
505.503	4.44
505.853	4.58
506.203	4.47
506.553	4.57
506.903	4.41
507.253	4.41
507.603	4.47
507.953	4.41
508.303	4.48
508.652	4.42
509.002	4.64
509.352	4.54
509.701	4.43
510.051	4.53
510.4	4.5
510.75	4.56
511.099	4.46
511.449	4.46
511.798	4.44
512.147	4.52
512.496	4.48
512.846	4.46
513.195	4.59
513.544	4.51
513.893	4.65
514.242	4.56
514.591	4.54
514.939	4.67
515.288	4.63
515.637	4.52
515.986	4.46
516.334	4.57
516.683	4.6
517.032	4.58
517.38	4.51
517.729	4.48
518.077	4.58
518.426	4.5
518.774	4.7
519.122	4.61
519.47	4.62
519.819	4.5
520.167	4.56
520.515	4.52
520.863	4.5
521.211	4.55
521.559	4.62
521.907	4.56
522.255	4.65
522.602	4.7
522.95	4.47
523.298	4.68
523.645	4.75
523.993	4.64
524.341	4.7
524.688	4.72
525.036	4.6
525.383	4.65
525.73	4.72
526.078	4.59
526.425	4.73
526.772	4.64
527.119	4.62
527.466	4.69
527.814	4.58
528.161	4.62
528.508	4.62
528.854	4.65
529.201	4.64
529.548	4.53
529.895	4.53
530.242	4.51
530.588	4.49
530.935	4.49
531.282	4.55
531.628	4.52
531.975	4.63
532.321	4.69
532.667	4.65
533.014	4.77
533.36	4.75
533.706	4.83
534.052	4.74
534.399	4.71
534.745	4.71
535.091	4.58
535.437	4.59
535.783	4.64
536.129	4.78
536.474	4.81
536.82	4.83
537.166	4.89
537.512	4.84
537.857	4.81
538.203	4.83
538.549	4.78
538.894	4.87
539.239	4.88
539.585	4.79
539.93	4.82
540.276	4.99
540.621	4.83
540.966	4.95
541.311	4.88
541.656	4.94
542.001	4.9
542.346	4.96
542.691	4.82
543.036	4.74
543.381	4.78
543.726	4.78
544.071	4.87
544.415	4.83
544.76	4.9
545.105	4.9
545.449	4.91
545.794	4.94
546.138	4.88
546.483	4.96
546.827	5.02
547.171	5.04
547.516	5.05
547.86	4.91
548.204	5.03
548.548	4.97
548.892	5.05
549.236	5.02
549.58	5.04
549.924	5.18
550.268	5.24
550.612	5.16
550.956	5.12
551.3	5.18
551.643	5.13
551.987	5.05
552.33	4.97
552.674	5.13
553.017	5.31
553.361	5.49
553.704	5.35
554.048	5.23
554.391	5.21
554.734	5.23
555.077	5.26
555.42	5.39
555.764	5.44
556.107	5.36
556.45	5.49
556.793	5.35
557.135	5.29
557.478	5.27
557.821	5.44
558.164	5.35
558.507	5.39
558.849	5.57
559.192	5.6
559.534	5.4
559.877	5.56
560.219	5.35
560.562	5.6
560.904	5.65
561.246	5.37
561.589	5.53
561.931	5.44
562.273	5.56
562.615	5.42
562.957	5.5
563.299	5.47
563.641	5.54
563.983	5.44
564.325	5.54
564.667	5.62
565.008	5.39
565.35	5.61
565.692	5.85
566.033	5.68
566.375	5.74
566.716	5.84
567.058	5.65
567.399	5.74
567.741	5.87
568.082	5.77
568.423	5.74
568.764	5.64
569.105	5.76
569.447	5.72
569.788	5.74
570.129	5.9
570.47	5.79
570.811	5.92
571.151	5.9
571.492	5.86
571.833	5.9
572.174	5.81
572.514	5.87
572.855	5.83
573.195	6.01
573.536	5.83
573.876	5.84
574.217	5.94
574.557	5.79
574.898	5.97
575.238	6.01
575.578	6.01
575.918	6.03
576.258	6.02
576.598	5.96
576.938	6.08
577.278	5.99
577.618	5.94
577.958	6.19
578.298	6.15
578.638	6.19
578.977	6.35
579.317	6.19
579.657	6.17
579.996	6.17
580.336	6.35
580.675	6.12
581.014	6.41
581.354	6.08
581.693	6.4
582.032	6.2
582.372	6.61
582.711	6.12
583.05	6.46
583.389	6.43
583.728	6.37
584.067	6.56
584.406	6.38
584.745	6.56
585.083	6.66
585.422	6.6
585.761	6.35
586.1	6.53
586.438	6.43
586.777	6.54
587.115	6.47
587.454	6.77
587.792	6.73
588.13	6.59
588.469	6.59
588.807	6.77
589.145	6.76
589.483	6.37
589.821	6.77
590.159	6.5
590.497	6.88
590.835	6.75
591.173	6.63
591.511	6.86
591.849	6.86
592.187	6.77
592.524	6.76
592.862	6.77
593.2	6.86
593.537	6.96
593.875	6.76
594.212	6.95
594.55	6.95
594.887	7.31
595.224	6.83
595.561	6.71
595.899	6.95
596.236	7.13
596.573	7.17
596.91	6.96
597.247	7.06
597.584	7.08
597.921	7.37
598.258	6.82
598.594	6.88
598.931	7.1
599.268	7.26
599.604	7.04
599.941	7.02
600.277	7.08
600.614	7.39
600.95	7.28
601.287	7.23
601.623	7.4
601.959	7.21
602.296	7.28
602.632	7.41
602.968	7.36
603.304	7.46
603.64	7.31
603.976	7.06
604.312	7.11
604.648	7.37
604.984	7.36
605.319	7.45
605.655	7.35
605.991	7.48
606.326	7.52
606.662	7.42
606.998	7.48
607.333	7.49
607.668	7.52
608.004	7.49
608.339	7.42
608.674	7.78
609.01	7.74
609.345	7.56
609.68	7.59
610.015	7.88
610.35	7.72
610.685	7.88
611.02	7.86
611.355	7.83
611.689	7.74
612.024	7.63
612.359	7.69
612.694	8.06
613.028	7.94
613.363	8.14
613.697	7.84
614.032	7.78
614.366	8.06
614.7	7.97
615.035	7.86
615.369	8.15
615.703	8.41
616.037	8.07
616.371	8.11
616.705	7.85
617.039	8.51
617.373	8.37
617.707	8.54
618.041	8.5
618.375	8.07
618.709	8.57
619.042	8.32
619.376	8.34
619.71	8.2
620.043	8.71
620.377	8.5
620.71	8.32
621.043	8.34
621.377	8.59
621.71	8.53
622.043	8.72
622.376	8.84
622.709	8.88
623.043	8.77
623.376	9.09
623.709	8.51
624.041	8.24
624.374	8.58
624.707	8.35
625.04	8.86
625.373	8.76
625.705	8.57
626.038	8.62
626.37	9.31
626.703	8.93
627.035	8.78
627.368	8.79
627.7	8.85
628.032	8.79
628.365	9.3
628.697	8.72
629.029	8.89
629.361	8.93
629.693	8.93
630.025	9
630.357	9.1
630.689	8.91
631.021	8.9
631.353	8.92
631.684	9.34
632.016	9.33
632.348	9.13
632.679	9.18
633.011	8.89
633.342	9.25
633.674	9.12
634.005	9.34
634.336	9.24
634.668	9.28
634.999	9.36
635.33	9.08
635.661	9.48
635.992	9.54
636.323	9.34
636.654	9.28
636.985	9.28
637.316	9.21
637.647	9.1
637.977	9.65
638.308	9.72
638.639	9.82
638.969	9.44
639.3	9.78
639.63	9.29
639.961	9.74
640.291	10.11
640.622	9.55
640.952	9.75
641.282	9.66
641.612	9.85
641.943	9.61
642.273	9.26
642.603	10.07
642.933	9.89
643.263	9.15
643.592	9.59
643.922	10.24
644.252	10.26
644.582	10.16
644.911	10.13
645.241	9.9
645.571	9.83
645.9	10.12
646.23	10.19
646.559	10.55
646.888	9.85
647.218	10.31
647.547	9.98
647.876	10.15
648.205	10.21
648.534	10.25
648.863	10.5
649.192	10.16
649.521	10.49
649.85	10.42
650.179	10.62
650.508	10.23
650.837	10.64
651.165	10.38
651.494	10.15
651.822	10.45
652.151	10.72
652.479	10.11
652.808	10.12
653.136	10.74
653.465	10.6
653.793	10.74
654.121	10.5
654.449	10.31
654.777	10.27
655.105	10.21
655.433	10.79
655.761	10.38
656.089	10.68
656.417	10.81
656.745	10.44
657.073	10.53
657.4	10.19
657.728	10.72
658.056	10.24
658.383	10.68
658.711	10.66
659.038	11.16
659.365	11.46
659.693	11.34
660.02	11.29
660.347	11.03
660.674	10.99
661.001	11.05
661.329	10.96
661.656	10.9
661.982	11.07
662.309	11.22
662.636	11.02
662.963	10.8
663.29	10.96
663.616	11.61
663.943	11.48
664.27	11.15
664.596	11.16
664.923	11.68
665.249	11.92
665.576	11.49
665.902	10.72
666.228	10.93
666.554	11.71
666.881	11.72
667.207	11.95
667.533	11.83
667.859	11.52
668.185	11.66
668.511	11.93
668.837	11.57
669.162	11.22
669.488	11.32
669.814	11.37
670.139	11.5
670.465	12.35
670.791	11.42
671.116	11.67
671.442	11.65
671.767	11.66
672.092	12.02
672.418	11.95
672.743	11.79
673.068	11.54
673.393	11.77
673.718	11.94
674.043	11.71
674.368	11.69
674.693	11.98
675.018	12.26
675.343	12.05
675.667	12.25
675.992	12.24
676.317	12.04
676.641	11.87
676.966	12.04
677.29	12.24
677.615	12.88
677.939	12.28
678.264	12.69
678.588	12.41
678.912	12.46
679.236	12.37
679.56	12.67
679.885	12.13
680.209	12.91
680.532	12.74
680.856	12.26
681.18	11.76
681.504	12.4
681.828	12.11
682.152	12.9
682.475	12.33
682.799	12.79
683.122	13.14
683.446	12.57
683.769	12.48
684.093	12.56
684.416	12.47
684.739	12.46
685.062	13.53
685.386	12.36
685.709	12.98
686.032	12.9
686.355	13.83
686.678	13.06
687.001	13.22
687.324	13.38
687.646	12.57
687.969	12.73
688.292	12.44
688.614	13.54
