Data from 0041_crown_Reflection__4__114.txt Node

Date: Fri Nov 04 15:44:35 CDT 2022
User: ToomeyLab
Spectrometer: FLMS14357
Trigger mode: 0
Integration Time (sec): 1.000000E-2
Scans to average: 100
Electric dark correction enabled: true
Nonlinearity correction enabled: false
Boxcar width: 0
XAxis mode: Wavelengths
Number of Pixels in Spectrum: 2048
>>>>>Begin Spectral Data<<<<<
189.047	93.03
189.435	93.03
189.823	93.03
190.211	-81.88
190.599	-125.89
190.987	-138.74
191.375	71.93
191.763	64.75
192.151	-70.3
192.538	-198.18
192.926	-38.81
193.314	90.71
193.702	60.06
194.089	108.58
194.477	-266.92
194.864	20.91
195.252	68.32
195.639	-434.37
196.027	169.32
196.414	-75.77
196.801	113.32
197.189	41.3
197.576	121.4
197.963	150.91
198.351	14.69
198.738	24.01
199.125	17.58
199.512	-47.49
199.899	3.55
200.286	8.38
200.673	-9.82
201.06	-1.84
201.447	-54.25
201.833	20.58
202.22	19.51
202.607	37.56
202.994	34.91
203.38	11.03
203.767	-33.35
204.154	16.6
204.54	-31.46
204.927	-3.02
205.313	36.24
205.699	14.59
206.086	25.83
206.472	-9.59
206.858	0.05
207.245	10.73
207.631	-3
208.017	-9.12
208.403	55.32
208.789	26.59
209.175	11.31
209.561	-91.39
209.947	-56.61
210.333	-5.81
210.719	-18.67
211.105	-21.09
211.491	11.26
211.876	2.19
212.262	3.37
212.648	-38.94
213.034	32.18
213.419	-17.16
213.805	-19.7
214.19	-61.66
214.576	12.48
214.961	22.68
215.346	8.25
215.732	14.67
216.117	-5.56
216.502	4.48
216.888	-7.73
217.273	16.62
217.658	4.54
218.043	-11.86
218.428	34.88
218.813	-1.11
219.198	11.24
219.583	-9.72
219.968	18.72
220.353	-18.24
220.738	-11.84
221.122	-0.76
221.507	1.25
221.892	-30
222.276	-10.85
222.661	12.18
223.046	6.77
223.43	4.57
223.815	-4.31
224.199	7.85
224.583	-4.01
224.968	-1.07
225.352	5.1
225.736	-1.04
226.121	-10.55
226.505	7.26
226.889	5.27
227.273	0.93
227.657	2.62
228.041	3.03
228.425	8.4
228.809	6.79
229.193	5.07
229.577	4.01
229.961	5.02
230.344	5.54
230.728	4.02
231.112	3.62
231.495	4.46
231.879	4.18
232.263	4.49
232.646	3.37
233.03	3.52
233.413	3.77
233.797	4.3
234.18	1.99
234.563	5.44
234.946	2.99
235.33	6.32
235.713	3.7
236.096	5
236.479	3.53
236.862	4.42
237.245	3.92
237.628	4.63
238.011	4.02
238.394	4.35
238.777	4.64
239.16	4.53
239.543	3.32
239.925	4.02
240.308	5.05
240.691	5.26
241.073	2.4
241.456	4.02
241.838	4.55
242.221	5.38
242.603	3.45
242.986	4.22
243.368	4.38
243.75	4.57
244.133	4.24
244.515	3.9
244.897	4.24
245.279	4.34
245.661	4.03
246.043	4.72
246.425	3.64
246.807	4.93
247.189	4.23
247.571	4.94
247.953	3.86
248.335	4.42
248.717	4.22
249.098	4.18
249.48	4.4
249.862	4.23
250.243	4.04
250.625	3.93
251.006	4.3
251.388	4.4
251.769	4.48
252.151	4.65
252.532	4.47
252.913	3.48
253.295	4.32
253.676	3.84
254.057	3.78
254.438	4.16
254.819	4.06
255.2	3.94
255.581	5.19
255.962	4.84
256.343	3.82
256.724	4.38
257.105	3.67
257.486	5.02
257.867	4.89
258.247	4.93
258.628	4.52
259.009	4.27
259.389	4.35
259.77	4.32
260.15	4.31
260.531	4.66
260.911	3.93
261.292	3.97
261.672	3.91
262.052	3.99
262.432	4.22
262.813	3.57
263.193	3.75
263.573	4.3
263.953	4.24
264.333	3.97
264.713	4.3
265.093	3.8
265.473	4.43
265.853	3
266.233	3.56
266.612	4.37
266.992	4.8
267.372	3.3
267.752	3.84
268.131	4.34
268.511	3.99
268.89	4
269.27	3.9
269.649	4.01
270.029	3.52
270.408	3.97
270.787	3.9
271.167	4.15
271.546	4.49
271.925	4.15
272.304	4
272.683	3.51
273.062	3.76
273.441	4.19
273.82	3.62
274.199	4.13
274.578	3.93
274.957	3.86
275.336	3.44
275.715	3.94
276.093	4.22
276.472	3.99
276.851	3.44
277.229	4.38
277.608	4.18
277.986	4.51
278.365	4.74
278.743	4.33
279.122	4.3
279.5	3.89
279.878	3.86
280.257	3.77
280.635	3.1
281.013	4.03
281.391	3.8
281.769	4.55
282.147	3.34
282.525	4.38
282.903	4.02
283.281	4.56
283.659	3.98
284.037	4.25
284.415	3.72
284.792	3.72
285.17	4.06
285.548	3.88
285.925	4.22
286.303	3.8
286.68	4.2
287.058	3.73
287.435	3.44
287.813	3.8
288.19	3.98
288.567	3.8
288.945	3.83
289.322	3.64
289.699	3.86
290.076	3.83
290.453	3.47
290.83	3.26
291.207	3.55
291.584	3.97
291.961	3.73
292.338	3.68
292.715	4.01
293.092	4
293.469	3.97
293.845	3.78
294.222	3.35
294.599	3.21
294.975	3.67
295.352	4.1
295.728	3.68
296.105	3.61
296.481	3.88
296.858	3.71
297.234	4.13
297.61	3.91
297.986	3.61
298.363	3.52
298.739	3.62
299.115	3.67
299.491	3.54
299.867	3.72
300.243	3.53
300.619	3.27
300.995	3.78
301.371	3.88
301.746	4.13
302.122	3.51
302.498	3.63
302.874	3.49
303.249	3.4
303.625	3.51
304	3.79
304.376	3.48
304.751	3.6
305.127	3.49
305.502	3.43
305.878	3.88
306.253	3.79
306.628	3.73
307.003	3.76
307.378	3.55
307.754	3.38
308.129	2.73
308.504	3.3
308.879	3.61
309.254	3.8
309.629	3.71
310.003	3.57
310.378	3.27
310.753	3.75
311.128	3.26
311.502	3.09
311.877	3.43
312.252	3.64
312.626	3.65
313.001	3.54
313.375	3.41
313.75	3.42
314.124	3.43
314.498	3.51
314.873	3.42
315.247	4.01
315.621	3.48
315.995	3.25
316.369	3.9
316.743	4.03
317.117	3.89
317.491	4.09
317.865	3.56
318.239	3.49
318.613	4.05
318.987	3.79
319.361	3.4
319.734	4.53
320.108	3.49
320.482	2.68
320.855	4.12
321.229	3.31
321.602	3.22
321.976	3.37
322.349	4.08
322.723	3.62
323.096	3.64
323.469	3.28
323.843	3.07
324.216	3.18
324.589	3.7
324.962	3.73
325.335	3.14
325.708	3
326.081	3.81
326.454	3.23
326.827	3.73
327.2	3.17
327.573	3.33
327.945	3.74
328.318	3.22
328.691	3.63
329.063	3.2
329.436	3.7
329.809	3.6
330.181	3.27
330.553	3.13
330.926	4.15
331.298	3.83
331.671	3.28
332.043	4.02
332.415	3.32
332.787	3.17
333.159	3.09
333.532	2.85
333.904	3.48
334.276	3.48
334.648	3.81
335.02	3.09
335.391	3.66
335.763	3.1
336.135	3.38
336.507	3.36
336.879	3.19
337.25	3.67
337.622	3.75
337.993	3.77
338.365	3.45
338.736	3.52
339.108	3.88
339.479	3.32
339.851	3.58
340.222	3.51
340.593	3.54
340.964	3.46
341.336	3.51
341.707	3.28
342.078	3.44
342.449	3.51
342.82	3.6
343.191	3.68
343.562	3.59
343.933	3.26
344.303	3.5
344.674	3.7
345.045	3.45
345.416	3.12
345.786	3.81
346.157	3.38
346.527	3.93
346.898	3.68
347.268	3.32
347.639	3.66
348.009	3.52
348.38	3.47
348.75	3.43
349.12	3.47
349.49	3.7
349.861	3.17
350.231	3.6
350.601	3.21
350.971	3.54
351.341	3.71
351.711	3.44
352.081	3.61
352.45	3.7
352.82	3.75
353.19	3.5
353.56	3.96
353.929	3.79
354.299	3.95
354.669	3.64
355.038	3.83
355.408	3.81
355.777	3.54
356.147	3.39
356.516	3.27
356.885	3.56
357.254	3.64
357.624	4.14
357.993	3.51
358.362	3.07
358.731	3.75
359.1	3.63
359.469	3.7
359.838	3.54
360.207	3.65
360.576	3.62
360.945	3.88
361.314	3.93
361.682	3.45
362.051	3.68
362.42	3.66
362.788	3.35
363.157	3.54
363.525	3.68
363.894	3.59
364.262	3.73
364.631	4.07
364.999	4.03
365.367	3.43
365.735	3.73
366.104	3.64
366.472	3.84
366.84	3.53
367.208	3.49
367.576	3.47
367.944	3.99
368.312	3.78
368.68	3.55
369.048	3.44
369.416	3.79
369.783	3.64
370.151	3.67
370.519	4.34
370.886	3.76
371.254	4.11
371.621	3.91
371.989	3.69
372.356	3.92
372.724	4.18
373.091	3.72
373.458	3.77
373.826	3.78
374.193	3.86
374.56	3.68
374.927	4.11
375.294	3.6
375.661	3.94
376.028	3.98
376.395	4
376.762	4.29
377.129	4
377.496	3.95
377.863	3.96
378.229	3.85
378.596	3.66
378.963	3.9
379.329	3.6
379.696	3.8
380.062	4.05
380.429	3.78
380.795	3.75
381.161	3.94
381.528	4.03
381.894	3.8
382.26	3.69
382.626	3.71
382.993	4.26
383.359	4.1
383.725	3.79
384.091	3.92
384.457	3.99
384.823	3.72
385.188	4.25
385.554	3.95
385.92	3.65
386.286	3.99
386.651	3.98
387.017	3.85
387.383	4.23
387.748	3.74
388.114	3.8
388.479	4.41
388.845	3.94
389.21	4.21
389.575	4.33
389.94	4.05
390.306	4.08
390.671	4.06
391.036	3.87
391.401	4.33
391.766	4.05
392.131	3.92
392.496	4.2
392.861	4.24
393.226	4.12
393.591	4.03
393.956	4.21
394.32	4.03
394.685	4.27
395.05	4.25
395.414	3.88
395.779	4.42
396.143	3.83
396.508	4.2
396.872	4.3
397.236	4.22
397.601	4.24
397.965	4.15
398.329	4.12
398.694	4.35
399.058	4.18
399.422	4.38
399.786	3.87
400.15	4.13
400.514	4.12
400.878	4.33
401.242	4.35
401.605	3.99
401.969	4.34
402.333	4.2
402.697	4.05
403.06	4.16
403.424	4.06
403.787	4.32
404.151	4.36
404.514	4.38
404.878	4.36
405.241	4.34
405.604	4.4
405.968	4.22
406.331	4.23
406.694	4.15
407.057	4.36
407.42	4.43
407.783	4.43
408.146	4.41
408.509	4.42
408.872	4.41
409.235	4.38
409.598	4.51
409.961	4.71
410.323	4.35
410.686	4.32
411.049	4.22
411.411	4.19
411.774	4.42
412.136	4.41
412.499	4.53
412.861	4.44
413.223	4.34
413.586	4.32
413.948	4.55
414.31	4.54
414.672	4.52
415.035	4.74
415.397	4.29
415.759	4.64
416.121	4.43
416.483	4.59
416.845	4.4
417.206	4.28
417.568	4.54
417.93	4.39
418.292	4.5
418.653	4.6
419.015	4.42
419.377	4.4
419.738	4.29
420.1	4.47
420.461	4.38
420.822	4.3
421.184	4.43
421.545	4.5
421.906	4.41
422.267	4.37
422.629	4.48
422.99	4.31
423.351	4.29
423.712	4.41
424.073	4.39
424.434	4.33
424.795	4.47
425.155	4.51
425.516	4.51
425.877	4.35
426.238	4.36
426.598	4.4
426.959	4.39
427.32	4.39
427.68	4.51
428.041	4.41
428.401	4.54
428.761	4.62
429.122	4.36
429.482	4.71
429.842	4.28
430.202	4.59
430.563	4.7
430.923	4.73
431.283	4.56
431.643	4.87
432.003	4.81
432.363	4.74
432.722	4.79
433.082	4.77
433.442	4.67
433.802	4.59
434.161	4.72
434.521	4.58
434.881	4.48
435.24	4.51
435.6	4.64
435.959	4.48
436.319	4.64
436.678	4.88
437.037	4.63
437.396	4.79
437.756	4.74
438.115	4.65
438.474	4.71
438.833	4.9
439.192	4.58
439.551	4.75
439.91	4.68
440.269	4.73
440.628	4.81
440.987	4.71
441.345	4.61
441.704	4.69
442.063	4.65
442.421	4.69
442.78	4.67
443.138	4.68
443.497	4.67
443.855	4.74
444.214	4.82
444.572	4.75
444.93	4.9
445.288	4.74
445.647	4.7
446.005	4.66
446.363	4.83
446.721	4.82
447.079	4.67
447.437	4.67
447.795	4.71
448.153	4.64
448.51	4.77
448.868	4.65
449.226	4.65
449.584	4.76
449.941	4.71
450.299	4.74
450.656	4.74
451.014	4.89
451.371	4.91
451.729	4.95
452.086	4.87
452.443	4.88
452.801	4.78
453.158	4.98
453.515	5.01
453.872	4.87
454.229	4.94
454.586	4.74
454.943	4.97
455.3	4.94
455.657	4.87
456.014	5.02
456.371	5.07
456.727	5.02
457.084	5.08
457.441	4.96
457.797	4.87
458.154	5
458.51	4.95
458.867	4.92
459.223	5.03
459.58	5.26
459.936	4.84
460.292	4.99
460.648	4.96
461.005	4.8
461.361	4.89
461.717	4.82
462.073	4.93
462.429	4.91
462.785	4.94
463.141	4.92
463.496	4.95
463.852	5.15
464.208	5.07
464.564	4.93
464.919	5.1
465.275	5.11
465.631	5.15
465.986	5.12
466.342	5.16
466.697	5.05
467.052	5.02
467.408	5.06
467.763	5.07
468.118	5.29
468.473	5.16
468.829	5.05
469.184	4.98
469.539	4.97
469.894	5.23
470.249	5.13
470.603	5.17
470.958	5.18
471.313	5.2
471.668	4.92
472.023	5.03
472.377	5.15
472.732	5.27
473.086	4.97
473.441	5.19
473.795	5.02
474.15	5.14
474.504	5.07
474.859	5.04
475.213	5.05
475.567	5.07
475.921	5.3
476.275	5.29
476.63	5.22
476.984	5.08
477.338	5.17
477.692	5.27
478.045	5.25
478.399	5.14
478.753	5.28
479.107	5.21
479.461	5.29
479.814	5.29
480.168	5.3
480.521	5.12
480.875	5.19
481.228	5.28
481.582	5.33
481.935	5.27
482.289	5.2
482.642	5.14
482.995	5.14
483.348	5.03
483.701	5.2
484.055	5.07
484.408	5.2
484.761	5.09
485.114	4.96
485.466	4.83
485.819	4.79
486.172	4.78
486.525	4.86
486.878	5.02
487.23	5.13
487.583	5.1
487.936	5.22
488.288	5.12
488.641	5.12
488.993	4.98
489.345	4.88
489.698	4.9
490.05	4.96
490.402	4.95
490.754	5.12
491.107	5.18
491.459	5.23
491.811	5.2
492.163	5.25
492.515	5.26
492.866	5.17
493.218	5.05
493.57	4.98
493.922	5.09
494.274	5.09
494.625	5.16
494.977	5.26
495.328	5.34
495.68	5.3
496.031	5.44
496.383	5.3
496.734	5.36
497.086	5.54
497.437	5.47
497.788	5.4
498.139	5.33
498.49	5.19
498.842	5.3
499.193	5.37
499.544	5.35
499.894	5.27
500.245	5.37
500.596	5.35
500.947	5.39
501.298	5.33
501.648	5.5
501.999	5.51
502.35	5.35
502.7	5.37
503.051	5.45
503.401	5.41
503.752	5.6
504.102	5.45
504.452	5.31
504.803	5.55
505.153	5.42
505.503	5.49
505.853	5.47
506.203	5.45
506.553	5.49
506.903	5.48
507.253	5.55
507.603	5.48
507.953	5.55
508.303	5.52
508.652	5.52
509.002	5.52
509.352	5.6
509.701	5.41
510.051	5.4
510.4	5.45
510.75	5.54
511.099	5.55
511.449	5.41
511.798	5.41
512.147	5.5
512.496	5.4
512.846	5.33
513.195	5.57
513.544	5.5
513.893	5.52
514.242	5.44
514.591	5.38
514.939	5.64
515.288	5.53
515.637	5.47
515.986	5.54
516.334	5.43
516.683	5.57
517.032	5.62
517.38	5.7
517.729	5.65
518.077	5.6
518.426	5.62
518.774	5.56
519.122	5.46
519.47	5.53
519.819	5.46
520.167	5.54
520.515	5.41
520.863	5.39
521.211	5.5
521.559	5.62
521.907	5.58
522.255	5.61
522.602	5.66
522.95	5.55
523.298	5.69
523.645	5.54
523.993	5.68
524.341	5.63
524.688	5.72
525.036	5.59
525.383	5.66
525.73	5.63
526.078	5.75
526.425	5.68
526.772	5.56
527.119	5.5
527.466	5.54
527.814	5.42
528.161	5.47
528.508	5.55
528.854	5.55
529.201	5.54
529.548	5.46
529.895	5.36
530.242	5.3
530.588	5.18
530.935	5.27
531.282	5.39
531.628	5.41
531.975	5.56
532.321	5.6
532.667	5.61
533.014	5.68
533.36	5.69
533.706	5.63
534.052	5.63
534.399	5.56
534.745	5.47
535.091	5.37
535.437	5.4
535.783	5.44
536.129	5.63
536.474	5.67
536.82	5.58
537.166	5.65
537.512	5.75
537.857	5.61
538.203	5.66
538.549	5.49
538.894	5.6
539.239	5.61
539.585	5.66
539.93	5.72
540.276	5.79
540.621	5.77
540.966	5.9
541.311	5.7
541.656	5.67
542.001	5.77
542.346	5.66
542.691	5.56
543.036	5.43
543.381	5.45
543.726	5.49
544.071	5.55
544.415	5.65
544.76	5.7
545.105	5.62
545.449	5.78
545.794	5.67
546.138	5.7
546.483	5.86
546.827	5.83
547.171	5.94
547.516	5.81
547.86	5.79
548.204	5.78
548.548	5.79
548.892	5.66
549.236	5.72
549.58	5.83
549.924	5.91
550.268	6.03
550.612	5.73
550.956	6.09
551.3	5.83
551.643	5.99
551.987	5.8
552.33	5.91
552.674	5.99
553.017	6.06
553.361	6.11
553.704	5.97
554.048	5.73
554.391	5.78
554.734	6
555.077	5.91
555.42	5.91
555.764	6.17
556.107	6.05
556.45	6.05
556.793	6
557.135	5.95
557.478	5.81
557.821	6.02
558.164	6.14
558.507	6.14
558.849	6.09
559.192	6.24
559.534	6
559.877	6.13
560.219	6.05
560.562	6.06
560.904	6.12
561.246	6.02
561.589	6.1
561.931	5.88
562.273	5.94
562.615	5.94
562.957	6.21
563.299	6
563.641	5.95
563.983	6.32
564.325	6.02
564.667	6.12
565.008	6.07
565.35	5.99
565.692	6.32
566.033	5.95
566.375	6.05
566.716	6.22
567.058	6.08
567.399	6.07
567.741	6.04
568.082	6
568.423	6
568.764	5.92
569.105	6.18
569.447	6.15
569.788	6.03
570.129	6.13
570.47	6.24
570.811	6.18
571.151	6.22
571.492	6.22
571.833	6.21
572.174	6.28
572.514	6.06
572.855	5.9
573.195	6.06
573.536	6.18
573.876	6.02
574.217	6
574.557	6.1
574.898	6.07
575.238	6.12
575.578	6.31
575.918	6.18
576.258	6.14
576.598	6.02
576.938	6.22
577.278	6.1
577.618	6.1
577.958	6.08
578.298	6.19
578.638	6.26
578.977	6.32
579.317	6.31
579.657	6.18
579.996	6.25
580.336	6.15
580.675	6
581.014	6.51
581.354	6.21
581.693	6.57
582.032	6.21
582.372	6.43
582.711	6.28
583.05	6.37
583.389	6.16
583.728	6.28
584.067	6.27
584.406	6.08
584.745	6.45
585.083	6.28
585.422	6.31
585.761	6.45
586.1	6.26
586.438	6.12
586.777	6.55
587.115	6.12
587.454	6.56
587.792	6.45
588.13	6.34
588.469	6.22
588.807	6.64
589.145	6.34
589.483	6.3
589.821	6.4
590.159	6.02
590.497	6.31
590.835	6.13
591.173	6.06
591.511	6.37
591.849	6.55
592.187	6.32
592.524	6.28
592.862	6.45
593.2	6.46
593.537	6.17
593.875	6.38
594.212	6.34
594.55	6.13
594.887	6.6
595.224	6.33
595.561	6.12
595.899	6.42
596.236	6.26
596.573	6.28
596.91	6.28
597.247	6.3
597.584	6.18
597.921	6.45
598.258	6.2
598.594	5.92
598.931	6.3
599.268	6.39
599.604	6.25
599.941	6.3
600.277	6.49
600.614	6.43
600.95	6.4
601.287	6.21
601.623	6.42
601.959	6.45
602.296	6.54
602.632	6.37
602.968	6.33
603.304	6.48
603.64	6.53
603.976	6.23
604.312	6.32
604.648	6.36
604.984	6.27
605.319	6.29
605.655	6.31
605.991	6.45
606.326	6.38
606.662	6.21
606.998	6.21
607.333	6.21
607.668	6.46
608.004	6.44
608.339	6.39
608.674	6.56
609.01	6.56
609.345	6.5
609.68	6.46
610.015	6.48
610.35	6.44
610.685	6.48
611.02	6.38
611.355	6.47
611.689	6.58
612.024	6.62
612.359	6.28
612.694	6.38
613.028	6.57
613.363	6.64
613.697	6.32
614.032	6.49
614.366	6.45
614.7	6.47
615.035	6.53
615.369	6.45
615.703	7.02
616.037	6.56
616.371	6.52
616.705	6.58
617.039	6.53
617.373	6.64
617.707	6.54
618.041	6.37
618.375	6.38
618.709	6.59
619.042	6.45
619.376	6.34
619.71	6.46
620.043	6.73
620.377	6.94
620.71	6.79
621.043	6.65
621.377	6.61
621.71	6.91
622.043	6.75
622.376	6.62
622.709	6.62
623.043	6.67
623.376	6.79
623.709	6.6
624.041	6.69
624.374	6.62
624.707	6.32
625.04	6.64
625.373	6.48
625.705	6.76
626.038	6.82
626.37	6.73
626.703	6.7
627.035	6.61
627.368	6.54
627.7	6.52
628.032	6.34
628.365	6.81
628.697	6.47
629.029	6.63
629.361	6.52
629.693	6.71
630.025	6.67
630.357	6.6
630.689	6.84
631.021	6.36
631.353	6.61
631.684	6.93
632.016	6.78
632.348	6.8
632.679	6.66
633.011	6.51
633.342	6.7
633.674	6.32
634.005	7.01
634.336	6.92
634.668	6.8
634.999	6.83
635.33	6.64
635.661	6.71
635.992	6.71
636.323	6.81
636.654	6.22
636.985	6.69
637.316	6.92
637.647	6.45
637.977	7.25
638.308	6.97
638.639	6.73
638.969	6.34
639.3	6.99
639.63	6.56
639.961	6.7
640.291	6.99
640.622	6.87
640.952	6.73
641.282	6.84
641.612	7.02
641.943	6.46
642.273	6.28
642.603	6.55
642.933	6.47
643.263	6.23
643.592	6.95
643.922	6.99
644.252	6.71
644.582	7.23
644.911	6.71
645.241	6.66
645.571	6.93
645.9	6.65
646.23	6.48
646.559	6.91
646.888	6.92
647.218	6.89
647.547	6.42
647.876	7.2
648.205	6.6
648.534	7.06
648.863	6.78
649.192	6.7
649.521	6.63
649.85	7.12
650.179	7.01
650.508	7
650.837	7.17
651.165	6.94
651.494	7
651.822	6.82
652.151	6.69
652.479	6.93
652.808	6.63
653.136	6.72
653.465	6.89
653.793	7.42
654.121	6.74
654.449	6.59
654.777	6.49
655.105	7.04
655.433	6.86
655.761	6.92
656.089	7.17
656.417	7.03
656.745	6.8
657.073	6.35
657.4	6.48
657.728	6.79
658.056	6.2
658.383	6.9
658.711	6.29
659.038	6.61
659.365	7.47
659.693	7.18
660.02	6.89
660.347	6.9
660.674	6.81
661.001	6.67
661.329	6.87
661.656	6.82
661.982	6.58
662.309	7.05
662.636	7.29
662.963	6.55
663.29	6.59
663.616	7.38
663.943	7.42
664.27	7.55
664.596	6.53
664.923	6.77
665.249	7.52
665.576	7.01
665.902	6.29
666.228	6.08
666.554	7.9
666.881	6.94
667.207	7.14
667.533	7.1
667.859	7.14
668.185	7.1
668.511	7.33
668.837	7.24
669.162	7.37
669.488	6.76
669.814	6.96
670.139	6.93
670.465	7.28
670.791	6.66
671.116	6.31
671.442	7.05
671.767	7.21
672.092	7.05
672.418	7.07
672.743	7.46
673.068	7.06
673.393	7.41
673.718	7.46
674.043	6.32
674.368	6.47
674.693	6.54
675.018	7.36
675.343	7.22
675.667	7.63
675.992	7.43
676.317	7.42
676.641	7.61
676.966	6.92
677.29	6.75
677.615	6.79
677.939	7.41
678.264	7.57
678.588	7.36
678.912	7.43
679.236	7.74
679.56	7.73
679.885	7.11
680.209	7.47
680.532	7.1
680.856	6.93
681.18	6.64
681.504	7.05
681.828	7
682.152	7.97
682.475	7.01
682.799	7.17
683.122	7
683.446	6.98
683.769	6.57
684.093	7.11
684.416	6.82
684.739	7.25
685.062	7.88
685.386	6.98
685.709	7.71
686.032	7.32
686.355	8.4
686.678	7.76
687.001	7.83
687.324	7.88
687.646	6.89
687.969	7.11
688.292	7.02
688.614	7.95
688.937	7.23
689.26	7.29
689.582	8.05
689.904	7.53
690.227	7.87
690.549	7.62
690.871	7.57
691.194	7.71
691.516	7.4
691.838	6.94
692.16	8.27
692.482	6.22
692.804	7.3
693.126	7.06
693.448	6.94
693.769	7.59
