Data from 0041_forehead_Reflection__1__116.txt Node

Date: Fri Nov 04 15:46:55 CDT 2022
User: ToomeyLab
Spectrometer: FLMS14357
Trigger mode: 0
Integration Time (sec): 1.000000E-2
Scans to average: 100
Electric dark correction enabled: true
Nonlinearity correction enabled: false
Boxcar width: 0
XAxis mode: Wavelengths
Number of Pixels in Spectrum: 2048
>>>>>Begin Spectral Data<<<<<
189.047	211.62
189.435	211.62
189.823	211.62
190.211	278.38
190.599	-274.66
190.987	244.18
191.375	12.94
191.763	114.67
192.151	89.98
192.538	263.68
192.926	95.75
193.314	81.32
193.702	96.92
194.089	47.9
194.477	18.25
194.864	-146.09
195.252	80.84
195.639	91.33
196.027	323.81
196.414	685.4
196.801	93.19
197.189	1376.09
197.576	25.31
197.963	164.27
198.351	-45.73
198.738	26.9
199.125	12.35
199.512	-23.42
199.899	1.45
200.286	5.49
200.673	27.17
201.06	57.17
201.447	-15.66
201.833	17.63
202.22	37.28
202.607	18.52
202.994	35.74
203.38	38.42
203.767	6.88
204.154	45.11
204.54	-0.95
204.927	17.6
205.313	44.96
205.699	44.08
206.086	32.67
206.472	3.05
206.858	-2.27
207.245	-0.19
207.631	12.5
208.017	5.07
208.403	7.48
208.789	37.03
209.175	22.75
209.561	-91.88
209.947	-54.22
210.333	71.82
210.719	-17.52
211.105	9.93
211.491	24.49
211.876	16.05
212.262	-39.95
212.648	-38.08
213.034	7.79
213.419	-2.39
213.805	10.53
214.19	-63.56
214.576	21.72
214.961	20.8
215.346	20.64
215.732	29.39
216.117	1.96
216.502	2.13
216.888	8.23
217.273	25.41
217.658	-1.09
218.043	4.99
218.428	34.27
218.813	-9.23
219.198	8.38
219.583	-4.18
219.968	17.39
220.353	6.57
220.738	-10
221.122	-1.65
221.507	17.64
221.892	-2.66
222.276	12.67
222.661	27.32
223.046	10.41
223.43	1.12
223.815	-2.77
224.199	12.08
224.583	5.02
224.968	6.27
225.352	8.25
225.736	0.74
226.121	-5.47
226.505	9.12
226.889	2.38
227.273	8.33
227.657	3.69
228.041	3.34
228.425	10.03
228.809	5
229.193	4.53
229.577	3.57
229.961	5.68
230.344	4.23
230.728	4.94
231.112	3.54
231.495	3.79
231.879	4.82
232.263	3.05
232.646	5.01
233.03	2.5
233.413	2.36
233.797	3.61
234.18	3.61
234.563	5.17
234.946	3.41
235.33	5.98
235.713	4.09
236.096	4.79
236.479	5.07
236.862	3.79
237.245	2.8
237.628	4.6
238.011	2.71
238.394	4.13
238.777	5.23
239.16	4.1
239.543	2.77
239.925	3.66
240.308	5.52
240.691	3.68
241.073	4.12
241.456	4.96
241.838	4.76
242.221	4.57
242.603	3.95
242.986	4.05
243.368	4.12
243.75	4.08
244.133	3.81
244.515	3.87
244.897	3.88
245.279	4.24
245.661	4.02
246.043	5.41
246.425	3.74
246.807	5.27
247.189	3.41
247.571	4.53
247.953	3.79
248.335	3.95
248.717	3.9
249.098	3.93
249.48	4.21
249.862	4.06
250.243	4.14
250.625	3.91
251.006	3.88
251.388	3.58
251.769	4.25
252.151	4.93
252.532	3.77
252.913	3.64
253.295	4.84
253.676	3.72
254.057	3.8
254.438	3.77
254.819	3.87
255.2	3.92
255.581	4.91
255.962	4.33
256.343	3.42
256.724	3.04
257.105	3.18
257.486	4.12
257.867	5.31
258.247	5.37
258.628	3.96
259.009	2.78
259.389	3.92
259.77	4.47
260.15	4.26
260.531	4.21
260.911	3.72
261.292	3.77
261.672	3.89
262.052	3.92
262.432	3.89
262.813	3.63
263.193	3.49
263.573	3.73
263.953	4.06
264.333	4.44
264.713	4.42
265.093	3.84
265.473	4.32
265.853	3.5
266.233	4.3
266.612	4.1
266.992	4.8
267.372	2.98
267.752	4.25
268.131	4.76
268.511	3.73
268.89	4.16
269.27	3.57
269.649	3.98
270.029	3.73
270.408	3.66
270.787	4.22
271.167	3.75
271.546	4.6
271.925	3.5
272.304	3.79
272.683	4.09
273.062	4.14
273.441	3.74
273.82	3.47
274.199	3.84
274.578	3.39
274.957	3.53
275.336	3.58
275.715	3.57
276.093	4.02
276.472	3.44
276.851	3.75
277.229	3.69
277.608	3.88
277.986	3.97
278.365	3.85
278.743	4.13
279.122	3.85
279.5	3.57
279.878	4.08
280.257	3.35
280.635	3.36
281.013	3.28
281.391	4.09
281.769	4.09
282.147	3.62
282.525	4.03
282.903	3.99
283.281	4.22
283.659	3.67
284.037	3.23
284.415	3.72
284.792	3.81
285.17	3.36
285.548	3.96
285.925	3.98
286.303	4.14
286.68	4.22
287.058	3.93
287.435	3.97
287.813	3.97
288.19	3.6
288.567	3.71
288.945	3.85
289.322	4.16
289.699	3.74
290.076	3.77
290.453	4.15
290.83	3.47
291.207	3.59
291.584	3.96
291.961	3.92
292.338	4.06
292.715	4.05
293.092	3.89
293.469	3.73
293.845	3.7
294.222	3.66
294.599	4.07
294.975	3.94
295.352	3.92
295.728	4.62
296.105	4.05
296.481	4.09
296.858	4.19
297.234	4.57
297.61	4.67
297.986	4.03
298.363	4.08
298.739	4.21
299.115	4.33
299.491	4.1
299.867	4.06
300.243	4.28
300.619	4.63
300.995	4.67
301.371	4.55
301.746	4.59
302.122	4.35
302.498	3.8
302.874	4.75
303.249	3.93
303.625	3.91
304	4.23
304.376	4.15
304.751	4.71
305.127	4.17
305.502	4.42
305.878	4.86
306.253	5.12
306.628	4.45
307.003	4.48
307.378	4.76
307.754	5
308.129	4.11
308.504	4.58
308.879	4.87
309.254	5.34
309.629	5.22
310.003	5.03
310.378	4.99
310.753	4.85
311.128	4.92
311.502	4.92
311.877	5.03
312.252	4.99
312.626	5.24
313.001	5.05
313.375	4.96
313.75	5.18
314.124	5.2
314.498	5.39
314.873	5.31
315.247	5.3
315.621	5.45
315.995	5.85
316.369	5.23
316.743	5.37
317.117	5.66
317.491	5.54
317.865	5.04
318.239	5.82
318.613	5.54
318.987	5.82
319.361	5.6
319.734	5.84
320.108	5.46
320.482	4.72
320.855	5.82
321.229	5.75
321.602	5.54
321.976	5.42
322.349	6.35
322.723	5.94
323.096	5.86
323.469	5.46
323.843	6.04
324.216	5.92
324.589	5.26
324.962	6.42
325.335	6.24
325.708	5.49
326.081	6.21
326.454	6.35
326.827	6.65
327.2	5.92
327.573	5.64
327.945	6.19
328.318	5.87
328.691	6.1
329.063	5.67
329.436	6.04
329.809	6.04
330.181	6.23
330.553	5.98
330.926	6.49
331.298	6.41
331.671	6.15
332.043	6.69
332.415	6.48
332.787	6.59
333.159	5.81
333.532	6.45
333.904	6.54
334.276	6.59
334.648	6.91
335.02	6.16
335.391	6.75
335.763	6.85
336.135	6.82
336.507	6.71
336.879	6.94
337.25	7.34
337.622	7
337.993	6.77
338.365	6.87
338.736	6.55
339.108	7.01
339.479	6.9
339.851	6.69
340.222	6.75
340.593	7.01
340.964	7.1
341.336	6.89
341.707	6.5
342.078	7.2
342.449	7.17
342.82	7.27
343.191	6.86
343.562	7.13
343.933	7.23
344.303	7.36
344.674	7.46
345.045	7.03
345.416	7.04
345.786	7.49
346.157	7.27
346.527	7.57
346.898	7.47
347.268	7.25
347.639	7.4
348.009	7.62
348.38	7.56
348.75	7.78
349.12	7.66
349.49	7.82
349.861	7.4
350.231	7.5
350.601	7.5
350.971	7.27
351.341	7.71
351.711	7.32
352.081	7.82
352.45	7.83
352.82	7.85
353.19	7.88
353.56	8.3
353.929	8.02
354.299	8.1
354.669	8.06
355.038	8.45
355.408	7.68
355.777	8.1
356.147	8.01
356.516	7.92
356.885	7.82
357.254	8.26
357.624	8.36
357.993	8.13
358.362	8.05
358.731	8.11
359.1	8.5
359.469	8.4
359.838	8.24
360.207	8.08
360.576	8.33
360.945	8.43
361.314	8.89
361.682	8.19
362.051	8.22
362.42	8.38
362.788	8.33
363.157	8.42
363.525	8.54
363.894	8.55
364.262	8.77
364.631	8.53
364.999	8.7
365.367	8.5
365.735	9.15
366.104	8.66
366.472	8.78
366.84	8.59
367.208	8.89
367.576	8.53
367.944	9.04
368.312	8.61
368.68	8.82
369.048	9.1
369.416	8.93
369.783	8.8
370.151	8.78
370.519	9.49
370.886	9.27
371.254	8.93
371.621	9.41
371.989	9.49
372.356	8.97
372.724	9.45
373.091	9.46
373.458	9.77
373.826	9.42
374.193	9.4
374.56	9.27
374.927	9.64
375.294	9.1
375.661	9.6
376.028	9.31
376.395	9.72
376.762	9.97
377.129	9.68
377.496	9.67
377.863	9.38
378.229	9.97
378.596	9.61
378.963	9.96
379.329	9.54
379.696	9.78
380.062	10.29
380.429	10.1
380.795	9.78
381.161	9.98
381.528	10.16
381.894	9.83
382.26	10.23
382.626	10.06
382.993	10.09
383.359	10.35
383.725	10.34
384.091	10.29
384.457	10.36
384.823	10.42
385.188	10.57
385.554	10.46
385.92	10.18
386.286	10.63
386.651	10.35
387.017	10.49
387.383	10.53
387.748	10.44
388.114	10.39
388.479	11.05
388.845	10.57
389.21	11.07
389.575	11.06
389.94	10.79
390.306	10.84
390.671	10.99
391.036	10.78
391.401	11.15
391.766	10.86
392.131	10.88
392.496	11.21
392.861	10.93
393.226	10.83
393.591	11.33
393.956	11.43
394.32	11.1
394.685	11.17
395.05	11.49
395.414	11.46
395.779	11.29
396.143	11.29
396.508	11.31
396.872	11.3
397.236	11.38
397.601	11.38
397.965	11.37
398.329	11.54
398.694	11.78
399.058	11.55
399.422	11.47
399.786	11.52
400.15	11.56
400.514	11.72
400.878	11.82
401.242	11.64
401.605	11.41
401.969	11.99
402.333	11.96
402.697	12
403.06	12.01
403.424	11.94
403.787	12.02
404.151	12.18
404.514	11.95
404.878	12.12
405.241	11.99
405.604	12.25
405.968	12.09
406.331	12.2
406.694	12.02
407.057	12.1
407.42	12.35
407.783	12.22
408.146	12.41
408.509	12.45
408.872	12.48
409.235	12.31
409.598	12.36
409.961	12.72
410.323	12.75
410.686	12.42
411.049	12.6
411.411	12.46
411.774	12.75
412.136	12.77
412.499	13.04
412.861	12.93
413.223	12.65
413.586	12.87
413.948	13.02
414.31	12.95
414.672	13.05
415.035	13.05
415.397	13.01
415.759	13.1
416.121	13.02
416.483	13.23
416.845	13.17
417.206	13.15
417.568	13.35
417.93	13.26
418.292	13.14
418.653	13.2
419.015	13.3
419.377	13.26
419.738	13.28
420.1	13.36
420.461	13.21
420.822	13.25
421.184	13.49
421.545	13.33
421.906	13.34
422.267	13.21
422.629	13.44
422.99	13.12
423.351	13.24
423.712	13.5
424.073	13.59
424.434	13.5
424.795	13.53
425.155	13.75
425.516	13.73
425.877	13.55
426.238	13.55
426.598	13.62
426.959	13.6
427.32	13.74
427.68	13.9
428.041	13.8
428.401	13.99
428.761	14.14
429.122	14.02
429.482	14.33
429.842	14.03
430.202	14.28
430.563	14.41
430.923	14.31
431.283	14.29
431.643	14.44
432.003	14.95
432.363	14.48
432.722	14.39
433.082	14.74
433.442	14.65
433.802	14.59
434.161	14.64
434.521	14.5
434.881	14.78
435.24	14.55
435.6	14.83
435.959	14.67
436.319	14.75
436.678	14.8
437.037	14.97
437.396	15.01
437.756	15.09
438.115	14.88
438.474	15.24
438.833	15.19
439.192	15.15
439.551	15.04
439.91	15.08
440.269	15.3
440.628	15.38
440.987	15.38
441.345	15.29
441.704	15.29
442.063	15.24
442.421	15.39
442.78	15.43
443.138	15.54
443.497	15.58
443.855	15.4
444.214	15.6
444.572	15.61
444.93	15.94
445.288	15.89
445.647	15.72
446.005	15.94
446.363	15.75
446.721	15.8
447.079	15.64
447.437	15.82
447.795	15.8
448.153	15.67
448.51	15.87
448.868	15.77
449.226	15.9
449.584	15.88
449.941	15.98
450.299	16.09
450.656	16.3
451.014	16.34
451.371	16.48
451.729	16.53
452.086	16.5
452.443	16.6
452.801	16.65
453.158	16.57
453.515	16.82
453.872	16.69
454.229	16.73
454.586	16.74
454.943	16.87
455.3	16.9
455.657	16.78
456.014	16.97
456.371	16.99
456.727	17.21
457.084	17.02
457.441	17.02
457.797	17.27
458.154	17.25
458.51	17.27
458.867	17.13
459.223	17.43
459.58	17.66
459.936	17.35
460.292	17.34
460.648	17.28
461.005	17.3
461.361	17.37
461.717	17.15
462.073	17.24
462.429	17.37
462.785	17.39
463.141	17.4
463.496	17.48
463.852	17.62
464.208	17.88
464.564	17.74
464.919	17.91
465.275	17.93
465.631	18.21
465.986	18.04
466.342	18.04
466.697	17.87
467.052	18.11
467.408	18.03
467.763	18.24
468.118	18.43
468.473	18.43
468.829	18.07
469.184	18.23
469.539	18.18
469.894	18.55
470.249	18.35
470.603	18.44
470.958	18.48
471.313	18.56
471.668	18.44
472.023	18.62
472.377	18.87
472.732	18.74
473.086	18.79
473.441	18.74
473.795	18.87
474.15	18.78
474.504	18.94
474.859	18.89
475.213	18.82
475.567	18.63
475.921	18.89
476.275	19.05
476.63	19.1
476.984	18.96
477.338	19.3
477.692	19.19
478.045	19.44
478.399	19.12
478.753	19.47
479.107	19.32
479.461	19.49
479.814	19.45
480.168	19.39
480.521	19.33
480.875	19.55
481.228	19.67
481.582	19.67
481.935	19.61
482.289	19.59
482.642	19.6
482.995	19.57
483.348	19.52
483.701	19.61
484.055	19.39
484.408	19.47
484.761	19.39
485.114	19.06
485.466	18.85
485.819	18.94
486.172	18.97
486.525	18.98
486.878	19.12
487.23	19.13
487.583	19.26
487.936	19.4
488.288	19.62
488.641	19.57
488.993	19.47
489.345	19.42
489.698	19.44
490.05	19.46
490.402	19.49
490.754	19.64
491.107	19.74
491.459	19.98
491.811	20.05
492.163	20.19
492.515	20.24
492.866	20.12
493.218	20
493.57	19.89
493.922	19.98
494.274	20.03
494.625	20.19
494.977	20.42
495.328	20.5
495.68	20.66
496.031	20.69
496.383	21.07
496.734	21.04
497.086	21.17
497.437	21.26
497.788	21.24
498.139	21.06
498.49	21.12
498.842	21.2
499.193	21.12
499.544	21.13
499.894	21.34
500.245	21.36
500.596	21.4
500.947	21.46
501.298	21.46
501.648	21.7
501.999	21.56
502.35	21.6
502.7	21.8
503.051	21.92
503.401	21.99
503.752	22.11
504.102	21.96
504.452	22
504.803	22.03
505.153	22.1
505.503	22.07
505.853	22.05
506.203	22.16
506.553	22.19
506.903	22.14
507.253	22.13
507.603	22.32
507.953	22.24
508.303	22.47
508.652	22.3
509.002	22.56
509.352	22.41
509.701	22.53
510.051	22.34
510.4	22.43
510.75	22.42
511.099	22.36
511.449	22.34
511.798	22.45
512.147	22.59
512.496	22.56
512.846	22.71
513.195	22.76
513.544	22.71
513.893	22.85
514.242	22.73
514.591	22.7
514.939	22.91
515.288	22.98
515.637	22.89
515.986	23.02
516.334	23.08
516.683	23.03
517.032	23.28
517.38	23.3
517.729	23.4
518.077	23.33
518.426	23.2
518.774	23.28
519.122	23.34
519.47	23.17
519.819	23.22
520.167	23.19
520.515	22.99
520.863	23.18
521.211	23.14
521.559	23.19
521.907	23.22
522.255	23.42
522.602	23.53
522.95	23.57
523.298	23.69
523.645	23.81
523.993	23.79
524.341	23.84
524.688	23.91
525.036	23.76
525.383	23.87
525.73	23.95
526.078	23.96
526.425	24.04
526.772	24.08
527.119	23.75
527.466	23.84
527.814	23.89
528.161	23.7
528.508	23.78
528.854	23.86
529.201	23.87
529.548	23.69
529.895	23.57
530.242	23.5
530.588	23.49
530.935	23.62
531.282	23.6
531.628	23.46
531.975	23.59
532.321	23.79
532.667	23.97
533.014	24.08
533.36	24.28
533.706	24.46
534.052	24.33
534.399	24.39
534.745	24.36
535.091	24.23
535.437	24.2
535.783	24.24
536.129	24.3
536.474	24.45
536.82	24.57
537.166	24.7
537.512	24.89
537.857	24.97
538.203	24.85
538.549	24.86
538.894	24.9
539.239	24.98
539.585	24.99
539.93	25.1
540.276	25.18
540.621	25.33
540.966	25.45
541.311	25.44
541.656	25.49
542.001	25.56
542.346	25.37
542.691	25.23
543.036	24.95
543.381	25.02
543.726	25.01
544.071	24.9
544.415	25.08
544.76	25.1
545.105	25.24
545.449	25.35
545.794	25.56
546.138	25.68
546.483	25.81
546.827	25.78
547.171	26.02
547.516	26.04
547.86	26.06
548.204	26.09
548.548	25.99
548.892	25.93
549.236	26.24
549.58	26.34
549.924	26.45
550.268	26.45
550.612	26.49
550.956	26.64
551.3	26.77
551.643	26.99
551.987	26.98
552.33	26.9
552.674	26.98
553.017	26.92
553.361	27.15
553.704	27.05
554.048	26.93
554.391	26.92
554.734	27.14
555.077	27.2
555.42	27.1
555.764	27.16
556.107	27.21
556.45	27.14
556.793	27.38
557.135	27.55
557.478	27.31
557.821	27.67
558.164	27.7
558.507	27.52
558.849	27.74
559.192	27.66
559.534	27.87
559.877	27.91
560.219	27.88
560.562	27.91
560.904	28.12
561.246	27.86
561.589	28.1
561.931	28.07
562.273	28
562.615	27.85
562.957	28.28
563.299	28.18
563.641	28.06
563.983	28.13
564.325	28.26
564.667	28.18
565.008	28.3
565.35	28.24
565.692	28.39
566.033	28.46
566.375	28.43
566.716	28.36
567.058	28.37
567.399	28.5
567.741	28.44
568.082	28.63
568.423	28.65
568.764	28.71
569.105	28.82
569.447	28.78
569.788	28.39
570.129	28.76
570.47	28.9
570.811	28.82
571.151	29
571.492	29.22
571.833	28.82
572.174	29
572.514	28.92
572.855	28.98
573.195	29.04
573.536	29.03
573.876	29.21
574.217	28.99
574.557	29.14
574.898	29.15
575.238	28.96
575.578	29.45
575.918	29.26
576.258	29.52
576.598	29.44
576.938	29.47
577.278	29.48
577.618	29.29
577.958	29.43
578.298	29.44
578.638	29.45
578.977	29.72
579.317	29.66
579.657	29.83
579.996	29.7
580.336	30.26
580.675	29.75
581.014	30.23
581.354	30.04
581.693	30.21
582.032	30.21
582.372	30.52
582.711	30.45
583.05	30.31
583.389	30.06
583.728	30.59
584.067	30.44
584.406	30.28
584.745	30.5
585.083	30.46
585.422	30.58
585.761	30.71
586.1	30.46
586.438	30.46
586.777	30.74
587.115	30.68
587.454	30.97
587.792	30.99
588.13	30.85
588.469	30.96
588.807	31.03
589.145	31.05
589.483	31.03
589.821	31.12
590.159	31.01
590.497	30.98
590.835	31
591.173	31.21
591.511	31.16
591.849	31.12
592.187	31.12
592.524	31.25
592.862	31.15
593.2	31.47
593.537	31.29
593.875	31.41
594.212	31.57
594.55	31.53
594.887	31.58
595.224	31.71
595.561	31.08
595.899	31.52
596.236	31.64
596.573	31.32
596.91	31.62
597.247	31.55
597.584	31.59
597.921	31.43
598.258	31.64
598.594	31.37
598.931	31.5
599.268	31.87
599.604	31.59
599.941	31.56
600.277	31.71
600.614	31.89
600.95	32.1
601.287	32.14
601.623	32.04
601.959	32.06
602.296	32.33
602.632	32.1
602.968	31.94
603.304	32.11
603.64	32.21
603.976	32.29
604.312	32.51
604.648	32.19
604.984	32.23
605.319	32.33
605.655	32.27
605.991	32.58
606.326	32.37
606.662	32.47
606.998	32.21
607.333	32.27
607.668	32.52
608.004	32.53
608.339	32.3
608.674	32.69
609.01	32.62
609.345	32.76
609.68	32.56
610.015	33.03
610.35	32.84
610.685	33
611.02	32.95
611.355	32.68
611.689	33.09
612.024	33.24
612.359	32.66
612.694	33.2
613.028	33.08
613.363	33.43
613.697	33.18
614.032	32.94
614.366	33.32
614.7	33.35
615.035	33.57
615.369	33.63
615.703	33.68
616.037	33.65
616.371	34.09
616.705	33.8
617.039	32.99
617.373	33.8
617.707	33.77
618.041	33.87
618.375	34.22
618.709	34.02
619.042	33.91
619.376	33.77
619.71	33.91
620.043	34.54
620.377	34.26
620.71	34.37
621.043	34.08
621.377	33.62
621.71	33.86
622.043	34.17
622.376	34.45
622.709	34.32
623.043	34.16
623.376	34.46
623.709	34
624.041	34.4
624.374	34.2
624.707	34.15
625.04	34.89
625.373	34.47
625.705	34.82
626.038	34.52
626.37	34.94
626.703	34.5
627.035	34.44
627.368	34.82
627.7	34.34
628.032	35.03
628.365	35.13
628.697	34.51
629.029	35.16
629.361	34.94
629.693	34.76
630.025	34.99
630.357	34.56
630.689	35.13
631.021	35.09
631.353	34.87
631.684	35.11
632.016	35.49
632.348	35.33
632.679	35.21
633.011	35.1
633.342	35.14
633.674	35.28
634.005	35.58
634.336	35.6
634.668	35.68
634.999	35.67
635.33	35.35
635.661	35.29
635.992	35.61
636.323	35.76
636.654	35.02
636.985	35.7
637.316	35.44
637.647	35.27
637.977	35.7
638.308	35.71
638.639	36.01
638.969	35.48
639.3	35.9
639.63	36.49
639.961	35.52
640.291	36.35
640.622	36.12
640.952	35.86
641.282	35.7
641.612	35.81
641.943	35.8
642.273	36.05
642.603	36.11
642.933	35.85
643.263	36.04
643.592	35.98
643.922	37.01
644.252	36.56
644.582	35.65
644.911	36.22
645.241	36.46
645.571	36.43
645.9	36.61
646.23	36.72
646.559	36.38
646.888	36.4
647.218	36.62
647.547	36.68
647.876	36.51
648.205	36.48
648.534	36.67
648.863	36.52
649.192	36.31
649.521	37.01
649.85	36.68
650.179	36.91
650.508	36.79
650.837	37.3
651.165	36.61
651.494	37.13
651.822	36.89
652.151	37.49
652.479	37
652.808	36.93
653.136	36.89
653.465	37.02
653.793	37.44
654.121	37.43
654.449	37.14
654.777	36.83
655.105	37.43
655.433	37.42
655.761	36.75
656.089	37.3
656.417	37.25
656.745	36.94
657.073	37
657.4	37.48
657.728	37.27
658.056	37.49
658.383	37.97
658.711	37.1
659.038	37.44
659.365	37.99
659.693	37.94
660.02	37.9
660.347	37.33
660.674	37.96
661.001	38.01
661.329	37.9
661.656	37.73
661.982	37.71
662.309	37.48
662.636	37.74
662.963	37.22
663.29	37.49
663.616	37.94
663.943	38.15
664.27	38.22
664.596	38.04
664.923	38.11
665.249	38.7
665.576	38.27
665.902	38.03
666.228	37.89
666.554	38.49
666.881	38.24
667.207	38.94
667.533	38.64
667.859	37.88
668.185	38.51
668.511	38.83
668.837	37.53
669.162	38.5
669.488	38.23
669.814	38.15
670.139	38.67
670.465	38.66
670.791	38.43
671.116	38.95
671.442	38.15
671.767	38.67
672.092	39.39
672.418	38.6
672.743	38.8
673.068	38.64
673.393	38.73
673.718	39.43
