Data from 0041_chest_Reflection__1__106.txt Node

Date: Fri Nov 04 15:41:22 CDT 2022
User: ToomeyLab
Spectrometer: FLMS14357
Trigger mode: 0
Integration Time (sec): 1.000000E-2
Scans to average: 100
Electric dark correction enabled: true
Nonlinearity correction enabled: false
Boxcar width: 0
XAxis mode: Wavelengths
Number of Pixels in Spectrum: 2048
>>>>>Begin Spectral Data<<<<<
189.047	-208.35
189.435	-208.35
189.823	-208.35
190.211	-105.9
190.599	-105.89
190.987	209.66
191.375	28.92
191.763	64.79
192.151	125.84
192.538	-123.78
192.926	63.6
193.314	85.71
193.702	132.71
194.089	169.83
194.477	27.2
194.864	35.45
195.252	85.93
195.639	-321.52
196.027	154.86
196.414	699.14
196.801	70.83
197.189	-2855.8
197.576	224.58
197.963	-220.69
198.351	26.34
198.738	-4.2
199.125	29.63
199.512	-4.15
199.899	48.65
200.286	-88.05
200.673	-18.05
201.06	-11.87
201.447	-21.24
201.833	22.66
202.22	3.82
202.607	64.94
202.994	29.23
203.38	33.65
203.767	20.1
204.154	7.59
204.54	-29.77
204.927	19.07
205.313	42.02
205.699	17.76
206.086	35.2
206.472	-22.99
206.858	-30.39
207.245	-29.54
207.631	15.25
208.017	-18.53
208.403	26.49
208.789	25.73
209.175	-10.9
209.561	-56.32
209.947	-98.25
210.333	26.86
210.719	-13.52
211.105	-65.52
211.491	19.05
211.876	13.29
212.262	25.96
212.648	-33.55
213.034	16.73
213.419	-14.43
213.805	-9.11
214.19	-65.65
214.576	-9.23
214.961	17.08
215.346	-2.67
215.732	4.15
216.117	-17.16
216.502	-21.57
216.888	-14.37
217.273	-5.46
217.658	-3.14
218.043	-20.25
218.428	9.75
218.813	-12.17
219.198	-19.55
219.583	-35.62
219.968	12.94
220.353	-5.67
220.738	-36.61
221.122	6.42
221.507	-6.18
221.892	-24.18
222.276	-8.15
222.661	11.14
223.046	2.58
223.43	0.14
223.815	-4.71
224.199	1.09
224.583	1.73
224.968	1.74
225.352	3.2
225.736	-0.98
226.121	-8.67
226.505	-0.24
226.889	2.09
227.273	3.09
227.657	0.95
228.041	4.84
228.425	2.8
228.809	-0.06
229.193	1.81
229.577	0.75
229.961	3.45
230.344	3.54
230.728	1.76
231.112	2.81
231.495	2.8
231.879	3.56
232.263	1.13
232.646	1.7
233.03	1.61
233.413	1.72
233.797	1.51
234.18	2.51
234.563	3.91
234.946	1.06
235.33	4.04
235.713	1.74
236.096	3.23
236.479	2.4
236.862	2.06
237.245	1.63
237.628	1.86
238.011	1.08
238.394	2.77
238.777	3.81
239.16	2.46
239.543	2.02
239.925	3.33
240.308	5.2
240.691	1.25
241.073	3.62
241.456	2.46
241.838	2.12
242.221	3.35
242.603	2.64
242.986	2.45
243.368	3.38
243.75	2.98
244.133	2.97
244.515	3
244.897	2.78
245.279	2.72
245.661	3.04
246.043	3.46
246.425	2.57
246.807	3.56
247.189	2.67
247.571	2.71
247.953	2.86
248.335	2.67
248.717	2.93
249.098	2.58
249.48	2.56
249.862	3.01
250.243	2.65
250.625	2.12
251.006	2.68
251.388	2.67
251.769	3.15
252.151	3.8
252.532	2.22
252.913	2.57
253.295	3.29
253.676	2.18
254.057	2.5
254.438	2.86
254.819	2.68
255.2	2.07
255.581	2.76
255.962	3.96
256.343	2.74
256.724	2.8
257.105	2.1
257.486	2.83
257.867	3.92
258.247	3.26
258.628	2.34
259.009	2.15
259.389	2.61
259.77	3.35
260.15	2.42
260.531	2.94
260.911	2.62
261.292	2.55
261.672	2.44
262.052	2.65
262.432	2.69
262.813	2.48
263.193	2.26
263.573	2.41
263.953	3.09
264.333	2.6
264.713	2.89
265.093	2.74
265.473	2.95
265.853	1.89
266.233	1.92
266.612	3.05
266.992	2.48
267.372	2.58
267.752	2.61
268.131	3.32
268.511	2.91
268.89	3.17
269.27	2.95
269.649	2.77
270.029	2.6
270.408	2.6
270.787	2.33
271.167	2.68
271.546	2.95
271.925	2.3
272.304	2.41
272.683	2.3
273.062	2.73
273.441	2.76
273.82	2.07
274.199	2.55
274.578	2.48
274.957	2.59
275.336	2.2
275.715	2.63
276.093	2.26
276.472	2.36
276.851	2.16
277.229	2.67
277.608	2.5
277.986	2.91
278.365	2.64
278.743	2.91
279.122	2.09
279.5	2.26
279.878	2.5
280.257	2.35
280.635	2.02
281.013	2.29
281.391	2.47
281.769	2.05
282.147	2.45
282.525	2.9
282.903	2.56
283.281	3.23
283.659	2.19
284.037	2.07
284.415	2.81
284.792	2.38
285.17	2.29
285.548	2.86
285.925	2.63
286.303	2.58
286.68	2.93
287.058	2.69
287.435	2.31
287.813	2.57
288.19	2.69
288.567	2.33
288.945	2.71
289.322	2.6
289.699	2.78
290.076	2.47
290.453	2.34
290.83	2.34
291.207	2.43
291.584	2.48
291.961	2.35
292.338	2.67
292.715	2.58
293.092	2.73
293.469	3
293.845	2.35
294.222	2.45
294.599	2.04
294.975	2.53
295.352	2.47
295.728	2.75
296.105	1.91
296.481	2.64
296.858	2.59
297.234	2.89
297.61	2.78
297.986	2.67
298.363	2.36
298.739	2.57
299.115	2.71
299.491	2.49
299.867	2.34
300.243	2.66
300.619	2.67
300.995	3.07
301.371	3.29
301.746	2.61
302.122	2.57
302.498	2.39
302.874	2.87
303.249	2.1
303.625	2.6
304	2.88
304.376	2.34
304.751	2.67
305.127	2.28
305.502	2.5
305.878	2.7
306.253	2.76
306.628	2.19
307.003	2.57
307.378	3.09
307.754	2.22
308.129	1.96
308.504	2.95
308.879	2.88
309.254	3.07
309.629	2.19
310.003	2.84
310.378	2.88
310.753	2.34
311.128	2.48
311.502	2.46
311.877	2.71
312.252	2.68
312.626	2.84
313.001	2.69
313.375	2.63
313.75	2.73
314.124	2.36
314.498	3.09
314.873	2.85
315.247	2.89
315.621	2.64
315.995	2.98
316.369	2.6
316.743	2.76
317.117	3.01
317.491	2.01
317.865	2.64
318.239	2.94
318.613	3.13
318.987	3.35
319.361	2.63
319.734	2.72
320.108	2.69
320.482	2.32
320.855	3.19
321.229	2.5
321.602	2.56
321.976	1.99
322.349	3.39
322.723	2.88
323.096	3.25
323.469	3.14
323.843	2.63
324.216	2.81
324.589	2.53
324.962	3.16
325.335	2.75
325.708	2.26
326.081	3.05
326.454	2.69
326.827	2.78
327.2	2.43
327.573	2.76
327.945	2.89
328.318	2.21
328.691	2.52
329.063	2.76
329.436	3.37
329.809	2.57
330.181	2.76
330.553	2.97
330.926	2.71
331.298	2.71
331.671	2.5
332.043	3.1
332.415	2.78
332.787	2.37
333.159	2.49
333.532	2.26
333.904	2.73
334.276	2.45
334.648	3.08
335.02	2
335.391	3.27
335.763	2.72
336.135	2.39
336.507	2.97
336.879	2.96
337.25	3
337.622	2.71
337.993	3.01
338.365	2.94
338.736	3.02
339.108	3.26
339.479	2.68
339.851	2.82
340.222	2.3
340.593	2.76
340.964	2.74
341.336	2.41
341.707	2.91
342.078	2.86
342.449	3.03
342.82	2.8
343.191	2.26
343.562	2.54
343.933	3.01
344.303	3.1
344.674	3
345.045	2.76
345.416	2.5
345.786	2.77
346.157	3.15
346.527	3.13
346.898	3.17
347.268	2.9
347.639	2.79
348.009	2.89
348.38	2.73
348.75	2.64
349.12	2.83
349.49	2.98
349.861	3.03
350.231	3.27
350.601	2.93
350.971	2.81
351.341	2.65
351.711	2.55
352.081	2.64
352.45	2.8
352.82	2.96
353.19	2.65
353.56	2.97
353.929	3.12
354.299	3.25
354.669	3.23
355.038	3.21
355.408	2.99
355.777	3.14
356.147	2.89
356.516	2.69
356.885	2.72
357.254	3.27
357.624	3.14
357.993	3.03
358.362	2.9
358.731	2.83
359.1	3.12
359.469	2.93
359.838	3.02
360.207	2.83
360.576	2.96
360.945	3.28
361.314	2.99
361.682	2.81
362.051	3.02
362.42	3.06
362.788	2.86
363.157	3.04
363.525	3.04
363.894	3.02
364.262	3.06
364.631	3.24
364.999	2.89
365.367	2.45
365.735	3.24
366.104	2.91
366.472	2.92
366.84	2.69
367.208	2.97
367.576	2.59
367.944	2.73
368.312	3.08
368.68	2.64
369.048	2.88
369.416	2.92
369.783	2.89
370.151	3.04
370.519	3.32
370.886	2.59
371.254	3.08
371.621	2.93
371.989	2.92
372.356	3.36
372.724	3.03
373.091	3.03
373.458	3.08
373.826	3.14
374.193	2.93
374.56	2.74
374.927	3.37
375.294	2.79
375.661	3.13
376.028	3.23
376.395	3.58
376.762	3.12
377.129	3.33
377.496	3.1
377.863	2.72
378.229	2.9
378.596	2.97
378.963	2.9
379.329	2.89
379.696	3.08
380.062	3.13
380.429	3.03
380.795	2.99
381.161	3.17
381.528	3.26
381.894	2.83
382.26	3.2
382.626	3.12
382.993	3.32
383.359	3.18
383.725	2.99
384.091	3.1
384.457	2.98
384.823	3.22
385.188	3.2
385.554	3.12
385.92	2.96
386.286	3.02
386.651	2.91
387.017	2.93
387.383	3.16
387.748	2.95
388.114	2.87
388.479	3.53
388.845	3.42
389.21	3.32
389.575	3.27
389.94	3.13
390.306	3.24
390.671	3.13
391.036	2.86
391.401	3.43
391.766	3.08
392.131	3.18
392.496	2.91
392.861	3.2
393.226	3.1
393.591	3.35
393.956	3.18
394.32	3.1
394.685	3.14
395.05	3.3
395.414	3.24
395.779	3.21
396.143	3.11
396.508	3.16
396.872	3.26
397.236	3.39
397.601	3.11
397.965	3.07
398.329	3.17
398.694	3.33
399.058	3.23
399.422	3.09
399.786	2.98
400.15	3.24
400.514	3.19
400.878	3.08
401.242	3.44
401.605	3.28
401.969	3.47
402.333	3.18
402.697	3.38
403.06	3.41
403.424	3.23
403.787	3.25
404.151	3.32
404.514	3.49
404.878	3.3
405.241	3.4
405.604	3.28
405.968	3.32
406.331	3.17
406.694	3.12
407.057	3.31
407.42	3.18
407.783	3.06
408.146	3.31
408.509	3.32
408.872	3.18
409.235	3.24
409.598	3.27
409.961	3.23
410.323	3.38
410.686	3.41
411.049	3.25
411.411	3.29
411.774	3.68
412.136	3.39
412.499	3.29
412.861	3.33
413.223	3.38
413.586	3.3
413.948	3.19
414.31	3.17
414.672	3.42
415.035	3.46
415.397	3.16
415.759	3.51
416.121	3.22
416.483	3.25
416.845	3.37
417.206	3.07
417.568	3.34
417.93	3.38
418.292	3.41
418.653	3.36
419.015	3.32
419.377	3.24
419.738	3.28
420.1	3.53
420.461	3.45
420.822	3.19
421.184	3.43
421.545	3.24
421.906	3.26
422.267	3.16
422.629	3.32
422.99	3.23
423.351	3.16
423.712	3.37
424.073	3.38
424.434	3.24
424.795	3.33
425.155	3.4
425.516	3.34
425.877	3.33
426.238	3.36
426.598	3.27
426.959	3.13
427.32	3.32
427.68	3.33
428.041	3.29
428.401	3.4
428.761	3.45
429.122	3.46
429.482	3.49
429.842	3.22
430.202	3.48
430.563	3.51
430.923	3.53
431.283	3.23
431.643	3.51
432.003	3.76
432.363	3.45
432.722	3.48
433.082	3.59
433.442	3.44
433.802	3.53
434.161	3.45
434.521	3.41
434.881	3.45
435.24	3.38
435.6	3.38
435.959	3.43
436.319	3.49
436.678	3.44
437.037	3.54
437.396	3.51
437.756	3.52
438.115	3.33
438.474	3.39
438.833	3.58
439.192	3.43
439.551	3.49
439.91	3.45
440.269	3.53
440.628	3.54
440.987	3.37
441.345	3.46
441.704	3.49
442.063	3.38
442.421	3.37
442.78	3.47
443.138	3.49
443.497	3.46
443.855	3.34
444.214	3.56
444.572	3.35
444.93	3.48
445.288	3.52
445.647	3.36
446.005	3.54
446.363	3.43
446.721	3.56
447.079	3.47
447.437	3.51
447.795	3.5
448.153	3.36
448.51	3.54
448.868	3.43
449.226	3.44
449.584	3.45
449.941	3.41
450.299	3.49
450.656	3.57
451.014	3.62
451.371	3.6
451.729	3.66
452.086	3.55
452.443	3.47
452.801	3.67
453.158	3.66
453.515	3.72
453.872	3.61
454.229	3.7
454.586	3.6
454.943	3.61
455.3	3.61
455.657	3.54
456.014	3.52
456.371	3.63
456.727	3.68
457.084	3.66
457.441	3.61
457.797	3.59
458.154	3.58
458.51	3.58
458.867	3.53
459.223	3.77
459.58	3.75
459.936	3.43
460.292	3.63
460.648	3.6
461.005	3.58
461.361	3.65
461.717	3.64
462.073	3.59
462.429	3.71
462.785	3.54
463.141	3.56
463.496	3.62
463.852	3.78
464.208	3.63
464.564	3.59
464.919	3.73
465.275	3.65
465.631	3.71
465.986	3.89
466.342	3.64
466.697	3.67
467.052	3.59
467.408	3.78
467.763	3.74
468.118	3.83
468.473	3.84
468.829	3.56
469.184	3.62
469.539	3.62
469.894	3.72
470.249	3.76
470.603	3.77
470.958	3.58
471.313	3.67
471.668	3.6
472.023	3.58
472.377	3.82
472.732	3.74
473.086	3.73
473.441	3.72
473.795	3.88
474.15	3.67
474.504	3.65
474.859	3.69
475.213	3.78
475.567	3.63
475.921	3.57
476.275	3.72
476.63	3.7
476.984	3.68
477.338	3.68
477.692	3.81
478.045	3.7
478.399	3.65
478.753	3.76
479.107	3.78
479.461	3.88
479.814	3.84
480.168	3.87
480.521	3.69
480.875	3.84
481.228	3.81
481.582	3.9
481.935	3.74
482.289	3.68
482.642	3.76
482.995	3.7
483.348	3.73
483.701	3.85
484.055	3.73
484.408	3.74
484.761	3.76
485.114	3.6
485.466	3.51
485.819	3.5
486.172	3.55
486.525	3.57
486.878	3.62
487.23	3.65
487.583	3.68
487.936	3.74
488.288	3.73
488.641	3.7
488.993	3.66
489.345	3.58
489.698	3.64
490.05	3.68
490.402	3.63
490.754	3.72
491.107	3.75
491.459	3.72
491.811	3.74
492.163	3.79
492.515	3.92
492.866	3.76
493.218	3.7
493.57	3.66
493.922	3.69
494.274	3.71
494.625	3.8
494.977	3.82
495.328	3.85
495.68	3.81
496.031	3.87
496.383	3.91
496.734	3.84
497.086	4.06
497.437	4.1
497.788	3.9
498.139	3.83
498.49	3.76
498.842	4
499.193	3.87
499.544	3.93
499.894	3.84
500.245	3.86
500.596	3.85
500.947	3.91
501.298	3.95
501.648	4.07
501.999	4.12
502.35	4.02
502.7	4.05
503.051	4.08
503.401	3.95
503.752	4.07
504.102	3.98
504.452	3.99
504.803	4.11
505.153	3.98
505.503	4.02
505.853	4.09
506.203	3.96
506.553	4.13
506.903	4.01
507.253	4.05
507.603	4.07
507.953	3.97
508.303	4.04
508.652	4
509.002	4.14
509.352	4.12
509.701	4.05
510.051	4.03
510.4	4.08
510.75	4.05
511.099	4.05
511.449	3.9
511.798	4.01
512.147	4.1
512.496	4.03
512.846	3.92
513.195	4.09
513.544	3.95
513.893	4.1
514.242	4.02
514.591	4.03
514.939	4.12
515.288	4.04
515.637	4.2
515.986	4.15
516.334	4.18
516.683	4.2
517.032	4.1
517.38	4.31
517.729	4.23
518.077	4.28
518.426	4.22
518.774	4.27
519.122	4.14
519.47	4.09
519.819	4.16
520.167	4.11
520.515	4.06
520.863	4.08
521.211	4.12
521.559	4.14
521.907	4.13
522.255	4.2
522.602	4.26
522.95	4.18
523.298	4.38
523.645	4.31
523.993	4.27
524.341	4.2
524.688	4.32
525.036	4.31
525.383	4.32
525.73	4.32
526.078	4.26
526.425	4.27
526.772	4.15
527.119	4.16
527.466	4.25
527.814	4.21
528.161	4.13
528.508	4.25
528.854	4.17
529.201	4.18
529.548	4.2
529.895	4.16
530.242	4.12
530.588	4.08
530.935	4.1
531.282	4.16
531.628	4.08
531.975	4.23
532.321	4.26
532.667	4.26
533.014	4.35
533.36	4.29
533.706	4.44
534.052	4.33
534.399	4.31
534.745	4.26
535.091	4.26
535.437	4.26
535.783	4.22
536.129	4.44
536.474	4.42
536.82	4.36
537.166	4.41
537.512	4.47
537.857	4.34
538.203	4.4
538.549	4.33
538.894	4.51
539.239	4.49
539.585	4.37
539.93	4.52
540.276	4.52
540.621	4.48
540.966	4.54
541.311	4.44
541.656	4.53
542.001	4.58
542.346	4.49
542.691	4.52
543.036	4.36
543.381	4.37
543.726	4.41
544.071	4.44
544.415	4.47
544.76	4.52
545.105	4.49
545.449	4.62
545.794	4.59
546.138	4.57
546.483	4.7
546.827	4.62
547.171	4.73
547.516	4.68
547.86	4.63
548.204	4.72
548.548	4.67
548.892	4.73
549.236	4.72
549.58	4.77
549.924	4.91
550.268	4.86
550.612	4.76
550.956	4.87
551.3	4.66
551.643	4.83
551.987	4.84
552.33	4.89
552.674	4.96
553.017	5.01
553.361	5.1
553.704	4.9
554.048	4.99
554.391	4.89
554.734	4.93
555.077	4.9
555.42	4.98
555.764	5.27
556.107	5.05
556.45	5.16
556.793	5.08
557.135	5.09
557.478	4.76
557.821	5.22
558.164	5.17
558.507	5.06
558.849	5.11
559.192	5.21
559.534	5.1
559.877	5.28
560.219	5.12
560.562	5.31
560.904	5.34
561.246	5.18
561.589	5.22
561.931	5.24
562.273	5.29
562.615	5.08
562.957	5.25
563.299	5.35
563.641	5.29
563.983	5.23
564.325	5.23
564.667	5.17
565.008	5.27
565.35	5.48
565.692	5.68
566.033	5.45
566.375	5.37
566.716	5.37
567.058	5.43
567.399	5.53
567.741	5.43
568.082	5.41
568.423	5.41
568.764	5.31
569.105	5.5
569.447	5.5
569.788	5.53
570.129	5.67
570.47	5.75
570.811	5.51
571.151	5.66
571.492	5.7
571.833	5.54
572.174	5.78
572.514	5.68
572.855	5.39
573.195	5.59
573.536	5.48
573.876	5.46
574.217	5.5
574.557	5.52
574.898	5.9
575.238	5.55
575.578	5.94
575.918	5.83
576.258	5.83
576.598	5.73
576.938	5.87
577.278	5.6
577.618	5.64
577.958	5.87
578.298	5.89
578.638	5.98
578.977	5.94
579.317	6.05
579.657	5.88
579.996	5.96
580.336	5.75
580.675	5.95
581.014	6.09
581.354	6.08
581.693	6.27
582.032	6.05
582.372	6.06
582.711	6.07
583.05	6.19
583.389	5.96
583.728	6.2
584.067	6.26
584.406	6.12
584.745	6.42
585.083	6.1
585.422	6.11
585.761	6.25
586.1	6.29
586.438	6.16
586.777	6.49
587.115	6.14
587.454	6.32
587.792	6.4
588.13	6.39
588.469	6.56
588.807	6.39
589.145	6.6
589.483	6.36
589.821	6.56
590.159	6.51
590.497	6.72
590.835	6.47
591.173	6.37
591.511	6.59
591.849	6.7
592.187	6.47
592.524	6.47
592.862	6.78
593.2	6.79
593.537	6.83
593.875	6.67
594.212	6.8
594.55	6.63
594.887	6.95
595.224	6.75
595.561	6.42
595.899	6.66
596.236	6.81
596.573	6.88
596.91	6.81
597.247	6.76
597.584	6.7
597.921	7.03
598.258	6.87
598.594	6.55
598.931	6.88
599.268	7.06
599.604	6.95
599.941	6.87
600.277	7.02
600.614	7.1
600.95	7.18
601.287	7.01
601.623	7.11
601.959	7.04
602.296	6.92
602.632	7.25
602.968	7.23
603.304	7.16
603.64	7.23
603.976	6.94
604.312	7.16
604.648	7.38
604.984	7.19
605.319	7.07
605.655	7.27
605.991	7.2
606.326	7.31
606.662	7.33
606.998	7.27
607.333	7.25
607.668	7.5
608.004	7.28
608.339	7.55
608.674	7.34
609.01	7.57
609.345	7.57
609.68	7.46
610.015	7.44
610.35	7.49
610.685	7.57
611.02	7.7
611.355	7.56
611.689	7.58
612.024	7.48
612.359	7.64
612.694	7.76
613.028	7.88
613.363	7.81
613.697	7.7
614.032	7.75
614.366	7.82
614.7	7.94
615.035	8.13
615.369	8
615.703	7.83
616.037	7.73
616.371	8.21
616.705	8.11
617.039	8.35
617.373	8.48
617.707	8.04
618.041	8.08
618.375	8.03
618.709	8.05
619.042	7.91
619.376	8.04
619.71	8.18
620.043	8.62
620.377	8.15
620.71	8.29
621.043	8.48
621.377	8.32
621.71	8.33
622.043	8.61
622.376	8.5
622.709	8.54
623.043	8.22
623.376	8.67
623.709	8.54
624.041	8.87
624.374	8.6
624.707	8.21
625.04	8.94
625.373	8.89
625.705	8.31
626.038	8.34
626.37	8.52
626.703	8.86
627.035	8.93
627.368	8.7
627.7	8.24
628.032	8.4
628.365	8.83
628.697	8.56
629.029	8.57
629.361	8.72
629.693	8.52
630.025	8.84
630.357	8.82
630.689	8.94
631.021	8.65
631.353	9.09
631.684	8.8
632.016	8.88
632.348	8.97
632.679	8.69
633.011	8.91
633.342	8.99
633.674	8.79
634.005	9.3
634.336	9.11
634.668	9.28
634.999	9.52
635.33	9.07
635.661	9.16
635.992	9.15
636.323	8.95
636.654	9.13
636.985	8.92
637.316	9.27
637.647	9.01
637.977	9.64
638.308	9.47
638.639	9.55
638.969	8.86
639.3	9.44
639.63	9.65
639.961	9.45
640.291	9.68
640.622	9.35
640.952	9.64
641.282	9.38
641.612	9.13
641.943	9.66
642.273	9.26
642.603	9.77
642.933	9.57
643.263	9.3
643.592	9.08
643.922	10.49
644.252	9.86
644.582	9.61
644.911	9.47
645.241	9.7
645.571	9.84
645.9	9.94
646.23	9.65
646.559	10.15
646.888	9.86
647.218	9.67
647.547	9.99
647.876	10.06
648.205	9.57
648.534	10.22
648.863	10
649.192	9.9
649.521	9.92
649.85	10.45
650.179	10.34
650.508	9.95
650.837	10.27
651.165	10.16
651.494	9.99
651.822	9.98
652.151	10.41
652.479	9.85
652.808	9.86
653.136	10.26
653.465	10.6
653.793	10.27
654.121	9.96
654.449	10.3
654.777	10.03
655.105	10.31
655.433	10.72
655.761	10.73
656.089	9.96
656.417	10.44
656.745	10.21
657.073	10.08
657.4	10.39
657.728	10.57
658.056	9.97
658.383	10.57
658.711	10.51
659.038	10.74
659.365	11.36
659.693	10.92
660.02	10.66
660.347	10.49
660.674	11.01
661.001	10.65
661.329	10.73
661.656	10.93
661.982	10.08
662.309	10.71
662.636	10.75
662.963	10.58
663.29	10.57
663.616	11.31
663.943	11.44
664.27	11.13
664.596	10.86
664.923	10.94
665.249	11.06
665.576	10.84
665.902	10.46
666.228	10.48
666.554	11.63
666.881	11.01
667.207	11.89
667.533	11.38
667.859	11.08
668.185	11.11
668.511	11.26
668.837	10.77
669.162	11.8
669.488	11.44
669.814	11.91
670.139	11.5
670.465	11.27
670.791	11.02
671.116	11.68
671.442	12.03
671.767	11.72
672.092	11.49
672.418	11.35
672.743	11.43
673.068	11.74
673.393	11.85
673.718	11.8
674.043	11.61
674.368	10.87
674.693	11.96
675.018	11.71
675.343	12.25
675.667	12.17
675.992	11.68
676.317	12.18
676.641	12.07
676.966	11.46
677.29	11.92
677.615	12.16
677.939	11.8
678.264	12.31
678.588	11.74
678.912	11.94
679.236	12.5
679.56	12.06
679.885	12.26
680.209	12.53
680.532	11.78
680.856	11.79
681.18	11.27
681.504	12.26
681.828	11.59
682.152	12.32
682.475	12.2
682.799	12.38
683.122	12.29
683.446	12.31
683.769	12.13
684.093	12.2
684.416	11.76
684.739	12.18
685.062	12.8
685.386	12.37
685.709	12.83
686.032	12.33
686.355	13.47
686.678	12.83
687.001	12.54
687.324	12.57
687.646	12.46
687.969	12.75
688.292	12.89
688.614	12.99
688.937	12.82
689.26	12.13
