Data from 0041_crown_Reflection__2__112.txt Node

Date: Fri Nov 04 15:44:10 CDT 2022
User: ToomeyLab
Spectrometer: FLMS14357
Trigger mode: 0
Integration Time (sec): 1.000000E-2
Scans to average: 100
Electric dark correction enabled: true
Nonlinearity correction enabled: false
Boxcar width: 0
XAxis mode: Wavelengths
Number of Pixels in Spectrum: 2048
>>>>>Begin Spectral Data<<<<<
189.047	194.58
189.435	194.58
189.823	194.58
190.211	-515.94
190.599	-163.7
190.987	-43.06
191.375	151.1
191.763	171.13
192.151	326.46
192.538	91.66
192.926	130.91
193.314	35.47
193.702	90.6
194.089	45.92
194.477	90.28
194.864	58.98
195.252	177.85
195.639	-606.96
196.027	107.02
196.414	752.41
196.801	103.2
197.189	-1121.01
197.576	-13.72
197.963	-124.84
198.351	-43.63
198.738	25.86
199.125	-4.64
199.512	-21.19
199.899	58.86
200.286	16.39
200.673	-2.15
201.06	16.81
201.447	-56
201.833	15.87
202.22	34.17
202.607	15.23
202.994	31.31
203.38	20.49
203.767	-0.15
204.154	6.99
204.54	21.11
204.927	-6.18
205.313	13.11
205.699	23.91
206.086	6.06
206.472	-29.22
206.858	-8.16
207.245	14.02
207.631	26.29
208.017	37.2
208.403	0.66
208.789	37.32
209.175	-9.03
209.561	-30.96
209.947	-56.36
210.333	31.86
210.719	-1.98
211.105	-5.41
211.491	10.38
211.876	9.86
212.262	-7.02
212.648	-1.57
213.034	12.44
213.419	-15.87
213.805	-10.53
214.19	-48.67
214.576	6.89
214.961	7.78
215.346	-0.45
215.732	9.76
216.117	-1.67
216.502	-10.7
216.888	-8.34
217.273	-8.01
217.658	22.76
218.043	-20.4
218.428	16.92
218.813	-20.9
219.198	20.5
219.583	-11.04
219.968	12.78
220.353	-16.43
220.738	-26.05
221.122	6.93
221.507	-1.6
221.892	-6.88
222.276	-3.01
222.661	4.4
223.046	-0.66
223.43	5.82
223.815	-3.43
224.199	4.36
224.583	2.06
224.968	3.68
225.352	-3.11
225.736	-8.78
226.121	-7.53
226.505	0.85
226.889	2.15
227.273	3.49
227.657	5.02
228.041	2.68
228.425	5.83
228.809	5.87
229.193	3.23
229.577	3.07
229.961	4.56
230.344	4.92
230.728	4.04
231.112	3.94
231.495	4.47
231.879	4.94
232.263	4.03
232.646	3.87
233.03	3.73
233.413	3.08
233.797	2.48
234.18	4.67
234.563	5.51
234.946	3.88
235.33	5.98
235.713	3.56
236.096	4.95
236.479	4.21
236.862	4.68
237.245	4.1
237.628	4.27
238.011	2.48
238.394	5.16
238.777	4.72
239.16	3.95
239.543	4.14
239.925	5.56
240.308	4.39
240.691	3.44
241.073	4.71
241.456	3.82
241.838	3.3
242.221	5
242.603	3.81
242.986	3.98
243.368	4.08
243.75	4.13
244.133	4.27
244.515	4.37
244.897	4.4
245.279	4.56
245.661	4.27
246.043	5.37
246.425	4.08
246.807	5.15
247.189	3.83
247.571	4.97
247.953	4.07
248.335	4.08
248.717	4.31
249.098	4.17
249.48	4.38
249.862	4.73
250.243	3.92
250.625	4.13
251.006	4.29
251.388	4.16
251.769	5.17
252.151	4.11
252.532	3.88
252.913	3.35
253.295	4.79
253.676	3.98
254.057	4.01
254.438	4.28
254.819	4.36
255.2	3.51
255.581	3.67
255.962	4.37
256.343	4.19
256.724	3.72
257.105	4.05
257.486	5.07
257.867	5.65
258.247	4.29
258.628	3.46
259.009	3.36
259.389	4.11
259.77	3.97
260.15	4.08
260.531	3.91
260.911	3.91
261.292	3.95
261.672	4.01
262.052	4.01
262.432	4.06
262.813	3.84
263.193	3.07
263.573	4
263.953	3.91
264.333	3.63
264.713	4.38
265.093	3.79
265.473	4.22
265.853	3.73
266.233	3.53
266.612	4.1
266.992	4.27
267.372	2.53
267.752	3.53
268.131	4.15
268.511	3.92
268.89	4.15
269.27	4.14
269.649	4.35
270.029	3.86
270.408	3.51
270.787	4.13
271.167	4.19
271.546	4.74
271.925	3.96
272.304	4.18
272.683	3.66
273.062	4.14
273.441	4.04
273.82	3.83
274.199	4.12
274.578	3.66
274.957	3.75
275.336	3.45
275.715	3.64
276.093	4.03
276.472	3.58
276.851	3.19
277.229	3.38
277.608	3.57
277.986	3.69
278.365	4.15
278.743	3.99
279.122	3.46
279.5	3.93
279.878	3.73
280.257	3.4
280.635	3.24
281.013	3.03
281.391	4.09
281.769	3.62
282.147	3.12
282.525	3.85
282.903	3.45
283.281	3.64
283.659	3.27
284.037	3.56
284.415	3.35
284.792	3.45
285.17	2.98
285.548	3.79
285.925	3.68
286.303	3.83
286.68	3.5
287.058	3.55
287.435	3.42
287.813	3.45
288.19	3.59
288.567	3.69
288.945	3.6
289.322	3.52
289.699	3.5
290.076	3.58
290.453	3.32
290.83	3.28
291.207	3.36
291.584	3.76
291.961	3.39
292.338	3.61
292.715	3.83
293.092	3.95
293.469	3.29
293.845	2.94
294.222	3.52
294.599	3.11
294.975	2.97
295.352	3.49
295.728	3.6
296.105	3.47
296.481	3.18
296.858	3.46
297.234	3.54
297.61	3.84
297.986	3.17
298.363	2.98
298.739	3.08
299.115	3.37
299.491	3.45
299.867	3.53
300.243	3.33
300.619	3.54
300.995	3.72
301.371	4.04
301.746	3.07
302.122	3.09
302.498	3.79
302.874	3.29
303.249	2.92
303.625	3.18
304	3.74
304.376	3.06
304.751	3.46
305.127	2.85
305.502	3.35
305.878	3.36
306.253	3.08
306.628	2.99
307.003	3.12
307.378	3.29
307.754	3.12
308.129	2.54
308.504	3.04
308.879	3.01
309.254	3.25
309.629	3.57
310.003	3.46
310.378	3.52
310.753	3.3
311.128	3
311.502	2.77
311.877	2.79
312.252	3.07
312.626	3.45
313.001	3.03
313.375	3
313.75	2.91
314.124	2.83
314.498	3.41
314.873	3.09
315.247	2.95
315.621	2.97
315.995	3.49
316.369	3.29
316.743	3.5
317.117	2.96
317.491	3.26
317.865	2.69
318.239	2.78
318.613	3.55
318.987	3.27
319.361	3.2
319.734	3.23
320.108	3.29
320.482	2.88
320.855	3.46
321.229	3.22
321.602	2.89
321.976	2.62
322.349	3.71
322.723	3.22
323.096	3.75
323.469	3.33
323.843	2.68
324.216	3.25
324.589	3.28
324.962	3.55
325.335	3.54
325.708	2.85
326.081	3.44
326.454	3.03
326.827	3.31
327.2	2.91
327.573	3.28
327.945	3.65
328.318	2.91
328.691	2.92
329.063	3.28
329.436	3.37
329.809	2.81
330.181	3.02
330.553	2.83
330.926	3.05
331.298	3.42
331.671	2.96
332.043	3.31
332.415	3.17
332.787	2.39
333.159	2.99
333.532	2.86
333.904	2.96
334.276	2.97
334.648	3.13
335.02	2.63
335.391	3.24
335.763	3.29
336.135	2.93
336.507	3.11
336.879	2.97
337.25	3.43
337.622	3.03
337.993	3.2
338.365	3.32
338.736	3.55
339.108	3.63
339.479	3.12
339.851	2.78
340.222	2.46
340.593	3.08
340.964	2.89
341.336	3.17
341.707	2.82
342.078	3.4
342.449	3.28
342.82	3.21
343.191	3.07
343.562	3.58
343.933	3.28
344.303	3.44
344.674	3.21
345.045	2.99
345.416	2.74
345.786	3.17
346.157	3.24
346.527	3.38
346.898	3.34
347.268	2.98
347.639	2.81
348.009	3.45
348.38	3.13
348.75	2.91
349.12	2.96
349.49	3.28
349.861	3
350.231	3.3
350.601	3.15
350.971	3.11
351.341	3.31
351.711	3.22
352.081	2.94
352.45	3.48
352.82	3.21
353.19	3.56
353.56	3.54
353.929	3.5
354.299	3.41
354.669	3.3
355.038	3.31
355.408	3.05
355.777	3.31
356.147	3.11
356.516	3.05
356.885	2.97
357.254	3.42
357.624	3.09
357.993	3.21
358.362	3.06
358.731	3.16
359.1	3.23
359.469	3.15
359.838	3.48
360.207	3.33
360.576	3.38
360.945	3.29
361.314	3.44
361.682	3.35
362.051	3.4
362.42	3.49
362.788	3.14
363.157	3.2
363.525	3.33
363.894	3.14
364.262	3.23
364.631	3.51
364.999	3.21
365.367	3.07
365.735	3.52
366.104	3.4
366.472	3.46
366.84	3.02
367.208	3.39
367.576	3.28
367.944	3.49
368.312	3.3
368.68	3.51
369.048	3.21
369.416	3.17
369.783	3.11
370.151	3.15
370.519	3.91
370.886	3.08
371.254	3.3
371.621	3.45
371.989	3.36
372.356	3.36
372.724	3.47
373.091	3.52
373.458	3.36
373.826	3.62
374.193	3.34
374.56	3.06
374.927	3.7
375.294	3.23
375.661	3.67
376.028	3.49
376.395	3.66
376.762	3.45
377.129	3.36
377.496	3.69
377.863	3.62
378.229	3.21
378.596	3.6
378.963	3.51
379.329	3.23
379.696	3.36
380.062	3.8
380.429	3.61
380.795	3.51
381.161	3.47
381.528	3.52
381.894	3.33
382.26	3.47
382.626	3.15
382.993	3.68
383.359	3.56
383.725	3.29
384.091	3.39
384.457	3.49
384.823	3.73
385.188	3.79
385.554	3.51
385.92	3.35
386.286	3.5
386.651	3.49
387.017	3.54
387.383	3.65
387.748	3.34
388.114	3.64
388.479	4.17
388.845	3.94
389.21	3.95
389.575	3.73
389.94	3.77
390.306	3.82
390.671	3.74
391.036	3.51
391.401	3.86
391.766	3.4
392.131	3.51
392.496	3.72
392.861	3.76
393.226	3.81
393.591	3.89
393.956	3.86
394.32	3.54
394.685	3.91
395.05	3.91
395.414	3.58
395.779	3.68
396.143	3.54
396.508	3.81
396.872	3.75
397.236	3.77
397.601	3.91
397.965	3.72
398.329	3.65
398.694	3.76
399.058	3.92
399.422	3.88
399.786	3.82
400.15	3.84
400.514	3.69
400.878	3.83
401.242	3.98
401.605	3.87
401.969	3.97
402.333	3.79
402.697	3.61
403.06	4.11
403.424	4.15
403.787	4
404.151	4.16
404.514	3.99
404.878	4.08
405.241	3.89
405.604	3.89
405.968	3.8
406.331	3.7
406.694	3.77
407.057	3.88
407.42	3.76
407.783	3.73
408.146	3.83
408.509	3.93
408.872	4
409.235	3.8
409.598	3.82
409.961	4.09
410.323	3.8
410.686	3.84
411.049	3.84
411.411	3.86
411.774	3.86
412.136	4.1
412.499	4.01
412.861	3.87
413.223	3.8
413.586	3.85
413.948	3.98
414.31	3.85
414.672	4.02
415.035	3.95
415.397	4.05
415.759	4.04
416.121	3.89
416.483	4.03
416.845	4.11
417.206	3.85
417.568	3.89
417.93	3.91
418.292	3.97
418.653	4.08
419.015	4.02
419.377	3.8
419.738	3.95
420.1	4.19
420.461	4.02
420.822	3.87
421.184	3.93
421.545	3.84
421.906	3.92
422.267	3.86
422.629	3.93
422.99	3.87
423.351	3.89
423.712	4.02
424.073	4.05
424.434	3.88
424.795	3.98
425.155	3.99
425.516	3.96
425.877	3.95
426.238	3.81
426.598	4.03
426.959	3.84
427.32	3.98
427.68	4.03
428.041	3.97
428.401	4.09
428.761	4.11
429.122	4.1
429.482	4.12
429.842	4
430.202	4.29
430.563	4.02
430.923	4.07
431.283	4.16
431.643	4.13
432.003	4.31
432.363	4.25
432.722	4
433.082	4.26
433.442	4.13
433.802	4.03
434.161	4.07
434.521	4.08
434.881	4.02
435.24	4.01
435.6	4.12
435.959	3.98
436.319	4.14
436.678	4.06
437.037	4.09
437.396	4.28
437.756	4.07
438.115	4.13
438.474	4.31
438.833	4.25
439.192	4.22
439.551	4.23
439.91	4.14
440.269	4.34
440.628	4.27
440.987	4.23
441.345	4.13
441.704	4.19
442.063	4.19
442.421	4.13
442.78	4.21
443.138	4.2
443.497	4.08
443.855	4.09
444.214	4.24
444.572	4.18
444.93	4.07
445.288	4.1
445.647	4.22
446.005	4.21
446.363	4.1
446.721	3.99
447.079	4.15
447.437	4.09
447.795	4.25
448.153	4.08
448.51	4.19
448.868	4.12
449.226	4.14
449.584	4.23
449.941	4.08
450.299	4.23
450.656	4.24
451.014	4.31
451.371	4.34
451.729	4.31
452.086	4.23
452.443	4.15
452.801	4.21
453.158	4.33
453.515	4.3
453.872	4.28
454.229	4.27
454.586	4.11
454.943	4.39
455.3	4.23
455.657	4.1
456.014	4.29
456.371	4.25
456.727	4.45
457.084	4.35
457.441	4.34
457.797	4.34
458.154	4.29
458.51	4.39
458.867	4.23
459.223	4.42
459.58	4.45
459.936	4.15
460.292	4.3
460.648	4.35
461.005	4.22
461.361	4.2
461.717	4.26
462.073	4.33
462.429	4.32
462.785	4.27
463.141	4.31
463.496	4.23
463.852	4.34
464.208	4.56
464.564	4.43
464.919	4.46
465.275	4.44
465.631	4.54
465.986	4.5
466.342	4.33
466.697	4.36
467.052	4.43
467.408	4.43
467.763	4.28
468.118	4.58
468.473	4.45
468.829	4.32
469.184	4.38
469.539	4.29
469.894	4.51
470.249	4.23
470.603	4.48
470.958	4.42
471.313	4.38
471.668	4.22
472.023	4.36
472.377	4.42
472.732	4.36
473.086	4.42
473.441	4.4
473.795	4.44
474.15	4.53
474.504	4.43
474.859	4.39
475.213	4.47
475.567	4.2
475.921	4.42
476.275	4.38
476.63	4.41
476.984	4.26
477.338	4.6
477.692	4.42
478.045	4.44
478.399	4.37
478.753	4.47
479.107	4.47
479.461	4.58
479.814	4.48
480.168	4.43
480.521	4.32
480.875	4.44
481.228	4.6
481.582	4.56
481.935	4.51
482.289	4.47
482.642	4.43
482.995	4.45
483.348	4.39
483.701	4.36
484.055	4.3
484.408	4.44
484.761	4.37
485.114	4.2
485.466	4.15
485.819	4.06
486.172	4.12
486.525	4.17
486.878	4.27
487.23	4.29
487.583	4.31
487.936	4.4
488.288	4.32
488.641	4.32
488.993	4.23
489.345	4.19
489.698	4.19
490.05	4.25
490.402	4.23
490.754	4.34
491.107	4.37
491.459	4.35
491.811	4.27
492.163	4.41
492.515	4.45
492.866	4.3
493.218	4.2
493.57	4.22
493.922	4.26
494.274	4.28
494.625	4.36
494.977	4.42
495.328	4.5
495.68	4.31
496.031	4.43
496.383	4.56
496.734	4.5
497.086	4.67
497.437	4.47
497.788	4.65
498.139	4.42
498.49	4.34
498.842	4.49
499.193	4.54
499.544	4.54
499.894	4.4
500.245	4.49
500.596	4.42
500.947	4.47
501.298	4.46
501.648	4.57
501.999	4.76
502.35	4.44
502.7	4.46
503.051	4.55
503.401	4.64
503.752	4.62
504.102	4.55
504.452	4.72
504.803	4.56
505.153	4.6
505.503	4.62
505.853	4.62
506.203	4.49
506.553	4.55
506.903	4.53
507.253	4.59
507.603	4.57
507.953	4.51
508.303	4.51
508.652	4.46
509.002	4.65
509.352	4.59
509.701	4.46
510.051	4.61
510.4	4.65
510.75	4.58
511.099	4.63
511.449	4.49
511.798	4.5
512.147	4.53
512.496	4.49
512.846	4.48
513.195	4.58
513.544	4.58
513.893	4.58
514.242	4.63
514.591	4.53
514.939	4.59
515.288	4.61
515.637	4.48
515.986	4.47
516.334	4.58
516.683	4.57
517.032	4.58
517.38	4.66
517.729	4.78
518.077	4.64
518.426	4.59
518.774	4.57
519.122	4.58
519.47	4.52
519.819	4.52
520.167	4.44
520.515	4.51
520.863	4.48
521.211	4.46
521.559	4.64
521.907	4.6
522.255	4.59
522.602	4.58
522.95	4.51
523.298	4.66
523.645	4.64
523.993	4.61
524.341	4.66
524.688	4.68
525.036	4.49
525.383	4.7
525.73	4.63
526.078	4.55
526.425	4.6
526.772	4.6
527.119	4.47
527.466	4.5
527.814	4.49
528.161	4.38
528.508	4.44
528.854	4.56
529.201	4.47
529.548	4.47
529.895	4.36
530.242	4.39
530.588	4.3
530.935	4.31
531.282	4.38
531.628	4.33
531.975	4.52
532.321	4.54
532.667	4.58
533.014	4.62
533.36	4.55
533.706	4.68
534.052	4.55
534.399	4.46
534.745	4.57
535.091	4.38
535.437	4.43
535.783	4.42
536.129	4.57
536.474	4.58
536.82	4.53
537.166	4.54
537.512	4.61
537.857	4.65
538.203	4.58
538.549	4.41
538.894	4.55
539.239	4.55
539.585	4.49
539.93	4.54
540.276	4.61
540.621	4.69
540.966	4.74
541.311	4.54
541.656	4.69
542.001	4.67
542.346	4.52
542.691	4.54
543.036	4.4
543.381	4.45
543.726	4.46
544.071	4.47
544.415	4.48
544.76	4.58
545.105	4.5
545.449	4.61
545.794	4.58
546.138	4.54
546.483	4.67
546.827	4.62
547.171	4.73
547.516	4.57
547.86	4.62
548.204	4.66
548.548	4.62
548.892	4.49
549.236	4.59
549.58	4.65
549.924	4.76
550.268	4.77
550.612	4.51
550.956	4.73
551.3	4.7
551.643	4.8
551.987	4.62
552.33	4.77
552.674	4.72
553.017	4.74
553.361	4.9
553.704	4.66
554.048	4.6
554.391	4.52
554.734	4.84
555.077	4.67
555.42	4.72
555.764	4.88
556.107	4.77
556.45	4.82
556.793	4.67
557.135	4.76
557.478	4.79
557.821	4.76
558.164	4.74
558.507	4.68
558.849	4.9
559.192	4.85
559.534	4.79
559.877	4.74
560.219	4.73
560.562	4.95
560.904	5.02
561.246	4.74
561.589	4.99
561.931	4.8
562.273	4.72
562.615	4.64
562.957	4.56
563.299	4.72
563.641	4.7
563.983	4.88
564.325	4.69
564.667	4.72
565.008	4.66
565.35	4.77
565.692	4.89
566.033	4.85
566.375	4.86
566.716	4.78
567.058	4.69
567.399	4.87
567.741	4.83
568.082	4.68
568.423	4.65
568.764	4.72
569.105	4.7
569.447	4.76
569.788	4.77
570.129	4.84
570.47	4.77
570.811	4.77
571.151	4.68
571.492	4.87
571.833	4.67
572.174	4.88
572.514	4.7
572.855	4.62
573.195	4.91
573.536	4.67
573.876	4.6
574.217	4.69
574.557	4.66
574.898	4.77
575.238	4.63
575.578	4.9
575.918	4.74
576.258	4.77
576.598	4.6
576.938	4.94
577.278	4.63
577.618	4.42
577.958	4.6
578.298	4.79
578.638	4.82
578.977	4.85
579.317	4.79
579.657	4.73
579.996	4.7
580.336	4.6
580.675	4.59
581.014	5.1
581.354	4.58
581.693	5.13
582.032	4.68
582.372	4.8
582.711	4.74
583.05	5.04
583.389	4.77
583.728	4.89
584.067	4.92
584.406	4.7
584.745	4.73
585.083	4.87
585.422	4.74
585.761	4.79
586.1	4.65
586.438	4.54
586.777	4.75
587.115	4.91
587.454	4.76
587.792	5.03
588.13	5.07
588.469	4.87
588.807	4.76
589.145	4.8
589.483	4.52
589.821	4.72
590.159	4.51
590.497	4.99
590.835	4.64
591.173	4.73
591.511	4.72
591.849	4.89
592.187	4.78
592.524	4.72
592.862	4.8
593.2	4.81
593.537	4.81
593.875	4.74
594.212	4.58
594.55	4.87
594.887	4.82
595.224	4.93
595.561	4.71
595.899	4.71
596.236	4.83
596.573	4.84
596.91	4.7
597.247	4.83
597.584	4.49
597.921	5.02
598.258	4.83
598.594	4.44
598.931	4.68
599.268	4.86
599.604	4.85
599.941	4.68
600.277	4.75
600.614	4.88
600.95	5.09
601.287	4.72
601.623	4.74
601.959	4.88
602.296	4.7
602.632	4.66
602.968	4.69
603.304	4.59
603.64	4.96
603.976	4.31
604.312	4.65
604.648	4.85
604.984	4.94
605.319	4.48
605.655	4.59
605.991	4.83
606.326	4.73
606.662	4.65
606.998	4.69
607.333	4.57
607.668	4.84
608.004	4.75
608.339	4.6
608.674	4.78
609.01	5
609.345	4.58
609.68	4.71
610.015	4.87
610.35	4.72
610.685	4.71
611.02	4.88
611.355	4.62
611.689	4.76
612.024	4.74
612.359	4.71
612.694	4.79
613.028	4.9
613.363	5.01
613.697	4.57
614.032	4.82
614.366	4.6
614.7	4.92
615.035	5.01
615.369	4.72
615.703	5.16
616.037	4.66
616.371	5.08
616.705	4.75
617.039	4.86
617.373	4.9
617.707	5.23
618.041	5.01
618.375	4.77
618.709	4.81
619.042	4.77
619.376	4.8
619.71	4.79
620.043	5.17
620.377	4.83
620.71	4.86
621.043	4.63
621.377	4.6
621.71	4.97
622.043	5.35
622.376	4.96
622.709	5.12
623.043	4.75
623.376	5.04
623.709	4.7
624.041	4.58
624.374	4.4
624.707	4.15
625.04	4.76
625.373	4.83
625.705	4.62
626.038	4.75
626.37	5.02
626.703	5
627.035	4.59
627.368	4.6
627.7	4.48
628.032	4.46
628.365	5.14
628.697	4.56
629.029	4.73
629.361	4.62
629.693	4.77
630.025	4.98
630.357	4.67
630.689	5.03
631.021	4.61
631.353	4.63
631.684	4.8
632.016	4.88
632.348	4.75
632.679	4.64
633.011	4.83
633.342	4.65
633.674	4.4
634.005	4.87
634.336	5.13
634.668	4.69
634.999	4.75
635.33	4.52
635.661	5.07
635.992	5.04
636.323	4.75
636.654	4.66
636.985	4.77
637.316	4.56
637.647	4.72
637.977	5.35
638.308	5.27
638.639	4.48
638.969	3.99
639.3	4.92
639.63	4.59
639.961	4.64
640.291	4.93
640.622	4.8
640.952	4.71
641.282	4.4
641.612	5.01
641.943	4.54
642.273	4.62
642.603	4.87
642.933	4.86
643.263	4.63
643.592	4.52
643.922	5.43
644.252	4.9
644.582	4.86
644.911	4.66
645.241	4.58
645.571	4.67
645.9	4.57
646.23	5.37
646.559	5.34
646.888	4.87
647.218	4.91
647.547	5.08
647.876	4.92
648.205	4.32
648.534	5.12
648.863	4.75
649.192	5.02
649.521	4.52
649.85	5.11
650.179	4.81
650.508	4.74
650.837	5.23
651.165	4.93
651.494	4.71
651.822	4.67
652.151	4.95
652.479	4.52
652.808	4.2
653.136	4.72
653.465	4.89
653.793	4.85
654.121	4.67
654.449	4.83
654.777	4.62
655.105	4.82
655.433	4.73
655.761	4.77
656.089	4.57
656.417	4.64
656.745	4.08
657.073	4.74
657.4	4.89
657.728	4.41
658.056	4.51
658.383	4.63
658.711	4.9
659.038	4.94
659.365	5.1
659.693	4.99
660.02	5.1
660.347	4.94
660.674	4.96
661.001	4.91
661.329	5.03
661.656	4.66
661.982	4.43
662.309	4.55
662.636	4.94
662.963	4.21
663.29	4.29
663.616	5.33
663.943	4.83
664.27	4.79
664.596	4.73
664.923	4.8
665.249	4.86
665.576	4.52
665.902	4.24
666.228	4.07
666.554	5.46
666.881	4.85
667.207	5.01
667.533	4.51
667.859	4.33
668.185	4.6
668.511	5.17
668.837	4.67
669.162	4.89
669.488	4.61
669.814	5.14
670.139	4.3
670.465	4.77
670.791	4.22
671.116	4.49
671.442	4.73
671.767	4.67
672.092	4.6
672.418	4.95
672.743	5.19
673.068	4.93
673.393	5.06
673.718	4.86
674.043	4.89
674.368	4.63
674.693	4.43
675.018	4.89
675.343	4.96
675.667	4.37
675.992	4.4
676.317	4.79
676.641	4.86
676.966	4.43
677.29	4.48
677.615	4.8
677.939	4.64
678.264	4.66
678.588	5.25
678.912	5.01
679.236	5.06
679.56	5.25
679.885	4.46
680.209	4.9
680.532	5.52
680.856	4.27
681.18	4.49
681.504	4.83
681.828	4.95
682.152	5.43
682.475	4.74
682.799	5.42
683.122	5.1
683.446	4.63
683.769	4.14
684.093	5.09
684.416	3.77
684.739	4.61
685.062	5.84
685.386	4.47
685.709	5.23
686.032	5.42
686.355	5.81
686.678	5.17
687.001	5.62
687.324	5.14
687.646	5.08
687.969	4.8
688.292	4.72
688.614	5.23
688.937	5.37
689.26	4.7
689.582	5.73
689.904	5.22
690.227	4.74
690.549	4.61
690.871	4.42
691.194	6.09
691.516	4.43
691.838	4.6
692.16	5.61
692.482	4.72
