Data from 0041_chest_Reflection__4__109.txt Node

Date: Fri Nov 04 15:42:08 CDT 2022
User: ToomeyLab
Spectrometer: FLMS14357
Trigger mode: 0
Integration Time (sec): 1.000000E-2
Scans to average: 100
Electric dark correction enabled: true
Nonlinearity correction enabled: false
Boxcar width: 0
XAxis mode: Wavelengths
Number of Pixels in Spectrum: 2048
>>>>>Begin Spectral Data<<<<<
189.047	249.48
189.435	249.48
189.823	249.48
190.211	-201.97
190.599	-367.81
190.987	-26.74
191.375	121.38
191.763	76.47
192.151	369.43
192.538	-318.01
192.926	-34.19
193.314	-56.03
193.702	121.53
194.089	1.44
194.477	-216.15
194.864	-17.41
195.252	101.63
195.639	-130.51
196.027	95.3
196.414	70.96
196.801	20.32
197.189	1718.12
197.576	78.89
197.963	246.76
198.351	-51.91
198.738	26.24
199.125	30.31
199.512	-21.63
199.899	50.6
200.286	51.63
200.673	6.67
201.06	-7.75
201.447	-45.62
201.833	1.23
202.22	-19.32
202.607	9.47
202.994	10.12
203.38	63.77
203.767	-1.56
204.154	37.32
204.54	-20.61
204.927	-9.85
205.313	40.77
205.699	20.58
206.086	68.49
206.472	-26.07
206.858	-11.55
207.245	10.44
207.631	14.12
208.017	27.04
208.403	12.82
208.789	46.16
209.175	-2.81
209.561	-80.77
209.947	-50.7
210.333	5.61
210.719	-13.58
211.105	-49.79
211.491	13.79
211.876	3.35
212.262	-15.5
212.648	6.93
213.034	28.21
213.419	30.49
213.805	8.81
214.19	-24.65
214.576	-3.95
214.961	22.08
215.346	31.3
215.732	17.86
216.117	23.36
216.502	21.26
216.888	-22.3
217.273	1.95
217.658	2.43
218.043	24.14
218.428	49.62
218.813	-1.49
219.198	13.17
219.583	-7.25
219.968	23.07
220.353	8.14
220.738	-2.21
221.122	4.3
221.507	10.39
221.892	-17.44
222.276	-1.22
222.661	-2.79
223.046	-6.07
223.43	0.72
223.815	4.68
224.199	9.98
224.583	1.74
224.968	-0.99
225.352	8.89
225.736	-7.95
226.121	-6.58
226.505	6.36
226.889	4.21
227.273	-4.38
227.657	-0.47
228.041	-1.21
228.425	4.66
228.809	0.48
229.193	3.45
229.577	-0.17
229.961	2.69
230.344	2.87
230.728	1.68
231.112	1.18
231.495	1.84
231.879	2.06
232.263	2.1
232.646	1.14
233.03	-1.08
233.413	1.18
233.797	0.53
234.18	1.53
234.563	3.36
234.946	2.43
235.33	2.91
235.713	1.21
236.096	1.69
236.479	1.65
236.862	0.76
237.245	0.62
237.628	1.7
238.011	-2.01
238.394	3.03
238.777	0.64
239.16	1.22
239.543	2.13
239.925	3.01
240.308	4.15
240.691	2.17
241.073	2.26
241.456	1.68
241.838	0.81
242.221	2.35
242.603	2.88
242.986	1.69
243.368	2.73
243.75	2.42
244.133	2.31
244.515	2
244.897	2.03
245.279	1.74
245.661	2.29
246.043	2.21
246.425	2.51
246.807	1.99
247.189	1.9
247.571	2.48
247.953	1.85
248.335	1.88
248.717	2.26
249.098	2.08
249.48	2.15
249.862	2.46
250.243	2.11
250.625	1.52
251.006	2.18
251.388	2.22
251.769	3.38
252.151	2.37
252.532	1.41
252.913	1.16
253.295	2.04
253.676	2.33
254.057	1.97
254.438	1.68
254.819	1.87
255.2	2.11
255.581	2.4
255.962	2.47
256.343	1.93
256.724	2.2
257.105	2.5
257.486	2.88
257.867	3.12
258.247	2.42
258.628	1.42
259.009	1.34
259.389	2.15
259.77	2.6
260.15	2.05
260.531	2.32
260.911	1.77
261.292	1.79
261.672	2.09
262.052	2.08
262.432	2.25
262.813	1.88
263.193	0.86
263.573	1.77
263.953	1.96
264.333	2.13
264.713	2.47
265.093	1.84
265.473	2.21
265.853	1.77
266.233	1.79
266.612	2.49
266.992	2.46
267.372	1.03
267.752	2.25
268.131	2.2
268.511	2.08
268.89	1.92
269.27	1.84
269.649	2.18
270.029	1.53
270.408	2.39
270.787	2.2
271.167	2.35
271.546	2.9
271.925	2.02
272.304	1.41
272.683	1.85
273.062	2.39
273.441	2.39
273.82	1.94
274.199	1.93
274.578	1.83
274.957	1.82
275.336	1.18
275.715	1.74
276.093	1.96
276.472	1.92
276.851	1.64
277.229	2.36
277.608	1.93
277.986	2.29
278.365	2.38
278.743	1.94
279.122	2.07
279.5	2.66
279.878	1.66
280.257	1.48
280.635	1.23
281.013	1.76
281.391	2.05
281.769	2.2
282.147	1.79
282.525	2.21
282.903	1.9
283.281	2.58
283.659	1.88
284.037	1.6
284.415	2.1
284.792	2.03
285.17	1.78
285.548	2.33
285.925	2.48
286.303	2.04
286.68	2.07
287.058	2.3
287.435	1.71
287.813	1.56
288.19	1.84
288.567	1.7
288.945	2.27
289.322	2.18
289.699	2.19
290.076	1.73
290.453	1.75
290.83	1.96
291.207	2.15
291.584	2.18
291.961	2.21
292.338	2.33
292.715	2.25
293.092	2.1
293.469	2.08
293.845	2.04
294.222	1.88
294.599	1.91
294.975	2.27
295.352	2.3
295.728	2.4
296.105	1.95
296.481	2.08
296.858	1.98
297.234	2.48
297.61	2.45
297.986	1.89
298.363	1.77
298.739	2.13
299.115	2.34
299.491	2.06
299.867	2.33
300.243	2
300.619	2.36
300.995	2.31
301.371	2.57
301.746	2.21
302.122	2.02
302.498	2.24
302.874	2.55
303.249	2.24
303.625	1.84
304	2.31
304.376	1.68
304.751	2.29
305.127	1.29
305.502	2.12
305.878	2.18
306.253	2.46
306.628	1.89
307.003	2.26
307.378	2.27
307.754	1.83
308.129	1.6
308.504	2.08
308.879	2.34
309.254	2.26
309.629	2.12
310.003	2.4
310.378	2.47
310.753	2.28
311.128	2.01
311.502	1.88
311.877	2.12
312.252	2.18
312.626	2.38
313.001	2.48
313.375	2.26
313.75	1.97
314.124	2.14
314.498	2.19
314.873	2.35
315.247	2.51
315.621	2.35
315.995	2.59
316.369	2.08
316.743	2.58
317.117	2.32
317.491	2.82
317.865	2.14
318.239	2.3
318.613	2.44
318.987	2.31
319.361	2.35
319.734	2.61
320.108	2.15
320.482	1.71
320.855	2.21
321.229	2.39
321.602	2.16
321.976	2.11
322.349	2.42
322.723	2.05
323.096	2.74
323.469	1.96
323.843	1.48
324.216	2.91
324.589	2.43
324.962	2.81
325.335	2.01
325.708	1.77
326.081	2.13
326.454	2.58
326.827	2.24
327.2	2.3
327.573	2.42
327.945	2.12
328.318	1.88
328.691	2.6
329.063	2.03
329.436	2.38
329.809	2.28
330.181	2
330.553	1.99
330.926	1.97
331.298	2.19
331.671	2.04
332.043	2.74
332.415	2.36
332.787	2.42
333.159	2.01
333.532	2.15
333.904	2.28
334.276	2.24
334.648	2.54
335.02	1.97
335.391	2.56
335.763	2.25
336.135	2.41
336.507	2.18
336.879	2.56
337.25	2.53
337.622	2.47
337.993	2.13
338.365	2.13
338.736	2.63
339.108	3
339.479	2.2
339.851	2.2
340.222	2.12
340.593	2.3
340.964	2.05
341.336	2.19
341.707	2.18
342.078	2.33
342.449	2.25
342.82	2.27
343.191	2.17
343.562	2.23
343.933	2.64
344.303	2.56
344.674	2.45
345.045	2.23
345.416	2.08
345.786	2.17
346.157	2.6
346.527	2.75
346.898	2.67
347.268	1.99
347.639	2.3
348.009	2.76
348.38	2.23
348.75	2.28
349.12	2.28
349.49	2.75
349.861	2.3
350.231	2.48
350.601	2.24
350.971	1.95
351.341	2.28
351.711	2.54
352.081	2.59
352.45	2.6
352.82	2.61
353.19	2.47
353.56	2.26
353.929	2.14
354.299	2.55
354.669	2.56
355.038	2.95
355.408	2.42
355.777	2.73
356.147	2.25
356.516	2.02
356.885	2.44
357.254	2.61
357.624	2.44
357.993	2.35
358.362	2.38
358.731	2.28
359.1	2.52
359.469	2.53
359.838	2.51
360.207	2.32
360.576	2.67
360.945	2.91
361.314	2.68
361.682	2.44
362.051	2.5
362.42	2.47
362.788	2.42
363.157	2.43
363.525	2.71
363.894	2.33
364.262	2.74
364.631	2.82
364.999	2.69
365.367	2.31
365.735	2.67
366.104	2.23
366.472	2.6
366.84	2.25
367.208	2.57
367.576	2.34
367.944	2.39
368.312	2.37
368.68	2.74
369.048	2.64
369.416	2.36
369.783	2.28
370.151	2.43
370.519	2.96
370.886	2.52
371.254	2.6
371.621	2.64
371.989	2.61
372.356	2.4
372.724	2.64
373.091	2.46
373.458	2.75
373.826	2.63
374.193	2.46
374.56	2.2
374.927	3.01
375.294	2.73
375.661	2.85
376.028	2.34
376.395	2.56
376.762	2.71
377.129	2.47
377.496	2.99
377.863	2.49
378.229	2.53
378.596	2.71
378.963	2.69
379.329	2.28
379.696	2.58
380.062	2.92
380.429	2.68
380.795	2.48
381.161	2.69
381.528	2.72
381.894	2.53
382.26	2.99
382.626	2.35
382.993	2.8
383.359	2.73
383.725	2.72
384.091	2.72
384.457	2.64
384.823	2.68
385.188	2.79
385.554	2.63
385.92	2.59
386.286	2.63
386.651	2.48
387.017	2.6
387.383	2.6
387.748	2.51
388.114	2.68
388.479	3.22
388.845	2.76
389.21	2.82
389.575	3
389.94	2.82
390.306	2.85
390.671	2.61
391.036	2.47
391.401	2.77
391.766	2.65
392.131	2.72
392.496	2.74
392.861	2.74
393.226	2.59
393.591	2.77
393.956	2.82
394.32	2.75
394.685	2.71
395.05	2.92
395.414	2.72
395.779	2.81
396.143	2.69
396.508	2.75
396.872	2.64
397.236	2.76
397.601	2.8
397.965	2.8
398.329	2.76
398.694	2.72
399.058	3.05
399.422	2.66
399.786	2.64
400.15	2.73
400.514	2.69
400.878	2.67
401.242	2.89
401.605	2.56
401.969	2.86
402.333	3.04
402.697	2.82
403.06	2.98
403.424	2.86
403.787	2.86
404.151	3.03
404.514	3.21
404.878	2.8
405.241	2.82
405.604	2.84
405.968	2.83
406.331	2.68
406.694	2.56
407.057	2.72
407.42	2.87
407.783	2.86
408.146	2.88
408.509	2.86
408.872	2.99
409.235	2.94
409.598	2.93
409.961	3.08
410.323	3.04
410.686	2.81
411.049	2.8
411.411	2.72
411.774	2.87
412.136	2.95
412.499	3
412.861	2.86
413.223	2.94
413.586	2.77
413.948	3.12
414.31	2.68
414.672	3.01
415.035	3.01
415.397	2.83
415.759	2.9
416.121	2.84
416.483	2.97
416.845	3.02
417.206	2.85
417.568	2.94
417.93	2.88
418.292	2.93
418.653	3.07
419.015	2.86
419.377	2.86
419.738	2.82
420.1	2.97
420.461	2.85
420.822	2.83
421.184	2.82
421.545	2.83
421.906	2.93
422.267	2.85
422.629	2.99
422.99	2.85
423.351	2.71
423.712	2.92
424.073	3
424.434	2.81
424.795	2.98
425.155	2.93
425.516	3
425.877	2.86
426.238	2.8
426.598	2.87
426.959	2.81
427.32	2.87
427.68	2.84
428.041	2.82
428.401	2.98
428.761	2.93
429.122	2.9
429.482	3.09
429.842	2.79
430.202	3.09
430.563	3.08
430.923	3.03
431.283	2.99
431.643	3.08
432.003	3.24
432.363	2.98
432.722	2.97
433.082	2.95
433.442	2.98
433.802	2.99
434.161	2.9
434.521	3.03
434.881	2.99
435.24	2.94
435.6	3.14
435.959	2.98
436.319	3.03
436.678	3.05
437.037	3.01
437.396	3.17
437.756	3.21
438.115	2.96
438.474	2.99
438.833	3.17
439.192	3.01
439.551	2.99
439.91	3.14
440.269	2.95
440.628	3.13
440.987	3.05
441.345	3.09
441.704	3.04
442.063	3.05
442.421	3.13
442.78	3.16
443.138	3.2
443.497	3.03
443.855	3.03
444.214	3.2
444.572	3.06
444.93	3.18
445.288	3.23
445.647	3.04
446.005	3.05
446.363	3.11
446.721	2.98
447.079	3.14
447.437	3.05
447.795	3.11
448.153	3
448.51	3.12
448.868	3.02
449.226	3.08
449.584	3.16
449.941	2.99
450.299	3.1
450.656	3.03
451.014	3.22
451.371	3.37
451.729	3.24
452.086	3.11
452.443	3.14
452.801	3.15
453.158	3.2
453.515	3.38
453.872	3.13
454.229	3.38
454.586	3.21
454.943	3.19
455.3	3.14
455.657	3.02
456.014	3.22
456.371	3.34
456.727	3.29
457.084	3.22
457.441	3.25
457.797	3.25
458.154	3.28
458.51	3.41
458.867	3.17
459.223	3.26
459.58	3.48
459.936	3.19
460.292	3.31
460.648	3.24
461.005	3.19
461.361	3.23
461.717	3.21
462.073	3.26
462.429	3.31
462.785	3.26
463.141	3.31
463.496	3.2
463.852	3.33
464.208	3.15
464.564	3.19
464.919	3.46
465.275	3.33
465.631	3.36
465.986	3.55
466.342	3.25
466.697	3.3
467.052	3.3
467.408	3.34
467.763	3.4
468.118	3.43
468.473	3.4
468.829	3.15
469.184	3.31
469.539	3.23
469.894	3.38
470.249	3.15
470.603	3.44
470.958	3.21
471.313	3.31
471.668	3.23
472.023	3.2
472.377	3.39
472.732	3.36
473.086	3.39
473.441	3.26
473.795	3.36
474.15	3.44
474.504	3.41
474.859	3.28
475.213	3.41
475.567	3.34
475.921	3.23
476.275	3.4
476.63	3.46
476.984	3.23
477.338	3.54
477.692	3.39
478.045	3.44
478.399	3.3
478.753	3.44
479.107	3.38
479.461	3.49
479.814	3.58
480.168	3.48
480.521	3.18
480.875	3.57
481.228	3.47
481.582	3.42
481.935	3.51
482.289	3.47
482.642	3.42
482.995	3.53
483.348	3.39
483.701	3.43
484.055	3.33
484.408	3.42
484.761	3.36
485.114	3.27
485.466	3.24
485.819	3.21
486.172	3.21
486.525	3.23
486.878	3.34
487.23	3.31
487.583	3.34
487.936	3.44
488.288	3.39
488.641	3.36
488.993	3.36
489.345	3.29
489.698	3.32
490.05	3.33
490.402	3.31
490.754	3.42
491.107	3.42
491.459	3.53
491.811	3.4
492.163	3.48
492.515	3.54
492.866	3.47
493.218	3.42
493.57	3.38
493.922	3.46
494.274	3.43
494.625	3.49
494.977	3.53
495.328	3.56
495.68	3.52
496.031	3.5
496.383	3.7
496.734	3.63
497.086	3.76
497.437	3.7
497.788	3.63
498.139	3.64
498.49	3.59
498.842	3.71
499.193	3.61
499.544	3.65
499.894	3.58
500.245	3.64
500.596	3.59
500.947	3.59
501.298	3.61
501.648	3.73
501.999	3.79
502.35	3.69
502.7	3.75
503.051	3.68
503.401	3.73
503.752	3.7
504.102	3.64
504.452	3.9
504.803	3.81
505.153	3.74
505.503	3.83
505.853	3.82
506.203	3.74
506.553	3.92
506.903	3.94
507.253	3.83
507.603	3.83
507.953	3.75
508.303	3.74
508.652	3.87
509.002	3.84
509.352	3.9
509.701	3.84
510.051	3.71
510.4	3.73
510.75	3.76
511.099	3.85
511.449	3.72
511.798	3.83
512.147	3.89
512.496	3.76
512.846	3.75
513.195	3.88
513.544	3.78
513.893	3.85
514.242	3.83
514.591	3.76
514.939	3.97
515.288	3.84
515.637	3.86
515.986	3.91
516.334	3.81
516.683	3.85
517.032	3.97
517.38	4
517.729	3.88
518.077	3.91
518.426	3.88
518.774	3.97
519.122	3.88
519.47	3.87
519.819	3.93
520.167	3.96
520.515	3.81
520.863	3.88
521.211	3.85
521.559	4.02
521.907	3.96
522.255	4.05
522.602	4
522.95	4.09
523.298	4.1
523.645	4.04
523.993	3.99
524.341	4
524.688	4.18
525.036	4.15
525.383	4.08
525.73	4.09
526.078	4.2
526.425	4.09
526.772	4
527.119	4.02
527.466	4.06
527.814	4.08
528.161	3.98
528.508	4.08
528.854	4.08
529.201	3.96
529.548	4.07
529.895	4
530.242	3.94
530.588	3.93
530.935	3.95
531.282	3.99
531.628	3.94
531.975	4.13
532.321	4.16
532.667	4.17
533.014	4.25
533.36	4.2
533.706	4.23
534.052	4.34
534.399	4.2
534.745	4.18
535.091	4.09
535.437	4.19
535.783	4.17
536.129	4.28
536.474	4.25
536.82	4.2
537.166	4.35
537.512	4.36
537.857	4.33
538.203	4.28
538.549	4.19
538.894	4.33
539.239	4.33
539.585	4.33
539.93	4.38
540.276	4.41
540.621	4.45
540.966	4.44
541.311	4.39
541.656	4.52
542.001	4.56
542.346	4.45
542.691	4.45
543.036	4.34
543.381	4.39
543.726	4.39
544.071	4.41
544.415	4.43
544.76	4.45
545.105	4.45
545.449	4.63
545.794	4.57
546.138	4.55
546.483	4.62
546.827	4.71
547.171	4.7
547.516	4.81
547.86	4.65
548.204	4.71
548.548	4.65
548.892	4.62
549.236	4.58
549.58	4.62
549.924	4.8
550.268	4.91
550.612	4.81
550.956	4.92
551.3	4.77
551.643	4.74
551.987	4.84
552.33	4.92
552.674	4.9
553.017	4.92
553.361	5.2
553.704	4.9
554.048	4.98
554.391	4.96
554.734	4.98
555.077	4.95
555.42	4.94
555.764	5.1
556.107	5.07
556.45	5.07
556.793	5.12
557.135	5.15
557.478	5.11
557.821	5.16
558.164	5.17
558.507	5.22
558.849	5.29
559.192	5.2
559.534	5.19
559.877	5.18
560.219	5.27
560.562	5.3
560.904	5.35
561.246	5.12
561.589	5.43
561.931	5.04
562.273	5.22
562.615	5.03
562.957	5.47
563.299	5.35
563.641	5.5
563.983	5.42
564.325	5.27
564.667	5.27
565.008	5.5
565.35	5.51
565.692	5.57
566.033	5.66
566.375	5.4
566.716	5.51
567.058	5.53
567.399	5.51
567.741	5.48
568.082	5.6
568.423	5.59
568.764	5.51
569.105	5.6
569.447	5.55
569.788	5.59
570.129	5.79
570.47	5.86
570.811	5.87
571.151	5.72
571.492	5.77
571.833	5.7
572.174	5.91
572.514	5.76
572.855	5.59
573.195	5.82
573.536	5.81
573.876	5.76
574.217	5.84
574.557	5.82
574.898	5.94
575.238	5.94
575.578	6.06
575.918	5.91
576.258	6
576.598	6.12
576.938	6.04
577.278	5.94
577.618	5.83
577.958	6.05
578.298	6.15
578.638	6.07
578.977	6.26
579.317	6.02
579.657	6.17
579.996	6.12
580.336	6.32
580.675	5.94
581.014	6.26
581.354	6.21
581.693	6.39
582.032	6.31
582.372	6.41
582.711	6.34
583.05	6.39
583.389	6.17
583.728	6.32
584.067	6.46
584.406	6.34
584.745	6.65
585.083	6.43
585.422	6.73
585.761	6.36
586.1	6.44
586.438	6.37
586.777	6.83
587.115	6.66
587.454	6.68
587.792	6.75
588.13	6.72
588.469	6.75
588.807	7.01
589.145	6.66
589.483	6.42
589.821	6.81
590.159	6.74
590.497	7.17
590.835	6.71
591.173	6.69
591.511	6.9
591.849	6.95
592.187	6.93
592.524	6.85
592.862	6.89
593.2	6.83
593.537	7.15
593.875	6.98
594.212	6.91
594.55	7.26
594.887	7.19
595.224	7.09
595.561	6.88
595.899	7.3
596.236	7.33
596.573	7.25
596.91	7.27
597.247	7.32
597.584	7.21
597.921	7.35
598.258	7.39
598.594	6.98
598.931	7.29
599.268	7.37
599.604	7.36
599.941	7.4
600.277	7.32
600.614	7.47
600.95	7.6
601.287	7.45
601.623	7.56
601.959	7.6
602.296	7.69
602.632	7.86
602.968	7.43
603.304	7.53
603.64	7.76
603.976	7.48
604.312	7.76
604.648	7.71
604.984	7.75
605.319	7.52
605.655	7.59
605.991	7.86
606.326	7.66
606.662	7.8
606.998	7.7
607.333	7.71
607.668	7.91
608.004	8.14
608.339	7.8
608.674	8.02
609.01	8.19
609.345	8.03
609.68	7.94
610.015	8.26
610.35	8.08
610.685	8.06
611.02	7.96
611.355	8.04
611.689	8.11
612.024	8
612.359	8.02
612.694	8.07
613.028	8.62
613.363	8.36
613.697	8.22
614.032	8.35
614.366	8.25
614.7	8.38
615.035	8.59
615.369	8.51
615.703	8.52
616.037	8.34
616.371	8.56
616.705	8.49
617.039	8.7
617.373	8.69
617.707	8.99
618.041	8.72
618.375	8.46
618.709	8.88
619.042	8.96
619.376	9.02
619.71	8.79
620.043	8.81
620.377	9.1
620.71	9.1
621.043	8.72
621.377	9.04
621.71	9.03
622.043	9.24
622.376	9.07
622.709	8.96
623.043	9.03
623.376	9.57
623.709	8.75
624.041	9.41
624.374	9.35
624.707	8.65
625.04	9.07
625.373	9.69
625.705	8.95
626.038	9.15
626.37	9.21
626.703	9.46
627.035	9.14
627.368	9.41
627.7	9.22
628.032	9.15
628.365	9.68
628.697	9.31
629.029	9.44
629.361	9.39
629.693	9.48
630.025	9.89
630.357	9.42
630.689	9.64
631.021	9.54
631.353	9.57
631.684	9.36
632.016	9.62
632.348	9.45
632.679	9.41
633.011	9.98
633.342	9.65
633.674	9.62
634.005	10.03
634.336	9.8
634.668	10.32
634.999	10.24
635.33	9.54
635.661	10.23
635.992	10.09
636.323	9.93
636.654	9.52
636.985	10.08
637.316	9.64
637.647	9.73
637.977	10.19
638.308	10.07
638.639	10.61
638.969	9.7
639.3	10.5
639.63	9.95
639.961	10.38
640.291	10.56
640.622	10.56
640.952	10.33
641.282	10
641.612	10.6
641.943	10.56
642.273	10.08
642.603	10.45
642.933	10.49
643.263	10.21
643.592	10.48
643.922	10.89
644.252	11.11
644.582	10.27
644.911	10.81
645.241	10.4
645.571	10.4
645.9	10.51
646.23	10.22
646.559	10.96
646.888	11.07
647.218	10.73
647.547	10.53
647.876	10.9
648.205	10.54
648.534	11.56
648.863	10.96
649.192	11.02
649.521	10.91
649.85	11.07
650.179	10.89
650.508	11.08
650.837	11.66
651.165	11.17
651.494	11.18
651.822	10.86
652.151	10.59
652.479	10.8
652.808	10.81
653.136	11.26
653.465	11.47
653.793	11.4
654.121	10.87
654.449	11.26
654.777	10.88
655.105	11.22
655.433	11.58
655.761	11.47
656.089	11.17
656.417	11.28
656.745	10.67
657.073	11.15
657.4	11.78
657.728	11.32
658.056	11.3
658.383	11.66
658.711	11.69
659.038	11.6
659.365	12.02
659.693	11.98
660.02	11.73
660.347	11.58
660.674	11.47
661.001	11.69
661.329	11.71
661.656	11.87
661.982	11.37
662.309	11.69
662.636	11.65
662.963	11.53
663.29	12.13
663.616	11.71
663.943	12.28
664.27	11.85
664.596	11.58
664.923	12.42
665.249	12.54
665.576	11.85
665.902	11.31
666.228	11.56
666.554	12.47
666.881	12.2
667.207	12.22
667.533	11.95
667.859	12.1
668.185	12.88
668.511	12.61
668.837	11.68
669.162	12.12
669.488	11.94
669.814	12.4
670.139	12.16
670.465	12.77
670.791	12.71
671.116	12.41
671.442	12.65
671.767	12.42
672.092	12.48
672.418	12.29
672.743	13.04
673.068	12.96
673.393	12.94
673.718	12.62
674.043	12.07
674.368	12.04
674.693	12.75
675.018	12.23
675.343	13.09
675.667	13.13
675.992	13.37
676.317	12.84
676.641	12.18
676.966	12.56
677.29	12.75
677.615	13.27
677.939	13.42
678.264	13.21
678.588	13.2
678.912	13.2
679.236	13.89
679.56	13.2
679.885	13.2
680.209	12.88
680.532	13.42
680.856	12.84
681.18	12.22
681.504	13.26
681.828	13.02
682.152	13.55
682.475	13.28
682.799	13.63
683.122	13.32
683.446	13.17
683.769	13.07
684.093	13.12
684.416	12.95
684.739	12.72
685.062	14.3
685.386	13.14
685.709	14.63
686.032	13.96
686.355	14.3
686.678	13.72
687.001	13.99
687.324	13.66
687.646	14.01
687.969	13.15
688.292	14.04
688.614	14.21
688.937	13.73
