Data from 0041_forehead_Reflection__3__118.txt Node

Date: Fri Nov 04 15:47:22 CDT 2022
User: ToomeyLab
Spectrometer: FLMS14357
Trigger mode: 0
Integration Time (sec): 1.000000E-2
Scans to average: 100
Electric dark correction enabled: true
Nonlinearity correction enabled: false
Boxcar width: 0
XAxis mode: Wavelengths
Number of Pixels in Spectrum: 2048
>>>>>Begin Spectral Data<<<<<
189.047	255.59
189.435	255.59
189.823	255.59
190.211	-308.73
190.599	-230.96
190.987	442.21
191.375	49.12
191.763	36.27
192.151	452.68
192.538	166.25
192.926	44.27
193.314	12.82
193.702	111.7
194.089	46.06
194.477	-278.18
194.864	141.23
195.252	121.53
195.639	281.58
196.027	62.83
196.414	297.94
196.801	4.63
197.189	-850.72
197.576	2.68
197.963	305.45
198.351	5.47
198.738	40.58
199.125	5.14
199.512	6.59
199.899	33.7
200.286	14.7
200.673	28
201.06	18.29
201.447	33.12
201.833	15.97
202.22	23.27
202.607	54.14
202.994	24.49
203.38	44.64
203.767	2.99
204.154	43.04
204.54	22.63
204.927	27.67
205.313	29.67
205.699	18.48
206.086	3.03
206.472	8.85
206.858	28.6
207.245	26.24
207.631	15.16
208.017	39.06
208.403	-0.16
208.789	42.86
209.175	13.05
209.561	-67.07
209.947	-44.36
210.333	37.12
210.719	6.12
211.105	3.57
211.491	35.36
211.876	15.85
212.262	35.25
212.648	12.19
213.034	29.51
213.419	13.02
213.805	-3.91
214.19	-0.34
214.576	8.26
214.961	23.16
215.346	2.93
215.732	18.47
216.117	2.93
216.502	18.15
216.888	-19.51
217.273	37.64
217.658	19.15
218.043	-6.64
218.428	35.3
218.813	16.16
219.198	13.69
219.583	-0.39
219.968	27.75
220.353	0.12
220.738	-14.29
221.122	4.43
221.507	13.65
221.892	0.98
222.276	1.23
222.661	17.15
223.046	-1.07
223.43	13.56
223.815	3.59
224.199	8.38
224.583	4.15
224.968	0.01
225.352	2.06
225.736	-0.43
226.121	-5.17
226.505	3.37
226.889	5.63
227.273	7.11
227.657	3.55
228.041	5.2
228.425	4.33
228.809	6.45
229.193	5.54
229.577	4.79
229.961	4.76
230.344	4.44
230.728	4.06
231.112	3.33
231.495	3.73
231.879	3.54
232.263	4.25
232.646	4.41
233.03	4.07
233.413	2.21
233.797	3.16
234.18	4.24
234.563	3.61
234.946	3.07
235.33	4.29
235.713	3.9
236.096	5.14
236.479	3.22
236.862	3.51
237.245	4.56
237.628	4.85
238.011	2.72
238.394	5.97
238.777	2.88
239.16	3.87
239.543	3.4
239.925	4.03
240.308	4.17
240.691	3.4
241.073	4.02
241.456	3.85
241.838	2.35
242.221	3.14
242.603	3.29
242.986	4.08
243.368	2.9
243.75	3.4
244.133	3.61
244.515	3.51
244.897	3.45
245.279	3.38
245.661	3.7
246.043	4.12
246.425	3.39
246.807	4.03
247.189	3.9
247.571	4.2
247.953	3.66
248.335	3.4
248.717	3.55
249.098	3.53
249.48	3.44
249.862	3.79
250.243	3.49
250.625	3.37
251.006	3.65
251.388	3.79
251.769	3.22
252.151	3.88
252.532	3.68
252.913	3.44
253.295	3.96
253.676	3.82
254.057	3.31
254.438	3.58
254.819	3.69
255.2	3.48
255.581	4.35
255.962	4.9
256.343	2.78
256.724	4.11
257.105	3.5
257.486	3.44
257.867	4.98
258.247	4.11
258.628	3.7
259.009	2.71
259.389	3.7
259.77	3.76
260.15	3.94
260.531	3.5
260.911	3.61
261.292	3.29
261.672	3.43
262.052	3.36
262.432	3.49
262.813	3.23
263.193	2.34
263.573	3.42
263.953	3.74
264.333	3.44
264.713	3.99
265.093	3.49
265.473	4.35
265.853	2.58
266.233	3.47
266.612	4.04
266.992	4.25
267.372	2.35
267.752	3.36
268.131	3.7
268.511	3.74
268.89	3.98
269.27	3.2
269.649	3.29
270.029	2.79
270.408	3.56
270.787	3.75
271.167	3.87
271.546	3.8
271.925	3.17
272.304	3.58
272.683	3.3
273.062	3.41
273.441	3.64
273.82	3.2
274.199	3.18
274.578	3.02
274.957	3.33
275.336	2.99
275.715	2.8
276.093	3.34
276.472	3.38
276.851	3.13
277.229	2.9
277.608	3.58
277.986	3.72
278.365	3.64
278.743	4.08
279.122	3.4
279.5	3.08
279.878	3.89
280.257	2.86
280.635	3.12
281.013	3.46
281.391	3.73
281.769	3.72
282.147	2.76
282.525	3.25
282.903	3.69
283.281	3.8
283.659	3.13
284.037	3.09
284.415	3.1
284.792	3.6
285.17	3.3
285.548	4.18
285.925	3.47
286.303	3.82
286.68	3.84
287.058	3.63
287.435	3.61
287.813	3.47
288.19	3.57
288.567	3.16
288.945	3.5
289.322	3.54
289.699	3.82
290.076	3.26
290.453	3.43
290.83	3.13
291.207	3.61
291.584	3.37
291.961	3.6
292.338	3.58
292.715	3.46
293.092	3.78
293.469	3.8
293.845	3.43
294.222	3.97
294.599	3.2
294.975	4.01
295.352	3.72
295.728	3.96
296.105	3.94
296.481	3.9
296.858	3.8
297.234	3.65
297.61	4.02
297.986	3.49
298.363	3.5
298.739	3.98
299.115	3.79
299.491	3.78
299.867	3.64
300.243	3.75
300.619	3.72
300.995	4.17
301.371	4.27
301.746	4
302.122	4.16
302.498	4
302.874	3.91
303.249	3.94
303.625	3.76
304	4.08
304.376	3.71
304.751	3.72
305.127	3.26
305.502	4.05
305.878	4.36
306.253	4.34
306.628	4.09
307.003	3.98
307.378	3.93
307.754	4.17
308.129	3.57
308.504	3.95
308.879	4.49
309.254	4.15
309.629	4.63
310.003	4.05
310.378	4.44
310.753	4.35
311.128	4.33
311.502	4.24
311.877	4.47
312.252	4.05
312.626	4.43
313.001	4.1
313.375	4.13
313.75	3.92
314.124	4.11
314.498	4.49
314.873	4.63
315.247	4.07
315.621	4.8
315.995	4.91
316.369	4.49
316.743	5
317.117	4.99
317.491	4.87
317.865	4.15
318.239	4.94
318.613	4.49
318.987	4.59
319.361	4.78
319.734	4.72
320.108	4.43
320.482	4.31
320.855	4.73
321.229	4.86
321.602	4.52
321.976	4.32
322.349	5.46
322.723	5.23
323.096	4.75
323.469	4.83
323.843	4.9
324.216	5.17
324.589	4.71
324.962	5.83
325.335	5.26
325.708	4.51
326.081	5.13
326.454	4.97
326.827	5.24
327.2	5.27
327.573	4.8
327.945	5.25
328.318	4.79
328.691	5.07
329.063	4.94
329.436	5.48
329.809	5.24
330.181	5.48
330.553	5.14
330.926	5.5
331.298	5.47
331.671	5.03
332.043	5.41
332.415	5.09
332.787	4.98
333.159	5.38
333.532	4.93
333.904	5.3
334.276	5.34
334.648	5.32
335.02	5.22
335.391	5.32
335.763	5.17
336.135	5.66
336.507	5.33
336.879	5.4
337.25	5.5
337.622	5.35
337.993	5.64
338.365	4.84
338.736	5.74
339.108	5.81
339.479	5.74
339.851	5.26
340.222	5.36
340.593	5.87
340.964	5.83
341.336	5.54
341.707	5.34
342.078	6.1
342.449	5.31
342.82	5.75
343.191	5.34
343.562	5.63
343.933	5.94
344.303	5.95
344.674	6.12
345.045	5.64
345.416	5.63
345.786	5.85
346.157	6.21
346.527	6.16
346.898	5.88
347.268	5.81
347.639	5.73
348.009	6.27
348.38	6.08
348.75	5.81
349.12	5.5
349.49	6.25
349.861	5.62
350.231	6.41
350.601	5.96
350.971	6.28
351.341	6.01
351.711	5.92
352.081	6.36
352.45	6.03
352.82	5.91
353.19	5.94
353.56	5.99
353.929	6.22
354.299	6.71
354.669	6.55
355.038	6.41
355.408	5.94
355.777	6.13
356.147	6.26
356.516	5.82
356.885	6.2
357.254	6.61
357.624	6.44
357.993	6.42
358.362	6.17
358.731	6.32
359.1	6.3
359.469	6.66
359.838	6.71
360.207	6.54
360.576	6.69
360.945	6.46
361.314	6.9
361.682	6.44
362.051	6.62
362.42	6.55
362.788	6.63
363.157	6.57
363.525	6.85
363.894	6.54
364.262	6.83
364.631	6.89
364.999	6.37
365.367	6.37
365.735	7.07
366.104	6.81
366.472	6.68
366.84	6.55
367.208	7.09
367.576	6.68
367.944	7.05
368.312	7.08
368.68	7
369.048	6.94
369.416	6.85
369.783	7.04
370.151	6.78
370.519	7.3
370.886	7.34
371.254	7.33
371.621	7.19
371.989	7.06
372.356	7.33
372.724	7.02
373.091	7.2
373.458	7.12
373.826	7.49
374.193	7.05
374.56	6.97
374.927	7.67
375.294	6.96
375.661	7.64
376.028	7.51
376.395	7.4
376.762	7.73
377.129	7.6
377.496	7.77
377.863	7.46
378.229	7.44
378.596	7.26
378.963	7.6
379.329	7.33
379.696	7.68
380.062	7.73
380.429	7.6
380.795	7.64
381.161	7.85
381.528	7.64
381.894	7.54
382.26	7.89
382.626	7.63
382.993	7.99
383.359	8.13
383.725	7.82
384.091	7.96
384.457	7.86
384.823	8.12
385.188	8.08
385.554	7.92
385.92	7.78
386.286	8.06
386.651	7.95
387.017	7.98
387.383	8.01
387.748	7.91
388.114	7.84
388.479	8.57
388.845	8.18
389.21	8.58
389.575	8.5
389.94	8.14
390.306	8.38
390.671	8.42
391.036	8.14
391.401	8.61
391.766	8.39
392.131	8.08
392.496	8.51
392.861	8.58
393.226	8.37
393.591	8.44
393.956	8.78
394.32	8.46
394.685	8.82
395.05	8.6
395.414	8.46
395.779	8.64
396.143	8.52
396.508	8.77
396.872	8.55
397.236	8.89
397.601	8.74
397.965	8.89
398.329	8.81
398.694	8.88
399.058	9.04
399.422	8.7
399.786	8.84
400.15	9.03
400.514	8.8
400.878	9
401.242	9.21
401.605	8.93
401.969	9.18
402.333	9.19
402.697	8.97
403.06	9.41
403.424	9.31
403.787	8.94
404.151	9.39
404.514	9.42
404.878	9.16
405.241	9.47
405.604	9.42
405.968	9.18
406.331	9.3
406.694	9.08
407.057	9.33
407.42	9.12
407.783	9.37
408.146	9.51
408.509	9.46
408.872	9.58
409.235	9.58
409.598	9.62
409.961	9.5
410.323	9.64
410.686	9.43
411.049	9.51
411.411	9.44
411.774	9.65
412.136	9.67
412.499	9.78
412.861	9.73
413.223	9.73
413.586	9.89
413.948	9.7
414.31	9.76
414.672	9.93
415.035	9.87
415.397	9.89
415.759	10.11
416.121	9.62
416.483	10
416.845	10.11
417.206	9.91
417.568	9.9
417.93	9.98
418.292	9.98
418.653	10.14
419.015	9.79
419.377	9.94
419.738	9.97
420.1	10.06
420.461	10.01
420.822	9.95
421.184	10.21
421.545	10.11
421.906	10.19
422.267	9.99
422.629	10.08
422.99	9.9
423.351	9.92
423.712	10.13
424.073	10.09
424.434	10.04
424.795	10.27
425.155	10.36
425.516	10.4
425.877	10.23
426.238	10.27
426.598	10.28
426.959	10.26
427.32	10.36
427.68	10.45
428.041	10.44
428.401	10.57
428.761	10.66
429.122	10.65
429.482	10.61
429.842	10.6
430.202	10.9
430.563	10.91
430.923	10.98
431.283	10.68
431.643	11.13
432.003	11
432.363	11.01
432.722	11.17
433.082	11.07
433.442	11.04
433.802	11.09
434.161	11.02
434.521	11.09
434.881	10.96
435.24	10.84
435.6	11.05
435.959	11.01
436.319	11.1
436.678	11.23
437.037	11.14
437.396	11.37
437.756	11.39
438.115	11.13
438.474	11.28
438.833	11.36
439.192	11.55
439.551	11.48
439.91	11.47
440.269	11.29
440.628	11.53
440.987	11.59
441.345	11.37
441.704	11.4
442.063	11.36
442.421	11.41
442.78	11.53
443.138	11.63
443.497	11.59
443.855	11.55
444.214	11.68
444.572	11.78
444.93	11.65
445.288	11.86
445.647	11.68
446.005	11.65
446.363	11.75
446.721	11.85
447.079	11.75
447.437	11.67
447.795	11.77
448.153	11.75
448.51	11.8
448.868	11.68
449.226	11.82
449.584	11.97
449.941	11.97
450.299	12.11
450.656	11.99
451.014	12.27
451.371	12.31
451.729	12.4
452.086	12.31
452.443	12.23
452.801	12.42
453.158	12.42
453.515	12.5
453.872	12.43
454.229	12.43
454.586	12.42
454.943	12.57
455.3	12.59
455.657	12.49
456.014	12.69
456.371	12.59
456.727	12.79
457.084	12.71
457.441	12.75
457.797	12.7
458.154	12.64
458.51	12.88
458.867	12.76
459.223	12.96
459.58	12.97
459.936	12.8
460.292	12.8
460.648	12.88
461.005	12.84
461.361	12.96
461.717	12.84
462.073	12.83
462.429	12.93
462.785	12.93
463.141	13.01
463.496	12.96
463.852	13.23
464.208	13.12
464.564	13.35
464.919	13.39
465.275	13.49
465.631	13.38
465.986	13.43
466.342	13.45
466.697	13.51
467.052	13.47
467.408	13.56
467.763	13.64
468.118	13.88
468.473	13.75
468.829	13.46
469.184	13.55
469.539	13.46
469.894	13.77
470.249	13.76
470.603	13.81
470.958	13.71
471.313	13.79
471.668	13.74
472.023	13.84
472.377	14.09
472.732	14.03
473.086	13.99
473.441	13.99
473.795	14.02
474.15	14.14
474.504	13.96
474.859	14.01
475.213	14.18
475.567	14.06
475.921	14.21
476.275	14.12
476.63	14.28
476.984	14.2
477.338	14.36
477.692	14.48
478.045	14.38
478.399	14.46
478.753	14.48
479.107	14.54
479.461	14.61
479.814	14.47
480.168	14.46
480.521	14.44
480.875	14.63
481.228	14.67
481.582	14.95
481.935	14.72
482.289	14.73
482.642	14.77
482.995	14.61
483.348	14.65
483.701	14.69
484.055	14.47
484.408	14.62
484.761	14.49
485.114	14.23
485.466	14
485.819	13.96
486.172	13.96
486.525	14.08
486.878	14.22
487.23	14.31
487.583	14.51
487.936	14.6
488.288	14.69
488.641	14.59
488.993	14.5
489.345	14.47
489.698	14.47
490.05	14.49
490.402	14.44
490.754	14.62
491.107	14.73
491.459	14.9
491.811	15.08
492.163	15.2
492.515	15.27
492.866	15.1
493.218	14.92
493.57	14.79
493.922	14.88
494.274	14.97
494.625	15.1
494.977	15.3
495.328	15.45
495.68	15.52
496.031	15.72
496.383	15.77
496.734	15.79
497.086	16.13
497.437	16.1
497.788	16
498.139	15.87
498.49	15.76
498.842	15.95
499.193	15.98
499.544	15.9
499.894	15.91
500.245	16.1
500.596	16.03
500.947	16.24
501.298	16.18
501.648	16.29
501.999	16.31
502.35	16.46
502.7	16.35
503.051	16.39
503.401	16.65
503.752	16.59
504.102	16.66
504.452	16.67
504.803	16.66
505.153	16.71
505.503	16.59
505.853	16.73
506.203	16.71
506.553	16.78
506.903	16.7
507.253	16.8
507.603	16.65
507.953	16.87
508.303	16.92
508.652	16.91
509.002	17.06
509.352	17.05
509.701	16.9
510.051	17.02
510.4	16.99
510.75	16.95
511.099	17
511.449	16.93
511.798	17.09
512.147	17.19
512.496	17.11
512.846	17.03
513.195	17.25
513.544	17.14
513.893	17.43
514.242	17.38
514.591	17.27
514.939	17.45
515.288	17.35
515.637	17.47
515.986	17.49
516.334	17.5
516.683	17.74
517.032	17.59
517.38	17.74
517.729	17.76
518.077	17.79
518.426	17.73
518.774	17.76
519.122	17.61
519.47	17.72
519.819	17.6
520.167	17.7
520.515	17.39
520.863	17.55
521.211	17.55
521.559	17.62
521.907	17.57
522.255	18.02
522.602	17.95
522.95	17.98
523.298	18.23
523.645	18.05
523.993	18.15
524.341	18.23
524.688	18.34
525.036	18.22
525.383	18.37
525.73	18.36
526.078	18.55
526.425	18.48
526.772	18.27
527.119	18.16
527.466	18.14
527.814	18.05
528.161	18.08
528.508	18.23
528.854	18.16
529.201	18.16
529.548	18.18
529.895	18.07
530.242	17.78
530.588	17.71
530.935	17.81
531.282	17.94
531.628	17.97
531.975	18.11
532.321	18.35
532.667	18.51
533.014	18.47
533.36	18.63
533.706	18.73
534.052	18.72
534.399	18.69
534.745	18.62
535.091	18.43
535.437	18.48
535.783	18.49
536.129	18.73
536.474	18.75
536.82	18.96
537.166	19.04
537.512	19.25
537.857	19.14
538.203	19.08
538.549	18.97
538.894	19.13
539.239	19.29
539.585	19.26
539.93	19.34
540.276	19.49
540.621	19.47
540.966	19.6
541.311	19.68
541.656	19.78
542.001	19.76
542.346	19.49
542.691	19.5
543.036	19
543.381	19.13
543.726	19.1
544.071	19.26
544.415	19.33
544.76	19.47
545.105	19.48
545.449	19.64
545.794	19.73
546.138	19.83
546.483	19.92
546.827	20.02
547.171	20.09
547.516	20.27
547.86	20.22
548.204	20.18
548.548	20.17
548.892	20.09
549.236	20.35
549.58	20.36
549.924	20.48
550.268	20.44
550.612	20.5
550.956	20.65
551.3	20.73
551.643	21.05
551.987	20.79
552.33	20.85
552.674	21.01
553.017	21.08
553.361	21.29
553.704	21.01
554.048	20.98
554.391	20.98
554.734	21.08
555.077	20.97
555.42	21.06
555.764	21.33
556.107	21.33
556.45	21.3
556.793	21.13
557.135	21.54
557.478	21.3
557.821	21.61
558.164	21.53
558.507	21.56
558.849	21.74
559.192	21.83
559.534	21.34
559.877	21.86
560.219	21.63
560.562	21.99
560.904	21.77
561.246	21.7
561.589	21.86
561.931	21.98
562.273	21.81
562.615	21.91
562.957	21.86
563.299	21.84
563.641	22
563.983	22.1
564.325	21.98
564.667	22.06
565.008	22.01
565.35	22.31
565.692	22.51
566.033	22.34
566.375	22.25
566.716	22.3
567.058	22.29
567.399	22.36
567.741	22.32
568.082	22.29
568.423	22.33
568.764	22.27
569.105	22.48
569.447	22.5
569.788	22.45
570.129	22.72
570.47	22.65
570.811	22.68
571.151	22.73
571.492	22.86
571.833	22.85
572.174	22.84
572.514	22.68
572.855	22.67
573.195	22.71
573.536	22.68
573.876	22.8
574.217	22.9
574.557	22.87
574.898	23
575.238	23.01
575.578	23.02
575.918	23
576.258	23.06
576.598	23.2
576.938	23.11
577.278	22.89
577.618	23.1
577.958	23.17
578.298	23.5
578.638	23.29
578.977	23.47
579.317	23.58
579.657	23.45
579.996	23.64
580.336	23.58
580.675	23.54
581.014	23.95
581.354	23.82
581.693	23.85
582.032	24.06
582.372	23.9
582.711	23.6
583.05	24.02
583.389	23.96
583.728	24.04
584.067	23.86
584.406	23.8
584.745	24.21
585.083	24
585.422	24.09
585.761	24.17
586.1	24.08
586.438	23.96
586.777	24.58
587.115	24.41
587.454	24.29
587.792	24.59
588.13	24.38
588.469	24.37
588.807	24.63
589.145	24.51
589.483	24.36
589.821	24.65
590.159	24.43
590.497	24.87
590.835	24.38
591.173	24.55
591.511	24.8
591.849	24.54
592.187	24.57
592.524	25.02
592.862	24.62
593.2	25.17
593.537	24.75
593.875	24.72
594.212	24.86
594.55	25.19
594.887	25.22
595.224	25.09
595.561	24.75
595.899	25.03
596.236	25.2
596.573	25.27
596.91	25.05
597.247	25.31
597.584	25.04
597.921	25.3
598.258	25.46
598.594	25.06
598.931	24.94
599.268	25.22
599.604	25.25
599.941	25.13
600.277	25.16
600.614	25.36
600.95	25.46
601.287	25.21
601.623	25.68
601.959	25.62
602.296	25.72
602.632	25.28
602.968	25.85
603.304	25.88
603.64	25.76
603.976	25.71
604.312	25.8
604.648	25.55
604.984	25.83
605.319	25.8
605.655	25.7
605.991	25.88
606.326	25.71
606.662	25.81
606.998	25.52
607.333	25.68
607.668	25.86
608.004	26.05
608.339	26.08
608.674	26.45
609.01	25.98
609.345	26.06
609.68	26.21
610.015	26.33
610.35	26.27
610.685	26.59
611.02	26.26
611.355	26.42
611.689	26.28
612.024	26.36
612.359	26.37
612.694	26.22
613.028	26.55
613.363	27.19
613.697	26.44
614.032	26.41
614.366	26.81
614.7	26.73
615.035	26.96
615.369	26.71
615.703	27
616.037	26.86
616.371	27.02
616.705	26.93
617.039	27.34
617.373	27.13
617.707	27.3
618.041	27.1
618.375	26.92
618.709	27.45
619.042	27.32
619.376	27.27
619.71	27.02
620.043	27.38
620.377	27.67
620.71	27.37
621.043	27.26
621.377	27.42
621.71	27.52
622.043	27.4
622.376	27.79
622.709	27.84
623.043	27.6
623.376	27.9
623.709	27.51
624.041	28.04
624.374	27.75
624.707	27.18
625.04	27.87
625.373	28.29
625.705	27.68
626.038	27.87
626.37	27.78
626.703	27.8
627.035	27.6
627.368	27.75
627.7	28.2
628.032	27.83
628.365	28.02
628.697	27.82
629.029	27.93
629.361	28.1
629.693	27.72
630.025	28.59
630.357	27.83
630.689	27.91
631.021	28.37
631.353	27.92
631.684	27.9
632.016	28.65
632.348	28.12
632.679	27.94
633.011	28.38
633.342	28.05
633.674	28.65
634.005	28.66
634.336	28.21
634.668	28.75
634.999	28.63
635.33	28.63
635.661	28.63
635.992	28.39
636.323	28.54
636.654	28.46
636.985	29.03
637.316	28.76
637.647	28.88
637.977	29.43
638.308	28.88
638.639	28.74
638.969	28.86
639.3	29
639.63	28.72
639.961	28.97
640.291	29.18
640.622	29.16
640.952	29.16
641.282	28.89
641.612	29.61
641.943	29.27
642.273	28.96
642.603	29.46
642.933	29.18
643.263	28.88
643.592	29.53
643.922	29.82
644.252	29.02
644.582	29.45
644.911	29.55
645.241	28.98
645.571	29.54
645.9	29.63
646.23	29.41
646.559	29.4
646.888	29.25
647.218	29.74
647.547	29.82
647.876	29.82
648.205	29.61
648.534	29.57
648.863	30.33
649.192	30.13
649.521	29.59
649.85	30.16
650.179	30.3
650.508	30.64
650.837	30.32
651.165	30.67
651.494	29.87
651.822	29.75
652.151	30.25
652.479	29.98
652.808	29.31
653.136	30.17
653.465	30.61
653.793	30.37
654.121	30.14
654.449	29.55
654.777	30.09
655.105	30.06
655.433	30.71
655.761	29.78
656.089	30.48
656.417	30.28
656.745	29.45
657.073	29.84
657.4	30.67
657.728	30.31
658.056	29.87
658.383	30.47
658.711	30.67
659.038	30.73
659.365	31.03
659.693	30.78
660.02	31.03
660.347	30.43
660.674	31.2
661.001	30.16
661.329	30.6
661.656	30.68
661.982	30.52
662.309	30.31
662.636	30.61
662.963	30.5
663.29	30.36
663.616	31.45
663.943	31.14
664.27	31.16
664.596	31.49
664.923	30.81
665.249	31.23
665.576	31.2
665.902	30.92
666.228	30.98
666.554	31.96
666.881	30.73
667.207	31.82
667.533	31.13
667.859	31.18
668.185	32.06
668.511	31.3
668.837	30.79
669.162	31.79
669.488	30.97
669.814	30.99
670.139	31.74
670.465	31.38
670.791	31.5
671.116	32.01
671.442	31.86
671.767	31.45
672.092	31.81
672.418	31.34
672.743	32.59
673.068	31.45
673.393	32.58
673.718	31.83
674.043	31.46
674.368	31.48
674.693	31.81
675.018	31.93
675.343	32.18
675.667	31.68
675.992	32.22
676.317	31.88
