Data from 0041_crown_Reflection__1__111.txt Node

Date: Fri Nov 04 15:44:00 CDT 2022
User: ToomeyLab
Spectrometer: FLMS14357
Trigger mode: 0
Integration Time (sec): 1.000000E-2
Scans to average: 100
Electric dark correction enabled: true
Nonlinearity correction enabled: false
Boxcar width: 0
XAxis mode: Wavelengths
Number of Pixels in Spectrum: 2048
>>>>>Begin Spectral Data<<<<<
189.047	364.63
189.435	364.63
189.823	364.63
190.211	544.32
190.599	1.78
190.987	17.73
191.375	85.06
191.763	62.86
192.151	441.53
192.538	291.91
192.926	52.41
193.314	-50.89
193.702	107.29
194.089	97.37
194.477	-33.36
194.864	92.56
195.252	146
195.639	-177.84
196.027	-47.15
196.414	184.71
196.801	139
197.189	577.54
197.576	105.32
197.963	-194.88
198.351	7.23
198.738	27.01
199.125	5.74
199.512	4.85
199.899	3.96
200.286	9.57
200.673	6.95
201.06	-8.08
201.447	-67.04
201.833	17.06
202.22	12.54
202.607	-40.79
202.994	40.65
203.38	36.52
203.767	12.18
204.154	14.59
204.54	-31.63
204.927	-12.87
205.313	7.53
205.699	17.51
206.086	-49.27
206.472	-18.67
206.858	-16.02
207.245	-0.32
207.631	-4.3
208.017	0.36
208.403	-17.43
208.789	8.75
209.175	2.46
209.561	-35.76
209.947	-40.37
210.333	-3.7
210.719	5.32
211.105	-87.14
211.491	-6.66
211.876	-4.26
212.262	15.89
212.648	-9.15
213.034	21.18
213.419	9.31
213.805	-29.18
214.19	-23.12
214.576	-4.66
214.961	20.17
215.346	-10.05
215.732	-6.13
216.117	-39.1
216.502	-18.02
216.888	0.97
217.273	21.36
217.658	-18.69
218.043	-13.41
218.428	-4.54
218.813	-7.93
219.198	-10.18
219.583	-29.83
219.968	-3.63
220.353	-38.15
220.738	-32.66
221.122	-7.66
221.507	6.36
221.892	-21.27
222.276	-14.26
222.661	-3.61
223.046	13.41
223.43	1.92
223.815	-0.51
224.199	6.93
224.583	-2.2
224.968	-3.61
225.352	10.79
225.736	-2.19
226.121	0.98
226.505	3.84
226.889	-3.56
227.273	-0.64
227.657	0.63
228.041	5.93
228.425	1.53
228.809	-1.67
229.193	4.02
229.577	2.22
229.961	3.66
230.344	3.26
230.728	2.92
231.112	2.57
231.495	2.37
231.879	3.7
232.263	1.96
232.646	1.01
233.03	0.54
233.413	0.34
233.797	1.57
234.18	1.88
234.563	1.76
234.946	2.08
235.33	3.71
235.713	2.66
236.096	3.93
236.479	1.25
236.862	1.84
237.245	2.74
237.628	1.83
238.011	-0.63
238.394	4.34
238.777	3.28
239.16	3.62
239.543	1.7
239.925	2.51
240.308	3.84
240.691	2.23
241.073	1.24
241.456	1.65
241.838	1.65
242.221	2.78
242.603	2.37
242.986	2.17
243.368	2.71
243.75	3.37
244.133	2.86
244.515	2.78
244.897	2.75
245.279	2.78
245.661	3.54
246.043	3.44
246.425	2.12
246.807	3.18
247.189	2.57
247.571	3.48
247.953	2.77
248.335	2.69
248.717	2.83
249.098	2.54
249.48	2.77
249.862	2.98
250.243	2.74
250.625	2.62
251.006	2.85
251.388	2.55
251.769	1.97
252.151	2.52
252.532	2.63
252.913	2.17
253.295	2.75
253.676	2.24
254.057	2.6
254.438	2.45
254.819	2.89
255.2	2.65
255.581	2.96
255.962	2.84
256.343	2.51
256.724	2.51
257.105	2.87
257.486	3.66
257.867	3.23
258.247	2.73
258.628	3.18
259.009	2.19
259.389	2.35
259.77	2.8
260.15	2.34
260.531	2.35
260.911	2.45
261.292	2.55
261.672	2.49
262.052	2.6
262.432	2.61
262.813	2.51
263.193	2.29
263.573	2.01
263.953	1.98
264.333	2.17
264.713	3.01
265.093	2.26
265.473	2.98
265.853	1.42
266.233	3.1
266.612	2.82
266.992	2.29
267.372	1.8
267.752	2.42
268.131	2.82
268.511	2.72
268.89	2.72
269.27	2.57
269.649	2.73
270.029	1.81
270.408	2.05
270.787	2.76
271.167	2.59
271.546	3.3
271.925	2.17
272.304	2.52
272.683	2.09
273.062	2.15
273.441	2.41
273.82	2.36
274.199	2.31
274.578	2.12
274.957	2.27
275.336	2.12
275.715	2.45
276.093	2.08
276.472	2.21
276.851	1.8
277.229	2.2
277.608	2.49
277.986	2.57
278.365	2.52
278.743	2.67
279.122	2.37
279.5	2.22
279.878	2.74
280.257	2.33
280.635	2.41
281.013	2.37
281.391	2.25
281.769	1.9
282.147	2.07
282.525	3
282.903	2.1
283.281	2.7
283.659	2.12
284.037	2.07
284.415	2.23
284.792	2.24
285.17	1.68
285.548	2.75
285.925	1.87
286.303	2.5
286.68	2.57
287.058	2.37
287.435	2.17
287.813	2.19
288.19	2.35
288.567	2.27
288.945	2.24
289.322	2.66
289.699	2.53
290.076	2.53
290.453	2.51
290.83	1.99
291.207	2.02
291.584	2.32
291.961	2.35
292.338	2.62
292.715	2.31
293.092	2.63
293.469	2.12
293.845	2.24
294.222	2.32
294.599	2.09
294.975	2.04
295.352	2.18
295.728	2.67
296.105	2.37
296.481	2.03
296.858	2.05
297.234	2.7
297.61	2.34
297.986	1.65
298.363	1.71
298.739	2.39
299.115	2.35
299.491	2.37
299.867	2.19
300.243	2.31
300.619	2.33
300.995	2.28
301.371	2.66
301.746	2.13
302.122	2.09
302.498	2.1
302.874	2.42
303.249	1.8
303.625	2.05
304	2.07
304.376	2.03
304.751	2.21
305.127	1.71
305.502	2.42
305.878	2.18
306.253	2.25
306.628	2.09
307.003	1.78
307.378	2.04
307.754	1.75
308.129	1.78
308.504	2.03
308.879	2.15
309.254	1.95
309.629	2.52
310.003	2.45
310.378	1.91
310.753	2.3
311.128	1.88
311.502	2.02
311.877	2.36
312.252	2.37
312.626	2.09
313.001	2.4
313.375	2.14
313.75	2
314.124	1.75
314.498	2.49
314.873	2.43
315.247	2.42
315.621	2.62
315.995	2.16
316.369	2.11
316.743	2.27
317.117	2.34
317.491	1.88
317.865	1.9
318.239	1.81
318.613	2.6
318.987	2.51
319.361	2.68
319.734	2.08
320.108	1.55
320.482	1.83
320.855	2.05
321.229	2.09
321.602	2.25
321.976	1.99
322.349	2.95
322.723	1.6
323.096	2.52
323.469	1.52
323.843	2.04
324.216	2.35
324.589	2.12
324.962	2.47
325.335	2.04
325.708	1.39
326.081	1.76
326.454	1.79
326.827	2.21
327.2	1.85
327.573	1.98
327.945	2.02
328.318	1.81
328.691	1.76
329.063	2.05
329.436	2.2
329.809	1.89
330.181	2.2
330.553	1.97
330.926	2.08
331.298	2.54
331.671	1.79
332.043	1.89
332.415	2.07
332.787	1.86
333.159	1.61
333.532	1.35
333.904	2.05
334.276	2.08
334.648	2.43
335.02	1.61
335.391	2.15
335.763	2.27
336.135	2.01
336.507	2.2
336.879	2.09
337.25	2.25
337.622	2.33
337.993	2.16
338.365	1.67
338.736	2.26
339.108	1.97
339.479	2.13
339.851	1.4
340.222	2
340.593	2.33
340.964	2.36
341.336	2.02
341.707	1.63
342.078	2.38
342.449	2.24
342.82	2.06
343.191	1.83
343.562	2.05
343.933	2.32
344.303	2.4
344.674	2.19
345.045	1.76
345.416	1.57
345.786	2.16
346.157	2.08
346.527	2.2
346.898	2.16
347.268	1.81
347.639	2.07
348.009	2.35
348.38	2.07
348.75	1.96
349.12	2.12
349.49	1.96
349.861	2.11
350.231	2.38
350.601	1.92
350.971	1.7
351.341	2.26
351.711	2.22
352.081	2.31
352.45	1.89
352.82	2.07
353.19	1.99
353.56	2.13
353.929	1.81
354.299	2.41
354.669	2.52
355.038	2.63
355.408	1.98
355.777	2.27
356.147	2.26
356.516	1.82
356.885	1.9
357.254	2.22
357.624	2.4
357.993	2.18
358.362	2.21
358.731	2.21
359.1	2.4
359.469	2.23
359.838	2.36
360.207	2.11
360.576	2.12
360.945	2.61
361.314	2.29
361.682	2.05
362.051	2.27
362.42	2.3
362.788	2.24
363.157	2.39
363.525	2.22
363.894	2.34
364.262	2.37
364.631	2.3
364.999	2.42
365.367	2.21
365.735	2.34
366.104	2.15
366.472	2.43
366.84	2.04
367.208	2.3
367.576	2.04
367.944	2.53
368.312	2.39
368.68	2.3
369.048	2.18
369.416	2.35
369.783	1.93
370.151	1.92
370.519	2.96
370.886	2.13
371.254	2.29
371.621	2.46
371.989	2.55
372.356	2.14
372.724	2.3
373.091	2.26
373.458	2.3
373.826	2.5
374.193	2.39
374.56	1.83
374.927	2.52
375.294	2.07
375.661	2.52
376.028	2.31
376.395	2.27
376.762	2.48
377.129	2.06
377.496	2.4
377.863	2.36
378.229	2.49
378.596	2.38
378.963	2.6
379.329	2.06
379.696	2.3
380.062	2.75
380.429	2.16
380.795	2.27
381.161	2.29
381.528	2.44
381.894	2.32
382.26	2.5
382.626	2.24
382.993	2.5
383.359	2.65
383.725	2.52
384.091	2.38
384.457	2.49
384.823	2.23
385.188	2.54
385.554	2.66
385.92	2.44
386.286	2.57
386.651	2.54
387.017	2.46
387.383	2.35
387.748	2.12
388.114	2.22
388.479	3.04
388.845	2.38
389.21	2.67
389.575	2.73
389.94	2.42
390.306	2.62
390.671	2.69
391.036	2.18
391.401	2.49
391.766	2.28
392.131	2.18
392.496	2.35
392.861	2.33
393.226	2.18
393.591	2.48
393.956	2.6
394.32	2.4
394.685	2.67
395.05	2.64
395.414	2.7
395.779	2.51
396.143	2.25
396.508	2.61
396.872	2.5
397.236	2.61
397.601	2.37
397.965	2.31
398.329	2.56
398.694	2.83
399.058	2.46
399.422	2.5
399.786	2.3
400.15	2.57
400.514	2.34
400.878	2.37
401.242	2.5
401.605	2.44
401.969	2.77
402.333	2.75
402.697	2.58
403.06	2.66
403.424	2.53
403.787	2.46
404.151	2.63
404.514	2.59
404.878	2.56
405.241	2.64
405.604	2.63
405.968	2.36
406.331	2.55
406.694	2.46
407.057	2.49
407.42	2.62
407.783	2.24
408.146	2.6
408.509	2.38
408.872	2.63
409.235	2.68
409.598	2.6
409.961	2.59
410.323	2.72
410.686	2.41
411.049	2.82
411.411	2.51
411.774	2.67
412.136	2.72
412.499	2.9
412.861	2.79
413.223	2.64
413.586	2.65
413.948	2.52
414.31	2.52
414.672	2.7
415.035	2.81
415.397	2.65
415.759	2.6
416.121	2.58
416.483	2.63
416.845	2.56
417.206	2.47
417.568	2.72
417.93	2.74
418.292	2.5
418.653	2.71
419.015	2.53
419.377	2.6
419.738	2.54
420.1	2.85
420.461	2.61
420.822	2.64
421.184	2.73
421.545	2.62
421.906	2.58
422.267	2.55
422.629	2.66
422.99	2.47
423.351	2.39
423.712	2.55
424.073	2.77
424.434	2.59
424.795	2.56
425.155	2.62
425.516	2.62
425.877	2.46
426.238	2.62
426.598	2.63
426.959	2.64
427.32	2.57
427.68	2.68
428.041	2.55
428.401	2.71
428.761	2.72
429.122	2.7
429.482	2.8
429.842	2.57
430.202	2.82
430.563	2.75
430.923	2.82
431.283	2.54
431.643	2.87
432.003	2.83
432.363	2.69
432.722	2.77
433.082	2.67
433.442	2.78
433.802	2.66
434.161	2.67
434.521	2.6
434.881	2.64
435.24	2.54
435.6	2.81
435.959	2.57
436.319	2.69
436.678	2.74
437.037	2.86
437.396	2.83
437.756	2.77
438.115	2.62
438.474	2.77
438.833	2.83
439.192	2.73
439.551	2.8
439.91	2.75
440.269	2.61
440.628	2.8
440.987	2.86
441.345	2.66
441.704	2.67
442.063	2.62
442.421	2.68
442.78	2.73
443.138	2.74
443.497	2.72
443.855	2.68
444.214	2.71
444.572	2.72
444.93	2.73
445.288	2.75
445.647	2.59
446.005	2.7
446.363	2.76
446.721	2.78
447.079	2.77
447.437	2.7
447.795	2.63
448.153	2.6
448.51	2.67
448.868	2.71
449.226	2.67
449.584	2.7
449.941	2.79
450.299	2.87
450.656	2.73
451.014	2.86
451.371	2.81
451.729	2.82
452.086	2.66
452.443	2.77
452.801	2.83
453.158	2.83
453.515	2.95
453.872	2.78
454.229	2.85
454.586	2.76
454.943	2.94
455.3	2.74
455.657	2.6
456.014	2.69
456.371	2.77
456.727	2.83
457.084	2.81
457.441	2.86
457.797	2.82
458.154	2.92
458.51	2.91
458.867	2.67
459.223	2.6
459.58	3
459.936	2.69
460.292	2.8
460.648	2.81
461.005	2.59
461.361	2.75
461.717	2.74
462.073	2.75
462.429	2.9
462.785	2.82
463.141	2.84
463.496	2.7
463.852	2.83
464.208	2.79
464.564	2.74
464.919	2.91
465.275	2.84
465.631	2.83
465.986	2.88
466.342	2.81
466.697	2.82
467.052	2.86
467.408	2.74
467.763	2.87
468.118	2.9
468.473	2.77
468.829	2.73
469.184	2.82
469.539	2.65
469.894	3.01
470.249	2.87
470.603	2.94
470.958	2.81
471.313	2.73
471.668	2.8
472.023	2.65
472.377	2.92
472.732	2.8
473.086	2.91
473.441	2.78
473.795	2.92
474.15	2.76
474.504	3.01
474.859	2.79
475.213	2.81
475.567	2.62
475.921	2.68
476.275	2.92
476.63	2.86
476.984	2.87
477.338	2.97
477.692	3.09
478.045	2.77
478.399	2.74
478.753	2.84
479.107	2.81
479.461	2.88
479.814	2.99
480.168	2.86
480.521	2.66
480.875	2.82
481.228	2.86
481.582	2.8
481.935	2.98
482.289	2.79
482.642	2.89
482.995	2.9
483.348	2.79
483.701	2.82
484.055	2.74
484.408	2.81
484.761	2.75
485.114	2.68
485.466	2.64
485.819	2.59
486.172	2.62
486.525	2.68
486.878	2.8
487.23	2.84
487.583	2.87
487.936	2.89
488.288	2.86
488.641	2.76
488.993	2.71
489.345	2.7
489.698	2.67
490.05	2.74
490.402	2.7
490.754	2.77
491.107	2.86
491.459	2.9
491.811	2.81
492.163	2.88
492.515	2.85
492.866	2.73
493.218	2.75
493.57	2.72
493.922	2.74
494.274	2.77
494.625	2.86
494.977	2.91
495.328	2.92
495.68	2.89
496.031	2.85
496.383	2.96
496.734	2.98
497.086	3.03
497.437	3.1
497.788	3.06
498.139	2.91
498.49	2.8
498.842	2.94
499.193	2.88
499.544	2.82
499.894	2.83
500.245	2.88
500.596	2.88
500.947	2.91
501.298	2.9
501.648	3.01
501.999	3.09
502.35	3.08
502.7	2.89
503.051	2.99
503.401	2.98
503.752	2.97
504.102	2.97
504.452	2.88
504.803	2.91
505.153	2.93
505.503	2.94
505.853	3
506.203	2.9
506.553	3.03
506.903	2.86
507.253	3
507.603	2.81
507.953	2.91
508.303	2.96
508.652	2.93
509.002	3
509.352	2.93
509.701	2.93
510.051	2.9
510.4	2.94
510.75	2.91
511.099	3
511.449	2.9
511.798	2.84
512.147	2.94
512.496	2.87
512.846	2.78
513.195	2.96
513.544	2.87
513.893	3
514.242	2.95
514.591	2.91
514.939	3.02
515.288	2.96
515.637	2.99
515.986	2.9
516.334	2.92
516.683	2.97
517.032	2.95
517.38	3.07
517.729	2.93
518.077	2.97
518.426	3.01
518.774	3.01
519.122	2.92
519.47	2.93
519.819	2.86
520.167	2.88
520.515	2.87
520.863	2.85
521.211	2.86
521.559	2.94
521.907	3
522.255	2.95
522.602	3.03
522.95	2.9
523.298	3.01
523.645	3.01
523.993	2.94
524.341	2.96
524.688	3.04
525.036	2.89
525.383	3.05
525.73	3.04
526.078	3
526.425	2.94
526.772	2.83
527.119	2.94
527.466	2.91
527.814	2.87
528.161	2.85
528.508	2.95
528.854	2.93
529.201	2.94
529.548	2.87
529.895	2.78
530.242	2.71
530.588	2.68
530.935	2.73
531.282	2.81
531.628	2.78
531.975	2.94
532.321	3.01
532.667	2.93
533.014	2.95
533.36	2.95
533.706	3.03
534.052	2.98
534.399	2.9
534.745	2.87
535.091	2.88
535.437	2.8
535.783	2.82
536.129	2.93
536.474	2.97
536.82	2.91
537.166	2.99
537.512	3.02
537.857	2.97
538.203	2.9
538.549	2.78
538.894	2.91
539.239	3.02
539.585	2.92
539.93	3
540.276	2.95
540.621	3.08
540.966	3.06
541.311	2.87
541.656	2.98
542.001	2.99
542.346	2.93
542.691	2.88
543.036	2.82
543.381	2.77
543.726	2.8
544.071	2.86
544.415	2.94
544.76	2.92
545.105	2.93
545.449	2.96
545.794	3
546.138	2.89
546.483	3.04
546.827	3.02
547.171	2.95
547.516	2.93
547.86	2.91
548.204	3.1
548.548	2.96
548.892	2.92
549.236	2.96
549.58	3.02
549.924	2.99
550.268	3.06
550.612	2.9
550.956	3.05
551.3	2.93
551.643	3.12
551.987	2.92
552.33	3
552.674	3.22
553.017	3.26
553.361	3.13
553.704	2.94
554.048	2.99
554.391	2.79
554.734	2.94
555.077	2.94
555.42	3.04
555.764	3.13
556.107	3.12
556.45	3.05
556.793	3.07
557.135	2.99
557.478	2.94
557.821	3.14
558.164	2.99
558.507	3.04
558.849	3.29
559.192	3.24
559.534	2.89
559.877	3.05
560.219	3.01
560.562	3.1
560.904	3.12
561.246	3.02
561.589	3.09
561.931	2.88
562.273	2.96
562.615	2.95
562.957	2.91
563.299	3.04
563.641	3.07
563.983	2.93
564.325	2.91
564.667	2.92
565.008	2.91
565.35	3.04
565.692	3.33
566.033	3.15
566.375	3.01
566.716	3.05
567.058	3.07
567.399	2.93
567.741	3.05
568.082	3.2
568.423	2.95
568.764	2.92
569.105	2.99
569.447	3.14
569.788	2.96
570.129	3.19
570.47	3.19
570.811	3.19
571.151	3.05
571.492	3.09
571.833	3.07
572.174	3.12
572.514	2.94
572.855	2.75
573.195	3.08
573.536	3.02
573.876	3.08
574.217	3.04
574.557	2.86
574.898	3
575.238	2.86
575.578	3.08
575.918	3.13
576.258	3.08
576.598	3.16
576.938	3.11
577.278	2.86
577.618	2.89
577.958	3.11
578.298	3.13
578.638	2.99
578.977	3.16
579.317	3.08
579.657	3.26
579.996	3.19
580.336	2.87
580.675	2.95
581.014	3.04
581.354	2.86
581.693	3.16
582.032	2.94
582.372	2.91
582.711	2.82
583.05	3.23
583.389	3.07
583.728	3.22
584.067	3.07
584.406	2.55
584.745	3.14
585.083	2.89
585.422	3.08
585.761	3.16
586.1	2.78
586.438	2.95
586.777	2.92
587.115	3.03
587.454	3.2
587.792	3.32
588.13	3.04
588.469	3.19
588.807	3.27
589.145	3.06
589.483	2.68
589.821	3.05
590.159	2.72
590.497	3.31
590.835	3.14
591.173	2.94
591.511	3.14
591.849	3.25
592.187	2.99
592.524	2.85
592.862	3.2
593.2	3.03
593.537	2.97
593.875	2.99
594.212	2.96
594.55	2.84
594.887	3.07
595.224	3.33
595.561	2.68
595.899	2.93
596.236	3.16
596.573	3.11
596.91	2.82
597.247	2.95
597.584	2.79
597.921	3.19
598.258	3.03
598.594	2.62
598.931	2.98
599.268	3.1
599.604	2.94
599.941	3.01
600.277	3.1
600.614	3.22
600.95	3.03
601.287	2.86
601.623	3.14
601.959	3.24
602.296	3.19
602.632	2.93
602.968	3.05
603.304	2.87
603.64	3.12
603.976	2.77
604.312	3.12
604.648	2.78
604.984	2.98
605.319	2.99
605.655	2.79
605.991	2.95
606.326	2.89
606.662	2.94
606.998	2.89
607.333	2.99
607.668	3.07
608.004	2.96
608.339	3.14
608.674	3.08
609.01	2.96
609.345	3.1
609.68	3.02
610.015	2.88
610.35	2.87
610.685	3.09
611.02	2.82
611.355	2.82
611.689	3.16
612.024	3.06
612.359	2.8
612.694	3.1
613.028	3.17
613.363	3.2
613.697	3.22
614.032	2.79
614.366	2.99
614.7	2.93
615.035	3.09
615.369	3.02
615.703	3.44
616.037	3.11
616.371	3.28
616.705	2.98
617.039	3.09
617.373	3.14
617.707	3.39
618.041	3.03
618.375	3.07
618.709	3.21
619.042	3.23
619.376	3.14
619.71	3.22
620.043	3.22
620.377	3.21
620.71	3.21
621.043	3.11
621.377	3.16
621.71	3.22
622.043	3.06
622.376	3.19
622.709	3.26
623.043	3.13
623.376	3.54
623.709	2.99
624.041	3.04
624.374	2.74
624.707	2.62
625.04	3.24
625.373	3.21
625.705	3.03
626.038	3.16
626.37	3.15
626.703	3.18
627.035	2.88
627.368	3.04
627.7	2.88
628.032	2.85
628.365	3.18
628.697	2.97
629.029	2.89
629.361	2.86
629.693	3.03
630.025	3.19
630.357	2.96
630.689	3.31
631.021	3.06
631.353	2.6
631.684	2.97
632.016	2.96
632.348	3.05
632.679	3.18
633.011	3.19
633.342	3.07
633.674	2.47
634.005	3.2
634.336	3.19
634.668	3.31
634.999	3.29
635.33	2.84
635.661	3.26
635.992	2.98
636.323	2.74
636.654	2.68
636.985	2.9
637.316	2.91
637.647	2.81
637.977	3.46
638.308	3.42
638.639	3.1
638.969	2.88
639.3	3.3
639.63	2.84
639.961	3.11
640.291	3.04
640.622	2.91
640.952	3.13
641.282	3.32
641.612	3.35
641.943	2.85
642.273	2.91
642.603	2.93
642.933	3.09
643.263	2.76
643.592	2.93
643.922	3.57
644.252	3.06
644.582	3.1
644.911	3.18
645.241	2.74
645.571	3.17
645.9	2.65
646.23	2.93
646.559	3.28
646.888	2.92
647.218	3.02
647.547	2.86
647.876	3.09
648.205	2.64
648.534	3.19
648.863	3.46
649.192	3.38
649.521	3.01
649.85	3.51
650.179	3.02
650.508	3.34
650.837	3.29
651.165	3.42
651.494	3.04
651.822	2.82
652.151	3.21
652.479	3.27
652.808	2.96
653.136	3.35
653.465	3.02
653.793	3.13
654.121	2.78
654.449	2.65
654.777	3.09
655.105	2.7
655.433	2.9
655.761	2.9
656.089	2.82
656.417	3.05
656.745	2.57
657.073	2.63
657.4	3.15
657.728	2.94
658.056	2.89
658.383	2.85
658.711	2.86
659.038	3.22
659.365	3.53
659.693	3.14
660.02	3.43
660.347	2.88
660.674	3.03
661.001	3.28
661.329	2.95
661.656	3.04
661.982	2.55
662.309	3.02
662.636	2.74
662.963	2.9
663.29	2.69
663.616	3.36
663.943	3.21
664.27	3.52
664.596	3
664.923	3.27
665.249	3.33
665.576	3.08
665.902	2.47
666.228	2.36
666.554	3.61
666.881	2.8
667.207	3.75
667.533	3.16
667.859	2.63
668.185	3.09
668.511	2.88
668.837	2.88
669.162	3.41
669.488	2.7
669.814	2.95
670.139	2.84
670.465	3.49
670.791	3.06
671.116	2.85
671.442	2.92
671.767	3.02
672.092	2.46
672.418	3.4
672.743	3.46
673.068	2.91
673.393	3.07
673.718	3.38
674.043	2.92
674.368	2.5
674.693	2.79
675.018	3.32
675.343	3.63
675.667	3.08
675.992	3.66
676.317	3.59
676.641	3.39
676.966	2.49
677.29	3.55
677.615	3.53
677.939	3.32
678.264	3.51
678.588	3.01
678.912	3.53
679.236	3.72
679.56	3.66
679.885	3.5
680.209	3.25
680.532	2.91
680.856	3.5
681.18	2.78
681.504	3.17
681.828	3.12
682.152	3.56
682.475	3.04
682.799	3.31
683.122	3.28
683.446	2.69
683.769	2.6
684.093	3.72
684.416	2.97
684.739	2.75
685.062	3.91
685.386	2.39
685.709	3.13
686.032	3.32
686.355	4.03
686.678	3.72
687.001	3.16
687.324	2.85
687.646	3.46
687.969	2.83
688.292	3.12
688.614	3.13
688.937	2.8
689.26	2.61
689.582	3.59
689.904	3.56
690.227	3.09
690.549	2.87
690.871	3.29
691.194	3.24
691.516	2.57
691.838	3.01
692.16	3.94
692.482	2.79
692.804	2.85
