Data from 0041_forehead_Reflection__4__119.txt Node

Date: Fri Nov 04 15:47:35 CDT 2022
User: ToomeyLab
Spectrometer: FLMS14357
Trigger mode: 0
Integration Time (sec): 1.000000E-2
Scans to average: 100
Electric dark correction enabled: true
Nonlinearity correction enabled: false
Boxcar width: 0
XAxis mode: Wavelengths
Number of Pixels in Spectrum: 2048
>>>>>Begin Spectral Data<<<<<
189.047	-47.76
189.435	-47.76
189.823	-47.76
190.211	-313.32
190.599	-130.82
190.987	-217.17
191.375	118.49
191.763	-13.33
192.151	69.43
192.538	-138.21
192.926	261.65
193.314	51.37
193.702	106.09
194.089	65.41
194.477	-2.59
194.864	70.95
195.252	131.2
195.639	-476.77
196.027	-15.47
196.414	755.15
196.801	85.94
197.189	-610.87
197.576	102.14
197.963	40.14
198.351	-28.81
198.738	12.43
199.125	-4.64
199.512	-51.96
199.899	-14.12
200.286	-7.71
200.673	12.06
201.06	1.1
201.447	20.24
201.833	6.1
202.22	12.31
202.607	-13.48
202.994	64.88
203.38	53.77
203.767	23.92
204.154	30.56
204.54	26.22
204.927	30.66
205.313	3.77
205.699	18.66
206.086	36.45
206.472	18.41
206.858	11.72
207.245	3.45
207.631	31.78
208.017	14.95
208.403	18
208.789	53.51
209.175	14.74
209.561	-44.53
209.947	2.75
210.333	31.18
210.719	18.68
211.105	-53.93
211.491	-3.66
211.876	-26.25
212.262	5.54
212.648	-11.8
213.034	14.87
213.419	4.08
213.805	1.01
214.19	27.47
214.576	-4.61
214.961	13.72
215.346	-6.4
215.732	5.47
216.117	1.61
216.502	18.98
216.888	-2.24
217.273	-15.47
217.658	38.91
218.043	14.57
218.428	21.74
218.813	-9.52
219.198	5.76
219.583	-4.06
219.968	22.37
220.353	-11.25
220.738	-32.96
221.122	4.45
221.507	5.88
221.892	-0.18
222.276	9.19
222.661	13.19
223.046	-6.52
223.43	0.88
223.815	-5.65
224.199	7.08
224.583	8.95
224.968	2.25
225.352	-0.89
225.736	-10.6
226.121	-13.23
226.505	6.58
226.889	0.98
227.273	2.24
227.657	1.69
228.041	1.58
228.425	6.86
228.809	3.49
229.193	5.81
229.577	2.25
229.961	4.69
230.344	3.53
230.728	3.29
231.112	3.01
231.495	2.71
231.879	2.87
232.263	2.13
232.646	4.58
233.03	1.81
233.413	1.46
233.797	2
234.18	4.41
234.563	2.46
234.946	2.88
235.33	5.75
235.713	2.8
236.096	3.15
236.479	2.44
236.862	2.38
237.245	2.48
237.628	3.65
238.011	2.59
238.394	4.53
238.777	3.39
239.16	3.51
239.543	2.05
239.925	3.01
240.308	2.1
240.691	3.22
241.073	2.93
241.456	3.86
241.838	3.38
242.221	2.58
242.603	3.32
242.986	2.76
243.368	3.09
243.75	3.03
244.133	3.46
244.515	3.37
244.897	3.37
245.279	3.14
245.661	3.73
246.043	3.94
246.425	3.22
246.807	3.78
247.189	3.75
247.571	3.87
247.953	2.91
248.335	2.91
248.717	2.91
249.098	3.08
249.48	3.12
249.862	3.29
250.243	3.21
250.625	2.73
251.006	3.52
251.388	4.02
251.769	3.85
252.151	3.33
252.532	2.74
252.913	4.29
253.295	3.79
253.676	3.07
254.057	3.15
254.438	3.72
254.819	3.23
255.2	2.61
255.581	3.89
255.962	3.89
256.343	3.38
256.724	4.21
257.105	3.12
257.486	3.99
257.867	5.19
258.247	3.73
258.628	2.92
259.009	3.03
259.389	2.78
259.77	3.71
260.15	3.53
260.531	3.74
260.911	3.05
261.292	2.96
261.672	3.14
262.052	3.17
262.432	3.33
262.813	2.97
263.193	2.42
263.573	3.29
263.953	3.31
264.333	3.74
264.713	3.46
265.093	3.09
265.473	3.6
265.853	2.46
266.233	4.26
266.612	4.49
266.992	4.7
267.372	2.26
267.752	3.3
268.131	3.49
268.511	3.16
268.89	3.61
269.27	3.23
269.649	3.5
270.029	3.16
270.408	3.23
270.787	3.81
271.167	3.02
271.546	4
271.925	3.7
272.304	2.91
272.683	3.33
273.062	3.33
273.441	3.17
273.82	3.08
274.199	3.15
274.578	3.12
274.957	2.83
275.336	2.78
275.715	3
276.093	3.16
276.472	2.7
276.851	2.75
277.229	2.93
277.608	2.99
277.986	3.25
278.365	3.2
278.743	3.33
279.122	2.66
279.5	3.25
279.878	2.91
280.257	3.39
280.635	2.44
281.013	3.35
281.391	3.47
281.769	3.53
282.147	2.74
282.525	3.35
282.903	3.15
283.281	3.73
283.659	3.16
284.037	2.75
284.415	2.97
284.792	3.57
285.17	2.89
285.548	3.43
285.925	3.18
286.303	3.42
286.68	3.45
287.058	3.35
287.435	3.06
287.813	2.82
288.19	3.03
288.567	3.07
288.945	3.19
289.322	3.17
289.699	3.08
290.076	3.32
290.453	3.07
290.83	3.2
291.207	3.16
291.584	3.45
291.961	3.3
292.338	3.35
292.715	3.33
293.092	3.3
293.469	3.43
293.845	3.15
294.222	3.2
294.599	3.39
294.975	3.29
295.352	3.3
295.728	3.55
296.105	3.4
296.481	3.78
296.858	3.15
297.234	4.08
297.61	3.7
297.986	3.69
298.363	3.22
298.739	3.5
299.115	3.58
299.491	3.56
299.867	3.68
300.243	3.63
300.619	3.78
300.995	4.14
301.371	4.3
301.746	3.77
302.122	3.84
302.498	4.13
302.874	3.76
303.249	3.7
303.625	3.86
304	4.18
304.376	3.6
304.751	4
305.127	3.65
305.502	4.16
305.878	4.14
306.253	4.15
306.628	3.79
307.003	4.22
307.378	4.01
307.754	3.96
308.129	3.83
308.504	3.83
308.879	3.95
309.254	4.22
309.629	4.3
310.003	4.64
310.378	4.22
310.753	4.18
311.128	4.11
311.502	3.82
311.877	4.24
312.252	3.9
312.626	4.3
313.001	4.37
313.375	4.53
313.75	4.2
314.124	4.14
314.498	4.33
314.873	4.21
315.247	4.5
315.621	4.36
315.995	4.59
316.369	4.1
316.743	5.19
317.117	4.75
317.491	4.81
317.865	4.28
318.239	4.7
318.613	4.61
318.987	4.78
319.361	4.47
319.734	4.88
320.108	4.93
320.482	4.13
320.855	4.72
321.229	4.99
321.602	4.59
321.976	4.77
322.349	5.51
322.723	5.11
323.096	5
323.469	4.58
323.843	5.11
324.216	4.9
324.589	4.81
324.962	5.62
325.335	4.97
325.708	4.46
326.081	4.84
326.454	4.87
326.827	5.21
327.2	4.99
327.573	4.71
327.945	4.87
328.318	4.57
328.691	5.04
329.063	5.27
329.436	5.3
329.809	5.31
330.181	5.09
330.553	5
330.926	4.95
331.298	5.01
331.671	5.57
332.043	5.14
332.415	4.96
332.787	4.62
333.159	4.78
333.532	4.9
333.904	5.37
334.276	4.97
334.648	5.38
335.02	4.74
335.391	5.28
335.763	5.25
336.135	5.29
336.507	5.46
336.879	5.07
337.25	5.16
337.622	5.64
337.993	5.77
338.365	5.15
338.736	5.81
339.108	6.28
339.479	5.72
339.851	5.23
340.222	5.2
340.593	5.82
340.964	5.53
341.336	5.19
341.707	5.17
342.078	5.39
342.449	5.5
342.82	5.53
343.191	5.23
343.562	5.75
343.933	5.77
344.303	5.49
344.674	5.8
345.045	5.22
345.416	5.42
345.786	5.71
346.157	5.48
346.527	5.78
346.898	5.92
347.268	5.58
347.639	5.55
348.009	6.09
348.38	5.92
348.75	5.55
349.12	5.71
349.49	6.21
349.861	5.25
350.231	6.31
350.601	5.68
350.971	5.77
351.341	5.98
351.711	6.1
352.081	5.77
352.45	5.67
352.82	5.92
353.19	5.91
353.56	6.01
353.929	5.93
354.299	6.6
354.669	6.05
355.038	6.33
355.408	5.84
355.777	6.07
356.147	5.81
356.516	5.43
356.885	6.21
357.254	6.16
357.624	6.23
357.993	6.01
358.362	6.22
358.731	6.23
359.1	6.11
359.469	6.56
359.838	6.53
360.207	6.41
360.576	6.35
360.945	6.47
361.314	6.46
361.682	6.03
362.051	6.52
362.42	6.65
362.788	6.33
363.157	6.34
363.525	6.43
363.894	6.24
364.262	6.83
364.631	6.58
364.999	6.4
365.367	6.32
365.735	7.02
366.104	6.69
366.472	6.73
366.84	6.13
367.208	6.78
367.576	6.39
367.944	6.98
368.312	6.77
368.68	6.42
369.048	6.6
369.416	6.64
369.783	6.51
370.151	6.77
370.519	7.3
370.886	6.82
371.254	6.93
371.621	7.19
371.989	6.74
372.356	7.03
372.724	7.12
373.091	6.68
373.458	7.3
373.826	7.27
374.193	7
374.56	6.52
374.927	7.4
375.294	6.68
375.661	7.24
376.028	7.14
376.395	7.1
376.762	7.64
377.129	7.43
377.496	7.45
377.863	7.11
378.229	7.18
378.596	7.16
378.963	7.28
379.329	6.96
379.696	7.18
380.062	7.5
380.429	7.29
380.795	7.41
381.161	7.53
381.528	7.42
381.894	7.18
382.26	7.52
382.626	7.43
382.993	7.76
383.359	7.86
383.725	7.37
384.091	7.54
384.457	7.8
384.823	7.58
385.188	8.09
385.554	7.66
385.92	7.53
386.286	7.75
386.651	7.76
387.017	7.58
387.383	7.76
387.748	7.66
388.114	7.85
388.479	8.47
388.845	7.85
389.21	8.1
389.575	8.24
389.94	7.91
390.306	8.34
390.671	8.16
391.036	7.86
391.401	8.28
391.766	8.03
392.131	7.9
392.496	8.14
392.861	8.03
393.226	7.92
393.591	8.11
393.956	8.28
394.32	8.25
394.685	8.13
395.05	8.29
395.414	8.21
395.779	8.22
396.143	8.29
396.508	8.41
396.872	8.45
397.236	8.33
397.601	8.29
397.965	8.69
398.329	8.3
398.694	8.59
399.058	8.81
399.422	8.35
399.786	8.6
400.15	8.74
400.514	8.34
400.878	8.42
401.242	8.79
401.605	8.52
401.969	8.85
402.333	8.78
402.697	8.88
403.06	8.98
403.424	8.57
403.787	8.83
404.151	8.82
404.514	8.87
404.878	8.63
405.241	8.8
405.604	9.05
405.968	8.91
406.331	8.94
406.694	8.94
407.057	8.96
407.42	8.91
407.783	8.82
408.146	9.06
408.509	9.09
408.872	9.15
409.235	9.04
409.598	9.02
409.961	9.3
410.323	9.24
410.686	9.16
411.049	9.29
411.411	9.26
411.774	9.24
412.136	9.55
412.499	9.3
412.861	9.43
413.223	9.29
413.586	9.45
413.948	9.6
414.31	9.39
414.672	9.46
415.035	9.59
415.397	9.69
415.759	9.69
416.121	9.39
416.483	9.44
416.845	9.48
417.206	9.39
417.568	9.55
417.93	9.47
418.292	9.62
418.653	9.45
419.015	9.42
419.377	9.51
419.738	9.58
420.1	9.65
420.461	9.69
420.822	9.47
421.184	9.62
421.545	9.59
421.906	9.53
422.267	9.52
422.629	9.72
422.99	9.5
423.351	9.53
423.712	9.68
424.073	9.8
424.434	9.66
424.795	9.78
425.155	9.9
425.516	9.89
425.877	9.78
426.238	9.91
426.598	9.82
426.959	9.75
427.32	9.85
427.68	9.95
428.041	9.84
428.401	10.07
428.761	10.16
429.122	10.07
429.482	10.26
429.842	9.98
430.202	10.27
430.563	10.22
430.923	10.59
431.283	10.21
431.643	10.4
432.003	10.6
432.363	10.4
432.722	10.39
433.082	10.57
433.442	10.35
433.802	10.54
434.161	10.49
434.521	10.51
434.881	10.5
435.24	10.53
435.6	10.55
435.959	10.55
436.319	10.65
436.678	10.59
437.037	10.63
437.396	10.84
437.756	10.77
438.115	10.54
438.474	10.84
438.833	11.04
439.192	10.88
439.551	10.94
439.91	10.86
440.269	10.75
440.628	11.12
440.987	11.12
441.345	11.07
441.704	10.91
442.063	10.9
442.421	10.9
442.78	10.98
443.138	10.97
443.497	11.12
443.855	11.01
444.214	11.21
444.572	11.1
444.93	11.15
445.288	11.21
445.647	11.16
446.005	11.21
446.363	11.15
446.721	11.31
447.079	11.23
447.437	11.3
447.795	11.28
448.153	11.14
448.51	11.31
448.868	11.18
449.226	11.26
449.584	11.28
449.941	11.32
450.299	11.54
450.656	11.53
451.014	11.58
451.371	11.86
451.729	11.69
452.086	11.58
452.443	11.63
452.801	11.84
453.158	11.85
453.515	11.89
453.872	11.78
454.229	11.99
454.586	11.81
454.943	11.97
455.3	11.9
455.657	11.87
456.014	11.95
456.371	12.03
456.727	12.21
457.084	12.23
457.441	11.97
457.797	12.12
458.154	12.26
458.51	12.39
458.867	12.05
459.223	12.08
459.58	12.44
459.936	12.09
460.292	12.26
460.648	12.18
461.005	12.26
461.361	12.3
461.717	12.14
462.073	12.18
462.429	12.25
462.785	12.24
463.141	12.33
463.496	12.35
463.852	12.57
464.208	12.49
464.564	12.48
464.919	12.78
465.275	12.55
465.631	12.83
465.986	12.75
466.342	12.85
466.697	12.67
467.052	12.67
467.408	12.98
467.763	12.79
468.118	12.9
468.473	12.93
468.829	12.78
469.184	12.83
469.539	12.94
469.894	13.13
470.249	13
470.603	13.08
470.958	12.97
471.313	13.08
471.668	13.12
472.023	13.05
472.377	13.28
472.732	13.34
473.086	13.33
473.441	13.18
473.795	13.35
474.15	13.3
474.504	13.24
474.859	13.34
475.213	13.42
475.567	13.26
475.921	13.25
476.275	13.54
476.63	13.33
476.984	13.32
477.338	13.54
477.692	13.51
478.045	13.7
478.399	13.44
478.753	13.64
479.107	13.54
479.461	13.73
479.814	13.76
480.168	13.63
480.521	13.69
480.875	13.71
481.228	13.77
481.582	13.94
481.935	13.76
482.289	13.81
482.642	13.92
482.995	13.71
483.348	13.73
483.701	13.8
484.055	13.68
484.408	13.86
484.761	13.69
485.114	13.5
485.466	13.29
485.819	13.27
486.172	13.27
486.525	13.34
486.878	13.43
487.23	13.55
487.583	13.65
487.936	13.69
488.288	13.78
488.641	13.72
488.993	13.81
489.345	13.61
489.698	13.67
490.05	13.74
490.402	13.62
490.754	13.88
491.107	14.01
491.459	14.12
491.811	14.11
492.163	14.29
492.515	14.48
492.866	14.24
493.218	14.15
493.57	14.06
493.922	14.08
494.274	14.14
494.625	14.28
494.977	14.38
495.328	14.49
495.68	14.62
496.031	14.71
496.383	14.85
496.734	14.85
497.086	15.17
497.437	15.08
497.788	15.08
498.139	14.93
498.49	14.93
498.842	15.01
499.193	14.95
499.544	15.01
499.894	15.02
500.245	15.08
500.596	15.15
500.947	15.22
501.298	15.09
501.648	15.27
501.999	15.25
502.35	15.27
502.7	15.39
503.051	15.56
503.401	15.5
503.752	15.57
504.102	15.66
504.452	15.46
504.803	15.65
505.153	15.63
505.503	15.68
505.853	15.68
506.203	15.62
506.553	15.8
506.903	15.8
507.253	15.75
507.603	15.71
507.953	15.78
508.303	15.85
508.652	15.83
509.002	16.11
509.352	16.04
509.701	15.92
510.051	15.78
510.4	16
510.75	16.03
511.099	15.96
511.449	15.91
511.798	15.95
512.147	16.15
512.496	15.97
512.846	16.03
513.195	16.23
513.544	16.16
513.893	16.13
514.242	16.26
514.591	16.09
514.939	16.29
515.288	16.29
515.637	16.29
515.986	16.3
516.334	16.47
516.683	16.52
517.032	16.43
517.38	16.62
517.729	16.77
518.077	16.55
518.426	16.68
518.774	16.76
519.122	16.44
519.47	16.35
519.819	16.45
520.167	16.49
520.515	16.43
520.863	16.47
521.211	16.43
521.559	16.55
521.907	16.57
522.255	16.73
522.602	16.8
522.95	16.79
523.298	16.99
523.645	17.02
523.993	16.99
524.341	17.06
524.688	17.22
525.036	17.12
525.383	17.3
525.73	17.34
526.078	17.26
526.425	17.16
526.772	17.07
527.119	17.01
527.466	17
527.814	16.98
528.161	16.97
528.508	17.01
528.854	17.04
529.201	17.01
529.548	17.06
529.895	16.97
530.242	16.69
530.588	16.72
530.935	16.8
531.282	16.76
531.628	16.78
531.975	16.94
532.321	17.01
532.667	17.17
533.014	17.28
533.36	17.5
533.706	17.58
534.052	17.62
534.399	17.54
534.745	17.48
535.091	17.3
535.437	17.28
535.783	17.4
536.129	17.52
536.474	17.47
536.82	17.66
537.166	17.59
537.512	17.86
537.857	17.96
538.203	17.86
538.549	17.68
538.894	17.88
539.239	18.02
539.585	18.01
539.93	17.93
540.276	18.15
540.621	18.23
540.966	18.3
541.311	18.33
541.656	18.36
542.001	18.55
542.346	18.33
542.691	18.18
543.036	17.89
543.381	17.87
543.726	18.01
544.071	17.91
544.415	18.13
544.76	18.07
545.105	18.17
545.449	18.37
545.794	18.55
546.138	18.45
546.483	18.67
546.827	18.66
547.171	18.68
547.516	18.76
547.86	18.87
548.204	18.87
548.548	18.88
548.892	18.89
549.236	18.97
549.58	18.86
549.924	19.04
550.268	19.23
550.612	19.06
550.956	19.23
551.3	19.41
551.643	19.42
551.987	19.28
552.33	19.6
552.674	19.48
553.017	19.68
553.361	19.73
553.704	19.67
554.048	19.53
554.391	19.36
554.734	19.71
555.077	19.61
555.42	19.66
555.764	19.81
556.107	19.86
556.45	19.74
556.793	19.57
557.135	19.87
557.478	19.96
557.821	20.06
558.164	20.1
558.507	20.01
558.849	20.19
559.192	20.34
559.534	19.99
559.877	20.25
560.219	20.16
560.562	20.29
560.904	20.53
561.246	20.32
561.589	20.46
561.931	20.35
562.273	20.44
562.615	20.42
562.957	20.59
563.299	20.46
563.641	20.57
563.983	20.59
564.325	20.5
564.667	20.57
565.008	20.58
565.35	20.55
565.692	20.91
566.033	20.86
566.375	20.72
566.716	20.93
567.058	20.81
567.399	20.75
567.741	21.08
568.082	20.84
568.423	20.87
568.764	20.85
569.105	20.99
569.447	21.07
569.788	20.71
570.129	21.06
570.47	21.16
570.811	20.82
571.151	20.88
571.492	21.29
571.833	21.32
572.174	21.36
572.514	21.29
572.855	21.2
573.195	21.44
573.536	21.17
573.876	21.35
574.217	21.27
574.557	21.21
574.898	21.48
575.238	21.32
575.578	21.63
575.918	21.28
576.258	21.57
576.598	21.62
576.938	21.53
577.278	21.41
577.618	21.47
577.958	21.71
578.298	21.59
578.638	21.65
578.977	21.86
579.317	21.83
579.657	21.72
579.996	21.85
580.336	22.06
580.675	21.94
581.014	22.35
581.354	22.17
581.693	22.27
582.032	22.25
582.372	22.09
582.711	22.17
583.05	21.99
583.389	22.14
583.728	22.41
584.067	22.4
584.406	22.21
584.745	22.45
585.083	22.47
585.422	22.51
585.761	22.46
586.1	22.49
586.438	22.27
586.777	22.78
587.115	22.52
587.454	22.76
587.792	22.8
588.13	22.88
588.469	22.87
588.807	22.65
589.145	22.84
589.483	22.5
589.821	23.06
590.159	22.69
590.497	23.07
590.835	22.76
591.173	22.93
591.511	23.09
591.849	23.07
592.187	23.28
592.524	23.08
592.862	23.05
593.2	23.09
593.537	22.96
593.875	23.1
594.212	22.9
594.55	23.3
594.887	23.31
595.224	23.36
595.561	22.97
595.899	22.96
596.236	23.36
596.573	23.5
596.91	23.4
597.247	23.06
597.584	23.32
597.921	23.55
598.258	23.46
598.594	23.13
598.931	23.39
599.268	23.41
599.604	23.45
599.941	23.23
600.277	23.6
600.614	23.59
600.95	23.74
601.287	23.67
601.623	23.65
601.959	23.89
602.296	23.73
602.632	23.47
602.968	24.09
603.304	23.8
603.64	24.12
603.976	23.76
604.312	23.94
604.648	24.25
604.984	24.2
605.319	23.83
605.655	23.79
605.991	24.07
606.326	23.96
606.662	24.08
606.998	24.07
607.333	24.07
607.668	24.14
608.004	24.19
608.339	24.23
608.674	24.33
609.01	24.37
609.345	24.28
609.68	24.34
610.015	24.67
610.35	24.38
610.685	24.46
611.02	24.35
611.355	24.45
611.689	24.66
612.024	24.41
612.359	24.58
612.694	24.42
613.028	24.62
613.363	24.84
613.697	24.59
614.032	24.75
614.366	24.79
614.7	24.82
615.035	24.75
615.369	25.01
615.703	25.06
616.037	24.95
616.371	25.18
616.705	25.09
617.039	25.23
617.373	25.25
617.707	25.58
618.041	25.13
618.375	24.94
618.709	25.28
619.042	25.43
619.376	25.53
619.71	25.57
620.043	25.54
620.377	25.46
620.71	25.29
621.043	25.68
621.377	25.62
621.71	25.61
622.043	25.75
622.376	25.78
622.709	25.52
623.043	25.59
623.376	25.97
623.709	25.64
624.041	25.72
624.374	26.02
624.707	25.64
625.04	26.02
625.373	25.71
625.705	25.26
626.038	25.75
626.37	26
626.703	26.26
627.035	25.98
627.368	26
627.7	25.95
628.032	25.7
628.365	26.31
628.697	25.6
629.029	26.03
629.361	25.78
629.693	26.08
630.025	26.12
630.357	26
630.689	26.03
631.021	26.25
631.353	26.02
631.684	26.37
632.016	26.79
632.348	26.15
632.679	26.21
633.011	26.47
633.342	26.85
633.674	26.57
634.005	26.6
634.336	26.5
634.668	26.52
634.999	26.58
635.33	26.73
635.661	26.67
635.992	26.45
636.323	26.93
636.654	26.53
636.985	26.71
637.316	26.48
637.647	26.61
637.977	27.04
638.308	27.24
638.639	27.06
638.969	26.27
639.3	27.13
639.63	26.93
639.961	27.25
640.291	27.43
640.622	27.01
640.952	27.12
641.282	27.02
641.612	27.13
641.943	27.08
642.273	27.19
642.603	27.42
642.933	27.09
643.263	26.41
643.592	26.9
643.922	28.24
644.252	27.42
644.582	27.13
644.911	27.41
645.241	27.28
645.571	27.4
645.9	27.88
646.23	27.62
646.559	27.78
646.888	27.33
647.218	28.11
647.547	27.76
647.876	27.4
648.205	27.08
648.534	27.58
648.863	27.44
649.192	27.36
649.521	27.79
649.85	27.77
650.179	27.92
650.508	28
650.837	27.69
651.165	27.72
651.494	27.89
651.822	28
652.151	28.38
652.479	27.57
652.808	27.84
653.136	28.15
653.465	28.05
653.793	28.18
654.121	28.21
654.449	27.63
654.777	28.18
655.105	28.04
655.433	28.32
655.761	27.99
656.089	28.33
656.417	28.07
656.745	27.72
657.073	28.14
657.4	28.71
657.728	28.38
658.056	27.62
658.383	28.7
658.711	28.17
659.038	28.54
659.365	29.19
659.693	28.8
660.02	28.38
660.347	28.72
660.674	28.31
661.001	28.64
661.329	28.5
661.656	28.83
661.982	28.62
662.309	28.59
662.636	28.45
662.963	28.06
663.29	28.36
663.616	28.77
663.943	28.82
664.27	29
664.596	28.71
664.923	28.82
665.249	29.17
665.576	28.76
665.902	28.48
666.228	28.38
666.554	29.38
666.881	29.2
667.207	29.19
667.533	28.73
667.859	29.08
668.185	28.82
668.511	29.64
668.837	28.59
669.162	29.59
669.488	28.75
669.814	29.16
670.139	28.99
670.465	29.69
670.791	29.93
671.116	29.08
671.442	28.57
671.767	29.58
672.092	29.33
672.418	29.46
672.743	29.12
673.068	29.53
673.393	29.49
673.718	30.05
674.043	29.58
674.368	29.45
674.693	29.16
675.018	30.22
675.343	29.78
675.667	29.12
675.992	29.78
