Data from 0041_forehead_Reflection__0__115.txt Node

Date: Fri Nov 04 15:46:45 CDT 2022
User: ToomeyLab
Spectrometer: FLMS14357
Trigger mode: 0
Integration Time (sec): 1.000000E-2
Scans to average: 100
Electric dark correction enabled: true
Nonlinearity correction enabled: false
Boxcar width: 0
XAxis mode: Wavelengths
Number of Pixels in Spectrum: 2048
>>>>>Begin Spectral Data<<<<<
189.047	-21.94
189.435	-21.94
189.823	-21.94
190.211	-1149.13
190.599	155.75
190.987	151.69
191.375	53.83
191.763	-4.33
192.151	57.72
192.538	74.34
192.926	32.18
193.314	93.18
193.702	70.22
194.089	-17.65
194.477	-49.3
194.864	-91.81
195.252	188.69
195.639	-589.4
196.027	152.85
196.414	-162.37
196.801	28.28
197.189	-2758.7
197.576	113
197.963	86.06
198.351	-17.75
198.738	3.14
199.125	0.74
199.512	-7.78
199.899	-21.42
200.286	-57.41
200.673	12.91
201.06	-34.21
201.447	19.89
201.833	-7.41
202.22	-14.33
202.607	20.12
202.994	22.03
203.38	60.46
203.767	31.97
204.154	38.06
204.54	3.97
204.927	9.69
205.313	10.45
205.699	36.1
206.086	54.36
206.472	-17.13
206.858	9
207.245	22.93
207.631	10.01
208.017	-9.18
208.403	28.02
208.789	41.8
209.175	29.97
209.561	-86.59
209.947	-20.12
210.333	4.95
210.719	-9.05
211.105	-19.13
211.491	6.45
211.876	9.48
212.262	18.93
212.648	-7.44
213.034	12.38
213.419	7.28
213.805	-3.44
214.19	7.71
214.576	3.45
214.961	24.3
215.346	10.55
215.732	39.95
216.117	-15.56
216.502	18.36
216.888	17.13
217.273	8.38
217.658	3.26
218.043	1.53
218.428	17.46
218.813	13.42
219.198	9.31
219.583	-0.68
219.968	10.78
220.353	-19.22
220.738	-17.69
221.122	5.51
221.507	14.45
221.892	-6.79
222.276	17.43
222.661	2.48
223.046	-3.99
223.43	12.18
223.815	-8.86
224.199	8.33
224.583	12.19
224.968	-1.93
225.352	13.29
225.736	-1.31
226.121	-1.43
226.505	12.5
226.889	6.48
227.273	6.32
227.657	-0.52
228.041	6.83
228.425	3.66
228.809	3.77
229.193	2.3
229.577	3.19
229.961	4.69
230.344	3.99
230.728	3.82
231.112	2.54
231.495	3.01
231.879	3.55
232.263	2.92
232.646	3.17
233.03	3.23
233.413	2.98
233.797	1.91
234.18	2.72
234.563	5.18
234.946	3.5
235.33	6.42
235.713	2.62
236.096	3.53
236.479	2.47
236.862	2.58
237.245	3.44
237.628	3.36
238.011	1.65
238.394	4.44
238.777	5.03
239.16	2.74
239.543	2.77
239.925	4.2
240.308	5.48
240.691	2.24
241.073	3.01
241.456	2.96
241.838	2.59
242.221	3.28
242.603	3.23
242.986	2.6
243.368	3.63
243.75	3.28
244.133	3.45
244.515	3.13
244.897	3.26
245.279	3.34
245.661	3.61
246.043	3.4
246.425	3.55
246.807	4.63
247.189	3.58
247.571	4.43
247.953	3.67
248.335	3.6
248.717	3.4
249.098	3.36
249.48	3.43
249.862	3.78
250.243	3.42
250.625	3.59
251.006	3.68
251.388	3.56
251.769	3.96
252.151	4.3
252.532	3.59
252.913	2.74
253.295	3.95
253.676	3.53
254.057	2.93
254.438	3.52
254.819	3.84
255.2	2.87
255.581	4.62
255.962	3.9
256.343	3.36
256.724	3.61
257.105	3.15
257.486	3.73
257.867	5.57
258.247	4.57
258.628	3.91
259.009	3.88
259.389	3.89
259.77	3.97
260.15	3.36
260.531	3.87
260.911	3.09
261.292	3.55
261.672	3.3
262.052	3.6
262.432	3.48
262.813	3.15
263.193	3.35
263.573	3.83
263.953	3.44
264.333	2.93
264.713	4.18
265.093	3.56
265.473	4.27
265.853	2.75
266.233	3.97
266.612	4
266.992	4.66
267.372	2.45
267.752	3.42
268.131	3.55
268.511	3.66
268.89	4.15
269.27	3.29
269.649	3.46
270.029	2.91
270.408	3.12
270.787	3.67
271.167	2.97
271.546	3.71
271.925	3.44
272.304	3.12
272.683	3.47
273.062	3.33
273.441	3.44
273.82	3.24
274.199	3.51
274.578	2.93
274.957	3.3
275.336	2.53
275.715	2.91
276.093	3.11
276.472	3.19
276.851	2.96
277.229	3.44
277.608	3.6
277.986	3.65
278.365	3.66
278.743	3.6
279.122	3.26
279.5	3.21
279.878	3.02
280.257	3.05
280.635	3.18
281.013	3.45
281.391	3.65
281.769	3.53
282.147	2.55
282.525	3.05
282.903	3.69
283.281	3.92
283.659	3.69
284.037	3.2
284.415	3.23
284.792	3.67
285.17	3.13
285.548	3.7
285.925	3.34
286.303	3.63
286.68	3.83
287.058	3.41
287.435	3.27
287.813	3.26
288.19	3.51
288.567	3.27
288.945	3.35
289.322	3.97
289.699	3.58
290.076	3.56
290.453	3
290.83	3.45
291.207	3.81
291.584	3.64
291.961	3.64
292.338	3.98
292.715	3.57
293.092	3.66
293.469	3.6
293.845	3.19
294.222	3.87
294.599	3.53
294.975	3.73
295.352	3.5
295.728	3.85
296.105	3.86
296.481	3.84
296.858	4.25
297.234	4.36
297.61	4.48
297.986	3.61
298.363	3.74
298.739	3.95
299.115	3.9
299.491	3.91
299.867	4.02
300.243	4.17
300.619	4.29
300.995	4.48
301.371	4.13
301.746	4.22
302.122	4.2
302.498	3.79
302.874	4.51
303.249	4.03
303.625	4.13
304	4.51
304.376	4.73
304.751	4.31
305.127	3.65
305.502	4.28
305.878	4.67
306.253	4.6
306.628	4.47
307.003	4.39
307.378	4.51
307.754	4.41
308.129	3.92
308.504	4.43
308.879	4.81
309.254	4.73
309.629	5.08
310.003	4.73
310.378	4.74
310.753	4.74
311.128	4.39
311.502	4.64
311.877	4.6
312.252	4.61
312.626	4.6
313.001	4.32
313.375	4.8
313.75	4.44
314.124	4.69
314.498	5.05
314.873	5.11
315.247	4.88
315.621	4.63
315.995	5.79
316.369	4.35
316.743	5.12
317.117	4.77
317.491	5.23
317.865	5.28
318.239	4.97
318.613	5.57
318.987	4.98
319.361	5.35
319.734	5.36
320.108	5.83
320.482	4.62
320.855	5.27
321.229	4.66
321.602	4.99
321.976	5.17
322.349	6.05
322.723	5.4
323.096	5.35
323.469	5.5
323.843	5.29
324.216	5.35
324.589	5.65
324.962	5.76
325.335	5.75
325.708	5.39
326.081	5.65
326.454	5.56
326.827	5.59
327.2	5.45
327.573	5.79
327.945	5.78
328.318	5.6
328.691	5.73
329.063	5.12
329.436	5.78
329.809	5.49
330.181	5.71
330.553	5.54
330.926	6.07
331.298	5.75
331.671	5.5
332.043	6.24
332.415	5.99
332.787	5.27
333.159	5.29
333.532	5.32
333.904	6.11
334.276	5.88
334.648	6.23
335.02	5.37
335.391	6.41
335.763	6.01
336.135	6.07
336.507	6.06
336.879	6.38
337.25	6.19
337.622	6.14
337.993	6.3
338.365	6.22
338.736	6.38
339.108	6.33
339.479	5.88
339.851	5.63
340.222	5.64
340.593	5.99
340.964	6.22
341.336	5.91
341.707	5.9
342.078	6.34
342.449	6.49
342.82	6.31
343.191	5.87
343.562	6.26
343.933	6.27
344.303	6.37
344.674	6.42
345.045	6.19
345.416	6.04
345.786	6.8
346.157	6.31
346.527	6.23
346.898	6.85
347.268	6.35
347.639	6.46
348.009	6.44
348.38	6.35
348.75	6.09
349.12	6.28
349.49	6.39
349.861	6.4
350.231	6.99
350.601	6.57
350.971	6.12
351.341	6.4
351.711	6.45
352.081	6.62
352.45	6.9
352.82	6.62
353.19	6.75
353.56	6.61
353.929	6.41
354.299	7.29
354.669	6.94
355.038	7.07
355.408	6.67
355.777	6.94
356.147	6.45
356.516	6.4
356.885	6.65
357.254	6.95
357.624	6.93
357.993	6.82
358.362	6.61
358.731	6.73
359.1	6.81
359.469	6.81
359.838	6.97
360.207	7.1
360.576	7.01
360.945	7.47
361.314	7.39
361.682	6.96
362.051	6.8
362.42	7.05
362.788	6.86
363.157	7.03
363.525	7.08
363.894	6.83
364.262	7.03
364.631	7.23
364.999	6.98
365.367	6.92
365.735	7.25
366.104	7.03
366.472	7.2
366.84	6.71
367.208	7.5
367.576	7.14
367.944	7.12
368.312	7.22
368.68	7.21
369.048	7.3
369.416	7.41
369.783	7.41
370.151	7.46
370.519	7.83
370.886	7.48
371.254	7.39
371.621	7.42
371.989	7.53
372.356	7.67
372.724	7.47
373.091	7.47
373.458	7.61
373.826	7.64
374.193	7.35
374.56	7.44
374.927	8.18
375.294	7.57
375.661	7.93
376.028	7.85
376.395	8.26
376.762	7.93
377.129	8.11
377.496	7.89
377.863	7.97
378.229	7.68
378.596	7.67
378.963	7.4
379.329	7.65
379.696	7.71
380.062	8.03
380.429	8.12
380.795	7.99
381.161	8.08
381.528	8.38
381.894	7.68
382.26	8
382.626	7.92
382.993	8.18
383.359	8.15
383.725	8.05
384.091	8.25
384.457	8.07
384.823	8.19
385.188	8.25
385.554	8.21
385.92	8.01
386.286	8.2
386.651	8.1
387.017	8.05
387.383	8.24
387.748	8.1
388.114	8.25
388.479	8.72
388.845	8.27
389.21	8.52
389.575	8.68
389.94	8.57
390.306	8.75
390.671	8.46
391.036	8.31
391.401	8.91
391.766	8.37
392.131	8.5
392.496	8.6
392.861	8.6
393.226	8.4
393.591	8.64
393.956	8.53
394.32	8.53
394.685	8.7
395.05	9.15
395.414	8.8
395.779	8.9
396.143	8.8
396.508	8.77
396.872	8.88
397.236	8.93
397.601	8.73
397.965	8.76
398.329	8.77
398.694	9.13
399.058	9.04
399.422	8.75
399.786	8.88
400.15	9.04
400.514	9.02
400.878	9.02
401.242	9.08
401.605	8.95
401.969	9
402.333	9.09
402.697	9.1
403.06	9.17
403.424	9.33
403.787	9.47
404.151	9.33
404.514	9.14
404.878	9.18
405.241	9.22
405.604	9.26
405.968	9.19
406.331	9.29
406.694	9.25
407.057	9.27
407.42	9.44
407.783	9.22
408.146	9.46
408.509	9.35
408.872	9.39
409.235	9.5
409.598	9.58
409.961	9.56
410.323	9.62
410.686	9.43
411.049	9.46
411.411	9.59
411.774	9.55
412.136	9.67
412.499	9.76
412.861	9.79
413.223	9.63
413.586	9.48
413.948	9.74
414.31	9.85
414.672	9.91
415.035	10.07
415.397	9.85
415.759	10
416.121	9.71
416.483	9.81
416.845	10.01
417.206	9.93
417.568	9.84
417.93	9.97
418.292	9.9
418.653	9.97
419.015	10.04
419.377	9.73
419.738	9.75
420.1	10.03
420.461	10
420.822	9.76
421.184	9.86
421.545	9.73
421.906	9.81
422.267	9.77
422.629	9.92
422.99	9.84
423.351	9.77
423.712	9.91
424.073	10.06
424.434	10.08
424.795	10.13
425.155	10.18
425.516	10.07
425.877	9.91
426.238	10
426.598	10.04
426.959	9.95
427.32	10.11
427.68	10.21
428.041	10.21
428.401	10.34
428.761	10.43
429.122	10.43
429.482	10.51
429.842	10.21
430.202	10.51
430.563	10.52
430.923	10.74
431.283	10.45
431.643	10.71
432.003	10.74
432.363	10.87
432.722	10.75
433.082	10.91
433.442	10.69
433.802	10.61
434.161	10.64
434.521	10.69
434.881	10.85
435.24	10.65
435.6	10.77
435.959	10.66
436.319	10.82
436.678	10.87
437.037	10.82
437.396	10.94
437.756	10.96
438.115	10.89
438.474	11.05
438.833	11.05
439.192	10.98
439.551	11.04
439.91	11.02
440.269	11.08
440.628	11.16
440.987	11.08
441.345	11.08
441.704	11.07
442.063	11
442.421	11.07
442.78	11.13
443.138	11.16
443.497	11.21
443.855	11.11
444.214	11.39
444.572	11.23
444.93	11.2
445.288	11.3
445.647	11.43
446.005	11.37
446.363	11.36
446.721	11.35
447.079	11.36
447.437	11.41
447.795	11.39
448.153	11.21
448.51	11.28
448.868	11.3
449.226	11.36
449.584	11.36
449.941	11.44
450.299	11.5
450.656	11.55
451.014	11.66
451.371	11.8
451.729	11.83
452.086	11.7
452.443	11.63
452.801	11.86
453.158	11.95
453.515	11.86
453.872	11.84
454.229	11.97
454.586	11.85
454.943	11.83
455.3	12.02
455.657	12.04
456.014	12.13
456.371	11.93
456.727	12.3
457.084	12.13
457.441	12.35
457.797	12.17
458.154	12.24
458.51	12.26
458.867	12.06
459.223	12.31
459.58	12.57
459.936	12.17
460.292	12.19
460.648	12.22
461.005	12.14
461.361	12.16
461.717	12.2
462.073	12.13
462.429	12.31
462.785	12.27
463.141	12.38
463.496	12.22
463.852	12.61
464.208	12.45
464.564	12.6
464.919	12.67
465.275	12.63
465.631	12.77
465.986	12.8
466.342	12.67
466.697	12.63
467.052	12.57
467.408	12.66
467.763	12.89
468.118	12.99
468.473	12.83
468.829	12.84
469.184	12.73
469.539	12.7
469.894	13.02
470.249	13.01
470.603	13.03
470.958	12.84
471.313	12.92
471.668	12.89
472.023	12.83
472.377	13.07
472.732	13.11
473.086	13.07
473.441	13.18
473.795	13.11
474.15	13.1
474.504	13.17
474.859	13.09
475.213	13.12
475.567	13.31
475.921	13.16
476.275	13.43
476.63	13.35
476.984	13.43
477.338	13.47
477.692	13.47
478.045	13.45
478.399	13.29
478.753	13.55
479.107	13.42
479.461	13.62
479.814	13.73
480.168	13.69
480.521	13.46
480.875	13.59
481.228	13.73
481.582	13.74
481.935	13.63
482.289	13.7
482.642	13.58
482.995	13.7
483.348	13.56
483.701	13.69
484.055	13.52
484.408	13.54
484.761	13.37
485.114	13.22
485.466	13
485.819	12.97
486.172	12.96
486.525	13.05
486.878	13.35
487.23	13.48
487.583	13.53
487.936	13.66
488.288	13.73
488.641	13.57
488.993	13.45
489.345	13.32
489.698	13.33
490.05	13.45
490.402	13.49
490.754	13.65
491.107	13.8
491.459	13.95
491.811	13.96
492.163	13.98
492.515	14.14
492.866	13.94
493.218	13.72
493.57	13.7
493.922	13.78
494.274	13.84
494.625	13.98
494.977	14.3
495.328	14.39
495.68	14.44
496.031	14.49
496.383	14.71
496.734	14.69
497.086	14.86
497.437	14.85
497.788	14.79
498.139	14.65
498.49	14.56
498.842	14.75
499.193	14.57
499.544	14.76
499.894	14.61
500.245	14.72
500.596	14.91
500.947	14.91
501.298	14.85
501.648	14.97
501.999	15.12
502.35	15.12
502.7	15.09
503.051	15.12
503.401	15.22
503.752	15.25
504.102	15.23
504.452	15.33
504.803	15.27
505.153	15.28
505.503	15.34
505.853	15.25
506.203	15.15
506.553	15.23
506.903	15.51
507.253	15.37
507.603	15.38
507.953	15.53
508.303	15.42
508.652	15.44
509.002	15.75
509.352	15.74
509.701	15.5
510.051	15.31
510.4	15.47
510.75	15.54
511.099	15.55
511.449	15.45
511.798	15.51
512.147	15.76
512.496	15.58
512.846	15.56
513.195	15.84
513.544	15.79
513.893	15.81
514.242	15.78
514.591	15.7
514.939	15.92
515.288	15.98
515.637	15.93
515.986	15.88
516.334	15.96
516.683	15.99
517.032	16.15
517.38	16.23
517.729	16.12
518.077	16.08
518.426	16
518.774	16.12
519.122	16.1
519.47	16.13
519.819	16.09
520.167	15.95
520.515	15.89
520.863	16
521.211	15.94
521.559	16.09
521.907	16.11
522.255	16.31
522.602	16.34
522.95	16.38
523.298	16.52
523.645	16.46
523.993	16.51
524.341	16.67
524.688	16.57
525.036	16.6
525.383	16.71
525.73	16.62
526.078	16.75
526.425	16.67
526.772	16.58
527.119	16.46
527.466	16.46
527.814	16.37
528.161	16.33
528.508	16.53
528.854	16.54
529.201	16.38
529.548	16.38
529.895	16.26
530.242	16.04
530.588	16.02
530.935	16.07
531.282	16.15
531.628	16.22
531.975	16.46
532.321	16.65
532.667	16.73
533.014	16.85
533.36	16.96
533.706	16.92
534.052	16.87
534.399	16.83
534.745	16.78
535.091	16.64
535.437	16.55
535.783	16.66
536.129	16.9
536.474	17.1
536.82	17.19
537.166	17.25
537.512	17.34
537.857	17.35
538.203	17.1
538.549	17
538.894	17.19
539.239	17.31
539.585	17.36
539.93	17.45
540.276	17.57
540.621	17.66
540.966	17.78
541.311	17.59
541.656	17.77
542.001	17.66
542.346	17.66
542.691	17.55
543.036	17.13
543.381	17.02
543.726	17.19
544.071	17.27
544.415	17.49
544.76	17.49
545.105	17.58
545.449	17.75
545.794	17.73
546.138	17.92
546.483	17.94
546.827	18.02
547.171	18.11
547.516	18.17
547.86	18.2
548.204	18.27
548.548	18.08
548.892	17.89
549.236	18.22
549.58	18.2
549.924	18.28
550.268	18.53
550.612	18.34
550.956	18.6
551.3	18.68
551.643	18.75
551.987	18.61
552.33	18.77
552.674	18.83
553.017	19.03
553.361	18.83
553.704	18.74
554.048	18.64
554.391	18.83
554.734	18.89
555.077	18.82
555.42	18.98
555.764	19.09
556.107	19.14
556.45	19.04
556.793	19.18
557.135	19.53
557.478	19.06
557.821	19.26
558.164	19.3
558.507	19.14
558.849	19.39
559.192	19.21
559.534	19.22
559.877	19.36
560.219	19.13
560.562	19.53
560.904	19.68
561.246	19.47
561.589	19.63
561.931	19.5
562.273	19.59
562.615	19.48
562.957	19.58
563.299	19.46
563.641	19.52
563.983	19.51
564.325	19.78
564.667	19.64
565.008	19.54
565.35	19.8
565.692	20.01
566.033	19.9
566.375	19.86
566.716	20
567.058	19.99
567.399	19.88
567.741	20.07
568.082	19.89
568.423	19.91
568.764	19.88
569.105	19.96
569.447	20.13
569.788	20.07
570.129	20.39
570.47	20.34
570.811	20.31
571.151	20.2
571.492	20.34
571.833	20.36
572.174	20.25
572.514	20.19
572.855	20.07
573.195	20.37
573.536	20.37
573.876	20.38
574.217	20.46
574.557	20.38
574.898	20.55
575.238	20.39
575.578	20.74
575.918	20.37
576.258	20.67
576.598	20.6
576.938	20.52
577.278	20.48
577.618	20.6
577.958	20.36
578.298	20.69
578.638	20.84
578.977	20.98
579.317	20.78
579.657	21.03
579.996	21.03
580.336	20.96
580.675	21.06
581.014	21.29
581.354	20.95
581.693	21.2
582.032	21.11
582.372	21.22
582.711	21.17
583.05	21.06
583.389	21.01
583.728	21.33
584.067	21.41
584.406	21
584.745	21.53
585.083	21.34
585.422	21.48
585.761	21.44
586.1	21.59
586.438	21.14
586.777	21.69
587.115	21.37
587.454	21.69
587.792	21.92
588.13	21.74
588.469	21.77
588.807	21.88
589.145	21.87
589.483	21.45
589.821	21.89
590.159	21.64
590.497	22.03
590.835	21.77
591.173	21.6
591.511	22.07
591.849	22.23
592.187	21.91
592.524	21.85
592.862	21.82
593.2	22.14
593.537	22.09
593.875	22
594.212	21.99
594.55	22.58
594.887	22.18
595.224	22.2
595.561	22.04
595.899	22.2
596.236	22.35
596.573	22.11
596.91	22.21
597.247	22.05
597.584	22.22
597.921	22.28
598.258	22.23
598.594	21.99
598.931	21.83
599.268	22.4
599.604	22.45
599.941	22.36
600.277	22.23
600.614	22.64
600.95	22.88
601.287	22.35
601.623	22.61
601.959	22.62
602.296	22.79
602.632	22.86
602.968	22.52
603.304	22.7
603.64	22.9
603.976	22.7
604.312	22.67
604.648	22.64
604.984	22.5
605.319	22.59
605.655	22.59
605.991	22.92
606.326	22.68
606.662	22.52
606.998	22.75
607.333	22.62
607.668	22.83
608.004	22.92
608.339	23.16
608.674	23.23
609.01	23.11
609.345	23.32
609.68	23.11
610.015	23.56
610.35	23.07
610.685	23.24
611.02	23.35
611.355	23.03
611.689	23.03
612.024	23.12
612.359	22.96
612.694	23.14
613.028	23.27
613.363	23.54
613.697	23.47
614.032	23.55
614.366	23.57
614.7	23.76
615.035	23.83
615.369	23.62
615.703	23.87
616.037	23.31
616.371	23.75
616.705	23.57
617.039	23.9
617.373	23.8
617.707	23.93
618.041	23.97
618.375	24.29
618.709	24.13
619.042	24.01
619.376	24.01
619.71	24.11
620.043	24.22
620.377	24.18
620.71	24.17
621.043	24.01
621.377	24.26
621.71	23.91
622.043	24.53
622.376	24.1
622.709	24.75
623.043	24.32
623.376	24.84
623.709	23.92
624.041	24.59
624.374	24.27
624.707	23.98
625.04	24.48
625.373	24.4
625.705	24.46
626.038	24.82
626.37	24.72
626.703	24.57
627.035	24.27
627.368	24.46
627.7	24.14
628.032	24.29
628.365	25.19
628.697	24.61
629.029	24.83
629.361	24.46
629.693	24.27
630.025	24.77
630.357	24.58
630.689	24.8
631.021	24.7
631.353	24.54
631.684	24.98
632.016	24.99
632.348	24.96
632.679	24.73
633.011	24.89
633.342	25.24
633.674	25.26
634.005	25.39
634.336	25.16
634.668	24.75
634.999	25.15
635.33	25.32
635.661	25.38
635.992	25.39
636.323	25.05
636.654	24.92
636.985	25.57
637.316	25.26
637.647	25.26
637.977	25.66
638.308	25.71
638.639	25.66
638.969	24.82
639.3	25.45
639.63	25.52
639.961	25.55
640.291	25.91
640.622	25.73
640.952	25.52
641.282	25.06
641.612	25.66
641.943	25.67
642.273	25.51
642.603	25.59
642.933	25.65
643.263	25.78
643.592	25.89
643.922	26.51
644.252	26.2
644.582	26.13
644.911	25.91
645.241	25.84
645.571	26.04
645.9	25.74
646.23	26.59
646.559	26.43
646.888	25.84
647.218	26.09
647.547	26.05
647.876	26.15
648.205	26.16
648.534	26.31
648.863	26.05
649.192	25.94
649.521	26.11
649.85	26.54
650.179	26.5
650.508	26.5
650.837	26.55
651.165	26.31
651.494	26.84
651.822	26.63
652.151	26.79
652.479	26.46
652.808	26.56
653.136	26.8
653.465	27.15
653.793	26.71
654.121	26.49
654.449	26.42
654.777	26.33
655.105	26.72
655.433	26.68
655.761	26.56
656.089	26.42
656.417	26.52
656.745	26.49
657.073	25.78
657.4	26.99
657.728	26.98
658.056	26.16
658.383	26.81
658.711	27.09
659.038	26.85
659.365	27.68
659.693	27.19
660.02	27.17
660.347	27.13
660.674	26.94
661.001	26.65
661.329	27.05
661.656	27.25
661.982	26.76
662.309	26.79
662.636	27.29
662.963	27.13
663.29	26.67
663.616	27.3
663.943	27.24
664.27	27.84
664.596	27.73
664.923	26.98
665.249	27.87
665.576	27.58
665.902	26.9
666.228	27.03
666.554	27.87
666.881	27.48
667.207	27.64
667.533	27.6
667.859	27.59
668.185	27.66
668.511	27.44
668.837	26.9
669.162	28.17
669.488	27.64
669.814	27.71
670.139	27.87
670.465	28.25
670.791	27.54
671.116	28.13
671.442	27.78
671.767	28.11
672.092	28.27
672.418	27.77
672.743	28.27
673.068	27.42
673.393	28.02
673.718	27.8
674.043	28.12
674.368	27.69
674.693	28.4
675.018	28.08
675.343	27.87
675.667	28.29
