Data from 0066_crown_Reflection__1__144.txt Node

Date: Fri Dec 16 15:03:53 CST 2022
User: ToomeyLab
Spectrometer: FLMS14357
Trigger mode: 0
Integration Time (sec): 1.000000E-2
Scans to average: 100
Electric dark correction enabled: true
Nonlinearity correction enabled: false
Boxcar width: 0
XAxis mode: Wavelengths
Number of Pixels in Spectrum: 2048
>>>>>Begin Spectral Data<<<<<
189.047	-39.21
189.435	-39.21
189.823	-39.21
190.211	125.98
190.599	-3594.32
190.987	158.43
191.375	74.68
191.763	767.67
192.151	7.52
192.538	49.48
192.926	30.24
193.314	59.28
193.702	19.2
194.089	33.84
194.477	-143.45
194.864	19.67
195.252	-71.45
195.639	101.31
196.027	-77.96
196.414	-19.47
196.801	530.54
197.189	51.97
197.576	55.17
197.963	111.91
198.351	58.76
198.738	6.35
199.125	23.53
199.512	-4.17
199.899	-35.43
200.286	-10.53
200.673	21.78
201.06	47.59
201.447	49.78
201.833	-15.6
202.22	8.78
202.607	48.69
202.994	25.58
203.38	3.1
203.767	7.45
204.154	18.07
204.54	20.83
204.927	12.27
205.313	29.82
205.699	-3.76
206.086	-4.96
206.472	-52.8
206.858	16.74
207.245	28.45
207.631	-58.62
208.017	23.19
208.403	17.41
208.789	2.01
209.175	34.19
209.561	-18.89
209.947	1.87
210.333	-0.67
210.719	64.85
211.105	-60.31
211.491	17.05
211.876	-22.95
212.262	-18.07
212.648	-16.57
213.034	2.92
213.419	25
213.805	8.84
214.19	7.11
214.576	4.49
214.961	-23.54
215.346	-11.65
215.732	22.74
216.117	1.51
216.502	-15.57
216.888	-15.68
217.273	19.4
217.658	-1
218.043	-3
218.428	-0.61
218.813	2.35
219.198	-37.17
219.583	-3.47
219.968	10.45
220.353	10.27
220.738	-12.09
221.122	-26.56
221.507	7.33
221.892	19.5
222.276	8.59
222.661	-5.56
223.046	4.61
223.43	3.71
223.815	16.49
224.199	9.49
224.583	9.52
224.968	5.62
225.352	9.28
225.736	5.96
226.121	1.64
226.505	11.97
226.889	7.92
227.273	7.95
227.657	8.08
228.041	9.96
228.425	12.04
228.809	8.4
229.193	6.78
229.577	6.71
229.961	9.23
230.344	8.75
230.728	8.9
231.112	9.74
231.495	8.26
231.879	9.62
232.263	8.05
232.646	7.6
233.03	7.84
233.413	8.02
233.797	9.23
234.18	6.59
234.563	6.83
234.946	6.41
235.33	8.34
235.713	8.43
236.096	7.42
236.479	8.19
236.862	8.42
237.245	7.79
237.628	7.11
238.011	7.33
238.394	8.2
238.777	8.06
239.16	4.52
239.543	6.38
239.925	8.41
240.308	9.21
240.691	6.7
241.073	8.6
241.456	6.09
241.838	8.6
242.221	7.05
242.603	7.74
242.986	8.33
243.368	7.22
243.75	7.47
244.133	7.02
244.515	7.08
244.897	7.5
245.279	7.54
245.661	7.82
246.043	7.22
246.425	6.34
246.807	7.67
247.189	7.26
247.571	7.27
247.953	7.17
248.335	7.36
248.717	7.26
249.098	7.41
249.48	6.8
249.862	7.53
250.243	7.14
250.625	7.18
251.006	6.97
251.388	7.86
251.769	8.07
252.151	7.34
252.532	6.24
252.913	7.11
253.295	6.7
253.676	7.18
254.057	7.05
254.438	6.81
254.819	6.36
255.2	6.17
255.581	6.3
255.962	6.48
256.343	7.43
256.724	6.59
257.105	7.44
257.486	6.4
257.867	5.75
258.247	6.61
258.628	7.33
259.009	7.17
259.389	6.72
259.77	7.03
260.15	7.16
260.531	6.75
260.911	6.71
261.292	6.45
261.672	6.51
262.052	6.67
262.432	6.81
262.813	6.38
263.193	6.02
263.573	6.59
263.953	6.3
264.333	6.6
264.713	6.21
265.093	6.05
265.473	7.57
265.853	5.82
266.233	5.74
266.612	6.64
266.992	6.13
267.372	5.96
267.752	6.3
268.131	6.7
268.511	6.78
268.89	6.71
269.27	6.61
269.649	6.88
270.029	6.53
270.408	6.12
270.787	6.06
271.167	6.45
271.546	5.66
271.925	6.22
272.304	6.56
272.683	5.92
273.062	6.48
273.441	6.15
273.82	6.59
274.199	6.24
274.578	6.35
274.957	6.39
275.336	5.81
275.715	6.57
276.093	6.71
276.472	6.66
276.851	5.99
277.229	6.98
277.608	6.24
277.986	6.53
278.365	5.8
278.743	5.97
279.122	6.09
279.5	6.17
279.878	5.84
280.257	6.45
280.635	5.9
281.013	6.68
281.391	6.19
281.769	5.97
282.147	6.51
282.525	6.29
282.903	6.53
283.281	6.42
283.659	6.38
284.037	6.19
284.415	6.68
284.792	6.31
285.17	5.84
285.548	5.91
285.925	5.92
286.303	6.09
286.68	6.3
287.058	6.21
287.435	6.06
287.813	6.18
288.19	6.38
288.567	6.34
288.945	6.34
289.322	6.09
289.699	6.1
290.076	6.39
290.453	5.73
290.83	6.34
291.207	5.94
291.584	6.13
291.961	6.47
292.338	6.16
292.715	6.26
293.092	5.94
293.469	6.63
293.845	6.34
294.222	6.38
294.599	6.07
294.975	6.22
295.352	5.63
295.728	6.14
296.105	6.23
296.481	6.72
296.858	6
297.234	5.98
297.61	6.11
297.986	6.08
298.363	5.62
298.739	6.34
299.115	5.9
299.491	6.05
299.867	5.9
300.243	5.89
300.619	5.92
300.995	6.3
301.371	6.07
301.746	5.75
302.122	6.07
302.498	6.29
302.874	6.06
303.249	6.3
303.625	6.51
304	6.24
304.376	6.05
304.751	6.15
305.127	5.57
305.502	6.23
305.878	6.12
306.253	5.56
306.628	6.23
307.003	6.12
307.378	5.8
307.754	6.12
308.129	5.62
308.504	5.85
308.879	5.82
309.254	6.38
309.629	6.01
310.003	6.65
310.378	6.09
310.753	6.08
311.128	6.06
311.502	5.81
311.877	6.03
312.252	5.85
312.626	6.04
313.001	6.06
313.375	5.72
313.75	6
314.124	6.27
314.498	5.95
314.873	5.73
315.247	5.89
315.621	6.25
315.995	5.95
316.369	6.36
316.743	6.48
317.117	6.14
317.491	5.92
317.865	5.42
318.239	6.29
318.613	5.95
318.987	5.73
319.361	5.77
319.734	5.89
320.108	5.99
320.482	5.8
320.855	6.08
321.229	6.09
321.602	6.25
321.976	5.87
322.349	5.72
322.723	5.83
323.096	5.38
323.469	5.51
323.843	6.03
324.216	5.3
324.589	6.04
324.962	5.71
325.335	5.78
325.708	5.84
326.081	6.29
326.454	5.91
326.827	6.5
327.2	6.68
327.573	5.87
327.945	6.11
328.318	5.98
328.691	6.14
329.063	6.13
329.436	6.25
329.809	5.45
330.181	5.94
330.553	5.51
330.926	5.7
331.298	5.58
331.671	5.79
332.043	5.61
332.415	6.06
332.787	6.61
333.159	6.17
333.532	5.99
333.904	5.85
334.276	5.89
334.648	6.26
335.02	5.89
335.391	6.24
335.763	5.84
336.135	6.19
336.507	6.31
336.879	5.91
337.25	5.84
337.622	6.21
337.993	6.11
338.365	6.01
338.736	5.85
339.108	5.99
339.479	5.84
339.851	6.32
340.222	6.2
340.593	5.57
340.964	6.16
341.336	5.75
341.707	5.73
342.078	5.7
342.449	6.17
342.82	6.35
343.191	6.14
343.562	5.73
343.933	5.99
344.303	6.46
344.674	5.93
345.045	6.6
345.416	6.02
345.786	5.67
346.157	5.7
346.527	5.78
346.898	5.99
347.268	6.05
347.639	6.13
348.009	6.2
348.38	6.01
348.75	6.21
349.12	6.24
349.49	5.86
349.861	6.66
350.231	6.53
350.601	6.16
350.971	5.97
351.341	5.89
351.711	6.08
352.081	6.09
352.45	6.32
352.82	6.35
353.19	5.91
353.56	6.1
353.929	6.45
354.299	6.18
354.669	6.06
355.038	6.02
355.408	6.34
355.777	6.04
356.147	6.09
356.516	6.31
356.885	6.02
357.254	5.66
357.624	6.27
357.993	5.97
358.362	6.29
358.731	6.14
359.1	6.2
359.469	6.11
359.838	5.67
360.207	6.14
360.576	6.16
360.945	6.18
361.314	6.45
361.682	6.01
362.051	5.99
362.42	6.38
362.788	6.07
363.157	6.21
363.525	6
363.894	5.85
364.262	6.1
364.631	6.68
364.999	5.91
365.367	6.2
365.735	6.07
366.104	6.23
366.472	6.37
366.84	6.29
367.208	6.07
367.576	6.34
367.944	6.33
368.312	5.9
368.68	6.33
369.048	6.59
369.416	6.04
369.783	6.21
370.151	6.33
370.519	6.04
370.886	5.95
371.254	6.29
371.621	6.34
371.989	6.16
372.356	6.27
372.724	6.05
373.091	6.24
373.458	6.02
373.826	6.32
374.193	6.56
374.56	6.11
374.927	5.86
375.294	6.38
375.661	6.23
376.028	6.17
376.395	6.32
376.762	6.48
377.129	6.26
377.496	6.2
377.863	6.25
378.229	6.22
378.596	6.41
378.963	6.23
379.329	6.5
379.696	6.19
380.062	6.73
380.429	6.39
380.795	6.2
381.161	6.36
381.528	5.88
381.894	6.53
382.26	6.21
382.626	6.33
382.993	6.07
383.359	6.15
383.725	6.17
384.091	6.14
384.457	6.35
384.823	6.06
385.188	6.51
385.554	6.25
385.92	6.41
386.286	6.65
386.651	6.31
387.017	6.46
387.383	6.48
387.748	6.17
388.114	6.41
388.479	6.49
388.845	6.29
389.21	6.16
389.575	6.21
389.94	6.39
390.306	6.13
390.671	6.26
391.036	6.21
391.401	6.66
391.766	6.38
392.131	6.35
392.496	6.11
392.861	6.29
393.226	6.28
393.591	6.17
393.956	6.48
394.32	6.27
394.685	6.44
395.05	6.05
395.414	6.18
395.779	6.16
396.143	6.29
396.508	6.42
396.872	6.25
397.236	5.97
397.601	6.58
397.965	6.13
398.329	6.5
398.694	6.01
399.058	6.1
399.422	6.15
399.786	6.4
400.15	6.24
400.514	6.26
400.878	6.23
401.242	6.38
401.605	6.33
401.969	6.16
402.333	6.48
402.697	6.58
403.06	6.49
403.424	6.25
403.787	6.3
404.151	6.04
404.514	6.33
404.878	6.31
405.241	6.37
405.604	6.22
405.968	6.31
406.331	6.3
406.694	6.37
407.057	6.58
407.42	6.26
407.783	6.29
408.146	6.18
408.509	6.24
408.872	6.29
409.235	6.33
409.598	6.42
409.961	6.3
410.323	6.3
410.686	6.12
411.049	6.17
411.411	6.51
411.774	6.16
412.136	6.38
412.499	6.22
412.861	6.2
413.223	6.28
413.586	6.27
413.948	6.28
414.31	6.47
414.672	6.19
415.035	6.45
415.397	6.27
415.759	6.09
416.121	6.42
416.483	6.3
416.845	6.28
417.206	6.19
417.568	6.21
417.93	6.16
418.292	6.21
418.653	6.28
419.015	6.35
419.377	6.22
419.738	6.1
420.1	6.14
420.461	6.12
420.822	6.11
421.184	6.09
421.545	6.17
421.906	6.1
422.267	6.05
422.629	6.02
422.99	6.04
423.351	6.12
423.712	6.09
424.073	6.3
424.434	6.04
424.795	6.06
425.155	6.03
425.516	6.18
425.877	6.06
426.238	5.96
426.598	6.15
426.959	6.11
427.32	6.19
427.68	6.21
428.041	6.16
428.401	6.17
428.761	6.22
429.122	6.16
429.482	6.26
429.842	6.26
430.202	6.02
430.563	6.14
430.923	6.11
431.283	6.33
431.643	6.13
432.003	6.22
432.363	6.27
432.722	6.12
433.082	6.07
433.442	6.18
433.802	6.13
434.161	6.11
434.521	6.16
434.881	6.2
435.24	6.17
435.6	6.13
435.959	6.08
436.319	6.15
436.678	6.15
437.037	6.08
437.396	6.22
437.756	6.22
438.115	6.14
438.474	6.14
438.833	6.14
439.192	6.21
439.551	6.19
439.91	6.1
440.269	6.29
440.628	6.04
440.987	6.05
441.345	6.09
441.704	6.1
442.063	6.09
442.421	6.06
442.78	6.06
443.138	6.1
443.497	6.05
443.855	6.08
444.214	6.11
444.572	6.02
444.93	6.08
445.288	6.19
445.647	6.18
446.005	5.96
446.363	6.03
446.721	5.9
447.079	5.98
447.437	6.1
447.795	5.99
448.153	5.92
448.51	5.97
448.868	6.04
449.226	6.06
449.584	6
449.941	6.06
450.299	6.03
450.656	6.11
451.014	6.07
451.371	6.25
451.729	6.19
452.086	6.1
452.443	6.08
452.801	6.03
453.158	6.01
453.515	6.05
453.872	6.15
454.229	5.87
454.586	6.17
454.943	6.06
455.3	6.25
455.657	6.07
456.014	6.22
456.371	6.27
456.727	5.9
457.084	6.1
457.441	6.01
457.797	6.09
458.154	6.05
458.51	6.05
458.867	6.11
459.223	5.98
459.58	6.1
459.936	5.96
460.292	5.95
460.648	5.85
461.005	5.91
461.361	5.79
461.717	5.89
462.073	5.95
462.429	6
462.785	6.04
463.141	6.06
463.496	5.98
463.852	6.2
464.208	6.04
464.564	6.06
464.919	6.03
465.275	6.12
465.631	6.08
465.986	5.87
466.342	6.01
466.697	5.9
467.052	6.07
467.408	5.88
467.763	5.91
468.118	6
468.473	6.08
468.829	6.01
469.184	6.05
469.539	5.96
469.894	5.96
470.249	6.01
470.603	5.99
470.958	6.07
471.313	5.91
471.668	6.09
472.023	6.2
472.377	5.95
472.732	5.85
473.086	6.01
473.441	6.06
473.795	6.02
474.15	5.95
474.504	5.88
474.859	6.01
475.213	6.02
475.567	6.05
475.921	6.04
476.275	5.9
476.63	5.93
476.984	5.8
477.338	6.15
477.692	5.98
478.045	5.92
478.399	6.09
478.753	5.83
479.107	5.94
479.461	6.02
479.814	5.9
480.168	5.97
480.521	5.92
480.875	6.16
481.228	6.1
481.582	5.89
481.935	5.83
482.289	5.83
482.642	5.92
482.995	5.88
483.348	5.75
483.701	5.88
484.055	5.73
484.408	5.69
484.761	5.53
485.114	5.42
485.466	5.47
485.819	5.53
486.172	5.67
486.525	5.73
486.878	5.76
487.23	5.79
487.583	5.72
487.936	5.67
488.288	5.64
488.641	5.59
488.993	5.49
489.345	5.61
489.698	5.65
490.05	5.67
490.402	5.76
490.754	5.78
491.107	5.77
491.459	5.8
491.811	5.9
492.163	5.75
492.515	5.62
492.866	5.46
493.218	5.54
493.57	5.64
493.922	5.66
494.274	5.75
494.625	5.85
494.977	5.81
495.328	5.83
495.68	6.03
496.031	5.84
496.383	5.87
496.734	5.84
497.086	5.81
497.437	5.96
497.788	5.88
498.139	5.68
498.49	5.89
498.842	5.7
499.193	5.84
499.544	5.84
499.894	5.75
500.245	5.75
500.596	5.8
500.947	5.79
501.298	5.8
501.648	5.91
501.999	5.94
502.35	5.9
502.7	5.9
503.051	6.01
503.401	5.89
503.752	5.75
504.102	5.82
504.452	5.81
504.803	5.64
505.153	5.78
505.503	5.73
505.853	5.76
506.203	5.82
506.553	5.79
506.903	5.71
507.253	5.88
507.603	5.69
507.953	5.93
508.303	5.75
508.652	5.83
509.002	5.82
509.352	5.67
509.701	5.66
510.051	5.84
510.4	5.74
510.75	5.8
511.099	5.74
511.449	5.77
511.798	5.78
512.147	5.73
512.496	5.72
512.846	5.72
513.195	5.8
513.544	5.8
513.893	5.62
514.242	5.69
514.591	5.68
514.939	5.7
515.288	5.71
515.637	5.81
515.986	5.78
516.334	5.81
516.683	5.83
517.032	5.66
517.38	5.73
517.729	5.73
518.077	5.82
518.426	5.59
518.774	5.68
519.122	5.66
519.47	5.58
519.819	5.59
520.167	5.65
520.515	5.65
520.863	5.64
521.211	5.62
521.559	5.7
521.907	5.65
522.255	5.74
522.602	5.78
522.95	5.86
523.298	5.66
523.645	5.67
523.993	5.76
524.341	5.73
524.688	5.67
525.036	5.71
525.383	5.74
525.73	5.75
526.078	5.69
526.425	5.66
526.772	5.5
527.119	5.47
527.466	5.55
527.814	5.53
528.161	5.62
528.508	5.63
528.854	5.47
529.201	5.5
529.548	5.35
529.895	5.26
530.242	5.3
530.588	5.38
530.935	5.48
531.282	5.49
531.628	5.56
531.975	5.57
532.321	5.64
532.667	5.62
533.014	5.55
533.36	5.54
533.706	5.52
534.052	5.48
534.399	5.36
534.745	5.33
535.091	5.4
535.437	5.47
535.783	5.57
536.129	5.55
536.474	5.62
536.82	5.55
537.166	5.6
537.512	5.6
537.857	5.5
538.203	5.45
538.549	5.56
538.894	5.54
539.239	5.62
539.585	5.55
539.93	5.71
540.276	5.52
540.621	5.7
540.966	5.49
541.311	5.6
541.656	5.45
542.001	5.43
542.346	5.39
542.691	5.3
543.036	5.35
543.381	5.45
543.726	5.42
544.071	5.42
544.415	5.46
544.76	5.4
545.105	5.52
545.449	5.5
545.794	5.55
546.138	5.49
546.483	5.47
546.827	5.53
547.171	5.52
547.516	5.7
547.86	5.53
548.204	5.43
548.548	5.6
548.892	5.57
549.236	5.52
549.58	5.63
549.924	5.56
550.268	5.6
550.612	5.61
550.956	5.46
551.3	5.57
551.643	5.84
551.987	5.47
552.33	5.61
552.674	5.63
553.017	5.55
553.361	5.57
553.704	5.51
554.048	5.69
554.391	5.44
554.734	5.63
555.077	5.64
555.42	5.52
555.764	5.56
556.107	5.57
556.45	5.48
556.793	5.71
557.135	5.78
557.478	5.72
557.821	5.52
558.164	5.64
558.507	5.48
558.849	5.5
559.192	5.65
559.534	5.47
559.877	5.56
560.219	5.54
560.562	5.61
560.904	5.56
561.246	5.59
561.589	5.77
561.931	5.59
562.273	5.46
562.615	5.68
562.957	5.64
563.299	5.68
563.641	5.5
563.983	5.54
564.325	5.49
564.667	5.51
565.008	5.55
565.35	5.76
565.692	5.67
566.033	5.61
566.375	5.56
566.716	5.58
567.058	5.52
567.399	5.56
567.741	5.63
568.082	5.57
568.423	5.55
568.764	5.57
569.105	5.68
569.447	5.63
569.788	5.52
570.129	5.62
570.47	5.63
570.811	5.52
571.151	5.61
571.492	5.76
571.833	5.53
572.174	5.6
572.514	5.43
572.855	5.6
573.195	5.42
573.536	5.47
573.876	5.53
574.217	5.53
574.557	5.73
574.898	5.56
575.238	5.39
575.578	5.52
575.918	5.53
576.258	5.53
576.598	5.43
576.938	5.63
577.278	5.52
577.618	5.63
577.958	5.47
578.298	5.57
578.638	5.52
578.977	5.72
579.317	5.6
579.657	5.6
579.996	5.34
580.336	5.42
580.675	5.73
581.014	5.65
581.354	5.55
581.693	5.57
582.032	5.55
582.372	5.66
582.711	5.55
583.05	5.54
583.389	5.71
583.728	5.51
584.067	5.55
584.406	5.77
584.745	5.54
585.083	5.65
585.422	5.48
585.761	5.68
586.1	5.59
586.438	5.57
586.777	5.65
587.115	5.55
587.454	5.53
587.792	5.63
588.13	5.99
588.469	5.55
588.807	5.84
589.145	5.77
589.483	5.44
589.821	5.63
590.159	5.46
590.497	5.42
590.835	5.61
591.173	5.85
591.511	5.59
591.849	5.53
592.187	5.51
592.524	5.49
592.862	5.67
593.2	5.48
593.537	5.53
593.875	5.68
594.212	5.89
594.55	5.76
594.887	5.78
595.224	5.42
595.561	5.56
595.899	5.48
596.236	5.69
596.573	5.47
596.91	5.6
597.247	5.43
597.584	5.55
597.921	5.59
598.258	5.47
598.594	5.17
598.931	5.43
599.268	5.45
599.604	5.75
599.941	5.53
600.277	5.47
600.614	5.7
600.95	5.63
601.287	5.45
601.623	5.51
601.959	5.46
602.296	5.74
602.632	5.65
602.968	5.43
603.304	5.44
603.64	5.59
603.976	5.67
604.312	5.7
604.648	5.64
604.984	5.63
605.319	5.59
605.655	5.64
605.991	5.57
606.326	5.52
606.662	5.38
606.998	5.67
607.333	5.54
607.668	5.59
608.004	5.69
608.339	5.52
608.674	5.59
609.01	5.6
609.345	5.97
609.68	5.43
610.015	5.78
610.35	5.49
610.685	5.61
611.02	5.64
611.355	5.68
611.689	5.25
612.024	5.66
612.359	5.62
612.694	5.86
613.028	5.81
613.363	5.41
613.697	5.6
614.032	5.78
614.366	5.69
614.7	5.84
615.035	5.62
615.369	5.56
615.703	5.76
616.037	5.91
616.371	5.64
616.705	5.92
617.039	5.85
617.373	5.73
617.707	5.71
618.041	5.78
618.375	5.72
618.709	5.49
619.042	5.82
619.376	5.68
619.71	5.49
620.043	5.57
620.377	5.62
620.71	5.85
621.043	5.55
621.377	5.53
621.71	5.95
622.043	5.95
622.376	5.64
622.709	6.04
623.043	5.57
623.376	5.66
623.709	5.82
624.041	5.73
624.374	5.56
624.707	5.36
625.04	5.91
625.373	5.73
625.705	5.74
626.038	5.58
626.37	5.81
626.703	5.74
627.035	5.93
627.368	5.75
627.7	5.58
628.032	5.8
628.365	5.55
628.697	5.7
629.029	5.83
629.361	5.62
629.693	5.78
630.025	5.69
630.357	5.76
630.689	6.12
631.021	5.98
631.353	5.94
631.684	5.75
632.016	5.46
632.348	5.78
632.679	5.83
633.011	5.97
633.342	5.77
633.674	5.72
634.005	6.07
634.336	5.93
634.668	5.66
634.999	5.88
635.33	5.81
635.661	5.79
635.992	5.78
636.323	5.88
636.654	5.94
636.985	5.57
637.316	6.03
637.647	5.77
637.977	5.83
638.308	5.35
638.639	5.77
638.969	5.75
639.3	5.91
639.63	5.79
639.961	5.8
640.291	6.44
640.622	5.55
640.952	5.67
641.282	5.6
641.612	5.55
641.943	5.82
642.273	5.73
642.603	5.52
642.933	5.97
643.263	6.1
643.592	5.63
643.922	5.99
644.252	5.93
644.582	5.54
644.911	5.75
645.241	5.56
645.571	5.76
645.9	6
646.23	5.7
646.559	6.11
646.888	5.37
647.218	5.83
647.547	6.13
647.876	6.27
648.205	5.82
648.534	5.91
648.863	6.25
649.192	5.84
649.521	5.77
649.85	6.45
650.179	5.62
650.508	6.09
650.837	5.84
651.165	5.83
651.494	5.91
651.822	6.13
652.151	6.25
652.479	6.39
652.808	5.68
653.136	5.81
653.465	6.03
653.793	5.77
654.121	6
654.449	5.64
654.777	5.95
655.105	5.94
655.433	6.45
655.761	5.9
656.089	6.37
656.417	6.13
656.745	6.37
657.073	6.38
657.4	6.22
657.728	5.64
658.056	6.6
658.383	6.32
658.711	5.61
659.038	6.38
659.365	6.07
659.693	5.84
660.02	5.68
660.347	5.77
660.674	5.65
661.001	5.7
661.329	5.99
661.656	5.88
661.982	6.08
662.309	6.22
662.636	5.96
662.963	6.27
663.29	6.33
663.616	6.05
663.943	6.57
664.27	6.09
664.596	6.09
664.923	6.2
665.249	5.86
665.576	5.82
665.902	5.74
666.228	5.74
666.554	5.64
666.881	6.43
667.207	5.78
667.533	6.32
667.859	6.41
668.185	6.38
668.511	5.79
668.837	5.4
669.162	6.33
669.488	6.11
669.814	6.61
670.139	6.33
670.465	6.19
670.791	5.89
671.116	6.33
671.442	6.48
671.767	6.36
672.092	6.02
672.418	6.3
672.743	6.62
673.068	5.39
673.393	6.4
673.718	6.3
674.043	5.91
674.368	7
674.693	6.38
675.018	5.77
675.343	6.31
675.667	6.09
675.992	5.92
676.317	6.1
676.641	5.72
676.966	6.79
677.29	6.42
677.615	5.97
677.939	5.97
678.264	5.94
678.588	6.25
678.912	6.2
679.236	6.17
679.56	5.9
679.885	6.71
680.209	5.86
680.532	5.63
680.856	6.62
681.18	6.54
681.504	5.52
681.828	5.78
682.152	6.11
682.475	6.56
682.799	6.51
683.122	6.27
683.446	5.88
683.769	6.52
684.093	6.47
684.416	6.09
684.739	6.63
685.062	6.75
685.386	6.07
685.709	6.19
686.032	6.81
686.355	6.56
686.678	6.41
687.001	5.44
687.324	5.96
687.646	5.78
687.969	6.22
688.292	7.26
688.614	7.03
688.937	5.72
689.26	5.74
689.582	6.16
689.904	7.17
690.227	6.24
690.549	6.08
690.871	6.73
691.194	6.91
691.516	6.1
691.838	6.04
692.16	6.68
692.482	6.86
692.804	6.3
693.126	5.71
