Data from 0066_crown_Reflection__3__146.txt Node

Date: Fri Dec 16 15:04:14 CST 2022
User: ToomeyLab
Spectrometer: FLMS14357
Trigger mode: 0
Integration Time (sec): 1.000000E-2
Scans to average: 100
Electric dark correction enabled: true
Nonlinearity correction enabled: false
Boxcar width: 0
XAxis mode: Wavelengths
Number of Pixels in Spectrum: 2048
>>>>>Begin Spectral Data<<<<<
189.047	-6.21
189.435	-6.21
189.823	-6.21
190.211	86.91
190.599	2272.73
190.987	155.35
191.375	139.42
191.763	1648.28
192.151	45.66
192.538	57.69
192.926	-58.06
193.314	64.45
193.702	43.23
194.089	20.84
194.477	-104.86
194.864	156.52
195.252	-149.89
195.639	107.3
196.027	144.93
196.414	79.13
196.801	183.51
197.189	243.61
197.576	-102.31
197.963	-78.43
198.351	19.53
198.738	-44.24
199.125	36.66
199.512	-20.9
199.899	-72.55
200.286	-16.02
200.673	43.61
201.06	24.83
201.447	40.67
201.833	5.83
202.22	26.66
202.607	-19.86
202.994	5.5
203.38	-75.51
203.767	11.66
204.154	-77.44
204.54	15.63
204.927	33.2
205.313	28.67
205.699	-7.15
206.086	19.42
206.472	-3.43
206.858	-17.37
207.245	11.03
207.631	28.62
208.017	38.33
208.403	0.5
208.789	21.28
209.175	49.39
209.561	-28.81
209.947	-7.19
210.333	21.19
210.719	-40.84
211.105	-50.28
211.491	-26.22
211.876	-12.66
212.262	-48.29
212.648	-40.24
213.034	-8.38
213.419	19.44
213.805	-11.91
214.19	-15.44
214.576	-47.57
214.961	-6.07
215.346	-6.44
215.732	6.73
216.117	3.99
216.502	8.5
216.888	-19.95
217.273	8.98
217.658	8.73
218.043	3.34
218.428	-0.55
218.813	-30.87
219.198	-4.55
219.583	4.55
219.968	-4.71
220.353	6.15
220.738	-12.12
221.122	4.61
221.507	12.18
221.892	9.05
222.276	5.57
222.661	-2.31
223.046	15.3
223.43	6.33
223.815	8.8
224.199	7.33
224.583	-0.78
224.968	5.12
225.352	3.15
225.736	11.75
226.121	2.52
226.505	1.72
226.889	9.96
227.273	10.46
227.657	7.4
228.041	10.66
228.425	9.52
228.809	6.56
229.193	4.21
229.577	7.16
229.961	8.03
230.344	8.1
230.728	8.09
231.112	8.04
231.495	7.68
231.879	7.68
232.263	7.56
232.646	6.61
233.03	6.17
233.413	7.67
233.797	9.07
234.18	5.25
234.563	6.53
234.946	8.04
235.33	9.78
235.713	7.26
236.096	7.38
236.479	8.46
236.862	5.89
237.245	8.06
237.628	8.83
238.011	7.39
238.394	8.84
238.777	8.79
239.16	7.25
239.543	7.79
239.925	7.81
240.308	9.34
240.691	7.8
241.073	6.25
241.456	7.86
241.838	7.32
242.221	7.44
242.603	7.6
242.986	8.01
243.368	7.26
243.75	7.08
244.133	7.37
244.515	6.96
244.897	7.59
245.279	7.58
245.661	7.58
246.043	7.46
246.425	5.83
246.807	7.42
247.189	6.17
247.571	7.33
247.953	6.94
248.335	7.28
248.717	6.99
249.098	7.23
249.48	6.84
249.862	7.17
250.243	6.85
250.625	7.34
251.006	7.19
251.388	7.69
251.769	6.67
252.151	7.78
252.532	6.59
252.913	7.43
253.295	6.96
253.676	7
254.057	6.81
254.438	6.42
254.819	7.72
255.2	6.29
255.581	5.85
255.962	7.1
256.343	7.18
256.724	6.12
257.105	6.61
257.486	6.96
257.867	5.54
258.247	6.33
258.628	6.83
259.009	5.81
259.389	6.86
259.77	6.37
260.15	7.31
260.531	6.63
260.911	6.46
261.292	6.41
261.672	6.51
262.052	6.44
262.432	6.42
262.813	6.6
263.193	5.5
263.573	7.27
263.953	6.09
264.333	6.46
264.713	5.9
265.093	6.22
265.473	6.6
265.853	6.32
266.233	6.43
266.612	6.29
266.992	5.98
267.372	6.15
267.752	6.06
268.131	6.2
268.511	6.1
268.89	6.31
269.27	6.7
269.649	6.56
270.029	6.61
270.408	6.33
270.787	6.19
271.167	6.78
271.546	5.88
271.925	6.01
272.304	6.34
272.683	5.71
273.062	6.37
273.441	6.02
273.82	6.02
274.199	6.05
274.578	5.74
274.957	6.54
275.336	5.87
275.715	6.27
276.093	6.38
276.472	5.86
276.851	6.32
277.229	6.98
277.608	5.75
277.986	5.93
278.365	5.9
278.743	5.91
279.122	5.37
279.5	5.28
279.878	5.02
280.257	6.05
280.635	5.43
281.013	6.62
281.391	6.19
281.769	5.63
282.147	6.14
282.525	5.79
282.903	6.03
283.281	6.1
283.659	5.68
284.037	5.88
284.415	5.94
284.792	6.3
285.17	5.35
285.548	5.43
285.925	5.66
286.303	5.55
286.68	5.6
287.058	5.8
287.435	5.38
287.813	5.96
288.19	5.78
288.567	5.27
288.945	5.44
289.322	5.79
289.699	5.44
290.076	5.96
290.453	5.8
290.83	5.53
291.207	5.57
291.584	5.6
291.961	5.55
292.338	5.41
292.715	5.85
293.092	5.32
293.469	5.76
293.845	5.8
294.222	5.32
294.599	5.64
294.975	5.43
295.352	5.05
295.728	5.18
296.105	5.36
296.481	5.77
296.858	5.89
297.234	5.15
297.61	5.12
297.986	5.4
298.363	4.79
298.739	5.62
299.115	4.96
299.491	5.31
299.867	5.33
300.243	5.14
300.619	5.16
300.995	5.62
301.371	5.45
301.746	5.08
302.122	5.68
302.498	5.62
302.874	5.44
303.249	5.6
303.625	4.99
304	4.53
304.376	4.77
304.751	5.07
305.127	5.5
305.502	5.84
305.878	5.13
306.253	4.9
306.628	5.64
307.003	5.3
307.378	5.08
307.754	5.12
308.129	5.19
308.504	4.89
308.879	5.65
309.254	5.37
309.629	4.92
310.003	5.72
310.378	5.71
310.753	5.3
311.128	4.97
311.502	4.89
311.877	4.83
312.252	4.99
312.626	4.82
313.001	5.12
313.375	5.2
313.75	5.1
314.124	5.34
314.498	4.99
314.873	4.81
315.247	4.44
315.621	5.17
315.995	5.24
316.369	5.44
316.743	5.2
317.117	5.05
317.491	5.29
317.865	4.17
318.239	4.89
318.613	5.05
318.987	5.23
319.361	4.7
319.734	4.79
320.108	5.13
320.482	4.6
320.855	5.17
321.229	5.17
321.602	4.62
321.976	5.34
322.349	4.69
322.723	4.51
323.096	4.54
323.469	5.11
323.843	4.51
324.216	4.34
324.589	5.22
324.962	4.69
325.335	4.78
325.708	5.52
326.081	5.51
326.454	4.9
326.827	4.81
327.2	5.26
327.573	4.84
327.945	4.78
328.318	4.9
328.691	4.98
329.063	5.09
329.436	4.77
329.809	4.8
330.181	5.04
330.553	5.48
330.926	5.01
331.298	4.55
331.671	5.37
332.043	4.48
332.415	5.24
332.787	5.39
333.159	4.99
333.532	4.71
333.904	5.18
334.276	5.17
334.648	4.82
335.02	4.78
335.391	5.43
335.763	5.25
336.135	4.75
336.507	4.93
336.879	4.91
337.25	5.12
337.622	5.01
337.993	5.56
338.365	5.2
338.736	5.17
339.108	4.67
339.479	4.83
339.851	5.46
340.222	5.28
340.593	4.34
340.964	4.77
341.336	4.57
341.707	4.69
342.078	4.94
342.449	5.45
342.82	4.97
343.191	4.67
343.562	5.08
343.933	4.83
344.303	5.05
344.674	4.96
345.045	5.18
345.416	5
345.786	4.75
346.157	5.03
346.527	4.97
346.898	4.83
347.268	5.04
347.639	4.88
348.009	5.1
348.38	4.91
348.75	5.37
349.12	5.19
349.49	4.78
349.861	5.48
350.231	5.37
350.601	4.92
350.971	4.59
351.341	5.03
351.711	4.89
352.081	5.36
352.45	5.65
352.82	5.38
353.19	4.91
353.56	5.39
353.929	5.09
354.299	5.05
354.669	4.99
355.038	5.21
355.408	5.83
355.777	4.88
356.147	5.24
356.516	5.21
356.885	4.9
357.254	5.35
357.624	5.19
357.993	5.23
358.362	5.26
358.731	5.08
359.1	5.42
359.469	5.36
359.838	5.31
360.207	5.39
360.576	5.2
360.945	4.98
361.314	5.27
361.682	4.93
362.051	4.95
362.42	5.41
362.788	5.22
363.157	4.9
363.525	5.19
363.894	5.12
364.262	5.24
364.631	5.83
364.999	5.23
365.367	5.51
365.735	5.22
366.104	5.12
366.472	5.49
366.84	5.33
367.208	4.94
367.576	5.07
367.944	5.66
368.312	5.27
368.68	5.64
369.048	5.44
369.416	5.19
369.783	5.25
370.151	5.52
370.519	5.38
370.886	5.37
371.254	5.44
371.621	5.31
371.989	5.15
372.356	5.35
372.724	5.15
373.091	5.25
373.458	5.42
373.826	5.34
374.193	5.87
374.56	5.39
374.927	5.26
375.294	5.7
375.661	5.6
376.028	5.45
376.395	5.28
376.762	5.67
377.129	5.6
377.496	5.35
377.863	5.64
378.229	5.34
378.596	5.28
378.963	5.41
379.329	5.09
379.696	5.33
380.062	5.67
380.429	5.52
380.795	5.37
381.161	5.49
381.528	5.12
381.894	5.54
382.26	5.44
382.626	5.64
382.993	5.27
383.359	5.57
383.725	5.45
384.091	5.39
384.457	5.61
384.823	5.56
385.188	5.78
385.554	5.5
385.92	6.02
386.286	5.6
386.651	5.32
387.017	5.57
387.383	5.77
387.748	5.48
388.114	5.82
388.479	5.67
388.845	5.49
389.21	5.55
389.575	5.7
389.94	5.57
390.306	5.57
390.671	5.55
391.036	5.74
391.401	6.11
391.766	5.74
392.131	5.76
392.496	5.73
392.861	5.62
393.226	5.73
393.591	5.68
393.956	5.91
394.32	5.55
394.685	5.89
395.05	5.76
395.414	5.9
395.779	5.68
396.143	5.7
396.508	5.8
396.872	5.75
397.236	5.48
397.601	5.86
397.965	5.75
398.329	6.08
398.694	5.64
399.058	5.69
399.422	6.01
399.786	5.76
400.15	5.69
400.514	5.9
400.878	5.73
401.242	5.92
401.605	5.88
401.969	5.92
402.333	5.67
402.697	5.88
403.06	5.97
403.424	5.65
403.787	5.93
404.151	5.68
404.514	5.9
404.878	5.82
405.241	5.81
405.604	5.79
405.968	6
406.331	5.75
406.694	5.98
407.057	6.16
407.42	5.82
407.783	5.62
408.146	5.93
408.509	5.58
408.872	5.72
409.235	5.9
409.598	6.05
409.961	5.85
410.323	5.84
410.686	5.82
411.049	5.71
411.411	6.06
411.774	5.86
412.136	6.05
412.499	5.94
412.861	5.95
413.223	6.34
413.586	5.93
413.948	5.97
414.31	6.19
414.672	5.94
415.035	6.04
415.397	5.99
415.759	5.83
416.121	6.01
416.483	6.05
416.845	6.05
417.206	6.01
417.568	5.97
417.93	5.97
418.292	5.97
418.653	6.02
419.015	5.96
419.377	6.07
419.738	5.79
420.1	5.76
420.461	5.83
420.822	5.96
421.184	5.93
421.545	5.94
421.906	5.94
422.267	5.73
422.629	5.83
422.99	5.85
423.351	5.89
423.712	5.94
424.073	6.03
424.434	5.87
424.795	5.79
425.155	5.95
425.516	5.81
425.877	5.84
426.238	5.84
426.598	5.97
426.959	5.9
427.32	6
427.68	6.11
428.041	6.05
428.401	5.95
428.761	6.02
429.122	5.97
429.482	5.85
429.842	6
430.202	5.97
430.563	6.11
430.923	5.84
431.283	6.08
431.643	6.09
432.003	6.07
432.363	6.13
432.722	6.05
433.082	6.11
433.442	6.13
433.802	6.04
434.161	5.95
434.521	6.05
434.881	6.15
435.24	6.11
435.6	6.04
435.959	6.01
436.319	5.87
436.678	6
437.037	6.29
437.396	6.15
437.756	6.15
438.115	6.03
438.474	6.17
438.833	6.03
439.192	6.25
439.551	6.17
439.91	6.05
440.269	6.14
440.628	6.04
440.987	5.95
441.345	6.09
441.704	6.05
442.063	6.12
442.421	6.02
442.78	6.01
443.138	6.05
443.497	6.04
443.855	6.08
444.214	6.13
444.572	6.05
444.93	6.05
445.288	6.12
445.647	6.09
446.005	5.97
446.363	6.04
446.721	5.84
447.079	5.93
447.437	5.95
447.795	5.91
448.153	6.02
448.51	6.01
448.868	6.16
449.226	6.07
449.584	6.02
449.941	6.29
450.299	6.09
450.656	6.04
451.014	6.13
451.371	6.22
451.729	6.18
452.086	6.12
452.443	6.07
452.801	6.29
453.158	6.18
453.515	6.07
453.872	6.14
454.229	6.14
454.586	6.04
454.943	6.26
455.3	6.37
455.657	5.97
456.014	6.16
456.371	6.34
456.727	6.22
457.084	6.08
457.441	6.14
457.797	6.21
458.154	6.14
458.51	6.23
458.867	6.12
459.223	6.16
459.58	6.13
459.936	6.04
460.292	6.18
460.648	5.94
461.005	5.89
461.361	5.98
461.717	6
462.073	6.15
462.429	6.13
462.785	6.34
463.141	6.22
463.496	6.24
463.852	6.44
464.208	6.19
464.564	6.1
464.919	6.16
465.275	6.33
465.631	6.14
465.986	6.04
466.342	6.24
466.697	6.08
467.052	6.2
467.408	6.27
467.763	6.13
468.118	6.33
468.473	6.3
468.829	6.16
469.184	6.39
469.539	6.13
469.894	6.38
470.249	6.26
470.603	6.24
470.958	6.38
471.313	6.34
471.668	6.39
472.023	6.43
472.377	6.15
472.732	6.25
473.086	6.16
473.441	6.3
473.795	6.46
474.15	6.2
474.504	6.02
474.859	6.41
475.213	6.21
475.567	6.26
475.921	6.32
476.275	6.26
476.63	6.31
476.984	6.23
477.338	6.54
477.692	6.26
478.045	6.21
478.399	6.35
478.753	6.1
479.107	6.21
479.461	6.26
479.814	6.24
480.168	6.21
480.521	6.13
480.875	6.25
481.228	6.2
481.582	6.13
481.935	6.2
482.289	6.26
482.642	6.25
482.995	6.11
483.348	6.19
483.701	6.16
484.055	6.07
484.408	6.1
484.761	5.85
485.114	5.78
485.466	5.86
485.819	5.87
486.172	5.98
486.525	6.08
486.878	6.09
487.23	6.15
487.583	6.1
487.936	6.08
488.288	5.97
488.641	5.94
488.993	5.88
489.345	5.91
489.698	5.97
490.05	6.01
490.402	6.14
490.754	6.25
491.107	6.18
491.459	6.22
491.811	6.21
492.163	6.17
492.515	6.11
492.866	5.86
493.218	5.94
493.57	6.05
493.922	6.12
494.274	6.22
494.625	6.2
494.977	6.31
495.328	6.3
495.68	6.4
496.031	6.29
496.383	6.26
496.734	6.34
497.086	6.12
497.437	6.29
497.788	6.21
498.139	6.18
498.49	6.28
498.842	6.18
499.193	6.2
499.544	6.29
499.894	6.28
500.245	6.25
500.596	6.24
500.947	6.35
501.298	6.29
501.648	6.3
501.999	6.32
502.35	6.4
502.7	6.47
503.051	6.51
503.401	6.47
503.752	6.22
504.102	6.42
504.452	6.27
504.803	6.2
505.153	6.23
505.503	6.17
505.853	6.34
506.203	6.28
506.553	6.36
506.903	6.24
507.253	6.41
507.603	6.33
507.953	6.47
508.303	6.46
508.652	6.37
509.002	6.25
509.352	6.3
509.701	6.26
510.051	6.34
510.4	6.27
510.75	6.27
511.099	6.23
511.449	6.25
511.798	6.41
512.147	6.3
512.496	6.42
512.846	6.3
513.195	6.33
513.544	6.16
513.893	6.2
514.242	6.38
514.591	6.27
514.939	6.22
515.288	6.4
515.637	6.48
515.986	6.3
516.334	6.31
516.683	6.32
517.032	6.27
517.38	6.36
517.729	6.31
518.077	6.34
518.426	6.28
518.774	6.3
519.122	6.29
519.47	6.21
519.819	6.22
520.167	6.24
520.515	6.23
520.863	6.26
521.211	6.26
521.559	6.3
521.907	6.32
522.255	6.34
522.602	6.41
522.95	6.39
523.298	6.32
523.645	6.25
523.993	6.5
524.341	6.42
524.688	6.3
525.036	6.44
525.383	6.4
525.73	6.42
526.078	6.43
526.425	6.34
526.772	6.15
527.119	6.22
527.466	6.19
527.814	6.23
528.161	6.3
528.508	6.28
528.854	6.16
529.201	6.16
529.548	6.07
529.895	5.99
530.242	5.98
530.588	6.09
530.935	6.13
531.282	6.18
531.628	6.22
531.975	6.32
532.321	6.33
532.667	6.36
533.014	6.22
533.36	6.24
533.706	6.27
534.052	6.23
534.399	6.12
534.745	6.18
535.091	6.12
535.437	6.18
535.783	6.28
536.129	6.24
536.474	6.33
536.82	6.3
537.166	6.39
537.512	6.35
537.857	6.27
538.203	6.28
538.549	6.33
538.894	6.26
539.239	6.54
539.585	6.36
539.93	6.46
540.276	6.38
540.621	6.35
540.966	6.4
541.311	6.54
541.656	6.26
542.001	6.35
542.346	6.24
542.691	6.12
543.036	6.12
543.381	6.23
543.726	6.24
544.071	6.28
544.415	6.26
544.76	6.25
545.105	6.37
545.449	6.33
545.794	6.32
546.138	6.41
546.483	6.36
546.827	6.4
547.171	6.35
547.516	6.43
547.86	6.28
548.204	6.33
548.548	6.43
548.892	6.39
549.236	6.45
549.58	6.36
549.924	6.39
550.268	6.55
550.612	6.56
550.956	6.42
551.3	6.52
551.643	6.51
551.987	6.48
552.33	6.41
552.674	6.64
553.017	6.56
553.361	6.54
553.704	6.42
554.048	6.48
554.391	6.36
554.734	6.32
555.077	6.46
555.42	6.34
555.764	6.6
556.107	6.39
556.45	6.45
556.793	6.59
557.135	6.73
557.478	6.56
557.821	6.43
558.164	6.54
558.507	6.48
558.849	6.33
559.192	6.65
559.534	6.34
559.877	6.51
560.219	6.7
560.562	6.68
560.904	6.55
561.246	6.56
561.589	6.73
561.931	6.69
562.273	6.44
562.615	6.5
562.957	6.55
563.299	6.62
563.641	6.56
563.983	6.62
564.325	6.44
564.667	6.67
565.008	6.53
565.35	6.57
565.692	6.73
566.033	6.67
566.375	6.34
566.716	6.57
567.058	6.58
567.399	6.48
567.741	6.47
568.082	6.36
568.423	6.41
568.764	6.58
569.105	6.61
569.447	6.39
569.788	6.48
570.129	6.38
570.47	6.61
570.811	6.58
571.151	6.58
571.492	6.61
571.833	6.55
572.174	6.59
572.514	6.39
572.855	6.56
573.195	6.42
573.536	6.42
573.876	6.46
574.217	6.48
574.557	6.53
574.898	6.29
575.238	6.39
575.578	6.61
575.918	6.51
576.258	6.42
576.598	6.56
576.938	6.49
577.278	6.36
577.618	6.49
577.958	6.61
578.298	6.46
578.638	6.57
578.977	6.74
579.317	6.74
579.657	6.55
579.996	6.56
580.336	6.31
580.675	6.69
581.014	6.5
581.354	6.55
581.693	6.43
582.032	6.35
582.372	6.53
582.711	6.55
583.05	6.61
583.389	6.63
583.728	6.75
584.067	6.43
584.406	6.62
584.745	6.28
585.083	6.78
585.422	6.7
585.761	6.81
586.1	6.66
586.438	6.47
586.777	6.74
587.115	6.83
587.454	6.65
587.792	6.61
588.13	6.56
588.469	6.72
588.807	6.7
589.145	6.65
589.483	6.49
589.821	6.55
590.159	6.7
590.497	6.45
590.835	6.57
591.173	6.72
591.511	6.72
591.849	6.58
592.187	6.67
592.524	6.72
592.862	6.7
593.2	6.52
593.537	6.5
593.875	6.61
594.212	6.54
594.55	6.74
594.887	6.71
595.224	6.54
595.561	6.56
595.899	6.61
596.236	6.62
596.573	6.53
596.91	6.66
597.247	6.44
597.584	6.45
597.921	6.56
598.258	6.65
598.594	6.39
598.931	6.43
599.268	6.55
599.604	6.74
599.941	6.48
600.277	6.68
600.614	6.61
600.95	6.71
601.287	6.57
601.623	6.73
601.959	6.53
602.296	6.52
602.632	6.58
602.968	6.48
603.304	6.47
603.64	6.64
603.976	6.44
604.312	6.78
604.648	6.65
604.984	6.62
605.319	6.47
605.655	6.63
605.991	6.5
606.326	6.43
606.662	6.52
606.998	6.73
607.333	6.65
607.668	6.55
608.004	6.57
608.339	6.69
608.674	6.69
609.01	6.65
609.345	6.56
609.68	6.32
610.015	6.54
610.35	6.52
610.685	6.49
611.02	6.8
611.355	6.61
611.689	6.42
612.024	6.92
612.359	6.54
612.694	6.58
613.028	6.74
613.363	6.45
613.697	6.66
614.032	6.78
614.366	6.46
614.7	6.81
615.035	6.43
615.369	6.54
615.703	7.01
616.037	6.51
616.371	6.47
616.705	6.51
617.039	6.85
617.373	6.85
617.707	6.42
618.041	6.56
618.375	6.68
618.709	6.6
619.042	6.52
619.376	6.35
619.71	6.38
620.043	6.56
620.377	6.59
620.71	6.65
621.043	6.39
621.377	6.57
621.71	6.8
622.043	6.82
622.376	6.78
622.709	7.03
623.043	6.72
623.376	6.87
623.709	7
624.041	6.53
624.374	6.64
624.707	6.84
625.04	7.01
625.373	6.78
625.705	6.54
626.038	6.62
626.37	6.67
626.703	6.41
627.035	6.59
627.368	6.67
627.7	6.78
628.032	6.51
628.365	6.48
628.697	6.59
629.029	6.82
629.361	6.68
629.693	6.83
630.025	6.79
630.357	6.71
630.689	7.01
631.021	6.78
631.353	6.72
631.684	6.75
632.016	6.76
632.348	6.72
632.679	6.58
633.011	6.69
633.342	6.5
633.674	6.74
634.005	6.67
634.336	6.46
634.668	6.47
634.999	6.52
635.33	6.54
635.661	6.54
635.992	6.44
636.323	6.57
636.654	6.83
636.985	6.61
637.316	6.94
637.647	6.95
637.977	6.54
638.308	6.44
638.639	6.45
638.969	6.74
639.3	6.81
639.63	6.55
639.961	6.62
640.291	7.37
640.622	6.89
640.952	6.6
641.282	6.33
641.612	6.36
641.943	6.9
642.273	6.99
642.603	6.78
642.933	6.84
643.263	6.73
643.592	6.92
643.922	7.09
644.252	6.73
644.582	6.49
644.911	6.69
645.241	6.84
645.571	6.7
645.9	7.23
646.23	6.45
646.559	6.6
646.888	6.6
647.218	7.05
647.547	7.04
647.876	6.92
648.205	6.45
648.534	6.53
648.863	6.89
649.192	6.48
649.521	6.51
649.85	7.27
650.179	6.41
650.508	6.53
650.837	6.83
651.165	6.66
651.494	6.96
651.822	7.02
652.151	6.98
652.479	6.97
652.808	6.64
653.136	6.85
653.465	7.35
653.793	7.12
654.121	6.85
654.449	6.72
654.777	6.88
655.105	7.02
655.433	6.9
655.761	6.66
656.089	6.49
656.417	7.03
656.745	7.66
657.073	7.27
657.4	7.09
657.728	6.81
658.056	7.06
658.383	7.32
658.711	6.73
659.038	6.88
659.365	6.62
659.693	6.87
660.02	6.75
660.347	6.52
660.674	6.92
661.001	6.59
661.329	6.77
661.656	6.58
661.982	6.84
662.309	7.1
662.636	7.05
662.963	7.5
663.29	6.84
663.616	7.04
663.943	7.23
664.27	7.27
664.596	6.9
664.923	7.12
665.249	7.2
665.576	6.31
665.902	6.65
666.228	6.83
666.554	6.75
666.881	7.01
667.207	6.84
667.533	7.26
667.859	7.22
668.185	7.35
668.511	6.5
668.837	6.58
669.162	7.14
669.488	6.92
669.814	7.46
670.139	7.13
670.465	7.56
670.791	7.51
671.116	6.5
671.442	7
671.767	7.34
672.092	7.73
672.418	7.27
672.743	7.08
673.068	6.72
673.393	7.04
673.718	7.27
674.043	6.53
674.368	7.3
674.693	6.96
675.018	7.63
675.343	7.53
675.667	6.98
675.992	6.49
676.317	7.19
676.641	6.92
676.966	7.02
677.29	7.3
677.615	7.17
677.939	6.74
678.264	7.3
678.588	7.15
678.912	6.93
679.236	7.45
679.56	7.01
679.885	6.87
680.209	6.75
680.532	6.85
680.856	7.44
681.18	7.14
681.504	7.31
681.828	6.99
682.152	7.16
682.475	7.2
682.799	7.08
683.122	7.11
683.446	6.8
683.769	7.88
684.093	7.03
684.416	7
684.739	7.32
685.062	7.73
685.386	7.26
685.709	7.4
686.032	7.25
686.355	7.42
686.678	7.72
687.001	6.14
687.324	6.98
687.646	7.12
687.969	7.23
688.292	7.82
688.614	8.29
688.937	7.11
689.26	7.05
689.582	7.25
689.904	6.88
690.227	7.31
690.549	7.76
690.871	7.66
691.194	7.38
691.516	7.33
691.838	7.18
692.16	7.6
692.482	7.65
