Data from 0066_chest_Reflection__3__141.txt Node

Date: Fri Dec 16 15:00:45 CST 2022
User: ToomeyLab
Spectrometer: FLMS14357
Trigger mode: 0
Integration Time (sec): 1.000000E-2
Scans to average: 100
Electric dark correction enabled: true
Nonlinearity correction enabled: false
Boxcar width: 0
XAxis mode: Wavelengths
Number of Pixels in Spectrum: 2048
>>>>>Begin Spectral Data<<<<<
189.047	33.1
189.435	33.1
189.823	33.1
190.211	336.06
190.599	271.59
190.987	122.73
191.375	54.34
191.763	2392.67
192.151	-29.54
192.538	55.67
192.926	-1980.24
193.314	50.75
193.702	199.39
194.089	60.53
194.477	-144.93
194.864	-227.93
195.252	-140.07
195.639	149.43
196.027	25.06
196.414	38.75
196.801	358.63
197.189	171.46
197.576	168.61
197.963	-40.74
198.351	25.98
198.738	34.12
199.125	41.68
199.512	18.37
199.899	42.76
200.286	-21.9
200.673	36.39
201.06	26.35
201.447	39.14
201.833	-15.78
202.22	18.77
202.607	4.01
202.994	0.1
203.38	-29.02
203.767	29.14
204.154	-65.94
204.54	43.86
204.927	29.11
205.313	45.39
205.699	14.05
206.086	16.81
206.472	14.18
206.858	4.15
207.245	49.37
207.631	16.62
208.017	12.47
208.403	26.85
208.789	-8.89
209.175	62.82
209.561	14.77
209.947	-5.89
210.333	5.29
210.719	-2.27
211.105	-39.97
211.491	18.84
211.876	1.21
212.262	7.57
212.648	40.06
213.034	2.7
213.419	13.23
213.805	-0.52
214.19	-17.69
214.576	-19.45
214.961	-21.96
215.346	4.29
215.732	25.66
216.117	27.67
216.502	9.75
216.888	-16.07
217.273	12.68
217.658	-8.53
218.043	34.07
218.428	38.07
218.813	6.71
219.198	-23.22
219.583	4.9
219.968	24.37
220.353	26.21
220.738	-6.96
221.122	15.13
221.507	-6.81
221.892	7.8
222.276	4.97
222.661	7.15
223.046	1.11
223.43	3.02
223.815	2.3
224.199	4.94
224.583	3
224.968	18.43
225.352	-10.83
225.736	2.82
226.121	1.47
226.505	-2.23
226.889	5.29
227.273	4.45
227.657	2.18
228.041	3.88
228.425	2.16
228.809	2.48
229.193	-0.66
229.577	1.75
229.961	2.54
230.344	3.13
230.728	2.9
231.112	2
231.495	0.4
231.879	1.88
232.263	2.08
232.646	0.6
233.03	1.82
233.413	2.6
233.797	4.64
234.18	1.6
234.563	2.36
234.946	2.07
235.33	4.12
235.713	2.73
236.096	3.52
236.479	4.34
236.862	2.63
237.245	2.42
237.628	4.48
238.011	1.9
238.394	4.19
238.777	1.73
239.16	-1.51
239.543	1.43
239.925	3.07
240.308	4.27
240.691	2.33
241.073	2.94
241.456	2.36
241.838	1.93
242.221	2.19
242.603	2.56
242.986	2.88
243.368	1.63
243.75	2.01
244.133	2.29
244.515	2.46
244.897	2.39
245.279	2.24
245.661	1.89
246.043	2.99
246.425	1.68
246.807	2.14
247.189	2.7
247.571	2.23
247.953	2.04
248.335	2.29
248.717	2.26
249.098	2.31
249.48	2.4
249.862	2.47
250.243	2.47
250.625	2.16
251.006	2.79
251.388	3.04
251.769	2.26
252.151	2.71
252.532	1.68
252.913	2.66
253.295	2.23
253.676	2.56
254.057	2.31
254.438	1.69
254.819	2.34
255.2	2.8
255.581	1.83
255.962	2.09
256.343	2.64
256.724	3.06
257.105	1.99
257.486	2.37
257.867	0.92
258.247	2.41
258.628	3.16
259.009	2.57
259.389	3.19
259.77	2.02
260.15	2.95
260.531	2.22
260.911	2.03
261.292	2.02
261.672	1.97
262.052	2.08
262.432	2.13
262.813	2.36
263.193	2.68
263.573	1.86
263.953	2.1
264.333	2.3
264.713	1.74
265.093	2.39
265.473	2.89
265.853	2.76
266.233	1.98
266.612	2.15
266.992	2.28
267.372	1.71
267.752	2.04
268.131	2.16
268.511	2.27
268.89	2.6
269.27	2.21
269.649	2.46
270.029	1.91
270.408	2.04
270.787	1.98
271.167	2.46
271.546	1.57
271.925	1.94
272.304	2.75
272.683	2.04
273.062	1.9
273.441	2.4
273.82	2.38
274.199	2.47
274.578	2.06
274.957	2.22
275.336	2.34
275.715	2.43
276.093	2.57
276.472	2.82
276.851	2.72
277.229	3.03
277.608	1.84
277.986	1.99
278.365	1.86
278.743	2.17
279.122	1.44
279.5	2.21
279.878	1.99
280.257	2.76
280.635	1.71
281.013	2.25
281.391	2.08
281.769	1.9
282.147	2.26
282.525	1.91
282.903	2.6
283.281	2.21
283.659	2.08
284.037	2.03
284.415	2.23
284.792	2.22
285.17	1.99
285.548	2.21
285.925	2.02
286.303	2.09
286.68	2.04
287.058	2.23
287.435	1.95
287.813	2.31
288.19	2.61
288.567	1.8
288.945	2.04
289.322	1.98
289.699	1.96
290.076	2.67
290.453	2.39
290.83	2.08
291.207	2.26
291.584	1.99
291.961	2.24
292.338	1.9
292.715	2.4
293.092	1.93
293.469	2.59
293.845	2.43
294.222	2.92
294.599	2.52
294.975	2.61
295.352	2.07
295.728	2.62
296.105	2.36
296.481	2.83
296.858	2.47
297.234	1.97
297.61	2.29
297.986	2.57
298.363	1.96
298.739	2.26
299.115	2.01
299.491	2.16
299.867	2.66
300.243	2.26
300.619	2.39
300.995	2.49
301.371	2.67
301.746	2.26
302.122	2.48
302.498	2.65
302.874	2.3
303.249	2.94
303.625	2.27
304	2.38
304.376	2.26
304.751	2.32
305.127	2.57
305.502	2.78
305.878	2.61
306.253	2.55
306.628	2.55
307.003	2.64
307.378	2.55
307.754	2.44
308.129	1.91
308.504	2.27
308.879	2.63
309.254	3.03
309.629	2.14
310.003	3.12
310.378	2.74
310.753	2.6
311.128	2.7
311.502	2.27
311.877	2.38
312.252	2.43
312.626	2.31
313.001	2.31
313.375	2.46
313.75	2.42
314.124	2.51
314.498	2.13
314.873	2.43
315.247	2.14
315.621	2.99
315.995	2.51
316.369	2.47
316.743	2.94
317.117	2.54
317.491	2.55
317.865	2.86
318.239	3.15
318.613	2.87
318.987	3.31
319.361	2.33
319.734	2.73
320.108	2.65
320.482	2.08
320.855	2.76
321.229	3.3
321.602	2.71
321.976	2.43
322.349	2.07
322.723	1.85
323.096	2.77
323.469	2.41
323.843	2.18
324.216	2.6
324.589	3.09
324.962	2.5
325.335	2.39
325.708	2.69
326.081	3.16
326.454	2.34
326.827	3.33
327.2	2.75
327.573	2.64
327.945	2.68
328.318	2.85
328.691	2.49
329.063	2.83
329.436	2.38
329.809	2.48
330.181	2.7
330.553	3.2
330.926	2.38
331.298	2.05
331.671	2.78
332.043	2.73
332.415	3.2
332.787	3.13
333.159	2.63
333.532	2.93
333.904	2.79
334.276	2.33
334.648	2.51
335.02	2.17
335.391	3.16
335.763	2.81
336.135	2.87
336.507	2.58
336.879	2.55
337.25	2.75
337.622	2.93
337.993	2.93
338.365	2.51
338.736	2.8
339.108	2.5
339.479	2.5
339.851	2.78
340.222	3
340.593	2.68
340.964	2.78
341.336	2.4
341.707	2.68
342.078	2.55
342.449	2.89
342.82	2.91
343.191	2.64
343.562	2.58
343.933	2.74
344.303	2.81
344.674	3.14
345.045	2.92
345.416	2.86
345.786	2.15
346.157	2.69
346.527	2.72
346.898	2.65
347.268	2.47
347.639	2.77
348.009	2.8
348.38	2.88
348.75	2.51
349.12	3.16
349.49	3.18
349.861	3.24
350.231	2.87
350.601	2.82
350.971	2.89
351.341	3.16
351.711	2.48
352.081	2.84
352.45	2.82
352.82	2.91
353.19	2.54
353.56	2.69
353.929	2.91
354.299	3.03
354.669	2.98
355.038	3.01
355.408	3.22
355.777	2.39
356.147	3.44
356.516	2.85
356.885	2.87
357.254	3.23
357.624	2.81
357.993	2.88
358.362	2.88
358.731	2.76
359.1	2.93
359.469	2.76
359.838	2.76
360.207	2.87
360.576	3.14
360.945	2.84
361.314	3.02
361.682	2.53
362.051	2.69
362.42	3.13
362.788	2.96
363.157	2.67
363.525	2.73
363.894	2.84
364.262	2.77
364.631	3.56
364.999	2.68
365.367	3.14
365.735	2.6
366.104	2.63
366.472	3.25
366.84	3.22
367.208	2.91
367.576	2.62
367.944	3.26
368.312	2.89
368.68	2.94
369.048	2.99
369.416	2.79
369.783	2.72
370.151	3.08
370.519	2.87
370.886	3.07
371.254	2.93
371.621	2.77
371.989	2.79
372.356	3.01
372.724	2.91
373.091	3.03
373.458	2.97
373.826	2.83
374.193	3.02
374.56	2.88
374.927	3.01
375.294	3.2
375.661	2.92
376.028	3.04
376.395	3.13
376.762	2.86
377.129	3.03
377.496	2.98
377.863	3.01
378.229	3
378.596	2.95
378.963	2.97
379.329	2.95
379.696	3.13
380.062	3.47
380.429	3.08
380.795	2.76
381.161	3.01
381.528	2.68
381.894	3.15
382.26	2.91
382.626	3.03
382.993	3.11
383.359	2.81
383.725	2.95
384.091	3.21
384.457	3.14
384.823	2.92
385.188	3.26
385.554	3.21
385.92	3.25
386.286	3.31
386.651	3.06
387.017	3.23
387.383	3.29
387.748	2.89
388.114	3.47
388.479	3.03
388.845	3.14
389.21	3.19
389.575	3.14
389.94	3.04
390.306	2.93
390.671	3.05
391.036	3.45
391.401	3.44
391.766	3.12
392.131	3.2
392.496	3.19
392.861	2.92
393.226	2.99
393.591	3.22
393.956	3.12
394.32	3.23
394.685	3.53
395.05	2.95
395.414	3.11
395.779	2.92
396.143	3.03
396.508	3.42
396.872	3.35
397.236	2.94
397.601	3.59
397.965	3.09
398.329	3.29
398.694	3.02
399.058	3.28
399.422	3.23
399.786	3.27
400.15	3.45
400.514	3.42
400.878	3.13
401.242	3.5
401.605	3.4
401.969	3.17
402.333	3.18
402.697	3.41
403.06	3.35
403.424	3.1
403.787	3.34
404.151	3.08
404.514	3.35
404.878	3.39
405.241	3.41
405.604	3.34
405.968	3.25
406.331	3.45
406.694	3.21
407.057	3.61
407.42	3.26
407.783	3.11
408.146	3.39
408.509	3.29
408.872	3.16
409.235	3.49
409.598	3.56
409.961	3.45
410.323	3.3
410.686	3.2
411.049	3.11
411.411	3.22
411.774	3.25
412.136	3.3
412.499	3.48
412.861	3.3
413.223	3.45
413.586	3.23
413.948	3.42
414.31	3.33
414.672	3.34
415.035	3.27
415.397	3.5
415.759	3.32
416.121	3.37
416.483	3.48
416.845	3.23
417.206	3.3
417.568	3.42
417.93	3.5
418.292	3.48
418.653	3.3
419.015	3.37
419.377	3.36
419.738	3.2
420.1	3.26
420.461	3.3
420.822	3.35
421.184	3.31
421.545	3.31
421.906	3.35
422.267	3.21
422.629	3.25
422.99	3.33
423.351	3.32
423.712	3.32
424.073	3.49
424.434	3.31
424.795	3.31
425.155	3.32
425.516	3.33
425.877	3.31
426.238	3.29
426.598	3.37
426.959	3.31
427.32	3.4
427.68	3.51
428.041	3.52
428.401	3.51
428.761	3.28
429.122	3.39
429.482	3.35
429.842	3.6
430.202	3.59
430.563	3.41
430.923	3.43
431.283	3.53
431.643	3.39
432.003	3.54
432.363	3.66
432.722	3.53
433.082	3.35
433.442	3.35
433.802	3.49
434.161	3.43
434.521	3.51
434.881	3.62
435.24	3.48
435.6	3.32
435.959	3.56
436.319	3.4
436.678	3.63
437.037	3.67
437.396	3.52
437.756	3.67
438.115	3.5
438.474	3.74
438.833	3.64
439.192	3.66
439.551	3.58
439.91	3.68
440.269	3.71
440.628	3.53
440.987	3.46
441.345	3.43
441.704	3.56
442.063	3.51
442.421	3.55
442.78	3.6
443.138	3.6
443.497	3.49
443.855	3.56
444.214	3.67
444.572	3.59
444.93	3.58
445.288	3.7
445.647	3.63
446.005	3.39
446.363	3.58
446.721	3.4
447.079	3.55
447.437	3.58
447.795	3.54
448.153	3.52
448.51	3.47
448.868	3.6
449.226	3.63
449.584	3.66
449.941	3.78
450.299	3.67
450.656	3.67
451.014	3.73
451.371	3.63
451.729	3.55
452.086	3.64
452.443	3.68
452.801	3.88
453.158	3.7
453.515	3.57
453.872	3.73
454.229	3.66
454.586	3.72
454.943	3.74
455.3	3.98
455.657	3.66
456.014	3.78
456.371	3.77
456.727	3.67
457.084	3.79
457.441	3.77
457.797	3.8
458.154	3.62
458.51	3.75
458.867	3.68
459.223	3.78
459.58	3.61
459.936	3.63
460.292	3.78
460.648	3.61
461.005	3.63
461.361	3.63
461.717	3.69
462.073	3.77
462.429	3.81
462.785	3.91
463.141	3.89
463.496	3.75
463.852	4.04
464.208	3.8
464.564	3.83
464.919	3.87
465.275	3.97
465.631	3.85
465.986	3.75
466.342	3.93
466.697	3.96
467.052	3.81
467.408	3.72
467.763	3.66
468.118	3.91
468.473	4.04
468.829	3.8
469.184	3.9
469.539	3.84
469.894	3.87
470.249	3.86
470.603	3.9
470.958	4
471.313	3.93
471.668	3.96
472.023	3.96
472.377	3.88
472.732	3.92
473.086	3.82
473.441	3.92
473.795	4
474.15	3.78
474.504	3.75
474.859	4.03
475.213	4.01
475.567	3.76
475.921	4.14
476.275	4.02
476.63	3.99
476.984	3.92
477.338	4.15
477.692	4.03
478.045	4.02
478.399	4.12
478.753	3.84
479.107	3.98
479.461	4.06
479.814	3.91
480.168	3.98
480.521	4.02
480.875	4.29
481.228	4.19
481.582	3.94
481.935	4.02
482.289	4.09
482.642	4.1
482.995	3.98
483.348	3.96
483.701	3.97
484.055	3.89
484.408	3.85
484.761	3.74
485.114	3.67
485.466	3.72
485.819	3.77
486.172	3.87
486.525	3.96
486.878	4
487.23	3.99
487.583	4.01
487.936	4.03
488.288	3.92
488.641	3.87
488.993	3.83
489.345	3.85
489.698	3.92
490.05	3.96
490.402	4.04
490.754	4.07
491.107	4.17
491.459	4.22
491.811	4.15
492.163	4.06
492.515	3.99
492.866	3.83
493.218	3.88
493.57	4
493.922	4.09
494.274	4.15
494.625	4.16
494.977	4.17
495.328	4.28
495.68	4.34
496.031	4.3
496.383	4.31
496.734	4.34
497.086	4.12
497.437	4.35
497.788	4.22
498.139	4.28
498.49	4.36
498.842	4.23
499.193	4.35
499.544	4.41
499.894	4.29
500.245	4.35
500.596	4.31
500.947	4.34
501.298	4.26
501.648	4.37
501.999	4.46
502.35	4.44
502.7	4.37
503.051	4.54
503.401	4.51
503.752	4.38
504.102	4.35
504.452	4.38
504.803	4.32
505.153	4.49
505.503	4.43
505.853	4.49
506.203	4.53
506.553	4.51
506.903	4.55
507.253	4.53
507.603	4.55
507.953	4.65
508.303	4.53
508.652	4.54
509.002	4.49
509.352	4.45
509.701	4.45
510.051	4.49
510.4	4.52
510.75	4.52
511.099	4.58
511.449	4.52
511.798	4.63
512.147	4.52
512.496	4.62
512.846	4.6
513.195	4.66
513.544	4.45
513.893	4.54
514.242	4.62
514.591	4.59
514.939	4.55
515.288	4.68
515.637	4.78
515.986	4.72
516.334	4.76
516.683	4.76
517.032	4.65
517.38	4.69
517.729	4.73
518.077	4.84
518.426	4.6
518.774	4.77
519.122	4.7
519.47	4.64
519.819	4.66
520.167	4.67
520.515	4.66
520.863	4.76
521.211	4.73
521.559	4.76
521.907	4.84
522.255	4.82
522.602	4.91
522.95	4.88
523.298	4.78
523.645	4.88
523.993	5.04
524.341	4.83
524.688	4.94
525.036	5.12
525.383	4.99
525.73	4.9
526.078	5.01
526.425	4.9
526.772	4.7
527.119	4.79
527.466	4.81
527.814	4.87
528.161	4.92
528.508	4.9
528.854	4.82
529.201	4.78
529.548	4.69
529.895	4.65
530.242	4.7
530.588	4.81
530.935	4.86
531.282	4.93
531.628	4.98
531.975	5
532.321	4.99
532.667	5.08
533.014	5.15
533.36	5.05
533.706	5.1
534.052	4.96
534.399	4.93
534.745	4.93
535.091	4.98
535.437	5.19
535.783	5.13
536.129	5.19
536.474	5.31
536.82	5.31
537.166	5.42
537.512	5.27
537.857	5.17
538.203	5.2
538.549	5.22
538.894	5.29
539.239	5.39
539.585	5.36
539.93	5.46
540.276	5.4
540.621	5.35
540.966	5.4
541.311	5.43
541.656	5.32
542.001	5.35
542.346	5.25
542.691	5.16
543.036	5.15
543.381	5.32
543.726	5.43
544.071	5.47
544.415	5.41
544.76	5.39
545.105	5.5
545.449	5.55
545.794	5.59
546.138	5.66
546.483	5.63
546.827	5.68
547.171	5.62
547.516	5.77
547.86	5.73
548.204	5.73
548.548	5.73
548.892	5.82
549.236	5.75
549.58	5.86
549.924	5.93
550.268	5.95
550.612	6.03
550.956	5.77
551.3	5.88
551.643	6.16
551.987	6
552.33	5.97
552.674	5.99
553.017	6.01
553.361	6.08
553.704	5.92
554.048	6.1
554.391	6.09
554.734	6.1
555.077	6.16
555.42	6.16
555.764	6.12
556.107	6.28
556.45	6.23
556.793	6.34
557.135	6.39
557.478	6.41
557.821	6.24
558.164	6.51
558.507	6.27
558.849	6.26
559.192	6.47
559.534	6.42
559.877	6.61
560.219	6.65
560.562	6.6
560.904	6.63
561.246	6.66
561.589	6.6
561.931	6.84
562.273	6.59
562.615	6.53
562.957	6.73
563.299	6.68
563.641	6.67
563.983	6.66
564.325	6.48
564.667	6.74
565.008	6.73
565.35	6.91
565.692	6.95
566.033	6.8
566.375	6.59
566.716	6.91
567.058	6.95
567.399	6.86
567.741	6.84
568.082	6.79
568.423	6.77
568.764	7
569.105	7.1
569.447	7.09
569.788	7.05
570.129	7.05
570.47	7.02
570.811	7.07
571.151	7.15
571.492	7.24
571.833	6.91
572.174	7.24
572.514	7.19
572.855	7.18
573.195	7.13
573.536	7.21
573.876	7.16
574.217	7.28
574.557	7.36
574.898	7.33
575.238	7.21
575.578	7.49
575.918	7.41
576.258	7.47
576.598	7.51
576.938	7.48
577.278	7.39
577.618	7.54
577.958	7.46
578.298	7.58
578.638	7.76
578.977	7.79
579.317	7.7
579.657	7.71
579.996	7.67
580.336	7.55
580.675	7.8
581.014	7.9
581.354	8.03
581.693	7.96
582.032	7.86
582.372	8.04
582.711	7.98
583.05	8.32
583.389	8.23
583.728	8.01
584.067	8.11
584.406	8.22
584.745	8.11
585.083	8.41
585.422	8.38
585.761	8.34
586.1	8.61
586.438	8.4
586.777	8.42
587.115	8.57
587.454	8.36
587.792	8.38
588.13	8.61
588.469	8.74
588.807	8.77
589.145	8.63
589.483	8.49
589.821	8.62
590.159	8.52
590.497	8.57
590.835	8.61
591.173	8.73
591.511	8.71
591.849	8.83
592.187	8.85
592.524	8.76
592.862	8.68
593.2	8.77
593.537	8.89
593.875	8.93
594.212	8.96
594.55	8.9
594.887	9.21
595.224	8.71
595.561	8.88
595.899	8.97
596.236	9.18
596.573	9.02
596.91	9.1
597.247	8.92
597.584	9.04
597.921	9.1
598.258	9.09
598.594	8.89
598.931	9.1
599.268	9.16
599.604	9.35
599.941	9.47
600.277	9.4
600.614	9.27
600.95	9.61
601.287	9.69
601.623	9.85
601.959	9.7
602.296	9.57
602.632	9.88
602.968	9.69
603.304	9.63
603.64	9.75
603.976	9.63
604.312	9.91
604.648	9.49
604.984	9.71
605.319	9.97
605.655	9.71
605.991	9.78
606.326	9.58
606.662	9.66
606.998	9.88
607.333	9.96
607.668	10
608.004	10
608.339	10.19
608.674	10.15
609.01	10.35
609.345	10.41
609.68	10.2
610.015	10.34
610.35	10.28
610.685	10.08
611.02	10.19
611.355	10.31
611.689	10.34
612.024	10.46
612.359	10.41
612.694	10.49
613.028	10.87
613.363	10.61
613.697	10.54
614.032	10.55
614.366	10.85
614.7	10.92
615.035	10.71
615.369	11.01
615.703	11.06
616.037	11.03
616.371	10.97
616.705	11.14
617.039	11.06
617.373	10.94
617.707	10.79
618.041	11.26
618.375	10.83
618.709	11.03
619.042	11.13
619.376	11.06
619.71	11.06
620.043	11.23
620.377	11.1
620.71	11.14
621.043	11.33
621.377	11.03
621.71	11.64
622.043	11.48
622.376	11.08
622.709	11.76
623.043	11.39
623.376	11.72
623.709	12.05
624.041	11.55
624.374	11.62
624.707	11.67
625.04	11.92
625.373	11.74
625.705	11.97
626.038	11.94
626.37	11.71
626.703	11.77
627.035	12.12
627.368	11.93
627.7	12
628.032	11.75
628.365	11.83
628.697	11.91
629.029	12
629.361	11.92
629.693	12.3
630.025	12.29
630.357	11.87
630.689	12.62
631.021	12.11
631.353	12.39
631.684	12.48
632.016	12.19
632.348	12.36
632.679	12.4
633.011	12.42
633.342	12.1
633.674	12.64
634.005	12.82
634.336	12.39
634.668	12.57
634.999	12.55
635.33	12.62
635.661	12.84
635.992	12.87
636.323	12.81
636.654	12.9
636.985	12.85
637.316	13.27
637.647	13.05
637.977	12.62
638.308	12.95
638.639	13.15
638.969	13.06
639.3	13.21
639.63	12.62
639.961	13.16
640.291	13.7
640.622	13.71
640.952	13.38
641.282	12.72
641.612	13.1
641.943	13.49
642.273	13.61
642.603	13.42
642.933	13.4
643.263	13.98
643.592	13.42
643.922	13.58
644.252	13.72
644.582	13.7
644.911	13.64
645.241	13.68
645.571	13.58
645.9	14.28
646.23	14
646.559	13.65
646.888	14.12
647.218	14.44
647.547	14.13
647.876	13.74
648.205	13.83
648.534	14.5
648.863	14.09
649.192	13.9
649.521	14.15
649.85	14.69
650.179	13.9
650.508	14.15
650.837	14.07
651.165	14.36
651.494	14.45
651.822	14.29
652.151	14.54
652.479	14.34
652.808	13.97
653.136	14.85
653.465	14.55
653.793	14.59
654.121	14.61
654.449	14.32
654.777	14.59
655.105	14.86
655.433	14.69
655.761	14.45
656.089	14.77
656.417	14.6
656.745	15.49
657.073	15.08
657.4	15.2
657.728	15.11
658.056	14.58
658.383	14.89
658.711	14.64
659.038	15.34
659.365	15.31
659.693	15.14
660.02	14.86
660.347	14.92
660.674	14.92
661.001	14.95
661.329	15.06
661.656	15.13
661.982	15.17
662.309	15.37
662.636	15.42
662.963	15.85
663.29	15.46
663.616	15.73
663.943	15.97
664.27	15.7
664.596	15.56
664.923	15.98
665.249	15.33
665.576	15.94
665.902	15.98
666.228	16.18
666.554	15.5
666.881	15.83
667.207	16
667.533	15.83
667.859	15.57
668.185	16.22
668.511	15.32
668.837	15.95
669.162	16.17
669.488	16.38
669.814	16.64
670.139	16.45
670.465	16.12
670.791	16.57
671.116	16.43
671.442	16.16
671.767	16.28
672.092	16.42
672.418	16.35
672.743	16.46
673.068	15.98
673.393	16.61
673.718	16.54
674.043	16.29
674.368	16.87
674.693	16.81
675.018	16.89
675.343	16.49
675.667	16.98
675.992	16.42
676.317	16.53
676.641	16.85
676.966	16.66
677.29	17.24
677.615	17.34
677.939	16.8
678.264	17.35
678.588	17.38
678.912	17.45
679.236	17.3
679.56	17.38
679.885	17.3
680.209	16.86
680.532	17.3
680.856	17.91
681.18	17.15
681.504	16.73
681.828	16.92
682.152	17.63
682.475	17.44
682.799	17.56
683.122	16.85
683.446	17.26
683.769	17.83
684.093	17.85
684.416	17.06
684.739	18.33
685.062	17.47
685.386	17.93
685.709	17.58
686.032	17.85
686.355	17.69
686.678	17.59
687.001	17.6
687.324	17.69
687.646	17.61
