Data from 0066_forehead_Reflection__3__151.txt Node

Date: Fri Dec 16 15:05:32 CST 2022
User: ToomeyLab
Spectrometer: FLMS14357
Trigger mode: 0
Integration Time (sec): 1.000000E-2
Scans to average: 100
Electric dark correction enabled: true
Nonlinearity correction enabled: false
Boxcar width: 0
XAxis mode: Wavelengths
Number of Pixels in Spectrum: 2048
>>>>>Begin Spectral Data<<<<<
189.047	10.07
189.435	10.07
189.823	10.07
190.211	-168.26
190.599	-321.59
190.987	79.36
191.375	-47.26
191.763	-370.26
192.151	-150.04
192.538	-13.29
192.926	-1872.98
193.314	88.63
193.702	-42.47
194.089	61.07
194.477	-125.07
194.864	-458.59
195.252	-126.03
195.639	72.1
196.027	-135.93
196.414	-31.16
196.801	672.81
197.189	142.2
197.576	-32.23
197.963	103.28
198.351	14.99
198.738	24.08
199.125	42.95
199.512	45.56
199.899	-6.77
200.286	-26.41
200.673	25.07
201.06	31.2
201.447	71.1
201.833	-0.36
202.22	57.67
202.607	7.83
202.994	28.53
203.38	15.41
203.767	36.6
204.154	-6.81
204.54	16.25
204.927	54.2
205.313	52.35
205.699	1.59
206.086	13.71
206.472	-15.23
206.858	-10.82
207.245	52.49
207.631	-29.37
208.017	9.04
208.403	9.22
208.789	-38.8
209.175	40.68
209.561	15.03
209.947	-6.5
210.333	16.68
210.719	15.72
211.105	34.19
211.491	34.2
211.876	24.47
212.262	-8.82
212.648	8.28
213.034	5.53
213.419	9.37
213.805	-14.26
214.19	0.27
214.576	10.11
214.961	-5.94
215.346	-54.82
215.732	6.65
216.117	-15.93
216.502	-3.72
216.888	19.19
217.273	32.26
217.658	-13.42
218.043	5.84
218.428	-9.79
218.813	24.55
219.198	-35.17
219.583	16.83
219.968	27.76
220.353	6.68
220.738	-13.08
221.122	4.17
221.507	2.33
221.892	18.58
222.276	11.65
222.661	13.06
223.046	9.13
223.43	12.06
223.815	12.42
224.199	6.69
224.583	9.05
224.968	6.52
225.352	4.76
225.736	16.29
226.121	4.41
226.505	6.2
226.889	10.5
227.273	1.83
227.657	2.78
228.041	6.63
228.425	7.8
228.809	3.82
229.193	1.35
229.577	2.36
229.961	3.74
230.344	3.56
230.728	4.24
231.112	3.34
231.495	2.48
231.879	3.03
232.263	0.8
232.646	2.24
233.03	1.31
233.413	1.03
233.797	5.85
234.18	3.15
234.563	1
234.946	2.6
235.33	3.06
235.713	3.8
236.096	3.87
236.479	3.91
236.862	5.05
237.245	2.96
237.628	5.56
238.011	3.41
238.394	4.96
238.777	4.65
239.16	2.74
239.543	2.81
239.925	3.66
240.308	4.15
240.691	3.55
241.073	3.72
241.456	4.33
241.838	3.15
242.221	4.43
242.603	4.19
242.986	4.54
243.368	3.46
243.75	3.21
244.133	3.58
244.515	3.39
244.897	3.22
245.279	3.03
245.661	4.01
246.043	4.31
246.425	3.72
246.807	3.77
247.189	3.75
247.571	3.92
247.953	3.69
248.335	3.85
248.717	3.52
249.098	3.72
249.48	3.18
249.862	3.85
250.243	3.54
250.625	3.44
251.006	4.22
251.388	4.3
251.769	3.48
252.151	3.23
252.532	4.03
252.913	3.71
253.295	3.81
253.676	4.11
254.057	3.48
254.438	3.47
254.819	4.02
255.2	4.04
255.581	3.57
255.962	4.43
256.343	3.62
256.724	2.99
257.105	3.45
257.486	3.65
257.867	3.32
258.247	4.46
258.628	4.92
259.009	3.98
259.389	4.14
259.77	3.83
260.15	4.43
260.531	3.75
260.911	3.77
261.292	3.71
261.672	3.75
262.052	3.62
262.432	4.1
262.813	3.53
263.193	3.24
263.573	4.25
263.953	3.55
264.333	4.13
264.713	3.35
265.093	3.19
265.473	5.25
265.853	4.71
266.233	4.36
266.612	4.21
266.992	3.04
267.372	3.95
267.752	4.07
268.131	3.76
268.511	3.83
268.89	3.48
269.27	3.67
269.649	3.64
270.029	3.73
270.408	3.69
270.787	3.68
271.167	3.59
271.546	3.21
271.925	3.58
272.304	4.04
272.683	3.57
273.062	4.16
273.441	3.72
273.82	3.98
274.199	3.91
274.578	3.38
274.957	3.45
275.336	3.65
275.715	4.32
276.093	4.4
276.472	4.51
276.851	3.58
277.229	4.13
277.608	3.55
277.986	3.98
278.365	3.29
278.743	3.98
279.122	3.29
279.5	3.67
279.878	3.24
280.257	4.03
280.635	3.33
281.013	4.43
281.391	3.31
281.769	3.69
282.147	3.26
282.525	3.33
282.903	3.72
283.281	3.49
283.659	3.76
284.037	3.91
284.415	3.93
284.792	3.68
285.17	3.4
285.548	3.48
285.925	3.65
286.303	3.33
286.68	4.01
287.058	3.33
287.435	3.75
287.813	3.61
288.19	4.17
288.567	3.56
288.945	3.77
289.322	3.72
289.699	4.28
290.076	4
290.453	3.48
290.83	4.04
291.207	3.96
291.584	3.95
291.961	4.45
292.338	4.18
292.715	4.33
293.092	4.3
293.469	4.78
293.845	4.79
294.222	4.39
294.599	4.44
294.975	4.75
295.352	4.07
295.728	4.68
296.105	4.56
296.481	5.07
296.858	4.81
297.234	4.96
297.61	4.69
297.986	4.45
298.363	4.32
298.739	5.03
299.115	4.35
299.491	4.67
299.867	4.56
300.243	4.51
300.619	4.84
300.995	5.01
301.371	5.2
301.746	5.01
302.122	4.85
302.498	5.1
302.874	5.39
303.249	5.38
303.625	5.12
304	4.79
304.376	4.85
304.751	5.45
305.127	5.77
305.502	5.3
305.878	4.96
306.253	5.21
306.628	5.53
307.003	5.39
307.378	4.93
307.754	5.41
308.129	5.12
308.504	5.87
308.879	5.23
309.254	5.61
309.629	5.73
310.003	5.31
310.378	5.53
310.753	5.77
311.128	5.7
311.502	5.67
311.877	5.76
312.252	5.46
312.626	5.52
313.001	5.73
313.375	5.85
313.75	5.86
314.124	6.35
314.498	5.67
314.873	6.07
315.247	5.8
315.621	6.29
315.995	5.98
316.369	6.29
316.743	6.73
317.117	6.72
317.491	5.93
317.865	6.01
318.239	6.87
318.613	6.06
318.987	6.73
319.361	6.76
319.734	6.92
320.108	6.81
320.482	6.51
320.855	6.75
321.229	6.92
321.602	6.21
321.976	6.34
322.349	6.19
322.723	6.71
323.096	6.96
323.469	6.37
323.843	6.82
324.216	6.78
324.589	7
324.962	7.05
325.335	6.83
325.708	6.82
326.081	7.27
326.454	6.85
326.827	7.3
327.2	7.03
327.573	7.42
327.945	7.01
328.318	7.65
328.691	7.4
329.063	7.18
329.436	7.52
329.809	6.86
330.181	7.21
330.553	7.94
330.926	7.27
331.298	6.97
331.671	7.6
332.043	7.25
332.415	7.62
332.787	8.02
333.159	7.59
333.532	7.59
333.904	8.12
334.276	7.45
334.648	7.32
335.02	7.7
335.391	7.93
335.763	7.53
336.135	7.85
336.507	7.81
336.879	7.68
337.25	7.97
337.622	8.18
337.993	7.6
338.365	8.28
338.736	8.13
339.108	8.01
339.479	7.93
339.851	8.53
340.222	8.29
340.593	7.47
340.964	7.74
341.336	7.86
341.707	8.14
342.078	7.75
342.449	8.67
342.82	8.13
343.191	7.96
343.562	8.23
343.933	7.96
344.303	8.5
344.674	8.29
345.045	8.78
345.416	8.32
345.786	8.07
346.157	8.21
346.527	8.17
346.898	8.48
347.268	8.51
347.639	8.58
348.009	8.73
348.38	8.55
348.75	9
349.12	8.77
349.49	8.35
349.861	9.18
350.231	8.74
350.601	8.82
350.971	8.8
351.341	8.53
351.711	8.54
352.081	9.11
352.45	9.17
352.82	9.17
353.19	8.73
353.56	9.02
353.929	9.27
354.299	8.87
354.669	8.86
355.038	8.9
355.408	9.45
355.777	9.18
356.147	9.13
356.516	9.69
356.885	9.41
357.254	9.17
357.624	9.42
357.993	9.13
358.362	9.53
358.731	9.57
359.1	9.57
359.469	9.42
359.838	9.24
360.207	9.25
360.576	9.74
360.945	9.28
361.314	9.83
361.682	9.4
362.051	9.57
362.42	9.74
362.788	9.92
363.157	9.39
363.525	9.49
363.894	9.39
364.262	9.56
364.631	10.33
364.999	9.76
365.367	10.08
365.735	9.47
366.104	9.58
366.472	10.2
366.84	10.29
367.208	10.11
367.576	10.11
367.944	9.99
368.312	9.68
368.68	10.46
369.048	10.4
369.416	10.05
369.783	10.34
370.151	10.68
370.519	10.32
370.886	10.13
371.254	10.31
371.621	10.14
371.989	10.17
372.356	10.38
372.724	10.54
373.091	10.38
373.458	10.56
373.826	10.3
374.193	10.79
374.56	10.54
374.927	10.63
375.294	11
375.661	10.9
376.028	10.73
376.395	10.75
376.762	10.75
377.129	10.95
377.496	10.94
377.863	11.05
378.229	10.82
378.596	10.68
378.963	10.82
379.329	11.11
379.696	10.95
380.062	11.35
380.429	11.16
380.795	11.24
381.161	10.99
381.528	10.67
381.894	11.29
382.26	11.17
382.626	11.45
382.993	11.14
383.359	11.42
383.725	11.84
384.091	11.18
384.457	11.34
384.823	11.33
385.188	11.45
385.554	11.65
385.92	11.9
386.286	11.85
386.651	11.43
387.017	11.66
387.383	11.76
387.748	11.64
388.114	12.04
388.479	11.78
388.845	11.9
389.21	11.72
389.575	11.88
389.94	11.67
390.306	11.72
390.671	11.91
391.036	12.28
391.401	12.33
391.766	12.24
392.131	11.92
392.496	12.08
392.861	11.9
393.226	12.16
393.591	12.19
393.956	12.3
394.32	12.25
394.685	12.47
395.05	12.19
395.414	12.19
395.779	12.34
396.143	12.46
396.508	12.64
396.872	12.61
397.236	12.31
397.601	12.59
397.965	12.48
398.329	12.84
398.694	12.7
399.058	12.73
399.422	12.86
399.786	12.66
400.15	12.86
400.514	12.93
400.878	12.76
401.242	12.87
401.605	12.91
401.969	13.05
402.333	12.97
402.697	13.22
403.06	13.19
403.424	12.84
403.787	13.18
404.151	12.92
404.514	13.24
404.878	13.25
405.241	13.15
405.604	13.19
405.968	13.15
406.331	13.23
406.694	13.21
407.057	13.37
407.42	13.32
407.783	13.17
408.146	13.39
408.509	13.3
408.872	13.63
409.235	13.35
409.598	13.64
409.961	13.7
410.323	13.75
410.686	13.66
411.049	13.47
411.411	13.68
411.774	13.61
412.136	13.74
412.499	13.76
412.861	13.64
413.223	13.72
413.586	13.8
413.948	13.94
414.31	14.1
414.672	14.06
415.035	14.14
415.397	14.04
415.759	14.06
416.121	14.23
416.483	14.2
416.845	14.05
417.206	14.01
417.568	14.37
417.93	14.01
418.292	14.1
418.653	14.35
419.015	14.2
419.377	14.31
419.738	14.01
420.1	14.23
420.461	14.13
420.822	14.2
421.184	14.16
421.545	14.37
421.906	14.3
422.267	13.98
422.629	14.16
422.99	14.22
423.351	14.26
423.712	14.51
424.073	14.55
424.434	14.48
424.795	14.41
425.155	14.43
425.516	14.29
425.877	14.37
426.238	14.48
426.598	14.74
426.959	14.63
427.32	14.89
427.68	14.92
428.041	15.12
428.401	14.92
428.761	15.04
429.122	14.95
429.482	14.99
429.842	15.3
430.202	15.16
430.563	15.4
430.923	15.24
431.283	15.37
431.643	15.36
432.003	15.33
432.363	15.54
432.722	15.18
433.082	15.41
433.442	15.37
433.802	15.43
434.161	15.42
434.521	15.55
434.881	15.67
435.24	15.44
435.6	15.59
435.959	15.53
436.319	15.64
436.678	15.78
437.037	15.81
437.396	15.72
437.756	15.79
438.115	15.85
438.474	15.95
438.833	15.98
439.192	16.05
439.551	15.95
439.91	15.94
440.269	16.17
440.628	15.8
440.987	15.95
441.345	16.04
441.704	16.07
442.063	15.9
442.421	16.02
442.78	16.13
443.138	16.19
443.497	16.13
443.855	16.39
444.214	16.33
444.572	16.34
444.93	16.44
445.288	16.38
445.647	16.45
446.005	16.41
446.363	16.38
446.721	16.27
447.079	16.4
447.437	16.38
447.795	16.3
448.153	16.35
448.51	16.39
448.868	16.45
449.226	16.63
449.584	16.76
449.941	16.88
450.299	16.72
450.656	16.91
451.014	16.9
451.371	17.09
451.729	17.13
452.086	17.03
452.443	16.92
452.801	17.41
453.158	16.95
453.515	17.12
453.872	17.28
454.229	17.16
454.586	17.17
454.943	17.24
455.3	17.4
455.657	17.21
456.014	17.46
456.371	17.63
456.727	17.44
457.084	17.54
457.441	17.53
457.797	17.54
458.154	17.59
458.51	17.59
458.867	17.5
459.223	17.73
459.58	17.68
459.936	17.46
460.292	17.58
460.648	17.51
461.005	17.37
461.361	17.32
461.717	17.39
462.073	17.74
462.429	17.79
462.785	17.93
463.141	18.11
463.496	18.04
463.852	18.13
464.208	18.24
464.564	18.13
464.919	18.17
465.275	18.35
465.631	18.25
465.986	18.16
466.342	18.36
466.697	18.34
467.052	18.42
467.408	18.3
467.763	18.38
468.118	18.46
468.473	18.58
468.829	18.33
469.184	18.67
469.539	18.46
469.894	18.56
470.249	18.72
470.603	18.72
470.958	18.81
471.313	18.68
471.668	18.97
472.023	18.92
472.377	18.94
472.732	19.05
473.086	18.95
473.441	18.98
473.795	19.08
474.15	18.9
474.504	18.99
474.859	19.12
475.213	19.28
475.567	19.11
475.921	19.38
476.275	19.33
476.63	19.29
476.984	19.22
477.338	19.4
477.692	19.4
478.045	19.26
478.399	19.34
478.753	19.3
479.107	19.39
479.461	19.34
479.814	19.31
480.168	19.43
480.521	19.51
480.875	19.69
481.228	19.66
481.582	19.63
481.935	19.75
482.289	19.59
482.642	19.48
482.995	19.46
483.348	19.55
483.701	19.49
484.055	19.32
484.408	19.05
484.761	18.81
485.114	18.69
485.466	18.7
485.819	18.95
486.172	19.05
486.525	19.31
486.878	19.4
487.23	19.53
487.583	19.63
487.936	19.49
488.288	19.29
488.641	19.16
488.993	19.2
489.345	19.33
489.698	19.32
490.05	19.51
490.402	19.82
490.754	19.97
491.107	20.06
491.459	20.21
491.811	20.23
492.163	20.1
492.515	19.93
492.866	19.5
493.218	19.61
493.57	19.86
493.922	20.04
494.274	20.33
494.625	20.32
494.977	20.59
495.328	20.66
495.68	20.93
496.031	20.9
496.383	20.86
496.734	20.99
497.086	20.86
497.437	20.96
497.788	20.75
498.139	20.93
498.49	20.78
498.842	20.82
499.193	20.9
499.544	21.1
499.894	21.01
500.245	21.29
500.596	21.22
500.947	21.36
501.298	21.27
501.648	21.41
501.999	21.62
502.35	21.51
502.7	21.52
503.051	21.68
503.401	21.69
503.752	21.7
504.102	21.73
504.452	21.72
504.803	21.8
505.153	21.75
505.503	21.72
505.853	21.83
506.203	21.89
506.553	21.95
506.903	21.88
507.253	22.09
507.603	22.17
507.953	21.98
508.303	22.09
508.652	22.04
509.002	22.22
509.352	21.97
509.701	21.96
510.051	22.02
510.4	21.97
510.75	22.11
511.099	22.04
511.449	22.1
511.798	22.16
512.147	21.99
512.496	22.29
512.846	22.42
513.195	22.28
513.544	22.36
513.893	22.23
514.242	22.47
514.591	22.37
514.939	22.66
515.288	22.49
515.637	22.81
515.986	22.76
516.334	22.88
516.683	22.89
517.032	22.81
517.38	22.83
517.729	22.76
518.077	22.85
518.426	22.9
518.774	22.84
519.122	22.65
519.47	22.67
519.819	22.62
520.167	22.6
520.515	22.8
520.863	22.79
521.211	22.91
521.559	22.98
521.907	23.13
522.255	23.31
522.602	23.29
522.95	23.45
523.298	23.47
523.645	23.44
523.993	23.45
524.341	23.62
524.688	23.58
525.036	23.68
525.383	23.62
525.73	23.55
526.078	23.46
526.425	23.33
526.772	23.19
527.119	23.24
527.466	23.32
527.814	23.31
528.161	23.49
528.508	23.5
528.854	23.37
529.201	23.23
529.548	22.99
529.895	22.85
530.242	22.93
530.588	23.08
530.935	23.34
531.282	23.48
531.628	23.53
531.975	23.77
532.321	23.82
532.667	23.99
533.014	23.93
533.36	23.99
533.706	23.92
534.052	23.73
534.399	23.58
534.745	23.47
535.091	23.69
535.437	23.9
535.783	24
536.129	24.17
536.474	24.4
536.82	24.41
537.166	24.44
537.512	24.33
537.857	24.26
538.203	24.22
538.549	24.38
538.894	24.45
539.239	24.79
539.585	24.73
539.93	25.02
540.276	24.97
540.621	25.08
540.966	24.97
541.311	25.25
541.656	24.83
542.001	24.79
542.346	24.37
542.691	24.2
543.036	24.26
543.381	24.51
543.726	24.66
544.071	24.76
544.415	24.77
544.76	24.8
545.105	25.08
545.449	25.14
545.794	25.24
546.138	25.41
546.483	25.53
546.827	25.47
547.171	25.34
547.516	25.45
547.86	25.41
548.204	25.44
548.548	25.6
548.892	25.64
549.236	25.79
549.58	25.76
549.924	26.08
550.268	26.11
550.612	26.24
550.956	26.22
551.3	26.24
551.643	26.2
551.987	26.45
552.33	26.47
552.674	26.56
553.017	26.62
553.361	26.59
553.704	26.37
554.048	26.4
554.391	26.43
554.734	26.71
555.077	26.59
555.42	26.71
555.764	26.93
556.107	26.82
556.45	27.06
556.793	26.99
557.135	27.1
557.478	26.85
557.821	27.03
558.164	27.13
558.507	26.98
558.849	27.11
559.192	27.06
559.534	27.22
559.877	27.26
560.219	27.4
560.562	27.45
560.904	27.41
561.246	27.46
561.589	27.72
561.931	27.59
562.273	27.45
562.615	27.81
562.957	27.61
563.299	27.69
563.641	27.65
563.983	27.67
564.325	27.58
564.667	27.82
565.008	27.45
565.35	27.97
565.692	27.95
566.033	28.08
566.375	27.8
566.716	27.99
567.058	28.1
567.399	27.92
567.741	27.75
568.082	27.72
568.423	27.85
568.764	28.14
569.105	28
569.447	28.06
569.788	28.24
570.129	28.29
570.47	28.39
570.811	28.35
571.151	28.16
571.492	28.25
571.833	28.32
572.174	28.26
572.514	28.21
572.855	28.24
573.195	27.99
573.536	28.4
573.876	28.41
574.217	28.31
574.557	28.46
574.898	28.44
575.238	28.56
575.578	28.68
575.918	28.55
576.258	28.56
576.598	28.62
576.938	28.83
577.278	28.86
577.618	28.7
577.958	28.84
578.298	29.02
578.638	28.91
578.977	29.06
579.317	29.36
579.657	29.37
579.996	29.41
580.336	29.18
580.675	29.45
581.014	29.31
581.354	29.31
581.693	29.51
582.032	29.57
582.372	29.51
582.711	29.53
583.05	29.79
583.389	29.66
583.728	29.71
584.067	29.85
584.406	29.81
584.745	29.68
585.083	30.21
585.422	30.35
585.761	30.03
586.1	30.34
586.438	29.98
586.777	30.14
587.115	30.03
587.454	30.16
587.792	30.07
588.13	30.52
588.469	30.43
588.807	30.55
589.145	30.51
589.483	30.47
589.821	30.24
590.159	30.29
590.497	29.85
590.835	30.03
591.173	30.28
591.511	30.42
591.849	30.32
592.187	30.57
592.524	30.42
592.862	30.37
593.2	30.67
593.537	30.58
593.875	30.85
594.212	30.67
594.55	30.98
594.887	30.61
595.224	30.7
595.561	30.67
595.899	30.64
596.236	30.66
596.573	31.06
596.91	30.83
597.247	30.71
597.584	30.73
597.921	30.57
598.258	30.55
598.594	30.57
598.931	30.74
599.268	30.83
599.604	31.04
599.941	31.15
600.277	31.1
600.614	31.31
600.95	31.48
601.287	31.26
601.623	31.62
601.959	31.69
602.296	31.66
602.632	31.82
602.968	31.22
603.304	31.54
603.64	31.43
603.976	31.42
604.312	31.68
604.648	31.56
604.984	31.34
605.319	31.36
605.655	31.52
605.991	31.26
606.326	31.26
606.662	31.17
606.998	31.46
607.333	31.9
607.668	32.12
608.004	32.01
608.339	31.91
608.674	31.95
609.01	32.14
609.345	32.06
609.68	31.85
610.015	32.13
610.35	32.17
610.685	31.96
611.02	31.98
611.355	32.09
611.689	32.07
612.024	32.39
612.359	32.45
612.694	32.25
613.028	32.45
613.363	32.39
613.697	32.38
614.032	32.65
614.366	32.45
614.7	32.98
615.035	32.62
615.369	32.7
615.703	32.86
616.037	32.46
616.371	32.74
616.705	32.95
617.039	32.71
617.373	33.06
617.707	32.81
618.041	32.78
618.375	32.63
618.709	32.65
619.042	32.98
619.376	33.18
619.71	32.92
620.043	32.86
620.377	32.96
620.71	33.42
621.043	32.95
621.377	33.02
621.71	33.39
622.043	33.32
622.376	33
622.709	33.4
623.043	33.2
623.376	33.29
623.709	33.78
624.041	33.55
624.374	33.2
624.707	33.58
625.04	33.78
625.373	33.63
625.705	33.59
626.038	33.72
626.37	33.8
626.703	33.53
627.035	33.66
627.368	33.49
627.7	33.73
628.032	33.53
628.365	33.28
628.697	33.9
629.029	33.99
629.361	33.79
629.693	33.95
630.025	33.93
630.357	33.84
630.689	34.3
631.021	34.12
631.353	34.28
631.684	34.16
632.016	34.09
632.348	34.29
632.679	34.05
633.011	34.01
633.342	33.99
633.674	34.33
634.005	34.13
634.336	34.15
634.668	34.11
634.999	34.21
635.33	34.75
635.661	34.39
635.992	34.25
636.323	34.44
636.654	34.61
636.985	34.63
637.316	34.73
637.647	34.59
637.977	34.7
638.308	34.8
638.639	34.55
638.969	34.82
639.3	34.62
639.63	34.7
639.961	34.71
640.291	35.42
640.622	35.4
640.952	34.65
641.282	34.71
641.612	35.04
641.943	34.43
642.273	35.01
642.603	35.41
642.933	35.24
643.263	35.35
643.592	35.07
643.922	34.8
644.252	35.53
644.582	35.19
644.911	35.34
645.241	35.6
645.571	35.13
645.9	35.56
646.23	35.71
646.559	35.69
646.888	35.22
647.218	35.42
647.547	36.03
647.876	35.69
648.205	35.04
648.534	35.39
648.863	35.56
649.192	35.49
649.521	35.64
649.85	35.93
650.179	35.3
650.508	35.79
650.837	36.17
651.165	35.58
651.494	35.54
651.822	35.99
652.151	36.22
652.479	36.28
652.808	35.53
653.136	35.81
653.465	35.91
653.793	35.98
654.121	35.88
654.449	36.14
654.777	36.02
655.105	36.36
655.433	36.21
655.761	35.97
656.089	36.45
656.417	36.18
656.745	36.49
657.073	35.99
657.4	36.3
657.728	36.23
658.056	35.93
658.383	36.35
658.711	36.3
659.038	36.51
659.365	36.17
659.693	36.27
660.02	36.36
660.347	36.35
660.674	35.96
661.001	36.03
661.329	36.01
661.656	36.19
661.982	36.56
662.309	36.45
662.636	36.44
662.963	36.95
663.29	36.65
663.616	36.87
663.943	37.24
664.27	36.92
664.596	36.87
664.923	37.33
665.249	36.64
665.576	37.27
665.902	36.83
666.228	37.37
666.554	36.79
666.881	37.02
667.207	37.51
667.533	37.23
667.859	37.11
668.185	37.24
668.511	36.9
668.837	37.3
669.162	37.57
669.488	38.03
669.814	37.67
670.139	37.82
670.465	37.39
670.791	37.27
671.116	37.18
671.442	37.36
671.767	37.45
