Data from 0066_chest_Reflection__0__138.txt Node

Date: Fri Dec 16 15:00:09 CST 2022
User: ToomeyLab
Spectrometer: FLMS14357
Trigger mode: 0
Integration Time (sec): 1.000000E-2
Scans to average: 100
Electric dark correction enabled: true
Nonlinearity correction enabled: false
Boxcar width: 0
XAxis mode: Wavelengths
Number of Pixels in Spectrum: 2048
>>>>>Begin Spectral Data<<<<<
189.047	27.46
189.435	27.46
189.823	27.46
190.211	180.43
190.599	-1885.23
190.987	45.87
191.375	78.57
191.763	719.4
192.151	-170.62
192.538	68.79
192.926	817.34
193.314	88.99
193.702	77.99
194.089	76.2
194.477	27.36
194.864	38.8
195.252	37.72
195.639	140.46
196.027	163.59
196.414	56.99
196.801	-193.17
197.189	135.18
197.576	-30.69
197.963	-9.66
198.351	15.4
198.738	-6.91
199.125	24.89
199.512	9.77
199.899	-50.21
200.286	-37.87
200.673	27.62
201.06	35.14
201.447	60.36
201.833	-1.95
202.22	28.96
202.607	-2.73
202.994	-16.76
203.38	-33.57
203.767	-35.12
204.154	-27.24
204.54	5.64
204.927	8.77
205.313	33.94
205.699	5.37
206.086	-3.76
206.472	-6.19
206.858	-0.91
207.245	10.56
207.631	-0.75
208.017	25.38
208.403	-8.36
208.789	8.7
209.175	30.76
209.561	3.97
209.947	30.78
210.333	-36.66
210.719	18.28
211.105	-16.32
211.491	8.27
211.876	-8.96
212.262	-40.83
212.648	-56.64
213.034	-15.81
213.419	-1.02
213.805	-17.68
214.19	-8.21
214.576	-19.38
214.961	-17.37
215.346	-34.43
215.732	20.91
216.117	-9.14
216.502	-5.39
216.888	-43.74
217.273	24.69
217.658	8.66
218.043	-0.05
218.428	-11.42
218.813	-17.69
219.198	-64.82
219.583	4.05
219.968	-6.22
220.353	-1.13
220.738	7.18
221.122	14.32
221.507	-17.54
221.892	-1.09
222.276	11.21
222.661	-7.38
223.046	-3.43
223.43	-2.53
223.815	3.24
224.199	-2.05
224.583	-7.53
224.968	1.44
225.352	-3.34
225.736	7.83
226.121	-9.85
226.505	0.66
226.889	8.76
227.273	1.81
227.657	-3.24
228.041	6.11
228.425	6.21
228.809	2.47
229.193	1.58
229.577	2.21
229.961	2.57
230.344	1.57
230.728	1.59
231.112	1.99
231.495	0.87
231.879	2.08
232.263	1.31
232.646	1.29
233.03	-0.09
233.413	2.56
233.797	2.1
234.18	2.59
234.563	2.58
234.946	1.49
235.33	2.94
235.713	1.44
236.096	2.87
236.479	2.67
236.862	2.2
237.245	3.63
237.628	3.33
238.011	2.25
238.394	2.91
238.777	1.39
239.16	0.22
239.543	-0.54
239.925	1.81
240.308	1.7
240.691	1.54
241.073	1.58
241.456	1.32
241.838	1.44
242.221	1.91
242.603	2.16
242.986	3.35
243.368	2.12
243.75	1.69
244.133	2.34
244.515	2.32
244.897	2.29
245.279	2.06
245.661	1.18
246.043	2.1
246.425	2.2
246.807	2.03
247.189	2.02
247.571	2.44
247.953	2.34
248.335	2.37
248.717	2.34
249.098	2.62
249.48	2.27
249.862	2.49
250.243	2.14
250.625	2.58
251.006	2.77
251.388	2.41
251.769	2.96
252.151	2.63
252.532	1.96
252.913	2.63
253.295	2.25
253.676	2.51
254.057	1.99
254.438	1.82
254.819	2.93
255.2	1.99
255.581	0.05
255.962	1.52
256.343	3.05
256.724	2.55
257.105	3.03
257.486	2.51
257.867	0.89
258.247	2.46
258.628	2.54
259.009	1.88
259.389	3.11
259.77	2.25
260.15	2.75
260.531	1.95
260.911	2.2
261.292	2.25
261.672	2.08
262.052	2.13
262.432	1.86
262.813	2.53
263.193	1.99
263.573	1.94
263.953	1.7
264.333	2.03
264.713	2.02
265.093	1.71
265.473	2.44
265.853	1.07
266.233	2.15
266.612	3.07
266.992	1.49
267.372	1.94
267.752	1.63
268.131	2.3
268.511	2.36
268.89	2.62
269.27	2.32
269.649	2.13
270.029	2.35
270.408	1.57
270.787	2.17
271.167	2.19
271.546	1.6
271.925	2.63
272.304	2.22
272.683	1.9
273.062	2.34
273.441	2.26
273.82	2.19
274.199	2.56
274.578	2.06
274.957	2.29
275.336	2.27
275.715	2.36
276.093	2.53
276.472	2.29
276.851	2.64
277.229	2.24
277.608	1.84
277.986	2.15
278.365	1.77
278.743	2.2
279.122	2.11
279.5	2.3
279.878	1.2
280.257	2.1
280.635	2.01
281.013	2.53
281.391	1.61
281.769	2.05
282.147	2.38
282.525	1.88
282.903	2.75
283.281	2.3
283.659	2.04
284.037	1.69
284.415	2.23
284.792	2.22
285.17	1.74
285.548	2.06
285.925	2.25
286.303	2.05
286.68	2.23
287.058	2.21
287.435	2.15
287.813	2.35
288.19	2.24
288.567	2.01
288.945	2.29
289.322	2
289.699	1.99
290.076	2.77
290.453	2.63
290.83	2.3
291.207	2.03
291.584	2.17
291.961	2.28
292.338	2.31
292.715	2.5
293.092	1.94
293.469	2.93
293.845	2.4
294.222	2.37
294.599	2.84
294.975	2.8
295.352	2.2
295.728	2.28
296.105	2.35
296.481	2.91
296.858	2.77
297.234	2.42
297.61	2.55
297.986	2.55
298.363	2.26
298.739	2.69
299.115	2.19
299.491	2.25
299.867	2.43
300.243	2.51
300.619	2.28
300.995	2.58
301.371	2.41
301.746	2.03
302.122	2.71
302.498	2.71
302.874	2.12
303.249	2.43
303.625	3
304	2.51
304.376	2.73
304.751	2.3
305.127	2.53
305.502	3.13
305.878	2.8
306.253	2.43
306.628	2.88
307.003	2.96
307.378	2.76
307.754	3.01
308.129	2.36
308.504	3.07
308.879	2.74
309.254	2.98
309.629	2.63
310.003	3.15
310.378	3.15
310.753	2.95
311.128	2.79
311.502	2.75
311.877	2.47
312.252	2.65
312.626	2.79
313.001	2.98
313.375	3.06
313.75	2.66
314.124	3.53
314.498	2.74
314.873	3.21
315.247	3.06
315.621	3.19
315.995	2.64
316.369	3.1
316.743	3.45
317.117	2.92
317.491	3.09
317.865	2.36
318.239	3.72
318.613	2.89
318.987	3.38
319.361	2.93
319.734	3.09
320.108	3.45
320.482	2.8
320.855	2.91
321.229	3.27
321.602	3.31
321.976	3.34
322.349	2.69
322.723	2.75
323.096	3.1
323.469	2.64
323.843	2.66
324.216	2.79
324.589	3.74
324.962	2.82
325.335	2.94
325.708	3.22
326.081	3.69
326.454	3.52
326.827	3.29
327.2	3.24
327.573	3.51
327.945	3.19
328.318	3.61
328.691	3.15
329.063	2.95
329.436	3.05
329.809	2.83
330.181	3.35
330.553	3.26
330.926	3.4
331.298	2.88
331.671	2.79
332.043	3.14
332.415	3.73
332.787	3.55
333.159	2.97
333.532	3.2
333.904	3.38
334.276	3.27
334.648	2.69
335.02	3.02
335.391	3.57
335.763	3.47
336.135	3.37
336.507	3.54
336.879	3.09
337.25	3.36
337.622	3.48
337.993	3.27
338.365	3.64
338.736	3.5
339.108	2.95
339.479	3.58
339.851	3.19
340.222	3.4
340.593	2.85
340.964	3.28
341.336	2.98
341.707	2.74
342.078	3.14
342.449	3.72
342.82	3.24
343.191	3.14
343.562	3.23
343.933	3.37
344.303	3.46
344.674	3.06
345.045	3.36
345.416	3.54
345.786	2.99
346.157	3.26
346.527	3.26
346.898	3.16
347.268	2.81
347.639	3.3
348.009	3.57
348.38	3.43
348.75	3.49
349.12	3.23
349.49	3.29
349.861	3.62
350.231	3.78
350.601	3.3
350.971	3.5
351.341	3.46
351.711	3.22
352.081	3.24
352.45	3.29
352.82	3.15
353.19	3.3
353.56	3.68
353.929	3.49
354.299	3.25
354.669	3.74
355.038	3.21
355.408	3.88
355.777	3.43
356.147	3.3
356.516	3.72
356.885	3
357.254	3.53
357.624	3.61
357.993	3.52
358.362	3.53
358.731	3.2
359.1	3.37
359.469	3.62
359.838	3.32
360.207	3.3
360.576	3.34
360.945	3.35
361.314	3.49
361.682	3.19
362.051	3.3
362.42	3.5
362.788	3.65
363.157	3.2
363.525	3.41
363.894	3.23
364.262	3.25
364.631	4.04
364.999	3.04
365.367	3.72
365.735	3.12
366.104	3.45
366.472	3.46
366.84	3.41
367.208	3.2
367.576	3.36
367.944	3.64
368.312	2.84
368.68	3.55
369.048	3.71
369.416	3.48
369.783	3.38
370.151	3.44
370.519	3.48
370.886	3.7
371.254	3.54
371.621	3.67
371.989	3.54
372.356	3.52
372.724	3.37
373.091	3.25
373.458	3.53
373.826	3.4
374.193	3.71
374.56	3.3
374.927	3.54
375.294	4
375.661	3.63
376.028	3.64
376.395	3.57
376.762	3.76
377.129	3.74
377.496	3.66
377.863	3.56
378.229	3.68
378.596	3.66
378.963	3.6
379.329	3.54
379.696	3.64
380.062	3.78
380.429	3.76
380.795	3.52
381.161	3.43
381.528	3.18
381.894	3.75
382.26	3.69
382.626	3.65
382.993	3.64
383.359	3.89
383.725	3.88
384.091	3.83
384.457	3.74
384.823	3.6
385.188	3.64
385.554	3.57
385.92	3.97
386.286	3.71
386.651	3.49
387.017	3.75
387.383	3.65
387.748	3.2
388.114	4.03
388.479	3.78
388.845	3.69
389.21	3.89
389.575	3.87
389.94	3.76
390.306	3.94
390.671	3.61
391.036	4.27
391.401	4.22
391.766	3.82
392.131	3.67
392.496	3.7
392.861	3.65
393.226	3.57
393.591	3.76
393.956	3.89
394.32	3.66
394.685	3.76
395.05	3.61
395.414	3.75
395.779	3.78
396.143	3.67
396.508	3.95
396.872	4.05
397.236	3.77
397.601	4
397.965	3.72
398.329	4
398.694	3.72
399.058	4.02
399.422	3.93
399.786	4.06
400.15	3.89
400.514	3.99
400.878	3.92
401.242	4.08
401.605	3.75
401.969	4.03
402.333	3.74
402.697	3.91
403.06	3.95
403.424	3.93
403.787	4.29
404.151	3.9
404.514	3.91
404.878	3.96
405.241	4.07
405.604	3.82
405.968	3.94
406.331	3.9
406.694	3.99
407.057	4.26
407.42	3.87
407.783	4.03
408.146	4
408.509	3.94
408.872	3.87
409.235	4.25
409.598	4.23
409.961	4.07
410.323	4.16
410.686	3.83
411.049	3.82
411.411	3.98
411.774	4.09
412.136	4.12
412.499	3.98
412.861	3.84
413.223	4.23
413.586	3.96
413.948	4.06
414.31	4.28
414.672	4.1
415.035	4.22
415.397	4.33
415.759	3.9
416.121	4.33
416.483	4.33
416.845	4.08
417.206	4.09
417.568	4
417.93	3.95
418.292	4.2
418.653	4.14
419.015	4.18
419.377	4.22
419.738	4.1
420.1	4.06
420.461	4.02
420.822	4.05
421.184	4.05
421.545	4.08
421.906	4.11
422.267	3.88
422.629	4.07
422.99	4
423.351	4.13
423.712	4.04
424.073	4.19
424.434	4.1
424.795	4.09
425.155	4.14
425.516	4.02
425.877	4.17
426.238	4.06
426.598	4.2
426.959	4.1
427.32	4.17
427.68	4.19
428.041	4.22
428.401	4.14
428.761	4.16
429.122	4.05
429.482	4.22
429.842	4.3
430.202	4.23
430.563	4.35
430.923	4.29
431.283	4.34
431.643	4.32
432.003	4.27
432.363	4.42
432.722	4.43
433.082	4.26
433.442	4.24
433.802	4.38
434.161	4.18
434.521	4.31
434.881	4.29
435.24	4.32
435.6	4.29
435.959	4.38
436.319	4.15
436.678	4.43
437.037	4.39
437.396	4.29
437.756	4.43
438.115	4.37
438.474	4.34
438.833	4.49
439.192	4.59
439.551	4.42
439.91	4.57
440.269	4.56
440.628	4.37
440.987	4.37
441.345	4.33
441.704	4.35
442.063	4.38
442.421	4.39
442.78	4.35
443.138	4.22
443.497	4.41
443.855	4.37
444.214	4.39
444.572	4.43
444.93	4.51
445.288	4.47
445.647	4.52
446.005	4.34
446.363	4.41
446.721	4.34
447.079	4.41
447.437	4.26
447.795	4.41
448.153	4.38
448.51	4.42
448.868	4.45
449.226	4.52
449.584	4.47
449.941	4.58
450.299	4.4
450.656	4.59
451.014	4.63
451.371	4.74
451.729	4.47
452.086	4.67
452.443	4.54
452.801	4.71
453.158	4.55
453.515	4.5
453.872	4.57
454.229	4.5
454.586	4.57
454.943	4.67
455.3	4.76
455.657	4.59
456.014	4.75
456.371	4.67
456.727	4.61
457.084	4.65
457.441	4.61
457.797	4.73
458.154	4.67
458.51	4.63
458.867	4.52
459.223	4.76
459.58	4.64
459.936	4.58
460.292	4.75
460.648	4.58
461.005	4.5
461.361	4.51
461.717	4.65
462.073	4.7
462.429	4.67
462.785	4.83
463.141	4.88
463.496	4.76
463.852	4.88
464.208	4.85
464.564	4.73
464.919	4.68
465.275	4.87
465.631	4.77
465.986	4.73
466.342	4.85
466.697	4.93
467.052	5.13
467.408	4.89
467.763	4.76
468.118	4.91
468.473	4.89
468.829	4.96
469.184	4.91
469.539	4.74
469.894	4.88
470.249	4.94
470.603	5.08
470.958	5.11
471.313	4.97
471.668	5.1
472.023	5.01
472.377	4.98
472.732	4.88
473.086	4.84
473.441	4.92
473.795	5.2
474.15	4.85
474.504	4.83
474.859	4.91
475.213	5.09
475.567	4.92
475.921	5.16
476.275	5.12
476.63	5.03
476.984	5.05
477.338	5.16
477.692	5.09
478.045	4.91
478.399	5.08
478.753	4.95
479.107	5.03
479.461	5.07
479.814	5.01
480.168	4.92
480.521	5.03
480.875	5.31
481.228	5.15
481.582	5.04
481.935	5.04
482.289	4.98
482.642	5.01
482.995	5.01
483.348	5.01
483.701	4.96
484.055	4.95
484.408	4.85
484.761	4.65
485.114	4.63
485.466	4.65
485.819	4.76
486.172	4.93
486.525	4.98
486.878	4.99
487.23	5.05
487.583	5
487.936	4.99
488.288	4.88
488.641	4.86
488.993	4.77
489.345	4.87
489.698	4.97
490.05	4.99
490.402	5.14
490.754	5.17
491.107	5.19
491.459	5.2
491.811	5.22
492.163	5.17
492.515	4.98
492.866	4.88
493.218	4.92
493.57	5.09
493.922	5.18
494.274	5.29
494.625	5.32
494.977	5.34
495.328	5.4
495.68	5.49
496.031	5.4
496.383	5.3
496.734	5.53
497.086	5.29
497.437	5.46
497.788	5.4
498.139	5.39
498.49	5.44
498.842	5.41
499.193	5.45
499.544	5.55
499.894	5.57
500.245	5.47
500.596	5.52
500.947	5.48
501.298	5.39
501.648	5.56
501.999	5.59
502.35	5.54
502.7	5.64
503.051	5.81
503.401	5.68
503.752	5.66
504.102	5.57
504.452	5.51
504.803	5.54
505.153	5.6
505.503	5.55
505.853	5.59
506.203	5.67
506.553	5.79
506.903	5.65
507.253	5.73
507.603	5.58
507.953	5.85
508.303	5.69
508.652	5.72
509.002	5.77
509.352	5.64
509.701	5.74
510.051	5.77
510.4	5.71
510.75	5.77
511.099	5.68
511.449	5.74
511.798	5.81
512.147	5.84
512.496	5.97
512.846	5.85
513.195	5.86
513.544	5.78
513.893	5.77
514.242	5.88
514.591	5.91
514.939	5.86
515.288	5.87
515.637	6.06
515.986	5.99
516.334	6.01
516.683	5.9
517.032	5.9
517.38	5.94
517.729	5.96
518.077	5.93
518.426	6.01
518.774	6.01
519.122	5.98
519.47	5.96
519.819	5.97
520.167	5.92
520.515	5.92
520.863	5.9
521.211	5.94
521.559	6.06
521.907	6.06
522.255	6.1
522.602	6.22
522.95	6.31
523.298	6.2
523.645	6.14
523.993	6.32
524.341	6.29
524.688	6.29
525.036	6.31
525.383	6.33
525.73	6.34
526.078	6.31
526.425	6.24
526.772	6.06
527.119	6.06
527.466	6.08
527.814	6.18
528.161	6.26
528.508	6.18
528.854	6.21
529.201	6.15
529.548	6.01
529.895	5.94
530.242	5.96
530.588	6.11
530.935	6.29
531.282	6.34
531.628	6.39
531.975	6.41
532.321	6.48
532.667	6.47
533.014	6.56
533.36	6.48
533.706	6.4
534.052	6.37
534.399	6.27
534.745	6.27
535.091	6.33
535.437	6.58
535.783	6.56
536.129	6.64
536.474	6.74
536.82	6.64
537.166	6.77
537.512	6.71
537.857	6.63
538.203	6.58
538.549	6.66
538.894	6.74
539.239	6.97
539.585	6.83
539.93	6.88
540.276	6.92
540.621	7
540.966	6.9
541.311	6.94
541.656	6.79
542.001	6.89
542.346	6.66
542.691	6.51
543.036	6.56
543.381	6.75
543.726	6.81
544.071	6.98
544.415	6.94
544.76	6.85
545.105	7.03
545.449	7.03
545.794	7.14
546.138	7.22
546.483	7.13
546.827	7.17
547.171	7.22
547.516	7.29
547.86	7.27
548.204	7.17
548.548	7.26
548.892	7.36
549.236	7.33
549.58	7.53
549.924	7.62
550.268	7.51
550.612	7.57
550.956	7.44
551.3	7.53
551.643	7.62
551.987	7.7
552.33	7.62
552.674	7.79
553.017	7.72
553.361	7.66
553.704	7.66
554.048	7.54
554.391	7.67
554.734	7.71
555.077	7.83
555.42	7.65
555.764	7.88
556.107	7.91
556.45	7.82
556.793	7.88
557.135	7.93
557.478	8.13
557.821	7.93
558.164	8.11
558.507	7.86
558.849	8.01
559.192	8
559.534	7.95
559.877	8.27
560.219	8.25
560.562	8.31
560.904	8.18
561.246	8.33
561.589	8.41
561.931	8.5
562.273	8.33
562.615	8.4
562.957	8.33
563.299	8.34
563.641	8.24
563.983	8.45
564.325	8.26
564.667	8.47
565.008	8.4
565.35	8.61
565.692	8.59
566.033	8.59
566.375	8.47
566.716	8.67
567.058	8.63
567.399	8.52
567.741	8.53
568.082	8.51
568.423	8.51
568.764	8.74
569.105	8.81
569.447	8.84
569.788	8.84
570.129	8.88
570.47	8.96
570.811	8.88
571.151	8.94
571.492	9.05
571.833	8.88
572.174	8.89
572.514	8.86
572.855	8.96
573.195	8.79
573.536	8.92
573.876	8.96
574.217	9.07
574.557	9.1
574.898	9.08
575.238	9.02
575.578	9.11
575.918	9.12
576.258	9.14
576.598	9.2
576.938	9.31
577.278	9.38
577.618	9.26
577.958	9.5
578.298	9.67
578.638	9.41
578.977	9.55
579.317	9.65
579.657	9.61
579.996	9.47
580.336	9.56
580.675	9.68
581.014	9.67
581.354	9.68
581.693	9.97
582.032	9.77
582.372	9.92
582.711	9.74
583.05	9.85
583.389	9.93
583.728	10.07
584.067	9.95
584.406	10.32
584.745	9.92
585.083	10.19
585.422	10.25
585.761	10.16
586.1	10.21
586.438	10.28
586.777	10
587.115	10.22
587.454	10.35
587.792	10.06
588.13	10.54
588.469	10.4
588.807	10.62
589.145	10.58
589.483	10.28
589.821	10.51
590.159	10.47
590.497	10.29
590.835	10.41
591.173	10.53
591.511	10.49
591.849	10.72
592.187	10.58
592.524	10.4
592.862	10.7
593.2	10.59
593.537	10.5
593.875	11.01
594.212	10.86
594.55	10.8
594.887	11.05
595.224	10.84
595.561	10.91
595.899	10.89
596.236	11.09
596.573	11.09
596.91	10.86
597.247	10.87
597.584	10.91
597.921	10.94
598.258	11.08
598.594	10.77
598.931	10.92
599.268	11.07
599.604	11.17
599.941	11.25
600.277	11.31
600.614	11.45
600.95	11.4
601.287	11.5
601.623	11.42
601.959	11.4
602.296	11.52
602.632	11.87
602.968	11.49
603.304	11.32
603.64	11.57
603.976	11.67
604.312	11.85
604.648	11.64
604.984	11.52
605.319	11.51
605.655	11.57
605.991	11.49
606.326	11.48
606.662	11.58
606.998	11.65
607.333	11.83
607.668	11.93
608.004	11.97
608.339	11.89
608.674	11.93
609.01	12.22
609.345	12.27
609.68	11.7
610.015	11.9
610.35	12.05
610.685	12
611.02	12.07
611.355	12.03
611.689	12.05
612.024	12.28
612.359	12.32
612.694	12.45
613.028	12.76
613.363	12.33
613.697	12.33
614.032	12.58
614.366	12.15
614.7	12.54
615.035	12.81
615.369	12.71
615.703	12.81
616.037	12.5
616.371	12.58
616.705	12.78
617.039	12.79
617.373	12.91
617.707	12.73
618.041	13.23
618.375	12.71
618.709	12.95
619.042	13.02
619.376	12.83
619.71	13
620.043	12.97
620.377	12.89
620.71	13.18
621.043	12.97
621.377	13.29
621.71	13.3
622.043	13.59
622.376	13.54
622.709	13.24
623.043	13.18
623.376	13.33
623.709	13.52
624.041	13.44
624.374	13.23
624.707	13.33
625.04	13.87
625.373	13.32
625.705	13.48
626.038	13.79
626.37	13.51
626.703	13.18
627.035	13.72
627.368	13.74
627.7	13.43
628.032	13.05
628.365	13.45
628.697	13.47
629.029	13.89
629.361	13.7
629.693	14.02
630.025	13.9
630.357	13.53
630.689	14.22
631.021	13.74
631.353	14.2
631.684	13.74
632.016	13.95
632.348	14.21
632.679	14.08
633.011	14.06
633.342	14.15
633.674	14.15
634.005	14.4
634.336	14.31
634.668	14.08
634.999	13.95
635.33	13.89
635.661	14.15
635.992	14.15
636.323	14.19
636.654	14.3
636.985	14.32
637.316	14.58
637.647	14.52
637.977	14.22
638.308	14.36
638.639	14.66
638.969	14.63
639.3	14.79
639.63	14.43
639.961	14.31
640.291	14.98
640.622	14.43
640.952	15.05
641.282	14.44
641.612	14.76
641.943	15.2
642.273	14.52
642.603	14.68
642.933	15.34
643.263	15.1
643.592	14.89
643.922	15.36
644.252	15.26
644.582	15.08
644.911	14.78
645.241	15.17
645.571	15.48
645.9	15.74
646.23	15.14
646.559	15.23
646.888	14.86
647.218	15.21
647.547	15.35
647.876	15.46
648.205	15.31
648.534	14.98
648.863	15.32
649.192	15.11
649.521	15.11
649.85	15.64
650.179	15.02
650.508	15.94
650.837	15.48
651.165	15.86
651.494	15.76
651.822	15.78
652.151	16.21
652.479	15.72
652.808	15.55
653.136	16.09
653.465	16.07
653.793	15.96
654.121	16.07
654.449	15.87
654.777	15.85
655.105	16.01
655.433	16.28
655.761	15.72
656.089	16.14
656.417	15.55
656.745	16.48
657.073	16.17
657.4	15.77
657.728	15.95
658.056	16.18
658.383	16.11
658.711	15.78
659.038	16.17
659.365	16.41
659.693	16.4
660.02	15.74
660.347	16.14
660.674	15.73
661.001	15.53
661.329	16.23
661.656	16.13
661.982	16.69
662.309	16.46
662.636	16.15
662.963	16.59
663.29	16.33
663.616	16.68
663.943	16.92
664.27	16.15
664.596	16.59
664.923	17.49
665.249	16.67
665.576	16.6
665.902	16.75
666.228	16.45
666.554	16.62
666.881	17.12
667.207	16.98
667.533	17.07
667.859	17.25
668.185	17.41
668.511	16.66
668.837	16.69
669.162	16.86
669.488	17.06
669.814	16.97
670.139	17.75
670.465	16.83
670.791	17.46
671.116	17.06
671.442	17.03
671.767	17.1
672.092	17.14
672.418	18.3
672.743	17.71
673.068	16.72
673.393	17.27
673.718	17.07
674.043	17.24
674.368	17.58
674.693	17.65
675.018	17.52
675.343	17.65
675.667	17.82
675.992	17.03
676.317	17.77
676.641	17.86
676.966	17.51
677.29	17.28
677.615	17.74
677.939	17.64
678.264	17.36
678.588	17.91
678.912	17.87
679.236	17.97
679.56	17.33
679.885	18.08
680.209	17.67
680.532	17.96
680.856	18.67
681.18	17.81
681.504	17.57
681.828	17.25
682.152	17.62
682.475	18.03
682.799	17.79
683.122	17.92
683.446	18.02
683.769	18.36
684.093	18.27
684.416	17.74
684.739	18.37
685.062	18.35
685.386	18.29
