Data from 0066_forehead_Reflection__4__152.txt Node

Date: Fri Dec 16 15:05:51 CST 2022
User: ToomeyLab
Spectrometer: FLMS14357
Trigger mode: 0
Integration Time (sec): 1.000000E-2
Scans to average: 100
Electric dark correction enabled: true
Nonlinearity correction enabled: false
Boxcar width: 0
XAxis mode: Wavelengths
Number of Pixels in Spectrum: 2048
>>>>>Begin Spectral Data<<<<<
189.047	99.48
189.435	99.48
189.823	99.48
190.211	178.27
190.599	-904.55
190.987	117.44
191.375	-11.17
191.763	250
192.151	68.65
192.538	37.55
192.926	746.77
193.314	51.53
193.702	51.44
194.089	-13.19
194.477	-86.22
194.864	292.61
195.252	52.91
195.639	100.9
196.027	-101.21
196.414	12.27
196.801	480.93
197.189	142.23
197.576	101.93
197.963	64.9
198.351	17.81
198.738	36.16
199.125	90.87
199.512	-5.38
199.899	-15.16
200.286	-27.88
200.673	47.24
201.06	47.51
201.447	69.27
201.833	56.36
202.22	35.32
202.607	11.97
202.994	46.64
203.38	20.04
203.767	46.11
204.154	13.6
204.54	60.11
204.927	63.51
205.313	59.37
205.699	23.94
206.086	-4.64
206.472	4.72
206.858	20.98
207.245	31.42
207.631	38.41
208.017	57.52
208.403	39.47
208.789	40.73
209.175	85.29
209.561	28.52
209.947	20.18
210.333	-7.63
210.719	-2.07
211.105	29.01
211.491	4.43
211.876	8.91
212.262	12.26
212.648	-24.28
213.034	-9.11
213.419	31.72
213.805	22.92
214.19	69.8
214.576	53.24
214.961	-20.41
215.346	-7.96
215.732	13.38
216.117	10.94
216.502	-34.39
216.888	-32.56
217.273	48.55
217.658	31.77
218.043	-3.16
218.428	23.19
218.813	8.61
219.198	-6.41
219.583	13.24
219.968	35.27
220.353	10.14
220.738	26.95
221.122	30.6
221.507	17.01
221.892	20.09
222.276	19.56
222.661	24.89
223.046	24.34
223.43	5.05
223.815	13.05
224.199	4.5
224.583	14.06
224.968	16.92
225.352	-2.66
225.736	17.71
226.121	8.62
226.505	7.47
226.889	9.82
227.273	8.31
227.657	7.86
228.041	9.87
228.425	8.3
228.809	4.72
229.193	1.88
229.577	5.26
229.961	4.92
230.344	5.42
230.728	4.7
231.112	5.32
231.495	3.97
231.879	6.53
232.263	5.23
232.646	4.63
233.03	2.82
233.413	4.57
233.797	8.64
234.18	7.25
234.563	4.61
234.946	5.68
235.33	5.47
235.713	6.23
236.096	6.73
236.479	6.24
236.862	5.72
237.245	5.92
237.628	6.98
238.011	6.71
238.394	6.94
238.777	6.96
239.16	4.33
239.543	5.46
239.925	7.11
240.308	6.87
240.691	4.2
241.073	5.91
241.456	5.75
241.838	5.35
242.221	5.62
242.603	5.33
242.986	5.61
243.368	4.83
243.75	4.6
244.133	4.79
244.515	5.07
244.897	5.12
245.279	4.25
245.661	6.04
246.043	5.96
246.425	5.07
246.807	5.83
247.189	4.93
247.571	5.13
247.953	5
248.335	5.05
248.717	4.8
249.098	4.99
249.48	4.94
249.862	4.98
250.243	5.14
250.625	5.03
251.006	5.14
251.388	5.68
251.769	5.01
252.151	6.03
252.532	5.31
252.913	5.2
253.295	4.85
253.676	5.05
254.057	4.89
254.438	4.15
254.819	4.42
255.2	4.64
255.581	5.09
255.962	5.75
256.343	5.07
256.724	5.34
257.105	5.9
257.486	5.5
257.867	4.78
258.247	5.38
258.628	5.43
259.009	5.02
259.389	5.68
259.77	4.51
260.15	6.06
260.531	4.87
260.911	4.83
261.292	4.8
261.672	4.61
262.052	4.74
262.432	5.12
262.813	5.58
263.193	5.15
263.573	5.31
263.953	5.32
264.333	5.87
264.713	4.64
265.093	5.17
265.473	5.73
265.853	4.61
266.233	5.15
266.612	5.24
266.992	4.83
267.372	5.12
267.752	4.43
268.131	5.23
268.511	5.25
268.89	5.39
269.27	5.07
269.649	5.13
270.029	4.89
270.408	5
270.787	4.45
271.167	4.82
271.546	4.98
271.925	5.05
272.304	5.06
272.683	4.38
273.062	5.27
273.441	5.3
273.82	5.23
274.199	5.16
274.578	4.79
274.957	4.82
275.336	5.04
275.715	5.4
276.093	5.41
276.472	5.65
276.851	4.93
277.229	5.44
277.608	4.71
277.986	5.12
278.365	4.54
278.743	5.11
279.122	4.88
279.5	5.3
279.878	4.43
280.257	5.45
280.635	4.8
281.013	5.4
281.391	4.76
281.769	4.63
282.147	5.59
282.525	4.8
282.903	5.15
283.281	4.74
283.659	4.64
284.037	4.85
284.415	4.94
284.792	4.97
285.17	4.71
285.548	4.59
285.925	4.94
286.303	4.8
286.68	5.05
287.058	4.83
287.435	4.79
287.813	5.16
288.19	5.14
288.567	4.74
288.945	5.12
289.322	5.2
289.699	5.34
290.076	5.4
290.453	5.38
290.83	5.03
291.207	4.83
291.584	5
291.961	5.48
292.338	5.12
292.715	5.55
293.092	5.23
293.469	5.61
293.845	5.63
294.222	5.72
294.599	5.61
294.975	5.54
295.352	5.17
295.728	5.97
296.105	5.74
296.481	6.19
296.858	5.69
297.234	5.4
297.61	5.6
297.986	5.69
298.363	5.04
298.739	5.74
299.115	5.42
299.491	5.8
299.867	5.72
300.243	5.39
300.619	5.56
300.995	6.05
301.371	6.11
301.746	5.91
302.122	5.91
302.498	6.38
302.874	6.14
303.249	6.32
303.625	6.1
304	5.82
304.376	6.14
304.751	6.15
305.127	6.08
305.502	6.65
305.878	6.13
306.253	5.65
306.628	6.21
307.003	6.49
307.378	6.17
307.754	6.99
308.129	6.59
308.504	5.65
308.879	6.66
309.254	7.51
309.629	6.76
310.003	7.28
310.378	7.01
310.753	6.49
311.128	7
311.502	6.66
311.877	7
312.252	7.04
312.626	6.84
313.001	6.98
313.375	6.94
313.75	6.81
314.124	7.68
314.498	7.11
314.873	7.08
315.247	6.87
315.621	7.41
315.995	7.19
316.369	7.55
316.743	7.54
317.117	7.86
317.491	7.56
317.865	7.18
318.239	7.96
318.613	7.91
318.987	7.95
319.361	7.61
319.734	7.9
320.108	7.85
320.482	7.91
320.855	8.36
321.229	8.12
321.602	8.17
321.976	7.72
322.349	7.46
322.723	7.92
323.096	7.69
323.469	7.61
323.843	8.41
324.216	7.59
324.589	8.92
324.962	8
325.335	8.17
325.708	8.37
326.081	9.04
326.454	8.5
326.827	8.75
327.2	8.52
327.573	8.93
327.945	8.4
328.318	8.71
328.691	8.53
329.063	8.64
329.436	9.01
329.809	8.5
330.181	8.95
330.553	9
330.926	8.93
331.298	8.51
331.671	8.88
332.043	9.42
332.415	9.9
332.787	9.49
333.159	9.07
333.532	9.38
333.904	9.41
334.276	9.53
334.648	8.91
335.02	9.27
335.391	9.44
335.763	9.55
336.135	9.55
336.507	9.79
336.879	9.87
337.25	9.85
337.622	9.62
337.993	9.94
338.365	10.17
338.736	10.16
339.108	9.72
339.479	10.33
339.851	9.98
340.222	9.9
340.593	10.19
340.964	10.16
341.336	9.95
341.707	10.46
342.078	9.94
342.449	10.39
342.82	10.29
343.191	10.21
343.562	10.62
343.933	10.51
344.303	10.69
344.674	10.48
345.045	10.73
345.416	10.62
345.786	10.16
346.157	10.83
346.527	10.39
346.898	10.39
347.268	10.78
347.639	10.88
348.009	11.04
348.38	10.96
348.75	10.87
349.12	11.33
349.49	10.84
349.861	11.46
350.231	11.53
350.601	11.45
350.971	11.14
351.341	11.63
351.711	11.4
352.081	11.62
352.45	11.67
352.82	11.61
353.19	11.52
353.56	11.68
353.929	11.53
354.299	11.68
354.669	11.94
355.038	12.01
355.408	12.39
355.777	12.2
356.147	12.3
356.516	12.51
356.885	12.3
357.254	12.23
357.624	12.22
357.993	12.27
358.362	12.76
358.731	12.69
359.1	12.77
359.469	12.91
359.838	12.31
360.207	12.39
360.576	12.69
360.945	12.42
361.314	12.88
361.682	12.53
362.051	12.76
362.42	12.84
362.788	12.89
363.157	12.73
363.525	12.83
363.894	12.66
364.262	12.96
364.631	13.82
364.999	13.26
365.367	13.4
365.735	13.23
366.104	13.08
366.472	13.34
366.84	13.47
367.208	13.46
367.576	13.57
367.944	14.05
368.312	13.79
368.68	13.73
369.048	13.98
369.416	13.74
369.783	13.93
370.151	13.98
370.519	14.11
370.886	13.85
371.254	14.32
371.621	14.32
371.989	14.15
372.356	14.27
372.724	14.53
373.091	14.46
373.458	14.55
373.826	14.75
374.193	15.13
374.56	14.38
374.927	14.42
375.294	15
375.661	15.01
376.028	15.26
376.395	14.7
376.762	14.81
377.129	15.16
377.496	15.37
377.863	15.34
378.229	15.25
378.596	14.99
378.963	15.2
379.329	15.15
379.696	15.26
380.062	15.53
380.429	15.39
380.795	15.7
381.161	15.97
381.528	15.55
381.894	15.63
382.26	15.96
382.626	15.92
382.993	15.82
383.359	16.08
383.725	15.92
384.091	15.69
384.457	16.28
384.823	16.26
385.188	16.6
385.554	16.3
385.92	16.33
386.286	16.76
386.651	16.44
387.017	16.67
387.383	16.88
387.748	16.88
388.114	16.86
388.479	16.61
388.845	16.74
389.21	17.02
389.575	16.95
389.94	17.46
390.306	17.03
390.671	17.16
391.036	17.32
391.401	17.57
391.766	17.24
392.131	17.11
392.496	17.38
392.861	17.36
393.226	17.73
393.591	17.81
393.956	17.93
394.32	17.67
394.685	17.89
395.05	17.82
395.414	17.76
395.779	17.67
396.143	18.11
396.508	18.01
396.872	17.85
397.236	18.07
397.601	18.35
397.965	18.08
398.329	18.32
398.694	18.27
399.058	18.57
399.422	18.65
399.786	18.37
400.15	18.69
400.514	18.54
400.878	18.48
401.242	18.85
401.605	18.72
401.969	18.93
402.333	18.79
402.697	19.18
403.06	19.19
403.424	19.3
403.787	19.53
404.151	19.17
404.514	19.5
404.878	19.6
405.241	19.5
405.604	19.45
405.968	19.48
406.331	19.48
406.694	19.64
407.057	19.79
407.42	19.91
407.783	19.79
408.146	19.86
408.509	19.94
408.872	19.68
409.235	19.94
409.598	20.32
409.961	20.25
410.323	20.21
410.686	20.39
411.049	20.44
411.411	20.37
411.774	20.4
412.136	20.42
412.499	20.49
412.861	20.51
413.223	20.66
413.586	20.65
413.948	20.96
414.31	20.79
414.672	20.97
415.035	21.21
415.397	20.95
415.759	21.17
416.121	21.32
416.483	21.32
416.845	21.1
417.206	21.33
417.568	21.36
417.93	21.07
418.292	21.45
418.653	21.6
419.015	21.29
419.377	21.51
419.738	21.58
420.1	21.4
420.461	21.51
420.822	21.52
421.184	21.57
421.545	21.51
421.906	21.67
422.267	21.49
422.629	21.53
422.99	21.6
423.351	21.47
423.712	21.93
424.073	21.93
424.434	22.02
424.795	21.98
425.155	22.05
425.516	21.95
425.877	22.15
426.238	22.15
426.598	22.37
426.959	22.29
427.32	22.46
427.68	22.59
428.041	22.81
428.401	22.63
428.761	22.85
429.122	23.1
429.482	23.28
429.842	23.16
430.202	23.41
430.563	23.37
430.923	23.15
431.283	23.63
431.643	23.52
432.003	23.64
432.363	23.83
432.722	23.66
433.082	23.72
433.442	24.01
433.802	24.07
434.161	23.8
434.521	23.92
434.881	24.01
435.24	23.78
435.6	24.01
435.959	24.06
436.319	24.11
436.678	24.19
437.037	24.45
437.396	24.67
437.756	24.49
438.115	24.66
438.474	24.66
438.833	24.54
439.192	24.97
439.551	24.83
439.91	24.87
440.269	24.97
440.628	24.87
440.987	24.92
441.345	24.79
441.704	24.91
442.063	24.96
442.421	25.04
442.78	24.97
443.138	25.08
443.497	25.04
443.855	25.47
444.214	25.56
444.572	25.78
444.93	25.56
445.288	25.82
445.647	25.73
446.005	25.79
446.363	25.66
446.721	25.45
447.079	25.69
447.437	25.71
447.795	25.64
448.153	25.61
448.51	25.66
448.868	25.76
449.226	26.06
449.584	25.95
449.941	26.35
450.299	26.25
450.656	26.48
451.014	26.63
451.371	26.56
451.729	26.7
452.086	26.53
452.443	26.76
452.801	26.94
453.158	27.12
453.515	26.99
453.872	27.18
454.229	27.12
454.586	27.06
454.943	27.21
455.3	27.36
455.657	27.17
456.014	27.48
456.371	27.71
456.727	27.63
457.084	27.45
457.441	27.56
457.797	27.76
458.154	28.15
458.51	27.92
458.867	27.93
459.223	27.92
459.58	27.97
459.936	27.85
460.292	28.2
460.648	27.9
461.005	27.92
461.361	27.74
461.717	27.77
462.073	27.98
462.429	28.23
462.785	28.44
463.141	28.52
463.496	28.41
463.852	28.81
464.208	28.84
464.564	28.8
464.919	29.02
465.275	28.96
465.631	29.19
465.986	29.39
466.342	29.14
466.697	29.1
467.052	29.11
467.408	29.48
467.763	29.37
468.118	29.52
468.473	29.74
468.829	29.54
469.184	29.53
469.539	29.52
469.894	29.83
470.249	29.91
470.603	30.03
470.958	30.18
471.313	29.99
471.668	30.23
472.023	30.25
472.377	30.18
472.732	30.39
473.086	30.26
473.441	30.32
473.795	30.62
474.15	30.51
474.504	30.41
474.859	30.49
475.213	30.6
475.567	30.58
475.921	31.06
476.275	31.02
476.63	30.99
476.984	31.05
477.338	31.41
477.692	31.22
478.045	31.18
478.399	31.16
478.753	31.16
479.107	31.06
479.461	31.21
479.814	31.26
480.168	31.35
480.521	31.26
480.875	31.65
481.228	31.67
481.582	31.51
481.935	31.56
482.289	31.79
482.642	31.56
482.995	31.63
483.348	31.56
483.701	31.56
484.055	31.51
484.408	31.23
484.761	30.97
485.114	31.03
485.466	31.06
485.819	30.94
486.172	30.86
486.525	31.01
486.878	31.18
487.23	31.48
487.583	31.68
487.936	31.8
488.288	31.7
488.641	31.55
488.993	31.49
489.345	31.58
489.698	31.52
490.05	31.73
490.402	31.96
490.754	32.08
491.107	32.27
491.459	32.64
491.811	32.74
492.163	32.79
492.515	32.71
492.866	32.39
493.218	32.36
493.57	32.43
493.922	32.49
494.274	32.67
494.625	32.92
494.977	33.22
495.328	33.46
495.68	33.9
496.031	33.95
496.383	33.92
496.734	34.09
497.086	34.04
497.437	34.28
497.788	34.04
498.139	34.06
498.49	33.83
498.842	33.98
499.193	34.07
499.544	34.37
499.894	34.17
500.245	34.4
500.596	34.4
500.947	34.59
501.298	34.61
501.648	34.86
501.999	34.94
502.35	35.17
502.7	35.13
503.051	35.23
503.401	35.36
503.752	35.26
504.102	35.27
504.452	35.28
504.803	35.35
505.153	35.54
505.503	35.4
505.853	35.46
506.203	35.66
506.553	35.55
506.903	35.65
507.253	35.92
507.603	35.83
507.953	36.01
508.303	35.98
508.652	36.14
509.002	35.99
509.352	35.95
509.701	35.94
510.051	36.32
510.4	35.96
510.75	36.15
511.099	35.84
511.449	36.16
511.798	36.23
512.147	36.41
512.496	36.39
512.846	36.43
513.195	36.37
513.544	36.7
513.893	36.58
514.242	36.65
514.591	36.67
514.939	36.79
515.288	36.71
515.637	36.92
515.986	37.08
516.334	37.27
516.683	37.12
517.032	37.18
517.38	37.43
517.729	37.45
518.077	37.5
518.426	37.5
518.774	37.42
519.122	37.27
519.47	37.18
519.819	37.23
520.167	37.14
520.515	37.04
520.863	37.26
521.211	37.26
521.559	37.44
521.907	37.59
522.255	37.7
522.602	37.79
522.95	38.16
523.298	38.09
523.645	38.16
523.993	38.25
524.341	38.43
524.688	38.57
525.036	38.48
525.383	38.66
525.73	38.44
526.078	38.57
526.425	38.13
526.772	38.2
527.119	38.12
527.466	38.13
527.814	38.02
528.161	38.26
528.508	38.23
528.854	38.16
529.201	38.21
529.548	38.1
529.895	38.04
530.242	38.08
530.588	38.11
530.935	37.87
531.282	37.94
531.628	38.09
531.975	38.3
532.321	38.61
532.667	38.9
533.014	38.98
533.36	38.97
533.706	39.23
534.052	39.04
534.399	38.97
534.745	38.78
535.091	38.92
535.437	38.89
535.783	38.96
536.129	39.16
536.474	39.29
536.82	39.5
537.166	39.83
537.512	39.88
537.857	39.69
538.203	39.7
538.549	39.66
538.894	39.92
539.239	39.98
539.585	40.16
539.93	40.43
540.276	40.54
540.621	40.67
540.966	40.75
541.311	40.74
541.656	40.4
542.001	40.52
542.346	40.26
542.691	40.16
543.036	39.94
543.381	39.98
543.726	39.9
544.071	40.05
544.415	40.28
544.76	40.3
545.105	40.71
545.449	40.68
545.794	40.96
546.138	41.27
546.483	41.14
546.827	41.12
547.171	41.15
547.516	41.48
547.86	41.35
548.204	41.24
548.548	41.31
548.892	41.5
549.236	41.68
549.58	41.73
549.924	41.81
550.268	42.02
550.612	42.24
550.956	42.28
551.3	42.15
551.643	42.68
551.987	42.69
552.33	42.72
552.674	43.02
553.017	42.87
553.361	42.76
553.704	42.82
554.048	42.87
554.391	42.76
554.734	42.84
555.077	43.06
555.42	43.04
555.764	42.94
556.107	43.33
556.45	43.21
556.793	43.53
557.135	43.49
557.478	43.43
557.821	43.67
558.164	44.01
558.507	43.63
558.849	43.93
559.192	43.95
559.534	43.85
559.877	43.92
560.219	44.05
560.562	44.23
560.904	43.94
561.246	44.27
561.589	44.38
561.931	44.37
562.273	44.5
562.615	44.56
562.957	44.52
563.299	44.48
563.641	44.39
563.983	44.71
564.325	44.59
564.667	44.66
565.008	44.7
565.35	44.9
565.692	44.86
566.033	44.9
566.375	44.76
566.716	44.85
567.058	45.04
567.399	44.88
567.741	44.68
568.082	44.55
568.423	44.61
568.764	44.85
569.105	44.87
569.447	45.08
569.788	45.12
570.129	45.05
570.47	45.28
570.811	45.24
571.151	45.39
571.492	45.52
571.833	45.72
572.174	45.56
572.514	45.5
572.855	45.54
573.195	45.25
573.536	45.48
573.876	45.65
574.217	45.53
574.557	45.45
574.898	45.68
575.238	45.81
575.578	45.87
575.918	45.74
576.258	45.99
576.598	46.16
576.938	45.97
577.278	45.91
577.618	46.07
577.958	46.12
578.298	46.28
578.638	46.4
578.977	46.41
579.317	46.49
579.657	46.77
579.996	46.61
580.336	46.38
580.675	46.84
581.014	46.62
581.354	46.96
581.693	46.78
582.032	47.09
582.372	47.19
582.711	46.99
583.05	47.14
583.389	47.33
583.728	47.47
584.067	47.09
584.406	47.37
584.745	47.58
585.083	47.66
585.422	47.6
585.761	47.59
586.1	47.72
586.438	47.78
586.777	47.83
587.115	48.27
587.454	47.93
587.792	47.88
588.13	48.21
588.469	47.92
588.807	48.39
589.145	48.37
589.483	48.13
589.821	48.07
590.159	48.37
590.497	48.23
590.835	48.21
591.173	47.96
591.511	48.26
591.849	48.09
592.187	48.36
592.524	48.31
592.862	48.59
593.2	48.54
593.537	48.79
593.875	48.77
594.212	48.66
594.55	48.51
594.887	48.93
595.224	48.85
595.561	48.84
595.899	48.77
596.236	48.77
596.573	48.98
596.91	48.96
597.247	48.99
597.584	48.71
597.921	49.09
598.258	48.92
598.594	48.71
598.931	48.73
599.268	48.64
599.604	49.01
599.941	49.08
600.277	49
600.614	49.62
600.95	49.51
601.287	49.59
601.623	50.04
601.959	49.71
602.296	49.56
602.632	50.01
602.968	49.91
603.304	49.87
603.64	50.08
603.976	49.81
604.312	50.18
604.648	49.73
604.984	49.84
605.319	49.62
605.655	49.91
605.991	49.55
606.326	49.65
606.662	49.48
606.998	49.71
607.333	49.85
607.668	50.12
608.004	50.03
608.339	50
608.674	49.91
609.01	50.5
609.345	50.65
609.68	50.51
610.015	50.78
610.35	50.83
610.685	50.57
611.02	50.66
611.355	50.55
611.689	50.35
612.024	50.52
612.359	50.45
612.694	50.48
613.028	51.02
613.363	50.61
613.697	51.34
614.032	51.35
614.366	51.01
614.7	51.14
615.035	51.14
615.369	51.32
615.703	51.36
616.037	51.35
616.371	51.55
616.705	51.79
617.039	51.58
617.373	51.71
617.707	51.73
618.041	51.49
618.375	51.63
618.709	51.45
619.042	51.71
619.376	51.73
619.71	51.76
620.043	52.18
620.377	51.85
620.71	52.29
621.043	51.97
621.377	52.13
621.71	52.72
622.043	52.56
622.376	52.15
622.709	52.27
623.043	52.49
623.376	52.11
623.709	52.12
624.041	52.39
624.374	52.21
624.707	52.27
625.04	52.72
625.373	52.45
625.705	52.83
626.038	52.3
626.37	52.47
626.703	52.41
627.035	52.53
627.368	52.88
627.7	52.95
628.032	52.72
628.365	52.25
628.697	52.97
629.029	52.91
629.361	52.63
629.693	52.63
630.025	52.84
630.357	52.86
630.689	53.34
631.021	53.11
631.353	53.2
631.684	53.47
632.016	53.54
632.348	53.25
632.679	53.13
633.011	53.52
633.342	53.34
633.674	53.9
634.005	53.83
634.336	53.78
634.668	53.72
634.999	53.72
635.33	54
635.661	53.52
635.992	53.42
636.323	53.62
636.654	54.03
636.985	53.6
637.316	54.01
637.647	54.1
637.977	53.58
638.308	54.19
638.639	53.76
638.969	54.43
639.3	54.32
639.63	53.92
639.961	54.17
640.291	54.74
640.622	54.31
640.952	53.93
641.282	53.94
641.612	54.16
641.943	54.57
642.273	54.96
642.603	54.31
642.933	54.83
643.263	54.76
643.592	54.7
643.922	54.79
644.252	55
644.582	54.8
644.911	54.71
645.241	54.77
645.571	55.37
645.9	55.31
646.23	54.79
646.559	55.01
646.888	54.78
647.218	55.14
647.547	55.72
647.876	55.13
648.205	55.23
648.534	55.27
648.863	55.48
649.192	55.35
649.521	54.89
649.85	55.58
650.179	55.06
650.508	55.11
650.837	55.45
651.165	55.49
651.494	55.68
651.822	56.13
652.151	55.87
652.479	55.74
652.808	55.43
653.136	56.34
653.465	56.01
653.793	55.72
654.121	55.81
654.449	55.7
654.777	56
655.105	55.93
655.433	56.06
655.761	55.67
656.089	55.93
656.417	55.46
656.745	56.27
657.073	55.83
657.4	56.16
657.728	56.59
658.056	55.67
658.383	56.71
658.711	55.52
659.038	56.65
659.365	55.99
659.693	55.85
660.02	56.4
660.347	56.74
660.674	56.3
661.001	56.61
661.329	55.9
661.656	55.93
661.982	56.87
662.309	56.48
662.636	56.37
662.963	56.25
663.29	56.95
663.616	57.19
663.943	56.95
664.27	57.1
664.596	56.82
664.923	57.13
665.249	56.97
665.576	56.97
665.902	56.51
666.228	57.15
666.554	56.63
666.881	57.63
667.207	57.17
667.533	57.39
667.859	57.42
668.185	57.1
668.511	56.75
668.837	57.07
669.162	57.77
669.488	57.44
669.814	57.07
670.139	57.66
