Data from 0066_chest_Reflection__2__140.txt Node

Date: Fri Dec 16 15:00:35 CST 2022
User: ToomeyLab
Spectrometer: FLMS14357
Trigger mode: 0
Integration Time (sec): 1.000000E-2
Scans to average: 100
Electric dark correction enabled: true
Nonlinearity correction enabled: false
Boxcar width: 0
XAxis mode: Wavelengths
Number of Pixels in Spectrum: 2048
>>>>>Begin Spectral Data<<<<<
189.047	18.22
189.435	18.22
189.823	18.22
190.211	217.8
190.599	1000
190.987	334.88
191.375	-80.78
191.763	-41.38
192.151	-9.65
192.538	35.32
192.926	909.68
193.314	29.7
193.702	136.02
194.089	-5.38
194.477	341.62
194.864	166.96
195.252	7.16
195.639	117.88
196.027	42.51
196.414	106.84
196.801	220.62
197.189	171.43
197.576	135.73
197.963	-132.55
198.351	8.35
198.738	-26.51
199.125	45.49
199.512	25.23
199.899	-7.94
200.286	-29.83
200.673	43.18
201.06	28.04
201.447	47.01
201.833	27.3
202.22	38.75
202.607	2.14
202.994	24.33
203.38	-123.12
203.767	53.26
204.154	3.16
204.54	6.88
204.927	49.85
205.313	34.36
205.699	5.26
206.086	9.55
206.472	-2.81
206.858	-9.82
207.245	27.82
207.631	1.28
208.017	-4.12
208.403	9.59
208.789	23.92
209.175	57.05
209.561	6.91
209.947	11.77
210.333	10.41
210.719	-4.52
211.105	-13.92
211.491	28.77
211.876	-28.32
212.262	6.11
212.648	-50.04
213.034	-13.23
213.419	26.77
213.805	0.93
214.19	-4.01
214.576	17.73
214.961	17.8
215.346	17.17
215.732	5.25
216.117	5.59
216.502	34.84
216.888	-32.12
217.273	11.8
217.658	-13.05
218.043	19.79
218.428	-3.82
218.813	-16.64
219.198	-24.1
219.583	27.31
219.968	-2.17
220.353	31.08
220.738	-8.25
221.122	12.52
221.507	10.18
221.892	-2.82
222.276	12.07
222.661	-12.25
223.046	-3.52
223.43	2.25
223.815	1.68
224.199	2.92
224.583	-0.75
224.968	5.25
225.352	-10.79
225.736	4.56
226.121	-0.86
226.505	3.14
226.889	5.54
227.273	3.36
227.657	1.74
228.041	5.35
228.425	5.62
228.809	4.7
229.193	2.42
229.577	3.02
229.961	4.12
230.344	4.58
230.728	4.35
231.112	4.25
231.495	4.96
231.879	3.43
232.263	2.96
232.646	3.36
233.03	1.66
233.413	4.11
233.797	4.47
234.18	4.13
234.563	5.19
234.946	4.75
235.33	5.14
235.713	4.33
236.096	3.34
236.479	5.03
236.862	6.4
237.245	3.94
237.628	5.34
238.011	4.2
238.394	5.46
238.777	5.37
239.16	2.97
239.543	2.32
239.925	4.73
240.308	4.08
240.691	4.11
241.073	4.93
241.456	2.85
241.838	3.65
242.221	4.1
242.603	4.44
242.986	4.55
243.368	3.96
243.75	3.41
244.133	3.55
244.515	3.58
244.897	3.18
245.279	3.51
245.661	4.35
246.043	4.26
246.425	3.65
246.807	4.49
247.189	3.64
247.571	3.87
247.953	3.6
248.335	3.94
248.717	3.62
249.098	3.92
249.48	3.9
249.862	3.69
250.243	3.53
250.625	3.48
251.006	3.44
251.388	4.87
251.769	3.6
252.151	4.04
252.532	3.76
252.913	4.18
253.295	3.42
253.676	3.72
254.057	2.98
254.438	4.02
254.819	3.75
255.2	3.95
255.581	3.26
255.962	4.75
256.343	4.9
256.724	3.68
257.105	4.98
257.486	3.83
257.867	2.54
258.247	3.97
258.628	5.02
259.009	3.69
259.389	3.77
259.77	3.29
260.15	4.14
260.531	3.63
260.911	3.5
261.292	3.51
261.672	3.46
262.052	3.44
262.432	3.96
262.813	3.9
263.193	3.07
263.573	3.86
263.953	3.74
264.333	3.75
264.713	3.26
265.093	3.37
265.473	4.32
265.853	3
266.233	3.78
266.612	3.74
266.992	2.68
267.372	3.88
267.752	3.15
268.131	3.57
268.511	3.78
268.89	3.6
269.27	3.59
269.649	3.87
270.029	3.73
270.408	3.92
270.787	3.59
271.167	3.51
271.546	2.73
271.925	3.81
272.304	3.58
272.683	3.39
273.062	3.78
273.441	3.55
273.82	4.17
274.199	3.39
274.578	3.3
274.957	3.56
275.336	3.63
275.715	3.84
276.093	4.12
276.472	3.83
276.851	3.82
277.229	4.06
277.608	3.53
277.986	3.26
278.365	3.36
278.743	3.88
279.122	3.17
279.5	2.59
279.878	2.95
280.257	3.59
280.635	3.15
281.013	4.19
281.391	3.16
281.769	3.16
282.147	3.46
282.525	3.6
282.903	3.7
283.281	3.65
283.659	3.53
284.037	3.09
284.415	3.6
284.792	3.45
285.17	3.35
285.548	3.34
285.925	3.08
286.303	3.41
286.68	3.54
287.058	3.37
287.435	3.31
287.813	3.43
288.19	3.86
288.567	3.36
288.945	3.4
289.322	3.34
289.699	3.49
290.076	4.19
290.453	3.01
290.83	3.64
291.207	3.63
291.584	3.35
291.961	3.47
292.338	3.43
292.715	3.79
293.092	3.84
293.469	3.42
293.845	4.07
294.222	3.21
294.599	3.92
294.975	3.94
295.352	3.52
295.728	3.59
296.105	3.31
296.481	3.83
296.858	3.48
297.234	3.87
297.61	3.88
297.986	3.65
298.363	2.94
298.739	3.91
299.115	3.38
299.491	3.68
299.867	3.78
300.243	3.58
300.619	3.6
300.995	3.9
301.371	3.55
301.746	3.44
302.122	3.83
302.498	3.91
302.874	3.79
303.249	4.08
303.625	3.33
304	3.9
304.376	3.45
304.751	3.99
305.127	3.7
305.502	4.2
305.878	3.92
306.253	3.7
306.628	4.25
307.003	3.58
307.378	3.47
307.754	4.26
308.129	3.13
308.504	3.12
308.879	3.7
309.254	3.82
309.629	3.55
310.003	3.37
310.378	3.92
310.753	4.07
311.128	3.87
311.502	3.84
311.877	3.83
312.252	3.83
312.626	3.47
313.001	3.56
313.375	3.77
313.75	3.37
314.124	3.81
314.498	3.28
314.873	3.75
315.247	3.8
315.621	4.46
315.995	4.13
316.369	4.22
316.743	3.6
317.117	4.17
317.491	4.22
317.865	3.5
318.239	4.28
318.613	3.98
318.987	4.11
319.361	3.97
319.734	4.15
320.108	3.77
320.482	3.89
320.855	4.09
321.229	4.23
321.602	4.06
321.976	3.98
322.349	2.81
322.723	3.81
323.096	3.49
323.469	3.76
323.843	4.15
324.216	3.53
324.589	4.04
324.962	4.14
325.335	4.09
325.708	4.16
326.081	4.71
326.454	3.72
326.827	4.14
327.2	4.68
327.573	4
327.945	4.02
328.318	4.19
328.691	3.65
329.063	3.8
329.436	3.55
329.809	3.7
330.181	4.04
330.553	4.23
330.926	3.94
331.298	3.96
331.671	3.71
332.043	3.78
332.415	4.49
332.787	4.72
333.159	3.92
333.532	3.96
333.904	3.89
334.276	3.81
334.648	4.16
335.02	3.97
335.391	4.11
335.763	3.96
336.135	4.19
336.507	4.32
336.879	4.13
337.25	3.85
337.622	4.15
337.993	4.01
338.365	4.38
338.736	4.09
339.108	4.05
339.479	4.12
339.851	4.23
340.222	3.85
340.593	3.59
340.964	4.38
341.336	3.32
341.707	3.45
342.078	3.86
342.449	4.4
342.82	3.68
343.191	3.27
343.562	3.89
343.933	4.11
344.303	4.21
344.674	3.76
345.045	4.36
345.416	4.01
345.786	3.64
346.157	4.01
346.527	3.74
346.898	4
347.268	3.8
347.639	3.96
348.009	4.45
348.38	4.06
348.75	4.17
349.12	4.1
349.49	4.01
349.861	4.57
350.231	4.17
350.601	3.87
350.971	3.98
351.341	4.45
351.711	3.84
352.081	4.24
352.45	4.33
352.82	4.18
353.19	4.01
353.56	4.09
353.929	4.38
354.299	4.01
354.669	4.28
355.038	4.41
355.408	4.42
355.777	3.77
356.147	4.22
356.516	4.6
356.885	3.87
357.254	4.2
357.624	4.2
357.993	3.94
358.362	4.27
358.731	3.96
359.1	4.06
359.469	4.27
359.838	4.02
360.207	3.84
360.576	4.31
360.945	3.99
361.314	4.04
361.682	4.05
362.051	4
362.42	4.19
362.788	4.25
363.157	3.93
363.525	4.02
363.894	3.95
364.262	4.07
364.631	4.65
364.999	4.31
365.367	4.19
365.735	3.83
366.104	4.18
366.472	4.62
366.84	4.38
367.208	3.95
367.576	4.01
367.944	4.21
368.312	3.9
368.68	4.06
369.048	4.23
369.416	4.11
369.783	4.4
370.151	3.98
370.519	3.97
370.886	4.16
371.254	4.19
371.621	4.13
371.989	4.46
372.356	4.09
372.724	4.27
373.091	4.34
373.458	4.14
373.826	4.22
374.193	4.5
374.56	3.99
374.927	4.18
375.294	4.42
375.661	4.73
376.028	4.27
376.395	4.13
376.762	4.4
377.129	4.49
377.496	4.54
377.863	4.13
378.229	4.38
378.596	4.15
378.963	4.04
379.329	4.39
379.696	4.13
380.062	4.45
380.429	4.4
380.795	4.13
381.161	4.1
381.528	4.01
381.894	4.17
382.26	4.23
382.626	4.24
382.993	4.22
383.359	4.14
383.725	4.71
384.091	4.37
384.457	4.39
384.823	4.34
385.188	4.55
385.554	4.42
385.92	4.59
386.286	4.6
386.651	4.21
387.017	4.45
387.383	4.36
387.748	4.34
388.114	4.34
388.479	4.43
388.845	4.2
389.21	4.39
389.575	4.34
389.94	4.68
390.306	4.53
390.671	4.38
391.036	4.54
391.401	4.58
391.766	4.46
392.131	4.49
392.496	4.5
392.861	4.35
393.226	4.41
393.591	4.47
393.956	4.55
394.32	4.65
394.685	4.46
395.05	4.29
395.414	4.45
395.779	4.32
396.143	4.52
396.508	4.31
396.872	4.35
397.236	4.46
397.601	4.44
397.965	4.28
398.329	4.73
398.694	4.32
399.058	4.3
399.422	4.51
399.786	4.35
400.15	4.33
400.514	4.65
400.878	4.66
401.242	4.77
401.605	4.66
401.969	4.69
402.333	4.57
402.697	4.66
403.06	4.7
403.424	4.42
403.787	4.56
404.151	4.34
404.514	4.45
404.878	4.69
405.241	4.6
405.604	4.32
405.968	4.64
406.331	4.53
406.694	4.65
407.057	4.67
407.42	4.48
407.783	4.5
408.146	4.54
408.509	4.47
408.872	4.39
409.235	4.66
409.598	4.65
409.961	4.69
410.323	4.36
410.686	4.46
411.049	4.42
411.411	4.49
411.774	4.65
412.136	4.47
412.499	4.51
412.861	4.4
413.223	4.69
413.586	4.51
413.948	4.91
414.31	4.93
414.672	4.48
415.035	4.72
415.397	4.77
415.759	4.52
416.121	4.82
416.483	4.7
416.845	4.58
417.206	4.64
417.568	4.56
417.93	4.51
418.292	4.64
418.653	4.62
419.015	4.69
419.377	4.67
419.738	4.59
420.1	4.59
420.461	4.42
420.822	4.57
421.184	4.54
421.545	4.53
421.906	4.48
422.267	4.43
422.629	4.51
422.99	4.54
423.351	4.55
423.712	4.58
424.073	4.65
424.434	4.43
424.795	4.53
425.155	4.54
425.516	4.56
425.877	4.56
426.238	4.45
426.598	4.65
426.959	4.53
427.32	4.69
427.68	4.64
428.041	4.77
428.401	4.48
428.761	4.64
429.122	4.78
429.482	4.64
429.842	4.91
430.202	4.77
430.563	4.86
430.923	4.7
431.283	4.77
431.643	4.76
432.003	4.78
432.363	4.9
432.722	4.61
433.082	4.85
433.442	4.78
433.802	4.81
434.161	4.74
434.521	4.66
434.881	4.72
435.24	4.69
435.6	4.74
435.959	4.79
436.319	4.6
436.678	4.8
437.037	4.89
437.396	4.85
437.756	4.81
438.115	4.72
438.474	4.96
438.833	4.9
439.192	4.93
439.551	4.77
439.91	4.86
440.269	4.83
440.628	4.79
440.987	4.73
441.345	4.72
441.704	4.77
442.063	4.78
442.421	4.76
442.78	4.74
443.138	4.76
443.497	4.69
443.855	4.67
444.214	4.89
444.572	4.86
444.93	4.96
445.288	4.92
445.647	4.92
446.005	4.74
446.363	4.76
446.721	4.7
447.079	4.9
447.437	4.81
447.795	4.82
448.153	4.86
448.51	4.76
448.868	4.83
449.226	4.78
449.584	4.85
449.941	5.01
450.299	4.9
450.656	4.95
451.014	4.78
451.371	5.07
451.729	4.96
452.086	4.82
452.443	4.88
452.801	5.08
453.158	5.05
453.515	4.79
453.872	5.07
454.229	4.99
454.586	4.93
454.943	4.92
455.3	5.25
455.657	4.94
456.014	5.08
456.371	5.14
456.727	4.97
457.084	5.03
457.441	4.95
457.797	5.04
458.154	5.12
458.51	5.04
458.867	4.92
459.223	5.09
459.58	5.08
459.936	4.86
460.292	4.96
460.648	4.95
461.005	4.94
461.361	4.89
461.717	4.97
462.073	4.98
462.429	5.03
462.785	5.09
463.141	5.04
463.496	4.94
463.852	5.23
464.208	5.05
464.564	5
464.919	5.06
465.275	5.33
465.631	5.19
465.986	5.16
466.342	5.19
466.697	5.18
467.052	5.14
467.408	5.17
467.763	5.12
468.118	5.01
468.473	5.12
468.829	5.16
469.184	5.3
469.539	4.98
469.894	5.33
470.249	5.33
470.603	5.24
470.958	5.35
471.313	5.1
471.668	5.2
472.023	5.28
472.377	5.13
472.732	5.24
473.086	5.11
473.441	5.38
473.795	5.27
474.15	5.14
474.504	5.15
474.859	5.27
475.213	5.16
475.567	5.15
475.921	5.36
476.275	5.34
476.63	5.3
476.984	5.16
477.338	5.39
477.692	5.3
478.045	5.23
478.399	5.33
478.753	5.21
479.107	5.3
479.461	5.28
479.814	5.31
480.168	5.29
480.521	5.23
480.875	5.43
481.228	5.44
481.582	5.13
481.935	5.32
482.289	5.21
482.642	5.29
482.995	5.31
483.348	5.28
483.701	5.37
484.055	5.16
484.408	5.08
484.761	4.97
485.114	4.92
485.466	4.94
485.819	4.98
486.172	5.09
486.525	5.18
486.878	5.2
487.23	5.18
487.583	5.17
487.936	5.18
488.288	5.2
488.641	5.01
488.993	5.04
489.345	5.08
489.698	5.14
490.05	5.19
490.402	5.28
490.754	5.33
491.107	5.32
491.459	5.38
491.811	5.48
492.163	5.39
492.515	5.26
492.866	5.15
493.218	5.12
493.57	5.27
493.922	5.34
494.274	5.44
494.625	5.38
494.977	5.4
495.328	5.54
495.68	5.69
496.031	5.55
496.383	5.48
496.734	5.59
497.086	5.47
497.437	5.69
497.788	5.41
498.139	5.55
498.49	5.54
498.842	5.47
499.193	5.48
499.544	5.66
499.894	5.62
500.245	5.57
500.596	5.64
500.947	5.59
501.298	5.63
501.648	5.66
501.999	5.72
502.35	5.72
502.7	5.72
503.051	5.78
503.401	5.74
503.752	5.71
504.102	5.73
504.452	5.8
504.803	5.63
505.153	5.76
505.503	5.77
505.853	5.69
506.203	5.75
506.553	5.82
506.903	5.7
507.253	5.88
507.603	5.72
507.953	5.79
508.303	5.8
508.652	5.91
509.002	5.84
509.352	5.78
509.701	5.81
510.051	5.68
510.4	5.71
510.75	5.82
511.099	5.79
511.449	5.75
511.798	5.95
512.147	5.84
512.496	5.9
512.846	5.74
513.195	5.81
513.544	5.8
513.893	5.74
514.242	5.94
514.591	5.9
514.939	5.93
515.288	5.96
515.637	6.01
515.986	5.91
516.334	6.01
516.683	5.9
517.032	6.03
517.38	5.94
517.729	5.91
518.077	5.94
518.426	6.02
518.774	6.01
519.122	5.87
519.47	5.87
519.819	5.95
520.167	5.88
520.515	5.86
520.863	5.87
521.211	5.97
521.559	5.98
521.907	6.05
522.255	6.07
522.602	6.17
522.95	6.1
523.298	6.15
523.645	6.12
523.993	6.21
524.341	6.09
524.688	6.08
525.036	6.24
525.383	6.24
525.73	6.22
526.078	6.25
526.425	6.08
526.772	5.99
527.119	6
527.466	6.02
527.814	6.08
528.161	6.16
528.508	6.21
528.854	6.02
529.201	5.98
529.548	5.92
529.895	5.87
530.242	5.85
530.588	5.95
530.935	6.03
531.282	6.09
531.628	6.14
531.975	6.22
532.321	6.19
532.667	6.24
533.014	6.31
533.36	6.29
533.706	6.23
534.052	6.21
534.399	6.11
534.745	6.05
535.091	6.17
535.437	6.25
535.783	6.34
536.129	6.33
536.474	6.4
536.82	6.36
537.166	6.44
537.512	6.47
537.857	6.31
538.203	6.26
538.549	6.47
538.894	6.45
539.239	6.56
539.585	6.58
539.93	6.57
540.276	6.6
540.621	6.7
540.966	6.73
541.311	6.71
541.656	6.56
542.001	6.54
542.346	6.39
542.691	6.36
543.036	6.38
543.381	6.5
543.726	6.55
544.071	6.56
544.415	6.62
544.76	6.48
545.105	6.63
545.449	6.68
545.794	6.79
546.138	6.73
546.483	6.69
546.827	6.79
547.171	6.83
547.516	6.94
547.86	6.77
548.204	6.84
548.548	6.93
548.892	6.89
549.236	6.95
549.58	6.95
549.924	7.03
550.268	7.15
550.612	7.09
550.956	7.02
551.3	7.16
551.643	7.21
551.987	7.21
552.33	6.89
552.674	7.29
553.017	7.25
553.361	7.18
553.704	7.12
554.048	7.36
554.391	7.2
554.734	7.25
555.077	7.22
555.42	7.25
555.764	7.31
556.107	7.32
556.45	7.29
556.793	7.4
557.135	7.55
557.478	7.52
557.821	7.36
558.164	7.56
558.507	7.35
558.849	7.53
559.192	7.63
559.534	7.42
559.877	7.56
560.219	7.66
560.562	7.56
560.904	7.43
561.246	7.54
561.589	7.58
561.931	7.69
562.273	7.63
562.615	7.71
562.957	7.57
563.299	7.67
563.641	7.79
563.983	7.74
564.325	7.57
564.667	7.74
565.008	7.74
565.35	7.81
565.692	7.93
566.033	7.89
566.375	7.65
566.716	7.9
567.058	7.93
567.399	7.91
567.741	7.99
568.082	7.78
568.423	7.74
568.764	7.98
569.105	8
569.447	7.99
569.788	8.02
570.129	8.06
570.47	8.12
570.811	8.09
571.151	8.09
571.492	8.26
571.833	8.1
572.174	8.09
572.514	7.9
572.855	8.38
573.195	8.17
573.536	8.15
573.876	8.26
574.217	8.2
574.557	8.24
574.898	8.17
575.238	8.1
575.578	8.58
575.918	8.3
576.258	8.28
576.598	8.27
576.938	8.58
577.278	8.37
577.618	8.28
577.958	8.56
578.298	8.53
578.638	8.6
578.977	8.63
579.317	8.59
579.657	8.68
579.996	8.72
580.336	8.52
580.675	8.72
581.014	8.59
581.354	8.81
581.693	8.99
582.032	8.61
582.372	8.93
582.711	8.7
583.05	8.99
583.389	8.94
583.728	9.13
584.067	8.99
584.406	9.04
584.745	8.96
585.083	9.27
585.422	9.04
585.761	9.19
586.1	9.16
586.438	9.09
586.777	9.12
587.115	9.3
587.454	9.28
587.792	9.19
588.13	9.39
588.469	9.45
588.807	9.53
589.145	9.36
589.483	9.32
589.821	9.52
590.159	9.2
590.497	9.17
590.835	9.22
591.173	9.43
591.511	9.25
591.849	9.53
592.187	9.34
592.524	9.54
592.862	9.54
593.2	9.56
593.537	9.51
593.875	9.63
594.212	9.45
594.55	9.75
594.887	10
595.224	9.67
595.561	9.68
595.899	9.63
596.236	9.71
596.573	9.73
596.91	9.77
597.247	9.65
597.584	9.61
597.921	9.85
598.258	9.78
598.594	9.57
598.931	9.81
599.268	9.84
599.604	10.07
599.941	9.85
600.277	9.94
600.614	10.18
600.95	10.17
601.287	9.91
601.623	10.23
601.959	10.01
602.296	10.29
602.632	10.57
602.968	10.24
603.304	9.99
603.64	10.42
603.976	10.15
604.312	10.27
604.648	10.43
604.984	10.15
605.319	10.24
605.655	10.5
605.991	10.26
606.326	10.22
606.662	10.27
606.998	10.34
607.333	10.51
607.668	10.51
608.004	10.6
608.339	10.48
608.674	10.69
609.01	10.7
609.345	10.74
609.68	10.65
610.015	10.68
610.35	10.59
610.685	10.68
611.02	10.79
611.355	10.73
611.689	10.76
612.024	11.12
612.359	10.92
612.694	10.86
613.028	11.22
613.363	10.69
613.697	11.22
614.032	11.04
614.366	11.07
614.7	11.42
615.035	10.91
615.369	11.29
615.703	11.48
616.037	11.08
616.371	11.22
616.705	11.35
617.039	11.51
617.373	11.24
617.707	11.07
618.041	11.64
618.375	11.3
618.709	11.39
619.042	11.53
619.376	11.61
619.71	11.72
620.043	11.41
620.377	11.3
620.71	11.78
621.043	11.57
621.377	11.56
621.71	11.71
622.043	11.54
622.376	11.48
622.709	12.19
623.043	11.73
623.376	12
623.709	12.09
624.041	11.49
624.374	11.73
624.707	11.91
625.04	11.95
625.373	11.91
625.705	11.97
626.038	12.06
626.37	12.36
626.703	12.03
627.035	12.2
627.368	12.06
627.7	12.12
628.032	12.28
628.365	11.91
628.697	12.18
629.029	12.29
629.361	12.14
629.693	12.51
630.025	12.39
630.357	12.27
630.689	12.45
631.021	12.56
631.353	12.59
631.684	12.62
632.016	12.6
632.348	12.47
632.679	12.7
633.011	12.65
633.342	12.17
633.674	12.61
634.005	12.3
634.336	12.82
634.668	12.85
634.999	12.4
635.33	12.77
635.661	12.72
635.992	12.78
636.323	13.06
636.654	12.86
636.985	13.02
637.316	13.25
637.647	13.29
637.977	13.25
638.308	12.74
638.639	13.03
638.969	13.01
639.3	13.36
639.63	12.82
639.961	13.36
640.291	13.59
640.622	13.31
640.952	13.73
641.282	12.95
641.612	13.24
641.943	13.73
642.273	13.44
642.603	13.19
642.933	13.47
643.263	13.81
643.592	13.65
643.922	13.75
644.252	13.37
644.582	13.39
644.911	13.46
645.241	13.68
645.571	13.49
645.9	14.15
646.23	13.83
646.559	13.69
646.888	13.54
647.218	13.66
647.547	13.98
647.876	14.38
648.205	13.92
648.534	13.72
648.863	14.24
649.192	14.09
649.521	13.9
649.85	14.45
650.179	14.13
650.508	14.27
650.837	14.34
651.165	14.19
651.494	14.45
651.822	14.34
652.151	14.8
652.479	14.94
652.808	14.02
653.136	14.16
653.465	14.65
653.793	14.46
654.121	14.48
654.449	14.8
654.777	14.1
655.105	14.67
655.433	14.8
655.761	14.93
656.089	15.43
656.417	14.37
656.745	15.27
657.073	14.92
657.4	15.34
657.728	14.86
658.056	15.07
658.383	15.3
658.711	14.5
659.038	15.16
659.365	14.99
659.693	14.77
660.02	14.86
660.347	15.09
660.674	14.77
661.001	15.03
661.329	15.15
661.656	15.13
661.982	15.31
662.309	15.62
662.636	15.19
662.963	15.13
663.29	15.22
663.616	15.63
663.943	16.17
664.27	15.16
664.596	15.36
664.923	16.19
665.249	15.54
665.576	15.37
665.902	15.86
666.228	15.32
666.554	15.76
666.881	15.88
667.207	15.76
667.533	16.26
667.859	15.98
668.185	15.61
668.511	15.27
668.837	15.44
669.162	15.65
669.488	15.96
669.814	16.33
670.139	16.32
670.465	15.68
670.791	15.92
671.116	15.81
671.442	16.19
671.767	16.16
672.092	16.54
672.418	16.05
672.743	16.44
673.068	15.8
673.393	16.47
673.718	16.06
674.043	16.28
674.368	16.54
674.693	16.67
675.018	16.2
675.343	16.42
675.667	16.58
675.992	16.78
676.317	16.77
676.641	16.36
676.966	16.95
677.29	16.27
677.615	17.06
677.939	16.96
678.264	16.59
678.588	16.87
678.912	16.91
679.236	17.31
679.56	16.81
679.885	17.13
680.209	16.72
680.532	16.62
680.856	17.52
681.18	16.87
681.504	16.81
681.828	16.69
682.152	16.71
682.475	17.07
682.799	17.54
683.122	16.92
683.446	17.07
683.769	17.34
684.093	17.14
684.416	17
684.739	17.47
685.062	17.68
685.386	17.41
685.709	17.38
686.032	17.95
686.355	17.19
