Data from 0066_forehead_Reflection__1__149.txt Node

Date: Fri Dec 16 15:05:06 CST 2022
User: ToomeyLab
Spectrometer: FLMS14357
Trigger mode: 0
Integration Time (sec): 1.000000E-2
Scans to average: 100
Electric dark correction enabled: true
Nonlinearity correction enabled: false
Boxcar width: 0
XAxis mode: Wavelengths
Number of Pixels in Spectrum: 2048
>>>>>Begin Spectral Data<<<<<
189.047	135.9
189.435	135.9
189.823	135.9
190.211	61.98
190.599	3712.5
190.987	33.66
191.375	19.1
191.763	856.47
192.151	7.6
192.538	38.07
192.926	-39.92
193.314	70.78
193.702	144.2
194.089	17.08
194.477	16.42
194.864	82.07
195.252	-152.04
195.639	110.22
196.027	60.08
196.414	39
196.801	425.13
197.189	72.59
197.576	220.15
197.963	-243.28
198.351	38.95
198.738	54.88
199.125	106.07
199.512	28.61
199.899	26.94
200.286	33.24
200.673	68.99
201.06	64.06
201.447	105.85
201.833	49.73
202.22	47.08
202.607	21.77
202.994	37.07
203.38	-12.26
203.767	-9.1
204.154	-23.36
204.54	81.6
204.927	80.28
205.313	85.35
205.699	29.03
206.086	40.71
206.472	17.49
206.858	38.72
207.245	30.92
207.631	12.34
208.017	54.69
208.403	46.45
208.789	35.9
209.175	70.68
209.561	44.15
209.947	11.01
210.333	40.4
210.719	8.62
211.105	5.2
211.491	67.35
211.876	16.57
212.262	59.98
212.648	0.03
213.034	28.34
213.419	57.58
213.805	58.12
214.19	-8.23
214.576	12.65
214.961	9.83
215.346	27.33
215.732	19.42
216.117	56.05
216.502	43.37
216.888	-6.13
217.273	17.98
217.658	13.68
218.043	37.73
218.428	16.28
218.813	38.23
219.198	2.91
219.583	28.29
219.968	62
220.353	28.98
220.738	19.99
221.122	9.62
221.507	24.19
221.892	18.77
222.276	23.65
222.661	21.12
223.046	7.75
223.43	11.81
223.815	24.7
224.199	22.12
224.583	18.01
224.968	14.13
225.352	17.3
225.736	20.81
226.121	4.79
226.505	17.81
226.889	15.84
227.273	11.62
227.657	2.39
228.041	6.37
228.425	10.24
228.809	6.19
229.193	4.53
229.577	4.74
229.961	4.4
230.344	4.8
230.728	4.24
231.112	4.32
231.495	4.07
231.879	5.5
232.263	5.23
232.646	3.9
233.03	3.58
233.413	5.54
233.797	8.39
234.18	3.35
234.563	7.26
234.946	5.96
235.33	4.99
235.713	5.25
236.096	5.19
236.479	5.18
236.862	4.94
237.245	5.49
237.628	6
238.011	6.05
238.394	5.93
238.777	6.65
239.16	3.68
239.543	4.45
239.925	6.06
240.308	6.54
240.691	5.54
241.073	5.03
241.456	4.78
241.838	4.68
242.221	5.19
242.603	4.58
242.986	5.84
243.368	3.91
243.75	3.93
244.133	4.51
244.515	4
244.897	3.97
245.279	4.18
245.661	4.47
246.043	4.83
246.425	4.78
246.807	4.78
247.189	4.16
247.571	4.57
247.953	3.97
248.335	4.09
248.717	4.13
249.098	4.19
249.48	4.18
249.862	4.53
250.243	4.43
250.625	4.45
251.006	5.08
251.388	5.1
251.769	4.14
252.151	5.23
252.532	5.19
252.913	4.92
253.295	3.99
253.676	4.79
254.057	3.49
254.438	4.09
254.819	4.62
255.2	4.54
255.581	5.31
255.962	4.91
256.343	6.02
256.724	5.33
257.105	4.31
257.486	5.7
257.867	3.12
258.247	4.89
258.628	5.39
259.009	4.8
259.389	4.24
259.77	4.38
260.15	4.91
260.531	4.03
260.911	3.99
261.292	3.96
261.672	4.07
262.052	4
262.432	4.05
262.813	4.39
263.193	4.32
263.573	4.45
263.953	4.13
264.333	4.49
264.713	3.71
265.093	4.18
265.473	5.36
265.853	4.53
266.233	4.64
266.612	5.22
266.992	4.41
267.372	4.28
267.752	4.48
268.131	4.56
268.511	4.33
268.89	4.4
269.27	4.05
269.649	4.27
270.029	4.42
270.408	3.98
270.787	4.17
271.167	4.18
271.546	4.1
271.925	4.71
272.304	4.4
272.683	3.97
273.062	4.42
273.441	4.19
273.82	4.16
274.199	4.31
274.578	3.98
274.957	4.33
275.336	4.26
275.715	4.49
276.093	4.81
276.472	4.33
276.851	4.66
277.229	4.47
277.608	3.89
277.986	4
278.365	3.92
278.743	4.2
279.122	4.04
279.5	4.33
279.878	4.06
280.257	4.65
280.635	4.09
281.013	5.11
281.391	3.94
281.769	4.1
282.147	4.56
282.525	4.51
282.903	4.41
283.281	3.96
283.659	4.09
284.037	4.32
284.415	4.76
284.792	3.91
285.17	3.81
285.548	4.41
285.925	3.76
286.303	4.1
286.68	4.1
287.058	4.09
287.435	3.55
287.813	4.18
288.19	4.43
288.567	3.91
288.945	4.5
289.322	4.74
289.699	4.36
290.076	4.77
290.453	4.13
290.83	4.46
291.207	4.34
291.584	4.42
291.961	4.31
292.338	4.35
292.715	4.16
293.092	4.64
293.469	4.93
293.845	5.02
294.222	5.17
294.599	5.06
294.975	4.6
295.352	4.43
295.728	4.64
296.105	4.62
296.481	5.31
296.858	5.19
297.234	4.96
297.61	4.95
297.986	4.83
298.363	4.11
298.739	4.89
299.115	4.43
299.491	4.59
299.867	4.93
300.243	4.91
300.619	5.05
300.995	4.93
301.371	5.29
301.746	4.91
302.122	5.4
302.498	5.21
302.874	5.08
303.249	5.34
303.625	5.2
304	4.56
304.376	5.16
304.751	5.31
305.127	5.16
305.502	5.26
305.878	5.33
306.253	5.38
306.628	5.73
307.003	5.6
307.378	5.66
307.754	6.15
308.129	5.51
308.504	5.27
308.879	5.91
309.254	5.91
309.629	5.67
310.003	6.27
310.378	6.2
310.753	5.7
311.128	5.32
311.502	5.44
311.877	5.94
312.252	5.55
312.626	5.46
313.001	5.82
313.375	5.74
313.75	5.92
314.124	6.47
314.498	5.77
314.873	6.01
315.247	6.34
315.621	6.41
315.995	6.31
316.369	6.5
316.743	6.38
317.117	6.88
317.491	6.47
317.865	6.06
318.239	6.97
318.613	6.48
318.987	6.79
319.361	6.66
319.734	6.73
320.108	6.77
320.482	6.76
320.855	6.83
321.229	7.31
321.602	7.2
321.976	7.2
322.349	6.36
322.723	6.15
323.096	6.51
323.469	7.31
323.843	7.22
324.216	6.93
324.589	7.55
324.962	7.15
325.335	7.06
325.708	7.18
326.081	7.53
326.454	7.41
326.827	7.32
327.2	7.67
327.573	7.56
327.945	7.49
328.318	7.34
328.691	7.46
329.063	7.39
329.436	7.2
329.809	7.57
330.181	7.65
330.553	8.06
330.926	7.68
331.298	8
331.671	7.84
332.043	7.47
332.415	7.89
332.787	8.03
333.159	7.88
333.532	8.28
333.904	8.2
334.276	8.04
334.648	8.04
335.02	8.17
335.391	8.47
335.763	7.93
336.135	8.34
336.507	8.29
336.879	8.39
337.25	8.69
337.622	8.19
337.993	8.32
338.365	8.8
338.736	8.4
339.108	8.3
339.479	8.21
339.851	8.65
340.222	8.44
340.593	8.26
340.964	8.95
341.336	8.2
341.707	8.83
342.078	8.62
342.449	9.04
342.82	8.86
343.191	8.62
343.562	8.58
343.933	8.76
344.303	8.76
344.674	8.73
345.045	9.24
345.416	9.12
345.786	8.89
346.157	9.08
346.527	8.77
346.898	9.31
347.268	9.04
347.639	9.38
348.009	9.68
348.38	9.45
348.75	9.16
349.12	9.26
349.49	9.52
349.861	10.23
350.231	9.74
350.601	9.52
350.971	9.9
351.341	9.68
351.711	9.77
352.081	9.61
352.45	9.99
352.82	10.42
353.19	9.93
353.56	10.09
353.929	10
354.299	10.18
354.669	10.27
355.038	10.08
355.408	10.73
355.777	10.22
356.147	10.58
356.516	10.66
356.885	10.59
357.254	10.25
357.624	10.66
357.993	10.39
358.362	10.73
358.731	10.51
359.1	10.62
359.469	10.91
359.838	10.63
360.207	10.78
360.576	10.88
360.945	10.7
361.314	11.14
361.682	10.95
362.051	11.01
362.42	11.32
362.788	11.07
363.157	10.91
363.525	10.94
363.894	11.13
364.262	11.08
364.631	11.95
364.999	11.37
365.367	11.84
365.735	11.35
366.104	11.57
366.472	11.64
366.84	11.73
367.208	11.11
367.576	11.56
367.944	11.8
368.312	11.61
368.68	12.07
369.048	12.27
369.416	11.67
369.783	12.04
370.151	12.14
370.519	12.21
370.886	12.4
371.254	12.55
371.621	12.44
371.989	12.28
372.356	12.42
372.724	12.46
373.091	12.34
373.458	12.62
373.826	12.26
374.193	12.94
374.56	12.63
374.927	12.74
375.294	12.67
375.661	13.1
376.028	12.91
376.395	12.68
376.762	12.95
377.129	13.2
377.496	13.19
377.863	13.18
378.229	13.11
378.596	13.1
378.963	13.06
379.329	13.19
379.696	13.28
380.062	13.96
380.429	13.42
380.795	13.55
381.161	13.64
381.528	13.4
381.894	13.73
382.26	13.82
382.626	13.92
382.993	13.62
383.359	14.05
383.725	14.12
384.091	13.96
384.457	13.93
384.823	14.05
385.188	14.3
385.554	14
385.92	14.16
386.286	14.46
386.651	14.02
387.017	14.45
387.383	14.47
387.748	14.37
388.114	14.8
388.479	14.59
388.845	14.75
389.21	14.81
389.575	15.05
389.94	14.61
390.306	14.92
390.671	15.14
391.036	15.04
391.401	15.51
391.766	14.95
392.131	15.18
392.496	14.99
392.861	14.95
393.226	15.29
393.591	15.23
393.956	15.42
394.32	15.34
394.685	15.7
395.05	15.31
395.414	15.47
395.779	15.79
396.143	15.46
396.508	15.8
396.872	15.83
397.236	15.82
397.601	16.27
397.965	15.96
398.329	16.19
398.694	15.93
399.058	16.1
399.422	16.34
399.786	16.24
400.15	16.28
400.514	16.43
400.878	16.55
401.242	16.67
401.605	16.58
401.969	16.73
402.333	16.67
402.697	16.79
403.06	16.87
403.424	16.84
403.787	17.02
404.151	16.68
404.514	17.08
404.878	16.87
405.241	17
405.604	17.18
405.968	17.13
406.331	17.19
406.694	17.11
407.057	17.38
407.42	17.23
407.783	17.25
408.146	17.22
408.509	17.67
408.872	17.27
409.235	17.81
409.598	17.89
409.961	17.77
410.323	17.88
410.686	17.9
411.049	17.78
411.411	17.83
411.774	17.94
412.136	17.9
412.499	18.03
412.861	17.95
413.223	18.28
413.586	18.17
413.948	18.61
414.31	18.46
414.672	18.32
415.035	18.65
415.397	18.82
415.759	18.54
416.121	18.75
416.483	18.74
416.845	18.76
417.206	18.9
417.568	19.03
417.93	18.76
418.292	18.94
418.653	18.96
419.015	18.99
419.377	19.05
419.738	18.87
420.1	18.87
420.461	18.85
420.822	18.98
421.184	18.98
421.545	18.98
421.906	18.98
422.267	18.97
422.629	19.02
422.99	19.05
423.351	19.12
423.712	19.27
424.073	19.43
424.434	19.3
424.795	19.38
425.155	19.57
425.516	19.5
425.877	19.51
426.238	19.53
426.598	19.73
426.959	19.82
427.32	19.91
427.68	20.07
428.041	20.18
428.401	20.34
428.761	20.29
429.122	20.34
429.482	20.43
429.842	20.65
430.202	20.62
430.563	20.68
430.923	20.73
431.283	20.9
431.643	20.98
432.003	20.89
432.363	21.07
432.722	20.88
433.082	21.19
433.442	21.17
433.802	21.2
434.161	21.32
434.521	21.2
434.881	21.3
435.24	21.27
435.6	21.46
435.959	21.36
436.319	21.55
436.678	21.69
437.037	21.68
437.396	21.97
437.756	21.88
438.115	21.87
438.474	21.85
438.833	21.98
439.192	22.17
439.551	22.18
439.91	22.09
440.269	22.12
440.628	22.13
440.987	22.06
441.345	22.14
441.704	22.17
442.063	22.24
442.421	22.31
442.78	22.3
443.138	22.31
443.497	22.38
443.855	22.73
444.214	22.83
444.572	22.88
444.93	22.9
445.288	22.99
445.647	23.05
446.005	22.9
446.363	23.1
446.721	22.75
447.079	22.92
447.437	22.88
447.795	22.79
448.153	22.87
448.51	23
448.868	23
449.226	23.27
449.584	23.43
449.941	23.41
450.299	23.55
450.656	23.79
451.014	23.86
451.371	23.99
451.729	23.91
452.086	23.83
452.443	24.13
452.801	24.39
453.158	24.34
453.515	24.23
453.872	24.41
454.229	24.33
454.586	24.41
454.943	24.41
455.3	24.54
455.657	24.81
456.014	24.78
456.371	24.94
456.727	24.92
457.084	25.04
457.441	25.06
457.797	25.2
458.154	25.35
458.51	25.06
458.867	25.11
459.223	25.36
459.58	25.25
459.936	25.28
460.292	25.24
460.648	25.09
461.005	25.03
461.361	24.78
461.717	24.99
462.073	25.27
462.429	25.46
462.785	25.65
463.141	25.74
463.496	25.87
463.852	26.21
464.208	26.17
464.564	26.01
464.919	26.09
465.275	26.44
465.631	26.37
465.986	26.38
466.342	26.48
466.697	26.48
467.052	26.46
467.408	26.68
467.763	26.66
468.118	26.76
468.473	26.82
468.829	26.79
469.184	27.02
469.539	26.95
469.894	26.93
470.249	27.23
470.603	27.27
470.958	27.27
471.313	27.28
471.668	27.36
472.023	27.43
472.377	27.52
472.732	27.46
473.086	27.41
473.441	27.74
473.795	27.74
474.15	27.92
474.504	27.85
474.859	27.83
475.213	28.06
475.567	27.97
475.921	28.26
476.275	28.19
476.63	28.29
476.984	28.41
477.338	28.48
477.692	28.47
478.045	28.4
478.399	28.24
478.753	28.31
479.107	28.37
479.461	28.34
479.814	28.42
480.168	28.57
480.521	28.59
480.875	28.79
481.228	28.84
481.582	28.82
481.935	28.89
482.289	28.78
482.642	28.81
482.995	28.83
483.348	28.58
483.701	28.68
484.055	28.64
484.408	28.21
484.761	28.01
485.114	28
485.466	28
485.819	28.05
486.172	28.13
486.525	28.21
486.878	28.49
487.23	28.63
487.583	28.85
487.936	28.81
488.288	28.87
488.641	28.7
488.993	28.58
489.345	28.71
489.698	28.8
490.05	28.92
490.402	29.19
490.754	29.31
491.107	29.59
491.459	29.8
491.811	29.99
492.163	29.96
492.515	29.74
492.866	29.43
493.218	29.38
493.57	29.51
493.922	29.78
494.274	29.99
494.625	30.08
494.977	30.54
495.328	30.81
495.68	31.22
496.031	31.22
496.383	31.21
496.734	31.28
497.086	31.14
497.437	31.36
497.788	31.18
498.139	31.33
498.49	31.04
498.842	31.18
499.193	31.39
499.544	31.43
499.894	31.46
500.245	31.78
500.596	31.69
500.947	31.93
501.298	31.84
501.648	31.93
501.999	32.28
502.35	32.37
502.7	32.32
503.051	32.56
503.401	32.5
503.752	32.55
504.102	32.65
504.452	32.65
504.803	32.41
505.153	32.81
505.503	32.67
505.853	32.62
506.203	32.75
506.553	32.87
506.903	32.96
507.253	33.12
507.603	33.11
507.953	33.17
508.303	33.15
508.652	33.29
509.002	33.19
509.352	33.28
509.701	33.13
510.051	33.24
510.4	33.16
510.75	33.18
511.099	33.25
511.449	33.22
511.798	33.57
512.147	33.53
512.496	33.74
512.846	33.46
513.195	33.66
513.544	33.53
513.893	33.61
514.242	33.73
514.591	33.76
514.939	34.06
515.288	33.98
515.637	34.21
515.986	34.26
516.334	34.39
516.683	34.61
517.032	34.56
517.38	34.39
517.729	34.59
518.077	34.55
518.426	34.64
518.774	34.59
519.122	34.38
519.47	34.28
519.819	34.22
520.167	34.09
520.515	34.13
520.863	34.25
521.211	34.49
521.559	34.52
521.907	34.84
522.255	35
522.602	35.04
522.95	35.3
523.298	35.27
523.645	35.33
523.993	35.57
524.341	35.55
524.688	35.63
525.036	35.32
525.383	35.87
525.73	35.66
526.078	35.68
526.425	35.53
526.772	35.36
527.119	35.15
527.466	35.13
527.814	35.21
528.161	35.41
528.508	35.35
528.854	35.38
529.201	35.21
529.548	34.99
529.895	34.95
530.242	35.03
530.588	35.14
530.935	35.02
531.282	35.01
531.628	35.26
531.975	35.62
532.321	35.9
532.667	36.01
533.014	36.16
533.36	36.2
533.706	36.08
534.052	36.07
534.399	35.87
534.745	35.81
535.091	35.97
535.437	36.17
535.783	36.11
536.129	36.48
536.474	36.49
536.82	36.94
537.166	36.94
537.512	36.92
537.857	36.84
538.203	36.76
538.549	36.86
538.894	36.91
539.239	37.21
539.585	37.32
539.93	37.61
540.276	37.61
540.621	37.76
540.966	37.89
541.311	37.82
541.656	37.65
542.001	37.51
542.346	37.17
542.691	36.97
543.036	36.87
543.381	36.97
543.726	37.12
544.071	37.24
544.415	37.39
544.76	37.53
545.105	37.83
545.449	38.02
545.794	38.03
546.138	38.04
546.483	38.43
546.827	38.45
547.171	38.31
547.516	38.7
547.86	38.68
548.204	38.48
548.548	38.53
548.892	38.71
549.236	38.89
549.58	38.85
549.924	39.41
550.268	39.28
550.612	39.57
550.956	39.72
551.3	39.85
551.643	39.74
551.987	40.03
552.33	40.02
552.674	40.05
553.017	40.28
553.361	40.03
553.704	40.02
554.048	40.13
554.391	40.04
554.734	39.89
555.077	40.18
555.42	40.29
555.764	40.5
556.107	40.5
556.45	40.57
556.793	40.66
557.135	40.81
557.478	40.92
557.821	40.7
558.164	41.17
558.507	40.96
558.849	40.85
559.192	41.11
559.534	41.2
559.877	41.13
560.219	41.24
560.562	41.33
560.904	41.23
561.246	41.54
561.589	41.59
561.931	41.29
562.273	41.8
562.615	41.59
562.957	41.57
563.299	41.67
563.641	41.54
563.983	41.83
564.325	41.8
564.667	41.69
565.008	41.8
565.35	42
565.692	41.99
566.033	42.2
566.375	41.8
566.716	41.74
567.058	42.01
567.399	42.05
567.741	41.85
568.082	41.81
568.423	41.8
568.764	42.12
569.105	42.42
569.447	42.36
569.788	42.35
570.129	42.24
570.47	42.51
570.811	42.46
571.151	42.72
571.492	42.44
571.833	42.64
572.174	42.49
572.514	42.7
572.855	42.8
573.195	42.58
573.536	42.59
573.876	42.61
574.217	42.49
574.557	42.59
574.898	42.9
575.238	42.99
575.578	43.18
575.918	42.97
576.258	43.18
576.598	43.27
576.938	43.26
577.278	43.31
577.618	43.47
577.958	43.43
578.298	43.6
578.638	43.34
578.977	43.7
579.317	43.67
579.657	43.94
579.996	44.16
580.336	43.67
580.675	43.74
581.014	44.08
581.354	44.5
581.693	44.31
582.032	44.23
582.372	44.36
582.711	44.6
583.05	44.58
583.389	44.43
583.728	44.48
584.067	44.33
584.406	44.71
584.745	45.09
585.083	45.1
585.422	45.26
585.761	44.81
586.1	45.21
586.438	44.99
586.777	45.21
587.115	45.3
587.454	45.16
587.792	45.31
588.13	45.51
588.469	45.4
588.807	45.32
589.145	45.55
589.483	45.28
589.821	45.45
590.159	45.5
590.497	45.33
590.835	45.26
591.173	45.63
591.511	45.33
591.849	45.49
592.187	45.47
592.524	45.69
592.862	45.85
593.2	45.75
593.537	45.65
593.875	46.06
594.212	46.24
594.55	45.94
594.887	46.16
595.224	45.75
595.561	46.2
595.899	45.89
596.236	46.06
596.573	46.26
596.91	46.02
597.247	45.98
597.584	46.12
597.921	46.09
598.258	46.25
598.594	45.97
598.931	46.12
599.268	46.03
599.604	46.14
599.941	46.2
600.277	46.44
600.614	46.8
600.95	46.85
601.287	46.6
601.623	46.85
601.959	47.1
602.296	46.99
602.632	47.04
602.968	47.08
603.304	47.23
603.64	47.11
603.976	46.99
604.312	47.4
604.648	47.03
604.984	46.87
605.319	47
605.655	47.12
605.991	46.82
606.326	46.84
606.662	46.85
606.998	47.11
607.333	46.8
607.668	47.17
608.004	47.27
608.339	47.41
608.674	47.53
609.01	47.72
609.345	47.53
609.68	47.89
610.015	47.63
610.35	47.6
610.685	47.52
611.02	47.45
611.355	47.89
611.689	47.48
612.024	48.05
612.359	47.81
612.694	47.78
613.028	48.34
613.363	48.16
613.697	48.08
614.032	48.63
614.366	48.11
614.7	48.84
615.035	48.81
615.369	48.48
615.703	48.64
616.037	48.4
616.371	48.57
616.705	48.84
617.039	48.85
617.373	48.83
617.707	49.41
618.041	48.91
618.375	48.91
618.709	48.55
619.042	49.28
619.376	49.08
619.71	49.15
620.043	48.94
620.377	48.99
620.71	49.53
621.043	49.23
621.377	49.27
621.71	49.65
622.043	49.66
622.376	49.66
622.709	49.26
623.043	49.49
623.376	49.52
623.709	49.53
624.041	49.67
624.374	49.6
624.707	50.03
625.04	49.94
625.373	49.94
625.705	50.31
626.038	49.87
626.37	50.15
626.703	49.94
627.035	50.3
627.368	49.99
627.7	50.13
628.032	49.73
628.365	49.96
628.697	49.92
629.029	49.68
629.361	50.41
629.693	50.06
630.025	50.3
630.357	50.12
630.689	50.81
631.021	50.57
631.353	50.29
631.684	50.47
632.016	50.58
632.348	50.95
632.679	50.74
633.011	50.91
633.342	50.32
633.674	51.07
634.005	51.48
634.336	50.65
634.668	51.01
634.999	50.53
635.33	50.93
635.661	51.21
635.992	50.76
636.323	50.98
636.654	51.21
636.985	50.95
637.316	51.49
637.647	51.71
637.977	51.09
638.308	51.41
638.639	51.34
638.969	51.09
639.3	51.27
639.63	51.55
639.961	51.65
640.291	51.83
640.622	51.68
640.952	51.84
641.282	51.38
641.612	51.6
641.943	51.77
642.273	51.79
642.603	52.13
642.933	52.24
643.263	52.17
643.592	51.85
643.922	52.04
644.252	52.33
644.582	51.47
644.911	51.94
645.241	52.14
645.571	52.25
645.9	52.65
646.23	52.02
646.559	51.99
646.888	52.48
647.218	52.73
647.547	52.76
647.876	52.53
648.205	52.63
648.534	52.64
648.863	52.69
649.192	52.69
649.521	53
649.85	52.59
650.179	52.35
650.508	53.19
650.837	52.85
651.165	52.57
651.494	52.55
651.822	53.38
652.151	53.17
652.479	53.33
652.808	52.74
653.136	53.18
653.465	53.35
653.793	53.21
654.121	53.17
654.449	53.22
654.777	52.8
655.105	53.25
655.433	53.53
655.761	53.02
656.089	53.23
656.417	53.24
656.745	53.72
657.073	53.56
657.4	53.76
657.728	53.26
658.056	53.69
658.383	53.8
658.711	53.27
659.038	53.77
659.365	53.7
659.693	53.94
660.02	53.76
660.347	53.94
660.674	53.47
661.001	53.31
661.329	53.5
661.656	53.43
661.982	54.02
662.309	53.99
662.636	53.42
662.963	54.09
663.29	54.53
663.616	54.46
663.943	54.62
664.27	54.5
664.596	53.73
664.923	54.5
665.249	54.55
665.576	54.28
665.902	54.67
666.228	54.26
666.554	54.6
666.881	54.6
667.207	54.24
667.533	54.68
667.859	54.51
668.185	54.67
668.511	54.17
668.837	54.77
669.162	54.83
669.488	54.82
669.814	54.5
670.139	55.03
670.465	54.81
670.791	54.41
671.116	54.19
671.442	54.93
671.767	54.97
