Data from 0066_crown_Reflection__2__145.txt Node

Date: Fri Dec 16 15:04:03 CST 2022
User: ToomeyLab
Spectrometer: FLMS14357
Trigger mode: 0
Integration Time (sec): 1.000000E-2
Scans to average: 100
Electric dark correction enabled: true
Nonlinearity correction enabled: false
Boxcar width: 0
XAxis mode: Wavelengths
Number of Pixels in Spectrum: 2048
>>>>>Begin Spectral Data<<<<<
189.047	50.67
189.435	50.67
189.823	50.67
190.211	12.96
190.599	588.64
190.987	216.16
191.375	-21.6
191.763	3340.52
192.151	42.85
192.538	89.87
192.926	-1886.29
193.314	60.01
193.702	-13.04
194.089	110.8
194.477	-184.46
194.864	-352.39
195.252	-117.95
195.639	23.2
196.027	106.64
196.414	-6.8
196.801	209.02
197.189	112.09
197.576	-42.99
197.963	13.82
198.351	18.37
198.738	22.6
199.125	61.97
199.512	0.17
199.899	35.8
200.286	-21.4
200.673	20.52
201.06	11.76
201.447	70.2
201.833	15.95
202.22	23.25
202.607	-38.17
202.994	-10.55
203.38	-42.03
203.767	-2.26
204.154	-23.89
204.54	32.31
204.927	-19.06
205.313	1.49
205.699	-2.11
206.086	21.96
206.472	14.56
206.858	26.27
207.245	1.83
207.631	14.77
208.017	26.93
208.403	8.62
208.789	27.69
209.175	67.45
209.561	9.82
209.947	13.39
210.333	16.32
210.719	49.34
211.105	-41.22
211.491	-29.71
211.876	5.04
212.262	-23.24
212.648	-6.76
213.034	3.48
213.419	18.87
213.805	17.44
214.19	-17.04
214.576	-42.56
214.961	-7.65
215.346	4.58
215.732	-16.39
216.117	12.43
216.502	-16.81
216.888	3.95
217.273	22.75
217.658	-11.36
218.043	17.57
218.428	2.03
218.813	2.27
219.198	-9.18
219.583	-1.72
219.968	-21.81
220.353	12.46
220.738	18.52
221.122	-7.12
221.507	10.9
221.892	3.7
222.276	16.35
222.661	-1.68
223.046	1.48
223.43	-11.11
223.815	4.25
224.199	15.16
224.583	-3.02
224.968	8.08
225.352	2.22
225.736	4.54
226.121	-5.41
226.505	7.93
226.889	6.61
227.273	8.09
227.657	4.44
228.041	8.13
228.425	9.02
228.809	7.94
229.193	4.26
229.577	6.21
229.961	6.14
230.344	6.38
230.728	6.33
231.112	5.75
231.495	6.26
231.879	6.54
232.263	5.75
232.646	5.54
233.03	3.87
233.413	6.4
233.797	6.76
234.18	4.37
234.563	6.58
234.946	5.78
235.33	6.4
235.713	6.31
236.096	5.47
236.479	6.96
236.862	7.37
237.245	8.1
237.628	6.69
238.011	6.62
238.394	7.08
238.777	7.95
239.16	3.83
239.543	4.51
239.925	6.45
240.308	7.88
240.691	4.66
241.073	6.41
241.456	5.44
241.838	5.87
242.221	6.01
242.603	6.74
242.986	7.37
243.368	5.95
243.75	5.53
244.133	6.14
244.515	5.78
244.897	6.07
245.279	6.37
245.661	6.01
246.043	6.04
246.425	6.19
246.807	5.52
247.189	5.13
247.571	5.87
247.953	5.69
248.335	5.9
248.717	5.6
249.098	5.64
249.48	5.51
249.862	5.89
250.243	5.19
250.625	5.73
251.006	5.33
251.388	6.2
251.769	5.81
252.151	5.12
252.532	5.7
252.913	5.47
253.295	5.69
253.676	5.48
254.057	5.34
254.438	5.17
254.819	6.29
255.2	5.78
255.581	5.78
255.962	6.07
256.343	6.18
256.724	5.64
257.105	5.98
257.486	5.45
257.867	4.14
258.247	4.93
258.628	5.74
259.009	5.06
259.389	5.1
259.77	5.18
260.15	6.17
260.531	5.34
260.911	5.34
261.292	5.25
261.672	5
262.052	4.99
262.432	5.5
262.813	5.52
263.193	4.59
263.573	4.84
263.953	5.36
264.333	4.99
264.713	5.33
265.093	4.81
265.473	6.79
265.853	5.29
266.233	5.41
266.612	5.57
266.992	4.79
267.372	5.65
267.752	4.56
268.131	4.88
268.511	5.53
268.89	5.46
269.27	5.51
269.649	5.24
270.029	5.09
270.408	4.98
270.787	4.99
271.167	4.57
271.546	3.96
271.925	4.66
272.304	4.75
272.683	4.7
273.062	4.92
273.441	4.79
273.82	5.36
274.199	5.18
274.578	4.66
274.957	4.89
275.336	4.44
275.715	4.61
276.093	5.78
276.472	4.82
276.851	5.1
277.229	4.86
277.608	4.27
277.986	4.81
278.365	4.46
278.743	5.02
279.122	4.53
279.5	4.51
279.878	3.74
280.257	4.51
280.635	4.62
281.013	5.15
281.391	4.51
281.769	4.67
282.147	4.86
282.525	4.49
282.903	4.55
283.281	4.71
283.659	4.76
284.037	4.72
284.415	5.05
284.792	4.66
285.17	3.92
285.548	4.49
285.925	4.64
286.303	4.61
286.68	4.83
287.058	4.66
287.435	4.62
287.813	4.66
288.19	4.8
288.567	4.38
288.945	4.68
289.322	4.58
289.699	4.85
290.076	4.82
290.453	4.74
290.83	4.61
291.207	4.1
291.584	4.45
291.961	4.49
292.338	4.82
292.715	4.83
293.092	4.87
293.469	4.61
293.845	4.37
294.222	4.26
294.599	4.52
294.975	4.92
295.352	4.33
295.728	4.49
296.105	4.42
296.481	4.71
296.858	4.43
297.234	4.46
297.61	4.8
297.986	4.57
298.363	4.1
298.739	4.61
299.115	3.93
299.491	4.15
299.867	4.5
300.243	4.01
300.619	4.42
300.995	4.85
301.371	4.23
301.746	4.67
302.122	4.74
302.498	4.49
302.874	4.32
303.249	4.42
303.625	4.79
304	4.05
304.376	4.31
304.751	4.58
305.127	4.26
305.502	4.56
305.878	4.43
306.253	3.91
306.628	4.37
307.003	4.62
307.378	4.28
307.754	4.78
308.129	3.98
308.504	4.47
308.879	4.36
309.254	4.67
309.629	4.62
310.003	4.52
310.378	4.45
310.753	4.42
311.128	4.01
311.502	4.06
311.877	4.34
312.252	4.36
312.626	4.27
313.001	4.33
313.375	4.22
313.75	4.08
314.124	4.52
314.498	4.05
314.873	4.45
315.247	3.86
315.621	4.46
315.995	3.94
316.369	4.53
316.743	4.17
317.117	4.25
317.491	4.82
317.865	3.68
318.239	4.44
318.613	4.17
318.987	4.37
319.361	4.24
319.734	4.66
320.108	4.49
320.482	4.22
320.855	4.51
321.229	4.53
321.602	4.88
321.976	4.4
322.349	3.83
322.723	3.38
323.096	4.23
323.469	3.88
323.843	4.42
324.216	3.42
324.589	4.1
324.962	4.15
325.335	4.64
325.708	4.44
326.081	4.92
326.454	4.19
326.827	4.82
327.2	4.62
327.573	4.67
327.945	4.56
328.318	4.54
328.691	4.46
329.063	4.2
329.436	4.08
329.809	3.81
330.181	4.61
330.553	4.45
330.926	4.35
331.298	4.1
331.671	4.15
332.043	4.45
332.415	4.49
332.787	4.39
333.159	4.44
333.532	4.3
333.904	4.58
334.276	4.31
334.648	4.29
335.02	4.06
335.391	4.5
335.763	3.96
336.135	4.41
336.507	4.51
336.879	4.66
337.25	4.57
337.622	4.36
337.993	4.68
338.365	4.24
338.736	4.32
339.108	4.13
339.479	4.66
339.851	4.9
340.222	4.26
340.593	4.5
340.964	4.77
341.336	4.4
341.707	4.36
342.078	3.95
342.449	4.72
342.82	4.41
343.191	4.23
343.562	4.18
343.933	4.43
344.303	4.64
344.674	4.41
345.045	4.44
345.416	4.23
345.786	4.16
346.157	4.17
346.527	4.38
346.898	4.32
347.268	3.99
347.639	4.46
348.009	4.42
348.38	4.1
348.75	4.4
349.12	4.32
349.49	4.14
349.861	4.87
350.231	4.68
350.601	4.37
350.971	4.58
351.341	4.48
351.711	4.23
352.081	4.57
352.45	4.26
352.82	4.6
353.19	4.26
353.56	4.3
353.929	4.64
354.299	4.55
354.669	4.47
355.038	4.47
355.408	4.64
355.777	4.23
356.147	5.04
356.516	4.85
356.885	4.65
357.254	4.66
357.624	4.55
357.993	4.36
358.362	4.61
358.731	4.77
359.1	4.6
359.469	4.58
359.838	4.38
360.207	4.3
360.576	4.44
360.945	4.24
361.314	4.72
361.682	4.07
362.051	4.62
362.42	4.6
362.788	4.61
363.157	4.41
363.525	4.38
363.894	4.31
364.262	4.43
364.631	5.05
364.999	4.05
365.367	4.63
365.735	4.22
366.104	4.24
366.472	4.57
366.84	4.46
367.208	4.21
367.576	4.7
367.944	5
368.312	4.25
368.68	4.52
369.048	4.8
369.416	4.42
369.783	4.44
370.151	4.62
370.519	4.48
370.886	4.54
371.254	4.9
371.621	4.55
371.989	4.4
372.356	4.77
372.724	4.56
373.091	4.33
373.458	4.51
373.826	4.5
374.193	4.94
374.56	4.59
374.927	4.45
375.294	4.98
375.661	4.71
376.028	4.83
376.395	4.41
376.762	4.88
377.129	4.66
377.496	4.76
377.863	4.61
378.229	4.69
378.596	4.51
378.963	4.64
379.329	4.75
379.696	4.63
380.062	4.78
380.429	4.78
380.795	4.57
381.161	4.46
381.528	4.26
381.894	4.81
382.26	4.5
382.626	4.7
382.993	4.46
383.359	4.63
383.725	5.16
384.091	4.79
384.457	4.98
384.823	4.59
385.188	4.97
385.554	4.8
385.92	4.84
386.286	4.82
386.651	4.63
387.017	4.85
387.383	4.71
387.748	4.73
388.114	4.91
388.479	4.88
388.845	4.86
389.21	5.06
389.575	4.85
389.94	4.85
390.306	4.76
390.671	4.81
391.036	5
391.401	4.97
391.766	4.81
392.131	4.82
392.496	4.76
392.861	4.51
393.226	4.89
393.591	4.78
393.956	4.72
394.32	4.84
394.685	5.06
395.05	4.62
395.414	4.84
395.779	4.76
396.143	4.98
396.508	5.05
396.872	4.93
397.236	4.65
397.601	5.03
397.965	4.71
398.329	4.91
398.694	4.73
399.058	4.86
399.422	5.02
399.786	4.75
400.15	5.03
400.514	4.97
400.878	4.95
401.242	5.06
401.605	4.71
401.969	5.02
402.333	4.86
402.697	5.05
403.06	5.08
403.424	5.05
403.787	5.08
404.151	4.84
404.514	4.98
404.878	4.87
405.241	5.08
405.604	4.87
405.968	4.87
406.331	5.09
406.694	4.95
407.057	5.03
407.42	4.8
407.783	4.9
408.146	4.96
408.509	4.81
408.872	4.95
409.235	4.97
409.598	5.42
409.961	5.37
410.323	4.99
410.686	4.85
411.049	4.98
411.411	5.01
411.774	4.94
412.136	4.94
412.499	4.58
412.861	4.9
413.223	5.03
413.586	4.99
413.948	5.11
414.31	5.14
414.672	5.06
415.035	4.94
415.397	5.29
415.759	5.06
416.121	5.14
416.483	5.25
416.845	4.97
417.206	5.24
417.568	5.09
417.93	4.88
418.292	5.08
418.653	4.96
419.015	5.08
419.377	5.1
419.738	4.88
420.1	4.95
420.461	4.91
420.822	5.05
421.184	4.9
421.545	4.89
421.906	4.87
422.267	4.85
422.629	4.94
422.99	4.96
423.351	4.99
423.712	4.91
424.073	5
424.434	4.9
424.795	4.91
425.155	4.91
425.516	4.93
425.877	5.01
426.238	4.87
426.598	4.84
426.959	4.84
427.32	5.03
427.68	5.03
428.041	5.15
428.401	4.93
428.761	4.98
429.122	5.19
429.482	4.96
429.842	5.15
430.202	5.08
430.563	5.14
430.923	4.99
431.283	5.08
431.643	5.16
432.003	5.16
432.363	5.18
432.722	5.03
433.082	5.06
433.442	5.03
433.802	5.23
434.161	5.26
434.521	5.08
434.881	5.15
435.24	5.07
435.6	4.98
435.959	5.18
436.319	5.07
436.678	5.08
437.037	5.19
437.396	5.19
437.756	5.02
438.115	5.18
438.474	5.14
438.833	5.14
439.192	5.23
439.551	5.12
439.91	5.18
440.269	5.25
440.628	5.08
440.987	5.06
441.345	5.06
441.704	5.13
442.063	5.11
442.421	5.06
442.78	5.01
443.138	5.04
443.497	5.02
443.855	5.15
444.214	5.24
444.572	5.09
444.93	5.29
445.288	5.18
445.647	5.33
446.005	5.07
446.363	5.13
446.721	5.12
447.079	5.04
447.437	5.11
447.795	5.04
448.153	5
448.51	5
448.868	5.12
449.226	5.08
449.584	5.1
449.941	5.14
450.299	5.06
450.656	5.16
451.014	5.12
451.371	5.19
451.729	5.16
452.086	5.12
452.443	5.19
452.801	5.17
453.158	5.18
453.515	5.3
453.872	5.31
454.229	5.16
454.586	5.16
454.943	5.21
455.3	5.36
455.657	5.16
456.014	5.3
456.371	5.28
456.727	5.19
457.084	5.14
457.441	5.17
457.797	5.16
458.154	5.37
458.51	5.16
458.867	5.03
459.223	5.23
459.58	5.25
459.936	5.17
460.292	5.22
460.648	5.07
461.005	5.26
461.361	5.1
461.717	5.07
462.073	5.12
462.429	5.12
462.785	5.21
463.141	5.23
463.496	5.2
463.852	5.41
464.208	5.34
464.564	5.29
464.919	5.32
465.275	5.23
465.631	5.39
465.986	5.39
466.342	5.33
466.697	5.24
467.052	5.38
467.408	5.35
467.763	5.3
468.118	5.32
468.473	5.42
468.829	5.27
469.184	5.25
469.539	5.12
469.894	5.4
470.249	5.32
470.603	5.39
470.958	5.32
471.313	5.46
471.668	5.34
472.023	5.4
472.377	5.34
472.732	5.31
473.086	5.06
473.441	5.56
473.795	5.41
474.15	5.44
474.504	5.35
474.859	5.29
475.213	5.2
475.567	5.22
475.921	5.47
476.275	5.39
476.63	5.24
476.984	5.16
477.338	5.54
477.692	5.41
478.045	5.37
478.399	5.44
478.753	5.3
479.107	5.29
479.461	5.34
479.814	5.3
480.168	5.4
480.521	5.22
480.875	5.46
481.228	5.44
481.582	5.27
481.935	5.23
482.289	5.3
482.642	5.32
482.995	5.34
483.348	5.27
483.701	5.31
484.055	5.3
484.408	5.26
484.761	5.11
485.114	5.07
485.466	5.04
485.819	4.99
486.172	5
486.525	5.01
486.878	5.06
487.23	5.11
487.583	5.19
487.936	5.21
488.288	5.18
488.641	5.15
488.993	5.05
489.345	5.05
489.698	5.12
490.05	5.05
490.402	5.16
490.754	5.17
491.107	5.15
491.459	5.23
491.811	5.33
492.163	5.39
492.515	5.31
492.866	5.11
493.218	5.15
493.57	5.14
493.922	5.15
494.274	5.23
494.625	5.2
494.977	5.27
495.328	5.35
495.68	5.54
496.031	5.44
496.383	5.4
496.734	5.36
497.086	5.36
497.437	5.41
497.788	5.39
498.139	5.38
498.49	5.39
498.842	5.26
499.193	5.35
499.544	5.43
499.894	5.38
500.245	5.47
500.596	5.4
500.947	5.42
501.298	5.39
501.648	5.33
501.999	5.52
502.35	5.4
502.7	5.44
503.051	5.57
503.401	5.44
503.752	5.51
504.102	5.45
504.452	5.43
504.803	5.34
505.153	5.48
505.503	5.34
505.853	5.34
506.203	5.48
506.553	5.49
506.903	5.49
507.253	5.52
507.603	5.4
507.953	5.54
508.303	5.54
508.652	5.53
509.002	5.56
509.352	5.42
509.701	5.44
510.051	5.49
510.4	5.54
510.75	5.5
511.099	5.45
511.449	5.46
511.798	5.51
512.147	5.49
512.496	5.48
512.846	5.41
513.195	5.44
513.544	5.4
513.893	5.42
514.242	5.5
514.591	5.48
514.939	5.48
515.288	5.45
515.637	5.56
515.986	5.49
516.334	5.66
516.683	5.57
517.032	5.45
517.38	5.55
517.729	5.54
518.077	5.51
518.426	5.47
518.774	5.53
519.122	5.42
519.47	5.49
519.819	5.54
520.167	5.48
520.515	5.4
520.863	5.4
521.211	5.45
521.559	5.45
521.907	5.49
522.255	5.57
522.602	5.61
522.95	5.68
523.298	5.51
523.645	5.56
523.993	5.55
524.341	5.56
524.688	5.65
525.036	5.6
525.383	5.7
525.73	5.65
526.078	5.55
526.425	5.56
526.772	5.46
527.119	5.49
527.466	5.56
527.814	5.47
528.161	5.49
528.508	5.48
528.854	5.39
529.201	5.4
529.548	5.39
529.895	5.33
530.242	5.33
530.588	5.3
530.935	5.29
531.282	5.32
531.628	5.35
531.975	5.42
532.321	5.46
532.667	5.51
533.014	5.51
533.36	5.55
533.706	5.44
534.052	5.47
534.399	5.47
534.745	5.41
535.091	5.38
535.437	5.4
535.783	5.41
536.129	5.43
536.474	5.5
536.82	5.52
537.166	5.56
537.512	5.56
537.857	5.58
538.203	5.47
538.549	5.53
538.894	5.45
539.239	5.61
539.585	5.66
539.93	5.66
540.276	5.53
540.621	5.64
540.966	5.65
541.311	5.67
541.656	5.62
542.001	5.64
542.346	5.57
542.691	5.46
543.036	5.45
543.381	5.42
543.726	5.43
544.071	5.48
544.415	5.49
544.76	5.48
545.105	5.58
545.449	5.61
545.794	5.59
546.138	5.62
546.483	5.55
546.827	5.7
547.171	5.64
547.516	5.76
547.86	5.63
548.204	5.6
548.548	5.67
548.892	5.69
549.236	5.67
549.58	5.65
549.924	5.74
550.268	5.78
550.612	5.82
550.956	5.63
551.3	5.78
551.643	5.8
551.987	5.9
552.33	5.8
552.674	5.93
553.017	5.91
553.361	5.79
553.704	5.73
554.048	5.88
554.391	5.78
554.734	5.82
555.077	5.87
555.42	5.92
555.764	5.92
556.107	5.84
556.45	5.74
556.793	6.02
557.135	5.93
557.478	6.04
557.821	5.79
558.164	5.94
558.507	5.83
558.849	5.85
559.192	5.88
559.534	5.73
559.877	6.01
560.219	6.11
560.562	6.07
560.904	5.9
561.246	6.05
561.589	6.01
561.931	6
562.273	6.01
562.615	6.07
562.957	5.91
563.299	5.93
563.641	5.94
563.983	5.73
564.325	5.86
564.667	5.76
565.008	5.72
565.35	6.09
565.692	6.01
566.033	6.12
566.375	5.83
566.716	5.92
567.058	5.98
567.399	5.93
567.741	5.99
568.082	5.93
568.423	5.83
568.764	5.91
569.105	5.94
569.447	5.82
569.788	5.91
570.129	5.89
570.47	6.11
570.811	5.99
571.151	6.09
571.492	6.06
571.833	5.89
572.174	5.93
572.514	5.86
572.855	6.07
573.195	5.92
573.536	5.78
573.876	5.89
574.217	5.97
574.557	6.03
574.898	5.85
575.238	5.75
575.578	6.09
575.918	5.74
576.258	5.96
576.598	6
576.938	6.04
577.278	5.88
577.618	5.92
577.958	5.95
578.298	6.19
578.638	5.97
578.977	6.26
579.317	6.18
579.657	6.05
579.996	6.22
580.336	6.2
580.675	6.12
581.014	6.02
581.354	6.21
581.693	6.07
582.032	6.15
582.372	6.35
582.711	6.24
583.05	6.33
583.389	6.27
583.728	6.14
584.067	6.03
584.406	6.38
584.745	6.14
585.083	6.56
585.422	6.42
585.761	6.28
586.1	6.27
586.438	6.18
586.777	6.08
587.115	6.24
587.454	6.1
587.792	6.09
588.13	6.4
588.469	6.37
588.807	6.42
589.145	6.2
589.483	6.22
589.821	6.26
590.159	6.15
590.497	5.9
590.835	6.16
591.173	6.31
591.511	6
591.849	6.33
592.187	6.15
592.524	6.15
592.862	6.33
593.2	6.17
593.537	6.11
593.875	6.23
594.212	6.18
594.55	6.21
594.887	6.39
595.224	6.29
595.561	6.41
595.899	6.21
596.236	6.3
596.573	6.14
596.91	6.23
597.247	6.34
597.584	6.39
597.921	6.12
598.258	6.28
598.594	6.09
598.931	6.2
599.268	6.02
599.604	6.44
599.941	6.17
600.277	6.18
600.614	6.14
600.95	6.28
601.287	6.36
601.623	6.24
601.959	6.33
602.296	6.26
602.632	6.43
602.968	6.13
603.304	6.24
603.64	6.18
603.976	6.18
604.312	6.42
604.648	6.45
604.984	6.28
605.319	6.21
605.655	6.41
605.991	6.23
606.326	6.32
606.662	6.28
606.998	6.36
607.333	6.28
607.668	6.18
608.004	6.41
608.339	6.2
608.674	6.43
609.01	6.59
609.345	6.66
609.68	6.19
610.015	6.34
610.35	6.3
610.685	6.55
611.02	6.58
611.355	6.47
611.689	6.26
612.024	6.49
612.359	6.48
612.694	6.41
613.028	6.54
613.363	6.21
613.697	6.55
614.032	6.43
614.366	6.3
614.7	6.57
615.035	6.29
615.369	6.37
615.703	6.82
616.037	6.58
616.371	6.71
616.705	6.64
617.039	6.62
617.373	6.29
617.707	6.5
618.041	6.88
618.375	6.72
618.709	6.62
619.042	6.61
619.376	6.48
619.71	6.53
620.043	6.75
620.377	6.49
620.71	6.92
621.043	6.5
621.377	6.32
621.71	6.46
622.043	6.78
622.376	6.58
622.709	6.97
623.043	6.59
623.376	6.89
623.709	7.07
624.041	6.8
624.374	6.51
624.707	6.4
625.04	6.96
625.373	6.57
625.705	6.83
626.038	6.53
626.37	6.68
626.703	6.66
627.035	6.69
627.368	6.78
627.7	6.78
628.032	6.46
628.365	6.57
628.697	6.66
629.029	6.8
629.361	6.41
629.693	7.08
630.025	6.68
630.357	6.61
630.689	6.79
631.021	6.8
631.353	6.69
631.684	6.7
632.016	6.49
632.348	6.9
632.679	6.47
633.011	6.58
633.342	7.04
633.674	6.53
634.005	6.8
634.336	6.7
634.668	6.97
634.999	6.8
635.33	6.73
635.661	6.75
635.992	6.77
636.323	6.83
636.654	6.9
636.985	6.64
637.316	6.83
637.647	6.87
637.977	6.52
638.308	6.74
638.639	6.7
638.969	6.77
639.3	7.2
639.63	6.67
639.961	6.62
640.291	7.08
640.622	6.74
640.952	6.85
641.282	6.97
641.612	6.66
641.943	7.18
642.273	7.08
642.603	7
642.933	6.85
643.263	7.08
643.592	6.66
643.922	7.2
644.252	6.95
644.582	7.39
644.911	6.95
645.241	6.95
645.571	7.05
645.9	6.97
646.23	7.2
646.559	7.05
646.888	6.75
647.218	7.22
647.547	7.14
647.876	7.07
648.205	6.76
648.534	6.95
648.863	7.07
649.192	7.02
649.521	6.52
649.85	6.95
650.179	6.89
650.508	7.15
650.837	6.83
651.165	6.97
651.494	7.09
651.822	7.1
652.151	7.35
652.479	7.56
652.808	6.55
653.136	7.01
653.465	7.45
653.793	7.49
654.121	7.21
654.449	7.15
654.777	6.9
655.105	7.37
655.433	7.27
655.761	6.95
656.089	7.68
656.417	7.37
656.745	7.97
657.073	7.32
657.4	7.33
657.728	6.89
658.056	7.54
658.383	7.02
658.711	6.8
659.038	7.55
659.365	7.2
659.693	7.02
660.02	6.98
660.347	7.46
660.674	7.19
661.001	6.86
661.329	7.19
661.656	7.05
661.982	7.17
662.309	7.39
662.636	7.43
662.963	7.57
663.29	7.8
663.616	7.38
663.943	7.8
664.27	7.18
664.596	7.2
664.923	7.46
665.249	7.19
665.576	7.04
665.902	7.08
666.228	7.49
666.554	7.57
666.881	7.87
667.207	7.37
667.533	7.5
667.859	7.56
668.185	7.72
668.511	7.8
668.837	7.07
669.162	7.16
669.488	6.71
669.814	7.89
670.139	8.08
670.465	7.72
670.791	7.4
671.116	7.09
671.442	7.46
671.767	7.44
672.092	7.69
672.418	7.62
672.743	7.42
673.068	7.33
673.393	8.04
673.718	7.74
674.043	7.91
674.368	7.95
674.693	7.98
675.018	7.2
675.343	8.19
675.667	7.92
675.992	7.03
676.317	7.46
676.641	8.22
676.966	7.73
677.29	7.18
677.615	7.78
677.939	8.17
678.264	7.89
678.588	7.63
678.912	7.63
679.236	7.7
679.56	7.26
679.885	7.78
680.209	7.14
680.532	7.53
680.856	8.25
681.18	8.08
681.504	7.65
681.828	6.96
682.152	7.82
682.475	7.45
682.799	7.65
683.122	7.36
683.446	8.16
683.769	7.82
684.093	7.46
684.416	7.81
684.739	7.96
685.062	7.65
685.386	7.67
685.709	7.74
686.032	7.73
686.355	7.91
686.678	7.93
687.001	7.24
687.324	7.87
687.646	7.92
687.969	8.09
688.292	8.25
688.614	8.33
688.937	7.83
689.26	7.66
689.582	7.38
689.904	8.38
690.227	8.52
690.549	8.68
690.871	7.73
691.194	8.3
691.516	7.96
691.838	8.11
692.16	8.2
692.482	8.43
692.804	7.61
