Data from 0066_chest_Reflection__4__142.txt Node

Date: Fri Dec 16 15:01:09 CST 2022
User: ToomeyLab
Spectrometer: FLMS14357
Trigger mode: 0
Integration Time (sec): 1.000000E-2
Scans to average: 100
Electric dark correction enabled: true
Nonlinearity correction enabled: false
Boxcar width: 0
XAxis mode: Wavelengths
Number of Pixels in Spectrum: 2048
>>>>>Begin Spectral Data<<<<<
189.047	14.98
189.435	14.98
189.823	14.98
190.211	183.44
190.599	-2687.5
190.987	120.17
191.375	45.9
191.763	2539.22
192.151	-43.85
192.538	98.55
192.926	-1162.5
193.314	38.2
193.702	-43.12
194.089	-70.32
194.477	-163.04
194.864	386.41
195.252	-21.39
195.639	82.5
196.027	-170.83
196.414	57.37
196.801	-222.29
197.189	195.39
197.576	36.09
197.963	90.83
198.351	45.55
198.738	-21.01
199.125	37.91
199.512	2.91
199.899	-40.75
200.286	-27.31
200.673	26.23
201.06	19.94
201.447	36.01
201.833	-0.77
202.22	35.75
202.607	20.01
202.994	54.88
203.38	-69.17
203.767	-39.03
204.154	-24.29
204.54	36.87
204.927	1.89
205.313	58.25
205.699	-15.03
206.086	-13.22
206.472	-5.27
206.858	18.14
207.245	25.16
207.631	-41.06
208.017	-10.78
208.403	3.41
208.789	-2.94
209.175	48.06
209.561	25.64
209.947	-3.9
210.333	-68.46
210.719	48.11
211.105	-33.4
211.491	16.04
211.876	17.57
212.262	-17.73
212.648	-32.86
213.034	2.81
213.419	26.41
213.805	-1.33
214.19	-21.19
214.576	-46.34
214.961	-8.48
215.346	-47.8
215.732	-31.13
216.117	2.02
216.502	-37.6
216.888	-27.71
217.273	-10.38
217.658	-37.47
218.043	12.35
218.428	-10.98
218.813	-32.02
219.198	-2.87
219.583	17.08
219.968	-7.05
220.353	11.23
220.738	-4.25
221.122	-8.36
221.507	2.64
221.892	7.42
222.276	-6.6
222.661	11.17
223.046	13.81
223.43	-3.68
223.815	3.15
224.199	4.91
224.583	2.43
224.968	22.52
225.352	-3.51
225.736	8.65
226.121	-3.6
226.505	5.09
226.889	6.67
227.273	3.67
227.657	2.34
228.041	2.66
228.425	1.78
228.809	3.11
229.193	0.89
229.577	2.99
229.961	3.34
230.344	3.74
230.728	3.58
231.112	2.7
231.495	2.36
231.879	2.12
232.263	2.14
232.646	2.56
233.03	1.51
233.413	2.24
233.797	6.31
234.18	4.11
234.563	3.12
234.946	3.03
235.33	4.49
235.713	3.35
236.096	2.84
236.479	5.17
236.862	2.04
237.245	4.62
237.628	2.78
238.011	2.08
238.394	4.28
238.777	5.41
239.16	1.82
239.543	3.11
239.925	2.96
240.308	2.98
240.691	2.57
241.073	2.72
241.456	3.01
241.838	2.56
242.221	2.84
242.603	3.92
242.986	4.47
243.368	3.38
243.75	3.04
244.133	3.56
244.515	3.15
244.897	3.21
245.279	3.37
245.661	3.74
246.043	3.78
246.425	3.21
246.807	3.39
247.189	3.03
247.571	3.77
247.953	3.48
248.335	3.43
248.717	3.35
249.098	3.51
249.48	3.22
249.862	3.55
250.243	3.19
250.625	3.26
251.006	3.2
251.388	3.47
251.769	3.03
252.151	3.86
252.532	3.62
252.913	2.79
253.295	3.43
253.676	3.65
254.057	3.17
254.438	3.91
254.819	3.47
255.2	2.53
255.581	2.42
255.962	2.89
256.343	2.57
256.724	2.27
257.105	2.81
257.486	3.84
257.867	1.38
258.247	3.37
258.628	3.71
259.009	2.76
259.389	3.7
259.77	3.29
260.15	3.77
260.531	3.21
260.911	2.97
261.292	3.12
261.672	3.23
262.052	3.19
262.432	3.25
262.813	3.2
263.193	2.74
263.573	3.21
263.953	3.29
264.333	2.85
264.713	3.28
265.093	3.08
265.473	3.69
265.853	3.17
266.233	3.02
266.612	3.57
266.992	2.46
267.372	3.14
267.752	3.12
268.131	3.13
268.511	3.62
268.89	3.01
269.27	3.25
269.649	3.14
270.029	3.47
270.408	3.04
270.787	2.89
271.167	3.04
271.546	2.51
271.925	2.85
272.304	3.16
272.683	3.06
273.062	3.38
273.441	2.83
273.82	3.36
274.199	3.05
274.578	3.13
274.957	2.85
275.336	2.72
275.715	3.31
276.093	3.54
276.472	3.31
276.851	3.13
277.229	3.42
277.608	2.72
277.986	2.86
278.365	2.5
278.743	3.05
279.122	2.54
279.5	3.22
279.878	2.57
280.257	2.94
280.635	2.89
281.013	3.38
281.391	2.77
281.769	3.09
282.147	3.07
282.525	3.04
282.903	3.22
283.281	2.75
283.659	2.89
284.037	3.14
284.415	3.29
284.792	2.87
285.17	3.11
285.548	2.95
285.925	2.95
286.303	2.8
286.68	3.42
287.058	2.96
287.435	3.16
287.813	2.99
288.19	3.37
288.567	3.43
288.945	3.12
289.322	3.28
289.699	2.88
290.076	3.36
290.453	2.84
290.83	3.67
291.207	3.14
291.584	2.82
291.961	3.13
292.338	3.11
292.715	3.28
293.092	3.36
293.469	3.32
293.845	3.36
294.222	2.63
294.599	3.73
294.975	3.32
295.352	2.93
295.728	3.4
296.105	3.29
296.481	3.66
296.858	3.16
297.234	3.16
297.61	3.38
297.986	3.27
298.363	2.69
298.739	3.44
299.115	2.76
299.491	3.55
299.867	3.1
300.243	3.69
300.619	3.08
300.995	3.66
301.371	3.34
301.746	3.23
302.122	3.45
302.498	3.51
302.874	3.66
303.249	3.24
303.625	2.66
304	3.15
304.376	3.61
304.751	3.55
305.127	3.3
305.502	3.51
305.878	3.57
306.253	3.08
306.628	3.66
307.003	3.39
307.378	3.28
307.754	3.78
308.129	3.07
308.504	3.43
308.879	3.73
309.254	3.6
309.629	3.35
310.003	3.93
310.378	3.59
310.753	3.59
311.128	3.35
311.502	3.08
311.877	3.27
312.252	3.25
312.626	3.04
313.001	3.27
313.375	3.46
313.75	3.35
314.124	3.73
314.498	3.14
314.873	3.5
315.247	2.93
315.621	3.38
315.995	2.9
316.369	3.11
316.743	4.09
317.117	3.16
317.491	3.92
317.865	3.15
318.239	3.36
318.613	2.9
318.987	3.5
319.361	3.26
319.734	3.76
320.108	3.94
320.482	3.45
320.855	3.59
321.229	3.78
321.602	3.7
321.976	3.48
322.349	3.34
322.723	2.69
323.096	3.65
323.469	3.07
323.843	3.62
324.216	3.5
324.589	4.02
324.962	3.32
325.335	3.52
325.708	3.87
326.081	3.85
326.454	3.3
326.827	3.85
327.2	3.83
327.573	3.55
327.945	3.25
328.318	3.35
328.691	3.48
329.063	3.63
329.436	3.56
329.809	3.45
330.181	3.22
330.553	3.45
330.926	3.41
331.298	3.25
331.671	3.8
332.043	3.71
332.415	3.79
332.787	4.03
333.159	3.27
333.532	3.38
333.904	3.71
334.276	3.77
334.648	3.14
335.02	3.41
335.391	3.51
335.763	3.16
336.135	3.71
336.507	3.79
336.879	3.47
337.25	4
337.622	3.9
337.993	3.92
338.365	3.96
338.736	4.05
339.108	3.37
339.479	3.55
339.851	3.94
340.222	3.52
340.593	3.47
340.964	3.7
341.336	3.85
341.707	3.12
342.078	3.03
342.449	3.58
342.82	3.65
343.191	3.17
343.562	3.43
343.933	3.36
344.303	3.75
344.674	3.72
345.045	3.56
345.416	3.67
345.786	3.49
346.157	3.25
346.527	3.5
346.898	3.58
347.268	3.64
347.639	3.31
348.009	3.5
348.38	3.69
348.75	3.81
349.12	3.83
349.49	3.71
349.861	4.16
350.231	3.92
350.601	3.86
350.971	3.71
351.341	3.63
351.711	3.67
352.081	3.49
352.45	3.95
352.82	3.62
353.19	3.39
353.56	3.36
353.929	3.54
354.299	3.77
354.669	3.64
355.038	3.5
355.408	4.36
355.777	3.39
356.147	4.03
356.516	4.12
356.885	3.48
357.254	3.52
357.624	3.61
357.993	3.81
358.362	3.68
358.731	3.76
359.1	3.8
359.469	3.68
359.838	3.52
360.207	3.94
360.576	3.43
360.945	3.65
361.314	3.91
361.682	3.55
362.051	3.52
362.42	3.86
362.788	4.01
363.157	3.41
363.525	3.5
363.894	3.51
364.262	3.65
364.631	4.29
364.999	3.34
365.367	3.83
365.735	3.39
366.104	3.36
366.472	3.64
366.84	3.98
367.208	3.35
367.576	3.72
367.944	3.94
368.312	3.33
368.68	3.84
369.048	3.83
369.416	3.41
369.783	3.66
370.151	3.68
370.519	3.61
370.886	3.81
371.254	3.64
371.621	3.82
371.989	3.86
372.356	3.72
372.724	3.96
373.091	3.85
373.458	3.69
373.826	3.68
374.193	4.12
374.56	3.5
374.927	3.65
375.294	3.78
375.661	3.83
376.028	3.97
376.395	3.43
376.762	3.88
377.129	4.1
377.496	4.11
377.863	4
378.229	3.64
378.596	3.75
378.963	3.68
379.329	3.92
379.696	3.83
380.062	4.1
380.429	3.84
380.795	3.5
381.161	3.99
381.528	3.37
381.894	3.81
382.26	3.6
382.626	3.73
382.993	3.76
383.359	3.94
383.725	4.08
384.091	3.7
384.457	4.07
384.823	3.91
385.188	4
385.554	3.77
385.92	4.06
386.286	4.01
386.651	3.72
387.017	4.18
387.383	3.68
387.748	3.78
388.114	3.82
388.479	4.19
388.845	4.11
389.21	4.02
389.575	3.99
389.94	3.88
390.306	3.99
390.671	3.72
391.036	3.88
391.401	4.08
391.766	4.05
392.131	3.94
392.496	3.96
392.861	3.73
393.226	4.05
393.591	3.8
393.956	4.05
394.32	3.8
394.685	4.03
395.05	3.93
395.414	3.98
395.779	3.97
396.143	4.08
396.508	4.08
396.872	4.04
397.236	3.81
397.601	4.06
397.965	3.7
398.329	3.98
398.694	3.78
399.058	4.06
399.422	4.08
399.786	4.14
400.15	4.03
400.514	3.91
400.878	3.9
401.242	4.08
401.605	3.96
401.969	4.07
402.333	3.86
402.697	4.31
403.06	4.08
403.424	3.95
403.787	4.09
404.151	4.19
404.514	4.05
404.878	3.99
405.241	4.31
405.604	4.01
405.968	4.19
406.331	4.18
406.694	3.96
407.057	4.3
407.42	4.08
407.783	4.05
408.146	4.13
408.509	3.85
408.872	3.95
409.235	4.09
409.598	4.1
409.961	4.1
410.323	4.02
410.686	3.86
411.049	3.99
411.411	4.31
411.774	4.11
412.136	4.17
412.499	4.17
412.861	3.81
413.223	4.14
413.586	4.08
413.948	4.33
414.31	4.26
414.672	4.04
415.035	4.35
415.397	4.25
415.759	4.02
416.121	4.33
416.483	4.29
416.845	3.97
417.206	4.15
417.568	4.01
417.93	4.18
418.292	4.01
418.653	4.2
419.015	3.97
419.377	4.15
419.738	4.06
420.1	4.18
420.461	3.97
420.822	4.13
421.184	4.05
421.545	4.04
421.906	3.98
422.267	3.9
422.629	4
422.99	4.1
423.351	4.12
423.712	4.13
424.073	4.16
424.434	4.03
424.795	4.04
425.155	4.05
425.516	4.05
425.877	4.08
426.238	4.01
426.598	4.16
426.959	3.96
427.32	4.2
427.68	4.14
428.041	4.3
428.401	4.17
428.761	4.24
429.122	4.18
429.482	4.1
429.842	4.18
430.202	4.22
430.563	4.21
430.923	4.18
431.283	4.22
431.643	4.25
432.003	4.35
432.363	4.29
432.722	4.12
433.082	4.1
433.442	4.07
433.802	4.3
434.161	4.21
434.521	4.17
434.881	4.16
435.24	4.06
435.6	4.23
435.959	4.23
436.319	4.14
436.678	4.37
437.037	4.24
437.396	4.39
437.756	4.35
438.115	4.24
438.474	4.31
438.833	4.28
439.192	4.4
439.551	4.31
439.91	4.32
440.269	4.44
440.628	4.32
440.987	4.18
441.345	4.13
441.704	4.33
442.063	4.17
442.421	4.31
442.78	4.24
443.138	4.28
443.497	4.14
443.855	4.37
444.214	4.36
444.572	4.38
444.93	4.38
445.288	4.34
445.647	4.45
446.005	4.24
446.363	4.32
446.721	4.23
447.079	4.26
447.437	4.23
447.795	4.19
448.153	4.27
448.51	4.3
448.868	4.4
449.226	4.37
449.584	4.3
449.941	4.4
450.299	4.38
450.656	4.41
451.014	4.28
451.371	4.38
451.729	4.31
452.086	4.39
452.443	4.36
452.801	4.48
453.158	4.35
453.515	4.42
453.872	4.45
454.229	4.38
454.586	4.39
454.943	4.51
455.3	4.49
455.657	4.39
456.014	4.5
456.371	4.64
456.727	4.49
457.084	4.48
457.441	4.45
457.797	4.55
458.154	4.53
458.51	4.38
458.867	4.39
459.223	4.47
459.58	4.48
459.936	4.46
460.292	4.45
460.648	4.32
461.005	4.42
461.361	4.33
461.717	4.37
462.073	4.41
462.429	4.55
462.785	4.75
463.141	4.62
463.496	4.55
463.852	4.73
464.208	4.64
464.564	4.49
464.919	4.54
465.275	4.53
465.631	4.61
465.986	4.53
466.342	4.59
466.697	4.55
467.052	4.71
467.408	4.6
467.763	4.51
468.118	4.59
468.473	4.72
468.829	4.57
469.184	4.77
469.539	4.48
469.894	4.5
470.249	4.63
470.603	4.73
470.958	4.79
471.313	4.67
471.668	4.75
472.023	4.66
472.377	4.59
472.732	4.62
473.086	4.46
473.441	4.73
473.795	4.88
474.15	4.72
474.504	4.64
474.859	4.7
475.213	4.8
475.567	4.61
475.921	4.71
476.275	4.82
476.63	4.74
476.984	4.66
477.338	5.07
477.692	4.79
478.045	4.64
478.399	4.76
478.753	4.65
479.107	4.72
479.461	4.72
479.814	4.67
480.168	4.56
480.521	4.63
480.875	4.88
481.228	4.96
481.582	4.78
481.935	4.64
482.289	4.67
482.642	4.76
482.995	4.66
483.348	4.71
483.701	4.67
484.055	4.64
484.408	4.51
484.761	4.38
485.114	4.33
485.466	4.35
485.819	4.47
486.172	4.57
486.525	4.69
486.878	4.71
487.23	4.71
487.583	4.66
487.936	4.64
488.288	4.57
488.641	4.58
488.993	4.45
489.345	4.51
489.698	4.61
490.05	4.68
490.402	4.73
490.754	4.79
491.107	4.76
491.459	4.83
491.811	4.89
492.163	4.82
492.515	4.7
492.866	4.52
493.218	4.57
493.57	4.71
493.922	4.82
494.274	4.87
494.625	4.88
494.977	4.88
495.328	5.04
495.68	5.12
496.031	4.97
496.383	4.94
496.734	5.04
497.086	5.01
497.437	4.96
497.788	4.95
498.139	4.98
498.49	4.91
498.842	4.88
499.193	4.99
499.544	5.05
499.894	5.07
500.245	4.99
500.596	5.04
500.947	5.01
501.298	5
501.648	5.09
501.999	5.19
502.35	5.26
502.7	5.12
503.051	5.29
503.401	5.17
503.752	5.16
504.102	5.21
504.452	5.07
504.803	4.96
505.153	5.23
505.503	5.13
505.853	5.12
506.203	5.17
506.553	5.31
506.903	5.16
507.253	5.21
507.603	5.26
507.953	5.3
508.303	5.22
508.652	5.14
509.002	5.24
509.352	5.22
509.701	5.19
510.051	5.13
510.4	5.14
510.75	5.23
511.099	5.18
511.449	5.2
511.798	5.29
512.147	5.29
512.496	5.29
512.846	5.26
513.195	5.41
513.544	5.12
513.893	5.21
514.242	5.37
514.591	5.35
514.939	5.27
515.288	5.37
515.637	5.38
515.986	5.39
516.334	5.44
516.683	5.45
517.032	5.24
517.38	5.42
517.729	5.38
518.077	5.47
518.426	5.34
518.774	5.34
519.122	5.32
519.47	5.29
519.819	5.3
520.167	5.36
520.515	5.29
520.863	5.29
521.211	5.41
521.559	5.38
521.907	5.47
522.255	5.52
522.602	5.55
522.95	5.6
523.298	5.42
523.645	5.42
523.993	5.66
524.341	5.58
524.688	5.64
525.036	5.7
525.383	5.65
525.73	5.57
526.078	5.55
526.425	5.55
526.772	5.38
527.119	5.35
527.466	5.43
527.814	5.42
528.161	5.51
528.508	5.54
528.854	5.41
529.201	5.45
529.548	5.33
529.895	5.23
530.242	5.24
530.588	5.36
530.935	5.46
531.282	5.53
531.628	5.6
531.975	5.58
532.321	5.64
532.667	5.65
533.014	5.7
533.36	5.64
533.706	5.66
534.052	5.59
534.399	5.49
534.745	5.48
535.091	5.54
535.437	5.64
535.783	5.8
536.129	5.78
536.474	5.87
536.82	5.86
537.166	5.91
537.512	5.8
537.857	5.78
538.203	5.76
538.549	5.76
538.894	5.89
539.239	6.01
539.585	6.04
539.93	5.99
540.276	6.04
540.621	6.06
540.966	6
541.311	5.99
541.656	5.87
542.001	6.01
542.346	5.79
542.691	5.71
543.036	5.74
543.381	5.88
543.726	5.93
544.071	6.08
544.415	5.97
544.76	5.92
545.105	6.09
545.449	6.07
545.794	6.12
546.138	6.29
546.483	6.23
546.827	6.18
547.171	6.23
547.516	6.27
547.86	6.19
548.204	6.18
548.548	6.37
548.892	6.38
549.236	6.37
549.58	6.46
549.924	6.54
550.268	6.54
550.612	6.66
550.956	6.48
551.3	6.64
551.643	6.51
551.987	6.53
552.33	6.38
552.674	6.57
553.017	6.57
553.361	6.6
553.704	6.66
554.048	6.7
554.391	6.65
554.734	6.6
555.077	6.78
555.42	6.74
555.764	6.67
556.107	6.69
556.45	6.62
556.793	6.96
557.135	6.86
557.478	6.82
557.821	6.79
558.164	6.98
558.507	6.87
558.849	6.77
559.192	6.88
559.534	6.88
559.877	7.04
560.219	7.19
560.562	7
560.904	6.94
561.246	7.27
561.589	7.17
561.931	7.16
562.273	7.22
562.615	7.11
562.957	7.28
563.299	7.13
563.641	7.2
563.983	7.08
564.325	7.03
564.667	6.98
565.008	7.13
565.35	7.27
565.692	7.5
566.033	7.15
566.375	7.13
566.716	7.34
567.058	7.27
567.399	7.35
567.741	7.38
568.082	7.41
568.423	7.35
568.764	7.3
569.105	7.49
569.447	7.27
569.788	7.49
570.129	7.47
570.47	7.53
570.811	7.61
571.151	7.54
571.492	7.75
571.833	7.65
572.174	7.52
572.514	7.48
572.855	7.62
573.195	7.52
573.536	7.49
573.876	7.65
574.217	7.59
574.557	7.68
574.898	7.53
575.238	7.69
575.578	7.8
575.918	7.78
576.258	7.81
576.598	7.77
576.938	7.94
577.278	7.77
577.618	7.82
577.958	7.79
578.298	8.08
578.638	7.98
578.977	8.22
579.317	8.16
579.657	8.06
579.996	8.21
580.336	7.87
580.675	8.17
581.014	8.15
581.354	8.31
581.693	8.22
582.032	8.07
582.372	8.26
582.711	8.35
583.05	8.53
583.389	8.38
583.728	8.4
584.067	8.26
584.406	8.53
584.745	8.4
585.083	8.6
585.422	8.35
585.761	8.64
586.1	8.59
586.438	8.45
586.777	8.46
587.115	8.86
587.454	8.72
587.792	8.69
588.13	8.79
588.469	8.77
588.807	8.91
589.145	8.85
589.483	8.61
589.821	8.75
590.159	8.88
590.497	8.65
590.835	8.95
591.173	8.78
591.511	8.94
591.849	8.98
592.187	8.97
592.524	8.93
592.862	8.98
593.2	9.07
593.537	9.12
593.875	8.99
594.212	9.01
594.55	9.04
594.887	9.34
595.224	9.25
595.561	9.08
595.899	9.22
596.236	9.15
596.573	8.98
596.91	9.26
597.247	9.17
597.584	9.28
597.921	9.33
598.258	9.22
598.594	9.08
598.931	9.27
599.268	9.29
599.604	9.58
599.941	9.43
600.277	9.57
600.614	9.47
600.95	9.56
601.287	9.56
601.623	9.77
601.959	9.44
602.296	9.96
602.632	9.99
602.968	9.75
603.304	9.44
603.64	9.74
603.976	9.87
604.312	9.92
604.648	9.74
604.984	9.65
605.319	9.68
605.655	9.89
605.991	9.67
606.326	9.87
606.662	9.75
606.998	9.89
607.333	9.94
607.668	10.03
608.004	9.96
608.339	10.05
608.674	10.09
609.01	10.21
609.345	10.23
609.68	9.88
610.015	10.39
610.35	10.11
610.685	10.23
611.02	10.31
611.355	10.32
611.689	10.24
612.024	10.44
612.359	10.41
612.694	10.5
613.028	10.7
613.363	10.62
613.697	10.66
614.032	10.42
614.366	10.74
614.7	10.76
615.035	10.67
615.369	10.78
615.703	11.16
616.037	10.69
616.371	10.77
616.705	10.89
617.039	11.13
617.373	10.63
617.707	10.89
618.041	11.16
618.375	10.84
618.709	11.08
619.042	10.94
619.376	10.74
619.71	11.26
620.043	11.24
620.377	10.98
620.71	10.82
621.043	11.04
621.377	11.16
621.71	11.57
622.043	11.45
622.376	11.15
622.709	11.57
623.043	11.43
623.376	11.61
623.709	11.39
624.041	11.31
624.374	11.29
624.707	11.28
625.04	11.77
625.373	11.46
625.705	11.68
626.038	11.76
626.37	11.78
626.703	11.92
627.035	11.83
627.368	11.72
627.7	11.73
628.032	11.6
628.365	11.52
628.697	11.92
629.029	12.13
629.361	11.88
629.693	11.98
630.025	11.6
630.357	11.95
630.689	12.09
631.021	11.84
631.353	12.3
631.684	11.97
632.016	11.99
632.348	12.44
632.679	11.9
633.011	12.27
633.342	11.99
633.674	12.49
634.005	12.58
634.336	12.1
634.668	12.1
634.999	12.16
635.33	12.48
635.661	12.66
635.992	12.09
636.323	12.34
636.654	12.51
636.985	12.34
637.316	12.71
637.647	12.83
637.977	12.48
638.308	12.37
638.639	12.42
638.969	12.48
639.3	13.01
639.63	12.92
639.961	12.92
640.291	13.14
640.622	12.63
640.952	12.89
641.282	12.56
641.612	12.54
641.943	13.01
642.273	12.48
642.603	13
642.933	12.83
643.263	13.28
643.592	12.83
643.922	13.4
644.252	13.09
644.582	13.12
644.911	13.01
645.241	13.04
645.571	13.04
645.9	13.48
646.23	13.05
646.559	13.38
646.888	13.64
647.218	13.54
647.547	13.99
647.876	13.57
648.205	13.39
648.534	13.54
648.863	13.72
649.192	13.31
649.521	13.23
649.85	14.12
650.179	13.49
650.508	13.98
650.837	13.72
651.165	13.68
651.494	13.56
651.822	13.93
652.151	13.74
652.479	14.3
652.808	13.57
653.136	14.1
653.465	13.93
653.793	14.35
654.121	14.12
654.449	14.4
654.777	14.06
655.105	14.57
655.433	14.44
655.761	14.09
656.089	14.15
656.417	13.88
656.745	14.86
657.073	14.23
657.4	14.3
657.728	14.55
658.056	14.26
658.383	14.39
658.711	14.12
659.038	14.73
659.365	13.98
659.693	14.4
660.02	14.47
660.347	14.52
660.674	14.71
661.001	13.95
661.329	14.16
661.656	14.38
661.982	14.89
662.309	14.99
662.636	14.91
662.963	14.97
663.29	14.88
663.616	15.09
663.943	15.67
664.27	14.99
664.596	14.47
664.923	15.39
665.249	14.44
665.576	15.03
665.902	14.85
666.228	15.07
666.554	15.13
666.881	15.12
667.207	15.31
667.533	15.4
667.859	15.22
668.185	15.39
668.511	14.96
668.837	15
669.162	15.43
669.488	16
669.814	16.16
670.139	15.82
670.465	15.77
670.791	15.54
671.116	15.86
671.442	15.75
671.767	15.72
672.092	15.57
672.418	15.51
672.743	15.94
673.068	15.3
673.393	15.8
673.718	15.58
674.043	15.73
674.368	15.85
674.693	16.47
675.018	15.45
675.343	16.07
675.667	15.78
675.992	15.38
676.317	16.02
676.641	15.84
676.966	16.5
677.29	16.68
677.615	15.92
677.939	16.38
678.264	16.47
678.588	16.02
678.912	16.8
679.236	16.14
679.56	16.31
679.885	16.23
680.209	15.94
680.532	16.2
680.856	16.83
681.18	16.46
681.504	16.09
681.828	15.71
682.152	16.38
682.475	16.55
682.799	16.86
683.122	16.13
683.446	16.31
683.769	17.11
684.093	16.47
684.416	16.68
684.739	17.04
685.062	17.49
685.386	17.08
685.709	16.94
686.032	16.96
686.355	16.48
