Data from 0066_forehead_Reflection__2__150.txt Node

Date: Fri Dec 16 15:05:19 CST 2022
User: ToomeyLab
Spectrometer: FLMS14357
Trigger mode: 0
Integration Time (sec): 1.000000E-2
Scans to average: 100
Electric dark correction enabled: true
Nonlinearity correction enabled: false
Boxcar width: 0
XAxis mode: Wavelengths
Number of Pixels in Spectrum: 2048
>>>>>Begin Spectral Data<<<<<
189.047	98.34
189.435	98.34
189.823	98.34
190.211	-31.94
190.599	-45.45
190.987	-194.88
191.375	26.99
191.763	1672.41
192.151	-51.13
192.538	35.45
192.926	983.87
193.314	45.09
193.702	83.29
194.089	-61.34
194.477	198.38
194.864	-103.48
195.252	-80.76
195.639	72.91
196.027	-67.15
196.414	63.61
196.801	398.97
197.189	252.38
197.576	46.53
197.963	136.08
198.351	2.09
198.738	10.36
199.125	31.03
199.512	-20.96
199.899	-58.1
200.286	-47.1
200.673	41.33
201.06	12.98
201.447	52.83
201.833	-23.13
202.22	33.73
202.607	19.04
202.994	12.98
203.38	-25.03
203.767	-41.69
204.154	32.78
204.54	-1.08
204.927	42.22
205.313	42.44
205.699	-3.9
206.086	-7
206.472	24.86
206.858	-0.05
207.245	11.57
207.631	34.93
208.017	19.36
208.403	19.22
208.789	15.09
209.175	73.05
209.561	14.83
209.947	34.86
210.333	-67.49
210.719	-25.4
211.105	22.11
211.491	53.65
211.876	0.72
212.262	9.71
212.648	-37.88
213.034	14.02
213.419	23.89
213.805	4.61
214.19	5.72
214.576	10.49
214.961	-5.11
215.346	-16.28
215.732	1.08
216.117	8.98
216.502	-14.29
216.888	-26.2
217.273	10.7
217.658	-8.58
218.043	20.14
218.428	20.85
218.813	-10.16
219.198	-30.59
219.583	24.2
219.968	4.4
220.353	26.63
220.738	12.97
221.122	11.49
221.507	0.91
221.892	16.1
222.276	0.74
222.661	-4.46
223.046	-0.92
223.43	-1.37
223.815	18.34
224.199	10.06
224.583	0.15
224.968	0.92
225.352	-3.98
225.736	9.26
226.121	2.73
226.505	4.57
226.889	6.1
227.273	2.64
227.657	2.7
228.041	8.64
228.425	5.43
228.809	3
229.193	2.62
229.577	4.15
229.961	5.44
230.344	4.63
230.728	3.54
231.112	4.44
231.495	2.54
231.879	4.79
232.263	4.51
232.646	4.5
233.03	1.84
233.413	2.45
233.797	4.54
234.18	3.08
234.563	3.42
234.946	3.75
235.33	5.02
235.713	3.52
236.096	3.62
236.479	5.12
236.862	4.18
237.245	5.59
237.628	3.42
238.011	4.05
238.394	6.31
238.777	4.08
239.16	1.69
239.543	3.95
239.925	4.62
240.308	2.79
240.691	2.22
241.073	3.07
241.456	3.76
241.838	3.46
242.221	4.3
242.603	3.82
242.986	4.63
243.368	4.05
243.75	3.59
244.133	3.91
244.515	4.02
244.897	3.57
245.279	3.84
245.661	4.24
246.043	4.36
246.425	3.64
246.807	4.03
247.189	3.81
247.571	4.39
247.953	4.06
248.335	4.16
248.717	4.09
249.098	4.07
249.48	3.96
249.862	4.28
250.243	3.9
250.625	4.63
251.006	4.24
251.388	4.82
251.769	4.55
252.151	4.23
252.532	4.69
252.913	4
253.295	4.37
253.676	4.5
254.057	4.32
254.438	4.48
254.819	5.07
255.2	4.37
255.581	3.39
255.962	4.52
256.343	4.64
256.724	3.87
257.105	4.51
257.486	3.79
257.867	4.32
258.247	4.09
258.628	5.19
259.009	5.19
259.389	4.67
259.77	4.29
260.15	4.9
260.531	4.22
260.911	3.94
261.292	4.05
261.672	3.85
262.052	4.07
262.432	3.97
262.813	4.01
263.193	3.6
263.573	4.42
263.953	4.07
264.333	4.42
264.713	4.12
265.093	3.79
265.473	4.73
265.853	4.01
266.233	4.16
266.612	4.35
266.992	4.24
267.372	4
267.752	3.45
268.131	3.93
268.511	4.13
268.89	4.84
269.27	4.6
269.649	3.84
270.029	4.2
270.408	4.45
270.787	3.53
271.167	4.12
271.546	3.46
271.925	3.95
272.304	4.3
272.683	3.98
273.062	3.96
273.441	3.85
273.82	4.1
274.199	4.23
274.578	3.87
274.957	3.96
275.336	3.92
275.715	4.53
276.093	4.46
276.472	4.17
276.851	4.45
277.229	4.69
277.608	3.86
277.986	3.8
278.365	3.44
278.743	4.01
279.122	3.97
279.5	4.1
279.878	2.89
280.257	4.23
280.635	3.68
281.013	4.46
281.391	3.77
281.769	3.48
282.147	4.44
282.525	3.63
282.903	3.95
283.281	3.82
283.659	4.1
284.037	3.93
284.415	4.38
284.792	4.11
285.17	3.89
285.548	3.53
285.925	4.27
286.303	3.95
286.68	4.46
287.058	4.03
287.435	4.03
287.813	4.07
288.19	4.35
288.567	3.74
288.945	4.32
289.322	3.73
289.699	4.08
290.076	4.52
290.453	4.28
290.83	4.49
291.207	4.02
291.584	3.8
291.961	4.58
292.338	4.38
292.715	4.54
293.092	4.46
293.469	4.64
293.845	5.24
294.222	4.81
294.599	5.13
294.975	5.06
295.352	4.43
295.728	5.16
296.105	4.96
296.481	5.61
296.858	5.18
297.234	5.01
297.61	4.92
297.986	5
298.363	4.47
298.739	5.03
299.115	4.58
299.491	4.92
299.867	5.03
300.243	4.78
300.619	5.26
300.995	5.38
301.371	5.07
301.746	5.01
302.122	5.5
302.498	5.37
302.874	5.6
303.249	5.74
303.625	5.32
304	5.19
304.376	5.75
304.751	5.77
305.127	5.53
305.502	5.64
305.878	5.4
306.253	5.45
306.628	5.94
307.003	6.09
307.378	5.56
307.754	6.24
308.129	5.4
308.504	5.91
308.879	5.82
309.254	6.2
309.629	5.99
310.003	6.34
310.378	6.3
310.753	6.33
311.128	5.76
311.502	5.68
311.877	6.35
312.252	5.97
312.626	5.97
313.001	6.03
313.375	6.25
313.75	5.9
314.124	6.82
314.498	6.23
314.873	6.23
315.247	5.92
315.621	6.91
315.995	6.41
316.369	6.7
316.743	7.05
317.117	6.95
317.491	6.48
317.865	6.91
318.239	6.89
318.613	6.52
318.987	7.1
319.361	6.71
319.734	6.64
320.108	7.15
320.482	6.83
320.855	7.5
321.229	7.78
321.602	6.86
321.976	6.95
322.349	6.53
322.723	6.85
323.096	6.73
323.469	7.25
323.843	7.32
324.216	7.24
324.589	7.48
324.962	7.15
325.335	7.05
325.708	7.5
326.081	7.83
326.454	7.44
326.827	7.62
327.2	7.8
327.573	7.65
327.945	7.55
328.318	7.63
328.691	7.7
329.063	7.67
329.436	7.81
329.809	7.54
330.181	7.73
330.553	8.02
330.926	8.41
331.298	7.92
331.671	7.62
332.043	7.95
332.415	8.1
332.787	8.05
333.159	8.2
333.532	7.98
333.904	7.99
334.276	8.13
334.648	8.27
335.02	7.85
335.391	8.55
335.763	7.73
336.135	8.34
336.507	8.17
336.879	8.22
337.25	8.19
337.622	8.54
337.993	8.38
338.365	8.96
338.736	8.33
339.108	8.5
339.479	8.91
339.851	8.8
340.222	8.37
340.593	8.47
340.964	8.56
341.336	8.64
341.707	8.82
342.078	8.39
342.449	8.83
342.82	8.94
343.191	8.49
343.562	9.11
343.933	8.97
344.303	9.04
344.674	9
345.045	9.31
345.416	8.9
345.786	8.65
346.157	8.89
346.527	8.97
346.898	8.92
347.268	8.91
347.639	8.93
348.009	9.3
348.38	9.19
348.75	8.9
349.12	9.37
349.49	8.93
349.861	9.49
350.231	9.66
350.601	9.12
350.971	9.28
351.341	9.35
351.711	9.26
352.081	9.37
352.45	9.55
352.82	9.85
353.19	9.57
353.56	9.88
353.929	10.04
354.299	9.58
354.669	9.94
355.038	9.72
355.408	10.16
355.777	9.74
356.147	10.12
356.516	10.19
356.885	10.08
357.254	10.13
357.624	10.07
357.993	9.82
358.362	10.11
358.731	10.19
359.1	10.43
359.469	10.27
359.838	9.96
360.207	10.01
360.576	10.24
360.945	10
361.314	10.5
361.682	10
362.051	10.1
362.42	10.33
362.788	10.6
363.157	10.04
363.525	10.27
363.894	10.34
364.262	10.27
364.631	10.94
364.999	10.17
365.367	10.65
365.735	10.33
366.104	10.23
366.472	10.78
366.84	10.89
367.208	10.6
367.576	10.81
367.944	11.08
368.312	10.5
368.68	10.97
369.048	11.03
369.416	10.95
369.783	10.86
370.151	11.25
370.519	10.9
370.886	10.94
371.254	11.17
371.621	11.32
371.989	11.28
372.356	11.46
372.724	11.22
373.091	11.28
373.458	11.35
373.826	11.2
374.193	11.49
374.56	11.52
374.927	11.38
375.294	11.71
375.661	11.75
376.028	11.82
376.395	11.32
376.762	11.84
377.129	11.91
377.496	11.62
377.863	11.68
378.229	11.54
378.596	11.59
378.963	11.82
379.329	11.63
379.696	12.01
380.062	12.16
380.429	12.12
380.795	11.76
381.161	11.83
381.528	11.67
381.894	12.21
382.26	12.24
382.626	12.03
382.993	12
383.359	12.15
383.725	12.56
384.091	12.2
384.457	12.44
384.823	12.45
385.188	12.66
385.554	12.3
385.92	12.6
386.286	12.48
386.651	12.68
387.017	12.6
387.383	12.71
387.748	12.41
388.114	12.6
388.479	12.74
388.845	12.82
389.21	12.74
389.575	12.91
389.94	12.5
390.306	13.12
390.671	12.73
391.036	12.95
391.401	13.38
391.766	12.98
392.131	12.97
392.496	12.9
392.861	12.87
393.226	13.17
393.591	13.16
393.956	13.07
394.32	13.2
394.685	13.52
395.05	13.16
395.414	13.18
395.779	13.27
396.143	13.29
396.508	13.82
396.872	13.72
397.236	13.48
397.601	13.71
397.965	13.26
398.329	13.92
398.694	13.43
399.058	13.68
399.422	13.96
399.786	13.91
400.15	13.99
400.514	13.71
400.878	13.88
401.242	13.86
401.605	13.96
401.969	14.25
402.333	13.93
402.697	14.27
403.06	14.02
403.424	14.22
403.787	14.37
404.151	14.12
404.514	14.14
404.878	14.19
405.241	14.18
405.604	14.28
405.968	14.45
406.331	14.52
406.694	14.45
407.057	14.7
407.42	14.44
407.783	14.52
408.146	14.46
408.509	14.5
408.872	14.58
409.235	14.79
409.598	14.75
409.961	14.74
410.323	14.84
410.686	14.81
411.049	14.61
411.411	14.76
411.774	14.82
412.136	14.96
412.499	14.96
412.861	15.14
413.223	15.14
413.586	14.9
413.948	15.15
414.31	15.24
414.672	15.03
415.035	15.38
415.397	15.46
415.759	15.27
416.121	15.58
416.483	15.53
416.845	15.19
417.206	15.41
417.568	15.47
417.93	15.38
418.292	15.33
418.653	15.45
419.015	15.59
419.377	15.44
419.738	15.46
420.1	15.44
420.461	15.4
420.822	15.44
421.184	15.71
421.545	15.44
421.906	15.57
422.267	15.37
422.629	15.48
422.99	15.45
423.351	15.56
423.712	15.7
424.073	15.81
424.434	15.73
424.795	15.79
425.155	15.71
425.516	15.71
425.877	15.89
426.238	15.94
426.598	16.06
426.959	15.97
427.32	16.06
427.68	16.27
428.041	16.29
428.401	16.24
428.761	16.29
429.122	16.56
429.482	16.39
429.842	16.49
430.202	16.63
430.563	16.62
430.923	16.62
431.283	16.56
431.643	16.7
432.003	16.75
432.363	16.75
432.722	16.6
433.082	16.87
433.442	16.7
433.802	16.78
434.161	16.89
434.521	16.87
434.881	16.83
435.24	16.83
435.6	17.03
435.959	17.04
436.319	16.97
436.678	17.16
437.037	17.4
437.396	17.28
437.756	17.25
438.115	17.24
438.474	17.36
438.833	17.36
439.192	17.23
439.551	17.36
439.91	17.44
440.269	17.45
440.628	17.41
440.987	17.33
441.345	17.33
441.704	17.4
442.063	17.38
442.421	17.48
442.78	17.46
443.138	17.55
443.497	17.47
443.855	17.7
444.214	17.71
444.572	17.88
444.93	17.85
445.288	17.87
445.647	17.82
446.005	17.81
446.363	17.76
446.721	17.75
447.079	17.69
447.437	17.68
447.795	17.77
448.153	17.78
448.51	17.86
448.868	18
449.226	18.04
449.584	18.14
449.941	18.23
450.299	18.12
450.656	18.31
451.014	18.5
451.371	18.55
451.729	18.62
452.086	18.53
452.443	18.59
452.801	18.85
453.158	18.69
453.515	18.53
453.872	18.74
454.229	18.62
454.586	18.86
454.943	18.9
455.3	18.95
455.657	18.79
456.014	18.75
456.371	19.13
456.727	18.97
457.084	19.09
457.441	19.1
457.797	19.03
458.154	19.27
458.51	19.22
458.867	19.08
459.223	19.08
459.58	19.33
459.936	19.11
460.292	19.25
460.648	18.89
461.005	18.94
461.361	18.83
461.717	19.03
462.073	19.2
462.429	19.38
462.785	19.37
463.141	19.45
463.496	19.51
463.852	19.8
464.208	19.65
464.564	19.77
464.919	19.83
465.275	19.84
465.631	19.89
465.986	19.92
466.342	19.92
466.697	19.99
467.052	19.97
467.408	20.06
467.763	20.01
468.118	19.97
468.473	20.12
468.829	20.08
469.184	20.24
469.539	20.43
469.894	20.32
470.249	20.18
470.603	20.4
470.958	20.54
471.313	20.45
471.668	20.63
472.023	20.48
472.377	20.42
472.732	20.49
473.086	20.57
473.441	20.55
473.795	20.83
474.15	20.57
474.504	20.59
474.859	20.71
475.213	20.93
475.567	20.83
475.921	20.95
476.275	20.86
476.63	20.93
476.984	20.93
477.338	21.24
477.692	21.02
478.045	21.03
478.399	20.99
478.753	21.01
479.107	21.06
479.461	21.09
479.814	21.01
480.168	21.11
480.521	21.09
480.875	21.39
481.228	21.3
481.582	21.25
481.935	21.27
482.289	21.31
482.642	21.32
482.995	21.2
483.348	21.25
483.701	21.05
484.055	21
484.408	20.82
484.761	20.53
485.114	20.37
485.466	20.43
485.819	20.62
486.172	20.89
486.525	21.08
486.878	21.19
487.23	21.31
487.583	21.31
487.936	21.21
488.288	21.07
488.641	20.99
488.993	20.94
489.345	21.08
489.698	21.17
490.05	21.3
490.402	21.54
490.754	21.69
491.107	21.86
491.459	22.05
491.811	22.01
492.163	21.93
492.515	21.68
492.866	21.33
493.218	21.45
493.57	21.65
493.922	21.95
494.274	22.18
494.625	22.31
494.977	22.34
495.328	22.49
495.68	22.76
496.031	22.8
496.383	22.78
496.734	22.83
497.086	22.73
497.437	22.8
497.788	22.71
498.139	22.72
498.49	22.62
498.842	22.62
499.193	22.99
499.544	22.93
499.894	22.86
500.245	23.08
500.596	23.14
500.947	23.2
501.298	23.12
501.648	23.21
501.999	23.25
502.35	23.37
502.7	23.47
503.051	23.6
503.401	23.62
503.752	23.52
504.102	23.62
504.452	23.59
504.803	23.48
505.153	23.59
505.503	23.67
505.853	23.58
506.203	23.91
506.553	23.83
506.903	23.9
507.253	23.88
507.603	24.09
507.953	24.03
508.303	24.03
508.652	24.11
509.002	23.96
509.352	23.98
509.701	23.91
510.051	24.14
510.4	23.97
510.75	24.04
511.099	23.95
511.449	24.17
511.798	24.28
512.147	24.25
512.496	24.44
512.846	24.26
513.195	24.31
513.544	24.31
513.893	24.35
514.242	24.44
514.591	24.58
514.939	24.64
515.288	24.58
515.637	24.85
515.986	24.73
516.334	24.87
516.683	24.8
517.032	24.73
517.38	24.91
517.729	24.93
518.077	25.01
518.426	24.84
518.774	24.96
519.122	24.63
519.47	24.74
519.819	24.72
520.167	24.6
520.515	24.74
520.863	24.81
521.211	25.07
521.559	25.01
521.907	25.18
522.255	25.3
522.602	25.4
522.95	25.51
523.298	25.46
523.645	25.52
523.993	25.66
524.341	25.5
524.688	25.68
525.036	25.8
525.383	25.84
525.73	25.67
526.078	25.6
526.425	25.51
526.772	25.35
527.119	25.37
527.466	25.38
527.814	25.5
528.161	25.46
528.508	25.57
528.854	25.49
529.201	25.42
529.548	25.13
529.895	24.97
530.242	25.03
530.588	25.31
530.935	25.51
531.282	25.56
531.628	25.65
531.975	25.91
532.321	25.99
532.667	26.11
533.014	26.26
533.36	26.13
533.706	26.25
534.052	25.97
534.399	25.81
534.745	25.7
535.091	25.86
535.437	26.09
535.783	26.3
536.129	26.37
536.474	26.55
536.82	26.64
537.166	26.68
537.512	26.7
537.857	26.45
538.203	26.55
538.549	26.62
538.894	26.71
539.239	27.12
539.585	27.11
539.93	27.2
540.276	27.22
540.621	27.25
540.966	27.3
541.311	27.37
541.656	27.06
542.001	27.09
542.346	26.71
542.691	26.57
543.036	26.63
543.381	26.88
543.726	26.97
544.071	27.07
544.415	27.08
544.76	27.2
545.105	27.38
545.449	27.53
545.794	27.63
546.138	27.63
546.483	27.62
546.827	27.84
547.171	27.71
547.516	27.94
547.86	27.92
548.204	27.73
548.548	27.8
548.892	28.03
549.236	28.21
549.58	28.27
549.924	28.39
550.268	28.31
550.612	28.56
550.956	28.49
551.3	28.47
551.643	28.75
551.987	28.84
552.33	28.77
552.674	28.97
553.017	28.99
553.361	28.88
553.704	28.92
554.048	28.82
554.391	28.94
554.734	29.02
555.077	29.08
555.42	29.2
555.764	29.01
556.107	29.12
556.45	29.08
556.793	29.62
557.135	29.13
557.478	29.25
557.821	29.42
558.164	29.8
558.507	29.42
558.849	29.28
559.192	29.59
559.534	29.74
559.877	29.71
560.219	29.78
560.562	29.8
560.904	29.93
561.246	29.97
561.589	29.89
561.931	30.04
562.273	29.98
562.615	29.97
562.957	30.02
563.299	29.76
563.641	30.03
563.983	30.23
564.325	30.1
564.667	30.3
565.008	30.09
565.35	30.57
565.692	30.46
566.033	30.34
566.375	30.3
566.716	30.49
567.058	30.42
567.399	30.36
567.741	30.36
568.082	30.1
568.423	30.24
568.764	30.52
569.105	30.51
569.447	30.49
569.788	30.74
570.129	30.43
570.47	30.63
570.811	30.67
571.151	30.84
571.492	30.71
571.833	30.89
572.174	30.96
572.514	30.69
572.855	30.97
573.195	30.68
573.536	31
573.876	30.83
574.217	31.02
574.557	31.06
574.898	31.22
575.238	31.28
575.578	31.31
575.918	31.14
576.258	31.26
576.598	31.28
576.938	31.43
577.278	31.45
577.618	31.57
577.958	31.52
578.298	31.97
578.638	31.65
578.977	31.93
579.317	31.97
579.657	31.99
579.996	32
580.336	31.83
580.675	32.04
581.014	31.87
581.354	32.08
581.693	32.07
582.032	31.96
582.372	32.4
582.711	32.09
583.05	32.62
583.389	32.3
583.728	32.43
584.067	32.38
584.406	32.73
584.745	32.64
585.083	32.87
585.422	32.58
585.761	32.6
586.1	32.64
586.438	32.56
586.777	32.93
587.115	32.87
587.454	32.67
587.792	32.96
588.13	33.28
588.469	33.2
588.807	33.1
589.145	32.91
589.483	32.67
589.821	32.72
590.159	33.15
590.497	33.02
590.835	33.19
591.173	33.04
591.511	33.25
591.849	32.92
592.187	33.1
592.524	33.02
592.862	33.66
593.2	33.34
593.537	33.56
593.875	33.81
594.212	33.62
594.55	33.49
594.887	33.82
595.224	33.43
595.561	33.66
595.899	33.49
596.236	33.63
596.573	33.5
596.91	33.64
597.247	33.74
597.584	33.56
597.921	33.55
598.258	33.68
598.594	33.29
598.931	33.56
599.268	33.7
599.604	34.04
599.941	33.98
600.277	34.05
600.614	34.25
600.95	34.46
601.287	34.38
601.623	34.43
601.959	34.19
602.296	34.32
602.632	34.55
602.968	34.54
603.304	34.58
603.64	34.43
603.976	34.61
604.312	34.43
604.648	34.13
604.984	34.06
605.319	34.42
605.655	34.37
605.991	34.09
606.326	34.33
606.662	34.16
606.998	34.46
607.333	34.56
607.668	34.63
608.004	34.91
608.339	34.66
608.674	34.91
609.01	35.19
609.345	35.11
609.68	34.94
610.015	34.88
610.35	34.96
610.685	34.78
611.02	34.72
611.355	34.95
611.689	35.06
612.024	35.18
612.359	35.15
612.694	35.17
613.028	35.5
613.363	35.48
613.697	35.47
614.032	35.41
614.366	35.56
614.7	35.57
615.035	35.88
615.369	35.73
615.703	35.89
616.037	35.56
616.371	35.98
616.705	35.74
617.039	35.99
617.373	35.67
617.707	35.78
618.041	35.8
618.375	35.85
618.709	35.85
619.042	36.28
619.376	35.73
619.71	36.14
620.043	36.02
620.377	35.87
620.71	36.18
621.043	35.98
621.377	36.38
621.71	36.69
622.043	36.6
622.376	36.17
622.709	36.62
623.043	35.97
623.376	36.54
623.709	36.6
624.041	36.57
624.374	35.98
624.707	36.08
625.04	36.6
625.373	36.42
625.705	37.13
626.038	36.38
626.37	37.02
626.703	36.38
627.035	36.5
627.368	36.52
627.7	36.67
628.032	36.69
628.365	36.59
628.697	36.74
629.029	37.08
629.361	36.78
629.693	37.1
630.025	36.96
630.357	36.95
630.689	37.2
631.021	37.13
631.353	37.45
631.684	37.16
632.016	37.15
632.348	37.36
632.679	37.23
633.011	37.44
633.342	37.19
633.674	37.48
634.005	37.62
634.336	37.51
634.668	37.45
634.999	37.28
635.33	37.58
635.661	37.33
635.992	37.12
636.323	37.67
636.654	37.71
636.985	37.74
637.316	37.78
637.647	37.65
637.977	37.6
638.308	37.66
638.639	37.79
638.969	38.06
639.3	37.47
639.63	37.61
639.961	37.68
640.291	38.23
640.622	37.9
640.952	38.07
641.282	37.77
641.612	37.73
641.943	38.13
642.273	38.35
642.603	38.39
642.933	38.48
643.263	38.71
643.592	38.53
643.922	38.24
644.252	38.15
644.582	38.34
644.911	38.41
645.241	38.6
645.571	38.4
645.9	38.46
646.23	38.33
646.559	38.34
646.888	38.73
647.218	38.72
647.547	38.93
647.876	38.64
648.205	38.38
648.534	38.87
648.863	38.43
649.192	39.16
649.521	38.26
649.85	39.39
650.179	38.61
650.508	38.66
650.837	38.98
651.165	38.85
651.494	38.91
651.822	38.64
652.151	39.62
652.479	39.24
652.808	38.75
653.136	39.19
653.465	39.44
653.793	39.15
654.121	39.55
654.449	39.33
654.777	39.04
655.105	39.18
655.433	39.6
655.761	39.48
656.089	39.84
656.417	39.92
656.745	40.18
657.073	39.84
657.4	39.45
657.728	39.04
658.056	38.79
658.383	39.66
658.711	39.23
659.038	39.96
659.365	39.47
659.693	39.64
660.02	39.48
660.347	39.6
660.674	39.5
661.001	39.56
661.329	39.55
661.656	39.59
661.982	39.87
662.309	40.1
662.636	40
662.963	40.34
663.29	40.27
663.616	40.05
663.943	40.59
664.27	40.5
664.596	40.38
664.923	40.6
665.249	39.87
665.576	40.6
665.902	40.64
666.228	40.75
666.554	40.15
666.881	40.52
667.207	40.91
667.533	40.85
667.859	40.51
668.185	40.56
668.511	40.22
668.837	40.14
669.162	40.77
669.488	40.66
669.814	40.46
670.139	41.17
670.465	40.73
670.791	40.44
671.116	40.11
671.442	40.55
671.767	40.64
