Data from 0066_chest_Reflection__1__139.txt Node

Date: Fri Dec 16 15:00:21 CST 2022
User: ToomeyLab
Spectrometer: FLMS14357
Trigger mode: 0
Integration Time (sec): 1.000000E-2
Scans to average: 100
Electric dark correction enabled: true
Nonlinearity correction enabled: false
Boxcar width: 0
XAxis mode: Wavelengths
Number of Pixels in Spectrum: 2048
>>>>>Begin Spectral Data<<<<<
189.047	-3.42
189.435	-3.42
189.823	-3.42
190.211	-70.42
190.599	-1950
190.987	282.56
191.375	82.62
191.763	-1718.97
192.151	11.09
192.538	92.06
192.926	-682.26
193.314	94.46
193.702	25.79
194.089	27.98
194.477	40.81
194.864	236.09
195.252	11.97
195.639	94.02
196.027	-182.85
196.414	26.79
196.801	69.59
197.189	57.77
197.576	-2.7
197.963	-0.59
198.351	-6.09
198.738	-10.98
199.125	9.47
199.512	-30.18
199.899	9.87
200.286	-27.81
200.673	30.95
201.06	4.8
201.447	16.89
201.833	-9.97
202.22	0.19
202.607	13.04
202.994	-15.5
203.38	-79.41
203.767	-35.23
204.154	-52.97
204.54	43.84
204.927	-0.5
205.313	52.51
205.699	6.14
206.086	-1.11
206.472	-29.66
206.858	16.12
207.245	-11.55
207.631	-24.34
208.017	27.88
208.403	1.37
208.789	-35.35
209.175	29.72
209.561	12.09
209.947	-3.17
210.333	-10.64
210.719	-29.13
211.105	-67.62
211.491	-7.97
211.876	5.41
212.262	-76.64
212.648	-54.64
213.034	-1.98
213.419	18.22
213.805	-24.37
214.19	-14.64
214.576	-37.04
214.961	-2.86
215.346	-34.02
215.732	-47.15
216.117	-62.71
216.502	-19.69
216.888	-27.78
217.273	0.24
217.658	-10.09
218.043	-10.96
218.428	8.06
218.813	-0.65
219.198	-27.12
219.583	10.13
219.968	-9.36
220.353	-2.26
220.738	3.35
221.122	-12.08
221.507	-13.7
221.892	-10.45
222.276	17.68
222.661	11.63
223.046	3.77
223.43	0.95
223.815	3.09
224.199	-8.47
224.583	-2.26
224.968	9.68
225.352	3.41
225.736	5.53
226.121	-2.05
226.505	2.57
226.889	5.64
227.273	3.92
227.657	0.19
228.041	4.34
228.425	6.76
228.809	3.4
229.193	-0.5
229.577	2.34
229.961	4
230.344	3.21
230.728	2.75
231.112	2.38
231.495	2.95
231.879	2.22
232.263	2.19
232.646	1.52
233.03	1.8
233.413	2.19
233.797	3.03
234.18	0.66
234.563	2.39
234.946	3.7
235.33	3.79
235.713	1.87
236.096	3.14
236.479	2.45
236.862	4.16
237.245	2.97
237.628	3.92
238.011	3.27
238.394	4.69
238.777	3.47
239.16	0.37
239.543	2.13
239.925	3.82
240.308	2.43
240.691	2.32
241.073	1.73
241.456	3.19
241.838	2.26
242.221	2.79
242.603	3.04
242.986	3.52
243.368	3.12
243.75	2.99
244.133	3.1
244.515	2.52
244.897	2.89
245.279	3.05
245.661	3.16
246.043	3.26
246.425	2.49
246.807	2.71
247.189	2.73
247.571	2.66
247.953	2.78
248.335	3.12
248.717	3.08
249.098	3.13
249.48	2.73
249.862	3.01
250.243	2.47
250.625	3.47
251.006	2.53
251.388	4.13
251.769	2.26
252.151	3.27
252.532	2.32
252.913	3.08
253.295	2.77
253.676	3
254.057	2.87
254.438	2.31
254.819	2.86
255.2	2.62
255.581	2.52
255.962	3.14
256.343	3.56
256.724	2.57
257.105	3.4
257.486	2.24
257.867	1.1
258.247	3.14
258.628	2.97
259.009	2.44
259.389	3.1
259.77	2.56
260.15	3.32
260.531	3.04
260.911	3.04
261.292	2.82
261.672	2.74
262.052	2.89
262.432	2.74
262.813	2.79
263.193	2.09
263.573	2.2
263.953	2.67
264.333	3.01
264.713	2.84
265.093	2.51
265.473	3.17
265.853	3.44
266.233	2.26
266.612	2.71
266.992	2.98
267.372	2.95
267.752	2.67
268.131	2.71
268.511	3.06
268.89	3.26
269.27	3.44
269.649	3.06
270.029	2.58
270.408	2.6
270.787	2.66
271.167	2.4
271.546	2.09
271.925	2.31
272.304	3.16
272.683	2.17
273.062	3.2
273.441	2.97
273.82	3.07
274.199	2.69
274.578	2.86
274.957	2.8
275.336	3.16
275.715	2.87
276.093	3.58
276.472	2.99
276.851	2.89
277.229	3.74
277.608	2.13
277.986	2.64
278.365	2.63
278.743	2.54
279.122	2.18
279.5	2.32
279.878	1.88
280.257	2.81
280.635	2.03
281.013	3.31
281.391	2.52
281.769	3.03
282.147	2.96
282.525	2.86
282.903	2.72
283.281	2.81
283.659	2.67
284.037	3.04
284.415	3
284.792	2.35
285.17	3.16
285.548	2.08
285.925	2.9
286.303	2.48
286.68	2.93
287.058	2.88
287.435	2.81
287.813	2.91
288.19	3.24
288.567	2.23
288.945	2.76
289.322	2.87
289.699	2.51
290.076	2.87
290.453	2.59
290.83	3.05
291.207	3.09
291.584	2.5
291.961	2.82
292.338	2.91
292.715	2.82
293.092	3.12
293.469	3.26
293.845	3.14
294.222	2.83
294.599	3.26
294.975	2.79
295.352	2.6
295.728	3.11
296.105	2.84
296.481	3.07
296.858	3.09
297.234	3.26
297.61	3.17
297.986	2.88
298.363	2.53
298.739	3.06
299.115	2.76
299.491	3.05
299.867	2.86
300.243	2.78
300.619	2.92
300.995	2.85
301.371	3.11
301.746	2.71
302.122	3.03
302.498	2.73
302.874	3.03
303.249	3.37
303.625	2.96
304	2.47
304.376	2.89
304.751	3.12
305.127	3.14
305.502	3.2
305.878	2.9
306.253	2.75
306.628	3.48
307.003	3.03
307.378	2.81
307.754	3.12
308.129	2.55
308.504	3.02
308.879	3.17
309.254	3.26
309.629	3.27
310.003	3.45
310.378	3.57
310.753	3.3
311.128	2.88
311.502	3.08
311.877	3.2
312.252	3.04
312.626	2.76
313.001	2.81
313.375	3.04
313.75	2.66
314.124	3.44
314.498	3.03
314.873	3
315.247	2.63
315.621	3.4
315.995	3.19
316.369	3.37
316.743	2.85
317.117	3.11
317.491	3.03
317.865	2.31
318.239	3.65
318.613	2.72
318.987	3.24
319.361	2.89
319.734	3
320.108	2.53
320.482	3.43
320.855	3.57
321.229	3.7
321.602	2.87
321.976	2.96
322.349	2.29
322.723	2.44
323.096	2.88
323.469	2.74
323.843	3.14
324.216	3.09
324.589	4.01
324.962	3.2
325.335	3.1
325.708	3.57
326.081	3.78
326.454	3.33
326.827	3.29
327.2	3.55
327.573	2.91
327.945	2.74
328.318	3.14
328.691	3.24
329.063	3.02
329.436	3.4
329.809	2.8
330.181	3.09
330.553	3.6
330.926	3.56
331.298	3.33
331.671	3.24
332.043	3.3
332.415	3.45
332.787	4.46
333.159	3.22
333.532	2.85
333.904	3.55
334.276	3.23
334.648	3.25
335.02	2.97
335.391	3.49
335.763	3.14
336.135	3.45
336.507	3.66
336.879	3.12
337.25	3.6
337.622	3.47
337.993	3.68
338.365	3.46
338.736	3.28
339.108	3.34
339.479	3.11
339.851	3.64
340.222	3.57
340.593	3.35
340.964	3.4
341.336	2.96
341.707	3.32
342.078	3.33
342.449	3.51
342.82	3.06
343.191	3.06
343.562	3.24
343.933	3.69
344.303	3.53
344.674	3.33
345.045	3.54
345.416	3.38
345.786	3.1
346.157	3.36
346.527	2.89
346.898	3.15
347.268	3.12
347.639	3.13
348.009	3.62
348.38	3.22
348.75	3.2
349.12	3.58
349.49	3.21
349.861	3.74
350.231	3.61
350.601	3.43
350.971	3.52
351.341	3.31
351.711	3.29
352.081	3.34
352.45	3.6
352.82	3.37
353.19	3.34
353.56	2.96
353.929	3.4
354.299	3.29
354.669	3.44
355.038	3.26
355.408	3.57
355.777	3.11
356.147	3.77
356.516	3.69
356.885	3.33
357.254	3.46
357.624	3.41
357.993	3.48
358.362	3.79
358.731	3.39
359.1	3.49
359.469	3.55
359.838	3.27
360.207	3.19
360.576	3.4
360.945	3.41
361.314	3.3
361.682	2.98
362.051	3.15
362.42	3.56
362.788	3.57
363.157	3.48
363.525	3.42
363.894	3.04
364.262	3.43
364.631	4.1
364.999	3.14
365.367	3.51
365.735	3.28
366.104	3.29
366.472	3.57
366.84	3.77
367.208	3.51
367.576	3.64
367.944	3.59
368.312	3.03
368.68	3.57
369.048	3.72
369.416	3.52
369.783	3.33
370.151	3.65
370.519	3.52
370.886	3.37
371.254	3.21
371.621	3.3
371.989	3.5
372.356	3.62
372.724	3.81
373.091	3.3
373.458	3.47
373.826	3.4
374.193	4.19
374.56	3.35
374.927	3.34
375.294	3.83
375.661	3.54
376.028	3.54
376.395	3.6
376.762	3.79
377.129	3.64
377.496	3.45
377.863	3.52
378.229	3.58
378.596	3.43
378.963	3.52
379.329	3.72
379.696	3.22
380.062	3.68
380.429	3.44
380.795	3.33
381.161	3.5
381.528	3.31
381.894	3.69
382.26	3.64
382.626	3.35
382.993	3.84
383.359	3.69
383.725	3.71
384.091	3.61
384.457	3.79
384.823	3.76
385.188	3.96
385.554	3.75
385.92	3.73
386.286	3.72
386.651	3.59
387.017	3.63
387.383	3.58
387.748	3.48
388.114	3.75
388.479	3.87
388.845	3.75
389.21	3.99
389.575	3.76
389.94	3.58
390.306	3.48
390.671	3.69
391.036	3.94
391.401	4.05
391.766	3.73
392.131	3.62
392.496	3.57
392.861	3.59
393.226	3.8
393.591	3.97
393.956	3.94
394.32	3.67
394.685	3.83
395.05	3.47
395.414	3.86
395.779	3.74
396.143	3.81
396.508	3.82
396.872	3.79
397.236	3.57
397.601	3.87
397.965	3.73
398.329	4.05
398.694	3.72
399.058	3.79
399.422	3.95
399.786	3.79
400.15	3.77
400.514	3.74
400.878	3.81
401.242	3.78
401.605	3.77
401.969	3.93
402.333	3.96
402.697	3.93
403.06	4.08
403.424	3.83
403.787	3.89
404.151	3.67
404.514	3.89
404.878	3.86
405.241	3.86
405.604	3.83
405.968	3.83
406.331	3.74
406.694	3.75
407.057	4.09
407.42	3.82
407.783	3.92
408.146	3.77
408.509	3.69
408.872	3.61
409.235	4.02
409.598	4.01
409.961	3.79
410.323	3.65
410.686	3.8
411.049	3.76
411.411	3.92
411.774	3.61
412.136	3.92
412.499	3.73
412.861	3.73
413.223	4.06
413.586	3.82
413.948	3.92
414.31	3.85
414.672	3.87
415.035	3.92
415.397	3.9
415.759	3.84
416.121	3.96
416.483	3.95
416.845	3.89
417.206	4.06
417.568	4.05
417.93	3.8
418.292	3.97
418.653	4.07
419.015	3.99
419.377	3.95
419.738	3.9
420.1	3.77
420.461	3.73
420.822	3.82
421.184	3.95
421.545	3.82
421.906	3.76
422.267	3.72
422.629	3.86
422.99	3.87
423.351	3.81
423.712	3.84
424.073	3.9
424.434	3.8
424.795	3.86
425.155	3.86
425.516	3.85
425.877	3.94
426.238	3.86
426.598	3.9
426.959	3.82
427.32	3.88
427.68	3.98
428.041	4
428.401	4.08
428.761	3.96
429.122	3.96
429.482	4.01
429.842	4.06
430.202	3.91
430.563	4.09
430.923	4.04
431.283	4
431.643	4.02
432.003	4.11
432.363	4.1
432.722	3.94
433.082	3.85
433.442	3.95
433.802	4.01
434.161	3.95
434.521	4.01
434.881	4.07
435.24	3.96
435.6	4.13
435.959	3.97
436.319	3.84
436.678	4.11
437.037	4.08
437.396	4.18
437.756	4.15
438.115	4.18
438.474	4.2
438.833	4.09
439.192	4.17
439.551	4.15
439.91	4.15
440.269	4.22
440.628	4.05
440.987	4.1
441.345	3.96
441.704	4.07
442.063	3.96
442.421	4.05
442.78	4.1
443.138	4.07
443.497	3.96
443.855	4.07
444.214	4.16
444.572	4.16
444.93	4.18
445.288	4.19
445.647	4.22
446.005	4.08
446.363	4.09
446.721	4.01
447.079	4.1
447.437	4.11
447.795	4.09
448.153	4.12
448.51	4.02
448.868	4.23
449.226	4.17
449.584	4.14
449.941	4.19
450.299	4.16
450.656	4.18
451.014	4.25
451.371	4.31
451.729	4.2
452.086	4.09
452.443	4.13
452.801	4.32
453.158	4.28
453.515	4.27
453.872	4.31
454.229	4.24
454.586	4.33
454.943	4.36
455.3	4.43
455.657	4.14
456.014	4.29
456.371	4.38
456.727	4.2
457.084	4.15
457.441	4.09
457.797	4.11
458.154	4.3
458.51	4.33
458.867	4.16
459.223	4.22
459.58	4.38
459.936	4.18
460.292	4.32
460.648	4.14
461.005	4.18
461.361	4.16
461.717	4.19
462.073	4.37
462.429	4.37
462.785	4.43
463.141	4.56
463.496	4.32
463.852	4.4
464.208	4.49
464.564	4.13
464.919	4.43
465.275	4.46
465.631	4.29
465.986	4.27
466.342	4.49
466.697	4.37
467.052	4.43
467.408	4.38
467.763	4.41
468.118	4.44
468.473	4.43
468.829	4.39
469.184	4.61
469.539	4.32
469.894	4.33
470.249	4.53
470.603	4.55
470.958	4.64
471.313	4.47
471.668	4.52
472.023	4.7
472.377	4.47
472.732	4.54
473.086	4.32
473.441	4.47
473.795	4.52
474.15	4.43
474.504	4.58
474.859	4.58
475.213	4.39
475.567	4.36
475.921	4.59
476.275	4.43
476.63	4.47
476.984	4.55
477.338	4.64
477.692	4.66
478.045	4.53
478.399	4.58
478.753	4.37
479.107	4.56
479.461	4.47
479.814	4.54
480.168	4.57
480.521	4.52
480.875	4.71
481.228	4.62
481.582	4.51
481.935	4.52
482.289	4.45
482.642	4.53
482.995	4.6
483.348	4.38
483.701	4.51
484.055	4.48
484.408	4.43
484.761	4.27
485.114	4.25
485.466	4.22
485.819	4.25
486.172	4.38
486.525	4.44
486.878	4.42
487.23	4.43
487.583	4.44
487.936	4.43
488.288	4.4
488.641	4.38
488.993	4.3
489.345	4.35
489.698	4.43
490.05	4.4
490.402	4.55
490.754	4.57
491.107	4.55
491.459	4.67
491.811	4.63
492.163	4.6
492.515	4.56
492.866	4.4
493.218	4.43
493.57	4.52
493.922	4.58
494.274	4.61
494.625	4.57
494.977	4.6
495.328	4.78
495.68	4.83
496.031	4.87
496.383	4.67
496.734	4.79
497.086	4.66
497.437	4.73
497.788	4.74
498.139	4.67
498.49	4.75
498.842	4.7
499.193	4.77
499.544	4.84
499.894	4.9
500.245	4.83
500.596	4.89
500.947	4.71
501.298	4.69
501.648	4.79
501.999	4.87
502.35	5.05
502.7	5.04
503.051	4.99
503.401	4.88
503.752	4.93
504.102	4.87
504.452	4.92
504.803	4.8
505.153	4.92
505.503	4.83
505.853	4.9
506.203	4.96
506.553	5.02
506.903	4.95
507.253	4.94
507.603	4.96
507.953	5.06
508.303	5.02
508.652	5.07
509.002	5.08
509.352	5
509.701	5.03
510.051	5.06
510.4	4.93
510.75	5.06
511.099	4.91
511.449	4.99
511.798	5.14
512.147	5
512.496	5.09
512.846	5.08
513.195	5.04
513.544	5.04
513.893	4.93
514.242	5.13
514.591	5.14
514.939	5.1
515.288	5.21
515.637	5.26
515.986	5.05
516.334	5.32
516.683	5.22
517.032	5.05
517.38	5.13
517.729	5.29
518.077	5.17
518.426	5.17
518.774	5.12
519.122	5.14
519.47	5.12
519.819	5.15
520.167	5.14
520.515	5.15
520.863	5.16
521.211	5.24
521.559	5.29
521.907	5.23
522.255	5.3
522.602	5.4
522.95	5.45
523.298	5.34
523.645	5.25
523.993	5.48
524.341	5.43
524.688	5.38
525.036	5.63
525.383	5.51
525.73	5.47
526.078	5.36
526.425	5.4
526.772	5.36
527.119	5.27
527.466	5.32
527.814	5.35
528.161	5.4
528.508	5.37
528.854	5.32
529.201	5.31
529.548	5.3
529.895	5.18
530.242	5.19
530.588	5.29
530.935	5.35
531.282	5.35
531.628	5.41
531.975	5.52
532.321	5.53
532.667	5.61
533.014	5.57
533.36	5.54
533.706	5.69
534.052	5.61
534.399	5.52
534.745	5.51
535.091	5.48
535.437	5.58
535.783	5.68
536.129	5.72
536.474	5.81
536.82	5.66
537.166	5.87
537.512	5.85
537.857	5.69
538.203	5.74
538.549	5.77
538.894	5.75
539.239	5.94
539.585	5.92
539.93	5.98
540.276	5.89
540.621	5.98
540.966	5.99
541.311	6.02
541.656	5.91
542.001	6.03
542.346	5.86
542.691	5.77
543.036	5.79
543.381	5.85
543.726	5.92
544.071	5.97
544.415	5.95
544.76	5.94
545.105	6.09
545.449	6
545.794	6.1
546.138	6.15
546.483	6.15
546.827	6.09
547.171	6.21
547.516	6.36
547.86	6.17
548.204	6.17
548.548	6.31
548.892	6.26
549.236	6.36
549.58	6.41
549.924	6.52
550.268	6.56
550.612	6.5
550.956	6.46
551.3	6.52
551.643	6.59
551.987	6.68
552.33	6.54
552.674	6.66
553.017	6.64
553.361	6.58
553.704	6.56
554.048	6.69
554.391	6.59
554.734	6.71
555.077	6.82
555.42	6.73
555.764	6.8
556.107	6.8
556.45	6.74
556.793	7.01
557.135	7.11
557.478	6.78
557.821	6.97
558.164	7.01
558.507	6.98
558.849	6.95
559.192	7.02
559.534	6.85
559.877	7.1
560.219	7.23
560.562	7.2
560.904	7.08
561.246	7.36
561.589	7.16
561.931	7.49
562.273	7.14
562.615	7.41
562.957	7.23
563.299	7.28
563.641	7.54
563.983	7.41
564.325	7.01
564.667	7.34
565.008	7.25
565.35	7.49
565.692	7.63
566.033	7.48
566.375	7.26
566.716	7.56
567.058	7.64
567.399	7.51
567.741	7.6
568.082	7.57
568.423	7.49
568.764	7.69
569.105	7.8
569.447	7.73
569.788	7.76
570.129	7.86
570.47	7.82
570.811	7.87
571.151	7.88
571.492	7.92
571.833	7.83
572.174	7.75
572.514	7.91
572.855	7.79
573.195	7.78
573.536	7.91
573.876	7.8
574.217	7.87
574.557	8.08
574.898	8.02
575.238	8.12
575.578	8.26
575.918	8.24
576.258	8.23
576.598	8.15
576.938	8.45
577.278	8.18
577.618	8.2
577.958	8.29
578.298	8.42
578.638	8.54
578.977	8.45
579.317	8.53
579.657	8.69
579.996	8.68
580.336	8.46
580.675	8.89
581.014	8.46
581.354	8.75
581.693	8.86
582.032	8.68
582.372	8.86
582.711	8.72
583.05	8.96
583.389	8.85
583.728	8.97
584.067	8.8
584.406	8.97
584.745	8.92
585.083	9.19
585.422	9.14
585.761	9.1
586.1	9.24
586.438	9.08
586.777	9.15
587.115	9.13
587.454	9.27
587.792	9.21
588.13	9.55
588.469	9.51
588.807	9.47
589.145	9.45
589.483	9.31
589.821	9.49
590.159	9.37
590.497	9.38
590.835	9.53
591.173	9.71
591.511	9.78
591.849	9.64
592.187	9.79
592.524	9.63
592.862	9.61
593.2	9.74
593.537	9.83
593.875	9.86
594.212	9.84
594.55	10.07
594.887	10.11
595.224	9.86
595.561	9.86
595.899	10.14
596.236	10.18
596.573	9.89
596.91	10.18
597.247	10.15
597.584	10.2
597.921	10.31
598.258	10.28
598.594	10.09
598.931	10.16
599.268	10.22
599.604	10.3
599.941	10.36
600.277	10.4
600.614	10.64
600.95	10.79
601.287	10.63
601.623	10.97
601.959	10.59
602.296	10.78
602.632	10.97
602.968	10.77
603.304	10.88
603.64	10.76
603.976	10.81
604.312	11.07
604.648	10.96
604.984	10.7
605.319	10.93
605.655	10.92
605.991	10.91
606.326	11
606.662	11.08
606.998	11.13
607.333	11.04
607.668	11.21
608.004	11.11
608.339	11.25
608.674	11.17
609.01	11.38
609.345	11.51
609.68	11.2
610.015	11.34
610.35	11.57
610.685	11.51
611.02	11.43
611.355	11.54
611.689	11.48
612.024	11.69
612.359	11.59
612.694	12.04
613.028	12.1
613.363	11.74
613.697	12.15
614.032	11.98
614.366	11.89
614.7	11.93
615.035	11.96
615.369	12.29
615.703	12.32
616.037	12.1
616.371	12.02
616.705	12.31
617.039	12.47
617.373	12.35
617.707	12.55
618.041	12.53
618.375	12.62
618.709	12.39
619.042	12.44
619.376	12.51
619.71	12.42
620.043	12.73
620.377	12.75
620.71	12.85
621.043	12.56
621.377	12.89
621.71	13.25
622.043	12.95
622.376	13.11
622.709	13.08
623.043	13.13
623.376	13.09
623.709	13.08
624.041	13.07
624.374	12.69
624.707	13.3
625.04	13.18
625.373	12.98
625.705	13.92
626.038	13.27
626.37	13.31
626.703	13.48
627.035	13.7
627.368	13.44
627.7	13.59
628.032	13.43
628.365	13.3
628.697	13.61
629.029	13.74
629.361	13.6
629.693	13.82
630.025	13.74
630.357	13.83
630.689	14.11
631.021	13.84
631.353	13.84
631.684	14.34
632.016	13.86
632.348	14.36
632.679	14
633.011	14.73
633.342	13.84
633.674	14.15
634.005	14.17
634.336	14.48
634.668	14.61
634.999	14.41
635.33	14.12
635.661	14.51
635.992	14.21
636.323	14.37
636.654	14.67
636.985	14.4
637.316	14.74
637.647	14.8
637.977	14.7
638.308	14.72
638.639	15.01
638.969	14.82
639.3	14.95
639.63	15.12
639.961	15.11
640.291	15.38
640.622	15.17
640.952	15.2
641.282	14.84
641.612	15.03
641.943	15.55
642.273	15.46
642.603	15.09
642.933	15.6
643.263	15.82
643.592	15.65
643.922	15.85
644.252	15.71
644.582	15.77
644.911	15.4
645.241	15.55
645.571	15.85
645.9	15.81
646.23	15.84
646.559	15.94
646.888	15.5
647.218	16.24
647.547	16.13
647.876	16.1
648.205	15.95
648.534	16.21
648.863	16.24
649.192	16.18
649.521	16.16
649.85	16.46
650.179	16.09
650.508	16.27
650.837	16.31
651.165	16.43
651.494	16.51
651.822	16.59
652.151	16.79
652.479	17.03
652.808	16.35
653.136	16.58
653.465	16.92
653.793	16.99
654.121	16.7
654.449	16.96
654.777	17
655.105	17.2
655.433	17.29
655.761	16.71
656.089	16.96
656.417	17.16
656.745	17.86
657.073	17.51
657.4	17.76
657.728	17.01
658.056	16.8
658.383	17.44
658.711	16.82
659.038	17.27
659.365	17.71
659.693	17.35
660.02	17.4
660.347	17.75
660.674	17.39
661.001	17.26
661.329	17.56
661.656	17.64
661.982	17.74
662.309	17.52
662.636	17.73
662.963	18.01
663.29	17.96
663.616	17.93
663.943	18.79
664.27	18.18
664.596	17.91
664.923	18.42
665.249	18.13
665.576	18.42
665.902	18.26
666.228	18.21
666.554	18.04
666.881	19.11
667.207	18.19
667.533	18.76
667.859	18.43
668.185	18.68
668.511	18.8
668.837	18.57
669.162	18.95
669.488	18.86
669.814	18.92
670.139	19.32
670.465	19.2
670.791	18.89
671.116	18.64
671.442	18.93
671.767	18.82
672.092	18.78
672.418	19.31
672.743	19.02
673.068	18.34
673.393	19.15
673.718	19.55
674.043	19.31
674.368	19.38
674.693	19.62
675.018	18.92
675.343	19.33
675.667	19.38
675.992	18.61
676.317	19.6
676.641	20.16
676.966	19.88
677.29	20.2
677.615	19.66
677.939	19.77
678.264	19.9
678.588	19.75
678.912	20.72
679.236	19.51
679.56	19.4
679.885	20.31
680.209	19.82
680.532	19.95
680.856	20.46
681.18	19.55
681.504	19.96
681.828	19.75
682.152	20.27
682.475	20.24
682.799	20.24
683.122	20.21
683.446	20.67
683.769	20.94
684.093	20.76
684.416	20.31
684.739	21.07
685.062	20.99
685.386	20.75
685.709	20.45
686.032	21.01
