Data from 0066_crown_Reflection__4__147.txt Node

Date: Fri Dec 16 15:04:26 CST 2022
User: ToomeyLab
Spectrometer: FLMS14357
Trigger mode: 0
Integration Time (sec): 1.000000E-2
Scans to average: 100
Electric dark correction enabled: true
Nonlinearity correction enabled: false
Boxcar width: 0
XAxis mode: Wavelengths
Number of Pixels in Spectrum: 2048
>>>>>Begin Spectral Data<<<<<
189.047	39.78
189.435	39.78
189.823	39.78
190.211	-30.3
190.599	-3053.41
190.987	94.01
191.375	-47.35
191.763	2365.95
192.151	46.91
192.538	119.93
192.926	296.37
193.314	64.82
193.702	0.04
194.089	77.29
194.477	251.96
194.864	-97.28
195.252	85.49
195.639	68.13
196.027	181.7
196.414	17.68
196.801	-88.53
197.189	148.84
197.576	-15.39
197.963	-162.4
198.351	19.4
198.738	-28.32
199.125	34.63
199.512	7.45
199.899	24.49
200.286	-41.28
200.673	1.92
201.06	34.88
201.447	22.23
201.833	-14.44
202.22	9.07
202.607	8.56
202.994	18.02
203.38	-78.78
203.767	-21.17
204.154	-40.66
204.54	29.26
204.927	14.92
205.313	52.54
205.699	22.61
206.086	-7.26
206.472	-13.71
206.858	1.99
207.245	7.26
207.631	-0.63
208.017	24.96
208.403	22.57
208.789	0.23
209.175	51.74
209.561	14.36
209.947	-9.93
210.333	-81.63
210.719	28.65
211.105	-8.74
211.491	2.28
211.876	12.67
212.262	-26.82
212.648	-45.48
213.034	3.55
213.419	5.46
213.805	-1.86
214.19	7.9
214.576	-12.44
214.961	11.84
215.346	-16.93
215.732	-18.25
216.117	-1.06
216.502	-11
216.888	4.71
217.273	38.75
217.658	10.69
218.043	16.23
218.428	2.19
218.813	19.78
219.198	-19.65
219.583	11.47
219.968	16.23
220.353	18.84
220.738	-5.76
221.122	3.69
221.507	-1
221.892	0.14
222.276	6.99
222.661	9.16
223.046	19.35
223.43	8.01
223.815	9.69
224.199	16.73
224.583	7.33
224.968	15
225.352	10.31
225.736	7.41
226.121	6.03
226.505	13.57
226.889	15.65
227.273	11.84
227.657	14.48
228.041	11.1
228.425	12.63
228.809	11.92
229.193	10.49
229.577	12.39
229.961	12.08
230.344	13.51
230.728	12.36
231.112	11.78
231.495	11.76
231.879	12.46
232.263	11.87
232.646	11.17
233.03	10.3
233.413	12.53
233.797	12.07
234.18	10.07
234.563	9.3
234.946	11.12
235.33	11.82
235.713	11.82
236.096	11.41
236.479	12.3
236.862	11.56
237.245	12.74
237.628	11.78
238.011	11.55
238.394	12.26
238.777	12
239.16	7.81
239.543	9.37
239.925	11.18
240.308	10.41
240.691	10.44
241.073	10.03
241.456	10.49
241.838	12.2
242.221	11.75
242.603	11.93
242.986	12.03
243.368	11.14
243.75	10.34
244.133	11.14
244.515	10.86
244.897	10.54
245.279	10.27
245.661	11.27
246.043	11.43
246.425	10.28
246.807	11.03
247.189	10
247.571	10.58
247.953	10.45
248.335	10.38
248.717	10.24
249.098	10.11
249.48	9.87
249.862	10.17
250.243	10.25
250.625	10.55
251.006	9.93
251.388	9.78
251.769	9.79
252.151	9.37
252.532	9.53
252.913	10.24
253.295	10
253.676	9.68
254.057	9.23
254.438	9.59
254.819	9.23
255.2	9.07
255.581	10.28
255.962	8.78
256.343	9.81
256.724	9.73
257.105	8.94
257.486	9.35
257.867	8.03
258.247	9.11
258.628	9.06
259.009	9.63
259.389	9.41
259.77	9.15
260.15	9.42
260.531	9.18
260.911	8.98
261.292	9.12
261.672	8.56
262.052	8.93
262.432	8.65
262.813	9.22
263.193	8.35
263.573	8.51
263.953	8.83
264.333	8.23
264.713	8.51
265.093	9.03
265.473	8.82
265.853	8.36
266.233	8.02
266.612	9.31
266.992	8.17
267.372	8.72
267.752	8.1
268.131	8.89
268.511	8.68
268.89	9.1
269.27	8.58
269.649	8.61
270.029	8.8
270.408	8.73
270.787	8
271.167	8.16
271.546	7.46
271.925	8.34
272.304	8.61
272.683	8.23
273.062	8.63
273.441	8.62
273.82	8.3
274.199	8.63
274.578	8.21
274.957	8.4
275.336	8.48
275.715	8.64
276.093	8.8
276.472	8.02
276.851	8.67
277.229	8.89
277.608	8.22
277.986	8.5
278.365	7.85
278.743	7.6
279.122	7.69
279.5	7.72
279.878	7.34
280.257	8.11
280.635	7.73
281.013	7.74
281.391	7.77
281.769	7.87
282.147	8.47
282.525	8.22
282.903	7.93
283.281	8.66
283.659	8.09
284.037	8.1
284.415	8.39
284.792	7.83
285.17	7.61
285.548	7.94
285.925	7.86
286.303	7.83
286.68	8.02
287.058	8.02
287.435	7.79
287.813	7.81
288.19	7.75
288.567	7.67
288.945	7.49
289.322	8
289.699	7.69
290.076	8.27
290.453	8.01
290.83	7.78
291.207	7.91
291.584	7.76
291.961	8.05
292.338	7.82
292.715	7.42
293.092	7.55
293.469	7.27
293.845	7.59
294.222	8.06
294.599	7.98
294.975	7.83
295.352	7.41
295.728	7.94
296.105	7.52
296.481	8.12
296.858	7.72
297.234	7.97
297.61	7.78
297.986	7.79
298.363	7.46
298.739	7.88
299.115	7.37
299.491	7.52
299.867	7.87
300.243	7.3
300.619	7.28
300.995	8.08
301.371	8.42
301.746	7.32
302.122	7.72
302.498	7.53
302.874	7.87
303.249	8.06
303.625	7.73
304	7.26
304.376	7.8
304.751	7.72
305.127	7.8
305.502	7.64
305.878	7.35
306.253	7.36
306.628	7.8
307.003	7.58
307.378	7.4
307.754	7.61
308.129	7.39
308.504	7.99
308.879	7.2
309.254	8.12
309.629	7.73
310.003	7.91
310.378	7.62
310.753	7.84
311.128	7.3
311.502	7.37
311.877	7.86
312.252	7.79
312.626	7.32
313.001	7.34
313.375	7.44
313.75	7.37
314.124	7.51
314.498	7.08
314.873	7.57
315.247	7.37
315.621	7.96
315.995	7.35
316.369	7.46
316.743	7.75
317.117	7.35
317.491	7.61
317.865	7.29
318.239	7.8
318.613	7.64
318.987	7.61
319.361	7.81
319.734	7.58
320.108	7.74
320.482	7.84
320.855	7.64
321.229	8.09
321.602	7.47
321.976	7.06
322.349	7.11
322.723	7.32
323.096	7.4
323.469	7.04
323.843	8.03
324.216	7.02
324.589	8.02
324.962	8.19
325.335	7.74
325.708	7.72
326.081	7.96
326.454	7.51
326.827	7.48
327.2	8.31
327.573	7.63
327.945	7.43
328.318	7.81
328.691	7.06
329.063	7.67
329.436	7.67
329.809	7.22
330.181	7.6
330.553	7.62
330.926	7.71
331.298	7.7
331.671	7.73
332.043	8.08
332.415	8.27
332.787	8.26
333.159	7.89
333.532	8.02
333.904	7.72
334.276	8.06
334.648	7.61
335.02	7.66
335.391	7.66
335.763	7.65
336.135	7.67
336.507	8.09
336.879	8.14
337.25	7.81
337.622	7.79
337.993	8.01
338.365	7.39
338.736	7.76
339.108	7.5
339.479	7.82
339.851	7.89
340.222	7.96
340.593	7.76
340.964	8.26
341.336	7.39
341.707	7.78
342.078	7.79
342.449	8.05
342.82	7.83
343.191	7.47
343.562	7.88
343.933	8.04
344.303	8
344.674	8.02
345.045	7.84
345.416	7.87
345.786	7.85
346.157	7.95
346.527	7.85
346.898	7.8
347.268	7.91
347.639	8.2
348.009	8.26
348.38	8.07
348.75	7.66
349.12	8.16
349.49	8.11
349.861	8.71
350.231	8
350.601	8.38
350.971	8
351.341	8.19
351.711	8.43
352.081	8.08
352.45	8.22
352.82	8.25
353.19	8.2
353.56	8.2
353.929	8.59
354.299	7.95
354.669	8.38
355.038	8.33
355.408	8.62
355.777	8.1
356.147	8.7
356.516	8.53
356.885	8.19
357.254	8.47
357.624	8.24
357.993	8.3
358.362	8.28
358.731	8.25
359.1	8.63
359.469	8.13
359.838	8.33
360.207	8.05
360.576	8.23
360.945	8.36
361.314	8.24
361.682	8.31
362.051	8.13
362.42	8.42
362.788	8.64
363.157	8.32
363.525	8.26
363.894	8.06
364.262	8.08
364.631	8.97
364.999	8.42
365.367	8.57
365.735	8.08
366.104	8.58
366.472	8.51
366.84	8.39
367.208	8.25
367.576	8.36
367.944	8.58
368.312	8.26
368.68	8.84
369.048	8.68
369.416	8.36
369.783	8.67
370.151	8.63
370.519	8.51
370.886	8.69
371.254	8.62
371.621	8.43
371.989	8.65
372.356	8.62
372.724	8.44
373.091	8.45
373.458	8.45
373.826	8.49
374.193	9.09
374.56	8.36
374.927	8.6
375.294	8.94
375.661	8.72
376.028	8.62
376.395	8.47
376.762	8.62
377.129	8.44
377.496	8.82
377.863	8.57
378.229	8.64
378.596	8.56
378.963	8.48
379.329	8.6
379.696	8.64
380.062	8.82
380.429	8.59
380.795	8.49
381.161	8.93
381.528	8.18
381.894	8.8
382.26	8.73
382.626	8.6
382.993	8.47
383.359	8.33
383.725	9
384.091	8.73
384.457	8.81
384.823	8.58
385.188	8.6
385.554	8.91
385.92	9.06
386.286	8.87
386.651	8.59
387.017	8.7
387.383	8.84
387.748	8.75
388.114	8.79
388.479	9.04
388.845	8.81
389.21	8.87
389.575	8.88
389.94	8.6
390.306	8.83
390.671	8.83
391.036	8.81
391.401	9.17
391.766	8.92
392.131	9.02
392.496	8.81
392.861	8.65
393.226	8.96
393.591	8.88
393.956	8.94
394.32	8.95
394.685	8.93
395.05	8.77
395.414	8.88
395.779	9.01
396.143	8.8
396.508	8.69
396.872	8.96
397.236	8.56
397.601	8.82
397.965	8.7
398.329	9.12
398.694	8.8
399.058	8.96
399.422	9.15
399.786	8.99
400.15	8.85
400.514	8.76
400.878	8.74
401.242	8.84
401.605	8.73
401.969	8.75
402.333	8.77
402.697	9.14
403.06	8.93
403.424	8.86
403.787	9.01
404.151	8.81
404.514	8.79
404.878	9.02
405.241	8.81
405.604	8.89
405.968	8.96
406.331	9.07
406.694	8.93
407.057	9.18
407.42	9.1
407.783	8.86
408.146	8.69
408.509	8.84
408.872	8.84
409.235	9.05
409.598	8.95
409.961	9.11
410.323	8.93
410.686	8.93
411.049	8.82
411.411	8.98
411.774	8.95
412.136	8.77
412.499	8.91
412.861	8.53
413.223	9.14
413.586	8.93
413.948	8.93
414.31	9.09
414.672	8.99
415.035	9.15
415.397	9.29
415.759	8.84
416.121	9.13
416.483	9.1
416.845	9.11
417.206	8.96
417.568	9.05
417.93	8.82
418.292	9.11
418.653	9.09
419.015	9
419.377	9
419.738	8.91
420.1	8.91
420.461	8.77
420.822	8.97
421.184	8.85
421.545	8.85
421.906	8.9
422.267	8.68
422.629	8.8
422.99	8.77
423.351	8.8
423.712	8.76
424.073	8.9
424.434	8.74
424.795	8.77
425.155	8.83
425.516	8.76
425.877	8.77
426.238	8.66
426.598	8.83
426.959	8.79
427.32	8.84
427.68	8.88
428.041	8.88
428.401	8.82
428.761	8.93
429.122	8.73
429.482	8.9
429.842	8.96
430.202	8.88
430.563	8.94
430.923	9.03
431.283	9.17
431.643	9.04
432.003	9.03
432.363	8.98
432.722	8.82
433.082	9.01
433.442	8.95
433.802	9.05
434.161	8.81
434.521	8.92
434.881	8.89
435.24	8.85
435.6	8.85
435.959	8.87
436.319	8.68
436.678	8.87
437.037	8.95
437.396	8.8
437.756	8.85
438.115	9.06
438.474	9.07
438.833	8.91
439.192	9.17
439.551	8.9
439.91	8.95
440.269	8.96
440.628	8.96
440.987	8.83
441.345	8.85
441.704	8.87
442.063	8.83
442.421	8.84
442.78	8.71
443.138	8.81
443.497	8.76
443.855	8.71
444.214	8.75
444.572	8.96
444.93	8.86
445.288	9.03
445.647	8.79
446.005	8.74
446.363	9.06
446.721	8.63
447.079	8.77
447.437	8.86
447.795	8.64
448.153	8.76
448.51	8.67
448.868	8.68
449.226	8.59
449.584	8.67
449.941	8.89
450.299	8.69
450.656	8.74
451.014	8.86
451.371	8.92
451.729	8.81
452.086	8.6
452.443	8.45
452.801	8.96
453.158	8.7
453.515	8.91
453.872	8.95
454.229	8.64
454.586	8.69
454.943	8.69
455.3	8.8
455.657	8.67
456.014	8.79
456.371	8.84
456.727	8.66
457.084	8.69
457.441	8.65
457.797	8.74
458.154	8.71
458.51	8.82
458.867	8.58
459.223	8.77
459.58	8.75
459.936	8.74
460.292	8.67
460.648	8.69
461.005	8.76
461.361	8.6
461.717	8.67
462.073	8.63
462.429	8.52
462.785	8.69
463.141	8.76
463.496	8.6
463.852	8.8
464.208	8.71
464.564	8.72
464.919	8.69
465.275	8.84
465.631	8.66
465.986	8.75
466.342	8.95
466.697	8.71
467.052	8.62
467.408	8.7
467.763	8.58
468.118	8.71
468.473	8.66
468.829	8.56
469.184	8.66
469.539	8.69
469.894	8.63
470.249	8.72
470.603	8.71
470.958	8.76
471.313	8.58
471.668	8.76
472.023	8.85
472.377	8.7
472.732	8.61
473.086	8.58
473.441	8.65
473.795	8.81
474.15	8.61
474.504	8.59
474.859	8.57
475.213	8.53
475.567	8.41
475.921	8.76
476.275	8.72
476.63	8.63
476.984	8.53
477.338	8.63
477.692	8.74
478.045	8.65
478.399	8.63
478.753	8.46
479.107	8.51
479.461	8.65
479.814	8.65
480.168	8.65
480.521	8.37
480.875	8.58
481.228	8.64
481.582	8.4
481.935	8.47
482.289	8.56
482.642	8.59
482.995	8.53
483.348	8.41
483.701	8.51
484.055	8.43
484.408	8.41
484.761	8.32
485.114	8.3
485.466	8.16
485.819	8.04
486.172	7.94
486.525	7.95
486.878	8.06
487.23	8.24
487.583	8.21
487.936	8.31
488.288	8.3
488.641	8.22
488.993	8.2
489.345	8.15
489.698	8.11
490.05	8.09
490.402	8.09
490.754	8.16
491.107	8.13
491.459	8.28
491.811	8.37
492.163	8.3
492.515	8.44
492.866	8.24
493.218	8.18
493.57	8.13
493.922	7.99
494.274	8.11
494.625	8.13
494.977	8.15
495.328	8.28
495.68	8.43
496.031	8.4
496.383	8.38
496.734	8.41
497.086	8.35
497.437	8.5
497.788	8.36
498.139	8.38
498.49	8.42
498.842	8.19
499.193	8.35
499.544	8.24
499.894	8.34
500.245	8.25
500.596	8.27
500.947	8.17
501.298	8.32
501.648	8.34
501.999	8.44
502.35	8.34
502.7	8.45
503.051	8.4
503.401	8.38
503.752	8.18
504.102	8.36
504.452	8.22
504.803	8.17
505.153	8.38
505.503	8.17
505.853	8.24
506.203	8.26
506.553	8.32
506.903	8.22
507.253	8.24
507.603	8.2
507.953	8.36
508.303	8.27
508.652	8.34
509.002	8.35
509.352	8.34
509.701	8.22
510.051	8.29
510.4	8.19
510.75	8.22
511.099	8.06
511.449	8.27
511.798	8.28
512.147	8.06
512.496	8.12
512.846	8.08
513.195	8.2
513.544	8.13
513.893	8
514.242	8.15
514.591	8.21
514.939	8.03
515.288	8.16
515.637	8.25
515.986	8.01
516.334	8.24
516.683	8.06
517.032	8.07
517.38	8.15
517.729	8.1
518.077	8.1
518.426	8.09
518.774	8.12
519.122	8.05
519.47	8.05
519.819	8.15
520.167	7.96
520.515	7.95
520.863	7.9
521.211	7.91
521.559	7.9
521.907	7.95
522.255	8.01
522.602	8.02
522.95	8.12
523.298	7.97
523.645	8.02
523.993	8.08
524.341	8.04
524.688	7.99
525.036	8.07
525.383	8.1
525.73	8.05
526.078	8.11
526.425	7.96
526.772	7.9
527.119	7.9
527.466	7.86
527.814	7.87
528.161	7.94
528.508	7.89
528.854	7.81
529.201	7.86
529.548	7.85
529.895	7.8
530.242	7.7
530.588	7.61
530.935	7.55
531.282	7.55
531.628	7.53
531.975	7.62
532.321	7.62
532.667	7.72
533.014	7.79
533.36	7.72
533.706	7.75
534.052	7.79
534.399	7.78
534.745	7.67
535.091	7.69
535.437	7.59
535.783	7.6
536.129	7.67
536.474	7.74
536.82	7.68
537.166	7.77
537.512	7.82
537.857	7.79
538.203	7.8
538.549	7.71
538.894	7.62
539.239	7.75
539.585	7.7
539.93	7.76
540.276	7.68
540.621	7.71
540.966	7.79
541.311	7.79
541.656	7.7
542.001	7.88
542.346	7.8
542.691	7.61
543.036	7.56
543.381	7.5
543.726	7.42
544.071	7.49
544.415	7.44
544.76	7.48
545.105	7.6
545.449	7.43
545.794	7.43
546.138	7.57
546.483	7.59
546.827	7.67
547.171	7.6
547.516	7.62
547.86	7.64
548.204	7.56
548.548	7.73
548.892	7.62
549.236	7.54
549.58	7.69
549.924	7.62
550.268	7.59
550.612	7.67
550.956	7.58
551.3	7.73
551.643	7.74
551.987	7.64
552.33	7.63
552.674	7.73
553.017	7.65
553.361	7.73
553.704	7.65
554.048	7.68
554.391	7.69
554.734	7.53
555.077	7.48
555.42	7.56
555.764	7.62
556.107	7.48
556.45	7.45
556.793	7.67
557.135	7.78
557.478	7.67
557.821	7.57
558.164	7.62
558.507	7.6
558.849	7.48
559.192	7.67
559.534	7.53
559.877	7.6
560.219	7.81
560.562	7.52
560.904	7.6
561.246	7.66
561.589	7.55
561.931	7.64
562.273	7.43
562.615	7.64
562.957	7.71
563.299	7.64
563.641	7.53
563.983	7.4
564.325	7.4
564.667	7.49
565.008	7.51
565.35	7.61
565.692	7.67
566.033	7.55
566.375	7.3
566.716	7.58
567.058	7.59
567.399	7.41
567.741	7.45
568.082	7.32
568.423	7.29
568.764	7.33
569.105	7.44
569.447	7.24
569.788	7.43
570.129	7.27
570.47	7.42
570.811	7.57
571.151	7.38
571.492	7.55
571.833	7.43
572.174	7.33
572.514	7.37
572.855	7.35
573.195	7.2
573.536	7.31
573.876	7.33
574.217	7.16
574.557	7.44
574.898	7.24
575.238	7.23
575.578	7.39
575.918	7.32
576.258	7.41
576.598	7.3
576.938	7.42
577.278	7.39
577.618	7.2
577.958	7.08
578.298	7.28
578.638	7.18
578.977	7.28
579.317	7.21
579.657	7.26
579.996	7.25
580.336	6.89
580.675	7.04
581.014	7.24
581.354	7.08
581.693	7.21
582.032	7.2
582.372	7.32
582.711	7.15
583.05	7.39
583.389	7.26
583.728	7.19
584.067	7.14
584.406	7.47
584.745	7.15
585.083	7.25
585.422	7.34
585.761	7.31
586.1	7.51
586.438	7.35
586.777	7.29
587.115	7.29
587.454	7.32
587.792	7.2
588.13	7.38
588.469	7.42
588.807	7.38
589.145	7.41
589.483	6.94
589.821	7.39
590.159	7.2
590.497	7
590.835	7.22
591.173	7.27
591.511	7.22
591.849	7.1
592.187	7.21
592.524	7.16
592.862	6.92
593.2	7
593.537	7.09
593.875	7.32
594.212	7.24
594.55	7.11
594.887	7.3
595.224	7.16
595.561	7.16
595.899	7.16
596.236	7.14
596.573	7
596.91	7.35
597.247	7.21
597.584	7.25
597.921	7.09
598.258	7.23
598.594	7.13
598.931	7.08
599.268	6.9
599.604	7.22
599.941	7.07
600.277	6.84
600.614	7.23
600.95	7.32
601.287	7.18
601.623	7.34
601.959	7.19
602.296	7.01
602.632	7.26
602.968	7.21
603.304	6.8
603.64	6.97
603.976	7.09
604.312	7.38
604.648	7.09
604.984	7.02
605.319	7.08
605.655	7.07
605.991	7.12
606.326	7.13
606.662	6.82
606.998	7.01
607.333	6.85
607.668	6.93
608.004	6.85
608.339	6.85
608.674	6.76
609.01	7.27
609.345	7.21
609.68	6.92
610.015	6.97
610.35	6.84
610.685	7
611.02	6.98
611.355	6.95
611.689	6.89
612.024	6.99
612.359	6.95
612.694	7
613.028	6.98
613.363	6.89
613.697	7.11
614.032	7.09
614.366	7.03
614.7	7.31
615.035	7
615.369	7.03
615.703	7.19
616.037	6.83
616.371	6.72
616.705	6.71
617.039	7.3
617.373	7.2
617.707	6.7
618.041	6.96
618.375	6.85
618.709	6.99
619.042	6.93
619.376	6.55
619.71	6.7
620.043	7.03
620.377	6.93
620.71	7.02
621.043	7.06
621.377	6.63
621.71	6.77
622.043	6.78
622.376	6.69
622.709	7.1
623.043	6.76
623.376	6.73
623.709	7.35
624.041	6.89
624.374	6.71
624.707	6.89
625.04	7.03
625.373	6.65
625.705	7.18
626.038	7.06
626.37	7.34
626.703	7.23
627.035	7.29
627.368	6.87
627.7	6.99
628.032	7.01
628.365	6.64
628.697	6.82
629.029	6.96
629.361	6.92
629.693	7.09
630.025	7.13
630.357	6.78
630.689	7.32
631.021	7.01
631.353	7.1
631.684	6.86
632.016	6.92
632.348	6.93
632.679	6.8
633.011	7.01
633.342	7.01
633.674	7.07
634.005	6.94
634.336	6.71
634.668	6.82
634.999	6.9
635.33	6.69
635.661	6.96
635.992	6.67
636.323	6.81
636.654	6.98
636.985	6.84
637.316	6.77
637.647	7.19
637.977	7.09
638.308	6.65
638.639	6.62
638.969	6.7
639.3	7.15
639.63	6.37
639.961	6.61
640.291	6.68
640.622	6.88
640.952	6.81
641.282	6.36
641.612	6.62
641.943	6.65
642.273	6.9
642.603	6.8
642.933	6.9
643.263	7.14
643.592	6.82
643.922	7.57
644.252	6.71
644.582	6.69
644.911	6.56
645.241	6.92
645.571	7.15
645.9	7.31
646.23	6.96
646.559	6.99
646.888	6.72
647.218	6.73
647.547	7.33
647.876	7.4
648.205	6.57
648.534	6.9
648.863	6.94
649.192	6.91
649.521	6.74
649.85	7.07
650.179	6.89
650.508	7.1
650.837	6.78
651.165	7.41
651.494	7.07
651.822	6.99
652.151	7.25
652.479	6.99
652.808	6.69
653.136	7.12
653.465	7.08
653.793	7.07
654.121	7.1
654.449	6.87
654.777	7.35
655.105	7.02
655.433	7.15
655.761	6.79
656.089	6.56
656.417	6.57
656.745	7.34
657.073	7.47
657.4	7.33
657.728	7
658.056	7.05
658.383	7.08
658.711	7
659.038	7.81
659.365	7.24
659.693	7.04
660.02	6.97
660.347	7.12
660.674	6.84
661.001	6.85
661.329	6.79
661.656	6.63
661.982	7.02
662.309	6.94
662.636	7.15
662.963	7.46
663.29	7.11
663.616	7.15
663.943	7.21
664.27	7.17
664.596	6.69
664.923	7.29
665.249	6.76
665.576	7.12
665.902	7.41
666.228	6.63
666.554	6.56
666.881	6.99
667.207	7.21
667.533	6.91
667.859	6.73
668.185	7.52
668.511	6.44
668.837	6.29
669.162	7.07
669.488	7.03
669.814	7.08
670.139	7.49
670.465	6.75
670.791	7.52
671.116	6.61
671.442	7.1
671.767	6.68
672.092	7.04
672.418	6.81
672.743	7.18
673.068	6.8
673.393	6.81
673.718	7.32
674.043	6.67
674.368	7.57
674.693	7.03
675.018	7.16
675.343	7.24
675.667	7.21
675.992	6.65
676.317	6.9
676.641	7.34
676.966	7.57
677.29	7.54
677.615	6.96
677.939	7.02
678.264	6.83
678.588	7.16
678.912	7.08
679.236	7.29
679.56	6.97
679.885	7
680.209	6.73
680.532	7.27
680.856	7.58
681.18	6.76
681.504	7.1
681.828	6.88
682.152	6.91
682.475	7.08
682.799	7.09
683.122	6.53
683.446	6.65
683.769	7.25
684.093	6.95
684.416	7
684.739	7.35
685.062	7.65
685.386	6.93
685.709	6.79
686.032	7.15
686.355	7.03
686.678	7.26
687.001	6.26
687.324	6.49
687.646	7.24
687.969	6.52
688.292	7.82
688.614	7.6
688.937	6.87
689.26	7.02
689.582	6.66
689.904	6.68
690.227	7.34
690.549	7.4
690.871	7.13
691.194	7.31
691.516	7.28
691.838	7.3
692.16	7.98
692.482	7.72
