Data from 0245_chest_Reflection__0__78.txt Node

Date: Fri Oct 20 21:18:07 CDT 2023
User: ToomeyLab
Spectrometer: FLMS14357
Trigger mode: 0
Integration Time (sec): 1.000000E-2
Scans to average: 100
Electric dark correction enabled: true
Nonlinearity correction enabled: false
Boxcar width: 0
XAxis mode: Wavelengths
Number of Pixels in Spectrum: 2048
>>>>>Begin Spectral Data<<<<<
189.047	114.43
189.435	114.43
189.823	114.43
190.211	24.54
190.599	-136.38
190.987	89.45
191.375	332.09
191.763	24.66
192.151	121.16
192.538	92.84
192.926	98.39
193.314	483.02
193.702	15.58
194.089	495.61
194.477	-2.46
194.864	48.43
195.252	-14.7
195.639	77.8
196.027	86.66
196.414	26.79
196.801	-1596.28
197.189	-0.25
197.576	-48.29
197.963	51.1
198.351	56.01
198.738	21.38
199.125	41.06
199.512	51.74
199.899	15.73
200.286	27.88
200.673	43.38
201.06	23.55
201.447	7.23
201.833	39.36
202.22	38.58
202.607	38.13
202.994	28.12
203.38	20.23
203.767	35.58
204.154	17.01
204.54	49.97
204.927	31.15
205.313	-4.28
205.699	14.63
206.086	14.08
206.472	28.83
206.858	47.45
207.245	5.96
207.631	22.2
208.017	7.52
208.403	26.91
208.789	33.61
209.175	-16.76
209.561	37.16
209.947	21.99
210.333	34.26
210.719	-13.85
211.105	0.87
211.491	14.32
211.876	2.49
212.262	5.24
212.648	28.8
213.034	9.04
213.419	8.28
213.805	-14.22
214.19	7.3
214.576	32.07
214.961	12.51
215.346	37.38
215.732	3.06
216.117	-25.69
216.502	27.81
216.888	8.9
217.273	33.49
217.658	8.67
218.043	18.3
218.428	11.27
218.813	9.56
219.198	-11.66
219.583	4.18
219.968	-5.96
220.353	9.57
220.738	25.57
221.122	-9.67
221.507	10.61
221.892	6.02
222.276	2.62
222.661	14.7
223.046	16.6
223.43	0.3
223.815	11.56
224.199	23.04
224.583	4.45
224.968	6.31
225.352	6.83
225.736	-3.46
226.121	7.26
226.505	2.35
226.889	4.47
227.273	12.3
227.657	4.18
228.041	11.23
228.425	-0.43
228.809	2.97
229.193	3.24
229.577	7.87
229.961	1.63
230.344	2.87
230.728	2.3
231.112	3.39
231.495	1.63
231.879	2.48
232.263	3.77
232.646	2.48
233.03	2.47
233.413	1.72
233.797	2.31
234.18	3.7
234.563	3.95
234.946	3.4
235.33	2.6
235.713	5.17
236.096	3.5
236.479	2.01
236.862	3
237.245	2.99
237.628	3.32
238.011	1.13
238.394	2.94
238.777	5.27
239.16	2.51
239.543	4.58
239.925	3.58
240.308	3.8
240.691	3.21
241.073	4.5
241.456	4.13
241.838	3.03
242.221	3.18
242.603	2.53
242.986	1.98
243.368	2.52
243.75	2.35
244.133	2.3
244.515	2.15
244.897	2.17
245.279	2.72
245.661	2.87
246.043	2.39
246.425	2.13
246.807	2.48
247.189	2.1
247.571	2.38
247.953	2.57
248.335	2.43
248.717	2.25
249.098	1.9
249.48	2.19
249.862	2.55
250.243	2.52
250.625	2.49
251.006	2.25
251.388	2.43
251.769	2.42
252.151	2.59
252.532	3.09
252.913	2.53
253.295	0.9
253.676	2.29
254.057	2.21
254.438	2.19
254.819	2.71
255.2	2.28
255.581	2.29
255.962	2.84
256.343	2.76
256.724	1.29
257.105	2.25
257.486	2.71
257.867	3.49
258.247	2.61
258.628	2.35
259.009	2.47
259.389	1.98
259.77	1.83
260.15	1.92
260.531	2.57
260.911	2.2
261.292	2.09
261.672	2.11
262.052	2.19
262.432	2.2
262.813	2.15
263.193	2.36
263.573	1.67
263.953	2.18
264.333	2.32
264.713	2.72
265.093	2.63
265.473	2.32
265.853	1.9
266.233	2.36
266.612	2.88
266.992	2.35
267.372	2.52
267.752	2.08
268.131	2.31
268.511	1.82
268.89	2.71
269.27	1.59
269.649	1.99
270.029	1.93
270.408	2.18
270.787	2.71
271.167	2.6
271.546	2.42
271.925	2.19
272.304	2.6
272.683	2.52
273.062	2.34
273.441	2.16
273.82	2.21
274.199	2.61
274.578	2.27
274.957	2.01
275.336	2.54
275.715	2.47
276.093	2.37
276.472	2.28
276.851	2.89
277.229	2.03
277.608	2.23
277.986	2.04
278.365	2.62
278.743	2.33
279.122	2.06
279.5	2.39
279.878	1.36
280.257	2.19
280.635	2.44
281.013	2.75
281.391	2.56
281.769	1.97
282.147	1.86
282.525	2.4
282.903	2.02
283.281	1.78
283.659	2.14
284.037	2.26
284.415	2.07
284.792	2.11
285.17	2.04
285.548	2.39
285.925	1.95
286.303	2.07
286.68	2.23
287.058	2.82
287.435	2.31
287.813	1.74
288.19	2.22
288.567	2.12
288.945	2.5
289.322	2.75
289.699	1.53
290.076	3.37
290.453	2.34
290.83	2.38
291.207	2.55
291.584	2.35
291.961	2.31
292.338	2.34
292.715	2.15
293.092	2.48
293.469	2.58
293.845	2.38
294.222	2.43
294.599	2.66
294.975	2.98
295.352	2.64
295.728	2.48
296.105	2.46
296.481	2.24
296.858	2.42
297.234	2.89
297.61	2.1
297.986	2.24
298.363	2.53
298.739	2.58
299.115	2.16
299.491	2.16
299.867	2.53
300.243	2.58
300.619	2.51
300.995	2.46
301.371	2.73
301.746	2.83
302.122	2.8
302.498	2.36
302.874	2.65
303.249	2.33
303.625	2.86
304	2.8
304.376	2.38
304.751	2.35
305.127	2.52
305.502	2.68
305.878	2.9
306.253	2.7
306.628	3.02
307.003	2.45
307.378	2.64
307.754	3.05
308.129	3.03
308.504	2.69
308.879	2.9
309.254	2.6
309.629	2.37
310.003	1.95
310.378	3.26
310.753	2.69
311.128	2.98
311.502	2.71
311.877	3.15
312.252	2.64
312.626	3.34
313.001	2.64
313.375	2.64
313.75	3.15
314.124	2.46
314.498	2.95
314.873	2.71
315.247	3.07
315.621	2.98
315.995	2.83
316.369	2.99
316.743	3.22
317.117	2.86
317.491	2.61
317.865	3.5
318.239	3.32
318.613	2.92
318.987	2.42
319.361	2.65
319.734	2.55
320.108	1.98
320.482	2.71
320.855	3.09
321.229	3.38
321.602	2.54
321.976	3.19
322.349	3.26
322.723	3.44
323.096	3.19
323.469	3.2
323.843	3.19
324.216	3.41
324.589	2.89
324.962	3.37
325.335	3.42
325.708	2.63
326.081	3.28
326.454	3.29
326.827	3.65
327.2	3.52
327.573	3.23
327.945	3.49
328.318	2.53
328.691	3
329.063	3.19
329.436	2.76
329.809	3.58
330.181	3.43
330.553	3.17
330.926	3.08
331.298	2.73
331.671	3.16
332.043	3.35
332.415	3.46
332.787	3.49
333.159	3.95
333.532	3.41
333.904	3.37
334.276	3.05
334.648	3.39
335.02	3.8
335.391	3.15
335.763	3.36
336.135	3.4
336.507	3.48
336.879	2.99
337.25	3.25
337.622	3.59
337.993	4
338.365	3.25
338.736	3.42
339.108	3.51
339.479	3.39
339.851	3.32
340.222	3.23
340.593	2.59
340.964	3.55
341.336	3.79
341.707	3.25
342.078	2.8
342.449	3.46
342.82	3.54
343.191	3.21
343.562	3.21
343.933	3.09
344.303	3.2
344.674	3.45
345.045	3.62
345.416	3.42
345.786	2.84
346.157	2.94
346.527	3.11
346.898	3.22
347.268	3.39
347.639	3.22
348.009	3.03
348.38	3.29
348.75	3.33
349.12	3.21
349.49	3.19
349.861	3.75
350.231	3.13
350.601	3.95
350.971	4
351.341	3.46
351.711	3.83
352.081	3.44
352.45	3.7
352.82	3.47
353.19	3.88
353.56	3.66
353.929	3.53
354.299	3.19
354.669	2.96
355.038	3.64
355.408	3.79
355.777	3.36
356.147	3.29
356.516	3.38
356.885	3.51
357.254	3.4
357.624	3.41
357.993	3.2
358.362	3.62
358.731	2.72
359.1	2.78
359.469	3.29
359.838	3.36
360.207	3.39
360.576	3.51
360.945	3.25
361.314	3.6
361.682	3.65
362.051	3.47
362.42	3.34
362.788	3.53
363.157	3.51
363.525	3.08
363.894	3.35
364.262	3.37
364.631	3.48
364.999	3.38
365.367	3.58
365.735	3.29
366.104	3.35
366.472	3.49
366.84	3.4
367.208	3.66
367.576	3.45
367.944	3.47
368.312	3.6
368.68	3.65
369.048	3.37
369.416	3.86
369.783	3.47
370.151	3.56
370.519	3.37
370.886	3.72
371.254	3.76
371.621	3.76
371.989	3.47
372.356	3.57
372.724	3.9
373.091	3.29
373.458	3.47
373.826	3.46
374.193	3.5
374.56	3.5
374.927	3.53
375.294	3.63
375.661	3.59
376.028	3.96
376.395	3.64
376.762	3.37
377.129	3.72
377.496	3.59
377.863	3.82
378.229	4.16
378.596	3.68
378.963	3.68
379.329	3.65
379.696	3.75
380.062	3.5
380.429	3.65
380.795	3.67
381.161	3.67
381.528	3.89
381.894	3.46
382.26	4.05
382.626	3.78
382.993	3.62
383.359	3.59
383.725	3.78
384.091	3.9
384.457	3.85
384.823	3.49
385.188	4.08
385.554	3.83
385.92	3.81
386.286	3.85
386.651	3.42
387.017	3.8
387.383	3.58
387.748	3.59
388.114	3.4
388.479	3.75
388.845	4.05
389.21	3.62
389.575	3.39
389.94	3.68
390.306	3.75
390.671	3.74
391.036	3.46
391.401	3.67
391.766	3.7
392.131	3.87
392.496	3.9
392.861	3.97
393.226	3.65
393.591	3.82
393.956	3.75
394.32	4.01
394.685	3.77
395.05	4.06
395.414	4.11
395.779	3.69
396.143	3.66
396.508	3.78
396.872	3.69
397.236	3.87
397.601	4.02
397.965	3.69
398.329	3.62
398.694	3.94
399.058	3.79
399.422	4
399.786	3.95
400.15	3.87
400.514	3.83
400.878	4.04
401.242	4.05
401.605	3.83
401.969	3.67
402.333	3.76
402.697	4
403.06	3.86
403.424	3.9
403.787	3.99
404.151	3.9
404.514	3.81
404.878	4.12
405.241	3.98
405.604	3.62
405.968	3.76
406.331	3.85
406.694	3.88
407.057	3.85
407.42	4.04
407.783	3.89
408.146	4.11
408.509	3.91
408.872	4.05
409.235	4
409.598	3.86
409.961	4.08
410.323	4.05
410.686	3.82
411.049	4.01
411.411	4.17
411.774	4.06
412.136	3.91
412.499	4
412.861	3.99
413.223	4.15
413.586	3.94
413.948	4.12
414.31	4.37
414.672	3.93
415.035	3.93
415.397	4.32
415.759	4.19
416.121	4.13
416.483	4.2
416.845	4.03
417.206	4.07
417.568	4.27
417.93	4.04
418.292	3.84
418.653	4.1
419.015	4.14
419.377	4.09
419.738	3.9
420.1	4.03
420.461	3.97
420.822	3.94
421.184	3.97
421.545	3.99
421.906	4
422.267	4.01
422.629	4.09
422.99	3.97
423.351	3.95
423.712	3.95
424.073	4.07
424.434	3.97
424.795	4.03
425.155	4.02
425.516	4.05
425.877	4.05
426.238	3.91
426.598	3.95
426.959	3.99
427.32	4.04
427.68	4.13
428.041	4.09
428.401	4.06
428.761	4.09
429.122	4.14
429.482	4.2
429.842	4.27
430.202	4.27
430.563	4.06
430.923	4.38
431.283	4.32
431.643	4.17
432.003	4.36
432.363	4.18
432.722	4.2
433.082	4.37
433.442	4.23
433.802	4.64
434.161	4.18
434.521	4.27
434.881	4.26
435.24	4.25
435.6	4.27
435.959	4.15
436.319	4.16
436.678	4.28
437.037	4.35
437.396	4.36
437.756	4.33
438.115	4.24
438.474	4.47
438.833	4.38
439.192	4.32
439.551	4.19
439.91	4.27
440.269	4.45
440.628	4.41
440.987	4.41
441.345	4.27
441.704	4.39
442.063	4.35
442.421	4.29
442.78	4.32
443.138	4.32
443.497	4.43
443.855	4.29
444.214	4.37
444.572	4.32
444.93	4.35
445.288	4.42
445.647	4.64
446.005	4.31
446.363	4.27
446.721	4.38
447.079	4.43
447.437	4.28
447.795	4.26
448.153	4.32
448.51	4.4
448.868	4.28
449.226	4.43
449.584	4.43
449.941	4.32
450.299	4.42
450.656	4.29
451.014	4.41
451.371	4.48
451.729	4.36
452.086	4.46
452.443	4.46
452.801	4.5
453.158	4.47
453.515	4.68
453.872	4.58
454.229	4.64
454.586	4.56
454.943	4.42
455.3	4.52
455.657	4.59
456.014	4.44
456.371	4.56
456.727	4.56
457.084	4.62
457.441	4.66
457.797	4.61
458.154	4.49
458.51	4.61
458.867	4.57
459.223	4.6
459.58	4.72
459.936	4.74
460.292	4.69
460.648	4.55
461.005	4.48
461.361	4.64
461.717	4.41
462.073	4.59
462.429	4.55
462.785	4.56
463.141	4.73
463.496	4.74
463.852	4.68
464.208	4.75
464.564	4.8
464.919	4.82
465.275	4.93
465.631	4.84
465.986	4.83
466.342	4.75
466.697	4.82
467.052	4.71
467.408	4.92
467.763	4.83
468.118	4.94
468.473	4.86
468.829	4.92
469.184	4.79
469.539	4.88
469.894	4.83
470.249	4.89
470.603	4.76
470.958	4.91
471.313	5.04
471.668	4.99
472.023	4.89
472.377	4.98
472.732	4.79
473.086	4.89
473.441	4.83
473.795	5.13
474.15	4.84
474.504	4.72
474.859	4.91
475.213	4.92
475.567	5.1
475.921	5.04
476.275	4.97
476.63	5.18
476.984	5.2
477.338	4.98
477.692	4.98
478.045	4.91
478.399	4.93
478.753	5.03
479.107	5.07
479.461	5.1
479.814	5.27
480.168	5.15
480.521	5.08
480.875	5.06
481.228	5.01
481.582	5.13
481.935	5.05
482.289	5.05
482.642	4.92
482.995	5.05
483.348	5.08
483.701	4.98
484.055	5.1
484.408	4.94
484.761	4.97
485.114	4.82
485.466	4.78
485.819	4.73
486.172	4.61
486.525	4.69
486.878	4.8
487.23	4.87
487.583	4.92
487.936	4.91
488.288	5
488.641	4.98
488.993	4.95
489.345	4.92
489.698	4.9
490.05	4.86
490.402	4.85
490.754	4.91
491.107	4.95
491.459	5.12
491.811	5.12
492.163	5.09
492.515	5.23
492.866	5.12
493.218	4.99
493.57	5
493.922	4.97
494.274	4.97
494.625	5.06
494.977	5.12
495.328	5.28
495.68	5.27
496.031	5.19
496.383	5.34
496.734	5.39
497.086	5.42
497.437	5.35
497.788	5.31
498.139	5.58
498.49	5.4
498.842	5.24
499.193	5.38
499.544	5.42
499.894	5.34
500.245	5.3
500.596	5.4
500.947	5.46
501.298	5.42
501.648	5.47
501.999	5.44
502.35	5.44
502.7	5.75
503.051	5.49
503.401	5.5
503.752	5.62
504.102	5.61
504.452	5.63
504.803	5.57
505.153	5.77
505.503	5.65
505.853	5.68
506.203	5.54
506.553	5.51
506.903	5.55
507.253	5.57
507.603	5.74
507.953	5.58
508.303	5.52
508.652	5.79
509.002	5.78
509.352	5.7
509.701	5.64
510.051	5.61
510.4	5.68
510.75	5.68
511.099	5.69
511.449	5.76
511.798	5.71
512.147	5.67
512.496	5.73
512.846	5.61
513.195	5.72
513.544	5.68
513.893	5.65
514.242	5.78
514.591	5.71
514.939	5.69
515.288	5.83
515.637	5.94
515.986	5.92
516.334	5.88
516.683	5.73
517.032	5.76
517.38	5.87
517.729	5.91
518.077	5.88
518.426	5.87
518.774	5.78
519.122	5.88
519.47	5.78
519.819	5.86
520.167	5.83
520.515	5.93
520.863	5.92
521.211	5.88
521.559	5.93
521.907	5.87
522.255	5.99
522.602	6.03
522.95	5.87
523.298	5.98
523.645	6.01
523.993	6.08
524.341	5.95
524.688	6.14
525.036	6.19
525.383	6.03
525.73	6.19
526.078	6.07
526.425	6.18
526.772	6.1
527.119	6.02
527.466	6.04
527.814	6.11
528.161	6.06
528.508	6.03
528.854	6.13
529.201	6.04
529.548	6.11
529.895	6.04
530.242	5.98
530.588	5.86
530.935	5.83
531.282	5.97
531.628	5.99
531.975	6.03
532.321	6.12
532.667	6.15
533.014	6.24
533.36	6.34
533.706	6.24
534.052	6.34
534.399	6.24
534.745	6.19
535.091	6.1
535.437	6.23
535.783	6.17
536.129	6.26
536.474	6.33
536.82	6.37
537.166	6.3
537.512	6.46
537.857	6.51
538.203	6.52
538.549	6.52
538.894	6.44
539.239	6.5
539.585	6.44
539.93	6.53
540.276	6.79
540.621	6.73
540.966	6.83
541.311	6.78
541.656	6.86
542.001	6.77
542.346	6.68
542.691	6.68
543.036	6.57
543.381	6.45
543.726	6.4
544.071	6.48
544.415	6.61
544.76	6.62
545.105	6.73
545.449	6.74
545.794	6.74
546.138	6.8
546.483	6.72
546.827	6.84
547.171	6.99
547.516	6.83
547.86	7.03
548.204	6.85
548.548	6.96
548.892	6.84
549.236	6.92
549.58	7.02
549.924	7.08
550.268	7.04
550.612	7.21
550.956	7.31
551.3	7.21
551.643	7.19
551.987	7.35
552.33	7.27
552.674	7.25
553.017	7.22
553.361	7.55
553.704	7.4
554.048	7.42
554.391	7.52
554.734	7.38
555.077	7.2
555.42	7.24
555.764	7.44
556.107	7.43
556.45	7.56
556.793	7.48
557.135	7.46
557.478	7.36
557.821	7.53
558.164	7.89
558.507	7.69
558.849	7.77
559.192	7.54
559.534	7.63
559.877	7.77
560.219	7.85
560.562	7.8
560.904	7.58
561.246	7.78
561.589	7.67
561.931	7.77
562.273	8.07
562.615	8.13
562.957	7.8
563.299	7.93
563.641	8.02
563.983	7.88
564.325	7.79
564.667	8.02
565.008	7.82
565.35	8.06
565.692	7.93
566.033	8.02
566.375	8.02
566.716	8.2
567.058	8.06
567.399	8.2
567.741	7.92
568.082	8.13
568.423	8.09
568.764	8.04
569.105	8.23
569.447	8.12
569.788	8.27
570.129	8.32
570.47	8.21
570.811	8.37
571.151	8.24
571.492	8.38
571.833	8.46
572.174	8.52
572.514	8.33
572.855	8.42
573.195	8.41
573.536	8.32
573.876	8.54
574.217	8.26
574.557	8.35
574.898	8.29
575.238	8.34
575.578	8.46
575.918	8.59
576.258	8.74
576.598	8.61
576.938	8.72
577.278	8.71
577.618	8.54
577.958	8.61
578.298	8.59
578.638	8.63
578.977	8.89
579.317	8.75
579.657	8.83
579.996	8.87
580.336	8.87
580.675	9.02
581.014	8.92
581.354	9.19
581.693	9.06
582.032	9.15
582.372	9
582.711	9.08
583.05	9.36
583.389	9.3
583.728	9.21
584.067	9.32
584.406	9.17
584.745	9.31
585.083	9.33
585.422	9.22
585.761	9.28
586.1	9.51
586.438	9.29
586.777	9.26
587.115	9.54
587.454	9.39
587.792	9.54
588.13	9.52
588.469	9.56
588.807	9.26
589.145	9.49
589.483	9.16
589.821	9.29
590.159	9.43
590.497	9.62
590.835	9.73
591.173	9.56
591.511	9.61
591.849	9.72
592.187	9.53
592.524	9.59
592.862	9.81
593.2	9.97
593.537	9.75
593.875	9.83
594.212	9.92
594.55	9.92
594.887	9.65
595.224	9.78
595.561	9.95
595.899	9.84
596.236	10.18
596.573	9.84
596.91	10.15
597.247	9.94
597.584	9.82
597.921	10.19
598.258	10.26
598.594	10.2
598.931	9.91
599.268	9.99
599.604	10.13
599.941	10.1
600.277	10.16
600.614	10.4
600.95	10.36
601.287	10.22
601.623	10.36
601.959	10.23
602.296	10.45
602.632	10.63
602.968	10.27
603.304	10.54
603.64	10.46
603.976	10.55
604.312	10.62
604.648	10.89
604.984	10.83
605.319	10.6
605.655	10.51
605.991	10.29
606.326	10.67
606.662	10.44
606.998	10.51
607.333	10.51
607.668	10.48
608.004	10.72
608.339	10.7
608.674	10.82
609.01	10.71
609.345	11.04
609.68	11.15
610.015	10.89
610.35	11.14
610.685	10.98
611.02	11.09
611.355	10.85
611.689	10.7
612.024	10.91
612.359	11.02
612.694	11.08
613.028	11.2
613.363	11.01
613.697	11.36
614.032	11.34
614.366	11.34
614.7	11.55
615.035	11.51
615.369	11.5
615.703	11.54
616.037	11.74
616.371	11.48
616.705	11.99
617.039	11.59
617.373	11.26
617.707	11.75
618.041	11.73
618.375	11.82
618.709	11.61
619.042	11.94
619.376	12
619.71	12.02
620.043	11.83
620.377	11.58
620.71	11.84
621.043	12.12
621.377	12.02
621.71	11.85
622.043	11.78
622.376	12.04
622.709	12.57
623.043	12.44
623.376	12.27
623.709	12.07
624.041	12.15
624.374	12.42
624.707	11.99
625.04	12.17
625.373	12.42
625.705	12.05
626.038	12.47
626.37	12.13
626.703	12.44
627.035	12.34
627.368	12.31
627.7	12.39
628.032	12.46
628.365	12.33
628.697	12.36
629.029	12.37
629.361	12.57
629.693	12.69
630.025	12.36
630.357	12.49
630.689	12.67
631.021	12.7
631.353	12.74
631.684	12.72
632.016	13.07
632.348	12.67
632.679	12.65
633.011	12.71
633.342	12.71
633.674	12.98
634.005	12.82
634.336	13.52
634.668	12.99
634.999	12.95
635.33	12.92
635.661	13.44
635.992	13.11
636.323	13.3
636.654	13.49
636.985	13.02
637.316	13.34
637.647	12.91
637.977	13.12
638.308	13.17
638.639	13.42
638.969	13.41
639.3	13.42
639.63	13.36
639.961	13.43
640.291	13.41
640.622	13.51
640.952	13.56
641.282	13.42
641.612	13.5
641.943	13.54
642.273	13.19
642.603	13.86
642.933	14.03
643.263	13.9
643.592	13.93
643.922	14.08
644.252	13.62
644.582	14.12
644.911	13.68
645.241	14.05
645.571	14.36
645.9	13.93
646.23	14.23
646.559	13.94
646.888	13.72
647.218	14.34
647.547	14.37
647.876	14.2
648.205	14.18
648.534	13.87
648.863	14.6
649.192	14.01
649.521	14.02
649.85	14.45
650.179	14.35
650.508	14.16
650.837	14.4
651.165	14.68
651.494	14.5
651.822	14.31
652.151	14.63
652.479	14.37
652.808	14.55
653.136	14.29
653.465	14.67
653.793	14.88
654.121	14.98
654.449	14.6
654.777	15.04
655.105	14.8
655.433	14.99
655.761	15.14
656.089	14.73
656.417	14.62
656.745	14.72
657.073	14.72
657.4	15.88
657.728	15.16
658.056	14.85
658.383	15.06
658.711	14.53
659.038	14.77
659.365	15.05
659.693	14.94
660.02	15.17
660.347	15.03
660.674	15.45
661.001	14.99
661.329	14.95
661.656	15.35
661.982	15.09
662.309	15.13
662.636	15.04
662.963	15.24
663.29	15.36
663.616	15.8
663.943	15.37
664.27	15.32
664.596	15.47
664.923	15.22
665.249	15.6
665.576	15.73
665.902	15.79
666.228	15.99
666.554	16.09
666.881	15.59
667.207	15.81
667.533	16.2
667.859	16.05
668.185	15.99
668.511	15.79
668.837	16.06
669.162	16.42
669.488	15.77
669.814	16.17
670.139	16.49
670.465	16.03
670.791	16.28
671.116	15.95
671.442	16.23
671.767	16.32
672.092	16.14
672.418	16.03
672.743	16.2
673.068	16.59
673.393	16.69
673.718	16.33
674.043	16.08
674.368	16.28
674.693	17.15
675.018	16.98
675.343	16.6
675.667	16.57
675.992	16.57
676.317	16.59
676.641	16.15
676.966	17.07
677.29	16.61
677.615	16.42
677.939	17.21
678.264	17.08
678.588	16.85
678.912	17.12
679.236	16.52
679.56	17.12
679.885	17.02
680.209	17
680.532	16.67
680.856	16.89
681.18	17.4
681.504	17.12
681.828	17.13
682.152	17.32
682.475	16.87
682.799	17.25
683.122	17.18
683.446	17.49
683.769	16.83
684.093	17.21
684.416	17.76
684.739	17.29
685.062	16.69
685.386	17.09
685.709	17.46
686.032	16.91
686.355	17.53
686.678	17.69
