Data from 0245_chest_Reflection__3__81.txt Node

Date: Fri Oct 20 21:18:44 CDT 2023
User: ToomeyLab
Spectrometer: FLMS14357
Trigger mode: 0
Integration Time (sec): 1.000000E-2
Scans to average: 100
Electric dark correction enabled: true
Nonlinearity correction enabled: false
Boxcar width: 0
XAxis mode: Wavelengths
Number of Pixels in Spectrum: 2048
>>>>>Begin Spectral Data<<<<<
189.047	-207.13
189.435	-207.13
189.823	-207.13
190.211	39.85
190.599	-60.69
190.987	84.8
191.375	888.19
191.763	64.34
192.151	58.31
192.538	-29.4
192.926	69.79
193.314	758.85
193.702	27.18
194.089	385.31
194.477	30.3
194.864	39.08
195.252	187.52
195.639	-8.83
196.027	-89.84
196.414	40.66
196.801	-2663.83
197.189	17.35
197.576	25.43
197.963	-98.06
198.351	76.36
198.738	27.81
199.125	21.64
199.512	31.16
199.899	14.04
200.286	3.48
200.673	28.92
201.06	59.47
201.447	44.85
201.833	28.67
202.22	29.6
202.607	39.25
202.994	59
203.38	8.07
203.767	62.83
204.154	35.83
204.54	52.59
204.927	33.66
205.313	5.61
205.699	51.79
206.086	39.42
206.472	32.15
206.858	46.65
207.245	27.99
207.631	60.32
208.017	36.51
208.403	35.53
208.789	47.11
209.175	20.91
209.561	14.28
209.947	-14.57
210.333	22.48
210.719	31
211.105	43.38
211.491	27.05
211.876	33.09
212.262	3.59
212.648	6.83
213.034	31.08
213.419	13.2
213.805	26.26
214.19	8.43
214.576	9.72
214.961	18.42
215.346	43.2
215.732	36.57
216.117	17.52
216.502	11.52
216.888	15.24
217.273	28.31
217.658	13.46
218.043	12.78
218.428	21.77
218.813	18.16
219.198	2.68
219.583	3.81
219.968	18.1
220.353	39.6
220.738	17.51
221.122	20.13
221.507	19.76
221.892	10.39
222.276	23.93
222.661	27.98
223.046	14.97
223.43	26.65
223.815	16.8
224.199	19.45
224.583	-4.33
224.968	2.22
225.352	7.38
225.736	11.03
226.121	12.05
226.505	3.5
226.889	13.07
227.273	8.01
227.657	8.69
228.041	8.15
228.425	9.76
228.809	4.64
229.193	5.56
229.577	7.78
229.961	3.65
230.344	3.84
230.728	2.66
231.112	3.8
231.495	3.14
231.879	3.62
232.263	4.3
232.646	3.34
233.03	3.22
233.413	2.41
233.797	4.87
234.18	4.3
234.563	6.41
234.946	6.83
235.33	3.73
235.713	4.33
236.096	4.73
236.479	4.62
236.862	4.08
237.245	3.01
237.628	3.12
238.011	4.68
238.394	3.05
238.777	4.36
239.16	4.11
239.543	6.68
239.925	6.73
240.308	4.49
240.691	4.65
241.073	5.16
241.456	5.01
241.838	3.16
242.221	4.76
242.603	4.51
242.986	4.28
243.368	4.34
243.75	3.89
244.133	3.4
244.515	3.82
244.897	3.4
245.279	3.64
245.661	3.51
246.043	3.7
246.425	3.25
246.807	3.75
247.189	3.37
247.571	3.55
247.953	3.8
248.335	3.82
248.717	3.01
249.098	3.1
249.48	3.13
249.862	3.32
250.243	3.73
250.625	3.47
251.006	3.9
251.388	3.13
251.769	3.48
252.151	3.18
252.532	3.74
252.913	3.15
253.295	2.47
253.676	3.41
254.057	3.44
254.438	3.41
254.819	3.75
255.2	3.61
255.581	4.1
255.962	4.08
256.343	5.36
256.724	2.92
257.105	3.77
257.486	3.86
257.867	4.24
258.247	4.29
258.628	3.72
259.009	3.1
259.389	3.25
259.77	2.86
260.15	3.5
260.531	3.82
260.911	3.89
261.292	3.15
261.672	3.44
262.052	3.38
262.432	3.36
262.813	3.1
263.193	3.36
263.573	3.27
263.953	3.29
264.333	4.51
264.713	3.48
265.093	3.93
265.473	4.01
265.853	3.38
266.233	3.81
266.612	3.83
266.992	3.74
267.372	3.09
267.752	2.96
268.131	4.11
268.511	3.02
268.89	3.96
269.27	3.39
269.649	3.12
270.029	3.1
270.408	3.94
270.787	3.32
271.167	3.31
271.546	3.86
271.925	3.77
272.304	3.7
272.683	3.54
273.062	3.54
273.441	3.54
273.82	3.77
274.199	3.28
274.578	3.53
274.957	3.27
275.336	3.52
275.715	3.75
276.093	3.54
276.472	3.59
276.851	3.47
277.229	3.59
277.608	2.95
277.986	3.25
278.365	3.66
278.743	2.64
279.122	3.21
279.5	3.54
279.878	2.8
280.257	3.27
280.635	2.96
281.013	3.93
281.391	3.17
281.769	2.48
282.147	2.8
282.525	3.77
282.903	2.94
283.281	3.41
283.659	3.17
284.037	3.5
284.415	2.79
284.792	3.35
285.17	3.27
285.548	3.21
285.925	3.3
286.303	2.98
286.68	3.21
287.058	3.59
287.435	3.02
287.813	2.82
288.19	3.39
288.567	3.3
288.945	3.52
289.322	3.5
289.699	2.78
290.076	3.67
290.453	3.33
290.83	3.11
291.207	3.41
291.584	2.65
291.961	3.28
292.338	3.01
292.715	3.44
293.092	3.43
293.469	3.58
293.845	3.23
294.222	3.46
294.599	3.23
294.975	3.89
295.352	3.68
295.728	3.74
296.105	3.42
296.481	3.22
296.858	3.52
297.234	3.52
297.61	2.87
297.986	3.43
298.363	3.41
298.739	3.37
299.115	3.38
299.491	3.23
299.867	3.39
300.243	3.46
300.619	3.59
300.995	3.4
301.371	3.71
301.746	3.23
302.122	3.32
302.498	3.55
302.874	3.39
303.249	3.54
303.625	3.81
304	4.01
304.376	3.12
304.751	3.29
305.127	3.56
305.502	3.64
305.878	3.68
306.253	3.28
306.628	3.78
307.003	3.25
307.378	3.09
307.754	3.54
308.129	3.89
308.504	4.27
308.879	3.23
309.254	4.09
309.629	3.23
310.003	3.19
310.378	4.55
310.753	3.9
311.128	3.48
311.502	3.87
311.877	3.64
312.252	3.67
312.626	3.45
313.001	3.79
313.375	3.78
313.75	3.82
314.124	3.54
314.498	3.72
314.873	3.49
315.247	3.97
315.621	3.79
315.995	4.09
316.369	3.25
316.743	3.77
317.117	3.76
317.491	3.44
317.865	3.83
318.239	4.13
318.613	3.35
318.987	4
319.361	3.3
319.734	3.67
320.108	3.78
320.482	4.51
320.855	3.85
321.229	4.39
321.602	4.06
321.976	3.27
322.349	4.54
322.723	3.8
323.096	4.44
323.469	3.77
323.843	4.5
324.216	4.12
324.589	3.99
324.962	4.16
325.335	4.06
325.708	3.93
326.081	4.29
326.454	4.13
326.827	4.26
327.2	4.24
327.573	3.86
327.945	3.53
328.318	3.38
328.691	3.85
329.063	4.03
329.436	3.65
329.809	4.3
330.181	3.79
330.553	3.71
330.926	3.8
331.298	3.69
331.671	3.35
332.043	3.48
332.415	4.16
332.787	4.2
333.159	3.48
333.532	4.07
333.904	4.15
334.276	3.82
334.648	4.22
335.02	4.21
335.391	4.12
335.763	4.41
336.135	4.25
336.507	4.38
336.879	3.86
337.25	3.68
337.622	4.08
337.993	4.04
338.365	4.04
338.736	3.88
339.108	3.79
339.479	3.61
339.851	3.95
340.222	4.14
340.593	3.52
340.964	3.94
341.336	4.43
341.707	4.49
342.078	3.84
342.449	4
342.82	3.62
343.191	3.97
343.562	4.03
343.933	4.29
344.303	4.08
344.674	4.3
345.045	3.97
345.416	4.39
345.786	3.93
346.157	4.03
346.527	3.97
346.898	3.75
347.268	4.39
347.639	4.32
348.009	3.61
348.38	4.16
348.75	3.91
349.12	3.92
349.49	3.76
349.861	4.22
350.231	3.76
350.601	3.98
350.971	4.68
351.341	4.03
351.711	4.39
352.081	3.74
352.45	4.25
352.82	4.2
353.19	4.33
353.56	4.52
353.929	4.01
354.299	4.12
354.669	4.23
355.038	4.46
355.408	4.38
355.777	4.08
356.147	4.13
356.516	3.95
356.885	3.8
357.254	3.88
357.624	4.49
357.993	3.96
358.362	4.02
358.731	3.84
359.1	3.76
359.469	3.79
359.838	4.02
360.207	3.99
360.576	4.1
360.945	3.8
361.314	4.16
361.682	4.22
362.051	4.24
362.42	3.79
362.788	4.18
363.157	4.03
363.525	3.75
363.894	3.92
364.262	3.88
364.631	4.21
364.999	4.15
365.367	4.01
365.735	4
366.104	3.87
366.472	4.02
366.84	3.94
367.208	4.15
367.576	4.2
367.944	4.16
368.312	4.04
368.68	4.38
369.048	3.97
369.416	4.14
369.783	4.32
370.151	4.13
370.519	4.3
370.886	4.26
371.254	4.04
371.621	4.38
371.989	3.86
372.356	4.35
372.724	4.41
373.091	4.07
373.458	3.9
373.826	4.13
374.193	4.01
374.56	4.04
374.927	4.17
375.294	4.39
375.661	4.23
376.028	4.44
376.395	4.45
376.762	3.94
377.129	4.15
377.496	4.23
377.863	4.45
378.229	4.57
378.596	4.34
378.963	3.91
379.329	4.23
379.696	4.19
380.062	4.28
380.429	4.04
380.795	4.18
381.161	4.2
381.528	4.15
381.894	4.18
382.26	4.37
382.626	4.67
382.993	4.21
383.359	4.21
383.725	4.15
384.091	4.43
384.457	4.22
384.823	4.21
385.188	4.52
385.554	4.3
385.92	4.53
386.286	4.48
386.651	4.04
387.017	4.3
387.383	4.47
387.748	4.09
388.114	4.22
388.479	4.16
388.845	4.32
389.21	4.23
389.575	4.04
389.94	4.39
390.306	4.32
390.671	4.36
391.036	4.52
391.401	4.27
391.766	4.34
392.131	4.35
392.496	4.36
392.861	4.53
393.226	4.36
393.591	4.27
393.956	4.33
394.32	4.28
394.685	4.14
395.05	4.5
395.414	4.31
395.779	4.14
396.143	4.42
396.508	4.33
396.872	4.34
397.236	4.24
397.601	4.37
397.965	4.02
398.329	4
398.694	4.32
399.058	4.01
399.422	4.42
399.786	4.04
400.15	4.45
400.514	4.11
400.878	4.37
401.242	4.53
401.605	4.5
401.969	4.12
402.333	4.33
402.697	4.4
403.06	4.13
403.424	4.25
403.787	4.36
404.151	4.36
404.514	4.48
404.878	4.46
405.241	4.25
405.604	4.21
405.968	4.3
406.331	4.13
406.694	4.5
407.057	4.24
407.42	4.58
407.783	4.35
408.146	4.11
408.509	4.39
408.872	4.43
409.235	4.36
409.598	4.48
409.961	4.58
410.323	4.32
410.686	4.24
411.049	4.51
411.411	4.46
411.774	4.38
412.136	4.43
412.499	4.41
412.861	4.6
413.223	4.44
413.586	4.44
413.948	4.49
414.31	4.49
414.672	4.37
415.035	4.37
415.397	4.67
415.759	4.55
416.121	4.64
416.483	4.44
416.845	4.45
417.206	4.41
417.568	4.55
417.93	4.58
418.292	4.1
418.653	4.36
419.015	4.36
419.377	4.35
419.738	4.34
420.1	4.37
420.461	4.28
420.822	4.36
421.184	4.44
421.545	4.36
421.906	4.27
422.267	4.31
422.629	4.33
422.99	4.27
423.351	4.38
423.712	4.29
424.073	4.34
424.434	4.31
424.795	4.29
425.155	4.32
425.516	4.41
425.877	4.39
426.238	4.25
426.598	4.35
426.959	4.3
427.32	4.37
427.68	4.36
428.041	4.33
428.401	4.41
428.761	4.37
429.122	4.43
429.482	4.5
429.842	4.54
430.202	4.59
430.563	4.52
430.923	4.65
431.283	4.64
431.643	4.71
432.003	4.75
432.363	4.48
432.722	4.7
433.082	4.49
433.442	4.47
433.802	4.75
434.161	4.35
434.521	4.44
434.881	4.56
435.24	4.53
435.6	4.51
435.959	4.48
436.319	4.62
436.678	4.54
437.037	4.4
437.396	4.71
437.756	4.59
438.115	4.39
438.474	4.49
438.833	4.6
439.192	4.49
439.551	4.39
439.91	4.59
440.269	4.66
440.628	4.56
440.987	4.61
441.345	4.43
441.704	4.56
442.063	4.56
442.421	4.41
442.78	4.39
443.138	4.65
443.497	4.7
443.855	4.58
444.214	4.62
444.572	4.56
444.93	4.65
445.288	4.65
445.647	4.81
446.005	4.46
446.363	4.52
446.721	4.6
447.079	4.78
447.437	4.58
447.795	4.46
448.153	4.46
448.51	4.57
448.868	4.52
449.226	4.49
449.584	4.55
449.941	4.55
450.299	4.67
450.656	4.57
451.014	4.53
451.371	4.65
451.729	4.64
452.086	4.75
452.443	4.65
452.801	4.53
453.158	4.76
453.515	4.73
453.872	4.58
454.229	4.82
454.586	4.64
454.943	4.63
455.3	4.58
455.657	4.69
456.014	4.7
456.371	4.62
456.727	4.86
457.084	4.68
457.441	4.81
457.797	4.78
458.154	4.77
458.51	4.58
458.867	4.64
459.223	4.63
459.58	4.89
459.936	4.81
460.292	4.62
460.648	4.55
461.005	4.6
461.361	4.66
461.717	4.54
462.073	4.6
462.429	4.59
462.785	4.63
463.141	4.69
463.496	4.72
463.852	4.78
464.208	4.79
464.564	4.71
464.919	4.69
465.275	5.04
465.631	4.86
465.986	4.77
466.342	4.91
466.697	4.81
467.052	4.62
467.408	4.98
467.763	4.92
468.118	4.97
468.473	4.86
468.829	4.86
469.184	4.83
469.539	4.83
469.894	4.87
470.249	4.87
470.603	4.79
470.958	4.82
471.313	4.9
471.668	4.75
472.023	4.87
472.377	4.96
472.732	4.74
473.086	4.84
473.441	4.96
473.795	5.12
474.15	4.87
474.504	4.79
474.859	4.91
475.213	5.03
475.567	4.99
475.921	4.94
476.275	4.91
476.63	5.14
476.984	4.95
477.338	4.94
477.692	4.96
478.045	4.95
478.399	4.85
478.753	4.95
479.107	4.81
479.461	4.94
479.814	5.1
480.168	5.23
480.521	5
480.875	4.86
481.228	4.98
481.582	5.05
481.935	5
482.289	4.98
482.642	5.04
482.995	4.87
483.348	4.99
483.701	4.91
484.055	4.83
484.408	4.88
484.761	4.79
485.114	4.79
485.466	4.72
485.819	4.71
486.172	4.55
486.525	4.61
486.878	4.66
487.23	4.68
487.583	4.74
487.936	4.8
488.288	4.82
488.641	4.89
488.993	4.73
489.345	4.75
489.698	4.73
490.05	4.71
490.402	4.7
490.754	4.71
491.107	4.77
491.459	4.89
491.811	4.94
492.163	4.93
492.515	4.99
492.866	5.01
493.218	4.89
493.57	4.78
493.922	4.77
494.274	4.8
494.625	4.81
494.977	4.88
495.328	4.99
495.68	5.05
496.031	4.96
496.383	5.11
496.734	5.13
497.086	5.05
497.437	5.14
497.788	5.03
498.139	5.27
498.49	4.99
498.842	5.05
499.193	5.19
499.544	5.13
499.894	5.24
500.245	5.03
500.596	5.03
500.947	5.19
501.298	5.21
501.648	5.1
501.999	5.1
502.35	5.09
502.7	5.29
503.051	5.23
503.401	5.35
503.752	5.22
504.102	5.17
504.452	5.28
504.803	5.11
505.153	5.2
505.503	5.31
505.853	5.39
506.203	5.19
506.553	5.19
506.903	5.22
507.253	5.27
507.603	5.22
507.953	5.27
508.303	5.36
508.652	5.31
509.002	5.4
509.352	5.35
509.701	5.4
510.051	5.28
510.4	5.27
510.75	5.27
511.099	5.3
511.449	5.35
511.798	5.25
512.147	5.22
512.496	5.28
512.846	5.34
513.195	5.31
513.544	5.39
513.893	5.32
514.242	5.34
514.591	5.34
514.939	5.3
515.288	5.26
515.637	5.42
515.986	5.41
516.334	5.24
516.683	5.47
517.032	5.38
517.38	5.27
517.729	5.45
518.077	5.55
518.426	5.54
518.774	5.28
519.122	5.48
519.47	5.4
519.819	5.44
520.167	5.3
520.515	5.49
520.863	5.44
521.211	5.4
521.559	5.43
521.907	5.43
522.255	5.43
522.602	5.59
522.95	5.55
523.298	5.58
523.645	5.62
523.993	5.53
524.341	5.68
524.688	5.65
525.036	5.64
525.383	5.56
525.73	5.71
526.078	5.62
526.425	5.79
526.772	5.62
527.119	5.6
527.466	5.58
527.814	5.54
528.161	5.6
528.508	5.5
528.854	5.55
529.201	5.56
529.548	5.58
529.895	5.54
530.242	5.45
530.588	5.39
530.935	5.36
531.282	5.45
531.628	5.48
531.975	5.48
532.321	5.53
532.667	5.62
533.014	5.68
533.36	5.71
533.706	5.78
534.052	5.76
534.399	5.68
534.745	5.6
535.091	5.69
535.437	5.65
535.783	5.65
536.129	5.67
536.474	5.69
536.82	5.82
537.166	5.73
537.512	5.93
537.857	5.96
538.203	5.85
538.549	5.99
538.894	5.88
539.239	5.86
539.585	5.78
539.93	5.86
540.276	5.95
540.621	6
540.966	6.08
541.311	6.03
541.656	6.02
542.001	6.15
542.346	6.12
542.691	5.9
543.036	5.96
543.381	5.89
543.726	5.85
544.071	5.89
544.415	5.9
544.76	5.94
545.105	6.04
545.449	5.95
545.794	6.08
546.138	6.02
546.483	6.18
546.827	6.22
547.171	6.18
547.516	6.16
547.86	6.23
548.204	6.11
548.548	6.17
548.892	6.27
549.236	6.34
549.58	6.25
549.924	6.28
550.268	6.38
550.612	6.41
550.956	6.44
551.3	6.45
551.643	6.42
551.987	6.72
552.33	6.59
552.674	6.57
553.017	6.54
553.361	6.49
553.704	6.83
554.048	6.63
554.391	6.73
554.734	6.66
555.077	6.72
555.42	6.41
555.764	6.49
556.107	6.78
556.45	6.79
556.793	6.65
557.135	6.73
557.478	6.45
557.821	6.67
558.164	6.87
558.507	6.88
558.849	6.87
559.192	6.82
559.534	7.15
559.877	6.68
560.219	7.11
560.562	6.87
560.904	6.87
561.246	7.16
561.589	6.82
561.931	7.19
562.273	7.17
562.615	6.98
562.957	7.04
563.299	7.07
563.641	7.28
563.983	7.04
564.325	6.99
564.667	7.17
565.008	7.08
565.35	7.01
565.692	7.1
566.033	7.29
566.375	7.18
566.716	7.21
567.058	7.15
567.399	7.31
567.741	7.13
568.082	7.28
568.423	7.22
568.764	7.15
569.105	7.35
569.447	7.34
569.788	7.34
570.129	7.32
570.47	7.46
570.811	7.55
571.151	7.48
571.492	7.76
571.833	7.56
572.174	7.62
572.514	7.58
572.855	7.53
573.195	7.6
573.536	7.41
573.876	7.72
574.217	7.43
574.557	7.53
574.898	7.54
575.238	7.52
575.578	7.8
575.918	7.68
576.258	7.76
576.598	7.87
576.938	7.71
577.278	7.84
577.618	7.72
577.958	7.83
578.298	7.86
578.638	7.78
578.977	7.82
579.317	7.89
579.657	7.98
579.996	8.01
580.336	8.26
580.675	8.1
581.014	7.92
581.354	7.96
581.693	8.14
582.032	8.17
582.372	8.28
582.711	8.39
583.05	8.29
583.389	8.34
583.728	8.32
584.067	8.37
584.406	8.37
584.745	8.23
585.083	8.26
585.422	8.37
585.761	8.4
586.1	8.29
586.438	8.32
586.777	8.45
587.115	8.81
587.454	8.66
587.792	8.45
588.13	8.7
588.469	8.99
588.807	8.56
589.145	8.62
589.483	8.78
589.821	8.58
590.159	8.91
590.497	8.88
590.835	8.74
591.173	8.84
591.511	8.8
591.849	8.66
592.187	8.84
592.524	8.7
592.862	8.92
593.2	8.9
593.537	8.92
593.875	8.88
594.212	9.2
594.55	9.14
594.887	9.03
595.224	8.98
595.561	9.07
595.899	9.08
596.236	9.48
596.573	9.16
596.91	9.4
597.247	8.82
597.584	8.88
597.921	9.37
598.258	9.32
598.594	9.27
598.931	9.06
599.268	9.07
599.604	9.32
599.941	9.24
600.277	9.24
600.614	9.32
600.95	9.37
601.287	9.2
601.623	9.81
601.959	9.68
602.296	9.36
602.632	9.78
602.968	9.45
603.304	9.78
603.64	9.61
603.976	9.8
604.312	9.89
604.648	9.93
604.984	9.82
605.319	9.91
605.655	9.65
605.991	9.65
606.326	9.73
606.662	9.64
606.998	9.72
607.333	9.79
607.668	9.6
608.004	10.01
608.339	9.84
608.674	10.02
609.01	10.12
609.345	10.08
609.68	10.35
610.015	10.06
610.35	10.44
610.685	10.45
611.02	10.18
611.355	10.19
611.689	10.15
612.024	10.3
612.359	10.44
612.694	10.32
613.028	10.52
613.363	10.45
613.697	10.49
614.032	10.64
614.366	10.42
614.7	10.61
615.035	10.73
615.369	10.75
615.703	10.38
616.037	10.84
616.371	10.72
616.705	10.51
617.039	10.87
617.373	10.79
617.707	11.35
618.041	10.99
618.375	10.92
618.709	11.21
619.042	11.06
619.376	11.15
619.71	11.27
620.043	11.05
620.377	10.86
620.71	11.23
621.043	11.53
621.377	11.15
621.71	11.25
622.043	11.12
622.376	11.25
622.709	11.51
623.043	11.25
623.376	10.87
623.709	11.35
624.041	11.04
624.374	11.3
624.707	11.42
625.04	11.41
625.373	11.49
625.705	11.38
626.038	11.87
626.37	11.22
626.703	11.48
627.035	11.34
627.368	11.76
627.7	12.19
628.032	11.58
628.365	11.96
628.697	11.93
629.029	11.68
629.361	11.86
629.693	11.89
630.025	11.74
630.357	11.9
630.689	11.57
631.021	12.12
631.353	12.03
631.684	12.01
632.016	12.5
632.348	12.03
632.679	12.16
633.011	12.24
633.342	12.13
633.674	12.13
634.005	12.18
634.336	12.53
634.668	12.56
634.999	12.25
635.33	12.14
635.661	12.67
635.992	12.69
636.323	12.68
636.654	12.59
636.985	12.35
637.316	12.67
637.647	12.85
637.977	12.39
638.308	12.34
638.639	12.64
638.969	13.11
639.3	12.48
639.63	12.74
639.961	12.86
640.291	12.88
640.622	12.72
640.952	12.67
641.282	12.94
641.612	13.03
641.943	13.46
642.273	12.84
642.603	13.36
642.933	13.23
643.263	13.38
643.592	13.34
643.922	13.72
644.252	13.18
644.582	13.34
644.911	13.28
645.241	13.91
645.571	13.71
645.9	13.03
646.23	13.25
646.559	13.39
646.888	13.36
647.218	13.85
647.547	13.57
647.876	13.57
648.205	13.6
648.534	13.69
648.863	13.92
649.192	13.82
649.521	14.1
649.85	13.66
650.179	13.95
650.508	13.64
650.837	13.75
651.165	13.87
651.494	13.49
651.822	14.1
652.151	14.37
652.479	14.56
652.808	14.06
653.136	13.69
653.465	14.37
653.793	14.17
654.121	14.28
654.449	14.23
654.777	14.33
655.105	14.19
655.433	15.07
655.761	14.72
656.089	14.78
656.417	14.37
656.745	14.95
657.073	14.73
657.4	15.21
657.728	14.68
658.056	14.41
658.383	15.01
658.711	14.94
659.038	15.01
659.365	15
659.693	14.74
660.02	14.92
660.347	14.75
660.674	14.99
661.001	14.53
661.329	14.77
661.656	15.31
661.982	15.19
662.309	14.96
662.636	14.89
662.963	15.08
663.29	15.26
663.616	15.57
663.943	15.29
664.27	15.36
664.596	15.11
664.923	15.37
665.249	15.49
665.576	15.42
665.902	15.2
666.228	16.09
666.554	15.37
666.881	14.96
667.207	15.45
667.533	15.69
667.859	15.68
668.185	16.01
668.511	16.03
668.837	15.9
669.162	16.31
669.488	15.84
669.814	15.59
670.139	16.03
670.465	15.56
670.791	16.13
671.116	15.79
671.442	16.17
671.767	16.43
672.092	16.15
672.418	16.51
672.743	16.49
673.068	16.94
673.393	16.19
673.718	16.49
674.043	16.17
674.368	16.2
674.693	17.12
675.018	16.49
675.343	16.14
675.667	16.73
675.992	16.11
676.317	17
676.641	16.88
676.966	17.28
677.29	16.85
677.615	16.7
677.939	16.4
678.264	17.23
678.588	16.03
678.912	17.38
679.236	17.11
679.56	16.93
679.885	17.28
680.209	16.67
680.532	16.45
680.856	16.57
681.18	16.99
681.504	17.28
681.828	17.24
682.152	17.01
682.475	16.84
682.799	17.42
683.122	17.3
683.446	17.06
683.769	17.25
684.093	17.87
684.416	17.64
684.739	17.45
685.062	16.6
685.386	16.77
685.709	17.14
686.032	17.27
686.355	18.14
686.678	17.2
687.001	17.88
