Data from 0245_forehead_Reflection__0__88.txt Node

Date: Fri Oct 20 21:21:14 CDT 2023
User: ToomeyLab
Spectrometer: FLMS14357
Trigger mode: 0
Integration Time (sec): 1.000000E-2
Scans to average: 100
Electric dark correction enabled: true
Nonlinearity correction enabled: false
Boxcar width: 0
XAxis mode: Wavelengths
Number of Pixels in Spectrum: 2048
>>>>>Begin Spectral Data<<<<<
189.047	-118.99
189.435	-118.99
189.823	-118.99
190.211	30.33
190.599	-563.28
190.987	306.8
191.375	328.15
191.763	60.66
192.151	-242.26
192.538	-7.47
192.926	-65.95
193.314	405.25
193.702	152.34
194.089	402.96
194.477	36.94
194.864	-58.72
195.252	14.22
195.639	292.57
196.027	-23.93
196.414	31.16
196.801	-1257.98
197.189	36.57
197.576	-125.4
197.963	7.89
198.351	87.5
198.738	36.43
199.125	59.72
199.512	58.88
199.899	51.35
200.286	19.28
200.673	66.9
201.06	36.87
201.447	40.59
201.833	51.13
202.22	39.39
202.607	43.44
202.994	58.46
203.38	39.51
203.767	47.47
204.154	24.19
204.54	37.81
204.927	42.82
205.313	27.2
205.699	70.99
206.086	24.61
206.472	64.92
206.858	82.25
207.245	-1.52
207.631	64.36
208.017	42.46
208.403	39.78
208.789	54.21
209.175	29.43
209.561	45.2
209.947	25.19
210.333	18.68
210.719	15.14
211.105	54.25
211.491	31.64
211.876	42.47
212.262	49.14
212.648	60.48
213.034	65.13
213.419	24.18
213.805	23.72
214.19	28.23
214.576	42.86
214.961	24.08
215.346	43.62
215.732	61.6
216.117	-8.29
216.502	24.24
216.888	43.44
217.273	7.88
217.658	0.4
218.043	22.75
218.428	22.3
218.813	20.57
219.198	18.26
219.583	31.64
219.968	12.26
220.353	40.34
220.738	44.08
221.122	13.07
221.507	25.87
221.892	19.75
222.276	28.07
222.661	20.59
223.046	33.88
223.43	23.32
223.815	20.62
224.199	23.64
224.583	1.68
224.968	4.71
225.352	3.4
225.736	15.01
226.121	15.96
226.505	12.27
226.889	17.39
227.273	11.19
227.657	9.69
228.041	12.17
228.425	8.94
228.809	7.07
229.193	6.2
229.577	5.27
229.961	4.97
230.344	4.52
230.728	3.65
231.112	4.2
231.495	3.51
231.879	3.7
232.263	4.41
232.646	4.54
233.03	3.75
233.413	2.99
233.797	4.18
234.18	5.21
234.563	6.32
234.946	7.13
235.33	5.24
235.713	4.43
236.096	6.18
236.479	4.2
236.862	4.24
237.245	3.56
237.628	5.38
238.011	5.86
238.394	4.35
238.777	4.94
239.16	5.04
239.543	6.57
239.925	7.18
240.308	4.58
240.691	4.24
241.073	6.6
241.456	4.94
241.838	3.5
242.221	4.16
242.603	4.51
242.986	4.68
243.368	3.81
243.75	3.56
244.133	3.46
244.515	2.92
244.897	3.31
245.279	3.46
245.661	3.56
246.043	3.26
246.425	3.15
246.807	3.83
247.189	4.01
247.571	3.78
247.953	4.03
248.335	3.2
248.717	3.41
249.098	2.83
249.48	3.19
249.862	3.25
250.243	3.88
250.625	3.71
251.006	3.43
251.388	3.93
251.769	4.7
252.151	4.11
252.532	4.56
252.913	3.65
253.295	2.57
253.676	4.14
254.057	3.39
254.438	3.51
254.819	4.34
255.2	4
255.581	3.94
255.962	5.07
256.343	4.69
256.724	3.48
257.105	4.24
257.486	3.82
257.867	3.57
258.247	4.33
258.628	4.26
259.009	3.56
259.389	3.72
259.77	3.55
260.15	4.06
260.531	3.59
260.911	3.61
261.292	3.58
261.672	3.55
262.052	3.35
262.432	3.4
262.813	3.27
263.193	3.58
263.573	3.73
263.953	3.46
264.333	4.29
264.713	4.3
265.093	4.58
265.473	3.83
265.853	3.02
266.233	3.73
266.612	4.72
266.992	4.55
267.372	3.9
267.752	3.5
268.131	3.84
268.511	3.48
268.89	3.86
269.27	3.87
269.649	2.88
270.029	3.91
270.408	4.04
270.787	3.65
271.167	3.71
271.546	3.83
271.925	4.57
272.304	4.5
272.683	3.75
273.062	4.21
273.441	3.39
273.82	3.65
274.199	3.71
274.578	3.52
274.957	4.21
275.336	4.26
275.715	3.7
276.093	3.52
276.472	3.93
276.851	4.08
277.229	4.21
277.608	3.24
277.986	3.32
278.365	4.1
278.743	3.55
279.122	3.58
279.5	3.39
279.878	3.2
280.257	4.12
280.635	3.77
281.013	3.9
281.391	4.55
281.769	3.29
282.147	3.79
282.525	4.28
282.903	3.79
283.281	4.44
283.659	3.73
284.037	3.4
284.415	3.04
284.792	3.84
285.17	4.19
285.548	3.85
285.925	3.74
286.303	3.7
286.68	3.36
287.058	3.86
287.435	4.03
287.813	3.44
288.19	3.68
288.567	3.46
288.945	3.59
289.322	3.86
289.699	3.47
290.076	4.36
290.453	4.08
290.83	4.02
291.207	3.86
291.584	3.32
291.961	4.21
292.338	3.57
292.715	3.84
293.092	3.85
293.469	4.3
293.845	3.8
294.222	4.27
294.599	4
294.975	4.9
295.352	4.66
295.728	4.33
296.105	4.18
296.481	4.6
296.858	4.52
297.234	5.12
297.61	4.3
297.986	4.67
298.363	4.76
298.739	4.42
299.115	4.44
299.491	4.59
299.867	4.52
300.243	4.56
300.619	4.6
300.995	4.86
301.371	5
301.746	4.94
302.122	5.46
302.498	4.92
302.874	5.25
303.249	4.81
303.625	5.42
304	5.59
304.376	4.8
304.751	5
305.127	4.87
305.502	5.89
305.878	5.57
306.253	5.24
306.628	5.86
307.003	5.69
307.378	5.83
307.754	5.46
308.129	6.59
308.504	6.62
308.879	6.34
309.254	6.7
309.629	6.16
310.003	5.74
310.378	6.63
310.753	6.59
311.128	6.7
311.502	6.63
311.877	6.52
312.252	6.22
312.626	6.38
313.001	6.47
313.375	6.74
313.75	6.51
314.124	6.36
314.498	7.01
314.873	6.57
315.247	7.33
315.621	7.29
315.995	7.12
316.369	7
316.743	7.43
317.117	7.04
317.491	6.99
317.865	7.65
318.239	7.86
318.613	8.13
318.987	7.79
319.361	7.3
319.734	7.68
320.108	7.72
320.482	8.44
320.855	8.07
321.229	8.45
321.602	8.4
321.976	8.43
322.349	8.9
322.723	8.92
323.096	8.7
323.469	8.56
323.843	9.09
324.216	9.19
324.589	8.93
324.962	9.79
325.335	9.12
325.708	9.22
326.081	8.95
326.454	9.14
326.827	9.62
327.2	9.55
327.573	9.43
327.945	9.33
328.318	8.79
328.691	9.4
329.063	9.92
329.436	9.5
329.809	9.62
330.181	9.99
330.553	10.24
330.926	9.38
331.298	9.71
331.671	9.47
332.043	9.67
332.415	10.11
332.787	10.25
333.159	10.14
333.532	10.27
333.904	10.64
334.276	10.06
334.648	10.77
335.02	10.75
335.391	10.63
335.763	10.77
336.135	10.5
336.507	11.31
336.879	10.12
337.25	10.9
337.622	11.38
337.993	11.24
338.365	11
338.736	10.93
339.108	11.4
339.479	10.99
339.851	11.12
340.222	11.22
340.593	10.62
340.964	11.13
341.336	11.77
341.707	11.34
342.078	11.43
342.449	11.16
342.82	11.19
343.191	11.66
343.562	11.88
343.933	11.76
344.303	12.34
344.674	12.05
345.045	12.41
345.416	12.28
345.786	12.03
346.157	12.06
346.527	12.24
346.898	12.48
347.268	12.47
347.639	12.45
348.009	12.25
348.38	12.16
348.75	12.32
349.12	12.78
349.49	12.84
349.861	13.33
350.231	12.53
350.601	12.84
350.971	12.91
351.341	13.16
351.711	13.62
352.081	13.33
352.45	13.23
352.82	13.3
353.19	13.14
353.56	13.67
353.929	13.22
354.299	13.47
354.669	13.27
355.038	13.47
355.408	13.74
355.777	13.77
356.147	13.55
356.516	13.85
356.885	13.54
357.254	13.62
357.624	13.61
357.993	13.94
358.362	13.97
358.731	13.65
359.1	13.59
359.469	14.01
359.838	14.28
360.207	14.11
360.576	14.52
360.945	14.14
361.314	14.26
361.682	14.46
362.051	14.23
362.42	14.29
362.788	14.4
363.157	14.52
363.525	14.3
363.894	14.58
364.262	14.62
364.631	14.73
364.999	14.7
365.367	14.71
365.735	14.72
366.104	14.97
366.472	15.07
366.84	15.3
367.208	15.03
367.576	15.06
367.944	15.53
368.312	15.14
368.68	15.29
369.048	15.6
369.416	15.69
369.783	16.03
370.151	15.58
370.519	15.73
370.886	16.14
371.254	16.43
371.621	15.88
371.989	16.13
372.356	16.06
372.724	16.27
373.091	15.97
373.458	16.15
373.826	16.46
374.193	16.36
374.56	16.15
374.927	16.4
375.294	16.64
375.661	16.68
376.028	17.11
376.395	17.36
376.762	16.82
377.129	17.11
377.496	16.61
377.863	17.17
378.229	17.34
378.596	17.06
378.963	17.21
379.329	16.95
379.696	17.26
380.062	17.24
380.429	17.05
380.795	17.4
381.161	17.36
381.528	17.76
381.894	17.23
382.26	17.62
382.626	17.9
382.993	17.76
383.359	17.45
383.725	17.75
384.091	17.88
384.457	18.1
384.823	18.03
385.188	18.4
385.554	18.24
385.92	18.09
386.286	18.29
386.651	17.96
387.017	18.57
387.383	18.16
387.748	18.27
388.114	18.32
388.479	18.68
388.845	18.96
389.21	18.44
389.575	18.61
389.94	18.81
390.306	18.76
390.671	18.8
391.036	18.96
391.401	19
391.766	19.17
392.131	18.98
392.496	19.33
392.861	19.35
393.226	19.43
393.591	19.03
393.956	19.4
394.32	19.52
394.685	19.34
395.05	19.59
395.414	19.68
395.779	19.5
396.143	19.38
396.508	19.46
396.872	19.78
397.236	19.71
397.601	19.88
397.965	19.72
398.329	19.66
398.694	20.49
399.058	19.88
399.422	20.37
399.786	20.44
400.15	20.47
400.514	20.4
400.878	20.42
401.242	20.69
401.605	20.63
401.969	20.4
402.333	20.64
402.697	20.73
403.06	20.53
403.424	20.45
403.787	20.92
404.151	21.18
404.514	21.16
404.878	21.2
405.241	20.99
405.604	20.85
405.968	21.14
406.331	20.97
406.694	21.1
407.057	21.15
407.42	21.52
407.783	21.44
408.146	21.46
408.509	21.52
408.872	21.5
409.235	21.81
409.598	21.65
409.961	21.75
410.323	21.9
410.686	21.83
411.049	21.91
411.411	22.11
411.774	21.76
412.136	22.04
412.499	22.26
412.861	22.12
413.223	22.26
413.586	22.27
413.948	22.54
414.31	22.39
414.672	22.51
415.035	22.43
415.397	22.67
415.759	22.75
416.121	22.58
416.483	22.8
416.845	22.8
417.206	22.68
417.568	22.72
417.93	23.02
418.292	22.54
418.653	23.06
419.015	22.76
419.377	22.94
419.738	22.73
420.1	22.77
420.461	22.72
420.822	22.68
421.184	23.02
421.545	22.91
421.906	22.99
422.267	22.96
422.629	23.06
422.99	22.84
423.351	22.92
423.712	23.01
424.073	23.04
424.434	23.19
424.795	23.22
425.155	23.23
425.516	23.28
425.877	23.2
426.238	23.33
426.598	23.23
426.959	23.41
427.32	23.52
427.68	23.54
428.041	23.77
428.401	23.99
428.761	23.76
429.122	24.13
429.482	24.07
429.842	24.37
430.202	24.45
430.563	24.41
430.923	24.71
431.283	24.48
431.643	24.75
432.003	24.92
432.363	24.47
432.722	24.72
433.082	24.85
433.442	24.92
433.802	25.01
434.161	24.92
434.521	24.73
434.881	24.95
435.24	24.81
435.6	24.91
435.959	25.06
436.319	25.03
436.678	24.94
437.037	24.93
437.396	25.38
437.756	25.36
438.115	25.29
438.474	25.47
438.833	25.78
439.192	25.7
439.551	25.83
439.91	25.6
440.269	25.76
440.628	25.59
440.987	25.92
441.345	25.56
441.704	25.73
442.063	25.62
442.421	25.56
442.78	25.69
443.138	26.08
443.497	25.92
443.855	25.96
444.214	26.08
444.572	25.93
444.93	26.3
445.288	26.41
445.647	26.34
446.005	26.32
446.363	26.28
446.721	26.47
447.079	26.52
447.437	26.41
447.795	26.21
448.153	26.14
448.51	26.35
448.868	26.4
449.226	26.21
449.584	26.44
449.941	26.41
450.299	26.92
450.656	26.57
451.014	26.71
451.371	27.05
451.729	26.82
452.086	27.18
452.443	27.12
452.801	27.35
453.158	27.45
453.515	27.45
453.872	27.36
454.229	27.48
454.586	27.48
454.943	27.44
455.3	27.6
455.657	27.64
456.014	27.63
456.371	27.65
456.727	28.12
457.084	28.02
457.441	27.99
457.797	28.02
458.154	28.18
458.51	28.23
458.867	28.03
459.223	28.19
459.58	28.24
459.936	28.12
460.292	28.2
460.648	28.24
461.005	28.12
461.361	28.09
461.717	28
462.073	27.82
462.429	27.78
462.785	28.21
463.141	28.39
463.496	28.59
463.852	28.59
464.208	28.76
464.564	28.92
464.919	28.84
465.275	29.05
465.631	29.15
465.986	29.05
466.342	28.95
466.697	29.22
467.052	29.17
467.408	29.19
467.763	29.42
468.118	29.53
468.473	29.55
468.829	29.58
469.184	29.62
469.539	29.55
469.894	29.56
470.249	29.6
470.603	29.61
470.958	29.71
471.313	29.84
471.668	30.14
472.023	29.89
472.377	29.94
472.732	29.89
473.086	30.12
473.441	30.07
473.795	30.34
474.15	30.25
474.504	30.26
474.859	30.4
475.213	30.07
475.567	30.42
475.921	30.47
476.275	30.56
476.63	30.63
476.984	30.75
477.338	30.57
477.692	30.72
478.045	30.52
478.399	30.6
478.753	30.62
479.107	30.62
479.461	30.59
479.814	30.84
480.168	30.6
480.521	30.69
480.875	30.86
481.228	30.84
481.582	31.07
481.935	31
482.289	31.09
482.642	31
482.995	31.06
483.348	31.05
483.701	30.93
484.055	30.89
484.408	30.75
484.761	30.62
485.114	30.34
485.466	30.1
485.819	29.78
486.172	29.83
486.525	30.03
486.878	30.26
487.23	30.35
487.583	30.6
487.936	30.58
488.288	30.77
488.641	30.79
488.993	30.53
489.345	30.52
489.698	30.53
490.05	30.48
490.402	30.57
490.754	30.75
491.107	30.98
491.459	31.27
491.811	31.43
492.163	31.47
492.515	31.64
492.866	31.52
493.218	31.17
493.57	31.01
493.922	30.94
494.274	31.3
494.625	31.37
494.977	31.75
495.328	31.88
495.68	32.01
496.031	32.29
496.383	32.47
496.734	32.6
497.086	32.87
497.437	32.82
497.788	32.86
498.139	32.79
498.49	32.74
498.842	32.58
499.193	32.68
499.544	32.78
499.894	32.77
500.245	32.73
500.596	32.97
500.947	33.04
501.298	33
501.648	33.12
501.999	33.25
502.35	33.29
502.7	33.5
503.051	33.45
503.401	33.73
503.752	33.73
504.102	33.52
504.452	33.54
504.803	33.71
505.153	33.77
505.503	33.91
505.853	33.86
506.203	33.75
506.553	33.73
506.903	33.79
507.253	33.84
507.603	34.06
507.953	33.98
508.303	34.11
508.652	34.15
509.002	34.16
509.352	34.06
509.701	34.16
510.051	33.76
510.4	34.2
510.75	34.13
511.099	33.99
511.449	34.15
511.798	34.22
512.147	34.22
512.496	34.24
512.846	34.23
513.195	34.45
513.544	34.42
513.893	34.24
514.242	34.43
514.591	34.42
514.939	34.49
515.288	34.62
515.637	34.63
515.986	34.73
516.334	34.66
516.683	34.78
517.032	34.94
517.38	34.96
517.729	35.04
518.077	35.03
518.426	34.97
518.774	35.1
519.122	34.98
519.47	34.81
519.819	34.81
520.167	34.69
520.515	34.6
520.863	34.53
521.211	34.68
521.559	34.79
521.907	34.87
522.255	35.06
522.602	35.14
522.95	35.22
523.298	35.29
523.645	35.54
523.993	35.45
524.341	35.57
524.688	35.79
525.036	35.72
525.383	35.68
525.73	35.86
526.078	35.74
526.425	35.95
526.772	35.79
527.119	35.71
527.466	35.36
527.814	35.33
528.161	35.23
528.508	35.32
528.854	35.4
529.201	35.31
529.548	35.41
529.895	35.32
530.242	35
530.588	34.78
530.935	34.91
531.282	34.94
531.628	35.17
531.975	35.25
532.321	35.46
532.667	35.51
533.014	35.85
533.36	35.95
533.706	36.18
534.052	35.98
534.399	35.96
534.745	35.88
535.091	35.85
535.437	35.62
535.783	35.61
536.129	36.04
536.474	36.24
536.82	36.27
537.166	36.29
537.512	36.39
537.857	36.6
538.203	36.79
538.549	36.55
538.894	36.42
539.239	36.45
539.585	36.6
539.93	36.74
540.276	37.12
540.621	37.18
540.966	37.39
541.311	37.29
541.656	37.49
542.001	37.38
542.346	37.1
542.691	36.83
543.036	36.6
543.381	36.3
543.726	36.29
544.071	36.62
544.415	36.84
544.76	36.89
545.105	37.19
545.449	37.08
545.794	37.1
546.138	37.22
546.483	37.19
546.827	37.51
547.171	37.63
547.516	37.66
547.86	37.9
548.204	37.76
548.548	37.78
548.892	37.74
549.236	37.76
549.58	37.89
549.924	38.26
550.268	37.99
550.612	38.44
550.956	38.63
551.3	38.59
551.643	38.85
551.987	39
552.33	38.84
552.674	38.88
553.017	38.71
553.361	38.97
553.704	39.18
554.048	39.22
554.391	38.87
554.734	38.97
555.077	38.98
555.42	38.59
555.764	39.01
556.107	39.19
556.45	39.13
556.793	39.36
557.135	39.26
557.478	39.3
557.821	39.31
558.164	39.33
558.507	39.64
558.849	39.59
559.192	39.75
559.534	39.65
559.877	39.59
560.219	39.65
560.562	39.74
560.904	39.6
561.246	40.04
561.589	39.67
561.931	39.88
562.273	40.21
562.615	39.81
562.957	39.75
563.299	39.94
563.641	40.11
563.983	39.89
564.325	39.96
564.667	39.91
565.008	39.92
565.35	40.2
565.692	40.08
566.033	40.23
566.375	40.09
566.716	40.16
567.058	40.42
567.399	40.37
567.741	39.95
568.082	40.1
568.423	40.17
568.764	40.11
569.105	40.42
569.447	40.38
569.788	40.46
570.129	40.35
570.47	40.31
570.811	40.57
571.151	40.73
571.492	40.72
571.833	40.76
572.174	40.58
572.514	40.77
572.855	40.6
573.195	40.65
573.536	40.54
573.876	40.68
574.217	40.49
574.557	40.51
574.898	40.63
575.238	40.71
575.578	40.84
575.918	40.63
576.258	40.94
576.598	41.32
576.938	41.11
577.278	40.96
577.618	40.95
577.958	41.05
578.298	41.28
578.638	41.27
578.977	41.41
579.317	41.58
579.657	41.24
579.996	41.59
580.336	41.64
580.675	41.57
581.014	41.88
581.354	41.67
581.693	42
582.032	42.11
582.372	41.99
582.711	42.08
583.05	41.93
583.389	42.04
583.728	42.26
584.067	42.26
584.406	42
584.745	42.17
585.083	41.86
585.422	42.29
585.761	42.06
586.1	42.43
586.438	42.38
586.777	42.43
587.115	42.41
587.454	42.43
587.792	42.41
588.13	42.61
588.469	42.91
588.807	42.59
589.145	42.71
589.483	42.56
589.821	42.89
590.159	42.77
590.497	42.77
590.835	42.85
591.173	42.77
591.511	43.07
591.849	42.67
592.187	42.44
592.524	42.64
592.862	42.91
593.2	42.99
593.537	43
593.875	43.23
594.212	42.68
594.55	43.26
594.887	43.01
595.224	42.98
595.561	43.01
595.899	42.91
596.236	43.19
596.573	43.4
596.91	43.04
597.247	42.93
597.584	42.93
597.921	43.39
598.258	43.08
598.594	43.18
598.931	42.83
599.268	42.78
599.604	42.88
599.941	43
600.277	43.28
600.614	43.3
600.95	43.43
601.287	43.46
601.623	43.83
601.959	43.37
602.296	43.81
602.632	43.89
602.968	43.78
603.304	43.9
603.64	43.97
603.976	43.83
604.312	44.04
604.648	43.78
604.984	44.03
605.319	43.74
605.655	43.79
605.991	43.82
606.326	43.49
606.662	43.3
606.998	43.55
607.333	43.71
607.668	43.38
608.004	43.85
608.339	44.16
608.674	44.23
609.01	44.06
609.345	44.4
609.68	44.32
610.015	44.05
610.35	44.15
610.685	44.43
611.02	44.25
611.355	44.14
611.689	44.1
612.024	44.38
612.359	44.42
612.694	44.25
613.028	44.44
613.363	44.59
613.697	44.32
614.032	44.61
614.366	44.32
614.7	44.59
615.035	44.97
615.369	45.15
615.703	44.72
616.037	45.33
616.371	45.23
616.705	44.74
617.039	44.81
617.373	45.58
617.707	45.27
618.041	45.42
618.375	45.08
618.709	45.42
619.042	45.65
619.376	45.57
619.71	45.4
620.043	45.28
620.377	45.06
620.71	45.76
621.043	45.91
621.377	45.16
621.71	45.76
622.043	45.64
622.376	46.08
622.709	45.83
623.043	45.75
623.376	45.41
623.709	45.65
624.041	45.71
624.374	45.91
624.707	46.23
625.04	45.97
625.373	45.73
625.705	45.72
626.038	46.16
626.37	45.53
626.703	46.06
627.035	45.45
627.368	45.68
627.7	45.61
628.032	45.76
628.365	46.1
628.697	45.99
629.029	45.87
629.361	45.82
629.693	46.29
630.025	45.86
630.357	46.29
630.689	45.72
631.021	46.3
631.353	46.55
631.684	46.3
632.016	46.19
632.348	46.58
632.679	46.01
633.011	46.37
633.342	45.97
633.674	46.78
634.005	46.54
634.336	46.81
634.668	46.94
634.999	46.56
635.33	46.7
635.661	46.87
635.992	46.63
636.323	46.8
636.654	46.68
636.985	46.36
637.316	46.98
637.647	46.24
637.977	46.89
638.308	46.97
638.639	47.11
638.969	46.63
639.3	46.67
639.63	47.07
639.961	47.03
640.291	47.42
640.622	47.02
640.952	46.73
641.282	47.23
641.612	47.11
641.943	47.22
642.273	47.26
642.603	47.39
642.933	47.78
643.263	47.59
643.592	47.2
643.922	47.54
644.252	47.58
644.582	47.63
644.911	47.61
645.241	47.86
645.571	47.8
645.9	48
646.23	47.76
646.559	47.07
646.888	47.52
647.218	47.48
647.547	47.73
647.876	47.57
648.205	47.87
648.534	47.99
648.863	47.4
649.192	47.34
649.521	47.6
649.85	47.53
650.179	47.52
650.508	47.97
650.837	47.71
651.165	48.56
651.494	48.04
651.822	48.16
652.151	48.53
652.479	48.47
652.808	47.35
653.136	47.86
653.465	47.88
653.793	47.99
654.121	47.74
654.449	48.75
654.777	48.6
655.105	47.74
655.433	48.28
655.761	48.57
656.089	48.84
656.417	48.64
656.745	48.53
657.073	48.94
657.4	48.72
657.728	48.89
658.056	48.29
658.383	47.98
658.711	48.13
659.038	48.27
659.365	48.28
659.693	48.23
660.02	47.86
660.347	48.63
660.674	48.62
661.001	48.12
661.329	48.09
661.656	48.3
661.982	48.92
662.309	48.81
662.636	48.78
662.963	48.26
663.29	48.65
663.616	48.79
663.943	48.42
664.27	48.5
664.596	48.76
664.923	48.67
665.249	48.84
665.576	48.85
665.902	49.14
666.228	49.62
666.554	48.5
666.881	48.39
667.207	49.1
667.533	48.98
667.859	48.84
668.185	49.3
668.511	49.38
668.837	49.76
669.162	49.11
669.488	49.55
669.814	49.22
670.139	49.4
670.465	49.78
