Data from 0245_chest_Reflection__2__80.txt Node

Date: Fri Oct 20 21:18:32 CDT 2023
User: ToomeyLab
Spectrometer: FLMS14357
Trigger mode: 0
Integration Time (sec): 1.000000E-2
Scans to average: 100
Electric dark correction enabled: true
Nonlinearity correction enabled: false
Boxcar width: 0
XAxis mode: Wavelengths
Number of Pixels in Spectrum: 2048
>>>>>Begin Spectral Data<<<<<
189.047	-106.87
189.435	-106.87
189.823	-106.87
190.211	89.03
190.599	175.86
190.987	171.52
191.375	977.17
191.763	24.94
192.151	-189
192.538	-8.12
192.926	152.13
193.314	360.91
193.702	87.18
194.089	360.41
194.477	-16.1
194.864	-5.96
195.252	111.72
195.639	233.45
196.027	55.65
196.414	-0.36
196.801	104.26
197.189	2.34
197.576	26.71
197.963	97.53
198.351	56.64
198.738	8.87
199.125	49.99
199.512	15.86
199.899	24.05
200.286	-24.31
200.673	44.84
201.06	64.33
201.447	10.06
201.833	26.78
202.22	26.62
202.607	68.94
202.994	23.76
203.38	0.68
203.767	11.71
204.154	50.53
204.54	43.38
204.927	23.4
205.313	19.27
205.699	51.07
206.086	11.36
206.472	38.08
206.858	47.26
207.245	-1.25
207.631	46.05
208.017	37.26
208.403	19.38
208.789	33.24
209.175	6.89
209.561	29.92
209.947	14.06
210.333	25.69
210.719	29.2
211.105	32
211.491	6.94
211.876	45.3
212.262	44.78
212.648	21.78
213.034	72.2
213.419	20.58
213.805	5.5
214.19	9.99
214.576	30.39
214.961	18.14
215.346	25.26
215.732	10.97
216.117	0.43
216.502	34.44
216.888	17.89
217.273	-4.27
217.658	17.15
218.043	20.21
218.428	22.57
218.813	30.5
219.198	16.25
219.583	-21.67
219.968	-8.06
220.353	28.13
220.738	28.68
221.122	23.07
221.507	27.88
221.892	17.07
222.276	11.08
222.661	25.93
223.046	0.5
223.43	-1.59
223.815	14.88
224.199	23.03
224.583	2.53
224.968	13.34
225.352	0.25
225.736	8.43
226.121	13.6
226.505	-0.81
226.889	9.88
227.273	8.58
227.657	6.27
228.041	8.48
228.425	7.66
228.809	9.66
229.193	5.03
229.577	7.42
229.961	3.71
230.344	4.47
230.728	2.75
231.112	3.9
231.495	2.65
231.879	2.7
232.263	4.15
232.646	1.84
233.03	3.53
233.413	3.32
233.797	3.09
234.18	3.22
234.563	5.48
234.946	6.29
235.33	4.52
235.713	4.69
236.096	3.8
236.479	1.99
236.862	3.4
237.245	3.3
237.628	3.62
238.011	5.28
238.394	3.4
238.777	6.01
239.16	3.95
239.543	5.56
239.925	5.67
240.308	4.01
240.691	4.11
241.073	5.1
241.456	4.63
241.838	4.22
242.221	5.37
242.603	3.55
242.986	4
243.368	3.39
243.75	2.49
244.133	2.94
244.515	2.7
244.897	2.97
245.279	3.34
245.661	2.85
246.043	2.7
246.425	2.54
246.807	3.07
247.189	3.92
247.571	2.83
247.953	3.27
248.335	3.28
248.717	2.98
249.098	2.68
249.48	2.5
249.862	2.79
250.243	3.01
250.625	3.24
251.006	3.15
251.388	3.36
251.769	3.59
252.151	2.75
252.532	3.67
252.913	2.93
253.295	1.94
253.676	3.01
254.057	2.82
254.438	2.62
254.819	3.23
255.2	2.81
255.581	2.73
255.962	3.23
256.343	4.19
256.724	1.84
257.105	3.93
257.486	2.41
257.867	3.75
258.247	3.35
258.628	3.62
259.009	3.22
259.389	3.03
259.77	2.55
260.15	3.13
260.531	3.46
260.911	2.79
261.292	2.73
261.672	2.83
262.052	2.77
262.432	2.6
262.813	2.69
263.193	2.59
263.573	2.69
263.953	2.65
264.333	3.58
264.713	3.08
265.093	3.54
265.473	3.1
265.853	3.33
266.233	3.42
266.612	3.78
266.992	4.08
267.372	2.65
267.752	2.72
268.131	3.32
268.511	3.41
268.89	3.03
269.27	3.1
269.649	2.41
270.029	2.88
270.408	2.66
270.787	2.87
271.167	2.86
271.546	3.14
271.925	4.18
272.304	3.44
272.683	2.34
273.062	2.86
273.441	3.02
273.82	3.12
274.199	3.04
274.578	3.08
274.957	2.68
275.336	2.78
275.715	3.08
276.093	2.47
276.472	3.07
276.851	3.1
277.229	3.36
277.608	2.03
277.986	2.58
278.365	3.02
278.743	2.57
279.122	2.6
279.5	3.13
279.878	2.78
280.257	3.02
280.635	3.19
281.013	2.77
281.391	3.22
281.769	2.77
282.147	2.19
282.525	2.51
282.903	2.47
283.281	2.85
283.659	2.79
284.037	3
284.415	2.34
284.792	2.44
285.17	2.7
285.548	2.67
285.925	2.46
286.303	2.52
286.68	2.71
287.058	3.06
287.435	2.4
287.813	2.45
288.19	2.85
288.567	2.52
288.945	2.86
289.322	3.04
289.699	2.75
290.076	3.24
290.453	2.69
290.83	2.33
291.207	2.92
291.584	2.38
291.961	2.59
292.338	2.66
292.715	2.65
293.092	2.46
293.469	2.85
293.845	2.83
294.222	2.5
294.599	2.53
294.975	3.7
295.352	2.49
295.728	3.04
296.105	2.6
296.481	2.98
296.858	3.19
297.234	2.6
297.61	2.53
297.986	2.84
298.363	3.04
298.739	2.76
299.115	2.46
299.491	2.55
299.867	2.6
300.243	2.79
300.619	2.61
300.995	2.5
301.371	2.88
301.746	2.77
302.122	2.54
302.498	2.3
302.874	2.67
303.249	2.53
303.625	3.06
304	3.44
304.376	2.81
304.751	2.71
305.127	2.48
305.502	3.31
305.878	2.64
306.253	3.14
306.628	3.13
307.003	2.65
307.378	2.38
307.754	2.86
308.129	3.45
308.504	3.31
308.879	2.89
309.254	3.42
309.629	2.98
310.003	2
310.378	3.44
310.753	3.22
311.128	3.36
311.502	3.12
311.877	2.84
312.252	2.66
312.626	2.85
313.001	2.35
313.375	3.02
313.75	2.77
314.124	2.47
314.498	2.79
314.873	2.63
315.247	2.92
315.621	3.34
315.995	3.06
316.369	2.69
316.743	2.96
317.117	3.21
317.491	2.45
317.865	3.57
318.239	3.14
318.613	2.74
318.987	2.67
319.361	2.37
319.734	3.11
320.108	2.84
320.482	3.35
320.855	2.95
321.229	3.46
321.602	3.08
321.976	3.22
322.349	3.43
322.723	3.42
323.096	3.37
323.469	3.16
323.843	3.34
324.216	3.15
324.589	3.13
324.962	3.05
325.335	2.78
325.708	2.88
326.081	3.04
326.454	2.89
326.827	3.23
327.2	3.01
327.573	2.81
327.945	2.99
328.318	2.85
328.691	2.75
329.063	2.7
329.436	2.71
329.809	2.73
330.181	3.61
330.553	3.26
330.926	2.92
331.298	2.94
331.671	2.53
332.043	2.62
332.415	2.91
332.787	3.97
333.159	2.42
333.532	3.23
333.904	3.23
334.276	3.11
334.648	2.9
335.02	3.44
335.391	2.7
335.763	3.34
336.135	3.09
336.507	3.09
336.879	2.94
337.25	2.9
337.622	2.89
337.993	3.16
338.365	3
338.736	2.74
339.108	3.65
339.479	2.57
339.851	3.13
340.222	2.51
340.593	2.56
340.964	2.57
341.336	3.38
341.707	2.94
342.078	3.17
342.449	2.85
342.82	2.95
343.191	2.97
343.562	2.78
343.933	2.73
344.303	3
344.674	3.46
345.045	3.19
345.416	3.23
345.786	2.97
346.157	2.93
346.527	3.11
346.898	2.96
347.268	3.34
347.639	3.12
348.009	3.01
348.38	2.99
348.75	3
349.12	2.93
349.49	2.83
349.861	3.29
350.231	3.11
350.601	3.29
350.971	3.31
351.341	2.73
351.711	3.34
352.081	3.29
352.45	3.04
352.82	2.8
353.19	3.33
353.56	3.23
353.929	3.09
354.299	2.86
354.669	3.1
355.038	3.29
355.408	3.29
355.777	3.21
356.147	3.01
356.516	2.63
356.885	2.77
357.254	2.81
357.624	3.01
357.993	2.79
358.362	3.13
358.731	2.56
359.1	2.69
359.469	3.03
359.838	3.22
360.207	3.13
360.576	2.93
360.945	2.89
361.314	3.08
361.682	3.06
362.051	2.73
362.42	2.59
362.788	3.06
363.157	3.02
363.525	2.64
363.894	2.91
364.262	2.8
364.631	2.96
364.999	3.02
365.367	3
365.735	3.02
366.104	2.69
366.472	3.1
366.84	2.86
367.208	3.08
367.576	3.05
367.944	2.93
368.312	3.1
368.68	3.07
369.048	3.07
369.416	3.13
369.783	3.18
370.151	3.04
370.519	3.02
370.886	3.19
371.254	3.09
371.621	3.47
371.989	2.94
372.356	3.28
372.724	3.08
373.091	3.03
373.458	2.83
373.826	2.88
374.193	2.66
374.56	3.1
374.927	3.16
375.294	2.96
375.661	3.05
376.028	3.2
376.395	3.18
376.762	3.22
377.129	3.09
377.496	3.02
377.863	3.26
378.229	3.22
378.596	2.92
378.963	2.91
379.329	3.48
379.696	3.04
380.062	2.98
380.429	3.04
380.795	2.93
381.161	2.83
381.528	3.47
381.894	3.1
382.26	2.98
382.626	3.15
382.993	2.96
383.359	3.2
383.725	2.9
384.091	2.93
384.457	3.18
384.823	3.06
385.188	3.31
385.554	3.34
385.92	3.23
386.286	3.27
386.651	2.94
387.017	3.27
387.383	3.33
387.748	3.08
388.114	2.95
388.479	3.03
388.845	3.31
389.21	2.97
389.575	3.01
389.94	3.09
390.306	2.98
390.671	3.2
391.036	3
391.401	3.62
391.766	3.6
392.131	2.93
392.496	3.2
392.861	3.29
393.226	3.38
393.591	2.98
393.956	3.13
394.32	3.17
394.685	2.91
395.05	3.16
395.414	3.37
395.779	3.01
396.143	2.95
396.508	3
396.872	3.24
397.236	3.14
397.601	2.9
397.965	3.04
398.329	2.9
398.694	3.28
399.058	3.01
399.422	3.25
399.786	3
400.15	3.12
400.514	3.19
400.878	3.28
401.242	3.39
401.605	3.34
401.969	3.02
402.333	3.06
402.697	3.35
403.06	3.25
403.424	3.04
403.787	3.19
404.151	3.37
404.514	3.38
404.878	3.36
405.241	3.3
405.604	3.02
405.968	3.18
406.331	3.19
406.694	3.32
407.057	3.05
407.42	3.32
407.783	3.09
408.146	3.02
408.509	3.01
408.872	3.26
409.235	3.12
409.598	3.15
409.961	3.02
410.323	3.05
410.686	2.89
411.049	3.06
411.411	3.17
411.774	3.26
412.136	3.22
412.499	3.27
412.861	3.12
413.223	2.99
413.586	3.15
413.948	3.41
414.31	3.29
414.672	3.11
415.035	3.15
415.397	3.25
415.759	3.27
416.121	3.4
416.483	3.24
416.845	3.36
417.206	3.21
417.568	3.5
417.93	3.28
418.292	2.9
418.653	3.25
419.015	3.1
419.377	3.15
419.738	3.13
420.1	3.14
420.461	3.14
420.822	3.05
421.184	3.03
421.545	3
421.906	3.04
422.267	3.06
422.629	3.09
422.99	2.99
423.351	3.08
423.712	2.99
424.073	3.2
424.434	2.94
424.795	3.11
425.155	3.06
425.516	3.04
425.877	3.14
426.238	3
426.598	3.08
426.959	3.09
427.32	3.13
427.68	3.15
428.041	3.04
428.401	3.13
428.761	3.18
429.122	3.18
429.482	3.21
429.842	3.11
430.202	3.28
430.563	3.11
430.923	3.29
431.283	3.04
431.643	3.33
432.003	3.51
432.363	3.21
432.722	3.35
433.082	3.18
433.442	3.02
433.802	3.37
434.161	3.21
434.521	3.39
434.881	3.29
435.24	3.31
435.6	3.17
435.959	3.18
436.319	3.13
436.678	3.17
437.037	3.24
437.396	3.24
437.756	3.15
438.115	3.08
438.474	3.14
438.833	3.23
439.192	3.1
439.551	3.25
439.91	3.28
440.269	3.32
440.628	3.19
440.987	3.26
441.345	3.16
441.704	3.2
442.063	3.22
442.421	3.22
442.78	3.18
443.138	3.35
443.497	3.32
443.855	3.24
444.214	3.17
444.572	3.26
444.93	3.3
445.288	3.32
445.647	3.38
446.005	2.96
446.363	3.23
446.721	3.2
447.079	3.43
447.437	3.27
447.795	3.06
448.153	3.08
448.51	3.2
448.868	3.16
449.226	3.13
449.584	3.26
449.941	3.12
450.299	3.25
450.656	3.21
451.014	3.24
451.371	3.33
451.729	3.21
452.086	3.3
452.443	3.29
452.801	3.28
453.158	3.32
453.515	3.35
453.872	3.32
454.229	3.35
454.586	3.29
454.943	3.15
455.3	3.29
455.657	3.34
456.014	3.22
456.371	3.35
456.727	3.3
457.084	3.24
457.441	3.46
457.797	3.36
458.154	3.13
458.51	3.37
458.867	3.32
459.223	3.41
459.58	3.21
459.936	3.3
460.292	3.4
460.648	3.39
461.005	3.15
461.361	3.28
461.717	3.09
462.073	3.19
462.429	3.23
462.785	3.26
463.141	3.38
463.496	3.27
463.852	3.31
464.208	3.49
464.564	3.3
464.919	3.38
465.275	3.42
465.631	3.44
465.986	3.39
466.342	3.41
466.697	3.23
467.052	3.36
467.408	3.37
467.763	3.46
468.118	3.62
468.473	3.36
468.829	3.31
469.184	3.34
469.539	3.42
469.894	3.36
470.249	3.28
470.603	3.31
470.958	3.41
471.313	3.56
471.668	3.67
472.023	3.44
472.377	3.41
472.732	3.25
473.086	3.54
473.441	3.42
473.795	3.63
474.15	3.47
474.504	3.33
474.859	3.5
475.213	3.47
475.567	3.57
475.921	3.47
476.275	3.4
476.63	3.59
476.984	3.47
477.338	3.43
477.692	3.47
478.045	3.48
478.399	3.45
478.753	3.42
479.107	3.48
479.461	3.4
479.814	3.46
480.168	3.66
480.521	3.48
480.875	3.43
481.228	3.51
481.582	3.57
481.935	3.54
482.289	3.42
482.642	3.53
482.995	3.43
483.348	3.4
483.701	3.45
484.055	3.35
484.408	3.37
484.761	3.3
485.114	3.27
485.466	3.23
485.819	3.18
486.172	3.09
486.525	3.16
486.878	3.2
487.23	3.25
487.583	3.25
487.936	3.25
488.288	3.31
488.641	3.36
488.993	3.27
489.345	3.3
489.698	3.26
490.05	3.26
490.402	3.23
490.754	3.26
491.107	3.3
491.459	3.36
491.811	3.41
492.163	3.4
492.515	3.49
492.866	3.43
493.218	3.31
493.57	3.32
493.922	3.28
494.274	3.3
494.625	3.33
494.977	3.34
495.328	3.46
495.68	3.49
496.031	3.41
496.383	3.51
496.734	3.52
497.086	3.52
497.437	3.54
497.788	3.45
498.139	3.58
498.49	3.51
498.842	3.46
499.193	3.6
499.544	3.49
499.894	3.56
500.245	3.54
500.596	3.49
500.947	3.64
501.298	3.59
501.648	3.61
501.999	3.65
502.35	3.63
502.7	3.73
503.051	3.71
503.401	3.68
503.752	3.61
504.102	3.62
504.452	3.5
504.803	3.53
505.153	3.82
505.503	3.54
505.853	3.74
506.203	3.63
506.553	3.57
506.903	3.63
507.253	3.67
507.603	3.74
507.953	3.78
508.303	3.56
508.652	3.75
509.002	3.6
509.352	3.67
509.701	3.65
510.051	3.61
510.4	3.61
510.75	3.64
511.099	3.66
511.449	3.72
511.798	3.76
512.147	3.67
512.496	3.69
512.846	3.69
513.195	3.62
513.544	3.73
513.893	3.53
514.242	3.75
514.591	3.67
514.939	3.66
515.288	3.64
515.637	3.73
515.986	3.78
516.334	3.66
516.683	3.78
517.032	3.76
517.38	3.73
517.729	3.73
518.077	3.79
518.426	3.79
518.774	3.71
519.122	3.7
519.47	3.69
519.819	3.65
520.167	3.69
520.515	3.68
520.863	3.77
521.211	3.61
521.559	3.78
521.907	3.64
522.255	3.77
522.602	3.8
522.95	3.74
523.298	3.8
523.645	3.81
523.993	3.87
524.341	3.82
524.688	3.94
525.036	3.87
525.383	3.84
525.73	4.01
526.078	3.86
526.425	3.88
526.772	3.79
527.119	3.82
527.466	3.79
527.814	3.86
528.161	3.75
528.508	3.73
528.854	3.77
529.201	3.73
529.548	3.73
529.895	3.74
530.242	3.68
530.588	3.64
530.935	3.61
531.282	3.7
531.628	3.73
531.975	3.71
532.321	3.76
532.667	3.79
533.014	3.91
533.36	3.94
533.706	3.96
534.052	3.89
534.399	3.88
534.745	3.79
535.091	3.82
535.437	3.82
535.783	3.9
536.129	3.85
536.474	3.92
536.82	3.93
537.166	3.95
537.512	4.1
537.857	4.03
538.203	4.03
538.549	4.11
538.894	3.92
539.239	3.91
539.585	4.04
539.93	4.07
540.276	4.17
540.621	4.09
540.966	4.08
541.311	4.2
541.656	4.16
542.001	4.16
542.346	4.21
542.691	4.09
543.036	3.99
543.381	3.94
543.726	3.94
544.071	4.01
544.415	4.07
544.76	4.07
545.105	4.15
545.449	4.08
545.794	4.12
546.138	4.16
546.483	4.17
546.827	4.19
547.171	4.24
547.516	4.2
547.86	4.31
548.204	4.17
548.548	4.19
548.892	4.26
549.236	4.34
549.58	4.19
549.924	4.25
550.268	4.35
550.612	4.4
550.956	4.46
551.3	4.4
551.643	4.44
551.987	4.51
552.33	4.42
552.674	4.52
553.017	4.54
553.361	4.55
553.704	4.78
554.048	4.55
554.391	4.49
554.734	4.52
555.077	4.43
555.42	4.38
555.764	4.44
556.107	4.78
556.45	4.62
556.793	4.61
557.135	4.53
557.478	4.54
557.821	4.77
558.164	4.65
558.507	4.78
558.849	4.61
559.192	4.63
559.534	4.81
559.877	4.53
560.219	4.79
560.562	4.87
560.904	4.67
561.246	4.98
561.589	4.76
561.931	4.95
562.273	4.79
562.615	5.07
562.957	4.94
563.299	4.94
563.641	5.02
563.983	4.93
564.325	4.75
564.667	5.01
565.008	4.77
565.35	4.95
565.692	5
566.033	5.25
566.375	5.08
566.716	5.07
567.058	4.89
567.399	5.13
567.741	4.86
568.082	5.14
568.423	4.9
568.764	4.94
569.105	5.02
569.447	4.94
569.788	5.18
570.129	5
570.47	5.16
570.811	5.13
571.151	5.14
571.492	5.33
571.833	5.36
572.174	5.27
572.514	5.3
572.855	5.14
573.195	5.24
573.536	5.18
573.876	5.4
574.217	5.27
574.557	5.3
574.898	5.08
575.238	5.23
575.578	5.24
575.918	5.2
576.258	5.54
576.598	5.61
576.938	5.53
577.278	5.4
577.618	5.32
577.958	5.38
578.298	5.39
578.638	5.57
578.977	5.51
579.317	5.56
579.657	5.59
579.996	5.66
580.336	5.64
580.675	5.57
581.014	5.45
581.354	5.77
581.693	5.75
582.032	5.78
582.372	5.6
582.711	5.83
583.05	6.14
583.389	5.82
583.728	5.92
584.067	6.02
584.406	5.91
584.745	5.87
585.083	5.92
585.422	6.05
585.761	5.84
586.1	6.16
586.438	5.69
586.777	5.96
587.115	6.1
587.454	6.15
587.792	5.97
588.13	6.26
588.469	6.14
588.807	5.96
589.145	6.22
589.483	5.91
589.821	6.19
590.159	6.39
590.497	6.27
590.835	6.12
591.173	6.32
591.511	6.28
591.849	6.09
592.187	6.09
592.524	6.05
592.862	6.41
593.2	6.4
593.537	6.09
593.875	6.32
594.212	6.53
594.55	6.44
594.887	6.47
595.224	6.31
595.561	6.28
595.899	6.64
596.236	6.61
596.573	6.6
596.91	6.53
597.247	6.71
597.584	6.39
597.921	6.59
598.258	6.63
598.594	6.75
598.931	6.64
599.268	6.46
599.604	6.63
599.941	6.69
600.277	6.67
600.614	6.67
600.95	6.68
601.287	6.8
601.623	6.93
601.959	6.97
602.296	6.66
602.632	7.07
602.968	6.74
603.304	7.07
603.64	6.97
603.976	6.97
604.312	7.14
604.648	7.09
604.984	7.33
605.319	7.11
605.655	6.92
605.991	6.97
606.326	7
606.662	6.91
606.998	6.93
607.333	6.88
607.668	7.08
608.004	7.15
608.339	7.17
608.674	7.36
609.01	7.35
609.345	7.53
609.68	7.25
610.015	7.51
610.35	7.53
610.685	7.52
611.02	7.23
611.355	7.27
611.689	7.33
612.024	7.57
612.359	7.53
612.694	7.54
613.028	7.61
613.363	7.68
613.697	7.5
614.032	7.86
614.366	7.8
614.7	7.67
615.035	7.86
615.369	8.21
615.703	7.54
616.037	7.64
616.371	7.83
616.705	7.85
617.039	7.83
617.373	8.06
617.707	8.05
618.041	7.87
618.375	7.74
618.709	8.22
619.042	8.14
619.376	8.47
619.71	7.87
620.043	8.06
620.377	8.15
620.71	8.31
621.043	8.21
621.377	8.23
621.71	8.37
622.043	8.49
622.376	8.45
622.709	8.5
623.043	8.32
623.376	8.04
623.709	8.37
624.041	8.52
624.374	8.44
624.707	8.08
625.04	8.45
625.373	8.75
625.705	8.59
626.038	8.28
626.37	7.92
626.703	8.19
627.035	8.36
627.368	8.79
627.7	8.77
628.032	8.36
628.365	8.8
628.697	8.64
629.029	8.75
629.361	8.97
629.693	8.59
630.025	8.77
630.357	8.83
630.689	8.98
631.021	9.34
631.353	8.95
631.684	9.01
632.016	9.05
632.348	9.24
632.679	8.77
633.011	9.39
633.342	8.89
633.674	9.33
634.005	9.63
634.336	9.38
634.668	9.09
634.999	9.18
635.33	9.35
635.661	9.43
635.992	9.3
636.323	9.7
636.654	9.23
636.985	9.4
637.316	9.37
637.647	9.16
637.977	8.79
638.308	9.22
638.639	9.52
638.969	9.66
639.3	8.98
639.63	9.78
639.961	9.72
640.291	9.41
640.622	9.46
640.952	9.86
641.282	9.63
641.612	9.93
641.943	9.87
642.273	9.6
642.603	10.13
642.933	10
643.263	10.03
643.592	10.18
643.922	10.14
644.252	9.59
644.582	9.7
644.911	9.77
645.241	10.57
645.571	10.63
645.9	10.24
646.23	10.1
646.559	9.56
646.888	10.11
647.218	10.13
647.547	10.58
647.876	10.68
648.205	10.93
648.534	10.26
648.863	10.2
649.192	9.63
649.521	10.25
649.85	10.5
650.179	10.28
650.508	10.62
650.837	10.87
651.165	11.07
651.494	10.14
651.822	10.65
652.151	11.26
652.479	10.41
652.808	10.53
653.136	9.91
653.465	11.08
653.793	10.48
654.121	11.25
654.449	10.66
654.777	10.86
655.105	10.58
655.433	11.12
655.761	11.01
656.089	11.19
656.417	11.54
656.745	11.08
657.073	11.18
657.4	11.71
657.728	11.24
658.056	10.79
658.383	11.3
658.711	11.06
659.038	11.41
659.365	11.76
659.693	11.03
660.02	10.81
660.347	11.44
660.674	11.15
661.001	11.22
661.329	11.14
661.656	11.72
661.982	11.58
662.309	11.41
662.636	11.58
662.963	11.4
663.29	11.62
663.616	12.13
663.943	11.66
664.27	12.15
664.596	11.47
664.923	11.31
665.249	11.64
665.576	12.03
665.902	11.77
666.228	12.14
666.554	11.56
666.881	11.58
667.207	12.21
667.533	12.09
667.859	12.15
668.185	12.05
668.511	12.47
668.837	12.3
669.162	12.35
669.488	12.29
669.814	12.08
670.139	12.02
670.465	11.57
670.791	12.26
671.116	12.09
671.442	12.14
671.767	12.3
672.092	12.81
672.418	12.29
672.743	12.39
673.068	13.09
673.393	12.47
673.718	12.55
674.043	12.57
674.368	12.35
674.693	13.16
675.018	12.55
675.343	12.37
675.667	12.83
675.992	12.75
676.317	12.9
676.641	12.87
676.966	13.47
677.29	13.11
677.615	12.87
677.939	12.91
678.264	12.83
678.588	12.58
678.912	13.85
679.236	12.71
679.56	13.03
679.885	13.51
680.209	13.53
680.532	12.89
680.856	12.81
681.18	13.43
681.504	12.68
681.828	13.67
682.152	13.3
682.475	12.6
682.799	13.16
683.122	13.59
683.446	13.98
683.769	13.14
684.093	14
684.416	12.99
684.739	13.41
685.062	13.33
685.386	13.21
685.709	13.75
686.032	13.15
686.355	14.38
686.678	13.39
687.001	14.05
687.324	13.5
687.646	13.77
687.969	14.18
688.292	13.82
688.614	14.12
688.937	13.97
689.26	13.27
689.582	13.63
689.904	13.6
690.227	13.81
