Data from 0245_forehead_Reflection__2__90.txt Node

Date: Fri Oct 20 21:21:35 CDT 2023
User: ToomeyLab
Spectrometer: FLMS14357
Trigger mode: 0
Integration Time (sec): 1.000000E-2
Scans to average: 100
Electric dark correction enabled: true
Nonlinearity correction enabled: false
Boxcar width: 0
XAxis mode: Wavelengths
Number of Pixels in Spectrum: 2048
>>>>>Begin Spectral Data<<<<<
189.047	-74.31
189.435	-74.31
189.823	-74.31
190.211	94.71
190.599	-302.41
190.987	285.76
191.375	-256.3
191.763	66.6
192.151	-142.58
192.538	187.06
192.926	28.08
193.314	550.82
193.702	152.16
194.089	85.51
194.477	49.93
194.864	20.53
195.252	298.96
195.639	-35.06
196.027	18.67
196.414	43.63
196.801	-1220.21
197.189	46.11
197.576	223.53
197.963	-12.96
198.351	53.3
198.738	15.27
199.125	71.21
199.512	65.61
199.899	38.79
200.286	6.1
200.673	32.77
201.06	22.21
201.447	57.2
201.833	30.65
202.22	31.33
202.607	78.28
202.994	42.72
203.38	29.19
203.767	61.83
204.154	52
204.54	63.35
204.927	14.77
205.313	45.79
205.699	52.8
206.086	40.34
206.472	55.49
206.858	58.12
207.245	34.49
207.631	44.55
208.017	47.13
208.403	39.83
208.789	34.12
209.175	19.64
209.561	33.39
209.947	6.99
210.333	23.85
210.719	26.09
211.105	52.62
211.491	34.39
211.876	22.27
212.262	31.58
212.648	43.4
213.034	47.72
213.419	14.37
213.805	28.11
214.19	42.56
214.576	35.73
214.961	60
215.346	56.24
215.732	32
216.117	10.98
216.502	35.36
216.888	32.6
217.273	38.96
217.658	22.45
218.043	-0.99
218.428	32.53
218.813	25.34
219.198	34.38
219.583	12.55
219.968	15.91
220.353	41.6
220.738	35.77
221.122	34.48
221.507	29.85
221.892	15.33
222.276	29.15
222.661	30.25
223.046	12.62
223.43	19.48
223.815	15.14
224.199	34.57
224.583	2.71
224.968	14.21
225.352	6.62
225.736	13.92
226.121	14.15
226.505	1.91
226.889	17.77
227.273	15.65
227.657	12
228.041	7.92
228.425	8.95
228.809	9.15
229.193	7.3
229.577	9.62
229.961	5.27
230.344	3.94
230.728	3.45
231.112	4.32
231.495	4.03
231.879	3.98
232.263	5.45
232.646	3.28
233.03	3.75
233.413	4.6
233.797	3.57
234.18	5.03
234.563	7.4
234.946	6.35
235.33	6.15
235.713	5.82
236.096	5.37
236.479	5.82
236.862	4.87
237.245	6.34
237.628	4.78
238.011	6.3
238.394	5.17
238.777	6.35
239.16	5.59
239.543	5.81
239.925	7.48
240.308	6.6
240.691	5.81
241.073	5.5
241.456	6.12
241.838	4.67
242.221	5.95
242.603	5.33
242.986	5.11
243.368	4.59
243.75	3.78
244.133	3.27
244.515	3.89
244.897	3.99
245.279	4.31
245.661	4.23
246.043	4.16
246.425	5.33
246.807	5.06
247.189	4.73
247.571	4.44
247.953	4.64
248.335	4.52
248.717	3.86
249.098	3.68
249.48	3.64
249.862	4.11
250.243	4.19
250.625	4.28
251.006	4.03
251.388	4.06
251.769	4.93
252.151	5.16
252.532	4.94
252.913	3.75
253.295	3.73
253.676	4.9
254.057	4.31
254.438	4.79
254.819	4.59
255.2	4.72
255.581	4.95
255.962	4.57
256.343	5.63
256.724	3.7
257.105	4.52
257.486	5.54
257.867	5.94
258.247	5.7
258.628	4.92
259.009	4.42
259.389	4.64
259.77	4.05
260.15	4.93
260.531	4.83
260.911	4.39
261.292	3.99
261.672	4.33
262.052	4.04
262.432	3.93
262.813	3.95
263.193	3.79
263.573	4.16
263.953	4.31
264.333	5.08
264.713	4.4
265.093	4.71
265.473	4.7
265.853	4.03
266.233	4.58
266.612	5.53
266.992	5.57
267.372	5.07
267.752	3.76
268.131	4.53
268.511	4.14
268.89	4.49
269.27	4.26
269.649	4.1
270.029	4.27
270.408	4.41
270.787	4.53
271.167	3.94
271.546	5.02
271.925	4.86
272.304	4.86
272.683	4.34
273.062	4.59
273.441	4.5
273.82	4.02
274.199	4.72
274.578	4.39
274.957	4.16
275.336	4.49
275.715	4.31
276.093	4.46
276.472	4.97
276.851	4.82
277.229	4.77
277.608	4.1
277.986	4.08
278.365	5
278.743	3.99
279.122	4.01
279.5	4.45
279.878	3.94
280.257	4.17
280.635	4.91
281.013	4.97
281.391	4.67
281.769	4.34
282.147	4.58
282.525	4.87
282.903	4.61
283.281	4.73
283.659	4.04
284.037	4.1
284.415	4.17
284.792	4.26
285.17	4.33
285.548	4.23
285.925	4.12
286.303	4.2
286.68	4.24
287.058	4.36
287.435	4.77
287.813	4.31
288.19	4.24
288.567	4.43
288.945	4.49
289.322	4.85
289.699	4.53
290.076	4.97
290.453	4.66
290.83	4.51
291.207	4.97
291.584	4.15
291.961	4.24
292.338	4.66
292.715	4.58
293.092	4.78
293.469	4.94
293.845	4.54
294.222	5.04
294.599	4.77
294.975	5.67
295.352	5.15
295.728	5.38
296.105	5.09
296.481	5.08
296.858	5.42
297.234	5.64
297.61	4.9
297.986	5.24
298.363	5.61
298.739	5.24
299.115	5.12
299.491	5.51
299.867	5.28
300.243	5.16
300.619	5.52
300.995	5.26
301.371	5.93
301.746	5.73
302.122	6.07
302.498	6.03
302.874	5.97
303.249	6.34
303.625	6.63
304	6.67
304.376	5.73
304.751	5.8
305.127	6.62
305.502	7.02
305.878	6.09
306.253	6.08
306.628	6.55
307.003	6.65
307.378	7.1
307.754	6.74
308.129	7.54
308.504	7.3
308.879	7.71
309.254	7.52
309.629	7.11
310.003	6.87
310.378	8.06
310.753	7.84
311.128	7.39
311.502	7.21
311.877	7.57
312.252	7.31
312.626	7.84
313.001	7.45
313.375	8.01
313.75	7.43
314.124	7.84
314.498	8.04
314.873	7.9
315.247	8.64
315.621	8.32
315.995	8.82
316.369	8.38
316.743	8.48
317.117	8.68
317.491	8.53
317.865	8.98
318.239	9.21
318.613	8.66
318.987	9.39
319.361	8.79
319.734	9.19
320.108	9.08
320.482	9.9
320.855	9.73
321.229	10.7
321.602	9.96
321.976	9.75
322.349	10.51
322.723	9.65
323.096	9.45
323.469	9.77
323.843	10.57
324.216	10.07
324.589	10.52
324.962	10.55
325.335	10.67
325.708	10.6
326.081	10.88
326.454	10.86
326.827	11.07
327.2	11.11
327.573	11.41
327.945	11.29
328.318	10.69
328.691	11.13
329.063	11.45
329.436	11.08
329.809	11.1
330.181	11.35
330.553	11.9
330.926	11.48
331.298	11.52
331.671	10.92
332.043	11.81
332.415	11.97
332.787	11.93
333.159	11.91
333.532	11.71
333.904	11.96
334.276	11.96
334.648	12.74
335.02	11.99
335.391	12.27
335.763	12.82
336.135	12.71
336.507	12.68
336.879	12.43
337.25	13.01
337.622	12.77
337.993	12.54
338.365	13.06
338.736	12.63
339.108	13.18
339.479	12.45
339.851	13.26
340.222	12.94
340.593	12.73
340.964	13.01
341.336	14.13
341.707	13.73
342.078	13.63
342.449	13.26
342.82	13.54
343.191	13.79
343.562	13.94
343.933	13.44
344.303	13.98
344.674	13.85
345.045	13.91
345.416	14.67
345.786	13.97
346.157	14.14
346.527	14.57
346.898	14.49
347.268	14.32
347.639	14.9
348.009	14.44
348.38	14.86
348.75	14.66
349.12	14.56
349.49	14.73
349.861	15.11
350.231	14.6
350.601	15.24
350.971	15.41
351.341	15.01
351.711	15.76
352.081	15.54
352.45	15.28
352.82	15.59
353.19	16
353.56	15.86
353.929	15.51
354.299	15.01
354.669	15.5
355.038	15.75
355.408	16.18
355.777	16.07
356.147	15.99
356.516	15.74
356.885	15.85
357.254	15.47
357.624	15.87
357.993	16.21
358.362	16.36
358.731	16.24
359.1	16.19
359.469	16.02
359.838	16.68
360.207	16.61
360.576	16.98
360.945	16.69
361.314	16.86
361.682	16.82
362.051	16.73
362.42	16.88
362.788	17.51
363.157	17.2
363.525	16.9
363.894	17.04
364.262	17.18
364.631	17.12
364.999	17.3
365.367	17.5
365.735	17.43
366.104	17.3
366.472	17.5
366.84	17.78
367.208	17.76
367.576	17.76
367.944	18.18
368.312	17.81
368.68	17.94
369.048	18.35
369.416	18.46
369.783	18.17
370.151	18.22
370.519	18.64
370.886	18.54
371.254	18.83
371.621	18.97
371.989	18.76
372.356	18.58
372.724	18.67
373.091	18.57
373.458	18.43
373.826	18.99
374.193	19.13
374.56	19.11
374.927	19.41
375.294	19.27
375.661	19.41
376.028	19.81
376.395	19.35
376.762	19.59
377.129	19.48
377.496	19.62
377.863	19.78
378.229	20.17
378.596	20.01
378.963	19.82
379.329	19.84
379.696	20.01
380.062	20.1
380.429	20.05
380.795	19.98
381.161	20.7
381.528	20.79
381.894	20.32
382.26	20.66
382.626	20.63
382.993	20.59
383.359	20.9
383.725	21
384.091	20.83
384.457	20.98
384.823	21
385.188	21.42
385.554	21.15
385.92	20.94
386.286	21.43
386.651	21.23
387.017	21.41
387.383	21.32
387.748	21.41
388.114	21.17
388.479	21.61
388.845	21.79
389.21	21.51
389.575	21.25
389.94	21.74
390.306	21.65
390.671	21.94
391.036	21.97
391.401	22.01
391.766	22.23
392.131	22.09
392.496	22.54
392.861	22.19
393.226	22.51
393.591	22.3
393.956	22.43
394.32	22.49
394.685	22.49
395.05	22.75
395.414	23.01
395.779	22.77
396.143	22.83
396.508	22.88
396.872	22.98
397.236	23.14
397.601	23.22
397.965	22.97
398.329	22.85
398.694	23.63
399.058	23.18
399.422	23.52
399.786	23.57
400.15	23.5
400.514	23.55
400.878	23.68
401.242	23.97
401.605	24.07
401.969	23.5
402.333	23.67
402.697	23.85
403.06	23.9
403.424	24.01
403.787	24.19
404.151	24.4
404.514	24.1
404.878	24.27
405.241	24.32
405.604	24.42
405.968	24.49
406.331	24.54
406.694	24.46
407.057	24.5
407.42	25.07
407.783	24.61
408.146	24.49
408.509	24.79
408.872	25.33
409.235	25.16
409.598	25.09
409.961	25.38
410.323	25.13
410.686	25.12
411.049	25.43
411.411	25.33
411.774	25.53
412.136	25.59
412.499	25.72
412.861	25.33
413.223	25.42
413.586	25.8
413.948	25.86
414.31	25.8
414.672	25.68
415.035	25.94
415.397	26.14
415.759	26.33
416.121	26.09
416.483	26.32
416.845	26.16
417.206	26.09
417.568	26.38
417.93	26.52
418.292	26.06
418.653	26.35
419.015	26.36
419.377	26.34
419.738	26.02
420.1	26.3
420.461	26.37
420.822	26.25
421.184	26.26
421.545	26.34
421.906	26.35
422.267	26.45
422.629	26.46
422.99	26.29
423.351	26.53
423.712	26.44
424.073	26.71
424.434	26.78
424.795	26.76
425.155	26.82
425.516	26.87
425.877	26.88
426.238	26.81
426.598	26.84
426.959	26.87
427.32	27.19
427.68	27.22
428.041	27.37
428.401	27.44
428.761	27.49
429.122	27.75
429.482	27.75
429.842	27.86
430.202	27.9
430.563	28.06
430.923	28.29
431.283	28.22
431.643	28.43
432.003	28.52
432.363	28.09
432.722	28.28
433.082	28.51
433.442	28.21
433.802	28.69
434.161	28.64
434.521	28.66
434.881	28.76
435.24	28.77
435.6	28.57
435.959	28.54
436.319	28.59
436.678	28.62
437.037	28.77
437.396	29.08
437.756	29.15
438.115	28.89
438.474	29.14
438.833	29.51
439.192	29.19
439.551	29.12
439.91	29.23
440.269	29.39
440.628	29.48
440.987	29.58
441.345	29.27
441.704	29.29
442.063	29.39
442.421	29.43
442.78	29.29
443.138	29.42
443.497	29.51
443.855	29.5
444.214	29.76
444.572	29.78
444.93	29.97
445.288	29.94
445.647	30.22
446.005	29.93
446.363	30.06
446.721	30.34
447.079	30.11
447.437	30.05
447.795	29.94
448.153	29.96
448.51	30.07
448.868	29.99
449.226	29.91
449.584	30.02
449.941	30.21
450.299	30.49
450.656	30.44
451.014	30.67
451.371	30.88
451.729	30.73
452.086	30.81
452.443	31.04
452.801	30.92
453.158	31.11
453.515	31.19
453.872	31.27
454.229	31.38
454.586	31.3
454.943	31.18
455.3	31.15
455.657	31.26
456.014	31.32
456.371	31.44
456.727	31.72
457.084	31.77
457.441	31.57
457.797	31.7
458.154	31.83
458.51	31.83
458.867	31.96
459.223	31.93
459.58	31.92
459.936	32.06
460.292	32.06
460.648	32.06
461.005	31.87
461.361	32
461.717	31.64
462.073	31.69
462.429	31.7
462.785	31.97
463.141	32.01
463.496	32.17
463.852	32.25
464.208	32.43
464.564	32.64
464.919	32.86
465.275	32.84
465.631	33.1
465.986	33
466.342	33.07
466.697	32.91
467.052	32.94
467.408	33
467.763	33.18
468.118	33.32
468.473	33.05
468.829	33.15
469.184	33.26
469.539	33.18
469.894	33.22
470.249	33.2
470.603	33.45
470.958	33.7
471.313	33.76
471.668	33.65
472.023	33.27
472.377	33.85
472.732	33.64
473.086	33.66
473.441	33.88
473.795	34.12
474.15	33.78
474.504	34
474.859	34.17
475.213	34.04
475.567	34.21
475.921	34.1
476.275	34.24
476.63	34.19
476.984	34.35
477.338	34.29
477.692	34.25
478.045	34.18
478.399	34.38
478.753	34.29
479.107	34.52
479.461	34.43
479.814	34.56
480.168	34.45
480.521	34.47
480.875	34.71
481.228	34.59
481.582	34.68
481.935	34.66
482.289	34.7
482.642	34.73
482.995	34.73
483.348	34.55
483.701	34.52
484.055	34.64
484.408	34.3
484.761	34.49
485.114	34.21
485.466	33.89
485.819	33.73
486.172	33.98
486.525	33.97
486.878	34
487.23	33.98
487.583	34.13
487.936	34.3
488.288	34.47
488.641	34.71
488.993	34.46
489.345	34.34
489.698	34.35
490.05	34.39
490.402	34.36
490.754	34.42
491.107	34.6
491.459	35.01
491.811	35.06
492.163	35.18
492.515	35.29
492.866	35.13
493.218	35.05
493.57	34.95
493.922	34.93
494.274	34.96
494.625	35.02
494.977	35.31
495.328	35.52
495.68	35.84
496.031	36.02
496.383	36.13
496.734	36.12
497.086	36.36
497.437	36.6
497.788	36.52
498.139	36.31
498.49	36.33
498.842	36.23
499.193	36.35
499.544	36.39
499.894	36.4
500.245	36.38
500.596	36.6
500.947	36.71
501.298	36.58
501.648	36.79
501.999	36.69
502.35	36.85
502.7	36.98
503.051	37.18
503.401	37.26
503.752	37.17
504.102	37.15
504.452	37.09
504.803	37.23
505.153	37.25
505.503	37.41
505.853	37.23
506.203	37.32
506.553	37.43
506.903	37.54
507.253	37.38
507.603	37.58
507.953	37.59
508.303	37.71
508.652	37.63
509.002	37.75
509.352	37.62
509.701	37.89
510.051	37.72
510.4	37.94
510.75	37.81
511.099	37.5
511.449	37.83
511.798	37.79
512.147	37.83
512.496	37.89
512.846	37.79
513.195	37.97
513.544	38.12
513.893	37.9
514.242	38.02
514.591	38.13
514.939	38.27
515.288	37.97
515.637	38.37
515.986	38.28
516.334	38.18
516.683	38.61
517.032	38.21
517.38	38.4
517.729	38.59
518.077	38.66
518.426	38.66
518.774	38.46
519.122	38.75
519.47	38.69
519.819	38.42
520.167	38.24
520.515	38.3
520.863	38.32
521.211	38.29
521.559	38.44
521.907	38.48
522.255	38.53
522.602	38.72
522.95	38.82
523.298	39
523.645	39.2
523.993	38.96
524.341	39.27
524.688	39.37
525.036	39.27
525.383	39.14
525.73	39.58
526.078	39.41
526.425	39.35
526.772	39.22
527.119	39.21
527.466	38.88
527.814	38.85
528.161	38.87
528.508	38.87
528.854	39.11
529.201	39.08
529.548	39.24
529.895	38.98
530.242	38.5
530.588	38.59
530.935	38.75
531.282	38.77
531.628	38.66
531.975	38.61
532.321	38.93
532.667	39.13
533.014	39.32
533.36	39.53
533.706	39.49
534.052	39.59
534.399	39.61
534.745	39.55
535.091	39.36
535.437	39.29
535.783	39.22
536.129	39.54
536.474	39.53
536.82	39.63
537.166	39.79
537.512	39.99
537.857	40.04
538.203	40.03
538.549	39.99
538.894	39.97
539.239	40.12
539.585	40.03
539.93	40.04
540.276	40.26
540.621	40.53
540.966	40.5
541.311	40.51
541.656	40.79
542.001	40.77
542.346	40.77
542.691	40.34
543.036	40.13
543.381	39.96
543.726	39.91
544.071	40.01
544.415	40.11
544.76	40.13
545.105	40.38
545.449	40.52
545.794	40.56
546.138	40.6
546.483	40.62
546.827	41.03
547.171	41.04
547.516	40.98
547.86	41.09
548.204	41.03
548.548	40.97
548.892	41.02
549.236	41.14
549.58	41.08
549.924	41.29
550.268	41.41
550.612	41.65
550.956	41.74
551.3	41.81
551.643	42.11
551.987	42.38
552.33	42.03
552.674	42.05
553.017	42.09
553.361	42.21
553.704	42.52
554.048	42.3
554.391	42.29
554.734	42.22
555.077	42.35
555.42	42.04
555.764	42.27
556.107	42.35
556.45	42.44
556.793	42.37
557.135	42.43
557.478	42.19
557.821	42.69
558.164	42.48
558.507	42.6
558.849	42.69
559.192	42.75
559.534	42.71
559.877	42.75
560.219	42.77
560.562	43.18
560.904	42.96
561.246	43.08
561.589	42.95
561.931	43.24
562.273	43.33
562.615	43.42
562.957	43.09
563.299	43.29
563.641	43.3
563.983	43.03
564.325	42.99
564.667	43.4
565.008	43.24
565.35	43.4
565.692	43.36
566.033	43.46
566.375	43.52
566.716	43.58
567.058	43.17
567.399	43.65
567.741	43.32
568.082	43.46
568.423	43.17
568.764	43.39
569.105	43.44
569.447	43.21
569.788	43.32
570.129	43.75
570.47	43.51
570.811	43.51
571.151	43.74
571.492	43.94
571.833	43.67
572.174	43.74
572.514	43.73
572.855	43.64
573.195	43.86
573.536	43.67
573.876	43.76
574.217	43.66
574.557	43.91
574.898	43.73
575.238	43.55
575.578	44.09
575.918	43.95
576.258	44.29
576.598	44.26
576.938	44.18
577.278	44.29
577.618	44.03
577.958	43.99
578.298	44.29
578.638	44.34
578.977	44.37
579.317	44.38
579.657	44.36
579.996	44.61
580.336	44.53
580.675	44.62
581.014	44.61
581.354	44.77
581.693	44.75
582.032	44.71
582.372	45.01
582.711	44.93
583.05	45.2
583.389	45.21
583.728	44.86
584.067	45.14
584.406	45.2
584.745	45.27
585.083	45.21
585.422	45.2
585.761	45.12
586.1	45.43
586.438	45.08
586.777	44.96
587.115	45.58
587.454	45.33
587.792	45.21
588.13	45.34
588.469	45.37
588.807	45.43
589.145	45.29
589.483	45.55
589.821	45.49
590.159	45.63
590.497	45.87
590.835	45.57
591.173	45.55
591.511	45.59
591.849	45.37
592.187	45.74
592.524	45.72
592.862	45.72
593.2	45.68
593.537	45.51
593.875	45.72
594.212	45.99
594.55	45.72
594.887	45.9
595.224	45.84
595.561	45.85
595.899	45.75
596.236	46.04
596.573	46.32
596.91	46.1
597.247	46.03
597.584	46.22
597.921	46.13
598.258	46.28
598.594	45.99
598.931	45.9
599.268	45.72
599.604	46.05
599.941	45.87
600.277	46.26
600.614	46.07
600.95	46.42
601.287	46.35
601.623	46.54
601.959	46.5
602.296	46.35
602.632	46.67
602.968	46.71
603.304	46.82
603.64	46.46
603.976	46.75
604.312	47.21
604.648	46.64
604.984	46.89
605.319	46.64
605.655	46.74
605.991	46.55
606.326	46.55
606.662	46.6
606.998	46.56
607.333	46.64
607.668	46.5
608.004	46.56
608.339	46.51
608.674	47.01
609.01	46.84
609.345	47.05
609.68	47.42
610.015	46.91
610.35	47.05
610.685	47.17
611.02	46.88
611.355	46.91
611.689	46.74
612.024	47.19
612.359	46.95
612.694	47.14
613.028	47.69
613.363	47.48
613.697	47.27
614.032	47.56
614.366	47.34
614.7	47.84
615.035	47.92
615.369	47.71
615.703	47.37
616.037	48.05
616.371	47.86
616.705	47.9
617.039	47.68
617.373	47.66
617.707	47.67
618.041	48
618.375	48.3
618.709	48.31
619.042	48.08
619.376	47.92
619.71	47.89
620.043	48.37
620.377	47.71
620.71	48.24
621.043	48.38
621.377	47.74
621.71	47.85
622.043	48.46
622.376	48.59
622.709	48.31
623.043	48.54
623.376	48.21
623.709	48.31
624.041	48.5
624.374	48.61
624.707	48.18
625.04	48.46
625.373	48.76
625.705	48.1
626.038	48.54
626.37	48.18
626.703	48.51
627.035	48.33
627.368	48.76
627.7	48.27
628.032	48.5
628.365	48.44
628.697	48.78
629.029	48.86
629.361	48.36
629.693	48.83
630.025	48.64
630.357	48.2
630.689	48.07
631.021	49.17
631.353	49.19
631.684	48.73
632.016	48.9
632.348	48.99
632.679	48.57
633.011	48.86
633.342	48.91
633.674	49.39
634.005	49.28
634.336	49.48
634.668	49.22
634.999	49.36
635.33	48.87
635.661	49.28
635.992	49.28
636.323	49.01
636.654	48.95
636.985	48.78
637.316	48.97
637.647	49.39
637.977	49.26
638.308	49.7
638.639	49.92
638.969	49.1
639.3	49.19
639.63	49.48
639.961	49.41
640.291	49.56
640.622	49.14
640.952	49.44
641.282	49.16
641.612	49.1
641.943	49.85
642.273	50.11
642.603	49.61
642.933	49.89
643.263	50.05
643.592	49.77
643.922	49.46
644.252	49.42
644.582	49.62
644.911	49.76
645.241	50.36
645.571	49.65
645.9	49.64
646.23	50.03
646.559	50.06
646.888	50.02
647.218	49.99
647.547	50.04
647.876	50.47
648.205	49.9
648.534	50.34
648.863	50.06
649.192	50.04
649.521	50.67
649.85	50.09
650.179	50.29
650.508	49.81
650.837	50.18
651.165	50.59
651.494	50.57
651.822	49.99
652.151	50.67
652.479	50.35
652.808	49.68
653.136	49.85
653.465	50.96
653.793	50.38
654.121	50.24
654.449	50.56
654.777	50.92
655.105	50.44
655.433	50.8
655.761	50.53
656.089	50.95
656.417	51
656.745	50.24
657.073	51.22
657.4	51.14
657.728	50.97
658.056	50.6
658.383	50.38
658.711	50.76
659.038	50.64
659.365	50.72
659.693	50.8
660.02	51.15
660.347	51.14
660.674	50.71
661.001	50.59
661.329	50.55
661.656	50.54
661.982	51.18
662.309	50.77
662.636	51.06
662.963	51.01
663.29	51.23
663.616	51.28
663.943	51.34
664.27	51.26
664.596	50.73
664.923	51.04
665.249	51.49
665.576	51.08
665.902	50.66
666.228	51.53
666.554	51.34
666.881	50.97
667.207	51.8
667.533	51.6
667.859	51.48
668.185	51.19
668.511	51.71
668.837	50.66
669.162	51.42
669.488	51.54
