Data from 0245_forehead_Reflection__3__91.txt Node

Date: Fri Oct 20 21:21:44 CDT 2023
User: ToomeyLab
Spectrometer: FLMS14357
Trigger mode: 0
Integration Time (sec): 1.000000E-2
Scans to average: 100
Electric dark correction enabled: true
Nonlinearity correction enabled: false
Boxcar width: 0
XAxis mode: Wavelengths
Number of Pixels in Spectrum: 2048
>>>>>Begin Spectral Data<<<<<
189.047	46.8
189.435	46.8
189.823	46.8
190.211	9.09
190.599	172.59
190.987	74.89
191.375	880.12
191.763	121.34
192.151	0.45
192.538	40.16
192.926	-4.55
193.314	499.49
193.702	55.42
194.089	569.08
194.477	65.71
194.864	7.45
195.252	105.53
195.639	69.65
196.027	-89.59
196.414	-8.72
196.801	-1979.26
197.189	49.58
197.576	68.24
197.963	180.2
198.351	72.04
198.738	37.16
199.125	38.57
199.512	52.48
199.899	12.22
200.286	24.93
200.673	61.55
201.06	22.31
201.447	30.45
201.833	20.37
202.22	32.87
202.607	47.73
202.994	48.15
203.38	6.27
203.767	39.16
204.154	35
204.54	45.83
204.927	42.56
205.313	23.6
205.699	51.97
206.086	35.36
206.472	43.33
206.858	62.3
207.245	17.52
207.631	54.45
208.017	19.31
208.403	52.7
208.789	63.97
209.175	19.41
209.561	26.07
209.947	7.8
210.333	47.55
210.719	19.13
211.105	26.74
211.491	26.89
211.876	-6.61
212.262	33.89
212.648	32.67
213.034	43.33
213.419	19.56
213.805	38.58
214.19	18.2
214.576	62.21
214.961	15.96
215.346	32.09
215.732	22.64
216.117	-4.56
216.502	14.36
216.888	12.77
217.273	41.99
217.658	6.38
218.043	12.26
218.428	39.94
218.813	30.06
219.198	24.76
219.583	23.97
219.968	9.43
220.353	25.04
220.738	29.65
221.122	38.92
221.507	-4.66
221.892	13.25
222.276	10.51
222.661	23.31
223.046	18.75
223.43	20.36
223.815	23.32
224.199	21.14
224.583	0.76
224.968	9.46
225.352	8.15
225.736	9.71
226.121	8.59
226.505	2.88
226.889	10.66
227.273	13.21
227.657	12.73
228.041	10.39
228.425	4.69
228.809	7.56
229.193	4.56
229.577	7.36
229.961	3.71
230.344	4.2
230.728	2.95
231.112	4.58
231.495	3.15
231.879	4.56
232.263	5.13
232.646	4.35
233.03	3.68
233.413	3.8
233.797	4.33
234.18	6.17
234.563	5.95
234.946	8.45
235.33	5.61
235.713	4.6
236.096	6.31
236.479	4.66
236.862	5.73
237.245	4.86
237.628	4.14
238.011	5.83
238.394	3.44
238.777	6.2
239.16	4.93
239.543	6.14
239.925	7.03
240.308	5.76
240.691	4.46
241.073	6.91
241.456	5.84
241.838	5.22
242.221	4.8
242.603	4.75
242.986	4.11
243.368	4.34
243.75	3.99
244.133	4.31
244.515	4.06
244.897	3.51
245.279	4.23
245.661	4.34
246.043	3.83
246.425	4.44
246.807	4.11
247.189	4.68
247.571	3.89
247.953	3.85
248.335	4.3
248.717	3.68
249.098	3.44
249.48	3.53
249.862	3.9
250.243	4.4
250.625	3.92
251.006	4.13
251.388	3.95
251.769	3.95
252.151	4.2
252.532	5.06
252.913	4.62
253.295	3.44
253.676	4.6
254.057	4.27
254.438	4.21
254.819	4.33
255.2	4.69
255.581	4.79
255.962	5.12
256.343	5.72
256.724	3.54
257.105	4.71
257.486	4.88
257.867	4.79
258.247	4.54
258.628	4.55
259.009	3.68
259.389	3.94
259.77	3.44
260.15	4.39
260.531	4.86
260.911	4.41
261.292	4.01
261.672	3.94
262.052	4.09
262.432	3.96
262.813	3.99
263.193	4.04
263.573	3.98
263.953	4.58
264.333	4.71
264.713	4.89
265.093	4.74
265.473	5.07
265.853	3.75
266.233	3.59
266.612	4.25
266.992	5.04
267.372	4.28
267.752	4.01
268.131	4.2
268.511	5.14
268.89	4.45
269.27	4.11
269.649	3.94
270.029	3.81
270.408	4.4
270.787	4.28
271.167	4.82
271.546	3.98
271.925	4.22
272.304	4.47
272.683	4.11
273.062	3.79
273.441	4.24
273.82	4.25
274.199	4.36
274.578	3.94
274.957	4.27
275.336	4.07
275.715	3.98
276.093	4.12
276.472	4.16
276.851	4.52
277.229	4.6
277.608	3.76
277.986	4.03
278.365	4.85
278.743	3.88
279.122	3.97
279.5	3.99
279.878	3.73
280.257	3.75
280.635	4.29
281.013	4.14
281.391	4.57
281.769	4.32
282.147	3.98
282.525	4.11
282.903	4.04
283.281	4.57
283.659	4.43
284.037	4.23
284.415	3.49
284.792	4.25
285.17	4.16
285.548	3.97
285.925	4.22
286.303	3.7
286.68	3.76
287.058	4.66
287.435	4.27
287.813	3.58
288.19	4.17
288.567	4.21
288.945	4.24
289.322	4.63
289.699	4.03
290.076	5.23
290.453	4.5
290.83	4.13
291.207	4.46
291.584	4.34
291.961	4.08
292.338	4.31
292.715	4.61
293.092	4.46
293.469	4.49
293.845	4.68
294.222	4.25
294.599	4.59
294.975	5.8
295.352	4.51
295.728	4.94
296.105	4.95
296.481	4.7
296.858	4.99
297.234	5.17
297.61	4.49
297.986	4.72
298.363	4.97
298.739	5.17
299.115	5.18
299.491	4.99
299.867	5.1
300.243	5.41
300.619	5.03
300.995	5.19
301.371	5.86
301.746	5.46
302.122	5.55
302.498	5.4
302.874	5.59
303.249	5.51
303.625	5.82
304	6
304.376	5.55
304.751	5.6
305.127	5.17
305.502	6.68
305.878	6.43
306.253	6.11
306.628	6.82
307.003	6.18
307.378	6.1
307.754	5.97
308.129	6.78
308.504	7.11
308.879	6.52
309.254	6.93
309.629	6.9
310.003	6.24
310.378	6.97
310.753	7.09
311.128	7.19
311.502	6.83
311.877	7.15
312.252	6.76
312.626	7.32
313.001	7.12
313.375	7.26
313.75	7.31
314.124	7.02
314.498	7.25
314.873	7.16
315.247	7.86
315.621	7.91
315.995	8.1
316.369	7.47
316.743	7.56
317.117	7.96
317.491	7.78
317.865	8.29
318.239	8.21
318.613	7.77
318.987	8.19
319.361	8.16
319.734	8.4
320.108	8.18
320.482	8.99
320.855	8.53
321.229	8.82
321.602	9.25
321.976	9.01
322.349	9.03
322.723	8.86
323.096	8.84
323.469	8.94
323.843	8.91
324.216	9.2
324.589	9.42
324.962	9.97
325.335	9.5
325.708	9.67
326.081	9.49
326.454	9.46
326.827	9.51
327.2	10.4
327.573	9.68
327.945	9.61
328.318	9.31
328.691	9.69
329.063	10.54
329.436	9.9
329.809	10.21
330.181	10.62
330.553	10.09
330.926	10.54
331.298	10.55
331.671	10.21
332.043	9.78
332.415	10.14
332.787	11.15
333.159	10.16
333.532	10.79
333.904	10.89
334.276	10.43
334.648	11.05
335.02	10.72
335.391	10.63
335.763	10.85
336.135	11.48
336.507	11.18
336.879	10.71
337.25	11.07
337.622	10.93
337.993	11.62
338.365	11.26
338.736	11.41
339.108	11.44
339.479	11.41
339.851	11.23
340.222	10.91
340.593	10.94
340.964	11.49
341.336	11.83
341.707	11.7
342.078	11.94
342.449	11.63
342.82	11.97
343.191	11.52
343.562	11.99
343.933	11.92
344.303	11.77
344.674	12.25
345.045	12.19
345.416	12.21
345.786	12
346.157	12.31
346.527	12.32
346.898	12.22
347.268	12.6
347.639	12.24
348.009	12.51
348.38	12.6
348.75	12.55
349.12	12.62
349.49	12.38
349.861	12.95
350.231	12.36
350.601	12.52
350.971	13.12
351.341	13.03
351.711	13.87
352.081	13.17
352.45	12.52
352.82	13.13
353.19	13.21
353.56	13.72
353.929	13.32
354.299	13.04
354.669	13.05
355.038	13.77
355.408	13.57
355.777	13.36
356.147	13.46
356.516	13.49
356.885	13.67
357.254	13.6
357.624	13.77
357.993	13.6
358.362	13.44
358.731	13.43
359.1	13.3
359.469	13.75
359.838	13.92
360.207	13.77
360.576	14.04
360.945	13.89
361.314	14.06
361.682	14.18
362.051	14
362.42	14.07
362.788	14.18
363.157	14.49
363.525	14.2
363.894	14.25
364.262	14.26
364.631	14.61
364.999	14.67
365.367	14.6
365.735	14.59
366.104	14.49
366.472	14.67
366.84	14.8
367.208	14.82
367.576	14.82
367.944	14.75
368.312	14.85
368.68	15.33
369.048	14.9
369.416	15.38
369.783	15.4
370.151	15.2
370.519	15.17
370.886	15.12
371.254	15.53
371.621	15.73
371.989	15.48
372.356	15.76
372.724	15.7
373.091	15.46
373.458	15.41
373.826	15.34
374.193	15.1
374.56	16.09
374.927	15.74
375.294	15.83
375.661	15.9
376.028	16.29
376.395	16.06
376.762	15.91
377.129	15.96
377.496	16.24
377.863	16.34
378.229	16.61
378.596	16.39
378.963	16.2
379.329	16.43
379.696	16.47
380.062	16.7
380.429	16.16
380.795	16.63
381.161	16.92
381.528	17.01
381.894	16.43
382.26	16.88
382.626	16.9
382.993	16.61
383.359	17.18
383.725	17.04
384.091	17.14
384.457	17.01
384.823	17.23
385.188	17.37
385.554	17.42
385.92	17.13
386.286	17.27
386.651	17.19
387.017	17.49
387.383	17.42
387.748	17.44
388.114	17.31
388.479	17.43
388.845	17.66
389.21	17.39
389.575	17.28
389.94	17.46
390.306	17.8
390.671	17.71
391.036	17.72
391.401	18.18
391.766	17.93
392.131	17.87
392.496	18.08
392.861	18.23
393.226	18.52
393.591	18.05
393.956	18.17
394.32	18.06
394.685	17.96
395.05	18.4
395.414	18.37
395.779	18.39
396.143	18.35
396.508	18.35
396.872	18.48
397.236	18.6
397.601	18.57
397.965	18.62
398.329	18.95
398.694	18.82
399.058	18.53
399.422	18.83
399.786	18.76
400.15	18.94
400.514	18.66
400.878	18.93
401.242	19.19
401.605	19.28
401.969	19.1
402.333	18.82
402.697	19
403.06	19.44
403.424	19.37
403.787	19.61
404.151	19.5
404.514	19.77
404.878	19.84
405.241	19.5
405.604	19.44
405.968	19.65
406.331	19.52
406.694	19.47
407.057	19.51
407.42	19.79
407.783	19.62
408.146	19.6
408.509	19.77
408.872	20.2
409.235	19.78
409.598	20.05
409.961	20.27
410.323	20.05
410.686	20.06
411.049	20.1
411.411	20.33
411.774	20.07
412.136	20.28
412.499	20.34
412.861	20.58
413.223	20.65
413.586	20.45
413.948	20.73
414.31	20.52
414.672	20.56
415.035	20.61
415.397	20.66
415.759	20.66
416.121	20.81
416.483	20.89
416.845	20.83
417.206	20.77
417.568	21.22
417.93	21.08
418.292	20.53
418.653	20.89
419.015	20.87
419.377	20.89
419.738	20.87
420.1	20.74
420.461	20.87
420.822	20.88
421.184	20.89
421.545	20.93
421.906	20.88
422.267	20.86
422.629	20.85
422.99	20.78
423.351	20.85
423.712	20.86
424.073	21.02
424.434	20.97
424.795	21.05
425.155	21.2
425.516	21.23
425.877	21.15
426.238	20.95
426.598	21.3
426.959	21.19
427.32	21.37
427.68	21.64
428.041	21.59
428.401	21.8
428.761	21.76
429.122	21.93
429.482	21.99
429.842	22.47
430.202	22.21
430.563	22.3
430.923	22.33
431.283	22.33
431.643	22.32
432.003	22.43
432.363	22.16
432.722	22.57
433.082	22.7
433.442	22.33
433.802	22.76
434.161	22.64
434.521	22.62
434.881	22.56
435.24	22.4
435.6	22.51
435.959	22.47
436.319	22.61
436.678	22.54
437.037	22.63
437.396	23.05
437.756	22.85
438.115	22.83
438.474	22.87
438.833	23.14
439.192	22.94
439.551	23.13
439.91	23.01
440.269	23.27
440.628	23.18
440.987	23.19
441.345	22.98
441.704	23.11
442.063	22.95
442.421	23.16
442.78	22.93
443.138	23.2
443.497	23.19
443.855	23.17
444.214	23.46
444.572	23.45
444.93	23.6
445.288	23.6
445.647	23.78
446.005	23.71
446.363	23.65
446.721	23.65
447.079	23.7
447.437	23.63
447.795	23.36
448.153	23.59
448.51	23.47
448.868	23.45
449.226	23.44
449.584	23.55
449.941	23.76
450.299	23.94
450.656	23.9
451.014	24.12
451.371	24.36
451.729	24.2
452.086	24.25
452.443	24.38
452.801	24.44
453.158	24.52
453.515	24.78
453.872	24.62
454.229	24.77
454.586	24.76
454.943	24.4
455.3	24.69
455.657	24.76
456.014	24.76
456.371	24.6
456.727	24.99
457.084	24.92
457.441	24.91
457.797	24.87
458.154	24.96
458.51	25.14
458.867	25.21
459.223	25.17
459.58	25.07
459.936	24.97
460.292	25.16
460.648	24.82
461.005	25.05
461.361	25.05
461.717	24.62
462.073	24.77
462.429	24.67
462.785	24.91
463.141	25.08
463.496	25.34
463.852	25.32
464.208	25.47
464.564	25.69
464.919	25.67
465.275	26
465.631	26.01
465.986	25.97
466.342	25.81
466.697	25.88
467.052	25.68
467.408	25.97
467.763	26.08
468.118	26.23
468.473	26.1
468.829	26.3
469.184	26.19
469.539	25.96
469.894	26.26
470.249	26.23
470.603	26.36
470.958	26.36
471.313	26.32
471.668	26.43
472.023	26.23
472.377	26.49
472.732	26.45
473.086	26.58
473.441	26.55
473.795	26.73
474.15	26.8
474.504	26.7
474.859	26.55
475.213	26.8
475.567	26.73
475.921	26.75
476.275	26.72
476.63	26.86
476.984	27.01
477.338	27.05
477.692	27.05
478.045	26.89
478.399	27.02
478.753	26.89
479.107	26.75
479.461	27
479.814	27.1
480.168	27.09
480.521	27.04
480.875	26.93
481.228	26.96
481.582	27.32
481.935	27.06
482.289	27.32
482.642	27.25
482.995	27.29
483.348	27.38
483.701	27.12
484.055	27.09
484.408	26.97
484.761	26.82
485.114	26.71
485.466	26.38
485.819	26.22
486.172	26.05
486.525	26.31
486.878	26.4
487.23	26.52
487.583	26.79
487.936	26.88
488.288	27.07
488.641	27.22
488.993	26.82
489.345	26.77
489.698	26.69
490.05	26.76
490.402	26.86
490.754	26.96
491.107	27.1
491.459	27.38
491.811	27.68
492.163	27.57
492.515	27.69
492.866	27.67
493.218	27.39
493.57	27.22
493.922	27.23
494.274	27.24
494.625	27.42
494.977	27.8
495.328	27.9
495.68	28.21
496.031	28.31
496.383	28.59
496.734	28.69
497.086	28.61
497.437	28.58
497.788	28.73
498.139	28.67
498.49	28.5
498.842	28.49
499.193	28.41
499.544	28.58
499.894	28.49
500.245	28.74
500.596	28.69
500.947	28.82
501.298	28.65
501.648	28.78
501.999	28.83
502.35	28.92
502.7	29.09
503.051	29.24
503.401	29.3
503.752	29.2
504.102	29.31
504.452	29.35
504.803	29.23
505.153	29.43
505.503	29.29
505.853	29.4
506.203	29.3
506.553	29.45
506.903	29.32
507.253	29.47
507.603	29.66
507.953	29.61
508.303	29.61
508.652	29.56
509.002	29.91
509.352	29.8
509.701	29.74
510.051	29.67
510.4	29.64
510.75	29.6
511.099	29.62
511.449	29.61
511.798	29.89
512.147	29.72
512.496	29.69
512.846	29.75
513.195	30.03
513.544	30
513.893	29.9
514.242	30.05
514.591	29.94
514.939	29.89
515.288	30.07
515.637	30.28
515.986	30.14
516.334	30.26
516.683	30.36
517.032	30.25
517.38	30.4
517.729	30.51
518.077	30.5
518.426	30.56
518.774	30.54
519.122	30.37
519.47	30.42
519.819	30.29
520.167	30.2
520.515	30.17
520.863	30.19
521.211	30.05
521.559	30.26
521.907	30.25
522.255	30.54
522.602	30.64
522.95	30.64
523.298	30.84
523.645	30.93
523.993	30.86
524.341	30.89
524.688	30.84
525.036	31.18
525.383	30.68
525.73	31.32
526.078	31.05
526.425	31.13
526.772	30.94
527.119	30.95
527.466	30.79
527.814	30.59
528.161	30.6
528.508	30.8
528.854	30.79
529.201	30.75
529.548	30.96
529.895	30.59
530.242	30.38
530.588	30.17
530.935	30.23
531.282	30.37
531.628	30.44
531.975	30.55
532.321	30.82
532.667	30.91
533.014	31.06
533.36	31.27
533.706	31.41
534.052	31.29
534.399	31.18
534.745	31.13
535.091	31
535.437	30.87
535.783	30.93
536.129	31.14
536.474	31.23
536.82	31.43
537.166	31.61
537.512	31.76
537.857	31.93
538.203	31.93
538.549	31.78
538.894	31.52
539.239	31.69
539.585	31.71
539.93	31.81
540.276	32.03
540.621	32.35
540.966	32.3
541.311	32.48
541.656	32.48
542.001	32.64
542.346	32.26
542.691	32.02
543.036	31.61
543.381	31.28
543.726	31.35
544.071	31.54
544.415	31.74
544.76	31.8
545.105	32.02
545.449	32.14
545.794	32.15
546.138	32.33
546.483	32.23
546.827	32.57
547.171	32.57
547.516	32.49
547.86	32.74
548.204	32.72
548.548	32.63
548.892	32.58
549.236	32.75
549.58	32.66
549.924	32.99
550.268	33.02
550.612	33.06
550.956	33.41
551.3	33.35
551.643	33.56
551.987	33.64
552.33	33.66
552.674	33.51
553.017	33.51
553.361	33.66
553.704	33.91
554.048	33.74
554.391	33.65
554.734	33.48
555.077	33.55
555.42	33.39
555.764	33.67
556.107	33.93
556.45	33.75
556.793	33.6
557.135	33.97
557.478	33.86
557.821	34.12
558.164	33.88
558.507	34.14
558.849	34.25
559.192	34.07
559.534	34.15
559.877	34.11
560.219	34.34
560.562	34.44
560.904	34.35
561.246	34.55
561.589	34.76
561.931	34.55
562.273	34.51
562.615	34.57
562.957	34.32
563.299	34.58
563.641	34.64
563.983	34.42
564.325	34.45
564.667	34.33
565.008	34.51
565.35	34.58
565.692	34.72
566.033	34.74
566.375	34.83
566.716	34.84
567.058	34.72
567.399	34.82
567.741	34.6
568.082	34.7
568.423	34.45
568.764	34.68
569.105	34.79
569.447	34.86
569.788	34.9
570.129	34.97
570.47	34.84
570.811	34.89
571.151	35.04
571.492	35.13
571.833	35.11
572.174	34.92
572.514	35.13
572.855	34.94
573.195	35.1
573.536	35.16
573.876	35.16
574.217	35.08
574.557	35.19
574.898	34.86
575.238	35.02
575.578	35.27
575.918	35.35
576.258	35.49
576.598	35.43
576.938	35.37
577.278	35.46
577.618	35.4
577.958	35.4
578.298	35.55
578.638	35.71
578.977	35.66
579.317	35.74
579.657	35.78
579.996	35.89
580.336	35.83
580.675	35.97
581.014	35.9
581.354	35.99
581.693	36.01
582.032	36.14
582.372	36.29
582.711	36.23
583.05	36.31
583.389	36.22
583.728	36.29
584.067	36.56
584.406	36.66
584.745	36.62
585.083	36.18
585.422	36.59
585.761	36.31
586.1	36.67
586.438	36.58
586.777	36.41
587.115	36.8
587.454	36.74
587.792	36.53
588.13	36.85
588.469	36.69
588.807	36.54
589.145	36.83
589.483	36.76
589.821	36.72
590.159	36.6
590.497	36.92
590.835	36.6
591.173	36.88
591.511	36.88
591.849	36.68
592.187	36.8
592.524	36.77
592.862	37.08
593.2	36.84
593.537	36.88
593.875	37.25
594.212	37.07
594.55	37.3
594.887	37.14
595.224	36.91
595.561	37.08
595.899	36.92
596.236	37.25
596.573	37.35
596.91	37.04
597.247	37.01
597.584	37.18
597.921	37.17
598.258	37.25
598.594	37.15
598.931	37.1
599.268	37.09
599.604	37.06
599.941	36.95
600.277	37.52
600.614	37.4
600.95	37.84
601.287	37.69
601.623	37.74
601.959	37.63
602.296	37.65
602.632	37.73
602.968	37.79
603.304	38.2
603.64	37.99
603.976	38.05
604.312	38.21
604.648	38.03
604.984	38
605.319	38.02
605.655	37.65
605.991	37.86
606.326	37.8
606.662	37.69
606.998	37.65
607.333	37.73
607.668	37.85
608.004	38.02
608.339	37.86
608.674	38
609.01	38.23
609.345	38.37
609.68	38.45
610.015	38.18
610.35	38.31
610.685	38.62
611.02	38.09
611.355	38.13
611.689	37.98
612.024	37.94
612.359	38.21
612.694	38.4
613.028	38.39
613.363	38.34
613.697	38.6
614.032	38.67
614.366	38.42
614.7	38.62
615.035	38.84
615.369	38.65
615.703	38.77
616.037	38.98
616.371	38.89
616.705	38.79
617.039	38.59
617.373	39.03
617.707	38.78
618.041	38.96
618.375	39.02
618.709	39.14
619.042	39.28
619.376	39.15
619.71	39.21
620.043	39.48
620.377	39.13
620.71	39.01
621.043	39.77
621.377	38.97
621.71	39.13
622.043	39.19
622.376	39.52
622.709	39.69
623.043	39.23
623.376	39.31
623.709	39.27
624.041	39.36
624.374	39.78
624.707	39.58
625.04	39.79
625.373	39.29
625.705	39.34
626.038	39.61
626.37	39.15
626.703	39.65
627.035	39.58
627.368	39.61
627.7	39.31
628.032	39.57
628.365	39.84
628.697	39.61
629.029	39.79
629.361	39.45
629.693	39.97
630.025	39.56
630.357	39.62
630.689	39.5
631.021	40.17
631.353	40.43
631.684	39.97
632.016	40.42
632.348	40.19
632.679	40.13
633.011	40.3
633.342	39.98
633.674	40.33
634.005	40.02
634.336	40.45
634.668	40.63
634.999	40.62
635.33	40.25
635.661	40.54
635.992	40.27
636.323	40.52
636.654	40.19
636.985	40.2
637.316	40.4
637.647	40.18
637.977	40.28
638.308	40.51
638.639	40.6
638.969	40.35
639.3	40.41
639.63	40.22
639.961	40.39
640.291	40.56
640.622	40.07
640.952	40.36
641.282	40.76
641.612	40.9
641.943	40.95
642.273	40.87
642.603	40.87
642.933	40.86
643.263	41.19
643.592	40.55
643.922	41.17
644.252	40.85
644.582	41.3
644.911	41.13
645.241	41.66
645.571	41.58
645.9	41.18
646.23	40.82
646.559	41.08
646.888	41.19
647.218	41.3
647.547	41.48
647.876	41.22
648.205	41.46
648.534	41.59
648.863	41.57
649.192	41.07
649.521	40.94
649.85	41.21
650.179	41.04
650.508	40.51
650.837	41.21
651.165	41.74
651.494	41.49
651.822	41.77
652.151	41.65
652.479	41.64
652.808	40.86
653.136	41.13
653.465	41.26
653.793	41.57
654.121	41.78
654.449	41.8
654.777	41.88
655.105	41.02
655.433	41.42
655.761	41.68
656.089	41.91
656.417	41.81
656.745	41.93
657.073	41.95
657.4	41.98
657.728	42.08
658.056	42.29
658.383	41.44
658.711	41.71
659.038	42.25
659.365	41.45
659.693	42.12
660.02	41.68
660.347	42.14
660.674	41.45
661.001	41.98
661.329	41.9
661.656	41.7
661.982	42.25
662.309	42.37
662.636	42.35
662.963	42.14
663.29	42.38
663.616	42.4
663.943	42.18
664.27	42.35
664.596	42.4
664.923	42.54
665.249	42.58
665.576	42.37
665.902	42.03
666.228	43.21
666.554	42.57
666.881	41.72
667.207	42.46
667.533	43.05
667.859	42.53
668.185	42.49
668.511	43.02
668.837	43.1
669.162	43.18
669.488	43.01
669.814	42.7
670.139	42.21
670.465	43.01
