Data from 0245_chest_Reflection__4__82.txt Node

Date: Fri Oct 20 21:19:24 CDT 2023
User: ToomeyLab
Spectrometer: FLMS14357
Trigger mode: 0
Integration Time (sec): 1.000000E-2
Scans to average: 100
Electric dark correction enabled: true
Nonlinearity correction enabled: false
Boxcar width: 0
XAxis mode: Wavelengths
Number of Pixels in Spectrum: 2048
>>>>>Begin Spectral Data<<<<<
189.047	-99.34
189.435	-99.34
189.823	-99.34
190.211	61.16
190.599	-193.1
190.987	143.04
191.375	992.13
191.763	100.43
192.151	13.3
192.538	-71.06
192.926	3.05
193.314	-98.77
193.702	102.24
194.089	569.8
194.477	79.53
194.864	63.22
195.252	57.47
195.639	111.38
196.027	-82.98
196.414	76.74
196.801	-800
197.189	120.58
197.576	15.26
197.963	-50.09
198.351	67.19
198.738	27.1
199.125	41.57
199.512	50.57
199.899	2.52
200.286	-27.95
200.673	30.64
201.06	-5.81
201.447	23.22
201.833	30.21
202.22	42.27
202.607	25.59
202.994	24.53
203.38	19.63
203.767	63.55
204.154	31.73
204.54	50.75
204.927	43.37
205.313	13.64
205.699	65.49
206.086	27.64
206.472	60.75
206.858	47.91
207.245	-2.7
207.631	44.15
208.017	24.8
208.403	27.32
208.789	32.36
209.175	13.84
209.561	12.43
209.947	26.67
210.333	45.34
210.719	2.48
211.105	26.33
211.491	21.97
211.876	-13.98
212.262	19.92
212.648	57.69
213.034	11.81
213.419	33.53
213.805	20.31
214.19	20.1
214.576	28.82
214.961	24.14
215.346	33.5
215.732	40.22
216.117	0.5
216.502	21.42
216.888	15.24
217.273	10.48
217.658	36.4
218.043	-0.34
218.428	9.93
218.813	19.72
219.198	23.83
219.583	-8.86
219.968	25.82
220.353	23.63
220.738	9.89
221.122	6.57
221.507	15.07
221.892	24.5
222.276	12.76
222.661	34.27
223.046	11.74
223.43	15.92
223.815	10.04
224.199	28.43
224.583	2.45
224.968	2.95
225.352	13.33
225.736	4.6
226.121	6.99
226.505	3.13
226.889	12.44
227.273	2.72
227.657	14.9
228.041	10.7
228.425	8.31
228.809	9.6
229.193	6.04
229.577	5.91
229.961	5.6
230.344	4.6
230.728	4.46
231.112	5.12
231.495	4.17
231.879	5.07
232.263	5.83
232.646	4.27
233.03	4.47
233.413	2.84
233.797	4.81
234.18	5.86
234.563	7.52
234.946	7.1
235.33	6.09
235.713	5.1
236.096	5.67
236.479	4.21
236.862	5.2
237.245	5.16
237.628	6.35
238.011	4.77
238.394	5.34
238.777	7
239.16	6.28
239.543	7.03
239.925	6.4
240.308	5.81
240.691	5.52
241.073	5.37
241.456	5.98
241.838	4.62
242.221	5.65
242.603	4.77
242.986	4.74
243.368	4.48
243.75	4.92
244.133	4.27
244.515	4.56
244.897	4.67
245.279	4.46
245.661	4.54
246.043	3.83
246.425	5.32
246.807	4.35
247.189	4.91
247.571	4.34
247.953	3.79
248.335	4.43
248.717	4.31
249.098	4.14
249.48	4.04
249.862	4.59
250.243	4.95
250.625	5.02
251.006	5.01
251.388	4.7
251.769	4.87
252.151	4.36
252.532	5.44
252.913	4.75
253.295	3.21
253.676	4.27
254.057	4.68
254.438	4.51
254.819	4.8
255.2	3.81
255.581	5.37
255.962	4.09
256.343	5.17
256.724	2.98
257.105	4.76
257.486	4.62
257.867	4.45
258.247	4.96
258.628	5.27
259.009	3.89
259.389	4.04
259.77	4.22
260.15	3.55
260.531	3.95
260.911	4.36
261.292	3.91
261.672	4.13
262.052	4.25
262.432	4.13
262.813	4.23
263.193	4.14
263.573	4.05
263.953	4.72
264.333	4.29
264.713	4.39
265.093	4.34
265.473	4.64
265.853	3.95
266.233	4.84
266.612	4.21
266.992	3.94
267.372	3.62
267.752	3.24
268.131	4.68
268.511	4.46
268.89	4.51
269.27	3.99
269.649	3.66
270.029	4.55
270.408	4.41
270.787	4.22
271.167	4.36
271.546	4.43
271.925	4.7
272.304	4.72
272.683	3.89
273.062	4.11
273.441	4
273.82	3.88
274.199	4.4
274.578	4.23
274.957	4.19
275.336	4.08
275.715	4.08
276.093	4.39
276.472	4.05
276.851	4.2
277.229	4.08
277.608	3.39
277.986	4.1
278.365	4.5
278.743	3.67
279.122	4.32
279.5	3.92
279.878	2.98
280.257	4.07
280.635	4.4
281.013	4.24
281.391	4.59
281.769	3.71
282.147	3.54
282.525	4.45
282.903	4.17
283.281	4.63
283.659	4.15
284.037	4.17
284.415	3.74
284.792	4.16
285.17	3.93
285.548	3.84
285.925	3.54
286.303	4.15
286.68	4.02
287.058	4.25
287.435	4.22
287.813	3.78
288.19	4.02
288.567	4.46
288.945	4.49
289.322	4.58
289.699	3.56
290.076	4.45
290.453	4.15
290.83	3.99
291.207	4.44
291.584	4.04
291.961	3.88
292.338	4.22
292.715	4.09
293.092	4.12
293.469	4.46
293.845	4.17
294.222	4
294.599	4.41
294.975	4.35
295.352	4.27
295.728	4.6
296.105	4.04
296.481	4.35
296.858	4.41
297.234	4.38
297.61	3.94
297.986	4.27
298.363	4.26
298.739	4.42
299.115	3.98
299.491	4.19
299.867	4.04
300.243	4.37
300.619	4.41
300.995	4.19
301.371	4.68
301.746	4.39
302.122	4.31
302.498	3.41
302.874	4.35
303.249	4.17
303.625	4.38
304	4.63
304.376	4.15
304.751	4.45
305.127	3.81
305.502	4.81
305.878	4.42
306.253	4.41
306.628	4.62
307.003	4.13
307.378	4.54
307.754	4.45
308.129	4.57
308.504	5.09
308.879	4.79
309.254	4.57
309.629	4.62
310.003	4.14
310.378	4.46
310.753	4.63
311.128	4.81
311.502	4.51
311.877	4.82
312.252	4.09
312.626	4.64
313.001	4.23
313.375	4.38
313.75	4.85
314.124	4.03
314.498	4.71
314.873	4.17
315.247	4.94
315.621	4.57
315.995	4.71
316.369	4.27
316.743	5.07
317.117	4.82
317.491	3.88
317.865	4.7
318.239	5.63
318.613	5
318.987	4.49
319.361	4.09
319.734	4.19
320.108	4.06
320.482	4.47
320.855	4.72
321.229	5.01
321.602	4.35
321.976	4.72
322.349	5.2
322.723	4.28
323.096	4.93
323.469	5.12
323.843	4.87
324.216	4.29
324.589	4.16
324.962	4.86
325.335	4.88
325.708	4.68
326.081	4.48
326.454	4.48
326.827	4.97
327.2	4.68
327.573	5.03
327.945	4.66
328.318	4.35
328.691	4.67
329.063	5.26
329.436	4.27
329.809	4.57
330.181	4.52
330.553	5.01
330.926	4.49
331.298	4.4
331.671	3.76
332.043	4.57
332.415	4.59
332.787	5.24
333.159	4.31
333.532	4.84
333.904	4.96
334.276	3.94
334.648	4.76
335.02	4.97
335.391	4.74
335.763	5.24
336.135	4.99
336.507	4.44
336.879	4.31
337.25	4.71
337.622	4.84
337.993	4.76
338.365	4.86
338.736	4.87
339.108	5.01
339.479	4.33
339.851	4.96
340.222	4.5
340.593	4.35
340.964	4.85
341.336	4.9
341.707	4.67
342.078	5.08
342.449	4.45
342.82	4.42
343.191	4.61
343.562	4.88
343.933	4.49
344.303	4.7
344.674	4.63
345.045	4.72
345.416	4.89
345.786	4.69
346.157	4.87
346.527	4.18
346.898	4.37
347.268	5.16
347.639	4.94
348.009	4.45
348.38	4.75
348.75	4.58
349.12	4.96
349.49	4.58
349.861	4.72
350.231	4.65
350.601	4.77
350.971	4.88
351.341	5.11
351.711	5.11
352.081	4.92
352.45	4.5
352.82	4.76
353.19	4.83
353.56	4.95
353.929	5.06
354.299	4.72
354.669	4.58
355.038	4.66
355.408	4.87
355.777	4.82
356.147	4.71
356.516	4.63
356.885	4.95
357.254	4.58
357.624	4.8
357.993	4.9
358.362	4.62
358.731	4.71
359.1	4.45
359.469	4.92
359.838	4.64
360.207	4.48
360.576	5.21
360.945	4.91
361.314	4.76
361.682	4.72
362.051	4.7
362.42	4.37
362.788	4.98
363.157	4.87
363.525	4.43
363.894	4.73
364.262	4.6
364.631	4.7
364.999	4.91
365.367	4.84
365.735	4.7
366.104	4.83
366.472	4.95
366.84	4.86
367.208	4.89
367.576	4.86
367.944	4.87
368.312	4.82
368.68	5.02
369.048	4.75
369.416	4.97
369.783	5.01
370.151	4.87
370.519	4.88
370.886	4.93
371.254	4.75
371.621	5.13
371.989	4.83
372.356	4.92
372.724	5.23
373.091	4.59
373.458	4.57
373.826	4.78
374.193	4.66
374.56	4.84
374.927	5
375.294	4.94
375.661	4.93
376.028	5.32
376.395	4.94
376.762	4.69
377.129	4.84
377.496	4.74
377.863	5.37
378.229	5.03
378.596	5.14
378.963	4.8
379.329	5
379.696	5.01
380.062	5.09
380.429	4.82
380.795	4.58
381.161	4.93
381.528	5.24
381.894	4.9
382.26	4.75
382.626	5.12
382.993	4.98
383.359	4.87
383.725	4.97
384.091	5.06
384.457	4.88
384.823	5.16
385.188	5.23
385.554	5
385.92	4.97
386.286	4.95
386.651	4.71
387.017	4.97
387.383	4.93
387.748	4.95
388.114	4.62
388.479	5.24
388.845	5.18
389.21	4.52
389.575	4.76
389.94	5.03
390.306	4.98
390.671	4.81
391.036	4.79
391.401	5
391.766	5.13
392.131	5.23
392.496	5.01
392.861	5.26
393.226	5.05
393.591	4.94
393.956	5.08
394.32	5.16
394.685	4.69
395.05	5.42
395.414	5.06
395.779	4.88
396.143	4.95
396.508	4.75
396.872	4.99
397.236	5.05
397.601	4.71
397.965	5.07
398.329	4.91
398.694	5.24
399.058	4.73
399.422	5.16
399.786	5.26
400.15	5.01
400.514	4.91
400.878	5.04
401.242	5.2
401.605	5.15
401.969	4.99
402.333	4.77
402.697	5.01
403.06	5.31
403.424	4.98
403.787	5.1
404.151	5.19
404.514	5.29
404.878	5.2
405.241	4.97
405.604	5
405.968	5.18
406.331	4.9
406.694	5.13
407.057	4.92
407.42	5.39
407.783	5.14
408.146	5.13
408.509	5.01
408.872	5.39
409.235	5.12
409.598	5.35
409.961	5.3
410.323	5.17
410.686	4.87
411.049	5.08
411.411	5.22
411.774	5.18
412.136	5.01
412.499	5.16
412.861	5.07
413.223	5.44
413.586	5.09
413.948	5.28
414.31	5.41
414.672	4.94
415.035	5.03
415.397	5.33
415.759	5.13
416.121	5.2
416.483	5.3
416.845	5.13
417.206	5.24
417.568	5.24
417.93	5.32
418.292	4.92
418.653	5.23
419.015	5.07
419.377	5.33
419.738	5.08
420.1	4.9
420.461	5.07
420.822	4.94
421.184	5.06
421.545	5.07
421.906	5.08
422.267	4.96
422.629	5.09
422.99	4.95
423.351	5.13
423.712	4.98
424.073	5.05
424.434	5.05
424.795	5.06
425.155	5.06
425.516	5.07
425.877	5.01
426.238	4.92
426.598	5.01
426.959	5.05
427.32	5.01
427.68	5.09
428.041	5.15
428.401	5.19
428.761	5.22
429.122	5.24
429.482	5.06
429.842	5.26
430.202	5.18
430.563	5.35
430.923	5.33
431.283	5.25
431.643	5.26
432.003	5.47
432.363	5.26
432.722	5.26
433.082	5.41
433.442	5.25
433.802	5.45
434.161	5.21
434.521	5.26
434.881	5.31
435.24	5.27
435.6	5.21
435.959	5.21
436.319	5.16
436.678	5.3
437.037	5.26
437.396	5.33
437.756	5.37
438.115	5.18
438.474	5.32
438.833	5.41
439.192	5.12
439.551	5.26
439.91	5.2
440.269	5.51
440.628	5.28
440.987	5.31
441.345	5.16
441.704	5.36
442.063	5.24
442.421	5.21
442.78	5.14
443.138	5.24
443.497	5.24
443.855	5.23
444.214	5.33
444.572	5.26
444.93	5.46
445.288	5.28
445.647	5.51
446.005	5.17
446.363	5.4
446.721	5.38
447.079	5.42
447.437	5.27
447.795	5.2
448.153	5.17
448.51	5.17
448.868	5.14
449.226	5.19
449.584	5.22
449.941	5.25
450.299	5.37
450.656	5.25
451.014	5.41
451.371	5.33
451.729	5.39
452.086	5.4
452.443	5.56
452.801	5.41
453.158	5.51
453.515	5.27
453.872	5.33
454.229	5.56
454.586	5.51
454.943	5.41
455.3	5.28
455.657	5.45
456.014	5.31
456.371	5.4
456.727	5.33
457.084	5.56
457.441	5.33
457.797	5.49
458.154	5.47
458.51	5.42
458.867	5.4
459.223	5.58
459.58	5.37
459.936	5.48
460.292	5.41
460.648	5.21
461.005	5.33
461.361	5.41
461.717	5.24
462.073	5.39
462.429	5.33
462.785	5.27
463.141	5.54
463.496	5.39
463.852	5.59
464.208	5.54
464.564	5.64
464.919	5.57
465.275	5.64
465.631	5.64
465.986	5.54
466.342	5.54
466.697	5.39
467.052	5.45
467.408	5.7
467.763	5.84
468.118	5.79
468.473	5.62
468.829	5.62
469.184	5.44
469.539	5.57
469.894	5.52
470.249	5.48
470.603	5.52
470.958	5.71
471.313	5.81
471.668	5.49
472.023	5.65
472.377	5.76
472.732	5.52
473.086	5.78
473.441	5.7
473.795	5.74
474.15	5.64
474.504	5.76
474.859	5.64
475.213	5.68
475.567	5.7
475.921	5.66
476.275	5.75
476.63	5.9
476.984	5.8
477.338	5.56
477.692	5.64
478.045	5.7
478.399	5.75
478.753	5.67
479.107	5.76
479.461	5.55
479.814	5.85
480.168	5.76
480.521	5.82
480.875	5.74
481.228	5.72
481.582	5.84
481.935	5.81
482.289	5.89
482.642	5.73
482.995	5.59
483.348	5.77
483.701	5.69
484.055	5.73
484.408	5.62
484.761	5.58
485.114	5.55
485.466	5.44
485.819	5.37
486.172	5.26
486.525	5.34
486.878	5.43
487.23	5.48
487.583	5.49
487.936	5.55
488.288	5.53
488.641	5.72
488.993	5.52
489.345	5.56
489.698	5.5
490.05	5.44
490.402	5.51
490.754	5.53
491.107	5.52
491.459	5.67
491.811	5.74
492.163	5.71
492.515	5.75
492.866	5.73
493.218	5.59
493.57	5.64
493.922	5.56
494.274	5.58
494.625	5.62
494.977	5.66
495.328	5.79
495.68	5.86
496.031	5.8
496.383	6.03
496.734	5.94
497.086	5.9
497.437	5.98
497.788	5.94
498.139	5.98
498.49	5.99
498.842	5.87
499.193	5.95
499.544	6
499.894	5.89
500.245	5.93
500.596	5.94
500.947	5.96
501.298	6.02
501.648	5.92
501.999	5.88
502.35	5.89
502.7	6.19
503.051	6.03
503.401	6.09
503.752	6.02
504.102	6.17
504.452	6.02
504.803	6.03
505.153	6.1
505.503	6.05
505.853	6.22
506.203	6.02
506.553	6.1
506.903	6.09
507.253	6.15
507.603	6.11
507.953	6.21
508.303	6.22
508.652	6.27
509.002	6.26
509.352	6.28
509.701	6.26
510.051	6.2
510.4	6.12
510.75	6.15
511.099	6.18
511.449	6.17
511.798	6.17
512.147	6.18
512.496	6.33
512.846	6.18
513.195	6.29
513.544	6.32
513.893	6.16
514.242	6.16
514.591	6.16
514.939	6.15
515.288	6.21
515.637	6.19
515.986	6.34
516.334	6.28
516.683	6.3
517.032	6.28
517.38	6.18
517.729	6.35
518.077	6.33
518.426	6.39
518.774	6.28
519.122	6.26
519.47	6.26
519.819	6.28
520.167	6.22
520.515	6.29
520.863	6.28
521.211	6.21
521.559	6.41
521.907	6.37
522.255	6.39
522.602	6.53
522.95	6.36
523.298	6.47
523.645	6.56
523.993	6.41
524.341	6.55
524.688	6.58
525.036	6.61
525.383	6.38
525.73	6.62
526.078	6.56
526.425	6.62
526.772	6.59
527.119	6.53
527.466	6.45
527.814	6.47
528.161	6.48
528.508	6.4
528.854	6.43
529.201	6.52
529.548	6.49
529.895	6.5
530.242	6.38
530.588	6.32
530.935	6.32
531.282	6.32
531.628	6.38
531.975	6.44
532.321	6.48
532.667	6.59
533.014	6.66
533.36	6.75
533.706	6.76
534.052	6.7
534.399	6.57
534.745	6.6
535.091	6.64
535.437	6.59
535.783	6.59
536.129	6.7
536.474	6.7
536.82	6.74
537.166	6.8
537.512	6.83
537.857	6.93
538.203	6.81
538.549	6.93
538.894	6.87
539.239	6.88
539.585	6.83
539.93	6.8
540.276	7.05
540.621	7.03
540.966	7.06
541.311	7.17
541.656	7.11
542.001	7.06
542.346	7.07
542.691	7.02
543.036	6.94
543.381	6.87
543.726	6.82
544.071	6.85
544.415	6.96
544.76	6.98
545.105	7.06
545.449	7
545.794	7.14
546.138	7.13
546.483	7.1
546.827	7.23
547.171	7.35
547.516	7.27
547.86	7.36
548.204	7.14
548.548	7.25
548.892	7.26
549.236	7.37
549.58	7.3
549.924	7.33
550.268	7.46
550.612	7.59
550.956	7.61
551.3	7.6
551.643	7.56
551.987	7.65
552.33	7.66
552.674	7.65
553.017	7.75
553.361	7.71
553.704	7.88
554.048	7.81
554.391	7.89
554.734	7.91
555.077	7.73
555.42	7.65
555.764	7.68
556.107	7.87
556.45	7.92
556.793	7.76
557.135	7.76
557.478	7.79
557.821	7.98
558.164	8.08
558.507	8.19
558.849	8.07
559.192	8.04
559.534	8.22
559.877	7.85
560.219	8.26
560.562	8.1
560.904	7.94
561.246	8.09
561.589	8.04
561.931	8.22
562.273	8.17
562.615	8.38
562.957	8.32
563.299	8.29
563.641	8.47
563.983	8.2
564.325	8.06
564.667	8.47
565.008	8.33
565.35	8.38
565.692	8.36
566.033	8.48
566.375	8.42
566.716	8.65
567.058	8.49
567.399	8.6
567.741	8.19
568.082	8.61
568.423	8.48
568.764	8.47
569.105	8.67
569.447	8.49
569.788	8.61
570.129	8.72
570.47	8.64
570.811	8.63
571.151	8.75
571.492	8.95
571.833	8.95
572.174	8.87
572.514	8.8
572.855	8.59
573.195	8.84
573.536	8.89
573.876	8.93
574.217	8.93
574.557	9.01
574.898	8.75
575.238	8.89
575.578	9.05
575.918	8.89
576.258	9.07
576.598	9.19
576.938	9.06
577.278	9.17
577.618	8.96
577.958	9.09
578.298	9.05
578.638	9.11
578.977	9.32
579.317	9.29
579.657	9.18
579.996	9.4
580.336	9.36
580.675	9.39
581.014	9.28
581.354	9.48
581.693	9.69
582.032	9.63
582.372	9.85
582.711	9.72
583.05	9.97
583.389	9.74
583.728	9.57
584.067	9.73
584.406	9.78
584.745	9.88
585.083	9.8
585.422	9.7
585.761	10.04
586.1	10.01
586.438	9.53
586.777	10.15
587.115	10.04
587.454	10.11
587.792	9.92
588.13	10.09
588.469	10.54
588.807	9.81
589.145	10.04
589.483	9.88
589.821	10.02
590.159	10.25
590.497	10.35
590.835	10.34
591.173	10.23
591.511	10.41
591.849	10.29
592.187	10.17
592.524	10.28
592.862	10.32
593.2	10.55
593.537	10.45
593.875	10.56
594.212	10.54
594.55	10.55
594.887	10.55
595.224	10.41
595.561	10.44
595.899	10.58
596.236	10.88
596.573	10.68
596.91	10.84
597.247	10.64
597.584	10.57
597.921	10.83
598.258	10.93
598.594	11.11
598.931	11.06
599.268	10.57
599.604	11.03
599.941	10.8
600.277	10.99
600.614	11.01
600.95	11
601.287	11.06
601.623	11.19
601.959	11.05
602.296	11.28
602.632	11.18
602.968	11.03
603.304	11.54
603.64	11.4
603.976	11.5
604.312	11.59
604.648	11.56
604.984	11.57
605.319	11.4
605.655	11.4
605.991	11.32
606.326	11.33
606.662	11.44
606.998	11.54
607.333	11.4
607.668	11.41
608.004	11.65
608.339	11.77
608.674	11.8
609.01	11.87
609.345	11.82
609.68	11.75
610.015	11.85
610.35	12.02
610.685	12.32
611.02	12.02
611.355	11.79
611.689	12.05
612.024	12.11
612.359	12.03
612.694	12.07
613.028	11.97
613.363	12.12
613.697	12.35
614.032	12.46
614.366	12.42
614.7	12.32
615.035	12.67
615.369	12.61
615.703	12.21
616.037	12.47
616.371	12.79
616.705	12.72
617.039	12.56
617.373	12.62
617.707	13.3
618.041	12.58
618.375	12.9
618.709	12.67
619.042	12.91
619.376	13.15
619.71	13.1
620.043	13.12
620.377	12.75
620.71	13.04
621.043	12.75
621.377	12.76
621.71	13.03
622.043	12.85
622.376	13.23
622.709	12.88
623.043	13.12
623.376	13.01
623.709	13.21
624.041	13.54
624.374	13.63
624.707	13.12
625.04	13.54
625.373	13.53
625.705	13.41
626.038	14
626.37	13.2
626.703	13.45
627.035	13.42
627.368	13.46
627.7	13.5
628.032	13.78
628.365	13.96
628.697	13.45
629.029	13.83
629.361	13.7
629.693	13.69
630.025	13.82
630.357	13.83
630.689	13.93
631.021	14.1
631.353	14.04
631.684	13.78
632.016	14.26
632.348	13.75
632.679	13.75
633.011	14.24
633.342	13.74
633.674	14.05
634.005	14.35
634.336	14.63
634.668	14.39
634.999	14.19
635.33	14.24
635.661	14.57
635.992	14.53
636.323	14.84
636.654	14.53
636.985	14.34
637.316	14.47
637.647	14.63
637.977	14.39
638.308	14.74
638.639	14.78
638.969	15.15
639.3	14.6
639.63	14.79
639.961	14.58
640.291	15
640.622	14.74
640.952	14.73
641.282	14.81
641.612	15.1
641.943	15.15
642.273	14.9
642.603	15.4
642.933	15.09
643.263	15.59
643.592	15.57
643.922	15.54
644.252	15.81
644.582	15.72
644.911	15.06
645.241	15.99
645.571	16.19
645.9	15.66
646.23	15.29
646.559	15.34
646.888	15.92
647.218	16.31
647.547	15.4
647.876	16.17
648.205	16.23
648.534	15.9
648.863	15.86
649.192	15.56
649.521	16.21
649.85	16.22
650.179	15.82
650.508	15.84
650.837	15.85
651.165	16.05
651.494	16.03
651.822	16
652.151	16.33
652.479	16.27
652.808	16.25
653.136	16.03
653.465	16.39
653.793	16.26
654.121	16.76
654.449	16.53
654.777	16.3
655.105	16.52
655.433	16.85
655.761	17.1
656.089	16.98
656.417	16.65
656.745	16.58
657.073	17.02
657.4	17.54
657.728	16.53
658.056	17.01
658.383	16.8
658.711	16.56
659.038	16.84
659.365	17.38
659.693	16.69
660.02	16.81
660.347	17.47
660.674	16.8
661.001	17.21
661.329	17.41
661.656	17.22
661.982	17.25
662.309	17.32
662.636	17.41
662.963	17.48
663.29	17.42
663.616	17.77
663.943	16.75
664.27	17.61
664.596	17.92
664.923	17.44
665.249	17.11
665.576	16.8
665.902	17.29
666.228	18.36
666.554	18.11
666.881	17.56
667.207	17.9
667.533	18.29
667.859	17.97
668.185	18.21
668.511	18.66
668.837	18.38
669.162	18.49
669.488	18.36
669.814	17.44
670.139	18.44
670.465	18.16
670.791	18.55
671.116	18.58
671.442	17.76
671.767	18.57
672.092	18.8
672.418	18.69
672.743	18.47
673.068	18.82
673.393	19.08
673.718	18.85
674.043	18.8
674.368	18.54
674.693	19.2
675.018	18.51
675.343	18.48
675.667	18.28
675.992	18.66
676.317	19.03
676.641	19.35
676.966	19.04
677.29	19.26
677.615	18.65
677.939	19.1
678.264	19.02
678.588	18.25
678.912	19.03
679.236	19.14
679.56	19.08
679.885	19.47
680.209	19.34
680.532	19.31
680.856	19.37
681.18	19.42
681.504	19.86
681.828	19.59
682.152	19.94
682.475	19.63
682.799	19.82
683.122	20.11
683.446	19.59
683.769	19.88
684.093	19.75
684.416	19.87
684.739	19.3
685.062	19.17
685.386	19.7
685.709	20.05
686.032	20.15
