Data from 0245_forehead_Reflection__4__92.txt Node

Date: Fri Oct 20 21:21:55 CDT 2023
User: ToomeyLab
Spectrometer: FLMS14357
Trigger mode: 0
Integration Time (sec): 1.000000E-2
Scans to average: 100
Electric dark correction enabled: true
Nonlinearity correction enabled: false
Boxcar width: 0
XAxis mode: Wavelengths
Number of Pixels in Spectrum: 2048
>>>>>Begin Spectral Data<<<<<
189.047	24.6
189.435	24.6
189.823	24.6
190.211	140.68
190.599	-415
190.987	171.68
191.375	61.22
191.763	71.3
192.151	-77.3
192.538	-37.63
192.926	32.96
193.314	710.19
193.702	159.21
194.089	556.02
194.477	52.9
194.864	30.64
195.252	249.2
195.639	-15.92
196.027	-79.86
196.414	19.06
196.801	-2966.49
197.189	-33.18
197.576	188.01
197.963	113.89
198.351	103.35
198.738	23.97
199.125	76.06
199.512	45.93
199.899	44.91
200.286	15.84
200.673	54.81
201.06	38.51
201.447	8.66
201.833	30.92
202.22	67.25
202.607	37.84
202.994	45.31
203.38	20.99
203.767	46.31
204.154	54.72
204.54	69.17
204.927	38.69
205.313	33.44
205.699	65.23
206.086	25.59
206.472	49.37
206.858	58.02
207.245	-7.01
207.631	46.5
208.017	21.91
208.403	34.18
208.789	39.55
209.175	8.55
209.561	38.92
209.947	40.89
210.333	25.08
210.719	14.83
211.105	33.32
211.491	41.24
211.876	46.99
212.262	45.43
212.648	61.01
213.034	46.28
213.419	31.64
213.805	31.02
214.19	32.5
214.576	46.86
214.961	32.1
215.346	32.64
215.732	34.66
216.117	8.15
216.502	18.87
216.888	37.92
217.273	46.6
217.658	30.24
218.043	41.04
218.428	37.52
218.813	18.58
219.198	17.09
219.583	26.28
219.968	16.73
220.353	19.11
220.738	33.78
221.122	10.61
221.507	26.76
221.892	14.13
222.276	14.85
222.661	30.2
223.046	22.33
223.43	18.67
223.815	18.6
224.199	35.24
224.583	11.84
224.968	14.14
225.352	9.35
225.736	16.91
226.121	11.65
226.505	1.09
226.889	13.86
227.273	11.89
227.657	15.78
228.041	12.36
228.425	11.73
228.809	9.41
229.193	9.33
229.577	8.66
229.961	6.79
230.344	6.98
230.728	5.51
231.112	6.48
231.495	5.56
231.879	6.31
232.263	7.37
232.646	5.78
233.03	5.05
233.413	6.75
233.797	5.72
234.18	6.58
234.563	9.27
234.946	10.5
235.33	7.64
235.713	6.36
236.096	8.3
236.479	6.01
236.862	8.68
237.245	6.17
237.628	5.42
238.011	8.54
238.394	7.48
238.777	8.25
239.16	7.08
239.543	9.34
239.925	7.14
240.308	8.14
240.691	7.18
241.073	9.07
241.456	6.87
241.838	7.83
242.221	7.24
242.603	6.61
242.986	6.99
243.368	6.6
243.75	5.74
244.133	5.85
244.515	5.57
244.897	5.56
245.279	5.86
245.661	5.68
246.043	5.46
246.425	5.8
246.807	7.04
247.189	6.48
247.571	6.13
247.953	6.63
248.335	6.06
248.717	5.55
249.098	5.62
249.48	5.48
249.862	5.85
250.243	6.3
250.625	5.85
251.006	6.31
251.388	6.04
251.769	6.67
252.151	6.26
252.532	6.87
252.913	6.33
253.295	5.88
253.676	6.61
254.057	6.11
254.438	6.38
254.819	6.16
255.2	6.61
255.581	6.49
255.962	6.99
256.343	7.19
256.724	5.76
257.105	7.02
257.486	7.33
257.867	7.72
258.247	7.07
258.628	7.06
259.009	6.2
259.389	5.68
259.77	6.72
260.15	6.33
260.531	6.47
260.911	6.28
261.292	5.84
261.672	5.77
262.052	6.14
262.432	5.72
262.813	5.85
263.193	5.8
263.573	6.08
263.953	6.34
264.333	6.3
264.713	6.87
265.093	6.5
265.473	6.5
265.853	5.93
266.233	6.34
266.612	6.35
266.992	6.57
267.372	5.97
267.752	5.63
268.131	6.99
268.511	6.22
268.89	6.14
269.27	5.66
269.649	5.69
270.029	6.08
270.408	5.77
270.787	6.06
271.167	6.24
271.546	6.44
271.925	7
272.304	5.8
272.683	6.29
273.062	6.09
273.441	6.03
273.82	6.16
274.199	6.33
274.578	5.6
274.957	6.09
275.336	6.13
275.715	6.01
276.093	6.11
276.472	5.94
276.851	6.01
277.229	6.21
277.608	5.44
277.986	6.1
278.365	5.88
278.743	5.86
279.122	6.25
279.5	5.9
279.878	5.61
280.257	5.56
280.635	6.29
281.013	6.63
281.391	6.24
281.769	5.51
282.147	5.92
282.525	6.02
282.903	6.03
283.281	6.12
283.659	5.9
284.037	5.94
284.415	5.22
284.792	5.81
285.17	5.95
285.548	5.96
285.925	5.35
286.303	5.75
286.68	5.43
287.058	6.41
287.435	5.87
287.813	5.48
288.19	5.63
288.567	5.59
288.945	6.29
289.322	6.44
289.699	5.3
290.076	6.4
290.453	6.55
290.83	6.28
291.207	6.43
291.584	6.06
291.961	6.25
292.338	5.82
292.715	6.07
293.092	6.31
293.469	6.39
293.845	6.19
294.222	6.64
294.599	6.63
294.975	7.31
295.352	6.76
295.728	6.7
296.105	6.68
296.481	6.84
296.858	6.32
297.234	6.99
297.61	6.19
297.986	6.96
298.363	6.84
298.739	7.17
299.115	6.77
299.491	6.64
299.867	7.27
300.243	6.94
300.619	7.25
300.995	7.05
301.371	7.69
301.746	7.63
302.122	8.08
302.498	7.74
302.874	7.57
303.249	7.34
303.625	7.87
304	8.08
304.376	7.55
304.751	7.5
305.127	7.87
305.502	8.46
305.878	8.49
306.253	8.31
306.628	8.58
307.003	8.42
307.378	8.49
307.754	8.38
308.129	8.96
308.504	9.05
308.879	9.15
309.254	9.16
309.629	9.16
310.003	8.96
310.378	9.85
310.753	9.55
311.128	9.74
311.502	9.67
311.877	9.62
312.252	9.42
312.626	9.71
313.001	10.01
313.375	9.82
313.75	10.06
314.124	9.78
314.498	10.44
314.873	10.12
315.247	10.63
315.621	10.04
315.995	10.78
316.369	10.62
316.743	11.34
317.117	11.19
317.491	11.06
317.865	11.75
318.239	11.91
318.613	12
318.987	11.35
319.361	11.5
319.734	11.34
320.108	11.76
320.482	12.59
320.855	12.44
321.229	13.13
321.602	12.65
321.976	12.44
322.349	12.91
322.723	12.64
323.096	12.71
323.469	13.25
323.843	13.11
324.216	13.37
324.589	12.81
324.962	13.22
325.335	13.58
325.708	13.39
326.081	13.77
326.454	13.45
326.827	13.8
327.2	14.23
327.573	14.23
327.945	13.95
328.318	13.92
328.691	13.8
329.063	14.38
329.436	14.2
329.809	14.53
330.181	14.74
330.553	14.28
330.926	14.38
331.298	13.93
331.671	14.54
332.043	15.3
332.415	14.83
332.787	15.51
333.159	14.7
333.532	15.56
333.904	15.58
334.276	15.37
334.648	15.95
335.02	16.02
335.391	16.05
335.763	16.51
336.135	15.54
336.507	16.21
336.879	16.05
337.25	15.66
337.622	16.72
337.993	16.74
338.365	16.17
338.736	16.31
339.108	16.66
339.479	16.48
339.851	16.75
340.222	16.9
340.593	16.66
340.964	16.74
341.336	17.77
341.707	17.65
342.078	17.56
342.449	17.66
342.82	17.27
343.191	17.88
343.562	17.37
343.933	17.91
344.303	17.8
344.674	17.99
345.045	18.19
345.416	18.47
345.786	18.07
346.157	18.13
346.527	18.41
346.898	18.38
347.268	18.18
347.639	18.72
348.009	18.8
348.38	18.91
348.75	18.81
349.12	19.14
349.49	18.75
349.861	19.34
350.231	19.31
350.601	19.4
350.971	19.87
351.341	19.25
351.711	19.91
352.081	19.86
352.45	19.45
352.82	19.87
353.19	19.88
353.56	20.06
353.929	19.53
354.299	19.89
354.669	20.5
355.038	20.64
355.408	20.39
355.777	20.15
356.147	20.38
356.516	20.53
356.885	20.49
357.254	20.71
357.624	20.46
357.993	21.02
358.362	20.97
358.731	20.64
359.1	20.63
359.469	20.92
359.838	20.74
360.207	20.93
360.576	21.47
360.945	20.98
361.314	21.31
361.682	21.72
362.051	21.55
362.42	21.52
362.788	21.68
363.157	21.7
363.525	21.48
363.894	21.93
364.262	22.04
364.631	22.08
364.999	22.06
365.367	22.36
365.735	22.28
366.104	22.54
366.472	22.45
366.84	22.85
367.208	22.82
367.576	22.84
367.944	22.93
368.312	22.79
368.68	22.96
369.048	23.11
369.416	23.55
369.783	23.54
370.151	23.74
370.519	23.75
370.886	23.88
371.254	23.74
371.621	23.79
371.989	23.62
372.356	23.89
372.724	24.14
373.091	24.07
373.458	24.11
373.826	24.1
374.193	24.1
374.56	24.51
374.927	24.1
375.294	24.41
375.661	24.64
376.028	24.81
376.395	25.11
376.762	24.32
377.129	24.97
377.496	25.01
377.863	25.16
378.229	25.38
378.596	25.29
378.963	25.38
379.329	25.39
379.696	25.68
380.062	25.21
380.429	25.21
380.795	25.52
381.161	25.79
381.528	26.21
381.894	25.83
382.26	25.81
382.626	26.18
382.993	26.43
383.359	26
383.725	26.51
384.091	26.63
384.457	26.89
384.823	26.48
385.188	26.82
385.554	26.91
385.92	26.48
386.286	26.69
386.651	26.95
387.017	27.18
387.383	26.84
387.748	27.13
388.114	27.19
388.479	27.45
388.845	27.65
389.21	27.27
389.575	27.32
389.94	27.69
390.306	27.42
390.671	27.72
391.036	28.05
391.401	27.94
391.766	27.94
392.131	28.38
392.496	28.38
392.861	28.22
393.226	28.42
393.591	28.16
393.956	28.55
394.32	28.76
394.685	28.65
395.05	28.79
395.414	28.93
395.779	29.19
396.143	28.95
396.508	29.02
396.872	29.09
397.236	29.29
397.601	29.38
397.965	29.26
398.329	29.41
398.694	29.63
399.058	29.54
399.422	29.68
399.786	29.62
400.15	30.04
400.514	29.71
400.878	30.24
401.242	30.3
401.605	30.29
401.969	29.86
402.333	30.3
402.697	30.51
403.06	30.44
403.424	30.45
403.787	30.57
404.151	30.79
404.514	30.93
404.878	31.01
405.241	30.94
405.604	30.81
405.968	30.99
406.331	31.07
406.694	31.1
407.057	31.19
407.42	31.47
407.783	31.37
408.146	31.32
408.509	31.55
408.872	31.83
409.235	31.49
409.598	31.67
409.961	31.98
410.323	31.96
410.686	32.04
411.049	31.79
411.411	32.21
411.774	32.2
412.136	32.21
412.499	32.47
412.861	32.32
413.223	32.42
413.586	32.41
413.948	32.91
414.31	32.59
414.672	32.76
415.035	32.93
415.397	33
415.759	33.05
416.121	33.17
416.483	33.24
416.845	32.98
417.206	33.37
417.568	33.37
417.93	33.25
418.292	33.12
418.653	33.6
419.015	33.23
419.377	33.51
419.738	33.33
420.1	33.43
420.461	33.33
420.822	33.32
421.184	33.41
421.545	33.53
421.906	33.59
422.267	33.5
422.629	33.62
422.99	33.62
423.351	33.67
423.712	33.57
424.073	33.61
424.434	33.79
424.795	34.06
425.155	33.99
425.516	34.05
425.877	34.11
426.238	34.11
426.598	34.18
426.959	34.22
427.32	34.38
427.68	34.54
428.041	34.57
428.401	34.92
428.761	34.88
429.122	35.07
429.482	34.9
429.842	35.58
430.202	35.51
430.563	35.71
430.923	35.69
431.283	35.55
431.643	36.05
432.003	36.03
432.363	35.81
432.722	35.72
433.082	35.98
433.442	36.09
433.802	36.22
434.161	36.27
434.521	36.13
434.881	36.22
435.24	36.2
435.6	36.14
435.959	36.35
436.319	36.51
436.678	36.15
437.037	36.58
437.396	36.71
437.756	36.71
438.115	36.69
438.474	36.81
438.833	37.03
439.192	37.02
439.551	37.24
439.91	37
440.269	37.37
440.628	37.1
440.987	37.39
441.345	37.18
441.704	37.23
442.063	37.17
442.421	37.3
442.78	37.31
443.138	37.51
443.497	37.59
443.855	37.58
444.214	37.54
444.572	37.85
444.93	38.01
445.288	37.96
445.647	38.17
446.005	37.88
446.363	38.16
446.721	38.32
447.079	38.42
447.437	38.35
447.795	37.93
448.153	37.94
448.51	38
448.868	38.15
449.226	38.09
449.584	38.12
449.941	38.33
450.299	38.59
450.656	38.42
451.014	38.75
451.371	39.09
451.729	39.15
452.086	38.96
452.443	39.2
452.801	39.25
453.158	39.49
453.515	39.55
453.872	39.56
454.229	39.7
454.586	39.66
454.943	39.4
455.3	39.65
455.657	39.83
456.014	39.94
456.371	39.9
456.727	40.17
457.084	40.19
457.441	39.85
457.797	40.17
458.154	40.59
458.51	40.47
458.867	40.32
459.223	40.46
459.58	40.44
459.936	40.51
460.292	40.56
460.648	40.43
461.005	40.57
461.361	40.43
461.717	40.2
462.073	40.21
462.429	40.04
462.785	40.23
463.141	40.55
463.496	40.76
463.852	41.02
464.208	41
464.564	41.19
464.919	41.16
465.275	41.6
465.631	41.61
465.986	41.58
466.342	41.51
466.697	41.36
467.052	41.39
467.408	41.69
467.763	41.99
468.118	41.91
468.473	41.92
468.829	42.01
469.184	42.06
469.539	41.94
469.894	41.99
470.249	42.1
470.603	42.19
470.958	42.42
471.313	42.4
471.668	42.45
472.023	42.18
472.377	42.63
472.732	42.62
473.086	42.66
473.441	42.72
473.795	42.89
474.15	42.77
474.504	42.72
474.859	42.81
475.213	42.84
475.567	43.2
475.921	42.88
476.275	43.11
476.63	43
476.984	43.46
477.338	43.15
477.692	43.44
478.045	43.23
478.399	43.17
478.753	43.22
479.107	43.27
479.461	43.3
479.814	43.42
480.168	43.64
480.521	43.43
480.875	43.47
481.228	43.33
481.582	43.62
481.935	43.62
482.289	43.76
482.642	43.75
482.995	43.77
483.348	43.74
483.701	43.75
484.055	43.6
484.408	43.48
484.761	43.4
485.114	43.28
485.466	42.97
485.819	43.04
486.172	43.18
486.525	43.08
486.878	42.99
487.23	42.91
487.583	43.04
487.936	43.26
488.288	43.59
488.641	43.68
488.993	43.41
489.345	43.54
489.698	43.44
490.05	43.39
490.402	43.54
490.754	43.44
491.107	43.61
491.459	44.02
491.811	44.21
492.163	44.36
492.515	44.4
492.866	44.36
493.218	44.21
493.57	44.12
493.922	44.11
494.274	44.11
494.625	44.09
494.977	44.31
495.328	44.65
495.68	45.02
496.031	45.12
496.383	45.29
496.734	45.49
497.086	45.55
497.437	45.79
497.788	45.89
498.139	45.71
498.49	45.78
498.842	45.41
499.193	45.69
499.544	45.51
499.894	45.65
500.245	45.7
500.596	45.67
500.947	45.83
501.298	46.04
501.648	45.97
501.999	46.17
502.35	45.95
502.7	46.31
503.051	46.41
503.401	46.53
503.752	46.73
504.102	46.48
504.452	46.44
504.803	46.73
505.153	46.86
505.503	46.8
505.853	46.93
506.203	46.6
506.553	46.78
506.903	46.77
507.253	46.79
507.603	47.13
507.953	46.89
508.303	47.16
508.652	47.1
509.002	47.24
509.352	47.21
509.701	47.31
510.051	47.09
510.4	47.11
510.75	47.3
511.099	47.15
511.449	47.21
511.798	47.28
512.147	47.16
512.496	47.21
512.846	47.29
513.195	47.53
513.544	47.55
513.893	47.24
514.242	47.62
514.591	47.37
514.939	47.75
515.288	47.7
515.637	47.7
515.986	47.93
516.334	47.64
516.683	47.95
517.032	47.98
517.38	48.09
517.729	48.07
518.077	48.1
518.426	48.35
518.774	48.34
519.122	48.13
519.47	48.11
519.819	48.07
520.167	47.89
520.515	47.9
520.863	47.94
521.211	47.83
521.559	47.96
521.907	48.07
522.255	48
522.602	48.31
522.95	48.33
523.298	48.38
523.645	48.74
523.993	48.8
524.341	48.64
524.688	48.81
525.036	48.96
525.383	48.63
525.73	48.89
526.078	48.79
526.425	49.07
526.772	48.92
527.119	48.9
527.466	48.9
527.814	48.75
528.161	48.57
528.508	48.58
528.854	48.63
529.201	48.39
529.548	48.69
529.895	48.55
530.242	48.28
530.588	48.55
530.935	48.7
531.282	48.53
531.628	48.4
531.975	48.23
532.321	48.46
532.667	48.66
533.014	49.07
533.36	49.08
533.706	49.34
534.052	49.15
534.399	49.31
534.745	49.16
535.091	48.99
535.437	49
535.783	49.06
536.129	49.16
536.474	49.12
536.82	49.19
537.166	49.37
537.512	49.59
537.857	49.88
538.203	49.95
538.549	49.97
538.894	49.81
539.239	49.93
539.585	49.57
539.93	49.8
540.276	50.11
540.621	50.49
540.966	50.38
541.311	50.16
541.656	50.56
542.001	50.51
542.346	50.52
542.691	50.35
543.036	49.95
543.381	49.88
543.726	49.75
544.071	49.9
544.415	49.69
544.76	49.72
545.105	50.11
545.449	50.15
545.794	50.27
546.138	50.34
546.483	50.46
546.827	50.76
547.171	50.52
547.516	50.81
547.86	50.92
548.204	50.88
548.548	50.93
548.892	50.71
549.236	50.98
549.58	50.93
549.924	51.33
550.268	51.14
550.612	51.35
550.956	51.4
551.3	51.51
551.643	51.59
551.987	51.77
552.33	52.01
552.674	51.77
553.017	51.77
553.361	51.78
553.704	52.16
554.048	52.13
554.391	52.23
554.734	51.8
555.077	51.92
555.42	51.9
555.764	51.88
556.107	51.98
556.45	51.97
556.793	52.23
557.135	52.28
557.478	52.27
557.821	52.18
558.164	52.48
558.507	52.29
558.849	52.3
559.192	52.46
559.534	52.42
559.877	52.6
560.219	52.66
560.562	53.1
560.904	52.64
561.246	53.14
561.589	52.64
561.931	52.97
562.273	53.09
562.615	53.01
562.957	53.12
563.299	53.02
563.641	53.35
563.983	52.96
564.325	53.01
564.667	52.91
565.008	52.81
565.35	53.01
565.692	53.07
566.033	53.31
566.375	53.08
566.716	53.2
567.058	53.33
567.399	53.29
567.741	53.07
568.082	53.21
568.423	53.21
568.764	52.89
569.105	53.25
569.447	53.25
569.788	53.31
570.129	53.42
570.47	53.41
570.811	53.43
571.151	53.62
571.492	53.87
571.833	53.84
572.174	53.64
572.514	53.77
572.855	53.79
573.195	53.92
573.536	53.86
573.876	53.94
574.217	53.55
574.557	53.76
574.898	53.7
575.238	53.52
575.578	53.83
575.918	53.71
576.258	54.11
576.598	54.09
576.938	54.14
577.278	53.92
577.618	53.79
577.958	54.11
578.298	54.3
578.638	54.11
578.977	54.34
579.317	54.33
579.657	54.26
579.996	54.34
580.336	54.51
580.675	54.58
581.014	54.3
581.354	54.51
581.693	54.37
582.032	54.95
582.372	55.03
582.711	54.96
583.05	54.86
583.389	54.98
583.728	54.58
584.067	55.03
584.406	54.82
584.745	54.95
585.083	54.89
585.422	55.21
585.761	54.95
586.1	55.05
586.438	55.1
586.777	55.15
587.115	55.41
587.454	55.25
587.792	55.25
588.13	55.54
588.469	55.37
588.807	55.45
589.145	55.48
589.483	54.97
589.821	55.06
590.159	55.46
590.497	55.85
590.835	55.64
591.173	55.55
591.511	55.63
591.849	55.38
592.187	55.5
592.524	55.68
592.862	55.65
593.2	55.64
593.537	55.57
593.875	55.92
594.212	55.71
594.55	55.96
594.887	55.84
595.224	55.72
595.561	55.44
595.899	55.54
596.236	56.12
596.573	56.09
596.91	55.74
597.247	55.46
597.584	55.81
597.921	56.04
598.258	55.87
598.594	55.78
598.931	55.65
599.268	55.59
599.604	55.65
599.941	55.64
600.277	55.92
600.614	55.63
600.95	55.88
601.287	55.92
601.623	56.53
601.959	56.13
602.296	56.06
602.632	56.37
602.968	56.04
603.304	56.64
603.64	56.42
603.976	56.33
604.312	56.67
604.648	56.59
604.984	56.82
605.319	56.72
605.655	56.53
605.991	56.42
606.326	56.63
606.662	56.41
606.998	56.35
607.333	56.24
607.668	56.21
608.004	56.76
608.339	56.38
608.674	56.6
609.01	56.45
609.345	56.89
609.68	57.04
610.015	56.63
610.35	56.85
610.685	56.98
611.02	56.81
611.355	56.84
611.689	56.65
612.024	56.74
612.359	56.69
612.694	57.16
613.028	57.27
613.363	57.13
613.697	57.38
614.032	57.16
614.366	57.34
614.7	57.22
615.035	57.47
615.369	57.56
615.703	57.33
616.037	57.83
616.371	57.29
616.705	57.68
617.039	57.75
617.373	57.43
617.707	57.75
618.041	57.45
618.375	57.37
618.709	58.2
619.042	57.62
619.376	57.64
619.71	57.73
620.043	57.9
620.377	57.66
620.71	57.73
621.043	58.61
621.377	57.6
621.71	58.21
622.043	58.39
622.376	58.19
622.709	57.92
623.043	58.26
623.376	57.28
623.709	58.36
624.041	58.13
624.374	58.13
624.707	58.26
625.04	58.09
625.373	58.13
625.705	58.18
626.038	58.42
626.37	58.04
626.703	58.47
627.035	58.01
627.368	58.23
627.7	58.3
628.032	58.52
628.365	58.28
628.697	59.1
629.029	58.46
629.361	58.56
629.693	58.83
630.025	58.56
630.357	58.55
630.689	58.24
631.021	58.62
631.353	58.61
631.684	58.53
632.016	58.7
632.348	58.9
632.679	58.64
633.011	58.92
633.342	58.47
633.674	58.95
634.005	58.74
634.336	59.25
634.668	59.16
634.999	58.64
635.33	58.38
635.661	58.87
635.992	59.38
636.323	59.03
636.654	58.93
636.985	58.78
637.316	58.99
637.647	59.16
637.977	58.88
638.308	58.8
638.639	59.04
638.969	59.14
639.3	58.77
639.63	59.19
639.961	58.68
640.291	59.07
640.622	59.13
640.952	58.9
641.282	59.58
641.612	59.46
641.943	59.3
642.273	59.67
642.603	59.71
642.933	59.19
643.263	59.7
643.592	59.61
643.922	59.14
644.252	59.52
644.582	60.14
644.911	59.43
645.241	60.12
645.571	60.01
645.9	59.54
646.23	59.84
646.559	59.94
646.888	59.82
647.218	60.64
647.547	59.71
647.876	60.12
648.205	60.24
648.534	60.29
648.863	59.96
649.192	59.34
649.521	59.78
649.85	59.86
650.179	59.82
650.508	59.34
650.837	60.22
651.165	60.27
651.494	59.88
651.822	59.93
652.151	60.49
652.479	59.91
652.808	59.4
653.136	59.47
653.465	60.14
653.793	60.21
654.121	59.85
654.449	60.73
654.777	60.51
655.105	60.57
655.433	60.14
655.761	60.44
656.089	60.45
656.417	59.84
656.745	60.81
657.073	60.66
657.4	60.5
657.728	60.05
658.056	59.83
658.383	60.41
658.711	60.5
659.038	60.45
659.365	60.61
659.693	60.4
660.02	59.86
660.347	60.95
660.674	60.06
661.001	61.01
661.329	60.92
661.656	60.61
661.982	60.91
662.309	60.64
662.636	60.69
662.963	60.93
663.29	60.46
663.616	60.8
663.943	60.11
664.27	60.68
664.596	60.69
664.923	61
665.249	61.04
665.576	60.84
665.902	60.54
666.228	61.84
666.554	60.76
666.881	60.57
667.207	61.1
667.533	60.94
667.859	60.16
668.185	60.38
668.511	61.24
668.837	61.74
