Data from 0245_chest_Reflection__1__79.txt Node

Date: Fri Oct 20 21:18:20 CDT 2023
User: ToomeyLab
Spectrometer: FLMS14357
Trigger mode: 0
Integration Time (sec): 1.000000E-2
Scans to average: 100
Electric dark correction enabled: true
Nonlinearity correction enabled: false
Boxcar width: 0
XAxis mode: Wavelengths
Number of Pixels in Spectrum: 2048
>>>>>Begin Spectral Data<<<<<
189.047	70.71
189.435	70.71
189.823	70.71
190.211	24.15
190.599	-339.83
190.987	192.02
191.375	-355.31
191.763	76.66
192.151	19.63
192.538	21.32
192.926	30.89
193.314	255.45
193.702	22.61
194.089	662.55
194.477	42.77
194.864	102.05
195.252	16.49
195.639	-47.67
196.027	130.58
196.414	96.44
196.801	-1589.89
197.189	55.7
197.576	96.56
197.963	84.79
198.351	70.7
198.738	-3.04
199.125	16.22
199.512	36.87
199.899	6.71
200.286	6.98
200.673	49.06
201.06	31.18
201.447	-3.15
201.833	50.46
202.22	9.78
202.607	43.54
202.994	31.57
203.38	4.82
203.767	4.79
204.154	26.71
204.54	37.4
204.927	36.31
205.313	29.27
205.699	63.66
206.086	22.51
206.472	16.86
206.858	65.05
207.245	20.96
207.631	28.51
208.017	44.09
208.403	16.79
208.789	36.6
209.175	26.36
209.561	36.72
209.947	17.94
210.333	15.96
210.719	22.17
211.105	52.02
211.491	19.95
211.876	-17.93
212.262	44.43
212.648	48.51
213.034	39.96
213.419	28.9
213.805	15.89
214.19	2.64
214.576	6.76
214.961	25.55
215.346	17.9
215.732	36.23
216.117	-9.99
216.502	30.23
216.888	15.94
217.273	-5.01
217.658	6.97
218.043	15.95
218.428	40.53
218.813	26.09
219.198	2.92
219.583	-1.39
219.968	-7.02
220.353	30.8
220.738	16.92
221.122	13.22
221.507	6.38
221.892	-5.06
222.276	14.89
222.661	13.48
223.046	15.96
223.43	9.9
223.815	16.1
224.199	20.93
224.583	0.01
224.968	6.21
225.352	7.9
225.736	2.79
226.121	12.75
226.505	4.32
226.889	10.55
227.273	7.8
227.657	10.97
228.041	8.01
228.425	4.06
228.809	3.44
229.193	4.01
229.577	5.52
229.961	4.34
230.344	3.08
230.728	3.42
231.112	4.32
231.495	3.66
231.879	4.72
232.263	3.97
232.646	3.7
233.03	1.79
233.413	3.38
233.797	3.44
234.18	5.51
234.563	6.91
234.946	6.23
235.33	6.55
235.713	3.66
236.096	6.37
236.479	4.39
236.862	4.25
237.245	2.54
237.628	4.74
238.011	5.06
238.394	3.98
238.777	4.73
239.16	3.9
239.543	5.16
239.925	6.21
240.308	4.37
240.691	3.2
241.073	6.34
241.456	4.4
241.838	4.19
242.221	4.85
242.603	3.56
242.986	3.09
243.368	4.3
243.75	3.57
244.133	3.69
244.515	3.33
244.897	3.39
245.279	3.73
245.661	3.24
246.043	3.21
246.425	3.57
246.807	4.37
247.189	3.7
247.571	3.7
247.953	3.64
248.335	4.03
248.717	3.07
249.098	3.16
249.48	3.27
249.862	3.4
250.243	4.05
250.625	3.34
251.006	4.07
251.388	4.07
251.769	3.78
252.151	4.02
252.532	5.09
252.913	4.29
253.295	3.87
253.676	3.81
254.057	3.35
254.438	3.46
254.819	3.88
255.2	4.2
255.581	3.48
255.962	3.27
256.343	4.36
256.724	3.77
257.105	2.25
257.486	4.98
257.867	4
258.247	4.66
258.628	3.9
259.009	3.61
259.389	3.49
259.77	3.4
260.15	4.12
260.531	3.31
260.911	3.96
261.292	3.33
261.672	3.42
262.052	3.52
262.432	3.49
262.813	3.35
263.193	3.39
263.573	3.8
263.953	4.56
264.333	3.58
264.713	3.57
265.093	3.79
265.473	4.28
265.853	3.66
266.233	3.84
266.612	3.68
266.992	3.47
267.372	3.41
267.752	3.62
268.131	3.5
268.511	3.38
268.89	3.4
269.27	3.15
269.649	3.31
270.029	2.85
270.408	3.61
270.787	3.59
271.167	3.59
271.546	3.04
271.925	4.2
272.304	3.48
272.683	3.49
273.062	3.75
273.441	3.79
273.82	3.74
274.199	3.53
274.578	3.47
274.957	3.71
275.336	3.82
275.715	4
276.093	3.1
276.472	3.84
276.851	3.42
277.229	3.91
277.608	2.79
277.986	2.91
278.365	4.48
278.743	3.31
279.122	3.48
279.5	3.36
279.878	3.42
280.257	3.4
280.635	3.55
281.013	3.6
281.391	3.6
281.769	3.92
282.147	2.9
282.525	4.17
282.903	3.44
283.281	3.93
283.659	3.44
284.037	3.4
284.415	2.94
284.792	3.04
285.17	3.5
285.548	3.41
285.925	3.39
286.303	3.24
286.68	3.12
287.058	3.64
287.435	3.61
287.813	2.99
288.19	3.41
288.567	3.19
288.945	3.61
289.322	3.87
289.699	2.99
290.076	4.24
290.453	2.87
290.83	3.48
291.207	4.02
291.584	3.36
291.961	3.28
292.338	3.19
292.715	3.46
293.092	3.32
293.469	3.84
293.845	3.37
294.222	3.64
294.599	3.69
294.975	4.51
295.352	3.61
295.728	4.04
296.105	3.88
296.481	4.08
296.858	3.54
297.234	4.25
297.61	3.58
297.986	3.83
298.363	3.9
298.739	3.77
299.115	3.75
299.491	3.89
299.867	3.95
300.243	3.82
300.619	4.03
300.995	3.95
301.371	4
301.746	4.12
302.122	4.36
302.498	4.14
302.874	4.23
303.249	3.98
303.625	4.33
304	4.6
304.376	3.61
304.751	3.46
305.127	3.78
305.502	4.48
305.878	4.56
306.253	4.47
306.628	4.19
307.003	4.54
307.378	4.34
307.754	4.2
308.129	4.69
308.504	3.88
308.879	4.47
309.254	4.3
309.629	4.15
310.003	3.81
310.378	4.33
310.753	4.36
311.128	4.42
311.502	4.8
311.877	4.48
312.252	4.02
312.626	4.43
313.001	4.06
313.375	4.33
313.75	4.4
314.124	4.13
314.498	4.32
314.873	3.82
315.247	4.49
315.621	4.53
315.995	4.9
316.369	4.3
316.743	4.22
317.117	4.81
317.491	4.14
317.865	4.54
318.239	5.25
318.613	4.64
318.987	4.46
319.361	3.55
319.734	4.12
320.108	4.43
320.482	4.94
320.855	4.84
321.229	4.86
321.602	4.92
321.976	5.07
322.349	4.81
322.723	4.61
323.096	4.5
323.469	4.8
323.843	4.69
324.216	4.75
324.589	4.92
324.962	5.46
325.335	4.96
325.708	4.44
326.081	5.08
326.454	4.91
326.827	4.61
327.2	4.97
327.573	5.09
327.945	4.75
328.318	4.35
328.691	5.01
329.063	4.84
329.436	4.33
329.809	4.75
330.181	5.09
330.553	4.71
330.926	4.86
331.298	4.66
331.671	4.28
332.043	4.65
332.415	4.77
332.787	4.87
333.159	4.85
333.532	4.93
333.904	4.59
334.276	4.72
334.648	4.86
335.02	4.99
335.391	4.5
335.763	5.19
336.135	4.87
336.507	5.18
336.879	4.49
337.25	4.88
337.622	4.7
337.993	4.97
338.365	5.1
338.736	5.1
339.108	4.58
339.479	4.74
339.851	4.89
340.222	4.99
340.593	4.89
340.964	4.72
341.336	5.15
341.707	5.15
342.078	5.25
342.449	4.75
342.82	4.74
343.191	4.86
343.562	4.93
343.933	5.09
344.303	4.96
344.674	5.37
345.045	5.06
345.416	5.43
345.786	4.87
346.157	5.21
346.527	4.98
346.898	4.64
347.268	5.05
347.639	5.25
348.009	4.83
348.38	5.45
348.75	4.97
349.12	4.93
349.49	4.91
349.861	5.43
350.231	4.87
350.601	5.03
350.971	5.37
351.341	5.01
351.711	5.23
352.081	5.16
352.45	4.99
352.82	5.34
353.19	5.48
353.56	5.48
353.929	4.99
354.299	4.9
354.669	5.1
355.038	5
355.408	5
355.777	5.08
356.147	5.1
356.516	4.92
356.885	4.82
357.254	5.27
357.624	5.41
357.993	4.92
358.362	5.03
358.731	4.61
359.1	4.39
359.469	4.66
359.838	4.91
360.207	5.22
360.576	5.45
360.945	4.95
361.314	4.86
361.682	5.05
362.051	5.16
362.42	5
362.788	5.33
363.157	5
363.525	4.77
363.894	4.92
364.262	5.01
364.631	4.99
364.999	5.12
365.367	5.32
365.735	4.89
366.104	4.83
366.472	5.36
366.84	5.14
367.208	5.37
367.576	5.05
367.944	5.2
368.312	5.1
368.68	5.19
369.048	5.21
369.416	5.45
369.783	5.36
370.151	5.06
370.519	5.06
370.886	5.64
371.254	5.49
371.621	5.56
371.989	4.87
372.356	5.35
372.724	5.24
373.091	5.01
373.458	4.9
373.826	5.1
374.193	5.11
374.56	5.15
374.927	5.24
375.294	5.37
375.661	5.26
376.028	5.43
376.395	5.63
376.762	5.34
377.129	5.34
377.496	5.34
377.863	5.65
378.229	5.57
378.596	5.38
378.963	5.52
379.329	5.44
379.696	5.3
380.062	5.24
380.429	5.29
380.795	5.1
381.161	5.21
381.528	5.55
381.894	5.27
382.26	5.28
382.626	5.33
382.993	5.33
383.359	5.45
383.725	5.56
384.091	5.75
384.457	5.55
384.823	5.36
385.188	5.52
385.554	5.17
385.92	5.28
386.286	5.6
386.651	5.17
387.017	5.52
387.383	5.29
387.748	5.3
388.114	5.23
388.479	5.36
388.845	5.49
389.21	5.36
389.575	5.17
389.94	5.23
390.306	5.33
390.671	5.17
391.036	5.37
391.401	5.53
391.766	5.74
392.131	5.26
392.496	5.61
392.861	5.41
393.226	5.44
393.591	5.35
393.956	5.43
394.32	5.63
394.685	5.49
395.05	5.69
395.414	5.61
395.779	5.35
396.143	5.55
396.508	5.53
396.872	5.43
397.236	5.27
397.601	5.48
397.965	5.36
398.329	5.43
398.694	5.76
399.058	5.37
399.422	5.36
399.786	5.53
400.15	5.6
400.514	5.54
400.878	5.83
401.242	5.69
401.605	5.71
401.969	5.45
402.333	5.37
402.697	5.63
403.06	5.23
403.424	5.68
403.787	5.48
404.151	5.56
404.514	5.59
404.878	5.68
405.241	5.62
405.604	5.32
405.968	5.81
406.331	5.63
406.694	5.47
407.057	5.61
407.42	5.74
407.783	5.64
408.146	5.64
408.509	5.46
408.872	5.99
409.235	5.69
409.598	5.78
409.961	5.51
410.323	5.78
410.686	5.46
411.049	5.64
411.411	5.66
411.774	5.85
412.136	5.63
412.499	5.68
412.861	5.5
413.223	5.69
413.586	5.51
413.948	5.63
414.31	6.02
414.672	5.66
415.035	5.7
415.397	5.79
415.759	5.76
416.121	5.71
416.483	5.77
416.845	5.8
417.206	5.92
417.568	5.79
417.93	5.83
418.292	5.47
418.653	5.79
419.015	5.76
419.377	5.66
419.738	5.6
420.1	5.45
420.461	5.5
420.822	5.48
421.184	5.68
421.545	5.65
421.906	5.62
422.267	5.63
422.629	5.66
422.99	5.38
423.351	5.55
423.712	5.58
424.073	5.63
424.434	5.51
424.795	5.68
425.155	5.59
425.516	5.53
425.877	5.58
426.238	5.45
426.598	5.55
426.959	5.58
427.32	5.53
427.68	5.63
428.041	5.68
428.401	5.64
428.761	5.9
429.122	5.66
429.482	5.8
429.842	5.58
430.202	5.94
430.563	5.9
430.923	5.84
431.283	5.9
431.643	5.99
432.003	5.99
432.363	5.89
432.722	5.91
433.082	5.86
433.442	5.64
433.802	6.02
434.161	5.68
434.521	5.86
434.881	5.81
435.24	5.81
435.6	5.68
435.959	5.78
436.319	5.96
436.678	5.83
437.037	5.82
437.396	5.97
437.756	5.87
438.115	5.66
438.474	5.99
438.833	5.99
439.192	5.76
439.551	5.9
439.91	6.02
440.269	6
440.628	5.94
440.987	5.92
441.345	5.66
441.704	5.99
442.063	5.83
442.421	5.79
442.78	5.83
443.138	5.94
443.497	5.85
443.855	5.96
444.214	5.93
444.572	5.9
444.93	6.02
445.288	6.02
445.647	6.07
446.005	5.78
446.363	5.89
446.721	5.94
447.079	6.07
447.437	5.86
447.795	5.78
448.153	5.85
448.51	5.83
448.868	5.92
449.226	5.86
449.584	5.88
449.941	5.87
450.299	5.91
450.656	5.86
451.014	5.93
451.371	6.06
451.729	5.92
452.086	5.99
452.443	6.17
452.801	6.06
453.158	6.18
453.515	6.14
453.872	6.08
454.229	6.26
454.586	6.15
454.943	5.95
455.3	5.97
455.657	6.15
456.014	6.03
456.371	6.25
456.727	6.13
457.084	6.15
457.441	6.14
457.797	6.04
458.154	6.1
458.51	6.24
458.867	6.12
459.223	5.96
459.58	6.18
459.936	6.22
460.292	6.17
460.648	6.07
461.005	5.91
461.361	6.06
461.717	5.94
462.073	6.14
462.429	5.92
462.785	6.04
463.141	6.22
463.496	6.09
463.852	6.16
464.208	6.35
464.564	6.3
464.919	6.24
465.275	6.34
465.631	6.19
465.986	6.16
466.342	6.36
466.697	6.25
467.052	6.11
467.408	6.28
467.763	6.29
468.118	6.39
468.473	6.35
468.829	6.34
469.184	6.27
469.539	6.17
469.894	6.44
470.249	6.36
470.603	6.22
470.958	6.58
471.313	6.39
471.668	6.49
472.023	6.4
472.377	6.44
472.732	6.31
473.086	6.48
473.441	6.62
473.795	6.61
474.15	6.49
474.504	6.35
474.859	6.33
475.213	6.49
475.567	6.51
475.921	6.46
476.275	6.44
476.63	6.46
476.984	6.66
477.338	6.46
477.692	6.5
478.045	6.56
478.399	6.37
478.753	6.64
479.107	6.52
479.461	6.36
479.814	6.65
480.168	6.49
480.521	6.52
480.875	6.5
481.228	6.54
481.582	6.63
481.935	6.47
482.289	6.51
482.642	6.42
482.995	6.55
483.348	6.49
483.701	6.45
484.055	6.52
484.408	6.4
484.761	6.37
485.114	6.23
485.466	6.21
485.819	6.09
486.172	5.99
486.525	6.03
486.878	6.1
487.23	6.18
487.583	6.23
487.936	6.32
488.288	6.37
488.641	6.42
488.993	6.25
489.345	6.22
489.698	6.19
490.05	6.21
490.402	6.24
490.754	6.3
491.107	6.33
491.459	6.41
491.811	6.46
492.163	6.45
492.515	6.47
492.866	6.54
493.218	6.34
493.57	6.32
493.922	6.35
494.274	6.35
494.625	6.37
494.977	6.41
495.328	6.64
495.68	6.64
496.031	6.57
496.383	6.67
496.734	6.75
497.086	6.78
497.437	6.87
497.788	6.71
498.139	6.83
498.49	6.7
498.842	6.64
499.193	6.68
499.544	6.75
499.894	6.77
500.245	6.62
500.596	6.73
500.947	6.81
501.298	6.8
501.648	6.79
501.999	6.82
502.35	6.87
502.7	6.82
503.051	6.99
503.401	6.95
503.752	6.97
504.102	6.92
504.452	6.97
504.803	7.03
505.153	7.01
505.503	6.93
505.853	7.12
506.203	6.94
506.553	6.82
506.903	7.01
507.253	6.9
507.603	7
507.953	6.91
508.303	6.94
508.652	7.03
509.002	7.04
509.352	7.04
509.701	7.02
510.051	6.89
510.4	6.91
510.75	6.86
511.099	6.95
511.449	7.11
511.798	7.15
512.147	7
512.496	7.09
512.846	7.01
513.195	7.11
513.544	7.12
513.893	7.02
514.242	7.03
514.591	7.11
514.939	7.08
515.288	7.09
515.637	7.08
515.986	7.19
516.334	7.1
516.683	7.18
517.032	7.1
517.38	7.21
517.729	7.26
518.077	7.32
518.426	7.35
518.774	7.15
519.122	7.23
519.47	7.16
519.819	7.14
520.167	7.15
520.515	7.19
520.863	7.09
521.211	7.11
521.559	7.21
521.907	7.18
522.255	7.21
522.602	7.38
522.95	7.25
523.298	7.37
523.645	7.39
523.993	7.44
524.341	7.4
524.688	7.45
525.036	7.45
525.383	7.36
525.73	7.51
526.078	7.45
526.425	7.48
526.772	7.33
527.119	7.42
527.466	7.42
527.814	7.36
528.161	7.34
528.508	7.35
528.854	7.35
529.201	7.39
529.548	7.37
529.895	7.3
530.242	7.2
530.588	7.12
530.935	7.12
531.282	7.21
531.628	7.23
531.975	7.22
532.321	7.38
532.667	7.4
533.014	7.49
533.36	7.53
533.706	7.59
534.052	7.62
534.399	7.51
534.745	7.39
535.091	7.48
535.437	7.48
535.783	7.39
536.129	7.56
536.474	7.59
536.82	7.59
537.166	7.57
537.512	7.76
537.857	7.88
538.203	7.71
538.549	7.81
538.894	7.67
539.239	7.68
539.585	7.65
539.93	7.82
540.276	7.89
540.621	7.92
540.966	8.04
541.311	7.97
541.656	8.02
542.001	8.13
542.346	8.01
542.691	7.83
543.036	7.79
543.381	7.71
543.726	7.64
544.071	7.69
544.415	7.76
544.76	7.8
545.105	7.83
545.449	7.91
545.794	8.03
546.138	7.97
546.483	8.03
546.827	8.08
547.171	8.15
547.516	8.03
547.86	8.23
548.204	8.11
548.548	8.13
548.892	8.21
549.236	8.26
549.58	8.14
549.924	8.18
550.268	8.31
550.612	8.32
550.956	8.52
551.3	8.39
551.643	8.52
551.987	8.71
552.33	8.4
552.674	8.64
553.017	8.57
553.361	8.54
553.704	8.84
554.048	8.67
554.391	8.75
554.734	8.72
555.077	8.63
555.42	8.42
555.764	8.69
556.107	8.79
556.45	8.73
556.793	8.74
557.135	8.72
557.478	8.8
557.821	9.02
558.164	8.99
558.507	8.95
558.849	9.05
559.192	8.97
559.534	9.09
559.877	8.89
560.219	9.05
560.562	8.95
560.904	8.81
561.246	9.09
561.589	8.9
561.931	9.06
562.273	9.28
562.615	9.23
562.957	9.3
563.299	9.07
563.641	9.31
563.983	9.12
564.325	9.24
564.667	9.2
565.008	9.02
565.35	9.27
565.692	9.34
566.033	9.38
566.375	9.25
566.716	9.42
567.058	9.35
567.399	9.43
567.741	9.23
568.082	9.45
568.423	9.3
568.764	9.14
569.105	9.55
569.447	9.44
569.788	9.39
570.129	9.64
570.47	9.46
570.811	9.47
571.151	9.5
571.492	9.72
571.833	9.66
572.174	9.78
572.514	9.72
572.855	9.73
573.195	9.56
573.536	9.44
573.876	9.7
574.217	9.56
574.557	9.78
574.898	9.61
575.238	9.69
575.578	9.97
575.918	9.59
576.258	9.78
576.598	9.98
576.938	9.96
577.278	9.99
577.618	9.73
577.958	9.77
578.298	9.97
578.638	10.1
578.977	10.3
579.317	10.07
579.657	10.1
579.996	10.29
580.336	10.21
580.675	9.98
581.014	10.11
581.354	10.32
581.693	10.42
582.032	10.34
582.372	10.37
582.711	10.55
583.05	10.53
583.389	10.55
583.728	10.41
584.067	10.51
584.406	10.42
584.745	10.76
585.083	10.53
585.422	10.51
585.761	10.43
586.1	10.59
586.438	10.48
586.777	10.72
587.115	10.89
587.454	10.9
587.792	10.86
588.13	10.66
588.469	11.02
588.807	10.49
589.145	11.04
589.483	10.86
589.821	10.74
590.159	11.09
590.497	11.05
590.835	11.06
591.173	10.84
591.511	11.23
591.849	10.97
592.187	10.93
592.524	10.88
592.862	10.98
593.2	11.24
593.537	11.11
593.875	11.06
594.212	11.29
594.55	11.48
594.887	11.23
595.224	11.1
595.561	11.27
595.899	11
596.236	11.32
596.573	11.53
596.91	11.5
597.247	11.5
597.584	11.26
597.921	11.32
598.258	11.73
598.594	11.52
598.931	11.39
599.268	11.14
599.604	11.34
599.941	11.45
600.277	11.62
600.614	11.45
600.95	11.62
601.287	11.5
601.623	12.05
601.959	11.8
602.296	11.74
602.632	11.82
602.968	11.71
603.304	12.03
603.64	11.78
603.976	11.8
604.312	12.14
604.648	11.88
604.984	12.19
605.319	11.91
605.655	11.99
605.991	11.99
606.326	11.99
606.662	11.8
606.998	11.83
607.333	11.88
607.668	11.93
608.004	12.05
608.339	12.07
608.674	12.09
609.01	12.29
609.345	12.59
609.68	12.71
610.015	12.31
610.35	12.42
610.685	12.53
611.02	12.34
611.355	12.36
611.689	12.43
612.024	12.54
612.359	12.43
612.694	12.48
613.028	12.69
613.363	12.58
613.697	12.6
614.032	12.71
614.366	12.77
614.7	12.75
615.035	12.83
615.369	12.65
615.703	12.47
616.037	13.05
616.371	13.02
616.705	12.99
617.039	12.85
617.373	13.08
617.707	13.07
618.041	12.94
618.375	12.73
618.709	12.84
619.042	12.94
619.376	13.66
619.71	13.36
620.043	13.12
620.377	12.86
620.71	13.63
621.043	13.43
621.377	13.23
621.71	13.41
622.043	13.07
622.376	13.81
622.709	13.53
623.043	13.44
623.376	13.45
623.709	13.46
624.041	13.59
624.374	13.58
624.707	13.41
625.04	13.97
625.373	14.12
625.705	13.95
626.038	14.33
626.37	13.28
626.703	13.76
627.035	13.18
627.368	13.63
627.7	14
628.032	14.1
628.365	13.83
628.697	14
629.029	14.07
629.361	13.94
629.693	13.97
630.025	14.16
630.357	14.12
630.689	13.8
631.021	14.3
631.353	14.23
631.684	14.1
632.016	14.43
632.348	14.16
632.679	13.92
633.011	14.06
633.342	13.96
633.674	14.42
634.005	14.55
634.336	14.88
634.668	14.29
634.999	14.21
635.33	13.94
635.661	15.03
635.992	14.63
636.323	14.64
636.654	14.75
636.985	14.46
637.316	14.68
637.647	14.48
637.977	14.6
638.308	14.58
638.639	14.81
638.969	14.72
639.3	14.34
639.63	14.76
639.961	14.58
640.291	14.71
640.622	14.71
640.952	14.91
641.282	14.94
641.612	15.19
641.943	15.2
642.273	15.16
642.603	15.68
642.933	15.08
643.263	15.44
643.592	15.25
643.922	15.62
644.252	14.87
644.582	15.28
644.911	15.4
645.241	15.46
645.571	16.05
645.9	15.5
646.23	15.55
646.559	15.59
646.888	15.78
647.218	15.42
647.547	15.37
647.876	16.07
648.205	16.01
648.534	15.38
648.863	15.8
649.192	15.4
649.521	15.96
649.85	15.39
650.179	15.42
650.508	15.62
650.837	16.06
651.165	16.18
651.494	15.37
651.822	16.11
652.151	16.08
652.479	15.91
652.808	15.68
653.136	15.91
653.465	16.01
653.793	16.32
654.121	16.58
654.449	16.32
654.777	16.48
655.105	15.88
655.433	16.98
655.761	16.7
656.089	16.83
656.417	16.59
656.745	16.19
657.073	16.85
657.4	17.18
657.728	16.54
658.056	16.77
658.383	16.96
658.711	16.2
659.038	16.77
659.365	16.88
659.693	16.84
660.02	17.14
660.347	16.94
660.674	16.65
661.001	16.51
661.329	16.59
661.656	16.79
661.982	16.95
662.309	17.06
662.636	16.73
662.963	16.81
663.29	17.1
663.616	17.3
663.943	16.88
664.27	17.45
664.596	17.04
664.923	16.79
665.249	17.15
665.576	16.72
665.902	17.04
666.228	17.27
666.554	16.85
666.881	17.07
667.207	17.3
667.533	17.28
667.859	17.26
668.185	17.2
668.511	18.07
668.837	17.25
669.162	17.97
669.488	17.3
669.814	17.38
670.139	17.46
670.465	17.44
670.791	17.59
671.116	17.65
671.442	18.04
671.767	18.32
672.092	17.9
672.418	17.64
672.743	17.94
673.068	17.72
673.393	18.02
673.718	18.11
674.043	18.31
674.368	17.81
674.693	18.38
675.018	18.13
675.343	18.41
675.667	18.25
675.992	18.24
676.317	18.03
676.641	18.36
676.966	18.04
677.29	18.2
677.615	18.6
677.939	18.11
678.264	18
678.588	17.75
678.912	18.75
679.236	18.11
679.56	18.19
679.885	19.05
680.209	17.97
680.532	18.63
680.856	18.33
681.18	18.64
681.504	18.53
681.828	18.91
682.152	18.3
682.475	18.28
682.799	18.7
683.122	18.75
683.446	18.9
683.769	18.87
684.093	18.89
684.416	18.03
684.739	18.73
685.062	18.32
685.386	18.85
685.709	18.86
686.032	18.67
