Data from 0153_crown_Reflection__1__42.txt Node

Date: Fri Sep 22 20:40:43 CDT 2023
User: ToomeyLab
Spectrometer: FLMS14357
Trigger mode: 0
Integration Time (sec): 1.000000E-2
Scans to average: 100
Electric dark correction enabled: true
Nonlinearity correction enabled: false
Boxcar width: 0
XAxis mode: Wavelengths
Number of Pixels in Spectrum: 2048
>>>>>Begin Spectral Data<<<<<
189.047	-5.91
189.435	-5.91
189.823	-5.91
190.211	166.73
190.599	309.97
190.987	674.29
191.375	-22.94
191.763	75.51
192.151	121.1
192.538	183.27
192.926	345.12
193.314	-3.47
193.702	221.7
194.089	184.95
194.477	-50.36
194.864	17.87
195.252	82.07
195.639	159.73
196.027	-215.07
196.414	167.72
196.801	-44.1
197.189	5.54
197.576	99.83
197.963	78.85
198.351	15.09
198.738	-19.63
199.125	-20.8
199.512	9.94
199.899	46.79
200.286	14.35
200.673	16.15
201.06	1.76
201.447	37.47
201.833	-17.23
202.22	50.1
202.607	24.65
202.994	35.95
203.38	34.82
203.767	13.96
204.154	24.19
204.54	-8.77
204.927	47.14
205.313	11.76
205.699	44.15
206.086	44.79
206.472	48.68
206.858	15.56
207.245	-11.68
207.631	13.79
208.017	22.33
208.403	21.18
208.789	2.93
209.175	47.99
209.561	35.28
209.947	32.92
210.333	16.78
210.719	-2.42
211.105	35.15
211.491	2.33
211.876	2.23
212.262	26.91
212.648	6.99
213.034	15.07
213.419	13.3
213.805	10.78
214.19	-8.16
214.576	10.65
214.961	8.33
215.346	-8.64
215.732	8.42
216.117	6.44
216.502	30.46
216.888	21.9
217.273	22.46
217.658	8.53
218.043	6.02
218.428	25.44
218.813	-11.39
219.198	19.21
219.583	16.16
219.968	23.57
220.353	37.91
220.738	17.53
221.122	5.6
221.507	16.08
221.892	-4.45
222.276	10.37
222.661	-11.85
223.046	31.05
223.43	25.43
223.815	12.22
224.199	-1.09
224.583	12.32
224.968	10.24
225.352	-2.03
225.736	12.59
226.121	4.57
226.505	10.7
226.889	10.98
227.273	10.47
227.657	3.03
228.041	6.23
228.425	10.71
228.809	8.39
229.193	4.48
229.577	9.8
229.961	9.87
230.344	8.63
230.728	6.24
231.112	7.17
231.495	6.91
231.879	7.53
232.263	6.32
232.646	6.66
233.03	5.51
233.413	7.65
233.797	6.08
234.18	7.54
234.563	7.41
234.946	6.25
235.33	6.53
235.713	4.42
236.096	5.86
236.479	5.14
236.862	8.86
237.245	8.09
237.628	8.06
238.011	7.15
238.394	8.07
238.777	9.18
239.16	6.99
239.543	7.65
239.925	5.67
240.308	7.24
240.691	5.86
241.073	6.94
241.456	7.52
241.838	6.53
242.221	6.27
242.603	6.76
242.986	6.86
243.368	6.52
243.75	6.9
244.133	7.39
244.515	6.2
244.897	6.33
245.279	6.45
245.661	6.44
246.043	7.09
246.425	6.13
246.807	6.94
247.189	6.05
247.571	6.3
247.953	7.08
248.335	6.52
248.717	6.72
249.098	6.39
249.48	6.11
249.862	6.12
250.243	6.23
250.625	6.21
251.006	5.95
251.388	5.69
251.769	6.04
252.151	5.61
252.532	6.44
252.913	4.87
253.295	7.25
253.676	5.58
254.057	5.78
254.438	6.17
254.819	5.94
255.2	6.12
255.581	6.29
255.962	6.34
256.343	6.79
256.724	4.86
257.105	5.68
257.486	6.54
257.867	5.91
258.247	5.77
258.628	5.8
259.009	5.98
259.389	6.06
259.77	6.68
260.15	6.64
260.531	5.8
260.911	5.8
261.292	5.73
261.672	5.39
262.052	5.65
262.432	5.7
262.813	5.87
263.193	5.73
263.573	6.18
263.953	5.35
264.333	5.79
264.713	5.71
265.093	5.37
265.473	5.78
265.853	5.19
266.233	6.2
266.612	5.42
266.992	6.18
267.372	5.35
267.752	6.29
268.131	5.68
268.511	5.19
268.89	5.89
269.27	5.26
269.649	5.49
270.029	5.67
270.408	5.75
270.787	5.49
271.167	5.74
271.546	5.47
271.925	5.38
272.304	4.77
272.683	5.63
273.062	5.95
273.441	5.48
273.82	5.97
274.199	5.44
274.578	5.6
274.957	5.62
275.336	5.19
275.715	5.54
276.093	5.02
276.472	5.07
276.851	5.43
277.229	4.96
277.608	5.88
277.986	5.2
278.365	5.37
278.743	5.17
279.122	5.24
279.5	5.61
279.878	5.13
280.257	5.82
280.635	5.03
281.013	6.35
281.391	4.92
281.769	4.59
282.147	5.12
282.525	5.53
282.903	5.79
283.281	5.24
283.659	5.25
284.037	5.03
284.415	5.07
284.792	4.96
285.17	5.26
285.548	5.75
285.925	5.1
286.303	4.79
286.68	4.39
287.058	4.58
287.435	5.01
287.813	5.15
288.19	4.5
288.567	5.23
288.945	4.84
289.322	5.09
289.699	5
290.076	5.37
290.453	4.51
290.83	4.78
291.207	4.9
291.584	4.56
291.961	4.83
292.338	5.12
292.715	5.13
293.092	4.72
293.469	4.78
293.845	4.6
294.222	4.87
294.599	4.71
294.975	5.47
295.352	4.7
295.728	4.63
296.105	4.58
296.481	5.02
296.858	4.49
297.234	4.76
297.61	4.81
297.986	4.73
298.363	4.66
298.739	4.7
299.115	4.53
299.491	4.49
299.867	4.35
300.243	4.48
300.619	4.73
300.995	4.32
301.371	4.51
301.746	4.72
302.122	4.31
302.498	4.5
302.874	4.11
303.249	4.6
303.625	4.19
304	4.56
304.376	4.55
304.751	4.72
305.127	4.43
305.502	4.36
305.878	4.23
306.253	4.95
306.628	4.45
307.003	4.26
307.378	4.44
307.754	4.86
308.129	4.27
308.504	4.59
308.879	4.79
309.254	4.29
309.629	4.44
310.003	4.45
310.378	4.29
310.753	4.45
311.128	4.32
311.502	4.25
311.877	3.68
312.252	4.16
312.626	4.47
313.001	4.26
313.375	4.25
313.75	4.5
314.124	4.47
314.498	4.29
314.873	4.23
315.247	4.08
315.621	3.97
315.995	4.1
316.369	3.77
316.743	3.69
317.117	4.6
317.491	4.39
317.865	4.17
318.239	4.18
318.613	3.87
318.987	3.9
319.361	3.93
319.734	3.9
320.108	3.86
320.482	3.63
320.855	3.91
321.229	4.59
321.602	4.38
321.976	4.02
322.349	4.14
322.723	4.09
323.096	4.33
323.469	3.8
323.843	3.9
324.216	4.36
324.589	3.91
324.962	3.56
325.335	3.62
325.708	3.72
326.081	4.54
326.454	3.56
326.827	4.21
327.2	4.22
327.573	4.16
327.945	3.98
328.318	4.25
328.691	3.98
329.063	4.14
329.436	4.02
329.809	4.18
330.181	3.69
330.553	3.64
330.926	4.21
331.298	4.34
331.671	3.83
332.043	3.04
332.415	3.56
332.787	4.45
333.159	3.86
333.532	3.75
333.904	4.02
334.276	3.85
334.648	3.69
335.02	3.74
335.391	4.11
335.763	4.5
336.135	4.2
336.507	4.08
336.879	4.38
337.25	3.82
337.622	4.01
337.993	4.34
338.365	4.38
338.736	4.09
339.108	4.27
339.479	3.96
339.851	3.49
340.222	3.98
340.593	4.09
340.964	3.72
341.336	3.67
341.707	3.85
342.078	3.89
342.449	4.01
342.82	3.73
343.191	3.19
343.562	3.82
343.933	4.04
344.303	3.73
344.674	4.15
345.045	3.84
345.416	4.11
345.786	3.79
346.157	3.89
346.527	3.76
346.898	3.56
347.268	3.82
347.639	3.69
348.009	4.1
348.38	4.17
348.75	4.3
349.12	3.94
349.49	4.31
349.861	4.29
350.231	3.94
350.601	3.65
350.971	4.37
351.341	3.68
351.711	3.55
352.081	3.69
352.45	4.02
352.82	3.94
353.19	3.93
353.56	4.12
353.929	3.7
354.299	4.01
354.669	4.1
355.038	3.79
355.408	4.11
355.777	4.5
356.147	4
356.516	4.41
356.885	3.78
357.254	4.06
357.624	3.75
357.993	3.86
358.362	3.83
358.731	3.68
359.1	4.08
359.469	3.79
359.838	3.66
360.207	3.87
360.576	4.16
360.945	3.92
361.314	3.98
361.682	4.32
362.051	3.82
362.42	4.03
362.788	3.49
363.157	4.18
363.525	4
363.894	3.88
364.262	3.9
364.631	3.94
364.999	3.84
365.367	4.13
365.735	3.96
366.104	3.85
366.472	4.35
366.84	3.81
367.208	4.02
367.576	3.89
367.944	3.91
368.312	4.09
368.68	3.91
369.048	4.05
369.416	3.95
369.783	3.77
370.151	4.07
370.519	4.08
370.886	4.23
371.254	4.28
371.621	4.04
371.989	4.23
372.356	3.85
372.724	4.3
373.091	4.31
373.458	4
373.826	4.21
374.193	4.11
374.56	4.39
374.927	4.05
375.294	4.28
375.661	4.08
376.028	3.8
376.395	4.51
376.762	4.3
377.129	4.23
377.496	4.57
377.863	4.16
378.229	4.06
378.596	4.03
378.963	4.45
379.329	4.29
379.696	4.41
380.062	4.07
380.429	4.16
380.795	4.03
381.161	4.15
381.528	4.12
381.894	4.1
382.26	4.11
382.626	4.12
382.993	4.35
383.359	3.76
383.725	4.17
384.091	4.39
384.457	4.23
384.823	4.23
385.188	4.6
385.554	4.25
385.92	4.73
386.286	4.56
386.651	4.29
387.017	4.22
387.383	4.16
387.748	4.17
388.114	4.23
388.479	4.44
388.845	4.15
389.21	4.34
389.575	4.58
389.94	4.01
390.306	4.35
390.671	4.56
391.036	4.22
391.401	4.32
391.766	4.25
392.131	4.37
392.496	4.31
392.861	4.32
393.226	4.34
393.591	4.54
393.956	4.36
394.32	4.22
394.685	4.49
395.05	4.57
395.414	4.44
395.779	4.4
396.143	4.29
396.508	4.22
396.872	4.32
397.236	4.34
397.601	4.36
397.965	4.41
398.329	4.46
398.694	4.5
399.058	4.63
399.422	4.44
399.786	4.58
400.15	4.56
400.514	4.31
400.878	4.27
401.242	4.74
401.605	4.41
401.969	4.15
402.333	4.5
402.697	4.41
403.06	4.37
403.424	4.51
403.787	4.36
404.151	4.62
404.514	4.47
404.878	4.67
405.241	4.72
405.604	4.67
405.968	4.5
406.331	4.6
406.694	4.63
407.057	4.35
407.42	4.4
407.783	4.42
408.146	4.6
408.509	4.49
408.872	4.6
409.235	4.62
409.598	4.55
409.961	4.78
410.323	4.72
410.686	4.5
411.049	4.74
411.411	4.63
411.774	4.45
412.136	4.48
412.499	4.69
412.861	4.52
413.223	4.64
413.586	4.31
413.948	4.66
414.31	4.73
414.672	4.65
415.035	4.54
415.397	4.76
415.759	4.86
416.121	4.71
416.483	4.61
416.845	4.61
417.206	4.61
417.568	4.82
417.93	4.53
418.292	4.62
418.653	4.56
419.015	4.64
419.377	4.51
419.738	4.57
420.1	4.57
420.461	4.68
420.822	4.61
421.184	4.66
421.545	4.54
421.906	4.67
422.267	4.53
422.629	4.6
422.99	4.52
423.351	4.49
423.712	4.54
424.073	4.56
424.434	4.58
424.795	4.62
425.155	4.7
425.516	4.58
425.877	4.58
426.238	4.47
426.598	4.51
426.959	4.61
427.32	4.68
427.68	4.57
428.041	4.59
428.401	4.74
428.761	4.82
429.122	4.66
429.482	4.74
429.842	4.68
430.202	4.67
430.563	4.81
430.923	4.94
431.283	4.87
431.643	4.78
432.003	4.84
432.363	4.87
432.722	4.77
433.082	5.13
433.442	4.66
433.802	4.81
434.161	4.72
434.521	4.76
434.881	4.84
435.24	4.67
435.6	4.66
435.959	4.59
436.319	4.75
436.678	4.83
437.037	4.83
437.396	4.73
437.756	4.87
438.115	4.76
438.474	4.77
438.833	4.9
439.192	4.77
439.551	4.8
439.91	4.97
440.269	4.81
440.628	4.69
440.987	4.84
441.345	4.95
441.704	4.91
442.063	4.75
442.421	4.81
442.78	4.63
443.138	4.9
443.497	4.82
443.855	4.82
444.214	4.74
444.572	4.9
444.93	4.9
445.288	4.71
445.647	4.96
446.005	4.79
446.363	4.83
446.721	4.96
447.079	4.81
447.437	4.76
447.795	4.92
448.153	4.77
448.51	4.91
448.868	4.72
449.226	4.82
449.584	4.81
449.941	4.74
450.299	4.89
450.656	4.96
451.014	4.94
451.371	4.89
451.729	4.82
452.086	4.8
452.443	4.91
452.801	4.92
453.158	4.83
453.515	4.93
453.872	5.01
454.229	5
454.586	4.81
454.943	4.92
455.3	4.85
455.657	4.95
456.014	5
456.371	5.18
456.727	5.21
457.084	4.98
457.441	4.98
457.797	4.98
458.154	4.88
458.51	4.99
458.867	4.97
459.223	5.14
459.58	5.11
459.936	4.91
460.292	5.02
460.648	5.07
461.005	4.98
461.361	5.07
461.717	4.89
462.073	4.93
462.429	4.82
462.785	4.97
463.141	5.02
463.496	5.06
463.852	5.12
464.208	5.05
464.564	5.04
464.919	4.97
465.275	5.07
465.631	5.27
465.986	5.1
466.342	5.1
466.697	5.18
467.052	5.13
467.408	5.11
467.763	5.1
468.118	5.14
468.473	5
468.829	4.89
469.184	5.16
469.539	5
469.894	5.06
470.249	5.15
470.603	5.07
470.958	5.03
471.313	5.34
471.668	5.24
472.023	5.23
472.377	5.19
472.732	5.14
473.086	5.41
473.441	5
473.795	5.23
474.15	4.9
474.504	5.04
474.859	5.25
475.213	5.02
475.567	4.93
475.921	5.18
476.275	5.16
476.63	5.17
476.984	5.27
477.338	5.33
477.692	5.21
478.045	5.18
478.399	5.23
478.753	5.11
479.107	5.08
479.461	5.22
479.814	5.25
480.168	5.27
480.521	5.31
480.875	5.24
481.228	5.18
481.582	4.97
481.935	5.07
482.289	5.11
482.642	5.17
482.995	5.16
483.348	5.19
483.701	5.19
484.055	5.08
484.408	5.05
484.761	5.01
485.114	4.98
485.466	4.98
485.819	4.82
486.172	4.83
486.525	4.87
486.878	4.93
487.23	4.94
487.583	5
487.936	5.03
488.288	5.12
488.641	5.05
488.993	4.96
489.345	4.99
489.698	4.94
490.05	4.95
490.402	4.96
490.754	4.93
491.107	4.96
491.459	5.1
491.811	5.09
492.163	5.14
492.515	5.11
492.866	5.13
493.218	5.16
493.57	5.01
493.922	4.96
494.274	4.95
494.625	5.06
494.977	5.08
495.328	5.22
495.68	5.2
496.031	5.15
496.383	5.22
496.734	5.17
497.086	5.17
497.437	5.25
497.788	5.29
498.139	5.26
498.49	5.29
498.842	5.15
499.193	5.08
499.544	5.21
499.894	5.11
500.245	5.23
500.596	5.3
500.947	5.29
501.298	5.23
501.648	5.26
501.999	5.25
502.35	5.28
502.7	5.33
503.051	5.3
503.401	5.34
503.752	5.33
504.102	5.29
504.452	5.2
504.803	5.29
505.153	5.24
505.503	5.35
505.853	5.28
506.203	5.14
506.553	5.22
506.903	5.38
507.253	5.18
507.603	5.33
507.953	5.37
508.303	5.36
508.652	5.23
509.002	5.39
509.352	5.23
509.701	5.31
510.051	5.28
510.4	5.19
510.75	5.15
511.099	5.19
511.449	5.22
511.798	5.21
512.147	5.3
512.496	5.3
512.846	5.24
513.195	5.28
513.544	5.25
513.893	5.34
514.242	5.25
514.591	5.25
514.939	5.26
515.288	5.13
515.637	5.25
515.986	5.25
516.334	5.24
516.683	5.22
517.032	5.39
517.38	5.3
517.729	5.19
518.077	5.19
518.426	5.21
518.774	5.31
519.122	5.27
519.47	5.16
519.819	5.31
520.167	5.15
520.515	5.2
520.863	5.13
521.211	5.16
521.559	5.19
521.907	5.22
522.255	5.28
522.602	5.24
522.95	5.27
523.298	5.27
523.645	5.34
523.993	5.18
524.341	5.25
524.688	5.2
525.036	5.32
525.383	5.34
525.73	5.23
526.078	5.26
526.425	5.19
526.772	5.25
527.119	5.15
527.466	5.09
527.814	5.09
528.161	5.04
528.508	5.12
528.854	5.19
529.201	5.11
529.548	5.05
529.895	5.03
530.242	5
530.588	4.93
530.935	4.88
531.282	4.89
531.628	4.98
531.975	5.04
532.321	5.09
532.667	5.09
533.014	5.09
533.36	5.12
533.706	5.13
534.052	5.13
534.399	5.15
534.745	5.1
535.091	4.98
535.437	4.98
535.783	4.94
536.129	5.05
536.474	5.08
536.82	5.06
537.166	5.14
537.512	5.11
537.857	5.11
538.203	5.15
538.549	5.02
538.894	4.99
539.239	5.06
539.585	5.05
539.93	5.19
540.276	5.12
540.621	5.13
540.966	5.21
541.311	5.21
541.656	5.13
542.001	5.08
542.346	5.21
542.691	5.15
543.036	5.01
543.381	4.94
543.726	4.95
544.071	4.95
544.415	4.96
544.76	4.92
545.105	4.96
545.449	4.98
545.794	5.1
546.138	5.08
546.483	5.14
546.827	5
547.171	5.07
547.516	5.22
547.86	5.12
548.204	5.13
548.548	5.06
548.892	5.12
549.236	5.06
549.58	5.21
549.924	5.2
550.268	5.22
550.612	5.13
550.956	5.22
551.3	5.19
551.643	5.22
551.987	5.15
552.33	5.28
552.674	5.07
553.017	5.14
553.361	5.1
553.704	5.27
554.048	5.03
554.391	5.06
554.734	5.13
555.077	5.14
555.42	5.06
555.764	5.25
556.107	5.18
556.45	5.18
556.793	5.12
557.135	5.11
557.478	5.02
557.821	5.2
558.164	5.24
558.507	5.16
558.849	5.1
559.192	5.24
559.534	5.32
559.877	5.12
560.219	5.19
560.562	5.19
560.904	5.16
561.246	5.28
561.589	5.2
561.931	5.13
562.273	5.09
562.615	5.13
562.957	5.1
563.299	5.1
563.641	5.17
563.983	5.09
564.325	5.14
564.667	5.02
565.008	5.05
565.35	5.2
565.692	5.13
566.033	5.17
566.375	5.33
566.716	5.01
567.058	5.06
567.399	5.14
567.741	5.23
568.082	5.01
568.423	4.98
568.764	5.31
569.105	4.9
569.447	4.95
569.788	4.92
570.129	5.09
570.47	5.11
570.811	5.11
571.151	5.09
571.492	5.04
571.833	4.82
572.174	5.12
572.514	5.08
572.855	4.93
573.195	5.02
573.536	5.14
573.876	5.01
574.217	4.93
574.557	4.9
574.898	5.11
575.238	4.99
575.578	5.12
575.918	4.96
576.258	4.67
576.598	5.06
576.938	5.02
577.278	4.96
577.618	4.97
577.958	4.94
578.298	5
578.638	4.76
578.977	4.83
579.317	5.12
579.657	5.04
579.996	5.01
580.336	5.07
580.675	5.14
581.014	4.91
581.354	5
581.693	5.09
582.032	4.97
582.372	5.14
582.711	5.13
583.05	5
583.389	4.9
583.728	4.87
584.067	4.93
584.406	5.1
584.745	4.89
585.083	5.17
585.422	5.05
585.761	5
586.1	5.01
586.438	4.9
586.777	4.96
587.115	5.08
587.454	4.95
587.792	5.05
588.13	5.09
588.469	4.94
588.807	5.08
589.145	5.03
589.483	4.8
589.821	4.86
590.159	5.16
590.497	5
590.835	4.86
591.173	4.96
591.511	5.16
591.849	5.09
592.187	4.73
592.524	5.09
592.862	4.89
593.2	4.79
593.537	4.86
593.875	5.24
594.212	4.95
594.55	5.28
594.887	4.74
595.224	5.21
595.561	5.18
595.899	5.11
596.236	5.14
596.573	4.88
596.91	5.01
597.247	4.85
597.584	5.01
597.921	5.01
598.258	4.82
598.594	4.93
598.931	5.03
599.268	4.8
599.604	4.88
599.941	4.98
600.277	4.92
600.614	4.89
600.95	4.88
601.287	4.72
601.623	4.93
601.959	5.03
602.296	4.74
602.632	4.77
602.968	5
603.304	4.85
603.64	4.59
603.976	5.02
604.312	4.89
604.648	5.02
604.984	4.81
605.319	4.74
605.655	4.67
605.991	4.99
606.326	4.99
606.662	4.77
606.998	4.78
607.333	4.76
607.668	4.79
608.004	4.87
608.339	4.66
608.674	4.89
609.01	4.8
609.345	4.88
609.68	5.04
610.015	4.87
610.35	4.92
610.685	4.71
611.02	4.66
611.355	4.88
611.689	4.76
612.024	4.6
612.359	4.67
612.694	4.88
613.028	4.91
613.363	4.83
613.697	4.74
614.032	4.85
614.366	4.61
614.7	4.65
615.035	4.91
615.369	4.81
615.703	4.95
616.037	5.05
616.371	4.87
616.705	4.89
617.039	5
617.373	5.07
617.707	4.56
618.041	4.96
618.375	4.93
618.709	4.68
619.042	4.97
619.376	4.74
619.71	5.03
620.043	4.58
620.377	4.51
620.71	4.56
621.043	4.97
621.377	4.92
621.71	4.79
622.043	4.93
622.376	4.88
622.709	4.87
623.043	4.8
623.376	4.72
623.709	4.93
624.041	4.99
624.374	5.17
624.707	5.02
625.04	4.67
625.373	4.6
625.705	4.6
626.038	4.89
626.37	4.92
626.703	4.67
627.035	5.12
627.368	4.44
627.7	4.86
628.032	4.83
628.365	4.7
628.697	4.99
629.029	4.89
629.361	4.65
629.693	4.67
630.025	4.86
630.357	4.53
630.689	4.81
631.021	4.57
631.353	4.76
631.684	4.77
632.016	4.68
632.348	4.8
632.679	4.73
633.011	4.16
633.342	4.86
633.674	5.03
634.005	4.51
634.336	5.04
634.668	4.89
634.999	4.92
635.33	4.97
635.661	4.89
635.992	4.51
636.323	4.58
636.654	4.54
636.985	4.94
637.316	4.96
637.647	4.71
637.977	4.64
638.308	4.78
638.639	4.47
638.969	4.89
639.3	4.88
639.63	5.19
639.961	4.4
640.291	4.88
640.622	5.02
640.952	4.72
641.282	4.78
641.612	4.52
641.943	4.76
642.273	5.25
642.603	4.99
642.933	4.48
643.263	4.16
643.592	4.14
643.922	5.11
644.252	4.55
644.582	5.16
644.911	5.01
645.241	4.92
645.571	4.28
645.9	4.77
646.23	5.14
646.559	4.73
646.888	4.85
647.218	4.76
647.547	4.24
647.876	4.71
648.205	4.15
648.534	4.79
648.863	4.92
649.192	4.54
649.521	4.64
649.85	4.97
650.179	4.63
650.508	4.52
650.837	5.13
651.165	4.82
651.494	4.87
651.822	4.97
652.151	4.8
652.479	4.82
652.808	4.33
653.136	5.24
653.465	4.58
653.793	4.31
654.121	5.03
654.449	4.33
654.777	4.95
655.105	5.13
655.433	5.21
655.761	5.09
656.089	4.74
656.417	4.45
656.745	4.48
657.073	4.7
657.4	5.35
657.728	4.88
658.056	4.91
658.383	4.89
658.711	5.02
659.038	4.92
659.365	4.52
659.693	4.71
660.02	5.33
660.347	4.87
660.674	4.35
661.001	4.42
661.329	4.62
661.656	4.77
661.982	4.56
662.309	4.86
662.636	4.95
662.963	4.83
663.29	4.57
663.616	4.86
663.943	5.08
664.27	5.1
664.596	4.66
664.923	4.61
665.249	4.62
665.576	4.16
665.902	4.72
666.228	4.67
666.554	4.63
666.881	4.89
667.207	4.14
667.533	4.29
667.859	5.07
668.185	5.21
668.511	5.11
668.837	4.49
669.162	4.8
669.488	4.94
669.814	4.63
670.139	5.04
670.465	5.2
670.791	4.82
671.116	4.76
671.442	5.03
671.767	4.21
672.092	4.9
672.418	5.37
672.743	4.66
673.068	5.11
673.393	4.81
673.718	4.94
674.043	5.11
674.368	5.03
674.693	4.71
675.018	5.1
675.343	4.95
675.667	4.82
675.992	4.95
676.317	4.82
676.641	4.82
676.966	5.29
677.29	4.34
677.615	4.5
677.939	5
678.264	4.91
678.588	5.81
678.912	5.03
679.236	4.81
679.56	5.34
679.885	4.86
680.209	5.55
680.532	4.73
680.856	4.62
681.18	4.74
681.504	5.01
681.828	5.14
682.152	4.76
682.475	5.31
682.799	4.96
683.122	4.6
683.446	4.73
683.769	4.78
684.093	4.91
684.416	5.21
684.739	5.71
685.062	5.72
685.386	5.21
685.709	4.55
686.032	4.54
686.355	4.06
686.678	4.89
687.001	4.8
687.324	5.05
687.646	4.94
687.969	5.26
688.292	4.84
688.614	5.32
688.937	5.19
689.26	4.62
689.582	4.88
689.904	4.59
690.227	4.95
690.549	5.17
690.871	4.69
691.194	5.11
691.516	4.73
691.838	5.36
692.16	4.54
692.482	5.3
692.804	4.59
693.126	4.57
