Data from 0153_chest_Reflection__3__39.txt Node

Date: Fri Sep 22 20:38:47 CDT 2023
User: ToomeyLab
Spectrometer: FLMS14357
Trigger mode: 0
Integration Time (sec): 1.000000E-2
Scans to average: 100
Electric dark correction enabled: true
Nonlinearity correction enabled: false
Boxcar width: 0
XAxis mode: Wavelengths
Number of Pixels in Spectrum: 2048
>>>>>Begin Spectral Data<<<<<
189.047	-76.24
189.435	-76.24
189.823	-76.24
190.211	100.68
190.599	-19.82
190.987	-139.52
191.375	372.44
191.763	59.89
192.151	332.38
192.538	151.27
192.926	124.79
193.314	-27.96
193.702	15.53
194.089	61.99
194.477	74.31
194.864	87.28
195.252	141.76
195.639	131.1
196.027	-152.94
196.414	152.44
196.801	116.6
197.189	-29.2
197.576	127.53
197.963	105.15
198.351	1.61
198.738	61.56
199.125	19.46
199.512	9.2
199.899	30.68
200.286	5.83
200.673	17.22
201.06	27.32
201.447	56.81
201.833	5.91
202.22	25.99
202.607	76.22
202.994	66.23
203.38	42.29
203.767	1.82
204.154	39.38
204.54	-3.16
204.927	41.47
205.313	18.35
205.699	53.14
206.086	15.77
206.472	41.7
206.858	22.41
207.245	-24.64
207.631	42.42
208.017	14.36
208.403	23.53
208.789	44.48
209.175	48.56
209.561	46.53
209.947	19.52
210.333	20.43
210.719	4.2
211.105	82.56
211.491	24.18
211.876	29.75
212.262	5.32
212.648	9.74
213.034	39.51
213.419	-2.28
213.805	4.14
214.19	22.27
214.576	19.85
214.961	22.44
215.346	21.34
215.732	39.44
216.117	11.8
216.502	24.7
216.888	17.63
217.273	14.22
217.658	16.94
218.043	36.5
218.428	20.25
218.813	-3.52
219.198	21.66
219.583	16.76
219.968	10.44
220.353	17.53
220.738	14.46
221.122	11.41
221.507	12.26
221.892	9.98
222.276	9.22
222.661	2.55
223.046	13.27
223.43	24.6
223.815	7.11
224.199	9.45
224.583	2.64
224.968	15.96
225.352	-1.94
225.736	10.28
226.121	11.11
226.505	2.61
226.889	7.83
227.273	6.08
227.657	5.32
228.041	5.88
228.425	6.61
228.809	2.78
229.193	6.22
229.577	5.04
229.961	3.17
230.344	5.47
230.728	3.56
231.112	4.17
231.495	2.77
231.879	3.32
232.263	1.91
232.646	3.88
233.03	2.14
233.413	4.11
233.797	3.52
234.18	2.86
234.563	6.26
234.946	3.01
235.33	3.63
235.713	2.44
236.096	2.26
236.479	2.95
236.862	3.98
237.245	3.46
237.628	3.41
238.011	4.64
238.394	4.37
238.777	4.9
239.16	4.47
239.543	6.46
239.925	3.79
240.308	3.54
240.691	5.16
241.073	5.85
241.456	3.83
241.838	4.92
242.221	3.12
242.603	4.46
242.986	4.61
243.368	4.07
243.75	4.09
244.133	4.77
244.515	3.84
244.897	3.82
245.279	3.85
245.661	3.68
246.043	3.41
246.425	3.73
246.807	4.42
247.189	4.64
247.571	4.55
247.953	4.49
248.335	4.48
248.717	4.2
249.098	4.22
249.48	3.72
249.862	3.79
250.243	3.93
250.625	4.41
251.006	3.53
251.388	4.05
251.769	4.52
252.151	4.41
252.532	4.68
252.913	4.36
253.295	5.32
253.676	4.09
254.057	4.3
254.438	4.15
254.819	4.06
255.2	4.18
255.581	4.26
255.962	4.31
256.343	3.96
256.724	3.45
257.105	4.75
257.486	4.85
257.867	4.4
258.247	4.53
258.628	4.23
259.009	3.96
259.389	4.2
259.77	4.3
260.15	4.81
260.531	4.17
260.911	4.11
261.292	3.42
261.672	4.04
262.052	3.87
262.432	3.8
262.813	3.96
263.193	3.72
263.573	4.25
263.953	3.34
264.333	3.8
264.713	4.18
265.093	3.76
265.473	3.94
265.853	3.56
266.233	4.04
266.612	3.26
266.992	4.05
267.372	4.36
267.752	4
268.131	4.22
268.511	4.27
268.89	3.97
269.27	3.68
269.649	3.96
270.029	3.92
270.408	3.93
270.787	3.53
271.167	3.39
271.546	3.87
271.925	4.5
272.304	3.8
272.683	3.59
273.062	3.93
273.441	3.97
273.82	4.29
274.199	3.25
274.578	3.88
274.957	3.44
275.336	3.24
275.715	3.55
276.093	3.85
276.472	3.63
276.851	4.03
277.229	3.39
277.608	4.57
277.986	3.36
278.365	4.1
278.743	3.39
279.122	3.65
279.5	3.89
279.878	3.57
280.257	4.89
280.635	3.77
281.013	4.36
281.391	2.85
281.769	3.7
282.147	3.51
282.525	3.87
282.903	4.04
283.281	3.86
283.659	3.89
284.037	3.35
284.415	3.66
284.792	3.78
285.17	3.51
285.548	4.13
285.925	3.63
286.303	3.72
286.68	3.36
287.058	3.54
287.435	3.52
287.813	3.78
288.19	3.2
288.567	3.74
288.945	3.65
289.322	3.73
289.699	3.71
290.076	4.01
290.453	3.82
290.83	3.89
291.207	3.74
291.584	4.17
291.961	3.96
292.338	3.96
292.715	4.33
293.092	4.36
293.469	4.45
293.845	4.26
294.222	5.1
294.599	4.8
294.975	4.84
295.352	4.74
295.728	4.62
296.105	4.96
296.481	4.6
296.858	4.87
297.234	4.39
297.61	5.22
297.986	4.89
298.363	5.38
298.739	5.24
299.115	4.98
299.491	4.96
299.867	5.46
300.243	5.05
300.619	5.04
300.995	5.24
301.371	5.71
301.746	5.24
302.122	5.71
302.498	5.44
302.874	5.65
303.249	5.19
303.625	5.22
304	5.74
304.376	6.38
304.751	6.11
305.127	5.82
305.502	6.33
305.878	5.91
306.253	6.03
306.628	5.72
307.003	5.91
307.378	5.99
307.754	6.23
308.129	6.11
308.504	5.99
308.879	6.64
309.254	6.36
309.629	6.62
310.003	6.32
310.378	6.14
310.753	6.56
311.128	6.71
311.502	6.06
311.877	5.85
312.252	6.3
312.626	6.46
313.001	6.73
313.375	6.57
313.75	6.66
314.124	6.77
314.498	6.43
314.873	6.62
315.247	6.48
315.621	6.7
315.995	6.49
316.369	6.6
316.743	7.02
317.117	6.77
317.491	7.42
317.865	6.92
318.239	6.9
318.613	7.42
318.987	6.47
319.361	6.9
319.734	6.93
320.108	7.3
320.482	6.7
320.855	6.87
321.229	7.96
321.602	7.41
321.976	7.1
322.349	7.05
322.723	7.54
323.096	6.8
323.469	7.15
323.843	7.74
324.216	7.74
324.589	7.44
324.962	7.13
325.335	6.95
325.708	7.52
326.081	7.33
326.454	7.03
326.827	7
327.2	7.49
327.573	8.06
327.945	7.91
328.318	7.34
328.691	7.85
329.063	7.65
329.436	7.45
329.809	7.74
330.181	7.32
330.553	7.63
330.926	7.79
331.298	7.51
331.671	7.82
332.043	7.36
332.415	7.27
332.787	8.32
333.159	7.34
333.532	7.34
333.904	8.03
334.276	7.64
334.648	7.31
335.02	7.35
335.391	7.29
335.763	8.06
336.135	7.76
336.507	8.01
336.879	7.03
337.25	7.72
337.622	8.4
337.993	7.89
338.365	8.47
338.736	8.27
339.108	7.72
339.479	7.66
339.851	7.59
340.222	7.79
340.593	7.71
340.964	7.72
341.336	7.83
341.707	7.99
342.078	7.97
342.449	7.85
342.82	7.85
343.191	7.65
343.562	8.11
343.933	8.4
344.303	7.77
344.674	8.15
345.045	7.95
345.416	8.19
345.786	7.66
346.157	8.08
346.527	7.78
346.898	8.27
347.268	7.92
347.639	8.23
348.009	8.02
348.38	7.96
348.75	7.88
349.12	8.05
349.49	8.04
349.861	7.96
350.231	8.11
350.601	7.9
350.971	8.17
351.341	8.07
351.711	8.29
352.081	7.87
352.45	8.14
352.82	8.55
353.19	8.55
353.56	8.48
353.929	8.59
354.299	8.22
354.669	8.06
355.038	8.1
355.408	8.37
355.777	8.35
356.147	8.59
356.516	8.19
356.885	7.98
357.254	8.52
357.624	7.89
357.993	8.16
358.362	8.11
358.731	8.48
359.1	8.02
359.469	8.56
359.838	8.03
360.207	8.07
360.576	8.41
360.945	8.43
361.314	8.22
361.682	8.65
362.051	8.75
362.42	8.28
362.788	8.03
363.157	8.38
363.525	8.33
363.894	8.05
364.262	8.31
364.631	8.34
364.999	8.33
365.367	8.68
365.735	8.59
366.104	8.7
366.472	8.64
366.84	8.23
367.208	8.6
367.576	8.69
367.944	8.59
368.312	8.3
368.68	8.24
369.048	8.75
369.416	8.44
369.783	8.55
370.151	8.15
370.519	8.6
370.886	8.73
371.254	8.81
371.621	8.38
371.989	8.49
372.356	8.41
372.724	8.83
373.091	8.78
373.458	8.55
373.826	8.88
374.193	8.89
374.56	8.87
374.927	8.74
375.294	8.7
375.661	8.47
376.028	8.81
376.395	9.06
376.762	8.85
377.129	8.76
377.496	9.3
377.863	9
378.229	8.74
378.596	8.67
378.963	9.24
379.329	8.82
379.696	9.25
380.062	8.6
380.429	8.91
380.795	8.86
381.161	8.94
381.528	8.78
381.894	8.77
382.26	9.23
382.626	8.92
382.993	9.03
383.359	8.72
383.725	8.85
384.091	9.09
384.457	8.93
384.823	8.93
385.188	9.08
385.554	9.15
385.92	9.1
386.286	8.99
386.651	9.03
387.017	9.3
387.383	9.02
387.748	9.19
388.114	9.08
388.479	9.3
388.845	9.01
389.21	8.81
389.575	9.21
389.94	8.98
390.306	9.01
390.671	9.5
391.036	8.92
391.401	8.82
391.766	9.14
392.131	9.22
392.496	9.22
392.861	8.7
393.226	9.18
393.591	9.17
393.956	9.21
394.32	9.2
394.685	8.99
395.05	9.42
395.414	9.08
395.779	9.33
396.143	9.1
396.508	9.03
396.872	9.2
397.236	9.2
397.601	8.97
397.965	9.46
398.329	9.08
398.694	9.13
399.058	9.44
399.422	9.23
399.786	9.11
400.15	9.31
400.514	9.32
400.878	9.16
401.242	9.27
401.605	9.36
401.969	8.87
402.333	9.41
402.697	9.01
403.06	9.2
403.424	9.2
403.787	9.19
404.151	9.42
404.514	9.19
404.878	9.07
405.241	9.3
405.604	9.04
405.968	9.15
406.331	9.2
406.694	9.09
407.057	9.04
407.42	9.21
407.783	9.35
408.146	9.07
408.509	9.16
408.872	9.08
409.235	9.22
409.598	9.28
409.961	9.2
410.323	9.17
410.686	9.24
411.049	9.28
411.411	9.48
411.774	9.07
412.136	9.05
412.499	9.12
412.861	9.24
413.223	9.29
413.586	9.01
413.948	9.15
414.31	9.15
414.672	9.2
415.035	9.03
415.397	9.62
415.759	9.52
416.121	9.11
416.483	9.21
416.845	9.23
417.206	9.21
417.568	9.31
417.93	9.25
418.292	9.29
418.653	9.17
419.015	9.39
419.377	9.17
419.738	9.41
420.1	9.24
420.461	9.24
420.822	9.18
421.184	9.27
421.545	9.22
421.906	9.13
422.267	9.19
422.629	9.31
422.99	9.21
423.351	9.24
423.712	9.11
424.073	9.14
424.434	9.35
424.795	9.35
425.155	9.45
425.516	9.32
425.877	9.31
426.238	9.29
426.598	9.31
426.959	9.42
427.32	9.4
427.68	9.43
428.041	9.54
428.401	9.59
428.761	9.83
429.122	9.61
429.482	9.58
429.842	9.59
430.202	9.72
430.563	9.93
430.923	10
431.283	9.91
431.643	10.06
432.003	10.02
432.363	9.99
432.722	10.04
433.082	10
433.442	9.87
433.802	10.02
434.161	10
434.521	9.98
434.881	10.13
435.24	9.93
435.6	9.93
435.959	9.91
436.319	10.07
436.678	10.05
437.037	10.09
437.396	10.16
437.756	10.2
438.115	10.15
438.474	10.12
438.833	10.34
439.192	10.31
439.551	10.27
439.91	10.28
440.269	10.56
440.628	10.18
440.987	10.26
441.345	10.34
441.704	10.26
442.063	10.28
442.421	10.31
442.78	10.34
443.138	10.32
443.497	10.21
443.855	10.3
444.214	10.25
444.572	10.54
444.93	10.34
445.288	10.47
445.647	10.52
446.005	10.51
446.363	10.48
446.721	10.59
447.079	10.5
447.437	10.52
447.795	10.41
448.153	10.51
448.51	10.37
448.868	10.38
449.226	10.48
449.584	10.48
449.941	10.47
450.299	10.62
450.656	10.73
451.014	10.64
451.371	10.71
451.729	10.64
452.086	10.75
452.443	10.7
452.801	10.8
453.158	10.7
453.515	10.88
453.872	10.8
454.229	10.84
454.586	10.86
454.943	10.84
455.3	10.96
455.657	10.84
456.014	10.9
456.371	11.03
456.727	11.26
457.084	10.99
457.441	11.03
457.797	11.12
458.154	11.06
458.51	11.1
458.867	11.06
459.223	11.23
459.58	11.07
459.936	11.13
460.292	11.34
460.648	11.14
461.005	10.97
461.361	11.24
461.717	10.96
462.073	11.07
462.429	10.85
462.785	10.97
463.141	10.99
463.496	11.18
463.852	11.29
464.208	11.38
464.564	11.47
464.919	11.26
465.275	11.5
465.631	11.5
465.986	11.59
466.342	11.58
466.697	11.51
467.052	11.45
467.408	11.38
467.763	11.42
468.118	11.68
468.473	11.38
468.829	11.44
469.184	11.59
469.539	11.5
469.894	11.49
470.249	11.44
470.603	11.49
470.958	11.53
471.313	11.62
471.668	11.54
472.023	11.52
472.377	11.48
472.732	11.53
473.086	11.64
473.441	11.48
473.795	11.81
474.15	11.64
474.504	11.73
474.859	11.83
475.213	11.41
475.567	11.63
475.921	11.74
476.275	11.78
476.63	11.74
476.984	11.75
477.338	11.84
477.692	11.6
478.045	11.86
478.399	11.9
478.753	11.73
479.107	11.77
479.461	11.81
479.814	11.92
480.168	11.94
480.521	12.07
480.875	12.05
481.228	12
481.582	11.92
481.935	11.96
482.289	11.81
482.642	11.71
482.995	11.83
483.348	11.96
483.701	11.8
484.055	11.89
484.408	11.75
484.761	11.76
485.114	11.62
485.466	11.58
485.819	11.42
486.172	11.37
486.525	11.36
486.878	11.35
487.23	11.34
487.583	11.49
487.936	11.64
488.288	11.72
488.641	11.74
488.993	11.72
489.345	11.64
489.698	11.62
490.05	11.6
490.402	11.65
490.754	11.55
491.107	11.64
491.459	11.7
491.811	11.93
492.163	11.94
492.515	12.04
492.866	12.04
493.218	12.01
493.57	11.93
493.922	11.77
494.274	11.84
494.625	11.83
494.977	11.89
495.328	12.06
495.68	12.26
496.031	12.16
496.383	12.36
496.734	12.4
497.086	12.29
497.437	12.43
497.788	12.43
498.139	12.5
498.49	12.57
498.842	12.38
499.193	12.39
499.544	12.4
499.894	12.42
500.245	12.44
500.596	12.4
500.947	12.63
501.298	12.58
501.648	12.68
501.999	12.64
502.35	12.64
502.7	12.72
503.051	12.81
503.401	12.87
503.752	12.82
504.102	12.76
504.452	12.68
504.803	12.64
505.153	12.67
505.503	12.81
505.853	12.94
506.203	12.67
506.553	12.93
506.903	12.96
507.253	12.75
507.603	12.91
507.953	13.01
508.303	12.9
508.652	12.9
509.002	13
509.352	12.88
509.701	13.15
510.051	13
510.4	12.94
510.75	12.96
511.099	12.88
511.449	12.99
511.798	12.86
512.147	12.93
512.496	12.95
512.846	13.01
513.195	12.96
513.544	13.08
513.893	13.01
514.242	13.08
514.591	12.99
514.939	13.18
515.288	13.12
515.637	13.21
515.986	13.14
516.334	13.21
516.683	13.24
517.032	13.37
517.38	13.24
517.729	13.37
518.077	13.37
518.426	13.35
518.774	13.51
519.122	13.31
519.47	13.34
519.819	13.15
520.167	13.28
520.515	13.32
520.863	13.15
521.211	13.22
521.559	13.29
521.907	13.26
522.255	13.24
522.602	13.28
522.95	13.45
523.298	13.48
523.645	13.56
523.993	13.6
524.341	13.51
524.688	13.6
525.036	13.69
525.383	13.63
525.73	13.69
526.078	13.66
526.425	13.61
526.772	13.73
527.119	13.57
527.466	13.49
527.814	13.45
528.161	13.43
528.508	13.51
528.854	13.51
529.201	13.53
529.548	13.57
529.895	13.52
530.242	13.47
530.588	13.29
530.935	13.28
531.282	13.28
531.628	13.26
531.975	13.23
532.321	13.31
532.667	13.47
533.014	13.66
533.36	13.68
533.706	13.82
534.052	13.9
534.399	13.85
534.745	13.89
535.091	13.73
535.437	13.68
535.783	13.65
536.129	13.75
536.474	13.71
536.82	13.7
537.166	14.01
537.512	14.1
537.857	14.07
538.203	14.15
538.549	13.97
538.894	13.98
539.239	13.99
539.585	14.02
539.93	14.17
540.276	14.18
540.621	14.39
540.966	14.3
541.311	14.58
541.656	14.38
542.001	14.45
542.346	14.42
542.691	14.36
543.036	14.21
543.381	14.15
543.726	14.13
544.071	14.07
544.415	14.09
544.76	14.13
545.105	14.22
545.449	14.27
545.794	14.38
546.138	14.44
546.483	14.48
546.827	14.53
547.171	14.53
547.516	14.65
547.86	14.81
548.204	14.8
548.548	14.69
548.892	14.87
549.236	14.69
549.58	14.8
549.924	14.88
550.268	14.82
550.612	14.99
550.956	14.94
551.3	15.19
551.643	15.17
551.987	15.16
552.33	15.32
552.674	15.29
553.017	15.24
553.361	15.51
553.704	15.39
554.048	15.3
554.391	15.23
554.734	15.37
555.077	15.38
555.42	15.35
555.764	15.38
556.107	15.48
556.45	15.38
556.793	15.32
557.135	15.46
557.478	15.67
557.821	15.62
558.164	15.71
558.507	15.71
558.849	15.65
559.192	15.81
559.534	15.8
559.877	15.74
560.219	15.85
560.562	15.75
560.904	15.7
561.246	15.94
561.589	15.95
561.931	15.96
562.273	15.81
562.615	15.94
562.957	15.79
563.299	16.15
563.641	16
563.983	15.95
564.325	16.03
564.667	16.2
565.008	15.92
565.35	15.92
565.692	16.17
566.033	16.19
566.375	16.2
566.716	16.27
567.058	16.28
567.399	16.47
567.741	16.58
568.082	16.17
568.423	16.31
568.764	16.46
569.105	16.12
569.447	16.32
569.788	16.29
570.129	16.31
570.47	16.56
570.811	16.36
571.151	16.64
571.492	16.55
571.833	16.51
572.174	16.58
572.514	16.54
572.855	16.64
573.195	16.57
573.536	16.65
573.876	16.61
574.217	16.69
574.557	16.72
574.898	16.84
575.238	16.61
575.578	16.83
575.918	16.7
576.258	16.6
576.598	16.93
576.938	16.86
577.278	17.08
577.618	16.66
577.958	17
578.298	17.11
578.638	16.98
578.977	17.26
579.317	16.99
579.657	16.8
579.996	17.39
580.336	17.02
580.675	17.27
581.014	17.2
581.354	17.07
581.693	17.45
582.032	17.5
582.372	17.44
582.711	17.34
583.05	17.18
583.389	17.28
583.728	17.33
584.067	17.5
584.406	17.63
584.745	17.42
585.083	17.71
585.422	17.62
585.761	17.62
586.1	17.65
586.438	17.81
586.777	17.71
587.115	17.72
587.454	17.49
587.792	17.95
588.13	17.99
588.469	17.56
588.807	18.27
589.145	18
589.483	17.91
589.821	17.78
590.159	18.06
590.497	18.05
590.835	18.04
591.173	17.88
591.511	18.02
591.849	18.19
592.187	17.81
592.524	18.39
592.862	17.89
593.2	18.15
593.537	18.01
593.875	18.02
594.212	18.19
594.55	18.57
594.887	18.29
595.224	18.47
595.561	18.47
595.899	18.54
596.236	18.63
596.573	18.63
596.91	18.55
597.247	18.46
597.584	18.57
597.921	18.62
598.258	18.55
598.594	18.6
598.931	18.45
599.268	18.48
599.604	18.45
599.941	18.46
600.277	18.39
600.614	18.47
600.95	18.5
601.287	18.61
601.623	18.59
601.959	18.86
602.296	18.82
602.632	18.49
602.968	18.91
603.304	19
603.64	19.03
603.976	19.08
604.312	18.81
604.648	19.1
604.984	18.88
605.319	18.89
605.655	18.89
605.991	18.99
606.326	18.98
606.662	18.91
606.998	18.94
607.333	18.98
607.668	19.03
608.004	19.11
608.339	18.98
608.674	19.08
609.01	19.13
609.345	19.19
609.68	19.17
610.015	19.21
610.35	19.37
610.685	19.54
611.02	19.5
611.355	19.52
611.689	19.33
612.024	19.29
612.359	19.19
612.694	19.26
613.028	19.16
613.363	19.38
613.697	19.32
614.032	19.76
614.366	19.37
614.7	19.61
615.035	19.63
615.369	19.62
615.703	19.65
616.037	19.99
616.371	19.92
616.705	20.05
617.039	19.78
617.373	19.96
617.707	19.73
618.041	19.95
618.375	19.92
618.709	19.67
619.042	20.29
619.376	20.2
619.71	20.18
620.043	19.68
620.377	20.1
620.71	20.17
621.043	20.49
621.377	20.03
621.71	20.41
622.043	20.54
622.376	20.66
622.709	20.18
623.043	19.9
623.376	20.49
623.709	20.31
624.041	20.54
624.374	20.53
624.707	20.3
625.04	20.71
625.373	19.94
625.705	20.42
626.038	20.47
626.37	20.62
626.703	20.34
627.035	20.21
627.368	20.92
627.7	20.55
628.032	20.57
628.365	20.56
628.697	20.65
629.029	20.73
629.361	20.69
629.693	20.63
630.025	20.53
630.357	20.34
630.689	20.77
631.021	20.81
631.353	20.4
631.684	20.59
632.016	20.66
632.348	20.95
632.679	20.9
633.011	20.65
633.342	20.71
633.674	20.76
634.005	20.78
634.336	20.9
634.668	21.06
634.999	21.14
635.33	21.12
635.661	20.96
635.992	20.8
636.323	21
636.654	20.97
636.985	21.15
637.316	21.19
637.647	21.41
637.977	20.94
638.308	21.44
638.639	20.87
638.969	21.15
639.3	21.05
639.63	21.37
639.961	21.22
640.291	21.34
640.622	21.57
640.952	21.23
641.282	20.8
641.612	21.37
641.943	21.6
642.273	21.46
642.603	21.2
642.933	21.54
643.263	20.82
643.592	21.27
643.922	21.8
644.252	21.65
644.582	21.67
644.911	21.87
645.241	21.57
645.571	21.66
645.9	21.3
646.23	22.01
646.559	21.56
646.888	21.69
647.218	21.5
647.547	21.38
647.876	21.67
648.205	21.56
648.534	22.11
648.863	21.81
649.192	21.59
649.521	22.12
649.85	22.54
650.179	21.4
650.508	21.85
650.837	22.1
651.165	21.89
651.494	21.81
651.822	22.23
652.151	21.84
652.479	21.91
652.808	22.21
653.136	21.91
653.465	22.2
653.793	21.76
654.121	22.24
654.449	21.82
654.777	22.71
655.105	22.04
655.433	22.09
655.761	22.71
656.089	21.98
656.417	22.55
656.745	22.26
657.073	22.17
657.4	22.91
657.728	22.26
658.056	22.13
658.383	22.87
658.711	22.4
659.038	21.99
659.365	22.7
659.693	22.27
660.02	22.71
660.347	22.55
660.674	22.09
661.001	22.69
661.329	22.43
661.656	22.29
661.982	22.36
662.309	22.43
662.636	22.45
662.963	22.54
663.29	22.85
663.616	22.61
663.943	22.88
664.27	22.36
664.596	22.56
664.923	22.3
665.249	22.59
665.576	21.96
665.902	22.37
666.228	23.15
666.554	22.29
666.881	23.13
667.207	22.5
667.533	22.89
667.859	22.54
668.185	22.49
668.511	23.13
668.837	22.79
669.162	22.66
669.488	23.07
669.814	23.1
670.139	22.8
670.465	23.24
670.791	23.48
671.116	23.06
671.442	23.47
671.767	22.75
672.092	23.08
672.418	23.35
672.743	23.04
673.068	23.51
673.393	23.26
673.718	23.65
674.043	23.48
674.368	23.49
674.693	22.94
675.018	23.03
675.343	23.13
675.667	23.45
675.992	22.61
676.317	23.11
676.641	23.08
