Data from 0153_forehead_Reflection__2__48.txt Node

Date: Fri Sep 22 20:42:22 CDT 2023
User: ToomeyLab
Spectrometer: FLMS14357
Trigger mode: 0
Integration Time (sec): 1.000000E-2
Scans to average: 100
Electric dark correction enabled: true
Nonlinearity correction enabled: false
Boxcar width: 0
XAxis mode: Wavelengths
Number of Pixels in Spectrum: 2048
>>>>>Begin Spectral Data<<<<<
189.047	-38.14
189.435	-38.14
189.823	-38.14
190.211	-74.95
190.599	319.44
190.987	585.71
191.375	622.19
191.763	62.81
192.151	248.19
192.538	110.36
192.926	27.16
193.314	3.67
193.702	68.89
194.089	156.98
194.477	71.65
194.864	263.17
195.252	-21.89
195.639	89.88
196.027	-72.41
196.414	93.3
196.801	-3.12
197.189	20.52
197.576	65.1
197.963	-59.86
198.351	75.14
198.738	33.21
199.125	71.75
199.512	20.74
199.899	81.54
200.286	67.4
200.673	19.52
201.06	16.78
201.447	49.55
201.833	14.91
202.22	30.35
202.607	75.25
202.994	68.92
203.38	38.18
203.767	5.89
204.154	42.19
204.54	28.52
204.927	8.68
205.313	47.68
205.699	40.78
206.086	39.34
206.472	43.57
206.858	30
207.245	41.06
207.631	31.62
208.017	17.42
208.403	31.19
208.789	29.18
209.175	55.09
209.561	28.85
209.947	49.95
210.333	30.4
210.719	13.19
211.105	48.65
211.491	8.56
211.876	30.45
212.262	39.06
212.648	34.05
213.034	28.65
213.419	19.57
213.805	14.17
214.19	23.55
214.576	20.93
214.961	22.77
215.346	24.19
215.732	27.75
216.117	13.95
216.502	33.97
216.888	26.06
217.273	23.9
217.658	15.34
218.043	38.38
218.428	46.71
218.813	17.67
219.198	6.73
219.583	3.95
219.968	20.59
220.353	34.36
220.738	19.34
221.122	12.44
221.507	13.51
221.892	11.52
222.276	19.74
222.661	-14.53
223.046	24.26
223.43	32.78
223.815	12.96
224.199	-0.73
224.583	13.86
224.968	13.63
225.352	6.26
225.736	20.58
226.121	9.34
226.505	17.53
226.889	9.22
227.273	3.85
227.657	12.42
228.041	12.48
228.425	16.3
228.809	6.02
229.193	7.7
229.577	8.29
229.961	7.77
230.344	7.3
230.728	4.88
231.112	6.68
231.495	6.03
231.879	6.18
232.263	5.88
232.646	6.5
233.03	4.75
233.413	6.18
233.797	7.67
234.18	6.96
234.563	9.91
234.946	8.73
235.33	5.34
235.713	3.89
236.096	6.67
236.479	4.86
236.862	8.38
237.245	5.45
237.628	6.78
238.011	9.61
238.394	6.26
238.777	7.28
239.16	7.23
239.543	7.04
239.925	7.52
240.308	6.88
240.691	6.41
241.073	7.88
241.456	6.64
241.838	6.27
242.221	6.52
242.603	5.63
242.986	6.85
243.368	5.21
243.75	6.37
244.133	6.34
244.515	5.56
244.897	5.34
245.279	5.28
245.661	5.85
246.043	5.67
246.425	5.1
246.807	5.75
247.189	5.64
247.571	6.98
247.953	6.46
248.335	5.87
248.717	6.06
249.098	5.17
249.48	5.29
249.862	5.73
250.243	5.56
250.625	6.13
251.006	5.19
251.388	6.11
251.769	6.31
252.151	5.38
252.532	5.69
252.913	5.92
253.295	6.37
253.676	5.75
254.057	5.59
254.438	5.8
254.819	5.62
255.2	6.07
255.581	6.23
255.962	6.54
256.343	6.36
256.724	5.67
257.105	7.16
257.486	5.7
257.867	5.2
258.247	5.78
258.628	6.76
259.009	5.74
259.389	5.36
259.77	6.09
260.15	5.96
260.531	6.02
260.911	5.39
261.292	5.19
261.672	5.25
262.052	5.24
262.432	5.48
262.813	5.54
263.193	5.2
263.573	6.32
263.953	6.04
264.333	5.7
264.713	5.44
265.093	6.36
265.473	5.56
265.853	5.74
266.233	5.33
266.612	5.77
266.992	6.13
267.372	5.83
267.752	5.61
268.131	5.81
268.511	5.4
268.89	5.85
269.27	5.25
269.649	5.36
270.029	5.67
270.408	5.76
270.787	5.38
271.167	5.69
271.546	4.82
271.925	5.61
272.304	5.35
272.683	5.44
273.062	5.45
273.441	5.36
273.82	5.8
274.199	5.46
274.578	5.75
274.957	5.44
275.336	5.32
275.715	5.78
276.093	5.34
276.472	5.34
276.851	5.61
277.229	4.6
277.608	5.06
277.986	5.44
278.365	5.57
278.743	5.55
279.122	5.49
279.5	5.95
279.878	5.57
280.257	5.96
280.635	5.5
281.013	5.75
281.391	5.54
281.769	5.96
282.147	5.71
282.525	5.07
282.903	5.54
283.281	5.41
283.659	5.44
284.037	4.65
284.415	5.53
284.792	5.38
285.17	5.1
285.548	6.12
285.925	5.25
286.303	5.64
286.68	5.09
287.058	4.95
287.435	5.4
287.813	4.99
288.19	5.12
288.567	5.64
288.945	5.51
289.322	5.41
289.699	5.66
290.076	5.54
290.453	5.18
290.83	5.43
291.207	5.22
291.584	5.32
291.961	5.56
292.338	5.73
292.715	5.84
293.092	5.65
293.469	5.74
293.845	5.55
294.222	6.12
294.599	6.52
294.975	5.81
295.352	6.3
295.728	6.02
296.105	6.26
296.481	5.86
296.858	6.2
297.234	5.67
297.61	6.07
297.986	6.14
298.363	5.75
298.739	6.14
299.115	6.22
299.491	6.07
299.867	6.32
300.243	6.3
300.619	6.17
300.995	6.2
301.371	6.81
301.746	6.84
302.122	6.47
302.498	6.86
302.874	6.29
303.249	6.52
303.625	6.84
304	6.88
304.376	6.81
304.751	6.99
305.127	7.22
305.502	7.33
305.878	7.34
306.253	6.88
306.628	7.08
307.003	7.11
307.378	6.71
307.754	7.25
308.129	7.12
308.504	7.09
308.879	7.74
309.254	7.17
309.629	7.34
310.003	7.91
310.378	8.65
310.753	7.75
311.128	7.87
311.502	7.83
311.877	7.27
312.252	7.71
312.626	7.55
313.001	8.16
313.375	8.02
313.75	8.1
314.124	8.41
314.498	7.92
314.873	8
315.247	8.49
315.621	8.21
315.995	8.19
316.369	8.44
316.743	8.48
317.117	8.99
317.491	8.89
317.865	8.04
318.239	9.16
318.613	8.58
318.987	8.2
319.361	8.49
319.734	8.95
320.108	8.87
320.482	8.42
320.855	9.01
321.229	9.66
321.602	9.2
321.976	9.25
322.349	9.19
322.723	9.38
323.096	9.24
323.469	8.96
323.843	9.57
324.216	9.56
324.589	9.5
324.962	9.21
325.335	9.17
325.708	9.71
326.081	10.16
326.454	9.26
326.827	9.74
327.2	9.49
327.573	10.33
327.945	9.79
328.318	9.9
328.691	10.06
329.063	9.7
329.436	10.01
329.809	9.82
330.181	10.59
330.553	10.24
330.926	10.48
331.298	10.31
331.671	10.57
332.043	9.68
332.415	10.24
332.787	11.01
333.159	10.19
333.532	10.32
333.904	10.82
334.276	10.77
334.648	9.96
335.02	10.26
335.391	10.59
335.763	10.48
336.135	10.73
336.507	10.71
336.879	11.13
337.25	10.96
337.622	11.36
337.993	10.74
338.365	11.55
338.736	11.09
339.108	10.66
339.479	11.15
339.851	11.14
340.222	10.87
340.593	11.21
340.964	11.02
341.336	11.08
341.707	11.1
342.078	11.68
342.449	11.26
342.82	11.44
343.191	10.86
343.562	11.31
343.933	11.33
344.303	11.72
344.674	11.85
345.045	11.5
345.416	11.76
345.786	11.44
346.157	11.58
346.527	11.62
346.898	11.61
347.268	11.5
347.639	11.78
348.009	11.58
348.38	12.37
348.75	11.66
349.12	12.12
349.49	12.3
349.861	12.09
350.231	12.16
350.601	12.38
350.971	12.19
351.341	12.22
351.711	12.35
352.081	11.99
352.45	12.35
352.82	12.53
353.19	12.71
353.56	12.31
353.929	12.68
354.299	12.46
354.669	12.65
355.038	12.36
355.408	12.1
355.777	13.1
356.147	12.5
356.516	12.46
356.885	12.28
357.254	13.12
357.624	12.68
357.993	12.62
358.362	12.83
358.731	13.11
359.1	12.62
359.469	13.04
359.838	12.72
360.207	12.98
360.576	13.31
360.945	12.96
361.314	13.14
361.682	13.41
362.051	13.51
362.42	13.19
362.788	13.05
363.157	13.34
363.525	13.17
363.894	13.22
364.262	13.37
364.631	13.44
364.999	13.48
365.367	13.88
365.735	13.79
366.104	14.04
366.472	13.72
366.84	13.71
367.208	13.94
367.576	13.99
367.944	13.74
368.312	13.98
368.68	14
369.048	14.19
369.416	14.04
369.783	14.13
370.151	14.34
370.519	14.42
370.886	14.14
371.254	14.3
371.621	14.08
371.989	14.42
372.356	14.39
372.724	14.45
373.091	14.46
373.458	14.61
373.826	14.96
374.193	14.43
374.56	14.67
374.927	14.9
375.294	14.62
375.661	14.5
376.028	15.01
376.395	14.79
376.762	14.9
377.129	15.21
377.496	15.16
377.863	15.04
378.229	14.85
378.596	14.94
378.963	15.53
379.329	15.42
379.696	15.3
380.062	14.87
380.429	15.08
380.795	15.16
381.161	15.33
381.528	15.24
381.894	15.15
382.26	15.41
382.626	15.29
382.993	15.69
383.359	15.32
383.725	15.53
384.091	15.8
384.457	15.8
384.823	15.63
385.188	15.85
385.554	16.04
385.92	16.01
386.286	15.86
386.651	15.91
387.017	15.87
387.383	15.93
387.748	15.86
388.114	15.78
388.479	16.18
388.845	15.83
389.21	16.12
389.575	16.34
389.94	16.32
390.306	16.28
390.671	16.66
391.036	16.12
391.401	16.22
391.766	16.32
392.131	16.28
392.496	16.53
392.861	16.37
393.226	16.71
393.591	16.66
393.956	16.39
394.32	16.52
394.685	16.56
395.05	16.99
395.414	16.79
395.779	16.82
396.143	16.62
396.508	16.8
396.872	16.78
397.236	16.92
397.601	16.74
397.965	17.23
398.329	17.14
398.694	17.02
399.058	17.08
399.422	17.02
399.786	17.15
400.15	17.4
400.514	17.32
400.878	17.23
401.242	17.44
401.605	17.14
401.969	17.03
402.333	17.6
402.697	17.49
403.06	17.37
403.424	17.79
403.787	17.58
404.151	17.62
404.514	17.85
404.878	17.84
405.241	17.78
405.604	17.88
405.968	17.78
406.331	17.82
406.694	17.84
407.057	17.65
407.42	17.88
407.783	17.94
408.146	17.84
408.509	17.66
408.872	18.05
409.235	18.16
409.598	18.01
409.961	18.47
410.323	18.21
410.686	18.4
411.049	18.24
411.411	18.53
411.774	18.37
412.136	18.4
412.499	18.32
412.861	18.28
413.223	18.33
413.586	18.59
413.948	18.59
414.31	18.46
414.672	18.47
415.035	18.57
415.397	18.86
415.759	18.87
416.121	18.62
416.483	18.79
416.845	18.55
417.206	18.68
417.568	18.8
417.93	18.66
418.292	18.98
418.653	18.8
419.015	19.03
419.377	18.91
419.738	19.2
420.1	18.94
420.461	18.83
420.822	18.96
421.184	18.9
421.545	18.92
421.906	18.94
422.267	18.97
422.629	19.06
422.99	18.99
423.351	18.85
423.712	19.05
424.073	19.04
424.434	19.28
424.795	19.24
425.155	19.37
425.516	19.27
425.877	19.34
426.238	19.3
426.598	19.36
426.959	19.46
427.32	19.57
427.68	19.6
428.041	19.64
428.401	19.77
428.761	19.91
429.122	20.09
429.482	20.09
429.842	20.08
430.202	20.22
430.563	20.28
430.923	20.38
431.283	20.4
431.643	20.67
432.003	20.29
432.363	20.57
432.722	20.51
433.082	20.56
433.442	20.58
433.802	20.86
434.161	20.49
434.521	20.76
434.881	20.85
435.24	20.77
435.6	20.59
435.959	20.82
436.319	20.79
436.678	21.03
437.037	20.84
437.396	20.95
437.756	20.96
438.115	20.94
438.474	21.32
438.833	21.37
439.192	21.22
439.551	21.23
439.91	21.45
440.269	21.35
440.628	21.32
440.987	21.49
441.345	21.46
441.704	21.52
442.063	21.36
442.421	21.4
442.78	21.45
443.138	21.5
443.497	21.32
443.855	21.52
444.214	21.56
444.572	21.73
444.93	21.88
445.288	21.72
445.647	22.15
446.005	21.83
446.363	21.83
446.721	22
447.079	21.95
447.437	21.97
447.795	22.03
448.153	21.76
448.51	21.96
448.868	21.93
449.226	22.02
449.584	22.12
449.941	22.15
450.299	22.19
450.656	22.44
451.014	22.44
451.371	22.48
451.729	22.56
452.086	22.59
452.443	22.76
452.801	22.96
453.158	22.88
453.515	22.93
453.872	22.83
454.229	22.84
454.586	23
454.943	22.94
455.3	22.89
455.657	23.06
456.014	23.07
456.371	23.14
456.727	23.29
457.084	23.28
457.441	23.31
457.797	23.52
458.154	23.57
458.51	23.48
458.867	23.51
459.223	23.57
459.58	23.49
459.936	23.82
460.292	23.75
460.648	23.73
461.005	23.59
461.361	23.7
461.717	23.43
462.073	23.45
462.429	23.33
462.785	23.54
463.141	23.69
463.496	23.84
463.852	23.98
464.208	23.98
464.564	24.15
464.919	24.04
465.275	24.18
465.631	24.4
465.986	24.44
466.342	24.5
466.697	24.55
467.052	24.49
467.408	24.45
467.763	24.69
468.118	24.69
468.473	24.86
468.829	24.76
469.184	24.52
469.539	24.88
469.894	24.76
470.249	24.67
470.603	24.62
470.958	24.95
471.313	25.14
471.668	25.11
472.023	25.2
472.377	25.22
472.732	25.07
473.086	25.27
473.441	25.15
473.795	25.52
474.15	25.31
474.504	25.22
474.859	25.74
475.213	25.27
475.567	25.37
475.921	25.54
476.275	25.47
476.63	25.3
476.984	25.67
477.338	25.86
477.692	25.75
478.045	25.79
478.399	25.87
478.753	25.61
479.107	25.82
479.461	25.7
479.814	25.92
480.168	25.88
480.521	26.11
480.875	25.99
481.228	26.05
481.582	26.04
481.935	25.99
482.289	26.14
482.642	26.17
482.995	26.25
483.348	26.11
483.701	26.04
484.055	25.94
484.408	25.91
484.761	25.83
485.114	25.64
485.466	25.54
485.819	25.39
486.172	25.36
486.525	25.46
486.878	25.65
487.23	25.76
487.583	25.92
487.936	26.02
488.288	26.17
488.641	26.21
488.993	26.1
489.345	26
489.698	25.92
490.05	25.93
490.402	26
490.754	26.07
491.107	26.36
491.459	26.46
491.811	26.66
492.163	26.82
492.515	26.92
492.866	26.87
493.218	26.63
493.57	26.49
493.922	26.56
494.274	26.59
494.625	26.77
494.977	26.93
495.328	27.14
495.68	27.31
496.031	27.3
496.383	27.73
496.734	27.61
497.086	27.84
497.437	27.97
497.788	27.88
498.139	27.98
498.49	27.85
498.842	27.8
499.193	27.81
499.544	27.95
499.894	27.71
500.245	27.95
500.596	28.06
500.947	28.19
501.298	28.11
501.648	28.09
501.999	28.23
502.35	28.3
502.7	28.63
503.051	28.65
503.401	28.68
503.752	28.53
504.102	28.57
504.452	28.72
504.803	28.59
505.153	28.81
505.503	28.64
505.853	28.99
506.203	28.85
506.553	28.91
506.903	28.93
507.253	28.81
507.603	29.14
507.953	29.06
508.303	29.16
508.652	29.26
509.002	29.31
509.352	29.17
509.701	29.37
510.051	29.26
510.4	29.33
510.75	29.08
511.099	29.24
511.449	29.28
511.798	29.19
512.147	29.31
512.496	29.42
512.846	29.5
513.195	29.48
513.544	29.76
513.893	29.72
514.242	29.64
514.591	29.6
514.939	29.72
515.288	29.67
515.637	29.92
515.986	29.82
516.334	29.89
516.683	29.93
517.032	30.14
517.38	30.26
517.729	30.26
518.077	30.18
518.426	30.32
518.774	30.2
519.122	30.29
519.47	30.26
519.819	30.19
520.167	30.06
520.515	30.02
520.863	29.94
521.211	30.03
521.559	30.1
521.907	30.35
522.255	30.45
522.602	30.48
522.95	30.64
523.298	30.62
523.645	30.86
523.993	30.98
524.341	30.78
524.688	30.95
525.036	31.16
525.383	30.86
525.73	31.17
526.078	31.02
526.425	31.06
526.772	31
527.119	30.88
527.466	30.64
527.814	30.66
528.161	30.81
528.508	31.04
528.854	31.05
529.201	31.1
529.548	31.06
529.895	30.94
530.242	30.62
530.588	30.4
530.935	30.54
531.282	30.67
531.628	30.86
531.975	30.81
532.321	31.04
532.667	31.12
533.014	31.36
533.36	31.46
533.706	31.56
534.052	31.62
534.399	31.62
534.745	31.65
535.091	31.47
535.437	31.36
535.783	31.43
536.129	31.58
536.474	31.65
536.82	31.75
537.166	31.99
537.512	32.06
537.857	32.16
538.203	32.24
538.549	31.92
538.894	32.09
539.239	32.07
539.585	32.21
539.93	32.52
540.276	32.57
540.621	32.67
540.966	32.76
541.311	32.93
541.656	32.81
542.001	32.94
542.346	32.77
542.691	32.73
543.036	32.5
543.381	32.28
543.726	32.37
544.071	32.44
544.415	32.51
544.76	32.5
545.105	32.67
545.449	32.83
545.794	32.89
546.138	32.93
546.483	33.07
546.827	33.2
547.171	33.33
547.516	33.43
547.86	33.4
548.204	33.46
548.548	33.35
548.892	33.48
549.236	33.37
549.58	33.59
549.924	33.78
550.268	33.73
550.612	33.9
550.956	34.08
551.3	34.24
551.643	34.37
551.987	34.31
552.33	34.66
552.674	34.43
553.017	34.32
553.361	34.66
553.704	34.81
554.048	34.51
554.391	34.7
554.734	34.7
555.077	34.49
555.42	34.63
555.764	34.82
556.107	34.91
556.45	34.83
556.793	35.02
557.135	34.81
557.478	34.89
557.821	35.08
558.164	35.26
558.507	35.18
558.849	35.37
559.192	35.17
559.534	35.37
559.877	35.37
560.219	35.65
560.562	35.42
560.904	35.61
561.246	35.54
561.589	35.72
561.931	35.64
562.273	35.63
562.615	35.91
562.957	35.67
563.299	35.72
563.641	35.68
563.983	35.87
564.325	35.95
564.667	36.03
565.008	35.93
565.35	35.75
565.692	36.12
566.033	36.37
566.375	35.92
566.716	36.18
567.058	36.04
567.399	36.21
567.741	36.39
568.082	36.13
568.423	36.38
568.764	36.22
569.105	36.2
569.447	36.11
569.788	36.2
570.129	36.3
570.47	36.82
570.811	36.67
571.151	36.51
571.492	36.71
571.833	36.83
572.174	36.83
572.514	36.72
572.855	36.64
573.195	36.54
573.536	36.85
573.876	36.92
574.217	36.85
574.557	36.81
574.898	36.94
575.238	36.97
575.578	37.18
575.918	37.08
576.258	36.99
576.598	37.26
576.938	37.14
577.278	37.44
577.618	37.01
577.958	37.17
578.298	37.48
578.638	37.41
578.977	37.44
579.317	37.68
579.657	37.62
579.996	37.76
580.336	37.92
580.675	38.17
581.014	37.82
581.354	37.92
581.693	38.13
582.032	38.14
582.372	38.2
582.711	38.58
583.05	38.22
583.389	38.02
583.728	38.13
584.067	38.58
584.406	38.66
584.745	38.36
585.083	38.88
585.422	38.88
585.761	38.56
586.1	38.57
586.438	38.86
586.777	38.9
587.115	38.96
587.454	38.77
587.792	38.98
588.13	38.79
588.469	38.75
588.807	38.82
589.145	39.05
589.483	39.19
589.821	39.15
590.159	39.11
590.497	39.16
590.835	39.16
591.173	38.98
591.511	39.24
591.849	38.95
592.187	39.52
592.524	39.07
592.862	39.04
593.2	39.4
593.537	39.47
593.875	39.25
594.212	39.78
594.55	39.69
594.887	39.99
595.224	39.36
595.561	39.73
595.899	39.87
596.236	39.89
596.573	39.93
596.91	39.94
597.247	39.76
597.584	40.14
597.921	39.96
598.258	39.85
598.594	39.96
598.931	39.66
599.268	39.92
599.604	40.15
599.941	40.1
600.277	39.83
600.614	40.18
600.95	40.19
601.287	40.15
601.623	39.98
601.959	40.63
602.296	40.54
602.632	39.91
602.968	40.75
603.304	40.56
603.64	40.66
603.976	40.83
604.312	40.56
604.648	40.95
604.984	40.8
605.319	40.81
605.655	40.34
605.991	40.73
606.326	40.74
606.662	40.4
606.998	40.87
607.333	40.93
607.668	40.7
608.004	40.93
608.339	40.99
608.674	41.22
609.01	41.1
609.345	41.19
609.68	41.3
610.015	41.24
610.35	41.43
610.685	41.75
611.02	41.29
611.355	41.52
611.689	41.64
612.024	41.6
612.359	41.33
612.694	41.54
613.028	41.46
613.363	41.63
613.697	41.52
614.032	41.62
614.366	41.98
614.7	41.93
615.035	42.1
615.369	42.04
615.703	42.08
616.037	42.18
616.371	42.06
616.705	42.58
617.039	42.5
617.373	42.18
617.707	42.68
618.041	42.47
618.375	42.49
618.709	42.51
619.042	42.73
619.376	42.83
619.71	42.44
620.043	42.23
620.377	42.73
620.71	42.87
621.043	42.82
621.377	43.01
621.71	42.52
622.043	43.12
622.376	43.12
622.709	42.63
623.043	43.3
623.376	43.2
623.709	43.31
624.041	43.18
624.374	43.09
624.707	43.12
625.04	42.97
625.373	43.09
625.705	43.04
626.038	43.48
626.37	43.69
626.703	43.01
627.035	43.5
627.368	43.53
627.7	43.61
628.032	43.38
628.365	43.66
628.697	43.72
629.029	43.68
629.361	43.77
629.693	43.74
630.025	43.63
630.357	43.83
630.689	43.6
631.021	43.45
631.353	43.68
631.684	43.86
632.016	43.58
632.348	43.9
632.679	44.05
633.011	44.41
633.342	43.77
633.674	44.09
634.005	43.93
634.336	44.42
634.668	44.01
634.999	44.41
635.33	44.17
635.661	43.95
635.992	44.15
636.323	44.19
636.654	44.26
636.985	44.21
637.316	44.5
637.647	44.52
637.977	44.48
638.308	44.76
638.639	44.4
638.969	44.5
639.3	44.32
639.63	45.25
639.961	44.65
640.291	45.15
640.622	44.48
640.952	44.5
641.282	44.84
641.612	44.77
641.943	44.71
642.273	45.28
642.603	44.94
642.933	44.74
643.263	44.85
643.592	45.15
643.922	45.26
644.252	45.12
644.582	45.34
644.911	45.56
645.241	45.93
645.571	45.69
645.9	45.39
646.23	45.69
646.559	45.55
646.888	45.94
647.218	45.35
647.547	45.88
647.876	45.62
648.205	45.65
648.534	46.09
648.863	46.01
649.192	45.34
649.521	45.93
649.85	46.2
650.179	45.99
650.508	45.23
650.837	46.14
651.165	45.97
651.494	46.08
651.822	45.65
652.151	45.99
652.479	45.69
652.808	46.27
653.136	46.19
653.465	46.56
653.793	45.67
654.121	46.14
654.449	45.7
654.777	46.16
655.105	46.53
655.433	46.33
655.761	46.94
656.089	46.14
656.417	46.6
656.745	45.71
657.073	46.4
657.4	46.53
657.728	46.55
658.056	46.76
658.383	46.74
658.711	46.18
659.038	46.82
659.365	47.05
659.693	46.57
660.02	47.13
660.347	46.99
660.674	46.69
661.001	46.7
661.329	46.52
661.656	47.05
661.982	46.46
662.309	47.29
662.636	46.82
662.963	47.06
663.29	47.02
663.616	47.28
663.943	46.97
664.27	47.19
664.596	47.17
664.923	46.99
665.249	47.66
665.576	47.1
665.902	47.41
666.228	47.14
666.554	46.41
666.881	47.69
667.207	46.44
667.533	47.16
667.859	47.29
668.185	46.78
668.511	47.2
668.837	47.29
669.162	47.32
669.488	47.59
