Data from 0153_chest_Reflection__4__40.txt Node

Date: Fri Sep 22 20:38:59 CDT 2023
User: ToomeyLab
Spectrometer: FLMS14357
Trigger mode: 0
Integration Time (sec): 1.000000E-2
Scans to average: 100
Electric dark correction enabled: true
Nonlinearity correction enabled: false
Boxcar width: 0
XAxis mode: Wavelengths
Number of Pixels in Spectrum: 2048
>>>>>Begin Spectral Data<<<<<
189.047	-77.85
189.435	-77.85
189.823	-77.85
190.211	-295.89
190.599	-214.83
190.987	1737.14
191.375	71.82
191.763	78.6
192.151	179.42
192.538	-40.8
192.926	21.42
193.314	-73.75
193.702	-32.92
194.089	86.77
194.477	-14.57
194.864	164.08
195.252	26.85
195.639	47.69
196.027	28.61
196.414	-92.59
196.801	-29.57
197.189	40.81
197.576	139.85
197.963	29.08
198.351	25.18
198.738	56.17
199.125	44.96
199.512	18.15
199.899	53.85
200.286	-9.88
200.673	32.91
201.06	-9.87
201.447	41.85
201.833	-11.95
202.22	14.68
202.607	32.79
202.994	42.92
203.38	43.99
203.767	6.72
204.154	26.46
204.54	30.14
204.927	3.15
205.313	-20.23
205.699	39.93
206.086	45.2
206.472	57.91
206.858	24.51
207.245	38.26
207.631	32.3
208.017	10.36
208.403	44.05
208.789	17.12
209.175	36.79
209.561	38.14
209.947	18.63
210.333	34.83
210.719	8.1
211.105	51.32
211.491	34.41
211.876	21.61
212.262	1.52
212.648	14.06
213.034	24.7
213.419	22.53
213.805	5.85
214.19	-4.33
214.576	46.93
214.961	27.37
215.346	22.45
215.732	25.44
216.117	22.35
216.502	47.39
216.888	19.72
217.273	22.56
217.658	-1.51
218.043	37.52
218.428	19.49
218.813	-8.01
219.198	34.56
219.583	30.28
219.968	7.2
220.353	22.62
220.738	10.29
221.122	14.24
221.507	14.82
221.892	1.58
222.276	-2.6
222.661	-10.01
223.046	13.28
223.43	22.63
223.815	4.52
224.199	-9.58
224.583	11.94
224.968	11.19
225.352	0.03
225.736	6.52
226.121	5.63
226.505	5.25
226.889	6.91
227.273	5.25
227.657	7.31
228.041	0.54
228.425	11.45
228.809	4.14
229.193	3.95
229.577	5.12
229.961	4.53
230.344	5.79
230.728	2.55
231.112	4.53
231.495	3.17
231.879	4.04
232.263	2.07
232.646	3.93
233.03	2.61
233.413	3.79
233.797	4.38
234.18	3.7
234.563	4.66
234.946	5.07
235.33	0.33
235.713	3.07
236.096	2.7
236.479	3.19
236.862	5.89
237.245	5.42
237.628	3.72
238.011	4.67
238.394	5.31
238.777	3.26
239.16	3.61
239.543	4.19
239.925	4.4
240.308	3
240.691	4.64
241.073	5.24
241.456	4.94
241.838	4.08
242.221	4.74
242.603	3.54
242.986	3.22
243.368	3.81
243.75	3.64
244.133	4.02
244.515	2.98
244.897	2.81
245.279	2.85
245.661	3.02
246.043	3.55
246.425	2.65
246.807	3.69
247.189	2.44
247.571	3.08
247.953	3.21
248.335	3.39
248.717	3.18
249.098	3.1
249.48	2.77
249.862	2.83
250.243	2.82
250.625	3.18
251.006	2.95
251.388	3.13
251.769	4.23
252.151	3.26
252.532	3.34
252.913	3.33
253.295	4.4
253.676	3.79
254.057	3.02
254.438	3.4
254.819	2.86
255.2	3.13
255.581	2.45
255.962	3.15
256.343	2.55
256.724	2.28
257.105	2.86
257.486	2.58
257.867	3.99
258.247	3.05
258.628	3.38
259.009	2.89
259.389	2.19
259.77	3.59
260.15	3.32
260.531	3.42
260.911	2.91
261.292	3.04
261.672	2.4
262.052	2.65
262.432	2.69
262.813	3.17
263.193	2.79
263.573	3.58
263.953	2.86
264.333	3.19
264.713	2.98
265.093	2.78
265.473	2.66
265.853	2.9
266.233	2.83
266.612	2.56
266.992	2.84
267.372	2.96
267.752	4.04
268.131	2.77
268.511	2.73
268.89	3.67
269.27	2.69
269.649	2.77
270.029	2.52
270.408	3.38
270.787	2.88
271.167	2.39
271.546	2.81
271.925	3.13
272.304	2.12
272.683	2.97
273.062	3.04
273.441	2.82
273.82	3.13
274.199	2.85
274.578	3.07
274.957	2.94
275.336	2.59
275.715	2.89
276.093	2.44
276.472	2.83
276.851	3.28
277.229	2.34
277.608	3.51
277.986	2.36
278.365	3.12
278.743	3.12
279.122	2.98
279.5	3
279.878	2.51
280.257	3.95
280.635	2.83
281.013	2.97
281.391	2.74
281.769	3.16
282.147	3.1
282.525	2.39
282.903	3.22
283.281	2.77
283.659	3.03
284.037	2.51
284.415	3.12
284.792	2.68
285.17	2.74
285.548	3.3
285.925	3.05
286.303	2.99
286.68	2.52
287.058	2.83
287.435	2.51
287.813	2.49
288.19	2.51
288.567	2.86
288.945	2.76
289.322	2.88
289.699	2.61
290.076	3.01
290.453	2.26
290.83	2.15
291.207	2.61
291.584	2.44
291.961	2.57
292.338	2.54
292.715	2.99
293.092	2.84
293.469	2.58
293.845	2.62
294.222	2.73
294.599	2.84
294.975	3.05
295.352	2.32
295.728	2.93
296.105	2.9
296.481	2.76
296.858	3.07
297.234	2.25
297.61	2.47
297.986	2.74
298.363	2.23
298.739	2.72
299.115	2.61
299.491	2.56
299.867	2.43
300.243	2.42
300.619	2.45
300.995	2.77
301.371	3.53
301.746	2.49
302.122	2.67
302.498	2.25
302.874	2.32
303.249	2.64
303.625	2.35
304	2.74
304.376	2.87
304.751	2.69
305.127	2.47
305.502	3.08
305.878	2.87
306.253	2.9
306.628	2.97
307.003	3.06
307.378	2.54
307.754	2.89
308.129	2.78
308.504	2.8
308.879	2.78
309.254	2.27
309.629	2.73
310.003	2.8
310.378	3.07
310.753	2.41
311.128	3.03
311.502	2.92
311.877	2.25
312.252	2.48
312.626	2.48
313.001	2.68
313.375	2.96
313.75	3.05
314.124	2.76
314.498	2.7
314.873	2.87
315.247	2.91
315.621	2.67
315.995	2.58
316.369	2.4
316.743	2.23
317.117	3
317.491	3.04
317.865	2.69
318.239	2.57
318.613	2.92
318.987	2.83
319.361	2.46
319.734	2.7
320.108	3.11
320.482	2.52
320.855	2.74
321.229	3.42
321.602	2.84
321.976	2.65
322.349	2.5
322.723	2.55
323.096	2.81
323.469	3.05
323.843	2.63
324.216	2.59
324.589	3.56
324.962	2.26
325.335	2.62
325.708	2.29
326.081	2.71
326.454	2.29
326.827	2.41
327.2	2.82
327.573	2.73
327.945	3.32
328.318	2.7
328.691	2.73
329.063	2.56
329.436	2.91
329.809	2.55
330.181	2.76
330.553	2.62
330.926	2.69
331.298	2.63
331.671	2.56
332.043	2.41
332.415	2.73
332.787	3.11
333.159	2.68
333.532	2.39
333.904	2.63
334.276	2.8
334.648	1.85
335.02	2.48
335.391	2.54
335.763	2.61
336.135	2.54
336.507	2.84
336.879	2.19
337.25	2.79
337.622	2.99
337.993	2.51
338.365	3.05
338.736	2.59
339.108	3.08
339.479	2.75
339.851	2.4
340.222	2.65
340.593	2.48
340.964	2.12
341.336	2.6
341.707	2.29
342.078	2.98
342.449	2.46
342.82	2.35
343.191	1.81
343.562	2.44
343.933	2.57
344.303	2.65
344.674	2.53
345.045	2.44
345.416	2.96
345.786	2.7
346.157	2.71
346.527	2.21
346.898	2.3
347.268	2.1
347.639	2.37
348.009	2.12
348.38	2.62
348.75	2.85
349.12	2.18
349.49	2.88
349.861	2.46
350.231	3.01
350.601	2.9
350.971	3.02
351.341	2.09
351.711	2.85
352.081	2.59
352.45	2.41
352.82	3.07
353.19	2.58
353.56	2.56
353.929	2.58
354.299	2.8
354.669	2.38
355.038	2.37
355.408	2.65
355.777	2.93
356.147	2.49
356.516	2.85
356.885	2.4
357.254	3.08
357.624	2.38
357.993	2.59
358.362	2.77
358.731	2.77
359.1	2.27
359.469	2.8
359.838	2.31
360.207	2.35
360.576	2.33
360.945	2.68
361.314	2.51
361.682	2.95
362.051	2.57
362.42	2.55
362.788	2.27
363.157	2.42
363.525	2.41
363.894	2.53
364.262	2.29
364.631	2.33
364.999	2.45
365.367	2.71
365.735	2.42
366.104	2.6
366.472	2.75
366.84	2.42
367.208	2.66
367.576	2.59
367.944	2.44
368.312	2.46
368.68	2.47
369.048	2.79
369.416	2.6
369.783	2.32
370.151	2.19
370.519	2.97
370.886	2.49
371.254	2.56
371.621	2.53
371.989	2.89
372.356	2.47
372.724	2.76
373.091	2.47
373.458	2.44
373.826	2.45
374.193	2.66
374.56	2.59
374.927	2.8
375.294	2.21
375.661	2.59
376.028	2.8
376.395	3
376.762	2.36
377.129	2.84
377.496	3.16
377.863	2.88
378.229	2.77
378.596	2.66
378.963	2.96
379.329	2.91
379.696	2.83
380.062	2.46
380.429	2.62
380.795	2.7
381.161	2.48
381.528	2.6
381.894	2.32
382.26	2.53
382.626	2.63
382.993	2.69
383.359	2.42
383.725	2.66
384.091	2.75
384.457	2.38
384.823	2.54
385.188	2.79
385.554	2.69
385.92	3
386.286	2.66
386.651	2.62
387.017	2.84
387.383	2.45
387.748	2.54
388.114	2.48
388.479	2.6
388.845	2.49
389.21	2.18
389.575	2.77
389.94	2.63
390.306	2.68
390.671	3.08
391.036	2.3
391.401	2.69
391.766	2.49
392.131	2.78
392.496	2.88
392.861	2.72
393.226	2.84
393.591	2.74
393.956	2.72
394.32	2.53
394.685	2.72
395.05	2.86
395.414	2.62
395.779	2.65
396.143	2.65
396.508	2.54
396.872	2.64
397.236	2.73
397.601	2.56
397.965	2.69
398.329	2.46
398.694	2.72
399.058	2.87
399.422	2.79
399.786	2.8
400.15	2.88
400.514	2.82
400.878	2.65
401.242	2.64
401.605	2.6
401.969	2.49
402.333	2.65
402.697	2.34
403.06	2.57
403.424	2.68
403.787	2.8
404.151	2.81
404.514	2.71
404.878	2.78
405.241	2.9
405.604	2.84
405.968	2.85
406.331	2.66
406.694	2.57
407.057	2.59
407.42	2.61
407.783	2.66
408.146	2.57
408.509	2.65
408.872	2.6
409.235	2.77
409.598	2.71
409.961	2.76
410.323	2.68
410.686	2.7
411.049	2.88
411.411	2.8
411.774	2.59
412.136	2.59
412.499	2.56
412.861	2.8
413.223	2.85
413.586	2.58
413.948	2.62
414.31	2.61
414.672	2.67
415.035	2.6
415.397	2.95
415.759	2.87
416.121	2.76
416.483	2.66
416.845	2.61
417.206	2.7
417.568	2.54
417.93	2.65
418.292	2.62
418.653	2.46
419.015	2.59
419.377	2.59
419.738	2.59
420.1	2.66
420.461	2.62
420.822	2.63
421.184	2.59
421.545	2.51
421.906	2.6
422.267	2.49
422.629	2.62
422.99	2.51
423.351	2.51
423.712	2.54
424.073	2.57
424.434	2.62
424.795	2.56
425.155	2.66
425.516	2.54
425.877	2.54
426.238	2.53
426.598	2.47
426.959	2.58
427.32	2.54
427.68	2.52
428.041	2.57
428.401	2.64
428.761	2.73
429.122	2.72
429.482	2.67
429.842	2.65
430.202	2.63
430.563	2.7
430.923	2.77
431.283	2.71
431.643	2.79
432.003	2.79
432.363	2.89
432.722	2.88
433.082	2.7
433.442	2.7
433.802	2.81
434.161	2.5
434.521	2.59
434.881	2.73
435.24	2.64
435.6	2.66
435.959	2.57
436.319	2.6
436.678	2.73
437.037	2.81
437.396	2.63
437.756	2.77
438.115	2.71
438.474	2.85
438.833	2.79
439.192	2.6
439.551	2.7
439.91	2.8
440.269	2.85
440.628	2.64
440.987	2.61
441.345	2.74
441.704	2.79
442.063	2.61
442.421	2.57
442.78	2.76
443.138	2.68
443.497	2.64
443.855	2.83
444.214	2.58
444.572	2.74
444.93	2.6
445.288	2.71
445.647	2.81
446.005	2.69
446.363	2.54
446.721	2.78
447.079	2.68
447.437	2.87
447.795	2.82
448.153	2.62
448.51	2.75
448.868	2.68
449.226	2.69
449.584	2.64
449.941	2.58
450.299	2.77
450.656	2.78
451.014	2.84
451.371	2.85
451.729	2.72
452.086	2.76
452.443	2.9
452.801	2.85
453.158	2.65
453.515	2.92
453.872	2.93
454.229	2.86
454.586	2.81
454.943	2.68
455.3	2.78
455.657	2.71
456.014	2.77
456.371	2.93
456.727	3
457.084	2.83
457.441	2.7
457.797	2.79
458.154	2.85
458.51	2.81
458.867	2.7
459.223	2.92
459.58	2.83
459.936	2.81
460.292	2.93
460.648	2.88
461.005	2.85
461.361	2.91
461.717	2.62
462.073	2.64
462.429	2.7
462.785	2.7
463.141	2.77
463.496	2.88
463.852	2.84
464.208	2.92
464.564	2.91
464.919	2.9
465.275	3.09
465.631	2.98
465.986	3.06
466.342	3.01
466.697	3.08
467.052	2.77
467.408	3.06
467.763	2.89
468.118	3.14
468.473	2.84
468.829	2.89
469.184	2.79
469.539	2.84
469.894	2.86
470.249	2.89
470.603	2.87
470.958	2.93
471.313	2.79
471.668	3
472.023	2.77
472.377	2.96
472.732	2.93
473.086	3.01
473.441	2.73
473.795	3.11
474.15	2.91
474.504	3
474.859	3.06
475.213	2.84
475.567	2.88
475.921	2.92
476.275	2.89
476.63	2.82
476.984	2.81
477.338	3.01
477.692	3
478.045	3.12
478.399	2.99
478.753	2.81
479.107	2.95
479.461	2.92
479.814	2.96
480.168	2.92
480.521	2.92
480.875	3
481.228	2.93
481.582	2.82
481.935	2.99
482.289	2.87
482.642	2.93
482.995	2.87
483.348	2.97
483.701	2.98
484.055	2.93
484.408	2.89
484.761	2.95
485.114	2.74
485.466	2.77
485.819	2.68
486.172	2.65
486.525	2.67
486.878	2.69
487.23	2.74
487.583	2.78
487.936	2.82
488.288	2.83
488.641	2.82
488.993	2.78
489.345	2.8
489.698	2.72
490.05	2.8
490.402	2.79
490.754	2.73
491.107	2.78
491.459	2.88
491.811	2.86
492.163	2.86
492.515	2.84
492.866	2.91
493.218	2.81
493.57	2.89
493.922	2.7
494.274	2.84
494.625	2.85
494.977	2.92
495.328	3.01
495.68	2.97
496.031	2.93
496.383	2.97
496.734	2.99
497.086	3.05
497.437	2.97
497.788	3.13
498.139	3.03
498.49	3.09
498.842	2.81
499.193	2.89
499.544	3
499.894	3.01
500.245	2.98
500.596	3.06
500.947	3.1
501.298	3.02
501.648	3.07
501.999	3.07
502.35	3.04
502.7	3.12
503.051	3.08
503.401	3.04
503.752	3.11
504.102	3.07
504.452	2.94
504.803	3.14
505.153	2.99
505.503	3.05
505.853	3.11
506.203	3.07
506.553	3.16
506.903	3.09
507.253	2.99
507.603	3.12
507.953	3.2
508.303	3.15
508.652	3.1
509.002	3.2
509.352	2.97
509.701	3.11
510.051	3.05
510.4	3.14
510.75	3.09
511.099	2.94
511.449	3.16
511.798	3.09
512.147	3.14
512.496	3.1
512.846	3.06
513.195	3.18
513.544	3.09
513.893	3.24
514.242	3.1
514.591	3.15
514.939	3.17
515.288	3.07
515.637	3.2
515.986	3.11
516.334	3.16
516.683	3.1
517.032	3.34
517.38	3.18
517.729	3.14
518.077	3.21
518.426	3.16
518.774	3.23
519.122	3.18
519.47	3.21
519.819	3.22
520.167	3.23
520.515	3.17
520.863	3.1
521.211	3.08
521.559	3.13
521.907	3.21
522.255	3.11
522.602	3.19
522.95	3.18
523.298	3.23
523.645	3.25
523.993	3.2
524.341	3.23
524.688	3.21
525.036	3.29
525.383	3.3
525.73	3.33
526.078	3.31
526.425	3.26
526.772	3.36
527.119	3.28
527.466	3.04
527.814	3.13
528.161	3.13
528.508	3.18
528.854	3.21
529.201	3.28
529.548	3.23
529.895	3.17
530.242	3.08
530.588	3.06
530.935	3.03
531.282	3.07
531.628	3.12
531.975	3.1
532.321	3.12
532.667	3.24
533.014	3.26
533.36	3.27
533.706	3.28
534.052	3.32
534.399	3.36
534.745	3.42
535.091	3.23
535.437	3.17
535.783	3.15
536.129	3.27
536.474	3.3
536.82	3.22
537.166	3.36
537.512	3.37
537.857	3.4
538.203	3.48
538.549	3.3
538.894	3.23
539.239	3.32
539.585	3.26
539.93	3.43
540.276	3.39
540.621	3.38
540.966	3.49
541.311	3.46
541.656	3.36
542.001	3.53
542.346	3.45
542.691	3.45
543.036	3.34
543.381	3.32
543.726	3.31
544.071	3.35
544.415	3.36
544.76	3.38
545.105	3.36
545.449	3.36
545.794	3.42
546.138	3.51
546.483	3.49
546.827	3.48
547.171	3.57
547.516	3.59
547.86	3.65
548.204	3.62
548.548	3.54
548.892	3.58
549.236	3.56
549.58	3.54
549.924	3.63
550.268	3.73
550.612	3.66
550.956	3.67
551.3	3.8
551.643	3.76
551.987	3.8
552.33	3.75
552.674	3.72
553.017	3.65
553.361	3.77
553.704	3.91
554.048	3.87
554.391	3.8
554.734	3.85
555.077	3.8
555.42	3.87
555.764	3.77
556.107	3.82
556.45	3.88
556.793	3.87
557.135	3.86
557.478	3.93
557.821	3.79
558.164	4.09
558.507	4.13
558.849	3.85
559.192	4.05
559.534	3.94
559.877	3.97
560.219	4.13
560.562	3.83
560.904	3.86
561.246	4.02
561.589	4.12
561.931	4.09
562.273	3.9
562.615	3.95
562.957	4.05
563.299	4.11
563.641	4.05
563.983	4.08
564.325	4.26
564.667	4.22
565.008	4.12
565.35	4.17
565.692	4.2
566.033	4.21
566.375	4.13
566.716	4.22
567.058	4.12
567.399	4.44
567.741	4.38
568.082	4.14
568.423	4.18
568.764	4.31
569.105	4.13
569.447	4.21
569.788	4.15
570.129	4.38
570.47	4.43
570.811	4.35
571.151	4.45
571.492	4.17
571.833	4.31
572.174	4.41
572.514	4.45
572.855	4.37
573.195	4.29
573.536	4.4
573.876	4.31
574.217	4.33
574.557	4.51
574.898	4.45
575.238	4.4
575.578	4.42
575.918	4.54
576.258	4.56
576.598	4.47
576.938	4.57
577.278	4.58
577.618	4.39
577.958	4.62
578.298	4.71
578.638	4.46
578.977	4.66
579.317	4.65
579.657	4.71
579.996	4.63
580.336	4.75
580.675	4.78
581.014	4.6
581.354	4.66
581.693	4.66
582.032	4.97
582.372	5.11
582.711	4.74
583.05	4.82
583.389	4.72
583.728	4.83
584.067	4.94
584.406	4.97
584.745	4.62
585.083	5.13
585.422	4.88
585.761	4.96
586.1	4.86
586.438	4.95
586.777	5.07
587.115	5.01
587.454	4.93
587.792	5.39
588.13	5.19
588.469	5.03
588.807	5.33
589.145	5.21
589.483	5.14
589.821	5.15
590.159	5.06
590.497	5.36
590.835	5.31
591.173	5.11
591.511	5.16
591.849	5.31
592.187	5.32
592.524	5.34
592.862	5.27
593.2	5.31
593.537	5.03
593.875	5.39
594.212	5.28
594.55	5.48
594.887	5.3
595.224	5.62
595.561	5.61
595.899	5.61
596.236	5.67
596.573	5.61
596.91	5.6
597.247	5.51
597.584	5.68
597.921	5.7
598.258	5.67
598.594	5.57
598.931	5.46
599.268	5.6
599.604	5.66
599.941	5.61
600.277	5.52
600.614	5.8
600.95	5.81
601.287	5.71
601.623	5.64
601.959	5.88
602.296	5.82
602.632	5.52
602.968	5.88
603.304	5.88
603.64	5.96
603.976	5.88
604.312	5.91
604.648	5.8
604.984	6.06
605.319	6.03
605.655	5.77
605.991	5.91
606.326	5.92
606.662	5.8
606.998	5.81
607.333	6.02
607.668	5.92
608.004	6.02
608.339	5.94
608.674	5.96
609.01	6.03
609.345	6.32
609.68	6.37
610.015	6.34
610.35	6.42
610.685	6.4
611.02	6.39
611.355	6.4
611.689	6.13
612.024	6.29
612.359	6.18
612.694	6.35
613.028	6.26
613.363	6.37
613.697	6.23
614.032	6.22
614.366	6.35
614.7	6.47
615.035	6.55
615.369	6.43
615.703	6.48
616.037	6.56
616.371	6.58
616.705	6.54
617.039	6.52
617.373	6.74
617.707	6.78
618.041	6.93
618.375	6.92
618.709	6.48
619.042	6.94
619.376	7.02
619.71	6.92
620.043	6.57
620.377	6.59
620.71	7.09
621.043	6.85
621.377	7.03
621.71	6.67
622.043	6.87
622.376	7.34
622.709	6.89
623.043	6.91
623.376	7.23
623.709	7.21
624.041	7.21
624.374	7.15
624.707	7.3
625.04	7.35
625.373	6.88
625.705	7.15
626.038	7.22
626.37	6.97
626.703	7.1
627.035	7.02
627.368	7.13
627.7	7.51
628.032	7.36
628.365	7.44
628.697	7.24
629.029	7.41
629.361	7.32
629.693	7.4
630.025	7.48
630.357	7.07
630.689	7.59
631.021	7.41
631.353	7.42
631.684	7.38
632.016	7.55
632.348	7.79
632.679	7.26
633.011	7.74
633.342	7.73
633.674	7.93
634.005	7.4
634.336	7.53
634.668	7.94
634.999	8.04
635.33	8.03
635.661	7.9
635.992	7.59
636.323	7.68
636.654	7.74
636.985	7.89
637.316	7.79
637.647	7.93
637.977	7.67
638.308	8.25
638.639	8.06
638.969	8.36
639.3	7.64
639.63	8.43
639.961	7.75
640.291	8.16
640.622	8.13
640.952	8.35
641.282	8.07
641.612	8.14
641.943	8.05
642.273	8.3
642.603	8.13
642.933	8.21
643.263	7.97
643.592	8.27
643.922	8.37
644.252	7.88
644.582	8.4
644.911	8.29
645.241	8.66
645.571	8.47
645.9	8.44
646.23	8.82
646.559	8.68
646.888	8.92
647.218	8.63
647.547	8.95
647.876	8.43
648.205	8.54
648.534	8.74
648.863	8.82
649.192	8.39
649.521	8.54
649.85	9.12
650.179	8.55
650.508	8.55
650.837	8.86
651.165	8.71
651.494	8.88
651.822	8.99
652.151	8.6
652.479	8.79
652.808	9.08
653.136	9.28
653.465	8.95
653.793	8.5
654.121	8.91
654.449	8.98
654.777	9.13
655.105	9
655.433	9.45
655.761	9.51
656.089	9.29
656.417	9.05
656.745	9.06
657.073	9.1
657.4	9.74
657.728	9.27
658.056	9.04
658.383	9.77
658.711	9.29
659.038	9
659.365	9.16
659.693	8.94
660.02	9.72
660.347	9.93
660.674	9.35
661.001	9.3
661.329	9.35
661.656	9.4
661.982	9.45
662.309	9.86
662.636	9.69
662.963	9.61
663.29	9.94
663.616	9.97
663.943	9.81
664.27	10.14
664.596	9.94
664.923	9.61
665.249	9.88
665.576	9.72
665.902	10.03
666.228	9.97
666.554	9.41
666.881	9.98
667.207	10.1
667.533	9.78
667.859	10.17
668.185	10.43
668.511	10.49
668.837	9.54
669.162	10.3
669.488	10.4
669.814	10.01
670.139	9.78
670.465	10.72
670.791	10.47
671.116	10.1
671.442	10.94
671.767	9.34
672.092	10.64
672.418	10.69
672.743	10.42
673.068	10.59
673.393	10.13
673.718	11.09
674.043	11.28
674.368	10.7
674.693	10.62
675.018	10.76
675.343	10.46
675.667	10.46
675.992	10.16
676.317	11.15
676.641	10.55
676.966	11.04
677.29	10.99
677.615	11.13
677.939	10.48
678.264	10.65
678.588	11.42
678.912	10.9
679.236	11.04
679.56	10.56
679.885	10.95
680.209	11.28
680.532	11.06
680.856	10.72
681.18	11.18
681.504	11.4
681.828	11.47
682.152	11.07
682.475	11.84
682.799	11.34
683.122	11.23
683.446	11.2
683.769	11.35
684.093	11.56
684.416	11.21
684.739	11.3
685.062	11.98
685.386	11.26
685.709	11.4
686.032	10.63
686.355	11.38
686.678	11.77
687.001	11.33
687.324	12.31
687.646	11.95
687.969	12.23
688.292	11.42
688.614	11.95
688.937	11.29
689.26	11.83
689.582	12
689.904	11.9
690.227	12.4
690.549	12.39
690.871	11.66
691.194	12.32
691.516	11.81
