Data from 0153_forehead_Reflection__0__46.txt Node

Date: Fri Sep 22 20:41:57 CDT 2023
User: ToomeyLab
Spectrometer: FLMS14357
Trigger mode: 0
Integration Time (sec): 1.000000E-2
Scans to average: 100
Electric dark correction enabled: true
Nonlinearity correction enabled: false
Boxcar width: 0
XAxis mode: Wavelengths
Number of Pixels in Spectrum: 2048
>>>>>Begin Spectral Data<<<<<
189.047	-138.18
189.435	-138.18
189.823	-138.18
190.211	205.38
190.599	133.38
190.987	1187.14
191.375	280.92
191.763	62.21
192.151	157.03
192.538	73.43
192.926	21.33
193.314	-33.23
193.702	43.69
194.089	84.35
194.477	36.22
194.864	18.09
195.252	21.47
195.639	247.3
196.027	-57.02
196.414	-65.94
196.801	56.5
197.189	51.5
197.576	140.59
197.963	-79.54
198.351	48.1
198.738	35.26
199.125	64.05
199.512	29.98
199.899	41.03
200.286	37.62
200.673	67.23
201.06	34.25
201.447	69.73
201.833	-6.21
202.22	43.69
202.607	30.41
202.994	56.45
203.38	39.28
203.767	7.16
204.154	46.31
204.54	36.47
204.927	55.73
205.313	69.61
205.699	37.83
206.086	42.72
206.472	66.53
206.858	34.83
207.245	-12.32
207.631	52.5
208.017	30.9
208.403	29.7
208.789	26.65
209.175	61.54
209.561	39.87
209.947	45.22
210.333	34.74
210.719	18.73
211.105	49.39
211.491	-7.4
211.876	32.4
212.262	21.43
212.648	32.56
213.034	15.96
213.419	8.82
213.805	9.2
214.19	-3.17
214.576	46.14
214.961	7.96
215.346	8.16
215.732	27.68
216.117	34.46
216.502	42.06
216.888	23.84
217.273	4.82
217.658	20.69
218.043	18.62
218.428	35.85
218.813	3.41
219.198	23.89
219.583	34.22
219.968	18.4
220.353	51.49
220.738	24.35
221.122	12.02
221.507	22.07
221.892	17.41
222.276	4.8
222.661	11.8
223.046	25.51
223.43	25.99
223.815	9.2
224.199	4.84
224.583	7.79
224.968	13.66
225.352	5.35
225.736	10.1
226.121	14.47
226.505	17.03
226.889	14.55
227.273	6.65
227.657	13.44
228.041	6.34
228.425	11.99
228.809	9.18
229.193	8.85
229.577	10.47
229.961	6.44
230.344	8.82
230.728	4.57
231.112	5.32
231.495	4.45
231.879	5.59
232.263	4.15
232.646	3.82
233.03	3.73
233.413	5.22
233.797	6.05
234.18	5.07
234.563	8.85
234.946	5.1
235.33	3.32
235.713	4.34
236.096	5.5
236.479	3.45
236.862	6.46
237.245	6.28
237.628	7.37
238.011	4.85
238.394	3.73
238.777	6.36
239.16	6.27
239.543	6.66
239.925	4.74
240.308	6.51
240.691	6.41
241.073	6.8
241.456	7.02
241.838	5.09
242.221	4.02
242.603	4.99
242.986	5.21
243.368	4.54
243.75	5.42
244.133	5.51
244.515	4.47
244.897	4.25
245.279	4.79
245.661	4.79
246.043	5.58
246.425	4.9
246.807	5.89
247.189	4.32
247.571	5.43
247.953	5.64
248.335	4.69
248.717	5.06
249.098	4.77
249.48	4.37
249.862	4.39
250.243	4.59
250.625	5.07
251.006	4.97
251.388	5.12
251.769	4.94
252.151	4.54
252.532	5.91
252.913	6.32
253.295	6.2
253.676	4.48
254.057	5.34
254.438	4.87
254.819	4.28
255.2	5.31
255.581	4.92
255.962	5.21
256.343	6.13
256.724	4.72
257.105	5.17
257.486	5.55
257.867	4.31
258.247	4.93
258.628	5.29
259.009	5.35
259.389	4.13
259.77	5.77
260.15	6.29
260.531	4.92
260.911	4.79
261.292	4.61
261.672	4.37
262.052	4.51
262.432	4.55
262.813	4.74
263.193	4.39
263.573	5.26
263.953	4.77
264.333	4.29
264.713	4.52
265.093	4.87
265.473	4.56
265.853	4.15
266.233	5.19
266.612	4.62
266.992	5.76
267.372	5.24
267.752	5.15
268.131	4.86
268.511	4.9
268.89	5.08
269.27	4.57
269.649	4.76
270.029	4.49
270.408	5.03
270.787	4.64
271.167	4.73
271.546	4.5
271.925	5.17
272.304	4.19
272.683	5.13
273.062	5.1
273.441	4.65
273.82	4.91
274.199	4.63
274.578	4.72
274.957	4.64
275.336	4.43
275.715	4.59
276.093	4.76
276.472	4.92
276.851	4.83
277.229	4.18
277.608	5.22
277.986	4.15
278.365	5.01
278.743	4.52
279.122	4.41
279.5	5.33
279.878	4.42
280.257	5.04
280.635	4.75
281.013	4.91
281.391	4.48
281.769	4.87
282.147	4.66
282.525	4.59
282.903	5.12
283.281	4.76
283.659	4.85
284.037	4.43
284.415	4.75
284.792	4.67
285.17	4.47
285.548	5.04
285.925	4.91
286.303	4.33
286.68	4.32
287.058	4.47
287.435	4.47
287.813	4.77
288.19	4.41
288.567	4.75
288.945	4.52
289.322	4.64
289.699	4.8
290.076	5.26
290.453	4.41
290.83	4.32
291.207	4.68
291.584	4.8
291.961	4.27
292.338	5.03
292.715	4.96
293.092	5.04
293.469	4.99
293.845	5.12
294.222	4.97
294.599	5.4
294.975	5.39
295.352	5.77
295.728	4.94
296.105	5.53
296.481	5.66
296.858	5.46
297.234	5.24
297.61	5.45
297.986	5.58
298.363	5.6
298.739	5.81
299.115	5.52
299.491	5.63
299.867	5.5
300.243	5.26
300.619	5.62
300.995	5.39
301.371	5.96
301.746	6.02
302.122	5.9
302.498	6.04
302.874	5.99
303.249	6.16
303.625	5.58
304	6.34
304.376	6.24
304.751	6.54
305.127	6.48
305.502	6.69
305.878	6.65
306.253	6.53
306.628	6.09
307.003	6.6
307.378	6.46
307.754	6.62
308.129	6.92
308.504	6.57
308.879	6.87
309.254	6.66
309.629	7.19
310.003	7.06
310.378	7.08
310.753	6.97
311.128	6.76
311.502	7.19
311.877	6.95
312.252	7.26
312.626	7.32
313.001	7.28
313.375	7.35
313.75	7.44
314.124	7.95
314.498	7.31
314.873	7.65
315.247	7.32
315.621	8.29
315.995	7.95
316.369	7.3
316.743	7.91
317.117	8.11
317.491	8.35
317.865	7.93
318.239	7.72
318.613	8.23
318.987	8.39
319.361	7.43
319.734	8.32
320.108	9.06
320.482	7.77
320.855	8.2
321.229	9.11
321.602	8.44
321.976	8.26
322.349	8.46
322.723	9.25
323.096	8.82
323.469	8.95
323.843	8.49
324.216	8.63
324.589	8.87
324.962	8.36
325.335	9.07
325.708	8.76
326.081	9.07
326.454	8.66
326.827	8.84
327.2	8.97
327.573	9.5
327.945	9.1
328.318	9.15
328.691	9.22
329.063	8.93
329.436	9.26
329.809	9.51
330.181	8.95
330.553	9.58
330.926	9.42
331.298	9.91
331.671	8.9
332.043	9.04
332.415	9.8
332.787	10.25
333.159	9.58
333.532	9.68
333.904	9.55
334.276	9.62
334.648	9.77
335.02	9.59
335.391	9.78
335.763	10.39
336.135	9.63
336.507	10.38
336.879	9.72
337.25	10.24
337.622	10.45
337.993	10.2
338.365	10
338.736	10.32
339.108	10.12
339.479	10.25
339.851	10.43
340.222	10.19
340.593	10.39
340.964	9.89
341.336	10.28
341.707	10.4
342.078	10.39
342.449	10.25
342.82	10.53
343.191	10.39
343.562	10.66
343.933	10.47
344.303	11.28
344.674	11.2
345.045	10.7
345.416	11.43
345.786	10.58
346.157	10.99
346.527	10.69
346.898	11.18
347.268	11.14
347.639	10.91
348.009	10.74
348.38	11.33
348.75	11.19
349.12	10.96
349.49	11.58
349.861	11.37
350.231	11.46
350.601	11.52
350.971	11.6
351.341	11.45
351.711	11.51
352.081	11.59
352.45	11.41
352.82	11.63
353.19	11.88
353.56	11.85
353.929	11.5
354.299	11.88
354.669	11.31
355.038	11.67
355.408	11.64
355.777	11.97
356.147	11.74
356.516	12.04
356.885	12.08
357.254	12.41
357.624	11.91
357.993	12.01
358.362	12.32
358.731	12.23
359.1	11.96
359.469	12.38
359.838	12.22
360.207	12.47
360.576	12.36
360.945	12.42
361.314	12.57
361.682	12.51
362.051	12.47
362.42	12.56
362.788	12.33
363.157	12.73
363.525	12.39
363.894	12.7
364.262	12.56
364.631	12.54
364.999	12.53
365.367	12.79
365.735	12.81
366.104	12.87
366.472	13.37
366.84	13.08
367.208	13.03
367.576	13.17
367.944	13.13
368.312	13.19
368.68	13.05
369.048	13.48
369.416	13.12
369.783	13.22
370.151	13.39
370.519	13.51
370.886	13.51
371.254	13.53
371.621	13.67
371.989	13.56
372.356	13.3
372.724	13.79
373.091	13.69
373.458	13.51
373.826	13.93
374.193	14.05
374.56	13.96
374.927	13.53
375.294	13.77
375.661	13.89
376.028	13.59
376.395	13.95
376.762	14.02
377.129	14.02
377.496	14.57
377.863	14.4
378.229	14.15
378.596	14.14
378.963	14.58
379.329	14.43
379.696	14.47
380.062	14.36
380.429	14.45
380.795	14.49
381.161	14.57
381.528	14.2
381.894	14.63
382.26	14.67
382.626	14.98
382.993	14.89
383.359	14.25
383.725	14.71
384.091	15.02
384.457	14.62
384.823	15.04
385.188	15.18
385.554	15.37
385.92	15.39
386.286	15.18
386.651	15.33
387.017	15.38
387.383	15.11
387.748	15.13
388.114	15.19
388.479	15.68
388.845	15.39
389.21	15.35
389.575	15.39
389.94	15.35
390.306	15.63
390.671	15.95
391.036	15.56
391.401	15.68
391.766	15.61
392.131	15.61
392.496	15.93
392.861	15.74
393.226	15.63
393.591	15.87
393.956	15.7
394.32	15.92
394.685	15.79
395.05	16.13
395.414	15.87
395.779	15.79
396.143	15.99
396.508	16.14
396.872	16.05
397.236	16.2
397.601	16.08
397.965	16.27
398.329	16.23
398.694	16.18
399.058	16.38
399.422	16.42
399.786	16.61
400.15	16.63
400.514	16.67
400.878	16.65
401.242	16.67
401.605	16.6
401.969	16.57
402.333	16.74
402.697	16.6
403.06	16.61
403.424	16.77
403.787	17.04
404.151	16.88
404.514	16.95
404.878	16.89
405.241	17.13
405.604	17.12
405.968	16.89
406.331	17.21
406.694	16.84
407.057	16.83
407.42	17.22
407.783	17.13
408.146	17.15
408.509	16.98
408.872	17.23
409.235	17.15
409.598	17.63
409.961	17.6
410.323	17.42
410.686	17.65
411.049	17.59
411.411	17.82
411.774	17.35
412.136	17.77
412.499	17.45
412.861	17.5
413.223	17.72
413.586	17.57
413.948	17.86
414.31	17.73
414.672	17.74
415.035	17.8
415.397	18.21
415.759	17.99
416.121	17.88
416.483	18.02
416.845	17.93
417.206	17.95
417.568	17.86
417.93	17.92
418.292	18.06
418.653	18.16
419.015	18.14
419.377	18.25
419.738	18.31
420.1	18.15
420.461	18.06
420.822	18.19
421.184	18.07
421.545	18.24
421.906	18.32
422.267	18.2
422.629	18.28
422.99	18.38
423.351	18.16
423.712	18.2
424.073	18.27
424.434	18.52
424.795	18.41
425.155	18.64
425.516	18.51
425.877	18.59
426.238	18.37
426.598	18.51
426.959	18.65
427.32	18.74
427.68	18.71
428.041	18.82
428.401	18.95
428.761	19.23
429.122	19.04
429.482	19.07
429.842	19.34
430.202	19.43
430.563	19.33
430.923	19.82
431.283	19.68
431.643	19.65
432.003	19.75
432.363	19.66
432.722	19.78
433.082	19.63
433.442	19.75
433.802	20.12
434.161	20.06
434.521	20.11
434.881	20.02
435.24	19.8
435.6	19.78
435.959	19.86
436.319	19.91
436.678	20.04
437.037	20.09
437.396	20.11
437.756	20.3
438.115	20.2
438.474	20.38
438.833	20.57
439.192	20.33
439.551	20.32
439.91	20.51
440.269	20.66
440.628	20.42
440.987	20.64
441.345	20.65
441.704	20.74
442.063	20.63
442.421	20.49
442.78	20.69
443.138	20.69
443.497	20.6
443.855	20.95
444.214	20.74
444.572	20.86
444.93	21.02
445.288	21.07
445.647	21.25
446.005	21.07
446.363	21.12
446.721	21.26
447.079	21.22
447.437	21.22
447.795	21.22
448.153	21.12
448.51	21.15
448.868	21.17
449.226	21.18
449.584	21.21
449.941	21.3
450.299	21.51
450.656	21.51
451.014	21.6
451.371	21.59
451.729	21.65
452.086	21.84
452.443	21.9
452.801	22.01
453.158	21.82
453.515	22.19
453.872	22.09
454.229	22.27
454.586	22.25
454.943	22.03
455.3	22.19
455.657	22.36
456.014	22.24
456.371	22.6
456.727	22.46
457.084	22.58
457.441	22.58
457.797	22.51
458.154	22.82
458.51	22.8
458.867	22.61
459.223	22.88
459.58	22.93
459.936	22.85
460.292	22.91
460.648	22.75
461.005	22.73
461.361	22.8
461.717	22.53
462.073	22.65
462.429	22.69
462.785	22.66
463.141	22.85
463.496	23.04
463.852	23.2
464.208	23.36
464.564	23.27
464.919	23.39
465.275	23.45
465.631	23.58
465.986	23.45
466.342	23.42
466.697	23.75
467.052	23.72
467.408	23.74
467.763	23.72
468.118	23.94
468.473	23.81
468.829	23.85
469.184	23.94
469.539	23.91
469.894	23.91
470.249	24.01
470.603	24.12
470.958	24.22
471.313	24.28
471.668	24.21
472.023	24.37
472.377	24.5
472.732	24.42
473.086	24.38
473.441	24.6
473.795	24.67
474.15	24.42
474.504	24.33
474.859	25.01
475.213	24.5
475.567	24.72
475.921	24.63
476.275	24.89
476.63	24.79
476.984	24.92
477.338	25
477.692	25.01
478.045	24.96
478.399	24.93
478.753	25.07
479.107	24.82
479.461	24.99
479.814	25.16
480.168	25.23
480.521	25.23
480.875	25.26
481.228	25.21
481.582	25.33
481.935	25.3
482.289	25.58
482.642	25.21
482.995	25.3
483.348	25.23
483.701	25.26
484.055	25.16
484.408	25.18
484.761	25.05
485.114	25.02
485.466	24.78
485.819	24.45
486.172	24.53
486.525	24.7
486.878	24.82
487.23	24.89
487.583	25.05
487.936	25.27
488.288	25.28
488.641	25.44
488.993	25.25
489.345	25.14
489.698	25.13
490.05	25.13
490.402	25.23
490.754	25.22
491.107	25.5
491.459	25.65
491.811	25.9
492.163	25.82
492.515	25.89
492.866	26.06
493.218	25.93
493.57	25.62
493.922	25.54
494.274	25.75
494.625	25.86
494.977	26.08
495.328	26.51
495.68	26.47
496.031	26.56
496.383	26.91
496.734	27.01
497.086	27.11
497.437	27.07
497.788	27.13
498.139	27.25
498.49	27.27
498.842	26.98
499.193	27
499.544	27.14
499.894	27.12
500.245	27.07
500.596	27.09
500.947	27.44
501.298	27.48
501.648	27.51
501.999	27.54
502.35	27.65
502.7	27.77
503.051	27.92
503.401	27.88
503.752	27.85
504.102	27.87
504.452	28.06
504.803	28.05
505.153	28.08
505.503	27.98
505.853	28.23
506.203	28.1
506.553	28.15
506.903	28.12
507.253	28.17
507.603	28.47
507.953	28.51
508.303	28.46
508.652	28.45
509.002	28.71
509.352	28.43
509.701	28.6
510.051	28.58
510.4	28.53
510.75	28.49
511.099	28.5
511.449	28.66
511.798	28.37
512.147	28.68
512.496	28.67
512.846	28.68
513.195	28.93
513.544	28.9
513.893	29.05
514.242	28.69
514.591	28.77
514.939	28.92
515.288	29.03
515.637	29.14
515.986	29.16
516.334	29.48
516.683	29.43
517.032	29.51
517.38	29.57
517.729	29.43
518.077	29.46
518.426	29.53
518.774	29.54
519.122	29.65
519.47	29.53
519.819	29.41
520.167	29.27
520.515	29.41
520.863	29.22
521.211	29.27
521.559	29.48
521.907	29.61
522.255	29.64
522.602	29.84
522.95	29.83
523.298	30.03
523.645	30.08
523.993	30.16
524.341	30.18
524.688	30.04
525.036	30.31
525.383	30.3
525.73	30.45
526.078	30.28
526.425	30.29
526.772	30.55
527.119	30.22
527.466	30.2
527.814	30.04
528.161	30
528.508	30.16
528.854	30.23
529.201	30.22
529.548	30.28
529.895	30.07
530.242	29.88
530.588	29.61
530.935	29.74
531.282	29.89
531.628	30.09
531.975	30.07
532.321	30.27
532.667	30.27
533.014	30.61
533.36	30.71
533.706	30.84
534.052	31
534.399	30.76
534.745	30.91
535.091	30.55
535.437	30.65
535.783	30.56
536.129	30.64
536.474	30.83
536.82	30.99
537.166	31.08
537.512	31.31
537.857	31.36
538.203	31.35
538.549	31.2
538.894	31.4
539.239	31.2
539.585	31.49
539.93	31.77
540.276	31.83
540.621	31.74
540.966	32.05
541.311	32.3
541.656	31.96
542.001	32.19
542.346	32.13
542.691	31.94
543.036	31.61
543.381	31.57
543.726	31.43
544.071	31.6
544.415	31.67
544.76	31.72
545.105	31.82
545.449	31.95
545.794	31.99
546.138	32.2
546.483	32.36
546.827	32.62
547.171	32.64
547.516	32.7
547.86	32.78
548.204	32.69
548.548	32.8
548.892	32.82
549.236	32.65
549.58	32.91
549.924	32.97
550.268	33.13
550.612	33.25
550.956	33.31
551.3	33.53
551.643	33.56
551.987	33.69
552.33	33.84
552.674	33.69
553.017	33.66
553.361	33.97
553.704	33.8
554.048	33.85
554.391	33.9
554.734	33.92
555.077	33.88
555.42	33.98
555.764	33.91
556.107	34
556.45	33.87
556.793	34.07
557.135	34.31
557.478	34.32
557.821	34.38
558.164	34.44
558.507	34.47
558.849	34.4
559.192	34.7
559.534	34.56
559.877	34.65
560.219	34.7
560.562	34.63
560.904	34.83
561.246	34.84
561.589	34.96
561.931	34.86
562.273	35.01
562.615	35.08
562.957	34.92
563.299	34.92
563.641	35.04
563.983	35.29
564.325	35.34
564.667	35.46
565.008	34.94
565.35	35.18
565.692	35.29
566.033	35.34
566.375	35.29
566.716	35.27
567.058	35.45
567.399	35.28
567.741	35.71
568.082	35.38
568.423	35.25
568.764	35.61
569.105	35.37
569.447	35.42
569.788	35.51
570.129	35.78
570.47	36.04
570.811	35.99
571.151	35.87
571.492	35.88
571.833	35.95
572.174	35.88
572.514	36.05
572.855	36.21
573.195	36.03
573.536	36.04
573.876	35.96
574.217	36.04
574.557	36.03
574.898	36.18
575.238	36.31
575.578	36.47
575.918	36.2
576.258	36.24
576.598	36.38
576.938	36.35
577.278	36.5
577.618	36.35
577.958	36.51
578.298	36.74
578.638	36.65
578.977	36.7
579.317	36.71
579.657	36.88
579.996	36.83
580.336	37.11
580.675	37.29
581.014	37.06
581.354	37.05
581.693	37.63
582.032	37.3
582.372	37.43
582.711	37.32
583.05	37.37
583.389	37.37
583.728	37.42
584.067	37.47
584.406	37.78
584.745	37.72
585.083	38.09
585.422	37.81
585.761	37.52
586.1	37.83
586.438	37.94
586.777	38.04
587.115	38.17
587.454	37.78
587.792	38.41
588.13	37.97
588.469	38.12
588.807	38.35
589.145	38.24
589.483	38.6
589.821	38.41
590.159	38.43
590.497	38.59
590.835	38.32
591.173	38.44
591.511	38.49
591.849	38.4
592.187	38.73
592.524	38.54
592.862	38.54
593.2	38.41
593.537	38.65
593.875	38.68
594.212	39.08
594.55	39
594.887	39.07
595.224	38.95
595.561	38.99
595.899	39.1
596.236	39.18
596.573	39.01
596.91	39.03
597.247	38.99
597.584	39.17
597.921	39.4
598.258	39.13
598.594	39.09
598.931	38.67
599.268	39.03
599.604	38.92
599.941	38.99
600.277	38.97
600.614	39.19
600.95	39.16
601.287	39.47
601.623	39.42
601.959	39.96
602.296	39.76
602.632	39.51
602.968	39.71
603.304	39.58
603.64	39.91
603.976	39.96
604.312	39.68
604.648	40.04
604.984	40.06
605.319	39.66
605.655	39.66
605.991	40.05
606.326	39.98
606.662	39.78
606.998	39.79
607.333	39.74
607.668	39.81
608.004	39.89
608.339	40.12
608.674	40.05
609.01	40.56
609.345	40.17
609.68	40.56
610.015	40.74
610.35	40.49
610.685	40.55
611.02	40.54
611.355	40.31
611.689	40.41
612.024	40.45
612.359	40.54
612.694	40.4
613.028	40.74
613.363	40.71
613.697	40.74
614.032	41
614.366	41.04
614.7	41.16
615.035	40.98
615.369	41.34
615.703	41.21
616.037	41.52
616.371	41.18
616.705	41.68
617.039	41.34
617.373	41.7
617.707	41.49
618.041	41.63
618.375	41.74
618.709	41.54
619.042	41.38
619.376	41.3
619.71	41.84
620.043	41.67
620.377	41.61
620.71	42.08
621.043	41.92
621.377	41.9
621.71	41.9
622.043	42.13
622.376	42.03
622.709	41.81
623.043	41.98
623.376	42.38
623.709	42.09
624.041	42.32
624.374	42.6
624.707	42.48
625.04	42.26
625.373	42.44
625.705	42.38
626.038	42.24
626.37	42.67
626.703	42.31
627.035	42.57
627.368	42.59
627.7	42.77
628.032	42.79
628.365	42.54
628.697	42.67
629.029	42.59
629.361	42.4
629.693	42.93
630.025	42.4
630.357	42.28
630.689	42.77
631.021	42.65
631.353	42.78
631.684	42.85
632.016	42.87
632.348	43.4
632.679	42.78
633.011	42.99
633.342	43.07
633.674	43.12
634.005	43.16
634.336	43.44
634.668	43.16
634.999	43.87
635.33	43.35
635.661	43.07
635.992	43.26
636.323	43.28
636.654	43.05
636.985	43.1
637.316	43.74
637.647	43.28
637.977	43.72
638.308	43.73
638.639	43.21
638.969	43.73
639.3	43.7
639.63	43.99
639.961	43.99
640.291	43.83
640.622	43.96
640.952	43.68
641.282	43.7
641.612	44.18
641.943	44.12
642.273	44.43
642.603	43.93
642.933	44.4
643.263	43.98
643.592	44.11
643.922	44.57
644.252	43.66
644.582	44.37
644.911	44.68
645.241	44.6
645.571	44.94
645.9	44.08
646.23	45.02
646.559	44.81
646.888	44.54
647.218	44.49
647.547	44.46
647.876	44.99
648.205	44.97
648.534	44.65
648.863	44.99
649.192	45
649.521	44.94
649.85	45.34
650.179	44.74
650.508	44.75
650.837	45.23
651.165	45.12
651.494	44.83
651.822	45.2
652.151	44.82
652.479	44.72
652.808	45.33
653.136	45.28
653.465	45.36
653.793	45.09
654.121	45.46
654.449	44.7
654.777	45.14
655.105	45.66
655.433	45.82
655.761	45.57
656.089	45.83
656.417	45.44
656.745	45.68
657.073	45.83
657.4	45.69
657.728	45.5
658.056	45.58
658.383	45.68
658.711	45.67
659.038	45.77
659.365	45.55
659.693	44.85
660.02	46.32
660.347	45.77
660.674	45.96
661.001	45.4
661.329	45.61
661.656	45.77
661.982	45.85
662.309	46.05
662.636	45.92
662.963	45.76
663.29	45.91
663.616	46.37
663.943	46.03
664.27	46.18
664.596	45.73
664.923	46
665.249	46.26
665.576	46.54
665.902	46.25
666.228	46.16
666.554	46.01
666.881	46.4
667.207	45.94
667.533	46.28
667.859	46.2
668.185	46.39
668.511	46.7
668.837	46.52
669.162	46.23
669.488	46.38
669.814	46.22
670.139	46.52
670.465	46.81
