Data from 0153_crown_Reflection__4__45.txt Node

Date: Fri Sep 22 20:41:13 CDT 2023
User: ToomeyLab
Spectrometer: FLMS14357
Trigger mode: 0
Integration Time (sec): 1.000000E-2
Scans to average: 100
Electric dark correction enabled: true
Nonlinearity correction enabled: false
Boxcar width: 0
XAxis mode: Wavelengths
Number of Pixels in Spectrum: 2048
>>>>>Begin Spectral Data<<<<<
189.047	-127.93
189.435	-127.93
189.823	-127.93
190.211	-410.27
190.599	372.25
190.987	815.71
191.375	283.42
191.763	115.68
192.151	56.22
192.538	87.93
192.926	132.1
193.314	-36.31
193.702	166.73
194.089	168.53
194.477	34.16
194.864	67.87
195.252	136.65
195.639	117.94
196.027	115.39
196.414	141.37
196.801	172.37
197.189	14.25
197.576	5.33
197.963	-53.64
198.351	20.56
198.738	20.01
199.125	-14.19
199.512	29.35
199.899	36.11
200.286	-26.69
200.673	-6.98
201.06	31.56
201.447	15.6
201.833	13.75
202.22	31.59
202.607	69.31
202.994	82.29
203.38	-0.13
203.767	14.37
204.154	20.7
204.54	15.17
204.927	12.9
205.313	16.17
205.699	48.14
206.086	32.88
206.472	44.58
206.858	16.2
207.245	-15.11
207.631	47.86
208.017	13.08
208.403	16.35
208.789	28.9
209.175	60.53
209.561	26.54
209.947	34.58
210.333	53.16
210.719	-5.8
211.105	50.48
211.491	4.67
211.876	32.23
212.262	19.3
212.648	24.46
213.034	19.67
213.419	-0.51
213.805	22.81
214.19	13.24
214.576	20.37
214.961	13.66
215.346	12.36
215.732	24.24
216.117	29.6
216.502	22.01
216.888	13.45
217.273	31.63
217.658	25.76
218.043	11.98
218.428	23.52
218.813	-8.22
219.198	16.44
219.583	34.61
219.968	-9.76
220.353	42.08
220.738	13.73
221.122	27.89
221.507	13.34
221.892	-4.73
222.276	4.04
222.661	-5.07
223.046	17.62
223.43	21.52
223.815	18.57
224.199	5.19
224.583	4.51
224.968	21.85
225.352	6.02
225.736	20.43
226.121	9.23
226.505	15.41
226.889	8.71
227.273	18.07
227.657	12.15
228.041	12.69
228.425	8.35
228.809	7.71
229.193	11.51
229.577	10.31
229.961	12.31
230.344	10.48
230.728	10.46
231.112	10.47
231.495	9.87
231.879	10.32
232.263	9.18
232.646	9.23
233.03	9.14
233.413	10.66
233.797	10.19
234.18	9.53
234.563	14.05
234.946	9.98
235.33	9.69
235.713	10.07
236.096	10.51
236.479	9.4
236.862	11.23
237.245	9.69
237.628	11.17
238.011	11.67
238.394	10.4
238.777	11.79
239.16	9.77
239.543	11.32
239.925	11.53
240.308	9.84
240.691	10.95
241.073	11.11
241.456	10.3
241.838	9.16
242.221	9.66
242.603	9.12
242.986	9.19
243.368	8.34
243.75	9.63
244.133	9.74
244.515	9.21
244.897	8.82
245.279	9.52
245.661	9.13
246.043	9.11
246.425	8.33
246.807	9.2
247.189	8.24
247.571	9.06
247.953	9.79
248.335	9.31
248.717	9.1
249.098	9.11
249.48	8.98
249.862	8.73
250.243	8.74
250.625	9.09
251.006	8.5
251.388	8.87
251.769	9.36
252.151	7.93
252.532	8.83
252.913	8.73
253.295	10
253.676	8.54
254.057	8.9
254.438	8.89
254.819	8.84
255.2	9.15
255.581	9.4
255.962	9
256.343	9.39
256.724	8.42
257.105	9.14
257.486	7.96
257.867	8.62
258.247	8.88
258.628	9.33
259.009	8.21
259.389	8.3
259.77	9.28
260.15	9.69
260.531	8.3
260.911	8.81
261.292	8.24
261.672	7.92
262.052	8.25
262.432	8.11
262.813	8.54
263.193	8.17
263.573	8.38
263.953	7.69
264.333	8.08
264.713	7.83
265.093	8.32
265.473	7.92
265.853	7.59
266.233	8.54
266.612	7.74
266.992	7.59
267.372	8.22
267.752	8.48
268.131	8.03
268.511	8.15
268.89	8.18
269.27	7.57
269.649	7.56
270.029	8.6
270.408	8.14
270.787	7.71
271.167	7.88
271.546	7.19
271.925	8.01
272.304	7.02
272.683	7.82
273.062	8.25
273.441	7.4
273.82	8.27
274.199	7.87
274.578	7.56
274.957	7.45
275.336	7.47
275.715	7.64
276.093	7.72
276.472	7.27
276.851	7.3
277.229	6.88
277.608	8.09
277.986	7.45
278.365	7.59
278.743	7.51
279.122	7.53
279.5	8.31
279.878	7.37
280.257	8.6
280.635	7.71
281.013	7.9
281.391	7.26
281.769	7.44
282.147	6.9
282.525	6.99
282.903	7.73
283.281	7.45
283.659	7.61
284.037	6.92
284.415	7.31
284.792	6.7
285.17	7.34
285.548	7.78
285.925	7.49
286.303	7.33
286.68	6.74
287.058	6.71
287.435	7.12
287.813	7.07
288.19	7.11
288.567	7.31
288.945	7.14
289.322	7.3
289.699	6.9
290.076	7.29
290.453	6.17
290.83	6.51
291.207	7.15
291.584	7.02
291.961	6.57
292.338	6.99
292.715	6.9
293.092	6.91
293.469	6.9
293.845	6.43
294.222	6.99
294.599	6.73
294.975	7.18
295.352	6.9
295.728	6.94
296.105	6.61
296.481	6.86
296.858	6.83
297.234	6.95
297.61	6.57
297.986	6.44
298.363	6.27
298.739	6.11
299.115	6.68
299.491	6.4
299.867	6.65
300.243	6
300.619	6.43
300.995	6.02
301.371	6.49
301.746	6.45
302.122	6.3
302.498	5.94
302.874	6.23
303.249	6.02
303.625	6.22
304	6.45
304.376	6.42
304.751	6.69
305.127	6.69
305.502	6.18
305.878	6.48
306.253	6.57
306.628	6.27
307.003	6.37
307.378	5.9
307.754	6.28
308.129	6.53
308.504	6.55
308.879	6.16
309.254	6.2
309.629	6.62
310.003	6
310.378	6.32
310.753	5.79
311.128	5.88
311.502	6.29
311.877	5.39
312.252	5.82
312.626	6.2
313.001	6.27
313.375	5.95
313.75	5.97
314.124	6.11
314.498	5.71
314.873	5.77
315.247	6.1
315.621	6.26
315.995	5.61
316.369	5.73
316.743	5.48
317.117	5.81
317.491	5.99
317.865	5.47
318.239	5.51
318.613	6.02
318.987	5.89
319.361	5.21
319.734	5.5
320.108	6.28
320.482	5.79
320.855	6.02
321.229	6.52
321.602	5.35
321.976	5.43
322.349	5.54
322.723	6.01
323.096	5.72
323.469	5.36
323.843	5.29
324.216	5.85
324.589	5.62
324.962	5.71
325.335	5.19
325.708	5.76
326.081	6.09
326.454	4.98
326.827	5.28
327.2	5.95
327.573	5.78
327.945	5.46
328.318	5.5
328.691	6.04
329.063	5.29
329.436	5.55
329.809	5.82
330.181	5.48
330.553	5.29
330.926	6.02
331.298	5.88
331.671	5.33
332.043	5.28
332.415	5.14
332.787	6.12
333.159	5.47
333.532	5.43
333.904	5.42
334.276	5.35
334.648	4.87
335.02	5.56
335.391	5.64
335.763	5.2
336.135	5.11
336.507	5.58
336.879	4.91
337.25	5.49
337.622	5.59
337.993	5.66
338.365	5.49
338.736	6.05
339.108	5.33
339.479	5.51
339.851	5.23
340.222	5.38
340.593	5.37
340.964	5.06
341.336	5.01
341.707	5.21
342.078	5.73
342.449	5.52
342.82	5.03
343.191	4.91
343.562	5.48
343.933	5.42
344.303	5.57
344.674	5.59
345.045	5.68
345.416	5.86
345.786	4.98
346.157	5.38
346.527	5.45
346.898	5.2
347.268	4.98
347.639	5.44
348.009	5.05
348.38	5.35
348.75	5.59
349.12	5.27
349.49	5.69
349.861	5.72
350.231	5.66
350.601	5.64
350.971	5.21
351.341	5.16
351.711	5.25
352.081	5.57
352.45	5.4
352.82	5.93
353.19	5.64
353.56	5.25
353.929	5.92
354.299	5.66
354.669	5.66
355.038	5.42
355.408	5.31
355.777	5.75
356.147	5.44
356.516	5.68
356.885	5.42
357.254	5.67
357.624	5.31
357.993	5.8
358.362	5.78
358.731	4.99
359.1	5.54
359.469	5.63
359.838	5.07
360.207	5.59
360.576	5.67
360.945	5.7
361.314	5.6
361.682	5.79
362.051	5.52
362.42	5.39
362.788	5.4
363.157	5.58
363.525	5.44
363.894	5.32
364.262	5.35
364.631	5.61
364.999	5.35
365.367	5.9
365.735	5.55
366.104	5.49
366.472	5.71
366.84	5.68
367.208	5.72
367.576	5.73
367.944	5.45
368.312	5.78
368.68	5.79
369.048	5.56
369.416	5.43
369.783	5.55
370.151	5.4
370.519	5.75
370.886	5.76
371.254	5.68
371.621	5.45
371.989	5.86
372.356	5.51
372.724	6.05
373.091	5.47
373.458	5.91
373.826	5.85
374.193	5.94
374.56	6.12
374.927	5.82
375.294	5.51
375.661	5.82
376.028	5.93
376.395	6.02
376.762	5.7
377.129	5.75
377.496	6.09
377.863	5.93
378.229	5.41
378.596	5.84
378.963	5.8
379.329	5.87
379.696	5.93
380.062	5.5
380.429	5.98
380.795	5.57
381.161	5.72
381.528	5.88
381.894	5.66
382.26	5.72
382.626	5.7
382.993	6.08
383.359	5.69
383.725	5.72
384.091	5.82
384.457	5.81
384.823	5.87
385.188	6.04
385.554	6.26
385.92	6.38
386.286	6.13
386.651	5.97
387.017	6.14
387.383	5.92
387.748	6.06
388.114	6.12
388.479	6.07
388.845	5.8
389.21	5.8
389.575	6.19
389.94	5.87
390.306	6.17
390.671	6.54
391.036	5.64
391.401	6.16
391.766	5.81
392.131	5.81
392.496	6.15
392.861	6.09
393.226	6.08
393.591	6.05
393.956	6.27
394.32	6.24
394.685	6.08
395.05	6.26
395.414	6.13
395.779	6.35
396.143	6.23
396.508	6.28
396.872	6.16
397.236	6.09
397.601	6.12
397.965	6.44
398.329	6.1
398.694	6.16
399.058	6.15
399.422	6.02
399.786	6.31
400.15	6.07
400.514	6.14
400.878	6.4
401.242	6.44
401.605	6.26
401.969	6.2
402.333	6.23
402.697	6.08
403.06	6.1
403.424	6.15
403.787	6.33
404.151	6.12
404.514	6.37
404.878	6.44
405.241	6.67
405.604	6.34
405.968	6.41
406.331	6.23
406.694	6.24
407.057	6.18
407.42	6.35
407.783	6.3
408.146	6.19
408.509	6.25
408.872	6.3
409.235	6.2
409.598	6.45
409.961	6.44
410.323	6.41
410.686	6.48
411.049	6.59
411.411	6.52
411.774	6.42
412.136	6.32
412.499	6.3
412.861	6.43
413.223	6.57
413.586	6.34
413.948	6.43
414.31	6.18
414.672	6.42
415.035	6.51
415.397	6.79
415.759	6.58
416.121	6.48
416.483	6.54
416.845	6.32
417.206	6.51
417.568	6.47
417.93	6.21
418.292	6.49
418.653	6.35
419.015	6.49
419.377	6.36
419.738	6.5
420.1	6.42
420.461	6.5
420.822	6.42
421.184	6.39
421.545	6.41
421.906	6.43
422.267	6.46
422.629	6.53
422.99	6.38
423.351	6.28
423.712	6.29
424.073	6.36
424.434	6.41
424.795	6.42
425.155	6.56
425.516	6.41
425.877	6.5
426.238	6.3
426.598	6.35
426.959	6.5
427.32	6.49
427.68	6.5
428.041	6.49
428.401	6.58
428.761	6.62
429.122	6.65
429.482	6.67
429.842	6.59
430.202	6.56
430.563	6.82
430.923	6.69
431.283	6.81
431.643	6.76
432.003	6.85
432.363	6.88
432.722	6.72
433.082	6.53
433.442	6.67
433.802	6.79
434.161	6.71
434.521	6.76
434.881	6.78
435.24	6.57
435.6	6.61
435.959	6.68
436.319	6.56
436.678	6.83
437.037	6.76
437.396	6.84
437.756	6.72
438.115	6.78
438.474	6.64
438.833	6.9
439.192	6.77
439.551	6.79
439.91	6.85
440.269	6.76
440.628	6.69
440.987	6.71
441.345	6.9
441.704	6.79
442.063	6.74
442.421	6.78
442.78	6.74
443.138	6.83
443.497	6.69
443.855	6.85
444.214	6.77
444.572	6.97
444.93	6.91
445.288	6.96
445.647	6.85
446.005	6.91
446.363	6.85
446.721	6.95
447.079	6.65
447.437	6.76
447.795	6.96
448.153	6.76
448.51	6.69
448.868	6.75
449.226	6.79
449.584	6.83
449.941	6.82
450.299	6.9
450.656	6.96
451.014	6.94
451.371	6.96
451.729	7
452.086	6.94
452.443	7.06
452.801	6.9
453.158	6.98
453.515	7.03
453.872	6.93
454.229	6.89
454.586	7.17
454.943	6.89
455.3	6.99
455.657	7.01
456.014	6.87
456.371	7.09
456.727	7.2
457.084	6.95
457.441	6.96
457.797	7.04
458.154	7.19
458.51	6.95
458.867	7.07
459.223	7.11
459.58	7.19
459.936	7.23
460.292	7.13
460.648	7.13
461.005	7.1
461.361	7.11
461.717	6.85
462.073	6.99
462.429	6.78
462.785	6.93
463.141	7.02
463.496	7.21
463.852	7.08
464.208	7.02
464.564	7.16
464.919	7.12
465.275	7.25
465.631	7.39
465.986	7.19
466.342	7.31
466.697	7.23
467.052	7.18
467.408	7.18
467.763	7.22
468.118	7.26
468.473	7.21
468.829	7.1
469.184	7.08
469.539	7.14
469.894	7.2
470.249	7.16
470.603	7.16
470.958	7.23
471.313	7.21
471.668	7.26
472.023	7.28
472.377	7.19
472.732	7.12
473.086	7.33
473.441	7.1
473.795	7.38
474.15	7.14
474.504	7.18
474.859	7.5
475.213	7.07
475.567	7.16
475.921	7.17
476.275	7.14
476.63	7.15
476.984	7.23
477.338	7.09
477.692	7.37
478.045	7.3
478.399	7.27
478.753	7.25
479.107	7.26
479.461	7.15
479.814	7.33
480.168	7.27
480.521	7.23
480.875	7.32
481.228	7.19
481.582	7.29
481.935	7.32
482.289	7.17
482.642	7.14
482.995	7.2
483.348	7.15
483.701	7.23
484.055	7.1
484.408	7.13
484.761	7.14
485.114	7.04
485.466	6.91
485.819	6.88
486.172	6.78
486.525	6.81
486.878	6.88
487.23	6.91
487.583	6.98
487.936	7.04
488.288	7.14
488.641	7.13
488.993	6.96
489.345	6.95
489.698	6.96
490.05	6.96
490.402	6.96
490.754	6.92
491.107	6.96
491.459	7.1
491.811	7.16
492.163	7.2
492.515	7.14
492.866	7.16
493.218	7.19
493.57	7.06
493.922	7
494.274	7.02
494.625	7.02
494.977	7.07
495.328	7.24
495.68	7.13
496.031	7.11
496.383	7.38
496.734	7.37
497.086	7.34
497.437	7.38
497.788	7.31
498.139	7.36
498.49	7.26
498.842	7.17
499.193	7.11
499.544	7.33
499.894	7.24
500.245	7.28
500.596	7.26
500.947	7.23
501.298	7.36
501.648	7.41
501.999	7.32
502.35	7.39
502.7	7.39
503.051	7.32
503.401	7.43
503.752	7.28
504.102	7.38
504.452	7.39
504.803	7.41
505.153	7.31
505.503	7.37
505.853	7.47
506.203	7.3
506.553	7.37
506.903	7.32
507.253	7.27
507.603	7.29
507.953	7.44
508.303	7.33
508.652	7.31
509.002	7.41
509.352	7.16
509.701	7.43
510.051	7.37
510.4	7.33
510.75	7.26
511.099	7.04
511.449	7.35
511.798	7.26
512.147	7.34
512.496	7.33
512.846	7.28
513.195	7.25
513.544	7.28
513.893	7.26
514.242	7.18
514.591	7.25
514.939	7.32
515.288	7.29
515.637	7.3
515.986	7.24
516.334	7.3
516.683	7.27
517.032	7.25
517.38	7.31
517.729	7.27
518.077	7.43
518.426	7.42
518.774	7.37
519.122	7.28
519.47	7.22
519.819	7.23
520.167	7.27
520.515	7.27
520.863	7.15
521.211	7.15
521.559	7.22
521.907	7.27
522.255	7.29
522.602	7.3
522.95	7.28
523.298	7.34
523.645	7.38
523.993	7.21
524.341	7.17
524.688	7.29
525.036	7.34
525.383	7.37
525.73	7.36
526.078	7.28
526.425	7.29
526.772	7.25
527.119	7.24
527.466	7.07
527.814	7.07
528.161	6.99
528.508	7.12
528.854	7.14
529.201	7.17
529.548	7.13
529.895	7.12
530.242	6.91
530.588	6.86
530.935	6.82
531.282	6.92
531.628	6.95
531.975	6.95
532.321	6.98
532.667	7.06
533.014	7.09
533.36	7.11
533.706	7.18
534.052	7.23
534.399	7.19
534.745	7.15
535.091	7.01
535.437	6.95
535.783	6.95
536.129	6.91
536.474	7.07
536.82	6.96
537.166	7.08
537.512	7
537.857	7.16
538.203	7.15
538.549	6.94
538.894	7
539.239	6.97
539.585	7.01
539.93	7.14
540.276	7.19
540.621	7.08
540.966	7.07
541.311	7.25
541.656	7.14
542.001	7.14
542.346	7.09
542.691	7.03
543.036	6.89
543.381	6.81
543.726	6.88
544.071	6.87
544.415	6.89
544.76	6.88
545.105	6.9
545.449	6.91
545.794	7.04
546.138	7.09
546.483	7.08
546.827	7
547.171	7.07
547.516	7.1
547.86	7.19
548.204	7.08
548.548	7.08
548.892	7.02
549.236	6.9
549.58	7
549.924	7.08
550.268	7.17
550.612	7.05
550.956	7.13
551.3	7.16
551.643	7.2
551.987	7.15
552.33	7.29
552.674	6.91
553.017	6.99
553.361	6.99
553.704	7.14
554.048	7.13
554.391	7.06
554.734	7
555.077	7.05
555.42	6.93
555.764	7.05
556.107	7.05
556.45	6.97
556.793	6.99
557.135	7.13
557.478	6.92
557.821	7.03
558.164	7.12
558.507	7.11
558.849	6.94
559.192	6.99
559.534	7.19
559.877	7.06
560.219	7.05
560.562	7.09
560.904	7.08
561.246	7.03
561.589	7
561.931	7
562.273	6.93
562.615	7.03
562.957	6.89
563.299	7.1
563.641	7.03
563.983	7.12
564.325	7.01
564.667	7.01
565.008	6.89
565.35	7.12
565.692	6.95
566.033	7.12
566.375	6.83
566.716	6.93
567.058	6.91
567.399	6.95
567.741	7.07
568.082	6.89
568.423	6.86
568.764	7.09
569.105	6.75
569.447	6.91
569.788	6.8
570.129	7.02
570.47	7.05
570.811	6.87
571.151	6.94
571.492	6.83
571.833	6.89
572.174	6.71
572.514	6.88
572.855	6.77
573.195	6.7
573.536	6.8
573.876	6.82
574.217	6.79
574.557	6.71
574.898	6.87
575.238	6.63
575.578	6.94
575.918	6.9
576.258	6.7
576.598	6.83
576.938	6.75
577.278	6.95
577.618	6.64
577.958	6.77
578.298	6.87
578.638	6.73
578.977	6.83
579.317	6.75
579.657	6.8
579.996	6.61
580.336	6.81
580.675	7.07
581.014	6.68
581.354	6.79
581.693	6.72
582.032	6.67
582.372	7.14
582.711	6.91
583.05	6.78
583.389	6.89
583.728	6.61
584.067	6.83
584.406	6.61
584.745	6.58
585.083	6.91
585.422	6.75
585.761	6.71
586.1	6.81
586.438	6.67
586.777	6.6
587.115	6.69
587.454	6.68
587.792	6.92
588.13	6.64
588.469	6.88
588.807	6.64
589.145	6.91
589.483	6.63
589.821	6.54
590.159	6.76
590.497	6.75
590.835	6.9
591.173	6.74
591.511	6.52
591.849	6.76
592.187	6.58
592.524	6.64
592.862	6.75
593.2	6.51
593.537	6.54
593.875	6.66
594.212	6.71
594.55	6.93
594.887	6.45
595.224	6.44
595.561	6.77
595.899	6.71
596.236	6.66
596.573	6.76
596.91	6.46
597.247	6.51
597.584	6.75
597.921	6.78
598.258	6.47
598.594	6.48
598.931	6.52
599.268	6.41
599.604	6.53
599.941	6.55
600.277	6.51
600.614	6.29
600.95	6.5
601.287	6.54
601.623	6.36
601.959	6.59
602.296	6.65
602.632	6.33
602.968	6.57
603.304	6.57
603.64	6.56
603.976	6.76
604.312	6.6
604.648	6.34
604.984	6.6
605.319	6.3
605.655	6.45
605.991	6.53
606.326	6.52
606.662	6.3
606.998	6.19
607.333	6.35
607.668	6.42
608.004	6.48
608.339	6.29
608.674	6.46
609.01	6.5
609.345	6.29
609.68	6.33
610.015	6.41
610.35	6.41
610.685	6.57
611.02	6.42
611.355	6.42
611.689	6.29
612.024	6.52
612.359	6.42
612.694	6.46
613.028	6.39
613.363	6.25
613.697	6.04
614.032	6.41
614.366	6.18
614.7	6.38
615.035	6.45
615.369	6.08
615.703	6.31
616.037	6.39
616.371	6.49
616.705	6.63
617.039	6.5
617.373	6.24
617.707	6.41
618.041	6.66
618.375	6.46
618.709	6.29
619.042	6.34
619.376	6.61
619.71	6.21
620.043	5.92
620.377	6.07
620.71	6.23
621.043	6.53
621.377	6.16
621.71	6.27
622.043	6.33
622.376	6.54
622.709	6.31
623.043	6.35
623.376	6.67
623.709	6.16
624.041	6.49
624.374	6.11
624.707	6.68
625.04	6.5
625.373	5.87
625.705	6.25
626.038	6.19
626.37	6.53
626.703	6.21
627.035	6.28
627.368	6.29
627.7	6.57
628.032	6.25
628.365	6
628.697	6.31
629.029	6.28
629.361	6.22
629.693	6.45
630.025	5.88
630.357	5.92
630.689	6.21
631.021	5.95
631.353	5.8
631.684	6.29
632.016	6.31
632.348	6.23
632.679	6.03
633.011	6.04
633.342	6.6
633.674	6.09
634.005	6.05
634.336	6.35
634.668	6.25
634.999	6.23
635.33	6.56
635.661	6.22
635.992	6.23
636.323	6.31
636.654	6.33
636.985	6.26
637.316	6.16
637.647	6.31
637.977	5.73
638.308	6.1
638.639	6.12
638.969	5.9
639.3	6.08
639.63	6.49
639.961	5.99
640.291	6.17
640.622	6.11
640.952	6.35
641.282	6.39
641.612	6.09
641.943	6.14
642.273	6.26
642.603	6.12
642.933	5.87
643.263	5.55
643.592	6.09
643.922	6.23
644.252	6.05
644.582	6.47
644.911	5.85
645.241	6.24
645.571	6.04
645.9	6.1
646.23	6.64
646.559	6.44
646.888	6.17
647.218	5.85
647.547	5.95
647.876	6.13
648.205	6.25
648.534	6.28
648.863	6.21
649.192	5.38
649.521	6.24
649.85	6.05
650.179	5.74
650.508	6.17
650.837	6.55
651.165	6.29
651.494	5.87
651.822	6.15
652.151	6.11
652.479	6.35
652.808	5.9
653.136	6.46
653.465	5.97
653.793	5.89
654.121	6.67
654.449	5.86
654.777	5.8
655.105	6.32
655.433	6.09
655.761	6.46
656.089	6.24
656.417	5.79
656.745	6.24
657.073	6.31
657.4	6.67
657.728	6.17
658.056	6.58
658.383	5.96
658.711	5.77
659.038	6.22
659.365	6.37
659.693	5.56
660.02	5.75
660.347	6.05
660.674	5.91
661.001	5.7
661.329	6.03
661.656	6.12
661.982	5.96
662.309	6.55
662.636	6.17
662.963	6.03
663.29	6.34
663.616	5.53
663.943	6.5
664.27	6.05
664.596	6.14
664.923	6.01
665.249	6.04
665.576	5.68
665.902	6.21
666.228	5.84
666.554	5.57
666.881	7.03
667.207	6.23
667.533	6.5
667.859	5.9
668.185	6.59
668.511	6.03
668.837	5.91
669.162	6.38
669.488	5.89
669.814	6.43
670.139	5.85
670.465	6.45
670.791	6.04
671.116	5.94
671.442	6.43
671.767	5.99
672.092	6.16
672.418	6.43
672.743	6.43
673.068	5.99
673.393	6.07
673.718	6.49
674.043	6.21
674.368	6.7
674.693	5.4
675.018	5.96
675.343	6.35
675.667	5.88
675.992	6.06
676.317	6.55
676.641	5.76
676.966	5.92
677.29	5.67
677.615	6.12
677.939	6.6
678.264	5.93
678.588	6.91
678.912	6.69
679.236	6.92
679.56	6
679.885	5.92
680.209	6.13
680.532	6.1
680.856	6.16
681.18	6.19
681.504	6.53
681.828	6
682.152	6.09
682.475	6.67
682.799	6.23
683.122	5.95
683.446	6.19
683.769	6.06
684.093	6.63
684.416	6.24
684.739	5.96
685.062	7.09
685.386	6.26
685.709	5.55
686.032	5.97
686.355	5.88
686.678	6.56
687.001	5.46
687.324	6.88
687.646	6.31
687.969	6.58
688.292	6.22
688.614	6.62
688.937	5.97
689.26	5.09
689.582	6.34
689.904	6.07
690.227	6.62
690.549	6.22
690.871	6.25
691.194	6.3
691.516	6.39
691.838	6.67
692.16	5.31
692.482	6.57
