Data from 0153_chest_Reflection__1__37.txt Node

Date: Fri Sep 22 20:38:17 CDT 2023
User: ToomeyLab
Spectrometer: FLMS14357
Trigger mode: 0
Integration Time (sec): 1.000000E-2
Scans to average: 100
Electric dark correction enabled: true
Nonlinearity correction enabled: false
Boxcar width: 0
XAxis mode: Wavelengths
Number of Pixels in Spectrum: 2048
>>>>>Begin Spectral Data<<<<<
189.047	-51.78
189.435	-51.78
189.823	-51.78
190.211	440.7
190.599	751.92
190.987	400
191.375	112.72
191.763	73.82
192.151	103.92
192.538	-11.16
192.926	82.32
193.314	-6.15
193.702	105.83
194.089	164.61
194.477	192.87
194.864	226.44
195.252	159.57
195.639	106.64
196.027	-126.18
196.414	263.55
196.801	39.52
197.189	-6.17
197.576	80.69
197.963	-40.35
198.351	19.35
198.738	35.66
199.125	54.52
199.512	-6.79
199.899	33.99
200.286	36.78
200.673	-20.88
201.06	24.23
201.447	21.27
201.833	-17.03
202.22	47.55
202.607	40.68
202.994	29.22
203.38	41.72
203.767	17.78
204.154	40.68
204.54	44.88
204.927	15.36
205.313	27.26
205.699	42.37
206.086	34.47
206.472	54.52
206.858	20.09
207.245	-9.54
207.631	26.71
208.017	7.19
208.403	19.16
208.789	12.82
209.175	31.09
209.561	24.76
209.947	37.01
210.333	42.85
210.719	-14.21
211.105	68.76
211.491	17.75
211.876	50.97
212.262	13.44
212.648	10.82
213.034	23.86
213.419	7.23
213.805	13.63
214.19	-4.53
214.576	40.27
214.961	22.43
215.346	10.47
215.732	35.55
216.117	18.11
216.502	22.92
216.888	6.76
217.273	30.52
217.658	17.83
218.043	20.86
218.428	30.76
218.813	-4.4
219.198	7.36
219.583	17.92
219.968	5.6
220.353	34.34
220.738	13.35
221.122	-2.18
221.507	-4.69
221.892	4.29
222.276	22.7
222.661	-6.43
223.046	18.77
223.43	18.72
223.815	9.5
224.199	-6.81
224.583	3.69
224.968	8.92
225.352	2.69
225.736	7.29
226.121	6.93
226.505	8.91
226.889	9.74
227.273	3.43
227.657	7.7
228.041	5.07
228.425	7.26
228.809	2.86
229.193	3.12
229.577	5.64
229.961	4.57
230.344	5.85
230.728	2.73
231.112	4.33
231.495	4.04
231.879	4.18
232.263	1.97
232.646	2.05
233.03	4.37
233.413	4.12
233.797	4.58
234.18	3.11
234.563	3.96
234.946	7.55
235.33	3.05
235.713	4.55
236.096	2.44
236.479	2.94
236.862	4.88
237.245	3.75
237.628	4.89
238.011	5.83
238.394	5.16
238.777	5.27
239.16	5.25
239.543	5.44
239.925	5.77
240.308	4.8
240.691	4.98
241.073	5.4
241.456	5.41
241.838	3.78
242.221	4.16
242.603	3.9
242.986	3.98
243.368	3.52
243.75	4
244.133	4.29
244.515	3.74
244.897	3.4
245.279	3.94
245.661	4.32
246.043	4.31
246.425	2.62
246.807	3.53
247.189	3.08
247.571	4.65
247.953	4.27
248.335	4.49
248.717	3.64
249.098	3.8
249.48	3.61
249.862	3.75
250.243	3.71
250.625	3.93
251.006	3.52
251.388	4.25
251.769	4.37
252.151	4.02
252.532	4.61
252.913	4.59
253.295	4.92
253.676	4.74
254.057	3.82
254.438	4.16
254.819	3.5
255.2	3.98
255.581	4.21
255.962	4.73
256.343	4.6
256.724	2.15
257.105	4.19
257.486	3.6
257.867	3.93
258.247	4.32
258.628	4.48
259.009	3.55
259.389	3.6
259.77	4.47
260.15	4.48
260.531	3.81
260.911	3.65
261.292	3.43
261.672	3.47
262.052	3.56
262.432	3.72
262.813	3.7
263.193	3.49
263.573	4.21
263.953	4.33
264.333	4.09
264.713	3.87
265.093	3.48
265.473	3.62
265.853	3.13
266.233	3.8
266.612	3.52
266.992	4.53
267.372	3.43
267.752	4.25
268.131	3.86
268.511	3.65
268.89	3.89
269.27	3.39
269.649	4.14
270.029	3.93
270.408	3.41
270.787	3.7
271.167	3.31
271.546	3.63
271.925	3.4
272.304	3.89
272.683	3.78
273.062	3.97
273.441	3.77
273.82	4.29
274.199	3.74
274.578	3.94
274.957	3.58
275.336	3.61
275.715	3.9
276.093	3.21
276.472	3.77
276.851	3.36
277.229	2.92
277.608	3.86
277.986	3.65
278.365	4.08
278.743	3.57
279.122	3.79
279.5	4.17
279.878	3.73
280.257	3.86
280.635	3.26
281.013	4.03
281.391	3.1
281.769	3.35
282.147	3.79
282.525	3.67
282.903	4.1
283.281	3.76
283.659	3.73
284.037	3.74
284.415	3.52
284.792	3.46
285.17	3.84
285.548	4.14
285.925	3.59
286.303	3.49
286.68	3.42
287.058	3.84
287.435	3.78
287.813	3.33
288.19	3.18
288.567	3.68
288.945	3.13
289.322	3.83
289.699	3.41
290.076	3.82
290.453	3.37
290.83	2.96
291.207	3.42
291.584	3.72
291.961	3.35
292.338	3.41
292.715	4.16
293.092	3.8
293.469	3.8
293.845	3.86
294.222	3.64
294.599	4.03
294.975	3.93
295.352	3.92
295.728	3.66
296.105	4.35
296.481	3.91
296.858	3.66
297.234	3.41
297.61	3.41
297.986	4.03
298.363	3.49
298.739	4.25
299.115	3.74
299.491	3.83
299.867	3.8
300.243	3.64
300.619	3.98
300.995	3.7
301.371	3.96
301.746	3.88
302.122	3.55
302.498	3.24
302.874	3.76
303.249	3.66
303.625	3.92
304	4.07
304.376	4.13
304.751	3.7
305.127	3.45
305.502	4.15
305.878	3.85
306.253	3.75
306.628	3.48
307.003	3.82
307.378	3.78
307.754	3.71
308.129	4.22
308.504	3.95
308.879	4.13
309.254	4.09
309.629	3.91
310.003	4.21
310.378	4.46
310.753	4.43
311.128	4.02
311.502	3.98
311.877	3.67
312.252	3.84
312.626	3.83
313.001	4.28
313.375	3.8
313.75	4.28
314.124	4.3
314.498	3.67
314.873	3.75
315.247	4.09
315.621	4.07
315.995	4.3
316.369	4.08
316.743	3.91
317.117	4.57
317.491	4.49
317.865	3.68
318.239	3.55
318.613	4.28
318.987	4.12
319.361	3.77
319.734	4.1
320.108	4.73
320.482	4.22
320.855	4.1
321.229	4.39
321.602	4.41
321.976	3.68
322.349	3.89
322.723	4.48
323.096	3.27
323.469	3.82
323.843	4.29
324.216	4.02
324.589	3.96
324.962	3.86
325.335	3.49
325.708	3.72
326.081	4.32
326.454	4.17
326.827	3.97
327.2	4.52
327.573	4.36
327.945	4.17
328.318	3.96
328.691	4.2
329.063	3.82
329.436	4.2
329.809	4.28
330.181	4.28
330.553	3.86
330.926	4.38
331.298	4.36
331.671	4.66
332.043	3.61
332.415	3.81
332.787	4.71
333.159	4.32
333.532	3.8
333.904	4.35
334.276	3.78
334.648	3.82
335.02	3.87
335.391	4
335.763	4.26
336.135	4.04
336.507	4.38
336.879	3.82
337.25	3.74
337.622	4.38
337.993	4.36
338.365	4.1
338.736	4.28
339.108	4.34
339.479	4.13
339.851	3.92
340.222	3.86
340.593	4.06
340.964	3.8
341.336	3.77
341.707	3.99
342.078	4.6
342.449	4.43
342.82	4.16
343.191	3.73
343.562	3.71
343.933	3.74
344.303	4.22
344.674	4.19
345.045	3.99
345.416	4.3
345.786	4.03
346.157	3.83
346.527	4.01
346.898	3.82
347.268	4.02
347.639	4.3
348.009	3.55
348.38	4.59
348.75	4.4
349.12	3.87
349.49	4.11
349.861	3.81
350.231	4.56
350.601	4.06
350.971	4.22
351.341	3.79
351.711	4.08
352.081	4.06
352.45	3.93
352.82	4.39
353.19	4.05
353.56	3.93
353.929	4.11
354.299	4.2
354.669	4.07
355.038	3.98
355.408	3.97
355.777	4.5
356.147	4.39
356.516	4.49
356.885	4.05
357.254	4.14
357.624	3.9
357.993	4.02
358.362	4.13
358.731	3.95
359.1	4.15
359.469	4.26
359.838	3.74
360.207	4
360.576	4.15
360.945	4.28
361.314	4.16
361.682	4.36
362.051	4.42
362.42	4.03
362.788	3.9
363.157	4.28
363.525	4.1
363.894	4.01
364.262	4.15
364.631	4.11
364.999	3.92
365.367	4.48
365.735	4.26
366.104	4.29
366.472	4.34
366.84	4.13
367.208	4.29
367.576	4.05
367.944	4.03
368.312	4.36
368.68	4.13
369.048	4.27
369.416	3.89
369.783	4.08
370.151	4.24
370.519	4.12
370.886	4.3
371.254	4.21
371.621	4.15
371.989	4.18
372.356	4.19
372.724	4.26
373.091	4.1
373.458	4.36
373.826	4.4
374.193	4.35
374.56	4.31
374.927	4.31
375.294	4.14
375.661	4.1
376.028	4.3
376.395	4.23
376.762	3.82
377.129	4.41
377.496	4.56
377.863	4.15
378.229	4.25
378.596	4.24
378.963	4.63
379.329	4.24
379.696	4.39
380.062	4.11
380.429	4.23
380.795	4.15
381.161	4.2
381.528	4.21
381.894	3.98
382.26	4.39
382.626	4.25
382.993	4.69
383.359	4.05
383.725	4.34
384.091	4.32
384.457	4.2
384.823	4.16
385.188	4.43
385.554	4.21
385.92	4.74
386.286	4.45
386.651	4.13
387.017	4.23
387.383	4.25
387.748	4.15
388.114	4.12
388.479	4.45
388.845	4.27
389.21	4.17
389.575	4.4
389.94	3.98
390.306	4.32
390.671	4.87
391.036	4.01
391.401	4.24
391.766	4.41
392.131	4.19
392.496	4.22
392.861	4.3
393.226	4.65
393.591	4.47
393.956	4.33
394.32	4.33
394.685	4.19
395.05	4.41
395.414	4.31
395.779	4.29
396.143	4.45
396.508	4.37
396.872	4.33
397.236	4.27
397.601	4.24
397.965	4.5
398.329	4.35
398.694	4.46
399.058	4.28
399.422	4.34
399.786	4.47
400.15	4.7
400.514	4.4
400.878	4.37
401.242	4.35
401.605	4.48
401.969	4.01
402.333	4.2
402.697	4.18
403.06	4.42
403.424	4.49
403.787	4.27
404.151	4.64
404.514	4.26
404.878	4.54
405.241	4.71
405.604	4.43
405.968	4.63
406.331	4.31
406.694	4.21
407.057	4.08
407.42	4.41
407.783	4.44
408.146	4.37
408.509	4.18
408.872	4.49
409.235	4.33
409.598	4.36
409.961	4.55
410.323	4.59
410.686	4.6
411.049	4.3
411.411	4.68
411.774	4.36
412.136	4.41
412.499	4.43
412.861	4.37
413.223	4.36
413.586	4.52
413.948	4.36
414.31	4.36
414.672	4.35
415.035	4.22
415.397	4.62
415.759	4.67
416.121	4.35
416.483	4.53
416.845	4.39
417.206	4.37
417.568	4.23
417.93	4.37
418.292	4.46
418.653	4.45
419.015	4.47
419.377	4.23
419.738	4.39
420.1	4.29
420.461	4.47
420.822	4.4
421.184	4.26
421.545	4.47
421.906	4.31
422.267	4.28
422.629	4.38
422.99	4.29
423.351	4.3
423.712	4.28
424.073	4.32
424.434	4.38
424.795	4.37
425.155	4.38
425.516	4.35
425.877	4.35
426.238	4.31
426.598	4.27
426.959	4.37
427.32	4.45
427.68	4.32
428.041	4.3
428.401	4.58
428.761	4.6
429.122	4.55
429.482	4.41
429.842	4.37
430.202	4.52
430.563	4.6
430.923	4.71
431.283	4.61
431.643	4.55
432.003	4.62
432.363	4.86
432.722	4.71
433.082	4.68
433.442	4.72
433.802	4.73
434.161	4.52
434.521	4.58
434.881	4.65
435.24	4.51
435.6	4.49
435.959	4.5
436.319	4.57
436.678	4.72
437.037	4.7
437.396	4.58
437.756	4.6
438.115	4.56
438.474	4.62
438.833	4.79
439.192	4.67
439.551	4.63
439.91	4.65
440.269	4.72
440.628	4.61
440.987	4.77
441.345	4.68
441.704	4.68
442.063	4.56
442.421	4.53
442.78	4.71
443.138	4.68
443.497	4.56
443.855	4.67
444.214	4.49
444.572	4.76
444.93	4.7
445.288	4.62
445.647	4.64
446.005	4.67
446.363	4.67
446.721	4.68
447.079	4.68
447.437	4.67
447.795	4.77
448.153	4.61
448.51	4.66
448.868	4.6
449.226	4.64
449.584	4.65
449.941	4.65
450.299	4.73
450.656	4.86
451.014	4.78
451.371	4.79
451.729	4.76
452.086	4.86
452.443	4.9
452.801	4.86
453.158	4.88
453.515	4.96
453.872	4.86
454.229	4.88
454.586	4.86
454.943	4.76
455.3	4.77
455.657	4.88
456.014	5
456.371	5.03
456.727	4.94
457.084	4.9
457.441	4.75
457.797	5.02
458.154	4.86
458.51	4.82
458.867	4.98
459.223	4.87
459.58	4.95
459.936	4.99
460.292	5.01
460.648	5.02
461.005	4.98
461.361	4.93
461.717	4.77
462.073	4.83
462.429	4.71
462.785	4.75
463.141	4.97
463.496	4.99
463.852	5.08
464.208	4.87
464.564	5.12
464.919	4.93
465.275	5.18
465.631	5.09
465.986	5.07
466.342	5.14
466.697	5.09
467.052	5.02
467.408	5.02
467.763	5.07
468.118	5.25
468.473	5.03
468.829	4.95
469.184	5.03
469.539	5.18
469.894	5.02
470.249	5.11
470.603	5.06
470.958	5.05
471.313	5.2
471.668	5.15
472.023	5.2
472.377	5.24
472.732	5.04
473.086	5.24
473.441	5.03
473.795	5.47
474.15	5.04
474.504	5.05
474.859	5.29
475.213	4.94
475.567	5.15
475.921	5.17
476.275	5.25
476.63	5.1
476.984	5.12
477.338	5.29
477.692	5.2
478.045	5.28
478.399	5.12
478.753	5.23
479.107	5.07
479.461	5.21
479.814	5.39
480.168	5.25
480.521	5.27
480.875	5.33
481.228	5.14
481.582	5.21
481.935	5.22
482.289	5.26
482.642	5.1
482.995	5.25
483.348	5.24
483.701	5.18
484.055	5.16
484.408	5.17
484.761	5.18
485.114	5.08
485.466	5
485.819	4.92
486.172	4.89
486.525	4.87
486.878	4.98
487.23	4.98
487.583	5.12
487.936	5.2
488.288	5.16
488.641	5.18
488.993	5.04
489.345	5.07
489.698	5.08
490.05	5.03
490.402	5.06
490.754	5.01
491.107	5.08
491.459	5.2
491.811	5.27
492.163	5.3
492.515	5.28
492.866	5.31
493.218	5.27
493.57	5.23
493.922	5.08
494.274	5.09
494.625	5.21
494.977	5.27
495.328	5.46
495.68	5.4
496.031	5.4
496.383	5.49
496.734	5.49
497.086	5.46
497.437	5.48
497.788	5.52
498.139	5.57
498.49	5.49
498.842	5.36
499.193	5.43
499.544	5.62
499.894	5.45
500.245	5.56
500.596	5.55
500.947	5.58
501.298	5.63
501.648	5.65
501.999	5.67
502.35	5.6
502.7	5.62
503.051	5.67
503.401	5.72
503.752	5.66
504.102	5.68
504.452	5.58
504.803	5.67
505.153	5.66
505.503	5.63
505.853	5.82
506.203	5.69
506.553	5.75
506.903	5.67
507.253	5.62
507.603	5.74
507.953	5.93
508.303	5.77
508.652	5.79
509.002	5.78
509.352	5.69
509.701	5.84
510.051	5.81
510.4	5.84
510.75	5.78
511.099	5.67
511.449	5.84
511.798	5.82
512.147	5.78
512.496	5.79
512.846	5.83
513.195	5.75
513.544	5.95
513.893	5.94
514.242	5.85
514.591	5.89
514.939	5.93
515.288	5.88
515.637	5.9
515.986	5.88
516.334	6
516.683	5.91
517.032	6.02
517.38	6.02
517.729	6.03
518.077	5.97
518.426	6.03
518.774	6.04
519.122	6.06
519.47	5.96
519.819	5.95
520.167	6.04
520.515	5.9
520.863	5.91
521.211	5.93
521.559	5.96
521.907	5.97
522.255	6
522.602	6.12
522.95	6.01
523.298	6.14
523.645	6.25
523.993	6.14
524.341	6.12
524.688	6.2
525.036	6.16
525.383	6.16
525.73	6.19
526.078	6.22
526.425	6.21
526.772	6.34
527.119	6.17
527.466	6.04
527.814	6.05
528.161	6.03
528.508	6.09
528.854	6.2
529.201	6.17
529.548	6.21
529.895	6.08
530.242	6.08
530.588	6.06
530.935	5.95
531.282	5.95
531.628	6.11
531.975	6.09
532.321	6.15
532.667	6.18
533.014	6.29
533.36	6.33
533.706	6.31
534.052	6.41
534.399	6.4
534.745	6.42
535.091	6.28
535.437	6.23
535.783	6.2
536.129	6.35
536.474	6.45
536.82	6.4
537.166	6.6
537.512	6.54
537.857	6.62
538.203	6.65
538.549	6.49
538.894	6.53
539.239	6.47
539.585	6.53
539.93	6.72
540.276	6.66
540.621	6.67
540.966	6.79
541.311	6.77
541.656	6.74
542.001	6.79
542.346	6.79
542.691	6.66
543.036	6.7
543.381	6.59
543.726	6.52
544.071	6.57
544.415	6.61
544.76	6.62
545.105	6.67
545.449	6.75
545.794	6.78
546.138	6.84
546.483	6.87
546.827	6.88
547.171	6.93
547.516	7.14
547.86	7.13
548.204	7.06
548.548	6.96
548.892	7.03
549.236	6.98
549.58	7.07
549.924	7.11
550.268	7.23
550.612	7.22
550.956	7.17
551.3	7.28
551.643	7.37
551.987	7.38
552.33	7.49
552.674	7.4
553.017	7.42
553.361	7.52
553.704	7.53
554.048	7.46
554.391	7.47
554.734	7.56
555.077	7.39
555.42	7.47
555.764	7.49
556.107	7.62
556.45	7.35
556.793	7.49
557.135	7.74
557.478	7.55
557.821	7.72
558.164	7.75
558.507	7.92
558.849	7.76
559.192	7.87
559.534	7.94
559.877	7.79
560.219	8.01
560.562	8.01
560.904	7.98
561.246	8.12
561.589	8.1
561.931	7.95
562.273	7.83
562.615	7.85
562.957	7.86
563.299	8.06
563.641	8.08
563.983	8.28
564.325	8.03
564.667	8.25
565.008	8.15
565.35	8.22
565.692	8.31
566.033	8.19
566.375	8.31
566.716	8.32
567.058	8.29
567.399	8.35
567.741	8.48
568.082	8.19
568.423	8.33
568.764	8.33
569.105	8.28
569.447	8.39
569.788	8.23
570.129	8.52
570.47	8.65
570.811	8.51
571.151	8.56
571.492	8.34
571.833	8.44
572.174	8.73
572.514	8.72
572.855	8.72
573.195	8.65
573.536	8.7
573.876	8.55
574.217	8.62
574.557	8.71
574.898	8.81
575.238	8.84
575.578	8.84
575.918	8.91
576.258	8.82
576.598	8.83
576.938	8.84
577.278	9.1
577.618	8.96
577.958	8.99
578.298	9.15
578.638	9.06
578.977	9.16
579.317	9.08
579.657	9.22
579.996	9.2
580.336	9.31
580.675	9.48
581.014	9.15
581.354	9.15
581.693	9.41
582.032	9.57
582.372	9.49
582.711	9.51
583.05	9.41
583.389	9.47
583.728	9.56
584.067	9.46
584.406	9.62
584.745	9.31
585.083	9.75
585.422	9.94
585.761	9.68
586.1	9.77
586.438	9.71
586.777	9.77
587.115	9.92
587.454	9.71
587.792	10.06
588.13	9.98
588.469	9.92
588.807	10.09
589.145	10.21
589.483	9.86
589.821	9.84
590.159	10.11
590.497	10.15
590.835	10.13
591.173	10.1
591.511	10.09
591.849	10.33
592.187	10.35
592.524	10.21
592.862	10.32
593.2	10.23
593.537	9.97
593.875	10.35
594.212	10.36
594.55	10.68
594.887	10.4
595.224	10.59
595.561	10.71
595.899	10.78
596.236	10.8
596.573	10.76
596.91	10.75
597.247	10.56
597.584	10.82
597.921	10.92
598.258	10.84
598.594	10.73
598.931	10.74
599.268	10.79
599.604	10.91
599.941	10.86
600.277	10.76
600.614	10.97
600.95	10.78
601.287	10.85
601.623	11.08
601.959	11.33
602.296	11.28
602.632	11.11
602.968	11.04
603.304	11.08
603.64	11.17
603.976	11.25
604.312	11.32
604.648	11.39
604.984	11.37
605.319	11.44
605.655	11.38
605.991	11.44
606.326	11.51
606.662	11.43
606.998	11.37
607.333	11.53
607.668	11.48
608.004	11.55
608.339	11.31
608.674	11.58
609.01	11.55
609.345	11.57
609.68	11.87
610.015	11.8
610.35	11.69
610.685	12.21
611.02	11.94
611.355	11.97
611.689	11.93
612.024	11.85
612.359	11.92
612.694	11.87
613.028	12.03
613.363	12.08
613.697	12.07
614.032	12.37
614.366	11.92
614.7	12.12
615.035	12.07
615.369	12.19
615.703	12.37
616.037	12.45
616.371	12.33
616.705	12.67
617.039	12.43
617.373	12.54
617.707	12.36
618.041	13.05
618.375	12.65
618.709	12.6
619.042	12.97
619.376	12.8
619.71	12.99
620.043	12.5
620.377	12.61
620.71	12.75
621.043	12.62
621.377	12.86
621.71	13.03
622.043	12.81
622.376	13.08
622.709	12.89
623.043	12.75
623.376	13.01
623.709	13.13
624.041	13.26
624.374	13.27
624.707	13.13
625.04	13.08
625.373	13.2
625.705	13.4
626.038	13.38
626.37	13.45
626.703	13.45
627.035	13.31
627.368	13.51
627.7	13.74
628.032	13.83
628.365	13.31
628.697	13.9
629.029	13.59
629.361	13.75
629.693	13.66
630.025	13.43
630.357	13.59
630.689	13.72
631.021	14.01
631.353	13.45
631.684	13.99
632.016	14.12
632.348	13.96
632.679	13.88
633.011	14.12
633.342	14.02
633.674	14.18
634.005	14.04
634.336	14.44
634.668	14.1
634.999	14.38
635.33	14.22
635.661	14.37
635.992	14.08
636.323	14.26
636.654	14.25
636.985	14.15
637.316	15.06
637.647	14.47
637.977	14.38
638.308	15.05
638.639	14.63
638.969	14.66
639.3	14.85
639.63	15.02
639.961	14.46
640.291	14.64
640.622	14.9
640.952	14.55
641.282	14.75
641.612	14.82
641.943	14.95
642.273	15.02
642.603	14.9
642.933	14.88
643.263	14.64
643.592	15.34
643.922	15.38
644.252	14.9
644.582	15.65
644.911	15.26
645.241	15.37
645.571	15.67
645.9	15.36
646.23	15.3
646.559	15.91
646.888	15.42
647.218	15.73
647.547	15.23
647.876	15.64
648.205	15.25
648.534	15.84
648.863	15.73
649.192	15.55
649.521	15.9
649.85	16.09
650.179	15.88
650.508	15.54
650.837	16.19
651.165	16.39
651.494	16.18
651.822	15.76
652.151	16.54
652.479	16.22
652.808	16.26
653.136	16.31
653.465	16.46
653.793	15.54
654.121	16.16
654.449	15.91
654.777	16.29
655.105	16.47
655.433	16.42
655.761	16.47
656.089	16.12
656.417	16.18
656.745	16.67
657.073	16.05
657.4	17.47
657.728	16.8
658.056	16.47
658.383	16.85
658.711	16.6
659.038	16.56
659.365	16.54
659.693	16.84
660.02	17.07
660.347	16.6
660.674	16.94
661.001	16.47
661.329	16.63
661.656	17.09
661.982	16.96
662.309	17.3
662.636	16.94
662.963	17.03
663.29	16.93
663.616	17.16
663.943	17.42
664.27	17.21
664.596	17.2
664.923	17.51
665.249	16.82
665.576	16.96
665.902	17.67
666.228	17.09
666.554	16.94
666.881	17.77
667.207	17.46
667.533	17.31
667.859	17.58
668.185	17.46
668.511	17.66
668.837	17.4
669.162	17.98
669.488	17.5
669.814	17.71
670.139	17.89
670.465	17.94
670.791	18.17
671.116	17.58
671.442	17.99
671.767	17.62
672.092	18.5
672.418	18.27
672.743	18.45
673.068	18.2
673.393	17.72
673.718	18.71
674.043	18.23
674.368	18.63
674.693	18.03
675.018	17.84
675.343	18
675.667	18.48
675.992	17.79
676.317	18.59
676.641	18.67
676.966	18.58
677.29	18.24
677.615	17.74
677.939	18.99
678.264	18.62
678.588	18.92
678.912	18.72
679.236	19.45
679.56	18.7
679.885	18.87
680.209	19.59
680.532	18.7
680.856	18.48
681.18	19.2
681.504	19.49
681.828	18.97
682.152	18.93
682.475	19.57
682.799	19.17
683.122	18.6
683.446	18.81
683.769	18.86
684.093	19.03
684.416	19.33
684.739	18.83
685.062	19.73
685.386	19.21
685.709	19.76
686.032	19.17
