Data from 0153_crown_Reflection__3__44.txt Node

Date: Fri Sep 22 20:41:03 CDT 2023
User: ToomeyLab
Spectrometer: FLMS14357
Trigger mode: 0
Integration Time (sec): 1.000000E-2
Scans to average: 100
Electric dark correction enabled: true
Nonlinearity correction enabled: false
Boxcar width: 0
XAxis mode: Wavelengths
Number of Pixels in Spectrum: 2048
>>>>>Begin Spectral Data<<<<<
189.047	-177.8
189.435	-177.8
189.823	-177.8
190.211	336.89
190.599	86.32
190.987	44.29
191.375	392.64
191.763	80.18
192.151	218.02
192.538	97.01
192.926	35.16
193.314	94.49
193.702	127.5
194.089	250.42
194.477	21.65
194.864	337.51
195.252	130.7
195.639	147.41
196.027	-22.29
196.414	35.58
196.801	192.13
197.189	86.93
197.576	114.81
197.963	-65.62
198.351	13.11
198.738	15.26
199.125	2.33
199.512	1.61
199.899	30.31
200.286	-0.29
200.673	1.81
201.06	41.74
201.447	65.05
201.833	-78.5
202.22	33.9
202.607	3.83
202.994	37.17
203.38	8.25
203.767	11.56
204.154	26.61
204.54	3.39
204.927	-1.98
205.313	33.08
205.699	25.52
206.086	39.89
206.472	42.21
206.858	22.35
207.245	5.28
207.631	19.59
208.017	4.18
208.403	-7.45
208.789	14.36
209.175	33.08
209.561	40.88
209.947	40.49
210.333	33
210.719	1.39
211.105	40.8
211.491	23.54
211.876	26.12
212.262	5.25
212.648	31.08
213.034	30.39
213.419	4.49
213.805	18.26
214.19	30.48
214.576	44.21
214.961	19.71
215.346	23.85
215.732	52.91
216.117	7.61
216.502	32.08
216.888	5.89
217.273	21.14
217.658	21.9
218.043	17.75
218.428	30.52
218.813	22.26
219.198	19.01
219.583	-6.32
219.968	11.38
220.353	24.99
220.738	-2.21
221.122	12.08
221.507	1.05
221.892	6.46
222.276	6.35
222.661	-6.75
223.046	16.57
223.43	18.49
223.815	11.52
224.199	9.72
224.583	15.64
224.968	10.77
225.352	5.59
225.736	12.6
226.121	4.64
226.505	10.16
226.889	9.21
227.273	9.51
227.657	4.69
228.041	6.37
228.425	9.88
228.809	6.29
229.193	5.64
229.577	9.22
229.961	7.6
230.344	7.5
230.728	4.56
231.112	5.64
231.495	4.55
231.879	5.06
232.263	4.68
232.646	3.93
233.03	4.26
233.413	4.53
233.797	4.68
234.18	4.33
234.563	6.87
234.946	6.25
235.33	4.26
235.713	4.48
236.096	5.3
236.479	4.8
236.862	6.97
237.245	6.21
237.628	5.36
238.011	7.12
238.394	5.02
238.777	6.3
239.16	4.68
239.543	7.57
239.925	2.56
240.308	6.21
240.691	4.4
241.073	8.02
241.456	3.97
241.838	6.22
242.221	6.17
242.603	5.52
242.986	5.5
243.368	3.77
243.75	5.62
244.133	5.18
244.515	4.62
244.897	4.07
245.279	3.95
245.661	4.66
246.043	5.09
246.425	4.15
246.807	4.46
247.189	4.24
247.571	4.24
247.953	5.39
248.335	4.69
248.717	4.43
249.098	4.49
249.48	4.2
249.862	4.3
250.243	4.19
250.625	4.23
251.006	4.02
251.388	4.35
251.769	4.33
252.151	4.05
252.532	4.09
252.913	4.46
253.295	5.28
253.676	4.74
254.057	4.28
254.438	4.87
254.819	3.98
255.2	4.49
255.581	5.05
255.962	5.99
256.343	3.59
256.724	3.83
257.105	4.23
257.486	5.1
257.867	4.37
258.247	4.4
258.628	5.43
259.009	4.45
259.389	4.03
259.77	4.71
260.15	4.97
260.531	4.09
260.911	4.17
261.292	4.29
261.672	3.75
262.052	3.88
262.432	4.05
262.813	4.11
263.193	3.85
263.573	4.15
263.953	3.77
264.333	4.17
264.713	3.94
265.093	4.1
265.473	3.61
265.853	3.73
266.233	4.62
266.612	4.59
266.992	4.44
267.372	3.9
267.752	4.21
268.131	3.99
268.511	3.61
268.89	3.99
269.27	4.01
269.649	3.93
270.029	4.31
270.408	4.71
270.787	4.29
271.167	3.81
271.546	4.17
271.925	3.99
272.304	3.96
272.683	4.26
273.062	4.23
273.441	3.51
273.82	3.93
274.199	3.8
274.578	4.67
274.957	3.81
275.336	3.7
275.715	4.17
276.093	3.3
276.472	3.43
276.851	3.68
277.229	3.09
277.608	4.11
277.986	3.77
278.365	3.89
278.743	3.6
279.122	3.81
279.5	4.02
279.878	3.9
280.257	4.24
280.635	3.49
281.013	4.15
281.391	3.5
281.769	3.79
282.147	4.18
282.525	3.39
282.903	3.86
283.281	4
283.659	3.82
284.037	3.21
284.415	3.91
284.792	3.75
285.17	3.98
285.548	3.92
285.925	3.72
286.303	3.98
286.68	3.16
287.058	3.71
287.435	3.49
287.813	3.61
288.19	3.31
288.567	3.66
288.945	3.51
289.322	3.49
289.699	3.76
290.076	3.79
290.453	3.34
290.83	3.01
291.207	3.41
291.584	2.87
291.961	2.89
292.338	3.8
292.715	3.72
293.092	3.53
293.469	3.4
293.845	3.32
294.222	3.95
294.599	3.53
294.975	3.68
295.352	3.81
295.728	3.77
296.105	3.79
296.481	3.4
296.858	3.33
297.234	3.37
297.61	3.4
297.986	3.64
298.363	3.53
298.739	3.12
299.115	3.71
299.491	3.42
299.867	3.31
300.243	3.03
300.619	3.53
300.995	2.81
301.371	3.66
301.746	3.04
302.122	3.48
302.498	3.05
302.874	2.95
303.249	3.26
303.625	2.98
304	3.66
304.376	3.51
304.751	3.15
305.127	3.45
305.502	3.42
305.878	3.53
306.253	3.75
306.628	2.95
307.003	3.46
307.378	3.11
307.754	2.9
308.129	3.16
308.504	3.31
308.879	3.07
309.254	3.09
309.629	3.21
310.003	3.81
310.378	3.21
310.753	2.94
311.128	3.37
311.502	3.36
311.877	3.09
312.252	2.65
312.626	3.46
313.001	3.38
313.375	3.6
313.75	3.57
314.124	3.54
314.498	2.72
314.873	3.29
315.247	3.23
315.621	3.5
315.995	3
316.369	2.84
316.743	3.44
317.117	3.23
317.491	3.49
317.865	2.57
318.239	2.63
318.613	3.18
318.987	3.3
319.361	3.28
319.734	2.62
320.108	3.99
320.482	3.2
320.855	3.56
321.229	3.58
321.602	3.19
321.976	3.18
322.349	3.79
322.723	3.32
323.096	3.42
323.469	3.39
323.843	2.83
324.216	3.24
324.589	3.46
324.962	2.74
325.335	3.08
325.708	3.21
326.081	3.24
326.454	3.08
326.827	3.09
327.2	3.2
327.573	3.42
327.945	3
328.318	3.32
328.691	3.43
329.063	2.74
329.436	3.09
329.809	3.37
330.181	3.07
330.553	2.52
330.926	3.6
331.298	3
331.671	3.16
332.043	2.47
332.415	2.94
332.787	3.73
333.159	2.85
333.532	2.43
333.904	3.43
334.276	3.12
334.648	2.6
335.02	2.86
335.391	3.25
335.763	3.25
336.135	2.99
336.507	2.86
336.879	2.79
337.25	3.08
337.622	3.47
337.993	3.37
338.365	3.37
338.736	3.42
339.108	3.07
339.479	3.34
339.851	2.95
340.222	3.29
340.593	3.12
340.964	2.63
341.336	2.89
341.707	2.73
342.078	3.21
342.449	3.43
342.82	2.82
343.191	2.76
343.562	2.6
343.933	3.29
344.303	2.91
344.674	3.28
345.045	3.01
345.416	3.32
345.786	3.19
346.157	2.72
346.527	2.92
346.898	3.04
347.268	3.03
347.639	2.91
348.009	2.99
348.38	3.28
348.75	3.32
349.12	2.87
349.49	3.29
349.861	3.12
350.231	3.22
350.601	3.16
350.971	3.1
351.341	2.8
351.711	3.05
352.081	2.69
352.45	3.33
352.82	3.43
353.19	3.22
353.56	2.96
353.929	2.74
354.299	3.19
354.669	2.95
355.038	3.15
355.408	3.1
355.777	3.24
356.147	2.91
356.516	3.61
356.885	2.88
357.254	3.08
357.624	3.08
357.993	3.23
358.362	3.12
358.731	2.8
359.1	2.81
359.469	2.97
359.838	2.9
360.207	3.09
360.576	3.29
360.945	2.95
361.314	3.09
361.682	3.59
362.051	3.61
362.42	3.03
362.788	2.99
363.157	3.07
363.525	2.92
363.894	2.89
364.262	3.05
364.631	2.95
364.999	3.14
365.367	3.4
365.735	3.39
366.104	3.35
366.472	3.39
366.84	3.06
367.208	3.28
367.576	3.4
367.944	3.2
368.312	3.23
368.68	2.81
369.048	3.26
369.416	3.4
369.783	3.13
370.151	3.38
370.519	2.76
370.886	3.03
371.254	3.16
371.621	3.09
371.989	3.03
372.356	3.12
372.724	3.33
373.091	2.98
373.458	3.52
373.826	3.39
374.193	3.32
374.56	3.53
374.927	3.05
375.294	3.52
375.661	3.22
376.028	3.49
376.395	3.19
376.762	3.05
377.129	3.61
377.496	3.56
377.863	3.27
378.229	3.39
378.596	3.31
378.963	3.43
379.329	3.33
379.696	3.45
380.062	3.02
380.429	3.43
380.795	3.38
381.161	3.18
381.528	3.34
381.894	3.02
382.26	3.26
382.626	3.45
382.993	3.19
383.359	3.06
383.725	3.05
384.091	3.27
384.457	2.96
384.823	3.49
385.188	3.58
385.554	3.55
385.92	3.57
386.286	3.3
386.651	3.59
387.017	3.61
387.383	3.3
387.748	3.13
388.114	3.15
388.479	3.53
388.845	2.93
389.21	2.85
389.575	3.39
389.94	2.94
390.306	3.44
390.671	3.47
391.036	3.09
391.401	3.26
391.766	3.02
392.131	3.32
392.496	3.19
392.861	3.46
393.226	3.54
393.591	3.52
393.956	3.34
394.32	3.48
394.685	3.3
395.05	3.44
395.414	3.49
395.779	3.31
396.143	3.46
396.508	3.24
396.872	3.32
397.236	3.22
397.601	3.14
397.965	3.79
398.329	3.45
398.694	3.33
399.058	3.5
399.422	3.29
399.786	3.44
400.15	3.41
400.514	3.59
400.878	3.54
401.242	3.6
401.605	3.33
401.969	3.29
402.333	3.55
402.697	3.28
403.06	3.41
403.424	3.47
403.787	3.63
404.151	3.53
404.514	3.45
404.878	3.69
405.241	3.49
405.604	3.58
405.968	3.54
406.331	3.36
406.694	3.61
407.057	3.35
407.42	3.53
407.783	3.58
408.146	3.35
408.509	3.27
408.872	3.46
409.235	3.34
409.598	3.45
409.961	3.53
410.323	3.59
410.686	3.54
411.049	3.47
411.411	3.67
411.774	3.52
412.136	3.47
412.499	3.65
412.861	3.57
413.223	3.53
413.586	3.49
413.948	3.71
414.31	3.67
414.672	3.65
415.035	3.4
415.397	3.74
415.759	4.02
416.121	3.4
416.483	3.52
416.845	3.47
417.206	3.68
417.568	3.62
417.93	3.49
418.292	3.5
418.653	3.49
419.015	3.57
419.377	3.56
419.738	3.41
420.1	3.41
420.461	3.54
420.822	3.34
421.184	3.49
421.545	3.43
421.906	3.53
422.267	3.41
422.629	3.57
422.99	3.48
423.351	3.37
423.712	3.4
424.073	3.31
424.434	3.48
424.795	3.44
425.155	3.57
425.516	3.37
425.877	3.53
426.238	3.3
426.598	3.43
426.959	3.41
427.32	3.56
427.68	3.48
428.041	3.46
428.401	3.59
428.761	3.69
429.122	3.56
429.482	3.56
429.842	3.57
430.202	3.52
430.563	3.63
430.923	3.79
431.283	3.65
431.643	3.7
432.003	3.72
432.363	3.72
432.722	3.7
433.082	3.67
433.442	3.47
433.802	3.71
434.161	3.54
434.521	3.67
434.881	3.59
435.24	3.69
435.6	3.44
435.959	3.43
436.319	3.57
436.678	3.66
437.037	3.74
437.396	3.6
437.756	3.51
438.115	3.67
438.474	3.69
438.833	3.59
439.192	3.61
439.551	3.7
439.91	3.72
440.269	3.71
440.628	3.6
440.987	3.71
441.345	3.65
441.704	3.8
442.063	3.65
442.421	3.58
442.78	3.82
443.138	3.61
443.497	3.56
443.855	3.66
444.214	3.5
444.572	3.74
444.93	3.67
445.288	3.59
445.647	3.75
446.005	3.65
446.363	3.61
446.721	3.71
447.079	3.59
447.437	3.63
447.795	3.65
448.153	3.55
448.51	3.66
448.868	3.58
449.226	3.66
449.584	3.56
449.941	3.53
450.299	3.7
450.656	3.68
451.014	3.67
451.371	3.73
451.729	3.74
452.086	3.79
452.443	3.87
452.801	3.83
453.158	3.71
453.515	3.7
453.872	3.68
454.229	3.93
454.586	3.82
454.943	3.68
455.3	3.64
455.657	3.67
456.014	3.73
456.371	3.76
456.727	3.93
457.084	3.62
457.441	3.69
457.797	3.78
458.154	3.83
458.51	3.72
458.867	3.81
459.223	3.82
459.58	3.8
459.936	3.85
460.292	3.8
460.648	3.94
461.005	3.71
461.361	3.78
461.717	3.5
462.073	3.76
462.429	3.61
462.785	3.66
463.141	3.63
463.496	3.72
463.852	3.81
464.208	3.73
464.564	3.87
464.919	3.66
465.275	4.08
465.631	3.91
465.986	3.82
466.342	3.94
466.697	3.79
467.052	3.77
467.408	3.98
467.763	3.86
468.118	3.98
468.473	3.77
468.829	3.78
469.184	3.74
469.539	3.74
469.894	3.91
470.249	3.77
470.603	3.79
470.958	3.98
471.313	3.76
471.668	3.9
472.023	3.94
472.377	3.93
472.732	3.9
473.086	3.98
473.441	3.65
473.795	3.91
474.15	3.72
474.504	3.78
474.859	4.04
475.213	3.68
475.567	3.8
475.921	3.8
476.275	3.91
476.63	3.8
476.984	3.65
477.338	3.92
477.692	3.8
478.045	4
478.399	3.99
478.753	3.89
479.107	3.79
479.461	3.73
479.814	3.98
480.168	3.93
480.521	3.95
480.875	4.01
481.228	3.87
481.582	3.67
481.935	3.83
482.289	3.78
482.642	3.82
482.995	3.81
483.348	3.84
483.701	3.76
484.055	3.8
484.408	3.72
484.761	3.82
485.114	3.62
485.466	3.56
485.819	3.52
486.172	3.5
486.525	3.57
486.878	3.59
487.23	3.67
487.583	3.72
487.936	3.72
488.288	3.74
488.641	3.7
488.993	3.64
489.345	3.64
489.698	3.59
490.05	3.62
490.402	3.64
490.754	3.65
491.107	3.67
491.459	3.76
491.811	3.74
492.163	3.75
492.515	3.77
492.866	3.77
493.218	3.77
493.57	3.68
493.922	3.59
494.274	3.66
494.625	3.7
494.977	3.76
495.328	3.86
495.68	3.9
496.031	3.79
496.383	3.93
496.734	3.87
497.086	3.88
497.437	3.89
497.788	3.89
498.139	3.94
498.49	3.92
498.842	3.77
499.193	3.73
499.544	3.86
499.894	3.8
500.245	3.98
500.596	3.86
500.947	3.83
501.298	3.85
501.648	3.86
501.999	3.91
502.35	3.96
502.7	3.99
503.051	3.95
503.401	3.91
503.752	3.98
504.102	3.84
504.452	3.85
504.803	3.86
505.153	3.9
505.503	3.97
505.853	4.03
506.203	3.78
506.553	3.94
506.903	3.98
507.253	3.87
507.603	3.94
507.953	3.94
508.303	3.84
508.652	3.88
509.002	3.96
509.352	3.88
509.701	3.91
510.051	4.05
510.4	3.88
510.75	3.83
511.099	3.79
511.449	3.92
511.798	3.83
512.147	3.86
512.496	3.96
512.846	3.79
513.195	3.92
513.544	3.94
513.893	3.95
514.242	3.76
514.591	3.88
514.939	3.82
515.288	3.91
515.637	3.84
515.986	3.8
516.334	3.92
516.683	3.9
517.032	3.93
517.38	3.87
517.729	3.92
518.077	3.95
518.426	3.89
518.774	3.88
519.122	3.93
519.47	3.75
519.819	3.9
520.167	3.83
520.515	3.8
520.863	3.72
521.211	3.77
521.559	3.82
521.907	3.89
522.255	3.9
522.602	3.91
522.95	3.91
523.298	3.9
523.645	3.99
523.993	3.85
524.341	3.82
524.688	3.83
525.036	3.91
525.383	3.91
525.73	3.99
526.078	3.94
526.425	3.9
526.772	4.01
527.119	3.75
527.466	3.72
527.814	3.65
528.161	3.67
528.508	3.76
528.854	3.91
529.201	3.8
529.548	3.75
529.895	3.73
530.242	3.71
530.588	3.61
530.935	3.59
531.282	3.58
531.628	3.68
531.975	3.67
532.321	3.69
532.667	3.75
533.014	3.82
533.36	3.86
533.706	3.8
534.052	3.86
534.399	3.9
534.745	3.67
535.091	3.69
535.437	3.64
535.783	3.6
536.129	3.7
536.474	3.78
536.82	3.77
537.166	3.93
537.512	3.84
537.857	3.84
538.203	3.87
538.549	3.74
538.894	3.71
539.239	3.7
539.585	3.72
539.93	3.96
540.276	3.87
540.621	3.88
540.966	3.86
541.311	3.81
541.656	3.86
542.001	3.81
542.346	3.81
542.691	3.73
543.036	3.67
543.381	3.62
543.726	3.61
544.071	3.67
544.415	3.65
544.76	3.7
545.105	3.73
545.449	3.64
545.794	3.76
546.138	3.75
546.483	3.82
546.827	3.72
547.171	3.72
547.516	3.82
547.86	3.84
548.204	3.78
548.548	3.84
548.892	3.84
549.236	3.8
549.58	3.79
549.924	3.87
550.268	3.94
550.612	3.79
550.956	3.86
551.3	3.86
551.643	3.99
551.987	3.94
552.33	4.01
552.674	3.85
553.017	3.79
553.361	3.71
553.704	3.94
554.048	3.91
554.391	3.76
554.734	3.87
555.077	3.77
555.42	3.73
555.764	3.83
556.107	3.9
556.45	3.81
556.793	3.75
557.135	3.87
557.478	3.75
557.821	3.84
558.164	3.89
558.507	4.07
558.849	3.75
559.192	4.04
559.534	3.97
559.877	3.76
560.219	3.76
560.562	4.04
560.904	3.95
561.246	3.98
561.589	3.91
561.931	3.84
562.273	3.78
562.615	3.82
562.957	3.9
563.299	3.83
563.641	3.88
563.983	3.83
564.325	3.86
564.667	3.97
565.008	3.9
565.35	3.82
565.692	3.76
566.033	3.76
566.375	3.9
566.716	3.84
567.058	3.77
567.399	3.79
567.741	4.04
568.082	3.9
568.423	3.81
568.764	4.04
569.105	3.71
569.447	3.82
569.788	3.7
570.129	3.93
570.47	3.92
570.811	3.91
571.151	3.93
571.492	3.64
571.833	3.66
572.174	3.75
572.514	3.96
572.855	3.76
573.195	3.68
573.536	3.76
573.876	3.65
574.217	3.78
574.557	3.78
574.898	3.8
575.238	3.75
575.578	3.75
575.918	3.89
576.258	3.52
576.598	3.83
576.938	3.82
577.278	3.88
577.618	3.57
577.958	3.88
578.298	3.89
578.638	3.75
578.977	3.91
579.317	3.87
579.657	3.78
579.996	3.87
580.336	3.92
580.675	4.05
581.014	3.64
581.354	3.79
581.693	3.88
582.032	3.87
582.372	3.95
582.711	3.81
583.05	3.76
583.389	3.81
583.728	3.66
584.067	3.8
584.406	3.78
584.745	3.47
585.083	4.14
585.422	3.99
585.761	3.9
586.1	3.86
586.438	3.74
586.777	3.59
587.115	3.8
587.454	3.64
587.792	3.9
588.13	4.01
588.469	3.72
588.807	3.92
589.145	4.08
589.483	3.81
589.821	3.76
590.159	3.87
590.497	3.89
590.835	3.84
591.173	3.61
591.511	3.61
591.849	3.9
592.187	3.61
592.524	3.81
592.862	3.96
593.2	3.69
593.537	3.66
593.875	3.88
594.212	3.79
594.55	3.86
594.887	3.86
595.224	3.75
595.561	3.84
595.899	3.77
596.236	4.03
596.573	3.93
596.91	3.88
597.247	3.9
597.584	4.03
597.921	3.88
598.258	4.03
598.594	3.83
598.931	3.77
599.268	3.74
599.604	3.82
599.941	3.83
600.277	3.68
600.614	3.65
600.95	3.68
601.287	3.58
601.623	3.85
601.959	3.94
602.296	3.58
602.632	3.55
602.968	3.86
603.304	3.79
603.64	3.81
603.976	3.79
604.312	4.02
604.648	3.93
604.984	3.78
605.319	3.87
605.655	3.69
605.991	3.78
606.326	3.8
606.662	3.73
606.998	3.71
607.333	3.72
607.668	3.7
608.004	3.92
608.339	3.66
608.674	3.79
609.01	3.78
609.345	3.89
609.68	3.93
610.015	3.72
610.35	3.58
610.685	3.94
611.02	3.78
611.355	3.91
611.689	3.69
612.024	3.79
612.359	3.46
612.694	3.7
613.028	3.61
613.363	3.58
613.697	3.69
614.032	3.72
614.366	3.75
614.7	3.75
615.035	3.78
615.369	3.88
615.703	3.82
616.037	3.6
616.371	3.78
616.705	3.92
617.039	3.83
617.373	3.55
617.707	3.58
618.041	3.86
618.375	3.72
618.709	3.95
619.042	3.89
619.376	4
619.71	3.7
620.043	3.69
620.377	3.61
620.71	3.77
621.043	3.88
621.377	3.53
621.71	3.94
622.043	3.89
622.376	4.12
622.709	3.9
623.043	3.67
623.376	3.69
623.709	4.38
624.041	3.71
624.374	3.58
624.707	3.97
625.04	3.89
625.373	3.34
625.705	3.71
626.038	3.33
626.37	3.99
626.703	3.79
627.035	3.6
627.368	3.84
627.7	3.89
628.032	3.84
628.365	3.75
628.697	3.84
629.029	3.69
629.361	3.93
629.693	3.65
630.025	3.62
630.357	3.6
630.689	4.11
631.021	3.6
631.353	3.73
631.684	3.62
632.016	3.93
632.348	3.81
632.679	3.8
633.011	4.07
633.342	3.84
633.674	4.04
634.005	3.66
634.336	3.85
634.668	3.98
634.999	3.87
635.33	4.06
635.661	3.81
635.992	3.97
636.323	3.65
636.654	3.8
636.985	3.4
637.316	3.75
637.647	3.59
637.977	3.51
638.308	4.08
638.639	3.78
638.969	4.01
639.3	3.9
639.63	4.16
639.961	3.74
640.291	3.94
640.622	3.9
640.952	3.82
641.282	4.02
641.612	3.78
641.943	4.06
642.273	3.92
642.603	3.5
642.933	3.57
643.263	3.45
643.592	3.98
643.922	4.03
644.252	3.53
644.582	3.95
644.911	3.51
645.241	4.02
645.571	3.51
645.9	3.74
646.23	4.08
646.559	3.85
646.888	3.99
647.218	3.91
647.547	4.04
647.876	3.84
648.205	3.76
648.534	4.06
648.863	3.78
649.192	3.55
649.521	4.01
649.85	4.02
650.179	3.81
650.508	3.54
650.837	4.31
651.165	3.65
651.494	4.1
651.822	3.64
652.151	3.53
652.479	3.61
652.808	3.68
653.136	4.31
653.465	4.1
653.793	3.6
654.121	3.81
654.449	3.68
654.777	4.08
655.105	3.66
655.433	3.91
655.761	4.17
656.089	3.77
656.417	3.49
656.745	3.76
657.073	3.57
657.4	4.35
657.728	3.7
658.056	4.02
658.383	4.18
658.711	3.72
659.038	3.56
659.365	4.14
659.693	3.38
660.02	3.95
660.347	4.14
660.674	3.54
661.001	3.8
661.329	3.83
661.656	4.07
661.982	3.84
662.309	3.98
662.636	3.67
662.963	3.77
663.29	4.06
663.616	3.63
663.943	4.24
664.27	3.93
664.596	3.65
664.923	3.72
665.249	4.04
665.576	3.87
665.902	3.88
666.228	3.62
666.554	4.05
666.881	4.24
667.207	3.72
667.533	3.9
667.859	4.25
668.185	3.95
668.511	4.67
668.837	3.55
669.162	3.76
669.488	3.64
669.814	3.82
670.139	3.75
670.465	4.15
670.791	4.23
671.116	3.87
671.442	4.32
671.767	3.18
672.092	4.17
672.418	4.54
672.743	3.4
673.068	4.07
673.393	3.35
673.718	4.42
674.043	4.27
674.368	4.24
674.693	3.98
675.018	4.23
675.343	4.11
675.667	3.81
675.992	3.52
676.317	4.16
676.641	4.1
676.966	4.23
677.29	4.08
677.615	4
677.939	4.46
678.264	4.44
678.588	4.2
678.912	3.83
679.236	4.64
679.56	4.1
679.885	4.04
680.209	3.91
680.532	3.57
680.856	3.66
681.18	4.57
681.504	4.13
681.828	3.54
682.152	4.24
682.475	4.33
682.799	4.07
683.122	3.9
683.446	4
683.769	3.86
684.093	4.33
684.416	4.21
684.739	4.34
685.062	4.59
685.386	4.38
685.709	3.47
686.032	3.94
686.355	3.84
686.678	4.17
687.001	3.98
687.324	5.16
687.646	4.38
687.969	4.6
688.292	4.67
688.614	4.56
688.937	4.1
689.26	4.45
689.582	4.36
689.904	4.63
690.227	4.58
690.549	4.77
690.871	3.37
691.194	4.17
691.516	4.32
691.838	4.06
692.16	4.05
692.482	3.73
692.804	3.3
693.126	3.91
693.448	5.17
