Data from 0153_forehead_Reflection__1__47.txt Node

Date: Fri Sep 22 20:42:12 CDT 2023
User: ToomeyLab
Spectrometer: FLMS14357
Trigger mode: 0
Integration Time (sec): 1.000000E-2
Scans to average: 100
Electric dark correction enabled: true
Nonlinearity correction enabled: false
Boxcar width: 0
XAxis mode: Wavelengths
Number of Pixels in Spectrum: 2048
>>>>>Begin Spectral Data<<<<<
189.047	-5.21
189.435	-5.21
189.823	-5.21
190.211	165.17
190.599	-328.39
190.987	2731.43
191.375	-146.63
191.763	133.89
192.151	188.01
192.538	268.05
192.926	146.12
193.314	-40.35
193.702	48.1
194.089	53.76
194.477	32.62
194.864	247.58
195.252	119.3
195.639	180.43
196.027	31.16
196.414	-44.26
196.801	-1.78
197.189	45.39
197.576	93.98
197.963	143.98
198.351	55.26
198.738	44.33
199.125	28.1
199.512	36.68
199.899	58.83
200.286	63.87
200.673	46.18
201.06	19.24
201.447	43.97
201.833	16.43
202.22	-0.39
202.607	52.35
202.994	31.9
203.38	38.13
203.767	39.22
204.154	55.11
204.54	40.99
204.927	-2.17
205.313	-3.61
205.699	47.4
206.086	70.54
206.472	50.74
206.858	19.13
207.245	-11.91
207.631	38.58
208.017	17.39
208.403	36.25
208.789	19.4
209.175	46.03
209.561	33.75
209.947	27.2
210.333	15.36
210.719	33.76
211.105	32.5
211.491	30.45
211.876	29.93
212.262	22.76
212.648	21.13
213.034	40.16
213.419	34.61
213.805	23.72
214.19	22.89
214.576	27.31
214.961	15.67
215.346	2.13
215.732	40.48
216.117	37.56
216.502	54.79
216.888	36
217.273	28.98
217.658	16.41
218.043	10.41
218.428	46.1
218.813	-3.68
219.198	22.68
219.583	38.38
219.968	5.42
220.353	56.08
220.738	19.73
221.122	19.3
221.507	26.36
221.892	6.03
222.276	14.96
222.661	1.29
223.046	17.03
223.43	31.26
223.815	3.5
224.199	2.42
224.583	19.18
224.968	17.3
225.352	7.51
225.736	12.29
226.121	9.76
226.505	5.73
226.889	5.54
227.273	7.73
227.657	11.27
228.041	6.94
228.425	9.36
228.809	4.07
229.193	3.25
229.577	4.41
229.961	4.79
230.344	6.26
230.728	2.89
231.112	4.17
231.495	4.27
231.879	4.4
232.263	3.24
232.646	4.99
233.03	2.41
233.413	3.93
233.797	5.23
234.18	3.63
234.563	6.92
234.946	7.63
235.33	4.56
235.713	4.3
236.096	2.96
236.479	4.78
236.862	6.05
237.245	5.48
237.628	5.47
238.011	4.8
238.394	3.38
238.777	6.08
239.16	5.31
239.543	5.45
239.925	6.68
240.308	4.68
240.691	4.76
241.073	5.96
241.456	5.78
241.838	4.87
242.221	4.34
242.603	5.41
242.986	4.28
243.368	4.13
243.75	4.5
244.133	4.53
244.515	3.98
244.897	3.77
245.279	4.06
245.661	4.09
246.043	4.35
246.425	3.8
246.807	4.58
247.189	3
247.571	4.04
247.953	4.43
248.335	4.49
248.717	3.99
249.098	3.87
249.48	3.77
249.862	3.81
250.243	3.82
250.625	4.32
251.006	3.45
251.388	4.02
251.769	4.44
252.151	3.51
252.532	4.88
252.913	4.11
253.295	6.07
253.676	4.37
254.057	4.6
254.438	4.43
254.819	3.84
255.2	4.2
255.581	4.73
255.962	3.92
256.343	4.42
256.724	3.38
257.105	5.06
257.486	5.1
257.867	3.27
258.247	4.85
258.628	4.11
259.009	3.8
259.389	3.58
259.77	4.74
260.15	4.39
260.531	3.04
260.911	4.54
261.292	4.09
261.672	3.45
262.052	3.62
262.432	3.82
262.813	3.98
263.193	3.76
263.573	4.16
263.953	4.19
264.333	4.87
264.713	3.72
265.093	3.69
265.473	4.04
265.853	3.27
266.233	3.63
266.612	4.39
266.992	4.91
267.372	4.18
267.752	4.32
268.131	3.28
268.511	3.34
268.89	4.25
269.27	3.77
269.649	3.7
270.029	4.12
270.408	4.01
270.787	3.72
271.167	4.12
271.546	2.99
271.925	4
272.304	3.53
272.683	3.86
273.062	4.11
273.441	3.78
273.82	4.02
274.199	3.98
274.578	4.39
274.957	3.65
275.336	3.85
275.715	3.73
276.093	3.25
276.472	3.94
276.851	4.33
277.229	3.8
277.608	4
277.986	3.9
278.365	4.35
278.743	3.62
279.122	4.03
279.5	4.28
279.878	3.95
280.257	4.26
280.635	3.76
281.013	4.02
281.391	3.63
281.769	4.25
282.147	3.59
282.525	3.68
282.903	4.29
283.281	4.02
283.659	4.33
284.037	3.76
284.415	4.15
284.792	3.61
285.17	3.39
285.548	3.91
285.925	3.72
286.303	3.9
286.68	3.25
287.058	3.71
287.435	3.79
287.813	3.79
288.19	3.39
288.567	3.61
288.945	3.44
289.322	3.98
289.699	4.03
290.076	4.28
290.453	3.76
290.83	3.73
291.207	3.76
291.584	3.74
291.961	3.68
292.338	4.15
292.715	4.3
293.092	4.09
293.469	3.95
293.845	4.03
294.222	4.11
294.599	4.13
294.975	4.49
295.352	4.22
295.728	4.27
296.105	4.38
296.481	3.85
296.858	3.93
297.234	3.94
297.61	4.15
297.986	4.36
298.363	4.39
298.739	4.37
299.115	4.13
299.491	4.44
299.867	4.2
300.243	4.23
300.619	4.32
300.995	4.46
301.371	4.45
301.746	4.6
302.122	4.57
302.498	4.06
302.874	4.46
303.249	4.49
303.625	4.78
304	4.72
304.376	4.87
304.751	4.9
305.127	4.78
305.502	4.88
305.878	4.76
306.253	5.13
306.628	4.69
307.003	4.65
307.378	4.77
307.754	4.86
308.129	4.97
308.504	5.34
308.879	4.96
309.254	4.89
309.629	5.15
310.003	5.61
310.378	5.35
310.753	5.09
311.128	5.21
311.502	5.45
311.877	4.63
312.252	5.43
312.626	5.38
313.001	5.31
313.375	5.54
313.75	5.45
314.124	5.68
314.498	4.99
314.873	5.4
315.247	5.6
315.621	5.82
315.995	5.68
316.369	5.69
316.743	5.64
317.117	5.98
317.491	6.09
317.865	5.62
318.239	5.89
318.613	6.05
318.987	6.41
319.361	5.36
319.734	5.98
320.108	6.69
320.482	5.79
320.855	5.92
321.229	6.7
321.602	6.14
321.976	5.88
322.349	5.83
322.723	6.52
323.096	5.87
323.469	5.8
323.843	6.33
324.216	5.97
324.589	6.11
324.962	6.08
325.335	6.41
325.708	6.4
326.081	6.54
326.454	6.38
326.827	6.24
327.2	5.92
327.573	6.34
327.945	6.51
328.318	6.66
328.691	6.59
329.063	6.26
329.436	7.07
329.809	6.7
330.181	6.71
330.553	6.38
330.926	6.62
331.298	6.88
331.671	6.44
332.043	6.1
332.415	6.75
332.787	7.07
333.159	6.18
333.532	6.28
333.904	6.67
334.276	6.68
334.648	6.69
335.02	6.48
335.391	6.66
335.763	6.85
336.135	7.02
336.507	7.17
336.879	6.53
337.25	7.26
337.622	6.51
337.993	7.23
338.365	7.04
338.736	6.78
339.108	7
339.479	6.97
339.851	6.78
340.222	6.79
340.593	6.65
340.964	6.92
341.336	6.89
341.707	7.15
342.078	7.21
342.449	7.31
342.82	7.4
343.191	6.81
343.562	6.66
343.933	7.4
344.303	7.31
344.674	7.23
345.045	7.4
345.416	7.68
345.786	7.02
346.157	7.33
346.527	7.44
346.898	7.16
347.268	7.3
347.639	7.55
348.009	7.51
348.38	7.4
348.75	7.34
349.12	7.27
349.49	7.57
349.861	7.66
350.231	7.67
350.601	7.84
350.971	8.04
351.341	7.5
351.711	7.51
352.081	7.57
352.45	7.68
352.82	7.92
353.19	7.81
353.56	7.69
353.929	7.95
354.299	7.94
354.669	7.84
355.038	8.13
355.408	7.4
355.777	7.93
356.147	8.13
356.516	8.37
356.885	8.12
357.254	7.95
357.624	7.83
357.993	8.1
358.362	7.94
358.731	7.82
359.1	8.08
359.469	7.86
359.838	7.72
360.207	7.51
360.576	8.13
360.945	7.86
361.314	8.16
361.682	8.33
362.051	8.18
362.42	8.14
362.788	7.82
363.157	8.1
363.525	7.98
363.894	8.03
364.262	8.21
364.631	8.01
364.999	7.93
365.367	8.5
365.735	8.15
366.104	8.52
366.472	8.49
366.84	8.14
367.208	8.57
367.576	8.33
367.944	8.49
368.312	8.45
368.68	8.47
369.048	8.56
369.416	8.34
369.783	8.47
370.151	8.47
370.519	8.76
370.886	8.69
371.254	9.01
371.621	8.84
371.989	9.12
372.356	8.64
372.724	8.72
373.091	8.91
373.458	8.83
373.826	8.76
374.193	9.02
374.56	9.08
374.927	8.95
375.294	8.88
375.661	8.97
376.028	9.25
376.395	9.01
376.762	9.03
377.129	9.14
377.496	9.25
377.863	9.28
378.229	9.09
378.596	8.98
378.963	9.43
379.329	9.15
379.696	9.49
380.062	8.73
380.429	9.16
380.795	9.46
381.161	9.28
381.528	9.19
381.894	8.81
382.26	9.25
382.626	9.49
382.993	9.51
383.359	9.14
383.725	9.42
384.091	9.59
384.457	9.34
384.823	9.45
385.188	9.68
385.554	9.62
385.92	9.75
386.286	9.67
386.651	9.63
387.017	9.76
387.383	9.61
387.748	9.54
388.114	9.58
388.479	9.55
388.845	9.6
389.21	9.56
389.575	10.14
389.94	9.44
390.306	9.87
390.671	10.3
391.036	9.52
391.401	9.72
391.766	10.01
392.131	10.04
392.496	9.96
392.861	9.95
393.226	10.25
393.591	10.04
393.956	9.96
394.32	9.99
394.685	9.91
395.05	10
395.414	10.14
395.779	10.3
396.143	10.04
396.508	10.07
396.872	9.88
397.236	10.25
397.601	9.99
397.965	10.34
398.329	10.19
398.694	10.46
399.058	10.32
399.422	10.11
399.786	10.26
400.15	10.47
400.514	10.16
400.878	10.49
401.242	10.46
401.605	10.33
401.969	10.15
402.333	10.53
402.697	10.27
403.06	10.67
403.424	10.48
403.787	10.44
404.151	10.52
404.514	10.71
404.878	10.54
405.241	10.65
405.604	10.75
405.968	10.69
406.331	10.64
406.694	10.69
407.057	10.37
407.42	10.64
407.783	10.56
408.146	10.65
408.509	10.58
408.872	10.86
409.235	10.88
409.598	10.91
409.961	10.98
410.323	10.87
410.686	10.84
411.049	11.1
411.411	10.99
411.774	10.86
412.136	10.98
412.499	10.71
412.861	10.9
413.223	10.97
413.586	10.88
413.948	11.02
414.31	11.07
414.672	11.09
415.035	11.15
415.397	11.24
415.759	11.32
416.121	11.28
416.483	11.17
416.845	11.2
417.206	11.2
417.568	11.31
417.93	11.2
418.292	11.16
418.653	11.09
419.015	11.1
419.377	11.12
419.738	11.25
420.1	11.05
420.461	11.22
420.822	11.12
421.184	11.16
421.545	11.1
421.906	11.34
422.267	11.25
422.629	11.25
422.99	11.18
423.351	11.19
423.712	11.23
424.073	11.29
424.434	11.47
424.795	11.53
425.155	11.57
425.516	11.43
425.877	11.58
426.238	11.35
426.598	11.51
426.959	11.56
427.32	11.69
427.68	11.66
428.041	11.7
428.401	12.04
428.761	12.09
429.122	12.16
429.482	12.03
429.842	12
430.202	11.97
430.563	12.22
430.923	12.42
431.283	12.31
431.643	12.5
432.003	12.39
432.363	12.59
432.722	12.51
433.082	12.49
433.442	12.41
433.802	12.62
434.161	12.3
434.521	12.51
434.881	12.44
435.24	12.55
435.6	12.54
435.959	12.49
436.319	12.75
436.678	12.7
437.037	12.78
437.396	12.69
437.756	12.81
438.115	12.86
438.474	12.8
438.833	12.91
439.192	12.88
439.551	12.95
439.91	13.01
440.269	13.16
440.628	12.94
440.987	12.97
441.345	13.18
441.704	13.18
442.063	13.09
442.421	13.07
442.78	13.33
443.138	13.13
443.497	13.03
443.855	13.28
444.214	13.19
444.572	13.43
444.93	13.42
445.288	13.34
445.647	13.55
446.005	13.62
446.363	13.41
446.721	13.46
447.079	13.46
447.437	13.56
447.795	13.53
448.153	13.45
448.51	13.54
448.868	13.46
449.226	13.57
449.584	13.52
449.941	13.64
450.299	13.73
450.656	13.83
451.014	13.98
451.371	13.81
451.729	13.95
452.086	13.84
452.443	14.15
452.801	14.22
453.158	14.22
453.515	14.33
453.872	14.36
454.229	14.24
454.586	14.32
454.943	14.17
455.3	14.31
455.657	14.34
456.014	14.44
456.371	14.47
456.727	14.78
457.084	14.58
457.441	14.73
457.797	14.53
458.154	14.78
458.51	14.71
458.867	14.63
459.223	14.7
459.58	14.74
459.936	14.77
460.292	14.71
460.648	14.99
461.005	14.61
461.361	14.76
461.717	14.56
462.073	14.61
462.429	14.62
462.785	14.75
463.141	14.88
463.496	14.99
463.852	15.03
464.208	15.18
464.564	15.26
464.919	15.33
465.275	15.55
465.631	15.46
465.986	15.45
466.342	15.64
466.697	15.55
467.052	15.5
467.408	15.79
467.763	15.46
468.118	15.69
468.473	15.67
468.829	15.63
469.184	15.65
469.539	15.83
469.894	15.64
470.249	15.88
470.603	15.87
470.958	15.88
471.313	15.77
471.668	15.92
472.023	15.84
472.377	15.84
472.732	16.01
473.086	16.06
473.441	15.91
473.795	16.33
474.15	16.14
474.504	16.19
474.859	16.47
475.213	16.09
475.567	16.21
475.921	16.36
476.275	16.32
476.63	16.36
476.984	16.48
477.338	16.43
477.692	16.38
478.045	16.66
478.399	16.54
478.753	16.43
479.107	16.34
479.461	16.6
479.814	16.77
480.168	16.66
480.521	16.74
480.875	16.68
481.228	16.68
481.582	16.6
481.935	16.77
482.289	16.81
482.642	16.82
482.995	16.87
483.348	16.7
483.701	16.74
484.055	16.67
484.408	16.74
484.761	16.6
485.114	16.46
485.466	16.17
485.819	16.08
486.172	16
486.525	16.15
486.878	16.31
487.23	16.45
487.583	16.57
487.936	16.75
488.288	16.79
488.641	16.78
488.993	16.68
489.345	16.61
489.698	16.55
490.05	16.54
490.402	16.61
490.754	16.71
491.107	16.81
491.459	17.13
491.811	17.08
492.163	17.3
492.515	17.35
492.866	17.42
493.218	17.29
493.57	17.01
493.922	16.93
494.274	17.07
494.625	17.27
494.977	17.44
495.328	17.78
495.68	17.81
496.031	17.9
496.383	18.04
496.734	18.06
497.086	18.17
497.437	18.23
497.788	18.35
498.139	18.42
498.49	18.27
498.842	18.19
499.193	18.14
499.544	18.29
499.894	18.25
500.245	18.43
500.596	18.43
500.947	18.54
501.298	18.57
501.648	18.67
501.999	18.71
502.35	18.75
502.7	18.78
503.051	19.02
503.401	19.1
503.752	19.15
504.102	18.96
504.452	19.17
504.803	18.94
505.153	19.08
505.503	19.03
505.853	19.13
506.203	19
506.553	19.19
506.903	19.11
507.253	19.11
507.603	19.3
507.953	19.35
508.303	19.44
508.652	19.31
509.002	19.62
509.352	19.36
509.701	19.53
510.051	19.51
510.4	19.55
510.75	19.51
511.099	19.39
511.449	19.55
511.798	19.45
512.147	19.66
512.496	19.51
512.846	19.59
513.195	19.78
513.544	19.71
513.893	19.71
514.242	19.7
514.591	19.89
514.939	19.91
515.288	19.93
515.637	19.99
515.986	19.97
516.334	20.08
516.683	20.32
517.032	20.33
517.38	20.34
517.729	20.34
518.077	20.35
518.426	20.35
518.774	20.4
519.122	20.39
519.47	20.29
519.819	20.32
520.167	20.26
520.515	20.15
520.863	20.03
521.211	20.14
521.559	20.17
521.907	20.27
522.255	20.56
522.602	20.66
522.95	20.58
523.298	20.86
523.645	20.8
523.993	20.8
524.341	20.82
524.688	20.83
525.036	20.98
525.383	21.01
525.73	21.19
526.078	21.02
526.425	21.02
526.772	21.1
527.119	20.97
527.466	20.86
527.814	20.77
528.161	20.83
528.508	20.97
528.854	20.98
529.201	20.96
529.548	21.01
529.895	20.79
530.242	20.6
530.588	20.43
530.935	20.47
531.282	20.54
531.628	20.82
531.975	20.9
532.321	20.97
532.667	21.15
533.014	21.33
533.36	21.33
533.706	21.59
534.052	21.64
534.399	21.52
534.745	21.57
535.091	21.35
535.437	21.16
535.783	21.26
536.129	21.31
536.474	21.57
536.82	21.66
537.166	21.95
537.512	22.02
537.857	22.06
538.203	22.01
538.549	21.93
538.894	21.88
539.239	21.94
539.585	22.01
539.93	22.33
540.276	22.27
540.621	22.39
540.966	22.47
541.311	22.69
541.656	22.74
542.001	22.58
542.346	22.57
542.691	22.38
543.036	22.26
543.381	21.92
543.726	22.01
544.071	22.02
544.415	22.17
544.76	22.37
545.105	22.47
545.449	22.5
545.794	22.63
546.138	22.76
546.483	22.96
546.827	23.04
547.171	23
547.516	23.32
547.86	23.18
548.204	23.28
548.548	23.28
548.892	23.3
549.236	23.13
549.58	23.36
549.924	23.5
550.268	23.58
550.612	23.86
550.956	23.81
551.3	24.07
551.643	23.95
551.987	23.99
552.33	24.13
552.674	24.13
553.017	24.12
553.361	24.39
553.704	24.52
554.048	24.21
554.391	24.4
554.734	24.4
555.077	24.32
555.42	24.22
555.764	24.43
556.107	24.74
556.45	24.56
556.793	24.5
557.135	24.9
557.478	24.72
557.821	24.76
558.164	24.99
558.507	24.84
558.849	24.83
559.192	25.03
559.534	25.05
559.877	25.07
560.219	25.11
560.562	25.17
560.904	25.14
561.246	25.23
561.589	25.51
561.931	25.27
562.273	25.17
562.615	25.39
562.957	25.38
563.299	25.43
563.641	25.53
563.983	25.54
564.325	25.71
564.667	25.84
565.008	25.5
565.35	25.61
565.692	25.66
566.033	25.68
566.375	25.76
566.716	25.95
567.058	25.82
567.399	25.84
567.741	26.02
568.082	25.98
568.423	26.07
568.764	26.03
569.105	25.72
569.447	25.98
569.788	25.67
570.129	26.29
570.47	26.15
570.811	26.33
571.151	26.41
571.492	26.23
571.833	26.23
572.174	26.34
572.514	26.47
572.855	26.45
573.195	26.43
573.536	26.47
573.876	26.24
574.217	26.43
574.557	26.4
574.898	26.61
575.238	26.55
575.578	26.51
575.918	26.82
576.258	26.5
576.598	26.89
576.938	26.73
577.278	26.94
577.618	26.72
577.958	26.94
578.298	27.07
578.638	27.16
578.977	27.35
579.317	27.39
579.657	27.59
579.996	27.42
580.336	27.57
580.675	27.42
581.014	27.65
581.354	27.47
581.693	28.08
582.032	27.83
582.372	27.83
582.711	27.93
583.05	28.01
583.389	27.83
583.728	27.7
584.067	27.95
584.406	28.06
584.745	28.01
585.083	28.42
585.422	28.3
585.761	28.22
586.1	28.52
586.438	28.25
586.777	28.49
587.115	28.47
587.454	28.12
587.792	28.85
588.13	28.53
588.469	28.37
588.807	28.76
589.145	28.81
589.483	28.91
589.821	28.94
590.159	28.49
590.497	28.87
590.835	28.8
591.173	28.91
591.511	28.97
591.849	28.7
592.187	29.04
592.524	28.83
592.862	28.89
593.2	29.08
593.537	28.82
593.875	29.11
594.212	29.14
594.55	29.57
594.887	29.4
595.224	29.09
595.561	29.42
595.899	29.48
596.236	29.39
596.573	29.31
596.91	29.44
597.247	29.33
597.584	29.58
597.921	29.49
598.258	29.4
598.594	29.17
598.931	29.49
599.268	29.39
599.604	29.62
599.941	29.59
600.277	29.48
600.614	29.71
600.95	29.76
601.287	29.85
601.623	29.85
601.959	30.13
602.296	30.43
602.632	30.08
602.968	30.4
603.304	30.28
603.64	30.2
603.976	30.53
604.312	30.08
604.648	30.31
604.984	30.29
605.319	30.26
605.655	29.97
605.991	30.33
606.326	30.14
606.662	30
606.998	30.19
607.333	30.32
607.668	30.39
608.004	30.35
608.339	30.54
608.674	30.43
609.01	30.8
609.345	30.8
609.68	31.01
610.015	30.83
610.35	31.1
610.685	31.27
611.02	30.86
611.355	30.79
611.689	30.82
612.024	30.74
612.359	30.84
612.694	30.96
613.028	31.19
613.363	31.44
613.697	31.11
614.032	31.62
614.366	31.39
614.7	31.66
615.035	31.45
615.369	31.55
615.703	31.75
616.037	32.12
616.371	31.73
616.705	31.81
617.039	31.73
617.373	31.85
617.707	31.63
618.041	31.89
618.375	32.08
618.709	31.95
619.042	32.37
619.376	32.46
619.71	32.07
620.043	31.73
620.377	32.17
620.71	32.13
621.043	32.47
621.377	32.32
621.71	32.52
622.043	32.55
622.376	32.29
622.709	32.35
623.043	32.56
623.376	32.98
623.709	32.69
624.041	32.55
624.374	32.92
624.707	33.04
625.04	32.89
625.373	32.76
625.705	32.87
626.038	33.03
626.37	33.37
626.703	32.61
627.035	32.92
627.368	32.95
627.7	32.99
628.032	33.06
628.365	33.05
628.697	32.99
629.029	33.02
629.361	33.07
629.693	32.95
630.025	32.86
630.357	32.93
630.689	33.35
631.021	33
631.353	33.31
631.684	33.58
632.016	33.59
632.348	33.46
632.679	33.51
633.011	33.91
633.342	33.71
633.674	33.6
634.005	33.71
634.336	33.56
634.668	33.36
634.999	34.05
635.33	33.84
635.661	34.32
635.992	33.63
636.323	33.87
636.654	33.6
636.985	33.84
637.316	34.12
637.647	34.03
637.977	33.97
638.308	34.15
638.639	33.86
638.969	34.02
639.3	34.5
639.63	34.64
639.961	34.32
640.291	34.39
640.622	34.52
640.952	34.06
641.282	34.4
641.612	34.26
641.943	34.55
642.273	34.76
642.603	34.65
642.933	34.58
643.263	34.21
643.592	34.97
643.922	34.85
644.252	34.54
644.582	35
644.911	34.38
645.241	34.89
645.571	35.3
645.9	34.92
646.23	35.66
646.559	34.74
646.888	35.06
647.218	35.05
647.547	35.14
647.876	35.03
648.205	35.18
648.534	35.45
648.863	35.37
649.192	35.18
649.521	35.34
649.85	35.5
650.179	35.28
650.508	34.72
650.837	35.38
651.165	35.21
651.494	35.63
651.822	35.77
652.151	35.17
652.479	35.66
652.808	35.47
653.136	35.7
653.465	35.69
653.793	35.73
654.121	36.06
654.449	35.7
654.777	35.87
655.105	36.05
655.433	36.02
655.761	36.15
656.089	35.87
656.417	36.29
656.745	36.16
657.073	36.63
657.4	36.32
657.728	36.28
658.056	35.89
658.383	36.8
658.711	36.49
659.038	36.37
659.365	36.42
659.693	36.42
660.02	36.32
660.347	36.59
660.674	36.55
661.001	36.25
661.329	36.32
661.656	36.1
661.982	36.1
662.309	36.53
662.636	36.71
662.963	36.95
663.29	36.32
663.616	36.71
663.943	37.14
664.27	36.12
664.596	36.61
664.923	36.77
665.249	37.42
665.576	37.02
665.902	36.89
666.228	36.92
666.554	36.56
666.881	37.28
667.207	36.56
667.533	36.26
667.859	37.28
668.185	36.54
668.511	37.61
668.837	36.98
669.162	37.59
669.488	37.09
669.814	36.96
670.139	37.71
670.465	36.96
670.791	37.55
671.116	37.38
671.442	37.49
671.767	36.94
672.092	37.86
672.418	37.79
672.743	37.44
673.068	37.85
673.393	37.01
673.718	37.66
