Data from 0153_crown_Reflection__2__43.txt Node

Date: Fri Sep 22 20:40:53 CDT 2023
User: ToomeyLab
Spectrometer: FLMS14357
Trigger mode: 0
Integration Time (sec): 1.000000E-2
Scans to average: 100
Electric dark correction enabled: true
Nonlinearity correction enabled: false
Boxcar width: 0
XAxis mode: Wavelengths
Number of Pixels in Spectrum: 2048
>>>>>Begin Spectral Data<<<<<
189.047	-156.6
189.435	-156.6
189.823	-156.6
190.211	231.21
190.599	105.75
190.987	1076.67
191.375	224.06
191.763	102.35
192.151	103.44
192.538	-83.07
192.926	74.21
193.314	-77.86
193.702	34.93
194.089	88.71
194.477	70.74
194.864	213.17
195.252	87.07
195.639	190.16
196.027	137.61
196.414	-86.65
196.801	-63.58
197.189	76.33
197.576	83.83
197.963	5.86
198.351	13.94
198.738	14.9
199.125	4.79
199.512	33.18
199.899	36.29
200.286	-8.77
200.673	49.02
201.06	38.4
201.447	24.63
201.833	24.96
202.22	31.84
202.607	20.66
202.994	53.44
203.38	40.86
203.767	-13.75
204.154	25.99
204.54	13.2
204.927	2.74
205.313	28.95
205.699	32.68
206.086	31.26
206.472	52.16
206.858	4.03
207.245	13.35
207.631	30.07
208.017	24.86
208.403	25.61
208.789	18.37
209.175	20.7
209.561	28.16
209.947	29.66
210.333	34.38
210.719	-5.78
211.105	37.99
211.491	39.01
211.876	34.56
212.262	26.26
212.648	49.63
213.034	32.03
213.419	24.2
213.805	11.5
214.19	9.56
214.576	35.63
214.961	22.93
215.346	3.36
215.732	16.37
216.117	12.3
216.502	32.72
216.888	44.41
217.273	23.12
217.658	12.05
218.043	19.38
218.428	29.26
218.813	0.9
219.198	-0.72
219.583	0.61
219.968	6.91
220.353	24.55
220.738	6.13
221.122	17.97
221.507	-0.28
221.892	8.12
222.276	9.86
222.661	-16.24
223.046	20.46
223.43	25.82
223.815	8.46
224.199	5.89
224.583	14.45
224.968	13.75
225.352	12.74
225.736	7.23
226.121	14.4
226.505	16.52
226.889	9.66
227.273	2.43
227.657	11.67
228.041	7.54
228.425	4.65
228.809	6.23
229.193	2.35
229.577	6.02
229.961	4.27
230.344	6.29
230.728	3.73
231.112	4.65
231.495	3.61
231.879	4.39
232.263	3.47
232.646	3.23
233.03	4.55
233.413	5.02
233.797	3.51
234.18	3.94
234.563	5.99
234.946	5.78
235.33	2.09
235.713	2.42
236.096	4.42
236.479	3.88
236.862	5.43
237.245	2.17
237.628	5.63
238.011	3.18
238.394	2.85
238.777	5.76
239.16	4.43
239.543	6.31
239.925	4.09
240.308	5.26
240.691	4.61
241.073	4.4
241.456	3.58
241.838	3.78
242.221	3.58
242.603	2.92
242.986	4.28
243.368	3.55
243.75	4.44
244.133	3.9
244.515	3.69
244.897	3.55
245.279	3.81
245.661	3.77
246.043	3.8
246.425	4.06
246.807	4.02
247.189	2.95
247.571	4.6
247.953	4.05
248.335	4.32
248.717	3.41
249.098	3.6
249.48	3.26
249.862	3.49
250.243	3.53
250.625	3.58
251.006	3.02
251.388	3.7
251.769	3.61
252.151	3.23
252.532	3.06
252.913	4.05
253.295	4.72
253.676	3.53
254.057	3.55
254.438	3.8
254.819	3.13
255.2	3.24
255.581	3.99
255.962	3.66
256.343	3.81
256.724	1.89
257.105	4.51
257.486	3.71
257.867	2.65
258.247	4.91
258.628	3.89
259.009	2.73
259.389	3.02
259.77	3.11
260.15	4.18
260.531	3.14
260.911	3.23
261.292	3.08
261.672	3.09
262.052	3.2
262.432	3.17
262.813	3.26
263.193	3.1
263.573	3.5
263.953	3.25
264.333	3.34
264.713	3.37
265.093	3.28
265.473	3.7
265.853	3.14
266.233	3.61
266.612	3.42
266.992	3.5
267.372	3.58
267.752	3.83
268.131	2.52
268.511	2.99
268.89	3.6
269.27	2.85
269.649	3.3
270.029	2.85
270.408	3.34
270.787	3.85
271.167	3.83
271.546	3.26
271.925	3.31
272.304	3.1
272.683	3.73
273.062	3.26
273.441	3.59
273.82	3.55
274.199	3.55
274.578	3.62
274.957	3.09
275.336	3.56
275.715	3.23
276.093	2.89
276.472	2.63
276.851	2.9
277.229	2.93
277.608	4.04
277.986	2.92
278.365	2.75
278.743	3.3
279.122	3.04
279.5	3.63
279.878	3
280.257	4.31
280.635	2.66
281.013	3.48
281.391	3.46
281.769	2.73
282.147	3.37
282.525	2.72
282.903	3.35
283.281	3.24
283.659	3.09
284.037	2.93
284.415	3.18
284.792	2.79
285.17	3.38
285.548	3.46
285.925	2.98
286.303	3.16
286.68	3.12
287.058	2.93
287.435	3.03
287.813	2.86
288.19	2.75
288.567	2.86
288.945	2.69
289.322	2.86
289.699	2.9
290.076	3.04
290.453	2.42
290.83	2.34
291.207	2.61
291.584	2.47
291.961	2.56
292.338	3.16
292.715	3.14
293.092	3.38
293.469	3.06
293.845	2.77
294.222	3.31
294.599	3.43
294.975	3.43
295.352	3.18
295.728	3.25
296.105	3.04
296.481	3.27
296.858	2.86
297.234	2.88
297.61	2.43
297.986	2.57
298.363	2.46
298.739	2.98
299.115	2.91
299.491	2.73
299.867	2.94
300.243	2.78
300.619	2.97
300.995	2.7
301.371	3.37
301.746	2.91
302.122	2.83
302.498	2.59
302.874	2.8
303.249	2.58
303.625	2.64
304	2.64
304.376	2.59
304.751	2.76
305.127	2.38
305.502	2.91
305.878	2.44
306.253	3.16
306.628	2.34
307.003	2.68
307.378	2.22
307.754	3.05
308.129	2.99
308.504	2.43
308.879	2.86
309.254	2.64
309.629	2.69
310.003	3.14
310.378	3.29
310.753	2.38
311.128	2.69
311.502	2.64
311.877	1.9
312.252	2.77
312.626	2.62
313.001	2.99
313.375	2.69
313.75	3
314.124	3.34
314.498	2.43
314.873	2.85
315.247	2.78
315.621	2.92
315.995	2.77
316.369	2.02
316.743	2.69
317.117	3.37
317.491	2.84
317.865	2.36
318.239	2.23
318.613	2.59
318.987	2.72
319.361	2.39
319.734	2.58
320.108	3.02
320.482	2.34
320.855	2.18
321.229	2.96
321.602	2.49
321.976	2.43
322.349	2.6
322.723	2.92
323.096	3.1
323.469	2.34
323.843	2.85
324.216	2.7
324.589	2.48
324.962	2.12
325.335	2.17
325.708	2.64
326.081	2.98
326.454	2.24
326.827	2.37
327.2	2.43
327.573	3.52
327.945	2.63
328.318	2.91
328.691	2.65
329.063	2.43
329.436	2.52
329.809	2.89
330.181	2.45
330.553	2.44
330.926	2.42
331.298	2.28
331.671	2.69
332.043	2.29
332.415	2.13
332.787	2.7
333.159	2.21
333.532	2.22
333.904	2.57
334.276	2.39
334.648	1.81
335.02	2.49
335.391	2.99
335.763	2.76
336.135	2.03
336.507	2.36
336.879	2.47
337.25	2.18
337.622	2.76
337.993	2.8
338.365	2.82
338.736	2.7
339.108	3.01
339.479	2.81
339.851	2.75
340.222	2.31
340.593	2.58
340.964	2.6
341.336	2.36
341.707	2.52
342.078	2.75
342.449	2.58
342.82	2.32
343.191	2.29
343.562	2.49
343.933	2.63
344.303	2.58
344.674	2.89
345.045	2.51
345.416	2.81
345.786	2.25
346.157	2.15
346.527	2.43
346.898	2.24
347.268	1.93
347.639	2.33
348.009	2.49
348.38	2.65
348.75	2.74
349.12	2.41
349.49	2.24
349.861	2.8
350.231	2.58
350.601	2.45
350.971	2.53
351.341	2.17
351.711	2.18
352.081	2.42
352.45	2.26
352.82	2.52
353.19	2.79
353.56	2.27
353.929	2.46
354.299	2.46
354.669	2.38
355.038	2.42
355.408	2.2
355.777	2.79
356.147	2.75
356.516	2.8
356.885	2.26
357.254	2.82
357.624	2.06
357.993	2.5
358.362	2.42
358.731	2.19
359.1	2.46
359.469	2.43
359.838	2.21
360.207	2.34
360.576	2.5
360.945	2.46
361.314	2.42
361.682	2.59
362.051	2.84
362.42	2.31
362.788	2.21
363.157	2.67
363.525	2.43
363.894	2.23
364.262	2.33
364.631	2.23
364.999	2.11
365.367	2.52
365.735	2.18
366.104	2.24
366.472	2.66
366.84	2.33
367.208	2.98
367.576	2.57
367.944	2.57
368.312	2.63
368.68	2.47
369.048	2.76
369.416	2.27
369.783	2.27
370.151	2.33
370.519	2.34
370.886	2.58
371.254	2.61
371.621	2.42
371.989	2.42
372.356	2.68
372.724	2.52
373.091	2.62
373.458	2.52
373.826	2.75
374.193	2.68
374.56	2.71
374.927	2.45
375.294	2.44
375.661	2.43
376.028	2.6
376.395	2.33
376.762	2.38
377.129	2.87
377.496	2.62
377.863	2.73
378.229	2.64
378.596	2.55
378.963	2.86
379.329	2.45
379.696	2.62
380.062	2.34
380.429	2.48
380.795	2.7
381.161	2.62
381.528	2.65
381.894	2.54
382.26	2.54
382.626	2.38
382.993	2.69
383.359	2.48
383.725	2.5
384.091	2.73
384.457	2.49
384.823	2.46
385.188	2.85
385.554	2.92
385.92	2.9
386.286	2.56
386.651	2.45
387.017	2.67
387.383	2.59
387.748	2.5
388.114	2.4
388.479	2.88
388.845	2.24
389.21	2.38
389.575	2.79
389.94	2.52
390.306	2.7
390.671	2.99
391.036	2.31
391.401	2.55
391.766	2.55
392.131	2.62
392.496	2.53
392.861	2.66
393.226	2.53
393.591	2.62
393.956	2.7
394.32	2.62
394.685	2.46
395.05	2.75
395.414	2.72
395.779	2.63
396.143	2.46
396.508	2.63
396.872	2.52
397.236	2.56
397.601	2.53
397.965	2.86
398.329	2.64
398.694	2.67
399.058	2.62
399.422	2.65
399.786	2.61
400.15	2.63
400.514	2.63
400.878	2.51
401.242	2.8
401.605	2.67
401.969	2.5
402.333	2.56
402.697	2.53
403.06	2.39
403.424	2.4
403.787	2.69
404.151	2.53
404.514	2.95
404.878	2.67
405.241	2.8
405.604	2.88
405.968	2.78
406.331	2.58
406.694	2.61
407.057	2.67
407.42	2.77
407.783	2.79
408.146	2.58
408.509	2.64
408.872	2.65
409.235	2.71
409.598	2.66
409.961	2.88
410.323	2.68
410.686	2.48
411.049	2.55
411.411	2.72
411.774	2.93
412.136	2.76
412.499	2.72
412.861	2.72
413.223	2.79
413.586	2.64
413.948	3.05
414.31	2.42
414.672	2.59
415.035	2.5
415.397	2.85
415.759	3.04
416.121	2.46
416.483	2.7
416.845	2.78
417.206	2.51
417.568	2.59
417.93	2.71
418.292	2.64
418.653	2.62
419.015	2.8
419.377	2.55
419.738	2.63
420.1	2.56
420.461	2.71
420.822	2.52
421.184	2.56
421.545	2.64
421.906	2.59
422.267	2.58
422.629	2.69
422.99	2.61
423.351	2.57
423.712	2.62
424.073	2.63
424.434	2.69
424.795	2.64
425.155	2.74
425.516	2.64
425.877	2.64
426.238	2.56
426.598	2.6
426.959	2.66
427.32	2.69
427.68	2.65
428.041	2.66
428.401	2.81
428.761	2.77
429.122	2.71
429.482	2.66
429.842	2.64
430.202	2.52
430.563	2.95
430.923	2.82
431.283	2.78
431.643	2.9
432.003	2.95
432.363	3.02
432.722	2.7
433.082	2.84
433.442	2.79
433.802	2.95
434.161	2.65
434.521	2.75
434.881	2.89
435.24	2.8
435.6	2.62
435.959	2.61
436.319	2.58
436.678	2.91
437.037	2.88
437.396	2.81
437.756	2.84
438.115	2.91
438.474	2.73
438.833	2.92
439.192	2.69
439.551	2.77
439.91	2.93
440.269	2.76
440.628	2.59
440.987	2.85
441.345	2.83
441.704	2.93
442.063	2.79
442.421	2.75
442.78	2.8
443.138	2.8
443.497	2.77
443.855	2.75
444.214	2.61
444.572	2.71
444.93	2.87
445.288	2.86
445.647	2.94
446.005	2.76
446.363	2.77
446.721	2.88
447.079	2.65
447.437	2.88
447.795	2.82
448.153	2.79
448.51	2.74
448.868	2.77
449.226	2.73
449.584	2.74
449.941	2.68
450.299	2.85
450.656	2.83
451.014	2.96
451.371	2.9
451.729	2.84
452.086	2.78
452.443	2.77
452.801	2.9
453.158	2.8
453.515	2.94
453.872	2.74
454.229	2.73
454.586	2.98
454.943	2.8
455.3	2.93
455.657	2.88
456.014	2.91
456.371	2.98
456.727	3.03
457.084	3.09
457.441	2.7
457.797	2.96
458.154	2.9
458.51	2.91
458.867	2.98
459.223	3
459.58	2.93
459.936	2.93
460.292	2.92
460.648	2.97
461.005	2.87
461.361	3.01
461.717	2.74
462.073	2.84
462.429	2.69
462.785	2.83
463.141	2.9
463.496	2.97
463.852	2.95
464.208	2.96
464.564	3.06
464.919	2.89
465.275	3.09
465.631	3.08
465.986	2.89
466.342	3.2
466.697	2.94
467.052	2.84
467.408	3.01
467.763	3.09
468.118	3.09
468.473	3
468.829	3
469.184	2.93
469.539	2.94
469.894	2.87
470.249	3.04
470.603	2.91
470.958	2.91
471.313	3.02
471.668	2.96
472.023	2.99
472.377	3.05
472.732	2.93
473.086	3.19
473.441	2.58
473.795	3.18
474.15	2.9
474.504	2.9
474.859	3.05
475.213	2.88
475.567	2.82
475.921	2.98
476.275	3.06
476.63	2.82
476.984	2.77
477.338	3.08
477.692	3.03
478.045	3.05
478.399	3.06
478.753	2.92
479.107	3.04
479.461	3.08
479.814	2.94
480.168	3.03
480.521	2.94
480.875	3.16
481.228	2.99
481.582	2.9
481.935	2.97
482.289	2.82
482.642	3.01
482.995	2.92
483.348	2.98
483.701	2.96
484.055	2.93
484.408	2.96
484.761	2.99
485.114	2.78
485.466	2.82
485.819	2.74
486.172	2.77
486.525	2.74
486.878	2.78
487.23	2.82
487.583	2.9
487.936	2.86
488.288	2.92
488.641	2.85
488.993	2.85
489.345	2.82
489.698	2.85
490.05	2.82
490.402	2.87
490.754	2.83
491.107	2.85
491.459	2.92
491.811	2.98
492.163	2.91
492.515	2.92
492.866	2.95
493.218	2.95
493.57	2.86
493.922	2.78
494.274	2.9
494.625	2.92
494.977	3.01
495.328	3.12
495.68	2.96
496.031	2.96
496.383	3.1
496.734	3.05
497.086	3.06
497.437	3.05
497.788	2.96
498.139	3.02
498.49	3.08
498.842	2.96
499.193	2.93
499.544	3.09
499.894	3.03
500.245	3.14
500.596	3.02
500.947	3.08
501.298	3.11
501.648	3.08
501.999	3.08
502.35	3
502.7	3.07
503.051	3.16
503.401	3.06
503.752	3.13
504.102	3.05
504.452	3.04
504.803	3.13
505.153	3.05
505.503	2.99
505.853	3.28
506.203	2.95
506.553	3.11
506.903	3.11
507.253	3.09
507.603	3.19
507.953	3.28
508.303	3.23
508.652	3.12
509.002	3.34
509.352	3.09
509.701	3.15
510.051	3.15
510.4	3.1
510.75	3.07
511.099	2.94
511.449	3.1
511.798	3.03
512.147	3.11
512.496	3.05
512.846	2.97
513.195	3.1
513.544	3.11
513.893	3.11
514.242	3.07
514.591	3.07
514.939	3.14
515.288	3.02
515.637	3.07
515.986	3.01
516.334	3.12
516.683	3.26
517.032	3.29
517.38	3.18
517.729	3.14
518.077	3.18
518.426	3.25
518.774	3.21
519.122	3.09
519.47	3.02
519.819	3.09
520.167	3.13
520.515	3.1
520.863	3.04
521.211	3.04
521.559	3.02
521.907	3.12
522.255	3.11
522.602	3.16
522.95	3.02
523.298	3.17
523.645	3.1
523.993	3.12
524.341	3.18
524.688	3.1
525.036	3.18
525.383	3.17
525.73	3.25
526.078	3.16
526.425	3.09
526.772	3.21
527.119	3.08
527.466	2.92
527.814	2.98
528.161	2.99
528.508	3.07
528.854	3.02
529.201	3.04
529.548	3.11
529.895	2.96
530.242	2.98
530.588	2.91
530.935	2.86
531.282	2.93
531.628	3.01
531.975	2.94
532.321	3.03
532.667	2.99
533.014	3.09
533.36	3.17
533.706	3.07
534.052	3.16
534.399	3.11
534.745	3.13
535.091	2.95
535.437	2.99
535.783	2.95
536.129	3.03
536.474	3.09
536.82	3
537.166	3.15
537.512	3.1
537.857	3.11
538.203	3.14
538.549	3.05
538.894	3.02
539.239	3
539.585	3.05
539.93	3.21
540.276	3.1
540.621	3.06
540.966	3.16
541.311	3.24
541.656	3.07
542.001	3.28
542.346	3.13
542.691	3.11
543.036	3.17
543.381	3.01
543.726	2.99
544.071	3
544.415	3.02
544.76	3.02
545.105	2.99
545.449	3.01
545.794	3.09
546.138	3.11
546.483	3.1
546.827	3.11
547.171	3.06
547.516	3.24
547.86	3.22
548.204	3.13
548.548	3.05
548.892	3.16
549.236	3.16
549.58	3.12
549.924	3.18
550.268	3.3
550.612	3.14
550.956	3.13
551.3	3.23
551.643	3.32
551.987	3.09
552.33	3.43
552.674	3.13
553.017	3.18
553.361	3.21
553.704	3.3
554.048	3.24
554.391	3.2
554.734	3.15
555.077	3.09
555.42	2.99
555.764	3.12
556.107	3.38
556.45	3.19
556.793	3.18
557.135	3.24
557.478	3.19
557.821	3.19
558.164	3.36
558.507	3.31
558.849	3.24
559.192	3.43
559.534	3.29
559.877	3.07
560.219	3.27
560.562	3.24
560.904	3.25
561.246	3.45
561.589	3.32
561.931	3.19
562.273	3.27
562.615	3.19
562.957	3.22
563.299	3.33
563.641	3.24
563.983	3.36
564.325	3.13
564.667	3.16
565.008	3.3
565.35	3.29
565.692	3.29
566.033	3.25
566.375	3.11
566.716	3.29
567.058	3.29
567.399	3.27
567.741	3.49
568.082	3.2
568.423	3.09
568.764	3.31
569.105	3.12
569.447	3.23
569.788	3.15
570.129	3.2
570.47	3.34
570.811	3.12
571.151	3.34
571.492	3.25
571.833	3.06
572.174	3.15
572.514	3.24
572.855	3.28
573.195	3.2
573.536	3.1
573.876	3.17
574.217	3.11
574.557	3.01
574.898	3.33
575.238	3.16
575.578	3.34
575.918	3.22
576.258	3.13
576.598	3.35
576.938	3.27
577.278	3.35
577.618	3.14
577.958	3.27
578.298	3.25
578.638	3.03
578.977	3.28
579.317	3.26
579.657	3.19
579.996	3.35
580.336	3.35
580.675	3.34
581.014	3.05
581.354	3.23
581.693	3.25
582.032	3.41
582.372	3.36
582.711	3.33
583.05	3.3
583.389	3.29
583.728	3.3
584.067	3.36
584.406	3.22
584.745	3.05
585.083	3.42
585.422	3.33
585.761	3.14
586.1	3.28
586.438	3.03
586.777	3.2
587.115	3.38
587.454	3.29
587.792	3.41
588.13	3.27
588.469	3.25
588.807	3.34
589.145	3.31
589.483	3.46
589.821	3.23
590.159	3.23
590.497	3.44
590.835	3.27
591.173	3.22
591.511	3.13
591.849	3.36
592.187	3.27
592.524	3.28
592.862	3.3
593.2	3.11
593.537	3.29
593.875	3.3
594.212	3.27
594.55	3.52
594.887	3.32
595.224	3.34
595.561	3.54
595.899	3.57
596.236	3.54
596.573	3.29
596.91	3.28
597.247	3.22
597.584	3.34
597.921	3.38
598.258	3.35
598.594	3.59
598.931	3.22
599.268	3.1
599.604	3.45
599.941	3.4
600.277	3.33
600.614	3.25
600.95	3.42
601.287	3.19
601.623	3.21
601.959	3.51
602.296	3.4
602.632	3.21
602.968	3.32
603.304	3.5
603.64	3.19
603.976	3.48
604.312	3.35
604.648	3.25
604.984	3.39
605.319	3.35
605.655	3.32
605.991	3.24
606.326	3.25
606.662	3.15
606.998	3.28
607.333	3.31
607.668	3.19
608.004	3.21
608.339	3.13
608.674	3.3
609.01	3.26
609.345	3.22
609.68	3.47
610.015	3.28
610.35	3.27
610.685	3.29
611.02	3.42
611.355	3.46
611.689	3.4
612.024	3.47
612.359	3.17
612.694	3.15
613.028	3.25
613.363	3.22
613.697	3.29
614.032	3.12
614.366	3.34
614.7	3.13
615.035	3.3
615.369	3.26
615.703	3.41
616.037	3.6
616.371	3.52
616.705	3.68
617.039	3.6
617.373	3.49
617.707	3.37
618.041	3.58
618.375	3.4
618.709	3.1
619.042	3.56
619.376	3.54
619.71	3.48
620.043	3.09
620.377	3.02
620.71	3.21
621.043	3.44
621.377	3.09
621.71	3.22
622.043	3.38
622.376	3.64
622.709	3.48
623.043	3.38
623.376	3.51
623.709	3.39
624.041	3.1
624.374	3.33
624.707	3.51
625.04	3.54
625.373	3.01
625.705	3.39
626.038	3.3
626.37	3.92
626.703	3.22
627.035	3.55
627.368	3.37
627.7	3.42
628.032	3.38
628.365	3.29
628.697	3.29
629.029	3.56
629.361	3.29
629.693	3.49
630.025	3.27
630.357	3.12
630.689	3.3
631.021	3.35
631.353	2.95
631.684	3.28
632.016	3.69
632.348	3.44
632.679	3.23
633.011	3.49
633.342	3.47
633.674	3.76
634.005	3.08
634.336	3.67
634.668	3.31
634.999	3.36
635.33	3.52
635.661	3.6
635.992	3.29
636.323	3.29
636.654	3.33
636.985	3.3
637.316	3.34
637.647	3.39
637.977	3.04
638.308	3.93
638.639	3.27
638.969	3.41
639.3	3.22
639.63	3.66
639.961	3.2
640.291	3.2
640.622	3.74
640.952	3.1
641.282	3.75
641.612	3.23
641.943	3.79
642.273	3.71
642.603	3.21
642.933	3.17
643.263	2.93
643.592	3.36
643.922	3.73
644.252	2.98
644.582	3.76
644.911	3.36
645.241	3.56
645.571	3.3
645.9	3.49
646.23	3.42
646.559	3.66
646.888	3.57
647.218	3.44
647.547	3.36
647.876	3.67
648.205	3.07
648.534	3.66
648.863	3.4
649.192	3.26
649.521	3.77
649.85	3.55
650.179	3.41
650.508	3.09
650.837	3.79
651.165	3.37
651.494	3.2
651.822	3.37
652.151	3.44
652.479	3.65
652.808	3.33
653.136	3.82
653.465	3.52
653.793	3.08
654.121	3.52
654.449	3.25
654.777	3.73
655.105	3.61
655.433	3.9
655.761	4.01
656.089	3.72
656.417	3.91
656.745	3.79
657.073	3.44
657.4	4.3
657.728	3.41
658.056	3.95
658.383	3.57
658.711	3.45
659.038	3.44
659.365	3.14
659.693	3.22
660.02	3.69
660.347	3.66
660.674	3.25
661.001	3.44
661.329	3.36
661.656	3.49
661.982	3.47
662.309	3.6
662.636	3.45
662.963	3.79
663.29	3.79
663.616	3.54
663.943	3.51
664.27	3.94
664.596	3.5
664.923	3.47
665.249	3.52
665.576	3.5
665.902	3.69
666.228	3.12
666.554	3.15
666.881	4.07
667.207	3.59
667.533	3.31
667.859	3.54
668.185	3.73
668.511	3.99
668.837	3.31
669.162	3.55
669.488	3.85
669.814	3.2
670.139	3.63
670.465	4.09
670.791	3.67
671.116	3.31
671.442	4.2
671.767	3
672.092	3.61
672.418	4.36
672.743	3.67
673.068	3.51
673.393	3.32
673.718	3.8
674.043	3.92
674.368	3.8
674.693	3.16
675.018	3.71
675.343	3.77
675.667	3.7
675.992	3.41
676.317	4.2
676.641	3.77
676.966	4.06
677.29	3.61
677.615	3.79
677.939	3.93
678.264	3.45
678.588	3.81
678.912	4.32
679.236	4.01
679.56	3.63
679.885	3.35
680.209	3.94
680.532	3.46
680.856	3.76
681.18	4.28
681.504	3.54
681.828	3.97
682.152	3.58
682.475	4.38
682.799	3.94
683.122	3.86
683.446	3.74
683.769	3.5
684.093	3.3
684.416	3.81
684.739	4.09
685.062	4.19
685.386	3.67
685.709	3.84
686.032	3.55
686.355	3.32
686.678	4.13
687.001	3.79
687.324	4.31
687.646	4.1
687.969	4.21
688.292	3.83
688.614	3.62
688.937	3.11
689.26	3.4
689.582	4.24
689.904	3.67
690.227	3.87
690.549	4.51
690.871	3.55
691.194	3.61
691.516	4.29
691.838	3.91
692.16	3.4
692.482	3.88
692.804	3.6
693.126	3.3
