Data from 0153_chest_Reflection__0__36.txt Node

Date: Fri Sep 22 20:38:06 CDT 2023
User: ToomeyLab
Spectrometer: FLMS14357
Trigger mode: 0
Integration Time (sec): 1.000000E-2
Scans to average: 100
Electric dark correction enabled: true
Nonlinearity correction enabled: false
Boxcar width: 0
XAxis mode: Wavelengths
Number of Pixels in Spectrum: 2048
>>>>>Begin Spectral Data<<<<<
189.047	-62.21
189.435	-62.21
189.823	-62.21
190.211	-22.7
190.599	262.92
190.987	2030.48
191.375	559.6
191.763	-41.26
192.151	51.22
192.538	167.97
192.926	30.56
193.314	-21.64
193.702	-0.64
194.089	96.52
194.477	9.82
194.864	131.63
195.252	36.31
195.639	46.34
196.027	89.4
196.414	-129.54
196.801	86.42
197.189	46.98
197.576	88.4
197.963	21.51
198.351	56.38
198.738	-2.72
199.125	20.21
199.512	51.24
199.899	26.27
200.286	30.37
200.673	25.82
201.06	-0.62
201.447	47.35
201.833	2.89
202.22	39.54
202.607	46.89
202.994	40.5
203.38	11.52
203.767	-17.2
204.154	20.73
204.54	6.68
204.927	-4.42
205.313	5.32
205.699	45.08
206.086	14.66
206.472	44.18
206.858	11.77
207.245	-22.18
207.631	14.76
208.017	16.57
208.403	3.34
208.789	25.83
209.175	45.32
209.561	23.24
209.947	37.08
210.333	24.92
210.719	-5.85
211.105	27.94
211.491	21.44
211.876	14.35
212.262	19.81
212.648	26.76
213.034	40.63
213.419	-2.3
213.805	9.9
214.19	14.38
214.576	11.57
214.961	18.73
215.346	2.55
215.732	18.57
216.117	12.47
216.502	24.14
216.888	10.23
217.273	17.43
217.658	-3.89
218.043	29.11
218.428	26.93
218.813	-0.76
219.198	0.85
219.583	36.84
219.968	-3.1
220.353	32.79
220.738	5.18
221.122	-0.03
221.507	22.16
221.892	9.13
222.276	-0.91
222.661	-20.32
223.046	22.46
223.43	16.22
223.815	3.54
224.199	0.67
224.583	10.24
224.968	8.29
225.352	6.24
225.736	9.03
226.121	14.43
226.505	14.13
226.889	4.31
227.273	1.87
227.657	1.07
228.041	5.63
228.425	6.33
228.809	5.76
229.193	3.16
229.577	6.92
229.961	6.18
230.344	5.69
230.728	3.19
231.112	3.83
231.495	2.99
231.879	3.78
232.263	2.56
232.646	2.59
233.03	2.89
233.413	3.77
233.797	3.36
234.18	3.55
234.563	5.58
234.946	5.96
235.33	2.57
235.713	2.56
236.096	4.07
236.479	3.69
236.862	5.67
237.245	3.52
237.628	5.24
238.011	4.92
238.394	3.38
238.777	5.73
239.16	4.95
239.543	4.59
239.925	3.76
240.308	2.7
240.691	3.22
241.073	5.46
241.456	4.64
241.838	2.76
242.221	4.1
242.603	3.62
242.986	4.07
243.368	3.74
243.75	3.42
244.133	4.15
244.515	3.73
244.897	3.42
245.279	3.44
245.661	3.68
246.043	3.31
246.425	4
246.807	3.97
247.189	2.35
247.571	3.86
247.953	3.66
248.335	3.68
248.717	3.4
249.098	3.37
249.48	3.08
249.862	3.26
250.243	3.12
250.625	3.31
251.006	2.91
251.388	3.48
251.769	3.62
252.151	3.15
252.532	3.54
252.913	2.78
253.295	4.41
253.676	3.6
254.057	3.95
254.438	3.76
254.819	2.59
255.2	2.92
255.581	2.85
255.962	5.37
256.343	2.48
256.724	2.49
257.105	3.7
257.486	3.78
257.867	4.01
258.247	2.71
258.628	3.86
259.009	3.11
259.389	3.2
259.77	3.42
260.15	3.3
260.531	3.32
260.911	2.66
261.292	3.19
261.672	2.64
262.052	2.99
262.432	2.93
262.813	3.15
263.193	3.1
263.573	3.65
263.953	2.95
264.333	3.55
264.713	3.38
265.093	3.23
265.473	2.99
265.853	2.75
266.233	3.71
266.612	3.08
266.992	3.16
267.372	3.72
267.752	3.81
268.131	3.67
268.511	2.54
268.89	3.49
269.27	3
269.649	2.65
270.029	2.96
270.408	2.71
270.787	3.27
271.167	2.64
271.546	2.08
271.925	3.4
272.304	2.87
272.683	3.16
273.062	3.37
273.441	3.07
273.82	3.57
274.199	3.47
274.578	3.26
274.957	3
275.336	2.82
275.715	3.25
276.093	2.83
276.472	2.63
276.851	3.18
277.229	2.64
277.608	2.86
277.986	2.71
278.365	2.98
278.743	3.22
279.122	3.27
279.5	3.15
279.878	3.23
280.257	3.77
280.635	3.22
281.013	3.69
281.391	2.51
281.769	3.13
282.147	2.98
282.525	3.28
282.903	2.83
283.281	2.85
283.659	2.9
284.037	2.57
284.415	2.76
284.792	2.61
285.17	3.08
285.548	3.33
285.925	2.86
286.303	3.17
286.68	2.72
287.058	2.94
287.435	3.18
287.813	2.76
288.19	2.46
288.567	2.95
288.945	2.89
289.322	2.81
289.699	2.94
290.076	2.6
290.453	2.65
290.83	2.51
291.207	2.65
291.584	2.71
291.961	3.01
292.338	2.99
292.715	3.03
293.092	2.86
293.469	2.67
293.845	2.43
294.222	2.85
294.599	2.98
294.975	3.25
295.352	2.94
295.728	2.73
296.105	3.07
296.481	2.78
296.858	3.06
297.234	2.79
297.61	2.89
297.986	3.03
298.363	2.5
298.739	3.23
299.115	2.79
299.491	3.05
299.867	3.13
300.243	2.72
300.619	2.59
300.995	2.46
301.371	3.36
301.746	2.62
302.122	2.97
302.498	2.72
302.874	2.91
303.249	3.04
303.625	2.33
304	3.15
304.376	3.26
304.751	2.89
305.127	2.59
305.502	3.03
305.878	3.43
306.253	2.83
306.628	2.77
307.003	3.11
307.378	2.76
307.754	2.84
308.129	2.42
308.504	3.01
308.879	3.11
309.254	3.06
309.629	3.6
310.003	3.47
310.378	3.5
310.753	2.97
311.128	3.04
311.502	3.05
311.877	2.42
312.252	2.97
312.626	2.91
313.001	3.07
313.375	3.01
313.75	3.13
314.124	3.01
314.498	2.68
314.873	2.96
315.247	3.2
315.621	2.78
315.995	3.13
316.369	2.87
316.743	3.34
317.117	3.23
317.491	3.19
317.865	2.64
318.239	2.75
318.613	3.11
318.987	2.9
319.361	3.01
319.734	3.15
320.108	2.98
320.482	2.58
320.855	3.3
321.229	3.71
321.602	3.17
321.976	2.67
322.349	2.77
322.723	3.22
323.096	2.8
323.469	2.87
323.843	3.07
324.216	3.19
324.589	3.28
324.962	2.72
325.335	3.09
325.708	3.28
326.081	3.48
326.454	2.68
326.827	2.84
327.2	2.59
327.573	3.2
327.945	3.28
328.318	3.24
328.691	3.15
329.063	2.99
329.436	3.36
329.809	3.1
330.181	3.22
330.553	3.06
330.926	3.08
331.298	3.28
331.671	2.82
332.043	2.67
332.415	2.83
332.787	3.49
333.159	3.1
333.532	2.6
333.904	2.63
334.276	3.14
334.648	2.35
335.02	2.85
335.391	2.91
335.763	3.28
336.135	2.75
336.507	2.97
336.879	3.07
337.25	3.14
337.622	3.37
337.993	3.08
338.365	3.14
338.736	3.05
339.108	3.28
339.479	2.72
339.851	2.33
340.222	2.65
340.593	2.92
340.964	2.78
341.336	2.98
341.707	2.8
342.078	3.02
342.449	2.81
342.82	2.68
343.191	2.76
343.562	3.07
343.933	3.02
344.303	3.01
344.674	3.06
345.045	2.77
345.416	3.49
345.786	2.81
346.157	2.81
346.527	3.13
346.898	2.61
347.268	2.87
347.639	2.83
348.009	2.65
348.38	2.96
348.75	3.3
349.12	2.99
349.49	3.11
349.861	2.85
350.231	3.11
350.601	3.16
350.971	3.01
351.341	2.58
351.711	3.21
352.081	2.92
352.45	2.7
352.82	3.14
353.19	2.99
353.56	2.7
353.929	3.33
354.299	2.8
354.669	2.9
355.038	3.19
355.408	3.08
355.777	3.12
356.147	3.04
356.516	2.91
356.885	2.89
357.254	3.21
357.624	2.27
357.993	2.88
358.362	3.06
358.731	2.62
359.1	2.7
359.469	2.93
359.838	2.76
360.207	2.51
360.576	3.13
360.945	2.86
361.314	3.29
361.682	3.34
362.051	3.07
362.42	2.94
362.788	3.05
363.157	2.87
363.525	2.78
363.894	2.82
364.262	2.91
364.631	2.78
364.999	2.91
365.367	3.15
365.735	2.88
366.104	2.96
366.472	3.21
366.84	3.12
367.208	3.33
367.576	3.05
367.944	3.06
368.312	3.24
368.68	2.92
369.048	3.07
369.416	2.77
369.783	3.09
370.151	2.88
370.519	3.11
370.886	3.24
371.254	3.41
371.621	3
371.989	2.89
372.356	3.1
372.724	2.92
373.091	2.99
373.458	2.94
373.826	3.51
374.193	3.17
374.56	3.28
374.927	3.1
375.294	3.01
375.661	3.09
376.028	3.16
376.395	3.18
376.762	2.96
377.129	3.28
377.496	3.4
377.863	3
378.229	2.98
378.596	2.91
378.963	3.31
379.329	3.06
379.696	3.18
380.062	2.82
380.429	3.24
380.795	2.99
381.161	2.96
381.528	2.83
381.894	2.86
382.26	2.71
382.626	3.19
382.993	3.15
383.359	2.7
383.725	3.03
384.091	3.14
384.457	2.96
384.823	2.81
385.188	3.22
385.554	3.29
385.92	3.18
386.286	3.11
386.651	2.95
387.017	3.16
387.383	2.66
387.748	2.8
388.114	3.1
388.479	3.22
388.845	2.85
389.21	2.81
389.575	3.34
389.94	2.72
390.306	3.32
390.671	3.52
391.036	2.99
391.401	2.88
391.766	2.93
392.131	3.06
392.496	3.16
392.861	3.05
393.226	3.24
393.591	3.15
393.956	3.23
394.32	2.98
394.685	2.84
395.05	3.21
395.414	3.21
395.779	3.18
396.143	3.06
396.508	3.24
396.872	3.17
397.236	3.21
397.601	3.05
397.965	3.3
398.329	3.08
398.694	3.04
399.058	3.08
399.422	3.16
399.786	3.19
400.15	3.18
400.514	3.11
400.878	2.89
401.242	3.58
401.605	3.03
401.969	2.85
402.333	3.19
402.697	2.97
403.06	3.15
403.424	2.97
403.787	3.06
404.151	3.25
404.514	3.23
404.878	3.18
405.241	3.27
405.604	3.15
405.968	3.31
406.331	3.11
406.694	3.05
407.057	3.05
407.42	3.25
407.783	3.13
408.146	3.22
408.509	3.25
408.872	3.01
409.235	2.94
409.598	3.26
409.961	3.24
410.323	3.26
410.686	3.19
411.049	3.38
411.411	3.54
411.774	2.98
412.136	3.19
412.499	3.05
412.861	3.29
413.223	3.03
413.586	3.32
413.948	3.18
414.31	3.05
414.672	3.02
415.035	2.86
415.397	3.33
415.759	3.4
416.121	3.16
416.483	3.01
416.845	3.17
417.206	3.06
417.568	3.25
417.93	3.08
418.292	3.16
418.653	2.97
419.015	3.11
419.377	2.98
419.738	3.12
420.1	3.01
420.461	3.16
420.822	2.98
421.184	3
421.545	3.02
421.906	3.07
422.267	2.98
422.629	3.15
422.99	2.98
423.351	2.9
423.712	3.06
424.073	2.94
424.434	3.11
424.795	2.99
425.155	3.12
425.516	3.09
425.877	3
426.238	2.95
426.598	3
426.959	3
427.32	3.04
427.68	2.95
428.041	3.05
428.401	3.14
428.761	3.05
429.122	3.19
429.482	3.16
429.842	3.06
430.202	3.19
430.563	3.24
430.923	3.11
431.283	3.11
431.643	3.24
432.003	3.13
432.363	3.36
432.722	3.29
433.082	3.26
433.442	3.26
433.802	3.3
434.161	3.2
434.521	3.31
434.881	3.22
435.24	3.07
435.6	3.09
435.959	3.11
436.319	3.22
436.678	3.26
437.037	3.15
437.396	3.16
437.756	3.27
438.115	3.2
438.474	3.21
438.833	3.26
439.192	3.2
439.551	3.29
439.91	3.36
440.269	3.34
440.628	3.16
440.987	3.08
441.345	3.21
441.704	3.37
442.063	3.13
442.421	3.14
442.78	3.18
443.138	3.21
443.497	3.23
443.855	3.24
444.214	3.07
444.572	3.25
444.93	3.23
445.288	3.28
445.647	3.37
446.005	3.14
446.363	3.15
446.721	3.17
447.079	3.23
447.437	3.26
447.795	3.27
448.153	3.1
448.51	3.22
448.868	3.11
449.226	3.23
449.584	3.15
449.941	3.21
450.299	3.24
450.656	3.3
451.014	3.25
451.371	3.21
451.729	3.3
452.086	3.25
452.443	3.35
452.801	3.31
453.158	3.27
453.515	3.35
453.872	3.39
454.229	3.38
454.586	3.24
454.943	3.15
455.3	3.33
455.657	3.22
456.014	3.26
456.371	3.29
456.727	3.55
457.084	3.37
457.441	3.27
457.797	3.36
458.154	3.26
458.51	3.36
458.867	3.41
459.223	3.32
459.58	3.34
459.936	3.3
460.292	3.45
460.648	3.38
461.005	3.4
461.361	3.36
461.717	3.2
462.073	3.23
462.429	3.18
462.785	3.25
463.141	3.24
463.496	3.41
463.852	3.36
464.208	3.26
464.564	3.43
464.919	3.41
465.275	3.61
465.631	3.47
465.986	3.38
466.342	3.4
466.697	3.47
467.052	3.33
467.408	3.38
467.763	3.46
468.118	3.62
468.473	3.48
468.829	3.34
469.184	3.41
469.539	3.39
469.894	3.38
470.249	3.42
470.603	3.45
470.958	3.56
471.313	3.51
471.668	3.5
472.023	3.42
472.377	3.42
472.732	3.27
473.086	3.51
473.441	3.27
473.795	3.57
474.15	3.35
474.504	3.47
474.859	3.6
475.213	3.2
475.567	3.24
475.921	3.49
476.275	3.51
476.63	3.34
476.984	3.43
477.338	3.5
477.692	3.45
478.045	3.7
478.399	3.63
478.753	3.28
479.107	3.35
479.461	3.45
479.814	3.42
480.168	3.58
480.521	3.5
480.875	3.52
481.228	3.46
481.582	3.31
481.935	3.44
482.289	3.39
482.642	3.27
482.995	3.49
483.348	3.44
483.701	3.23
484.055	3.43
484.408	3.41
484.761	3.46
485.114	3.31
485.466	3.25
485.819	3.18
486.172	3.18
486.525	3.17
486.878	3.21
487.23	3.23
487.583	3.31
487.936	3.35
488.288	3.37
488.641	3.32
488.993	3.32
489.345	3.29
489.698	3.23
490.05	3.26
490.402	3.3
490.754	3.24
491.107	3.29
491.459	3.4
491.811	3.29
492.163	3.39
492.515	3.38
492.866	3.43
493.218	3.42
493.57	3.39
493.922	3.27
494.274	3.28
494.625	3.38
494.977	3.42
495.328	3.44
495.68	3.56
496.031	3.48
496.383	3.55
496.734	3.49
497.086	3.42
497.437	3.65
497.788	3.66
498.139	3.51
498.49	3.64
498.842	3.43
499.193	3.54
499.544	3.55
499.894	3.48
500.245	3.51
500.596	3.54
500.947	3.54
501.298	3.57
501.648	3.6
501.999	3.66
502.35	3.72
502.7	3.69
503.051	3.53
503.401	3.53
503.752	3.68
504.102	3.69
504.452	3.54
504.803	3.49
505.153	3.59
505.503	3.52
505.853	3.55
506.203	3.45
506.553	3.71
506.903	3.63
507.253	3.46
507.603	3.67
507.953	3.73
508.303	3.72
508.652	3.61
509.002	3.74
509.352	3.65
509.701	3.75
510.051	3.5
510.4	3.6
510.75	3.65
511.099	3.48
511.449	3.65
511.798	3.64
512.147	3.7
512.496	3.64
512.846	3.65
513.195	3.74
513.544	3.63
513.893	3.73
514.242	3.59
514.591	3.71
514.939	3.76
515.288	3.7
515.637	3.7
515.986	3.72
516.334	3.75
516.683	3.76
517.032	3.81
517.38	3.76
517.729	3.76
518.077	3.8
518.426	3.8
518.774	3.81
519.122	3.73
519.47	3.55
519.819	3.8
520.167	3.76
520.515	3.69
520.863	3.56
521.211	3.65
521.559	3.63
521.907	3.7
522.255	3.8
522.602	3.62
522.95	3.71
523.298	3.81
523.645	3.86
523.993	3.83
524.341	3.83
524.688	3.88
525.036	3.85
525.383	3.84
525.73	3.93
526.078	3.84
526.425	3.84
526.772	4
527.119	3.84
527.466	3.62
527.814	3.78
528.161	3.66
528.508	3.82
528.854	3.81
529.201	3.8
529.548	3.78
529.895	3.7
530.242	3.7
530.588	3.65
530.935	3.59
531.282	3.57
531.628	3.7
531.975	3.65
532.321	3.7
532.667	3.77
533.014	3.79
533.36	3.81
533.706	3.83
534.052	3.94
534.399	3.95
534.745	3.84
535.091	3.78
535.437	3.74
535.783	3.76
536.129	3.79
536.474	3.88
536.82	3.79
537.166	3.93
537.512	3.9
537.857	3.93
538.203	4
538.549	3.92
538.894	3.82
539.239	3.9
539.585	3.9
539.93	4.15
540.276	3.99
540.621	3.99
540.966	4.15
541.311	4.1
541.656	3.97
542.001	4.02
542.346	4.04
542.691	4.09
543.036	4.02
543.381	3.93
543.726	3.85
544.071	3.88
544.415	3.94
544.76	3.99
545.105	3.91
545.449	3.99
545.794	4.07
546.138	4.11
546.483	4.09
546.827	4.12
547.171	4.13
547.516	4.11
547.86	4.26
548.204	4.18
548.548	4.12
548.892	4.23
549.236	4.21
549.58	4.12
549.924	4.27
550.268	4.36
550.612	4.18
550.956	4.28
551.3	4.35
551.643	4.47
551.987	4.39
552.33	4.56
552.674	4.36
553.017	4.17
553.361	4.32
553.704	4.48
554.048	4.44
554.391	4.47
554.734	4.44
555.077	4.43
555.42	4.32
555.764	4.46
556.107	4.39
556.45	4.43
556.793	4.4
557.135	4.51
557.478	4.3
557.821	4.66
558.164	4.67
558.507	4.7
558.849	4.64
559.192	4.73
559.534	4.75
559.877	4.71
560.219	4.74
560.562	4.52
560.904	4.77
561.246	4.88
561.589	4.86
561.931	4.69
562.273	4.53
562.615	4.65
562.957	4.64
563.299	4.66
563.641	4.74
563.983	4.88
564.325	4.75
564.667	4.84
565.008	4.68
565.35	4.88
565.692	4.98
566.033	5.03
566.375	4.88
566.716	4.93
567.058	4.83
567.399	4.77
567.741	5.01
568.082	4.74
568.423	4.93
568.764	4.98
569.105	4.7
569.447	4.82
569.788	4.78
570.129	5.03
570.47	4.96
570.811	5.05
571.151	5.21
571.492	4.89
571.833	5.03
572.174	5.02
572.514	5.15
572.855	5.22
573.195	4.96
573.536	5.29
573.876	4.99
574.217	5.16
574.557	5
574.898	5.12
575.238	5.09
575.578	5.17
575.918	5.22
576.258	4.95
576.598	5.16
576.938	5.36
577.278	5.34
577.618	5.18
577.958	5.34
578.298	5.44
578.638	5.28
578.977	5.4
579.317	5.46
579.657	5.38
579.996	5.42
580.336	5.52
580.675	5.51
581.014	5.49
581.354	5.31
581.693	5.63
582.032	5.52
582.372	5.67
582.711	5.69
583.05	5.72
583.389	5.63
583.728	5.73
584.067	5.74
584.406	5.67
584.745	5.39
585.083	5.74
585.422	5.95
585.761	5.77
586.1	5.87
586.438	5.78
586.777	5.82
587.115	5.74
587.454	5.65
587.792	6
588.13	6.03
588.469	5.98
588.807	5.99
589.145	5.96
589.483	6.04
589.821	5.87
590.159	5.91
590.497	6.18
590.835	6.02
591.173	5.83
591.511	6.01
591.849	6.23
592.187	6.03
592.524	6.14
592.862	6.15
593.2	5.94
593.537	5.98
593.875	6.16
594.212	6.34
594.55	6.37
594.887	6.16
595.224	6.17
595.561	6.59
595.899	6.52
596.236	6.61
596.573	6.36
596.91	6.64
597.247	6.33
597.584	6.63
597.921	6.5
598.258	6.67
598.594	6.45
598.931	6.43
599.268	6.43
599.604	6.51
599.941	6.46
600.277	6.49
600.614	6.51
600.95	6.51
601.287	6.56
601.623	6.68
601.959	6.75
602.296	6.76
602.632	6.6
602.968	7.05
603.304	6.5
603.64	6.85
603.976	6.83
604.312	6.87
604.648	6.55
604.984	6.79
605.319	6.79
605.655	6.67
605.991	6.94
606.326	6.92
606.662	6.73
606.998	6.84
607.333	6.77
607.668	6.94
608.004	7.06
608.339	6.88
608.674	7.01
609.01	6.98
609.345	6.83
609.68	7.2
610.015	7.02
610.35	7.14
610.685	7.44
611.02	7.22
611.355	7.6
611.689	7.08
612.024	7.27
612.359	7.17
612.694	7.26
613.028	7.33
613.363	7.45
613.697	7.45
614.032	7.23
614.366	7.38
614.7	7.5
615.035	7.34
615.369	7.42
615.703	7.41
616.037	7.59
616.371	7.88
616.705	7.92
617.039	7.83
617.373	7.48
617.707	7.7
618.041	7.82
618.375	7.88
618.709	7.67
619.042	7.87
619.376	8.02
619.71	7.99
620.043	7.75
620.377	7.73
620.71	8
621.043	8.09
621.377	8.2
621.71	7.97
622.043	8.13
622.376	8.47
622.709	8.02
623.043	7.96
623.376	8.09
623.709	8.31
624.041	8.08
624.374	8.03
624.707	8.29
625.04	8.38
625.373	8.05
625.705	8.42
626.038	8.46
626.37	8.51
626.703	8.13
627.035	8.61
627.368	8.44
627.7	8.55
628.032	8.51
628.365	8.58
628.697	8.58
629.029	8.65
629.361	8.51
629.693	8.6
630.025	8.47
630.357	8.58
630.689	8.73
631.021	8.49
631.353	8.64
631.684	8.92
632.016	9.11
632.348	8.9
632.679	8.96
633.011	8.36
633.342	8.79
633.674	9.06
634.005	8.82
634.336	8.82
634.668	8.78
634.999	9.19
635.33	9.39
635.661	9.23
635.992	8.98
636.323	9.32
636.654	8.92
636.985	9.17
637.316	9.11
637.647	9.32
637.977	8.65
638.308	9.33
638.639	9.49
638.969	9.51
639.3	9.34
639.63	9.73
639.961	9.29
640.291	9.2
640.622	9.59
640.952	9.36
641.282	9.46
641.612	9.53
641.943	10.06
642.273	10.08
642.603	9.85
642.933	9.45
643.263	8.91
643.592	9.59
643.922	9.85
644.252	9.42
644.582	10.02
644.911	9.66
645.241	10.02
645.571	9.83
645.9	9.9
646.23	10.73
646.559	9.94
646.888	10.16
647.218	10.16
647.547	9.52
647.876	10.05
648.205	9.82
648.534	10.65
648.863	9.83
649.192	10.11
649.521	10.19
649.85	10.26
650.179	10.66
650.508	10.17
650.837	10.6
651.165	10.14
651.494	10.3
651.822	10.42
652.151	9.88
652.479	10.35
652.808	10.2
653.136	10.43
653.465	10.91
653.793	10.32
654.121	10.93
654.449	10.14
654.777	10.61
655.105	10.63
655.433	10.76
655.761	11.2
656.089	10.4
656.417	10.57
656.745	10.98
657.073	11.01
657.4	11.73
657.728	10.79
658.056	10.71
658.383	10.91
658.711	10.33
659.038	10.62
659.365	11.55
659.693	10.79
660.02	10.82
660.347	11.03
660.674	10.92
661.001	10.77
661.329	11.14
661.656	11.19
661.982	10.99
662.309	11.45
662.636	10.88
662.963	11.54
663.29	11.51
663.616	11.66
663.943	11.68
664.27	11.06
664.596	11.35
664.923	11.1
665.249	11.35
665.576	11.34
665.902	11.58
666.228	11.39
666.554	11.58
666.881	11.7
667.207	11.43
667.533	11.56
667.859	11.8
668.185	11.3
668.511	12.32
668.837	11.81
669.162	12.18
669.488	12.1
669.814	11.26
670.139	11.79
670.465	12.41
670.791	12.09
671.116	11.94
671.442	12.61
671.767	11.21
672.092	12.74
672.418	12.53
672.743	12.36
673.068	11.99
673.393	11.93
673.718	12.14
674.043	12.86
674.368	12.46
674.693	12.31
675.018	12.01
675.343	12.42
675.667	12.22
675.992	11.95
676.317	12.72
676.641	12.08
676.966	12.7
677.29	12.27
677.615	12.84
677.939	13.79
678.264	12.64
678.588	13.39
678.912	12.77
679.236	13.28
679.56	13.16
679.885	12.97
680.209	13.36
680.532	12.78
680.856	12.76
681.18	12.67
681.504	12.82
681.828	12.92
682.152	12.8
682.475	13.39
682.799	13.32
683.122	13.08
683.446	12.8
683.769	13.25
684.093	13.32
684.416	13.04
684.739	13.79
685.062	14.36
685.386	13.71
685.709	12.9
686.032	13.09
686.355	13.55
686.678	13.41
687.001	13.21
687.324	13.88
687.646	13.43
687.969	13.94
688.292	13.77
688.614	14.26
688.937	13.85
689.26	13.43
689.582	13.91
689.904	13.47
