Data from 0153_forehead_Reflection__3__49.txt Node

Date: Fri Sep 22 20:42:32 CDT 2023
User: ToomeyLab
Spectrometer: FLMS14357
Trigger mode: 0
Integration Time (sec): 1.000000E-2
Scans to average: 100
Electric dark correction enabled: true
Nonlinearity correction enabled: false
Boxcar width: 0
XAxis mode: Wavelengths
Number of Pixels in Spectrum: 2048
>>>>>Begin Spectral Data<<<<<
189.047	-148.05
189.435	-148.05
189.823	-148.05
190.211	-45.4
190.599	286.45
190.987	1188.57
191.375	480.8
191.763	-71.86
192.151	175.87
192.538	111.55
192.926	149.47
193.314	41.15
193.702	1.28
194.089	133.68
194.477	13.94
194.864	126.16
195.252	131.2
195.639	66.59
196.027	328.99
196.414	108.02
196.801	150.41
197.189	96.48
197.576	148.35
197.963	-24.58
198.351	33.7
198.738	106.01
199.125	61.72
199.512	8.15
199.899	52.54
200.286	58.33
200.673	5.35
201.06	48.46
201.447	30.67
201.833	2.19
202.22	41.93
202.607	40.99
202.994	33.82
203.38	33.79
203.767	9.04
204.154	61.25
204.54	38.29
204.927	17.54
205.313	15.77
205.699	80.64
206.086	39.45
206.472	48.93
206.858	6.09
207.245	-0.23
207.631	39.21
208.017	5.92
208.403	52.54
208.789	31.28
209.175	50.78
209.561	55.32
209.947	34.72
210.333	59.08
210.719	28.96
211.105	72.63
211.491	27.14
211.876	38.88
212.262	38.19
212.648	18.12
213.034	29.13
213.419	29.63
213.805	20.61
214.19	19.15
214.576	54.7
214.961	44.48
215.346	41.82
215.732	43.62
216.117	24.79
216.502	47.39
216.888	24.67
217.273	17.59
217.658	30.2
218.043	43.04
218.428	33.27
218.813	1.38
219.198	34.71
219.583	8.5
219.968	18.1
220.353	37.83
220.738	7.62
221.122	10.83
221.507	0.83
221.892	19.47
222.276	28.37
222.661	14.73
223.046	23.05
223.43	32.55
223.815	19.97
224.199	4.81
224.583	15.07
224.968	16.74
225.352	9.99
225.736	11.02
226.121	21.86
226.505	17.07
226.889	11.38
227.273	11.12
227.657	17.52
228.041	6.78
228.425	14.69
228.809	7.34
229.193	8.82
229.577	10.97
229.961	6.48
230.344	8.41
230.728	4.75
231.112	6.71
231.495	4.64
231.879	4.78
232.263	3.96
232.646	7.01
233.03	4.85
233.413	6.04
233.797	5.97
234.18	5.93
234.563	8.68
234.946	7.57
235.33	2.5
235.713	5.46
236.096	6.03
236.479	5.52
236.862	8.42
237.245	6.45
237.628	7.21
238.011	5.96
238.394	6.03
238.777	8.17
239.16	7.21
239.543	8.12
239.925	6.84
240.308	6.82
240.691	7.33
241.073	7.33
241.456	6.21
241.838	5.59
242.221	5.49
242.603	5.37
242.986	5.12
243.368	5.36
243.75	5.37
244.133	5.45
244.515	4.81
244.897	4.28
245.279	4.61
245.661	4.86
246.043	5.41
246.425	4.37
246.807	5.58
247.189	4.87
247.571	5.04
247.953	4.87
248.335	5
248.717	4.86
249.098	4.93
249.48	4.46
249.862	4.54
250.243	4.74
250.625	4.81
251.006	4.53
251.388	5.04
251.769	5.75
252.151	4.73
252.532	5.6
252.913	5.51
253.295	5.73
253.676	4.86
254.057	4.97
254.438	5.33
254.819	4.64
255.2	5.18
255.581	5.32
255.962	5.68
256.343	5.64
256.724	5.12
257.105	5.13
257.486	5.01
257.867	5.85
258.247	6.12
258.628	6.28
259.009	5.12
259.389	4.98
259.77	5.64
260.15	5.67
260.531	4.89
260.911	5.19
261.292	4.73
261.672	4.33
262.052	4.72
262.432	4.73
262.813	4.9
263.193	4.52
263.573	5.85
263.953	4.51
264.333	5.13
264.713	5.13
265.093	4.77
265.473	5.02
265.853	4.76
266.233	5.66
266.612	5.68
266.992	5.62
267.372	5.21
267.752	5.56
268.131	5.26
268.511	4.7
268.89	4.9
269.27	5.07
269.649	5.04
270.029	5.26
270.408	4.62
270.787	5.13
271.167	4.98
271.546	4.27
271.925	4.87
272.304	5.5
272.683	5.34
273.062	5.28
273.441	5
273.82	5.43
274.199	5.1
274.578	5.09
274.957	4.83
275.336	4.6
275.715	4.8
276.093	4.23
276.472	4.24
276.851	5
277.229	4.68
277.608	5.16
277.986	4.23
278.365	5.09
278.743	4.95
279.122	4.86
279.5	5.54
279.878	4.08
280.257	5.47
280.635	4.98
281.013	5.16
281.391	4.61
281.769	4.21
282.147	4.72
282.525	4.61
282.903	5.01
283.281	4.98
283.659	4.86
284.037	4.46
284.415	4.82
284.792	4.61
285.17	4.85
285.548	5.37
285.925	4.89
286.303	4.67
286.68	4.35
287.058	4.63
287.435	4.42
287.813	4.51
288.19	4.14
288.567	4.7
288.945	4.65
289.322	4.88
289.699	4.72
290.076	5.14
290.453	4.93
290.83	4.89
291.207	4.95
291.584	4.98
291.961	4.66
292.338	4.63
292.715	5.12
293.092	5.18
293.469	5.18
293.845	5.06
294.222	4.77
294.599	5.6
294.975	5.65
295.352	5.57
295.728	4.9
296.105	5.9
296.481	4.98
296.858	5.5
297.234	5.83
297.61	5.31
297.986	5.47
298.363	5.65
298.739	5.62
299.115	5.65
299.491	5.89
299.867	5.57
300.243	5.52
300.619	5.66
300.995	5.61
301.371	5.97
301.746	5.49
302.122	5.36
302.498	5.46
302.874	5.72
303.249	5.93
303.625	5.88
304	6.15
304.376	6.46
304.751	6.52
305.127	5.87
305.502	6.57
305.878	6.13
306.253	6.35
306.628	6.24
307.003	6.66
307.378	6.09
307.754	6.46
308.129	6.46
308.504	6.8
308.879	6.79
309.254	6.66
309.629	7.16
310.003	7.11
310.378	7.09
310.753	7.16
311.128	7.22
311.502	7.04
311.877	6.6
312.252	6.95
312.626	6.95
313.001	7.18
313.375	7.42
313.75	7.49
314.124	7.51
314.498	7.31
314.873	7.67
315.247	7.87
315.621	8.02
315.995	7.85
316.369	7.58
316.743	7.43
317.117	8.08
317.491	8.33
317.865	7.63
318.239	7.94
318.613	7.61
318.987	7.93
319.361	7.65
319.734	8.14
320.108	8.56
320.482	8.01
320.855	8.42
321.229	8.98
321.602	8.63
321.976	8.53
322.349	8.48
322.723	8.6
323.096	8.84
323.469	9.3
323.843	8.6
324.216	8.71
324.589	9.03
324.962	7.95
325.335	9.25
325.708	9.19
326.081	9.23
326.454	8.49
326.827	8.9
327.2	9.09
327.573	9.68
327.945	9.03
328.318	9.4
328.691	9.55
329.063	9.31
329.436	9.37
329.809	9.09
330.181	10.05
330.553	9.53
330.926	9.8
331.298	9.76
331.671	9.91
332.043	9.19
332.415	9.42
332.787	10.23
333.159	9.55
333.532	9.87
333.904	9.59
334.276	9.5
334.648	9.77
335.02	10.03
335.391	9.87
335.763	10.22
336.135	10.21
336.507	10.26
336.879	9.85
337.25	10.59
337.622	10.19
337.993	10.07
338.365	10.53
338.736	10.46
339.108	10.61
339.479	10.46
339.851	9.94
340.222	9.98
340.593	10.34
340.964	10.3
341.336	10.16
341.707	10.59
342.078	11.12
342.449	10.75
342.82	10.52
343.191	10.39
343.562	10.28
343.933	10.42
344.303	10.3
344.674	11.05
345.045	11.17
345.416	10.84
345.786	10.74
346.157	10.5
346.527	11.16
346.898	11.06
347.268	10.69
347.639	11.11
348.009	11.01
348.38	11.24
348.75	11.48
349.12	11.53
349.49	11.77
349.861	11.15
350.231	11.47
350.601	11.46
350.971	11.84
351.341	11.17
351.711	11.64
352.081	11.56
352.45	11.47
352.82	11.98
353.19	11.76
353.56	11.56
353.929	11.99
354.299	11.6
354.669	11.54
355.038	11.79
355.408	11.74
355.777	12.08
356.147	11.81
356.516	12.3
356.885	11.83
357.254	12.28
357.624	11.76
357.993	12.44
358.362	12.03
358.731	12.16
359.1	12.41
359.469	11.93
359.838	12.24
360.207	12.31
360.576	12.32
360.945	12.67
361.314	12.41
361.682	12.35
362.051	12.6
362.42	12.55
362.788	12.54
363.157	12.55
363.525	12.16
363.894	12.39
364.262	12.46
364.631	12.38
364.999	12.25
365.367	12.77
365.735	12.85
366.104	13.11
366.472	13.05
366.84	12.71
367.208	13.15
367.576	13
367.944	13.11
368.312	12.93
368.68	13.17
369.048	13.11
369.416	13.28
369.783	12.96
370.151	13.16
370.519	13.48
370.886	13.39
371.254	13.42
371.621	13.75
371.989	13.3
372.356	13.58
372.724	13.74
373.091	13.83
373.458	13.68
373.826	13.73
374.193	14.01
374.56	13.72
374.927	14.22
375.294	13.98
375.661	14.15
376.028	14.22
376.395	13.76
376.762	14.11
377.129	14.17
377.496	14.1
377.863	13.84
378.229	14.21
378.596	14.14
378.963	14.73
379.329	14.45
379.696	14.35
380.062	14.06
380.429	14.4
380.795	14.31
381.161	14.43
381.528	14.59
381.894	14.34
382.26	14.7
382.626	14.34
382.993	15.01
383.359	14.43
383.725	14.62
384.091	14.75
384.457	14.64
384.823	14.84
385.188	15.03
385.554	14.87
385.92	15.29
386.286	14.83
386.651	14.74
387.017	15.03
387.383	15.07
387.748	14.96
388.114	15.26
388.479	15.25
388.845	15.26
389.21	15.17
389.575	15.39
389.94	15.11
390.306	15.27
390.671	15.86
391.036	15.25
391.401	15.38
391.766	15.43
392.131	15.7
392.496	15.55
392.861	15.5
393.226	15.52
393.591	15.61
393.956	15.68
394.32	15.68
394.685	15.55
395.05	15.8
395.414	15.83
395.779	16
396.143	15.76
396.508	15.92
396.872	15.82
397.236	16.16
397.601	15.83
397.965	16.01
398.329	16.29
398.694	16.18
399.058	16.11
399.422	16.19
399.786	16.29
400.15	16.56
400.514	16.45
400.878	16.35
401.242	16.26
401.605	16.49
401.969	16.1
402.333	16.73
402.697	16.63
403.06	16.28
403.424	16.48
403.787	16.59
404.151	16.44
404.514	16.82
404.878	16.91
405.241	16.95
405.604	16.52
405.968	16.82
406.331	16.73
406.694	16.79
407.057	16.7
407.42	16.85
407.783	16.88
408.146	16.83
408.509	16.91
408.872	16.93
409.235	17.2
409.598	16.71
409.961	17.33
410.323	17.34
410.686	17.3
411.049	17.59
411.411	17.5
411.774	17.36
412.136	17.15
412.499	17.3
412.861	17.38
413.223	17.54
413.586	17.18
413.948	17.88
414.31	17.59
414.672	17.6
415.035	17.64
415.397	17.79
415.759	18.06
416.121	17.62
416.483	17.77
416.845	17.73
417.206	17.75
417.568	17.69
417.93	17.56
418.292	17.69
418.653	17.71
419.015	17.88
419.377	17.76
419.738	17.9
420.1	17.96
420.461	17.89
420.822	17.99
421.184	17.75
421.545	17.93
421.906	17.95
422.267	17.96
422.629	18.01
422.99	17.87
423.351	17.84
423.712	17.87
424.073	17.95
424.434	18.17
424.795	18.06
425.155	18.33
425.516	18.27
425.877	18.33
426.238	18.21
426.598	18.28
426.959	18.32
427.32	18.42
427.68	18.28
428.041	18.55
428.401	18.64
428.761	18.73
429.122	18.67
429.482	18.87
429.842	18.97
430.202	18.89
430.563	19.21
430.923	19.08
431.283	19.2
431.643	19.38
432.003	19.32
432.363	19.42
432.722	19.54
433.082	19.34
433.442	19.35
433.802	19.64
434.161	19.49
434.521	19.4
434.881	19.59
435.24	19.55
435.6	19.5
435.959	19.42
436.319	19.64
436.678	19.97
437.037	19.8
437.396	19.88
437.756	19.85
438.115	19.93
438.474	19.99
438.833	20.05
439.192	19.87
439.551	20.05
439.91	20.05
440.269	20.11
440.628	20.07
440.987	20.11
441.345	20.19
441.704	20.22
442.063	20.22
442.421	20.09
442.78	20.16
443.138	20.25
443.497	20.23
443.855	20.26
444.214	20.19
444.572	20.43
444.93	20.45
445.288	20.66
445.647	20.79
446.005	20.63
446.363	20.55
446.721	20.71
447.079	20.64
447.437	20.78
447.795	20.68
448.153	20.7
448.51	20.57
448.868	20.58
449.226	20.73
449.584	20.68
449.941	20.85
450.299	20.94
450.656	21.16
451.014	20.99
451.371	21.17
451.729	21.11
452.086	21.12
452.443	21.41
452.801	21.51
453.158	21.44
453.515	21.58
453.872	21.68
454.229	21.64
454.586	21.74
454.943	21.6
455.3	21.7
455.657	21.62
456.014	21.57
456.371	21.82
456.727	21.98
457.084	21.92
457.441	22
457.797	22
458.154	22.07
458.51	22.03
458.867	22.05
459.223	22.22
459.58	22.23
459.936	22.32
460.292	22.35
460.648	22.39
461.005	22.18
461.361	22.26
461.717	21.95
462.073	22.1
462.429	22.04
462.785	22.21
463.141	22.16
463.496	22.35
463.852	22.35
464.208	22.43
464.564	22.67
464.919	22.78
465.275	22.97
465.631	22.86
465.986	23.03
466.342	23.03
466.697	23.05
467.052	23.09
467.408	23.29
467.763	23.06
468.118	23.18
468.473	23.22
468.829	23.28
469.184	23.25
469.539	23.25
469.894	23.19
470.249	23.4
470.603	23.37
470.958	23.6
471.313	23.54
471.668	23.65
472.023	23.64
472.377	23.69
472.732	23.84
473.086	23.75
473.441	23.63
473.795	24
474.15	23.83
474.504	23.82
474.859	24
475.213	23.75
475.567	23.88
475.921	23.89
476.275	23.97
476.63	24.05
476.984	23.85
477.338	24.45
477.692	24.15
478.045	24.25
478.399	24.2
478.753	24.17
479.107	24.31
479.461	24.33
479.814	24.48
480.168	24.38
480.521	24.42
480.875	24.49
481.228	24.43
481.582	24.48
481.935	24.62
482.289	24.64
482.642	24.44
482.995	24.54
483.348	24.51
483.701	24.66
484.055	24.54
484.408	24.39
484.761	24.35
485.114	24.08
485.466	23.82
485.819	23.73
486.172	23.76
486.525	23.89
486.878	24.03
487.23	24.08
487.583	24.19
487.936	24.37
488.288	24.44
488.641	24.56
488.993	24.41
489.345	24.34
489.698	24.38
490.05	24.25
490.402	24.39
490.754	24.35
491.107	24.55
491.459	24.72
491.811	24.89
492.163	24.99
492.515	25.07
492.866	25.08
493.218	25.12
493.57	24.8
493.922	24.86
494.274	24.83
494.625	25
494.977	25.26
495.328	25.49
495.68	25.58
496.031	25.63
496.383	25.81
496.734	25.97
497.086	26.1
497.437	26.12
497.788	26.25
498.139	26.16
498.49	26.11
498.842	26.02
499.193	25.99
499.544	26.02
499.894	26.1
500.245	26.23
500.596	26.15
500.947	26.47
501.298	26.36
501.648	26.4
501.999	26.54
502.35	26.58
502.7	26.56
503.051	26.76
503.401	27.05
503.752	26.72
504.102	26.89
504.452	26.93
504.803	26.95
505.153	26.99
505.503	27.07
505.853	27.09
506.203	26.88
506.553	27.1
506.903	27.21
507.253	26.95
507.603	27.19
507.953	27.37
508.303	27.35
508.652	27.51
509.002	27.39
509.352	27.27
509.701	27.45
510.051	27.5
510.4	27.51
510.75	27.45
511.099	27.4
511.449	27.52
511.798	27.39
512.147	27.57
512.496	27.46
512.846	27.4
513.195	27.8
513.544	27.85
513.893	27.62
514.242	27.57
514.591	27.72
514.939	27.89
515.288	27.91
515.637	27.94
515.986	28.04
516.334	28.08
516.683	28.26
517.032	28.11
517.38	28.22
517.729	28.27
518.077	28.12
518.426	28.37
518.774	28.39
519.122	28.34
519.47	28.39
519.819	28.15
520.167	28.17
520.515	28.11
520.863	28.06
521.211	28.13
521.559	28.29
521.907	28.28
522.255	28.49
522.602	28.51
522.95	28.6
523.298	28.79
523.645	28.76
523.993	28.76
524.341	29.03
524.688	28.92
525.036	29
525.383	29.02
525.73	29.21
526.078	29
526.425	29.05
526.772	28.97
527.119	28.92
527.466	28.78
527.814	28.81
528.161	28.75
528.508	29
528.854	28.86
529.201	28.88
529.548	28.99
529.895	28.8
530.242	28.69
530.588	28.44
530.935	28.57
531.282	28.7
531.628	28.79
531.975	28.75
532.321	28.88
532.667	29.05
533.014	29.31
533.36	29.38
533.706	29.45
534.052	29.63
534.399	29.58
534.745	29.5
535.091	29.33
535.437	29.16
535.783	29.32
536.129	29.43
536.474	29.5
536.82	29.63
537.166	29.92
537.512	29.99
537.857	30.05
538.203	30.02
538.549	29.85
538.894	29.76
539.239	29.92
539.585	30.24
539.93	30.16
540.276	30.27
540.621	30.28
540.966	30.45
541.311	30.57
541.656	30.69
542.001	30.69
542.346	30.42
542.691	30.36
543.036	30.08
543.381	30
543.726	30.01
544.071	30.14
544.415	30.19
544.76	30.28
545.105	30.42
545.449	30.51
545.794	30.55
546.138	30.69
546.483	30.89
546.827	30.91
547.171	31.11
547.516	31.15
547.86	31.11
548.204	31.2
548.548	31.26
548.892	31.24
549.236	31.3
549.58	31.38
549.924	31.41
550.268	31.53
550.612	31.7
550.956	31.62
551.3	31.84
551.643	31.84
551.987	32.14
552.33	32.24
552.674	32.04
553.017	32.21
553.361	32.62
553.704	32.46
554.048	32.15
554.391	32.2
554.734	32.29
555.077	32.14
555.42	32.47
555.764	32.38
556.107	32.46
556.45	32.51
556.793	32.36
557.135	32.59
557.478	32.72
557.821	32.59
558.164	32.98
558.507	33.05
558.849	33.1
559.192	32.88
559.534	33.09
559.877	33.05
560.219	33.04
560.562	33.12
560.904	33.23
561.246	33.07
561.589	33.35
561.931	33.43
562.273	33.08
562.615	33.31
562.957	33.26
563.299	33.31
563.641	33.22
563.983	33.29
564.325	33.45
564.667	33.49
565.008	33.46
565.35	33.67
565.692	33.46
566.033	33.64
566.375	33.74
566.716	33.8
567.058	33.57
567.399	33.66
567.741	33.66
568.082	33.79
568.423	33.86
568.764	33.77
569.105	33.59
569.447	34
569.788	33.82
570.129	33.72
570.47	34.06
570.811	34.01
571.151	33.92
571.492	33.91
571.833	34.13
572.174	33.92
572.514	34.08
572.855	34.26
573.195	34.34
573.536	34.44
573.876	34.5
574.217	34.24
574.557	34.19
574.898	34.29
575.238	34.51
575.578	34.4
575.918	34.52
576.258	34.48
576.598	34.67
576.938	34.74
577.278	34.66
577.618	34.56
577.958	34.52
578.298	34.7
578.638	34.73
578.977	35.03
579.317	34.94
579.657	34.87
579.996	35.2
580.336	35.31
580.675	35.07
581.014	35.23
581.354	35.4
581.693	35.65
582.032	35.39
582.372	35.56
582.711	35.53
583.05	35.6
583.389	35.53
583.728	35.35
584.067	35.3
584.406	35.98
584.745	35.43
585.083	36.03
585.422	35.88
585.761	35.65
586.1	35.71
586.438	36.23
586.777	36.05
587.115	35.86
587.454	35.72
587.792	36.2
588.13	36.43
588.469	35.9
588.807	36.54
589.145	36.28
589.483	36.22
589.821	36.6
590.159	36.33
590.497	36.28
590.835	36.26
591.173	36.26
591.511	36.52
591.849	36.6
592.187	36.04
592.524	36.29
592.862	36.6
593.2	36.54
593.537	36.4
593.875	36.51
594.212	36.94
594.55	37.03
594.887	36.73
595.224	36.75
595.561	36.85
595.899	36.84
596.236	36.75
596.573	37.26
596.91	36.92
597.247	36.8
597.584	36.97
597.921	37.04
598.258	37.23
598.594	37.1
598.931	36.95
599.268	36.87
599.604	37.06
599.941	36.75
600.277	36.79
600.614	37.17
600.95	37.26
601.287	37.31
601.623	37.27
601.959	37.49
602.296	37.41
602.632	37.21
602.968	37.68
603.304	37.87
603.64	37.74
603.976	37.47
604.312	37.32
604.648	37.85
604.984	37.82
605.319	37.39
605.655	37.34
605.991	37.83
606.326	37.64
606.662	37.49
606.998	37.76
607.333	37.77
607.668	37.74
608.004	37.81
608.339	37.87
608.674	38.12
609.01	38.12
609.345	37.88
609.68	38.5
610.015	38.18
610.35	38.2
610.685	38.7
611.02	38.54
611.355	38.23
611.689	38.28
612.024	38.14
612.359	38.09
612.694	38.28
613.028	38.48
613.363	38.66
613.697	38.55
614.032	38.59
614.366	38.72
614.7	39.1
615.035	38.91
615.369	38.73
615.703	38.63
616.037	38.92
616.371	38.77
616.705	39.4
617.039	39.18
617.373	39.04
617.707	39.15
618.041	39.33
618.375	39.03
618.709	39.43
619.042	39.72
619.376	39.41
619.71	39.66
620.043	39.02
620.377	39.35
620.71	39.75
621.043	39.53
621.377	39.61
621.71	39.5
622.043	39.76
622.376	39.7
622.709	39.67
623.043	39.61
623.376	39.78
623.709	39.81
624.041	40.09
624.374	39.85
624.707	40.37
625.04	40.04
625.373	39.84
625.705	39.89
626.038	40.18
626.37	40.19
626.703	39.8
627.035	40.26
627.368	40.24
627.7	40.2
628.032	39.88
628.365	40.33
628.697	40.44
629.029	40.12
629.361	40.18
629.693	40.53
630.025	40.35
630.357	40.48
630.689	40.41
631.021	40.47
631.353	40.15
631.684	40.51
632.016	40.48
632.348	40.61
632.679	40.86
633.011	40.47
633.342	40.6
633.674	40.62
634.005	40.58
634.336	40.61
634.668	40.85
634.999	40.77
635.33	40.97
635.661	40.64
635.992	40.56
636.323	40.95
636.654	40.35
636.985	40.84
637.316	40.59
637.647	40.72
637.977	41.08
638.308	41.39
638.639	40.69
638.969	41.48
639.3	40.93
639.63	41.26
639.961	41.53
640.291	41.42
640.622	41.46
640.952	41.27
641.282	41.42
641.612	41.23
641.943	41.39
642.273	41.74
642.603	41.61
642.933	41.03
643.263	41.45
643.592	41.42
643.922	41.34
644.252	41.69
644.582	41.65
644.911	41.86
645.241	41.96
645.571	42.03
645.9	41.55
646.23	42.42
646.559	41.87
646.888	41.88
647.218	41.98
647.547	41.69
647.876	42.2
648.205	41.98
648.534	42.42
648.863	42.23
649.192	42.21
649.521	42.2
649.85	42.34
650.179	41.91
650.508	41.99
650.837	42.39
651.165	42.51
651.494	41.7
651.822	42.55
652.151	42.71
652.479	42.09
652.808	42.47
653.136	42.8
653.465	42.73
653.793	42.35
654.121	42.72
654.449	42.34
654.777	43.08
655.105	42.31
655.433	42.25
655.761	42.67
656.089	42.75
656.417	42.8
656.745	42.78
657.073	43.04
657.4	43.39
657.728	43.13
658.056	42.87
658.383	43.54
658.711	43.11
659.038	42.97
659.365	42.95
659.693	42.69
660.02	43.06
660.347	42.62
660.674	43.19
661.001	43.12
661.329	42.49
661.656	43.09
661.982	42.93
662.309	43.46
662.636	43.49
662.963	43.25
663.29	43.2
663.616	43.9
663.943	43.67
664.27	43.16
664.596	43.1
664.923	43.53
665.249	43.31
665.576	42.85
665.902	43.41
666.228	43.35
666.554	43.15
666.881	43.63
667.207	43.05
667.533	43.3
667.859	43.45
668.185	43.68
668.511	43.8
668.837	43.38
669.162	43.79
669.488	44.04
669.814	43.75
670.139	43.45
670.465	44.35
