Data from 0153_crown_Reflection__0__41.txt Node

Date: Fri Sep 22 20:40:24 CDT 2023
User: ToomeyLab
Spectrometer: FLMS14357
Trigger mode: 0
Integration Time (sec): 1.000000E-2
Scans to average: 100
Electric dark correction enabled: true
Nonlinearity correction enabled: false
Boxcar width: 0
XAxis mode: Wavelengths
Number of Pixels in Spectrum: 2048
>>>>>Begin Spectral Data<<<<<
189.047	-37.49
189.435	-37.49
189.823	-37.49
190.211	264.68
190.599	-476.6
190.987	1934.76
191.375	77.68
191.763	-61.23
192.151	230.98
192.538	-48.41
192.926	143.64
193.314	46.99
193.702	79.56
194.089	185.18
194.477	96.32
194.864	336.87
195.252	157.48
195.639	348.2
196.027	62.39
196.414	-53.65
196.801	20.87
197.189	46.16
197.576	134.51
197.963	43.8
198.351	-1.86
198.738	22.93
199.125	-33.34
199.512	7.82
199.899	40.5
200.286	28.16
200.673	17.47
201.06	14.29
201.447	44.18
201.833	-22.12
202.22	43.03
202.607	41.1
202.994	80
203.38	-23.04
203.767	-5.92
204.154	11.21
204.54	17.24
204.927	6.14
205.313	41.64
205.699	59.59
206.086	36.43
206.472	63.4
206.858	14.78
207.245	0.78
207.631	42.74
208.017	31.32
208.403	14.64
208.789	21.89
209.175	36.16
209.561	26.39
209.947	34.01
210.333	16.34
210.719	27.98
211.105	40.28
211.491	50.04
211.876	31.84
212.262	-11.73
212.648	42.65
213.034	7.24
213.419	6.15
213.805	10.52
214.19	35.37
214.576	22.14
214.961	38.86
215.346	4
215.732	15.99
216.117	0.38
216.502	27.77
216.888	12.99
217.273	22.76
217.658	-0.81
218.043	4.05
218.428	37.81
218.813	-13.39
219.198	26.27
219.583	23.97
219.968	-2.7
220.353	40.88
220.738	23.6
221.122	7.66
221.507	-18.18
221.892	-14.79
222.276	-5.59
222.661	-8.76
223.046	36.76
223.43	24.29
223.815	9.12
224.199	-2.1
224.583	11.7
224.968	16.44
225.352	7.7
225.736	15.31
226.121	5.54
226.505	10.99
226.889	12.23
227.273	12.39
227.657	6.65
228.041	5.42
228.425	12.17
228.809	5.38
229.193	6.84
229.577	8.96
229.961	6.71
230.344	6.98
230.728	5.31
231.112	6.69
231.495	6.09
231.879	6.16
232.263	5.82
232.646	6.08
233.03	6.74
233.413	4.95
233.797	5.69
234.18	7.17
234.563	7.52
234.946	8.88
235.33	3.98
235.713	6.35
236.096	5.99
236.479	5.83
236.862	7.9
237.245	5.47
237.628	7.41
238.011	6.73
238.394	5.7
238.777	8.28
239.16	7.58
239.543	7.8
239.925	4.7
240.308	4.6
240.691	5.72
241.073	7.38
241.456	6.72
241.838	4.81
242.221	3.43
242.603	5.75
242.986	5.46
243.368	5.8
243.75	6.25
244.133	6.36
244.515	6.05
244.897	5.53
245.279	5.83
245.661	5.45
246.043	5.17
246.425	5.18
246.807	5.25
247.189	4.22
247.571	5.77
247.953	6.4
248.335	5.83
248.717	5.79
249.098	5.38
249.48	5.27
249.862	5.33
250.243	5.43
250.625	5.71
251.006	5.66
251.388	5.57
251.769	5.79
252.151	5.87
252.532	5.33
252.913	6.22
253.295	6.49
253.676	5.74
254.057	5.46
254.438	5.88
254.819	5
255.2	5.57
255.581	5.12
255.962	5.68
256.343	5.59
256.724	4.18
257.105	5.11
257.486	4.59
257.867	4.45
258.247	5.18
258.628	5.29
259.009	5.09
259.389	5.15
259.77	5.9
260.15	4.83
260.531	5.15
260.911	4.89
261.292	4.94
261.672	4.87
262.052	4.96
262.432	4.86
262.813	5.21
263.193	4.87
263.573	5.56
263.953	5.13
264.333	5.02
264.713	4.76
265.093	5.09
265.473	5.04
265.853	4.56
266.233	4.81
266.612	5.85
266.992	5.2
267.372	5.01
267.752	5.41
268.131	4.67
268.511	5.16
268.89	5.09
269.27	4.45
269.649	4.73
270.029	4.86
270.408	5.2
270.787	4.92
271.167	4.71
271.546	4.44
271.925	4.92
272.304	4.87
272.683	4.64
273.062	5.27
273.441	4.8
273.82	5.21
274.199	5.04
274.578	4.96
274.957	5.25
275.336	4.66
275.715	4.64
276.093	5.02
276.472	5.13
276.851	4.43
277.229	4.34
277.608	4.88
277.986	4.35
278.365	4.83
278.743	4.98
279.122	4.62
279.5	5.01
279.878	4.54
280.257	5
280.635	4.72
281.013	5
281.391	4.44
281.769	4.45
282.147	4.61
282.525	4.67
282.903	4.75
283.281	4.76
283.659	4.86
284.037	3.98
284.415	4.62
284.792	4.29
285.17	4.68
285.548	5.39
285.925	4.49
286.303	4.63
286.68	4.56
287.058	4.43
287.435	4.46
287.813	4.31
288.19	4.11
288.567	4.5
288.945	4.16
289.322	4.39
289.699	4.52
290.076	4.78
290.453	4.51
290.83	4.24
291.207	4.25
291.584	4.28
291.961	4.2
292.338	4.67
292.715	4.77
293.092	4.17
293.469	4.24
293.845	4.43
294.222	4.16
294.599	4.65
294.975	4.67
295.352	4.74
295.728	4.4
296.105	4.53
296.481	4.48
296.858	4.52
297.234	4.71
297.61	4.36
297.986	4.21
298.363	4.54
298.739	4.28
299.115	4.4
299.491	4.44
299.867	4.35
300.243	4.21
300.619	4.16
300.995	4.22
301.371	4.89
301.746	4.35
302.122	4.12
302.498	3.8
302.874	4.28
303.249	3.97
303.625	3.99
304	4.63
304.376	4.68
304.751	4.28
305.127	4.17
305.502	4.06
305.878	4.42
306.253	4.27
306.628	4.16
307.003	4.22
307.378	4.13
307.754	4.08
308.129	4.23
308.504	4.27
308.879	4.37
309.254	4.06
309.629	4.38
310.003	4.3
310.378	4.93
310.753	4.21
311.128	4.24
311.502	4.25
311.877	3.67
312.252	3.9
312.626	4.28
313.001	4.43
313.375	4.29
313.75	4.48
314.124	4.81
314.498	4.22
314.873	4.1
315.247	4.1
315.621	4.01
315.995	4.1
316.369	4.1
316.743	3.88
317.117	4.26
317.491	4.22
317.865	3.99
318.239	4.15
318.613	3.96
318.987	3.79
319.361	3.96
319.734	4.1
320.108	4.2
320.482	4.06
320.855	3.73
321.229	4.65
321.602	4.36
321.976	4.53
322.349	4.12
322.723	4.47
323.096	4.29
323.469	4.55
323.843	4.01
324.216	4.82
324.589	4.07
324.962	3.85
325.335	4.17
325.708	3.88
326.081	4.36
326.454	3.61
326.827	3.84
327.2	3.99
327.573	4.47
327.945	4.44
328.318	4.36
328.691	4.37
329.063	3.97
329.436	4.28
329.809	4.21
330.181	4.44
330.553	4.26
330.926	4.36
331.298	4.46
331.671	4.42
332.043	3.56
332.415	4.08
332.787	4.56
333.159	3.95
333.532	3.67
333.904	4.04
334.276	4.32
334.648	3.46
335.02	3.99
335.391	4.01
335.763	4.36
336.135	4.52
336.507	4.28
336.879	3.93
337.25	4.15
337.622	4.61
337.993	4.2
338.365	4.82
338.736	4.5
339.108	4.16
339.479	3.99
339.851	4.13
340.222	3.91
340.593	3.33
340.964	3.43
341.336	3.69
341.707	3.82
342.078	3.8
342.449	4.23
342.82	4.12
343.191	3.63
343.562	4.04
343.933	4.39
344.303	3.77
344.674	4.1
345.045	4.21
345.416	4.52
345.786	3.88
346.157	4.01
346.527	3.87
346.898	3.68
347.268	3.91
347.639	3.77
348.009	3.7
348.38	4.05
348.75	4.3
349.12	4.14
349.49	3.86
349.861	4.05
350.231	4.39
350.601	3.87
350.971	4.49
351.341	3.96
351.711	3.87
352.081	3.75
352.45	4
352.82	4.03
353.19	4.24
353.56	4.1
353.929	4.12
354.299	4.49
354.669	4.16
355.038	3.91
355.408	4.12
355.777	4.24
356.147	4.05
356.516	4.11
356.885	3.56
357.254	4.48
357.624	3.95
357.993	3.8
358.362	3.89
358.731	4.25
359.1	4.02
359.469	4.06
359.838	3.56
360.207	3.87
360.576	3.79
360.945	3.9
361.314	4.33
361.682	4.32
362.051	4.36
362.42	3.79
362.788	4.15
363.157	4.18
363.525	4.12
363.894	3.95
364.262	3.81
364.631	3.9
364.999	3.76
365.367	4.08
365.735	3.95
366.104	4.17
366.472	4.15
366.84	4.01
367.208	4.3
367.576	4.09
367.944	3.92
368.312	4.21
368.68	4.1
369.048	4.07
369.416	4.08
369.783	3.93
370.151	3.7
370.519	4.16
370.886	4.45
371.254	4.34
371.621	3.73
371.989	3.74
372.356	3.95
372.724	4.11
373.091	4.3
373.458	4.2
373.826	4.49
374.193	4.29
374.56	4.37
374.927	3.87
375.294	4.03
375.661	4.07
376.028	4.48
376.395	4.33
376.762	3.95
377.129	4.48
377.496	4.33
377.863	4.37
378.229	4.66
378.596	4.27
378.963	4.54
379.329	4.23
379.696	4.73
380.062	3.71
380.429	4.07
380.795	4.34
381.161	4.25
381.528	4.15
381.894	3.83
382.26	4.04
382.626	4.21
382.993	4.17
383.359	3.91
383.725	3.97
384.091	4.18
384.457	4.2
384.823	4.42
385.188	4.43
385.554	4.19
385.92	4.32
386.286	4.15
386.651	4.15
387.017	4.32
387.383	4.15
387.748	4.21
388.114	4.13
388.479	4.44
388.845	3.95
389.21	4.18
389.575	4.46
389.94	3.98
390.306	4.49
390.671	4.62
391.036	3.88
391.401	4.34
391.766	4.2
392.131	4.56
392.496	4.5
392.861	4.36
393.226	4.3
393.591	4.56
393.956	4.23
394.32	4.23
394.685	4.33
395.05	4.54
395.414	4.51
395.779	4.39
396.143	4.29
396.508	4.42
396.872	4.28
397.236	4.43
397.601	4.45
397.965	4.63
398.329	4.26
398.694	4.34
399.058	4.38
399.422	4.46
399.786	4.52
400.15	4.61
400.514	4.64
400.878	4.42
401.242	4.53
401.605	4.39
401.969	4.23
402.333	4.49
402.697	4.44
403.06	4.26
403.424	4.46
403.787	4.53
404.151	4.59
404.514	4.56
404.878	4.74
405.241	4.56
405.604	4.88
405.968	4.45
406.331	4.45
406.694	4.61
407.057	4.22
407.42	4.52
407.783	4.44
408.146	4.4
408.509	4.36
408.872	4.34
409.235	4.41
409.598	4.4
409.961	4.64
410.323	4.56
410.686	4.51
411.049	4.53
411.411	4.57
411.774	4.43
412.136	4.36
412.499	4.51
412.861	4.54
413.223	4.6
413.586	4.35
413.948	4.38
414.31	4.35
414.672	4.65
415.035	4.62
415.397	4.57
415.759	4.62
416.121	4.51
416.483	4.44
416.845	4.61
417.206	4.33
417.568	4.59
417.93	4.47
418.292	4.4
418.653	4.48
419.015	4.56
419.377	4.45
419.738	4.69
420.1	4.31
420.461	4.53
420.822	4.44
421.184	4.34
421.545	4.44
421.906	4.48
422.267	4.44
422.629	4.45
422.99	4.51
423.351	4.37
423.712	4.34
424.073	4.34
424.434	4.45
424.795	4.37
425.155	4.48
425.516	4.44
425.877	4.55
426.238	4.33
426.598	4.39
426.959	4.44
427.32	4.46
427.68	4.46
428.041	4.39
428.401	4.57
428.761	4.55
429.122	4.64
429.482	4.56
429.842	4.46
430.202	4.42
430.563	4.74
430.923	4.71
431.283	4.71
431.643	4.69
432.003	4.66
432.363	4.75
432.722	4.78
433.082	4.66
433.442	4.63
433.802	4.76
434.161	4.6
434.521	4.63
434.881	4.76
435.24	4.57
435.6	4.54
435.959	4.54
436.319	4.56
436.678	4.72
437.037	4.68
437.396	4.64
437.756	4.67
438.115	4.56
438.474	4.66
438.833	4.74
439.192	4.58
439.551	4.55
439.91	4.72
440.269	4.76
440.628	4.57
440.987	4.67
441.345	4.79
441.704	4.74
442.063	4.65
442.421	4.74
442.78	4.71
443.138	4.6
443.497	4.62
443.855	4.66
444.214	4.55
444.572	4.77
444.93	4.68
445.288	4.77
445.647	4.66
446.005	4.76
446.363	4.49
446.721	4.62
447.079	4.64
447.437	4.78
447.795	4.65
448.153	4.56
448.51	4.61
448.868	4.57
449.226	4.66
449.584	4.58
449.941	4.65
450.299	4.7
450.656	4.81
451.014	4.83
451.371	4.82
451.729	4.83
452.086	4.81
452.443	4.75
452.801	4.88
453.158	4.78
453.515	4.83
453.872	4.86
454.229	4.8
454.586	4.81
454.943	4.69
455.3	4.79
455.657	4.8
456.014	4.83
456.371	4.9
456.727	4.89
457.084	4.78
457.441	4.68
457.797	4.8
458.154	4.84
458.51	4.79
458.867	4.97
459.223	4.94
459.58	4.95
459.936	4.9
460.292	4.99
460.648	5
461.005	4.81
461.361	4.78
461.717	4.67
462.073	4.72
462.429	4.63
462.785	4.76
463.141	4.73
463.496	4.89
463.852	4.84
464.208	4.81
464.564	5.01
464.919	4.96
465.275	5
465.631	4.93
465.986	4.88
466.342	4.98
466.697	5.04
467.052	4.91
467.408	5
467.763	5.04
468.118	5.07
468.473	4.94
468.829	5
469.184	4.93
469.539	4.87
469.894	4.84
470.249	4.92
470.603	4.92
470.958	4.98
471.313	4.9
471.668	5.07
472.023	5.03
472.377	5.16
472.732	4.94
473.086	5.05
473.441	4.73
473.795	5.24
474.15	4.92
474.504	4.91
474.859	5.06
475.213	4.79
475.567	4.75
475.921	5.06
476.275	5.12
476.63	4.84
476.984	5.04
477.338	5.12
477.692	5.19
478.045	5.12
478.399	5.04
478.753	4.92
479.107	4.95
479.461	4.98
479.814	5.15
480.168	5.03
480.521	5.1
480.875	5.04
481.228	4.94
481.582	5.02
481.935	4.97
482.289	4.93
482.642	4.88
482.995	4.9
483.348	5.01
483.701	4.99
484.055	4.9
484.408	4.96
484.761	4.93
485.114	4.81
485.466	4.76
485.819	4.69
486.172	4.61
486.525	4.67
486.878	4.7
487.23	4.73
487.583	4.81
487.936	4.93
488.288	4.94
488.641	4.86
488.993	4.88
489.345	4.78
489.698	4.73
490.05	4.74
490.402	4.77
490.754	4.77
491.107	4.79
491.459	4.9
491.811	4.92
492.163	4.98
492.515	4.96
492.866	4.93
493.218	4.99
493.57	4.94
493.922	4.78
494.274	4.78
494.625	4.86
494.977	4.93
495.328	5.03
495.68	5.01
496.031	4.95
496.383	5.15
496.734	5.18
497.086	5.25
497.437	5.13
497.788	5.11
498.139	5.17
498.49	5.27
498.842	5.12
499.193	4.98
499.544	5.12
499.894	5.08
500.245	5.08
500.596	5.05
500.947	5.15
501.298	5.13
501.648	5.16
501.999	5.13
502.35	5.11
502.7	5.19
503.051	5.19
503.401	5.18
503.752	5.24
504.102	5.03
504.452	5.23
504.803	5.07
505.153	5.21
505.503	5.18
505.853	5.32
506.203	5.12
506.553	5.25
506.903	5.29
507.253	5.17
507.603	5.17
507.953	5.19
508.303	5.15
508.652	5.13
509.002	5.28
509.352	5.11
509.701	5.29
510.051	5.23
510.4	5.24
510.75	5.23
511.099	5.01
511.449	5.26
511.798	5.22
512.147	5.18
512.496	5.24
512.846	5.16
513.195	5.26
513.544	5.17
513.893	5.22
514.242	5.12
514.591	5.18
514.939	5.25
515.288	5.18
515.637	5.15
515.986	5.08
516.334	5.19
516.683	5.25
517.032	5.33
517.38	5.33
517.729	5.23
518.077	5.15
518.426	5.23
518.774	5.33
519.122	5.25
519.47	5.19
519.819	5.11
520.167	5.17
520.515	5.18
520.863	5
521.211	5.15
521.559	5.21
521.907	5.22
522.255	5.16
522.602	5.28
522.95	5.18
523.298	5.24
523.645	5.3
523.993	5.19
524.341	5.16
524.688	5.28
525.036	5.34
525.383	5.3
525.73	5.26
526.078	5.27
526.425	5.23
526.772	5.25
527.119	5.25
527.466	5.1
527.814	5.08
528.161	5.06
528.508	5.23
528.854	5.17
529.201	5.21
529.548	5.18
529.895	5.14
530.242	5.05
530.588	4.98
530.935	4.93
531.282	4.96
531.628	5.04
531.975	5.01
532.321	5.07
532.667	5.06
533.014	5.13
533.36	5.2
533.706	5.22
534.052	5.26
534.399	5.18
534.745	5.14
535.091	5.03
535.437	5.07
535.783	4.98
536.129	5.11
536.474	5.12
536.82	5.11
537.166	5.26
537.512	5.28
537.857	5.2
538.203	5.32
538.549	5.18
538.894	5.17
539.239	5.15
539.585	5.19
539.93	5.24
540.276	5.4
540.621	5.33
540.966	5.26
541.311	5.43
541.656	5.19
542.001	5.35
542.346	5.25
542.691	5.3
543.036	5.17
543.381	5.11
543.726	5.13
544.071	5.07
544.415	5.14
544.76	5.13
545.105	5.08
545.449	5.1
545.794	5.26
546.138	5.26
546.483	5.22
546.827	5.22
547.171	5.26
547.516	5.39
547.86	5.28
548.204	5.28
548.548	5.25
548.892	5.26
549.236	5.25
549.58	5.24
549.924	5.39
550.268	5.36
550.612	5.28
550.956	5.5
551.3	5.43
551.643	5.36
551.987	5.39
552.33	5.55
552.674	5.33
553.017	5.38
553.361	5.36
553.704	5.54
554.048	5.34
554.391	5.49
554.734	5.44
555.077	5.21
555.42	5.33
555.764	5.49
556.107	5.37
556.45	5.31
556.793	5.4
557.135	5.52
557.478	5.35
557.821	5.51
558.164	5.45
558.507	5.61
558.849	5.42
559.192	5.51
559.534	5.47
559.877	5.52
560.219	5.49
560.562	5.61
560.904	5.35
561.246	5.63
561.589	5.42
561.931	5.46
562.273	5.37
562.615	5.37
562.957	5.55
563.299	5.46
563.641	5.54
563.983	5.62
564.325	5.61
564.667	5.57
565.008	5.42
565.35	5.65
565.692	5.5
566.033	5.45
566.375	5.41
566.716	5.53
567.058	5.44
567.399	5.54
567.741	5.59
568.082	5.44
568.423	5.56
568.764	5.54
569.105	5.29
569.447	5.44
569.788	5.35
570.129	5.5
570.47	5.64
570.811	5.5
571.151	5.5
571.492	5.31
571.833	5.44
572.174	5.58
572.514	5.54
572.855	5.47
573.195	5.27
573.536	5.42
573.876	5.5
574.217	5.41
574.557	5.31
574.898	5.5
575.238	5.42
575.578	5.52
575.918	5.33
576.258	5.33
576.598	5.45
576.938	5.56
577.278	5.59
577.618	5.37
577.958	5.53
578.298	5.62
578.638	5.31
578.977	5.59
579.317	5.48
579.657	5.49
579.996	5.49
580.336	5.49
580.675	5.47
581.014	5.52
581.354	5.53
581.693	5.53
582.032	5.45
582.372	5.44
582.711	5.55
583.05	5.66
583.389	5.48
583.728	5.63
584.067	5.63
584.406	5.61
584.745	5.33
585.083	5.92
585.422	5.71
585.761	5.48
586.1	5.7
586.438	5.59
586.777	5.57
587.115	5.48
587.454	5.5
587.792	5.64
588.13	5.67
588.469	5.55
588.807	5.76
589.145	5.61
589.483	5.54
589.821	5.65
590.159	5.53
590.497	5.75
590.835	5.67
591.173	5.45
591.511	5.54
591.849	5.86
592.187	5.42
592.524	5.66
592.862	5.65
593.2	5.6
593.537	5.5
593.875	5.53
594.212	5.75
594.55	5.74
594.887	5.53
595.224	5.66
595.561	5.76
595.899	6.03
596.236	5.82
596.573	5.7
596.91	5.49
597.247	5.63
597.584	5.7
597.921	5.55
598.258	5.64
598.594	5.41
598.931	5.53
599.268	5.57
599.604	5.73
599.941	5.44
600.277	5.42
600.614	5.51
600.95	5.68
601.287	5.66
601.623	5.72
601.959	5.94
602.296	5.84
602.632	5.52
602.968	5.66
603.304	5.62
603.64	5.52
603.976	5.62
604.312	5.58
604.648	5.77
604.984	5.63
605.319	5.71
605.655	5.53
605.991	5.57
606.326	5.54
606.662	5.45
606.998	5.5
607.333	5.62
607.668	5.5
608.004	5.79
608.339	5.6
608.674	5.76
609.01	5.7
609.345	5.6
609.68	5.7
610.015	5.77
610.35	5.65
610.685	5.9
611.02	5.83
611.355	5.71
611.689	5.54
612.024	5.86
612.359	5.55
612.694	5.68
613.028	5.6
613.363	5.6
613.697	5.56
614.032	5.57
614.366	5.42
614.7	5.49
615.035	5.55
615.369	5.7
615.703	5.51
616.037	5.94
616.371	5.85
616.705	5.9
617.039	5.85
617.373	5.36
617.707	5.55
618.041	5.93
618.375	5.71
618.709	5.65
619.042	5.98
619.376	5.55
619.71	5.66
620.043	5.56
620.377	5.47
620.71	5.69
621.043	5.77
621.377	5.53
621.71	5.87
622.043	5.69
622.376	5.93
622.709	5.71
623.043	5.58
623.376	5.8
623.709	6.27
624.041	6.12
624.374	5.81
624.707	5.94
625.04	5.9
625.373	5.31
625.705	5.77
626.038	5.67
626.37	6
626.703	5.83
627.035	6
627.368	5.95
627.7	6.14
628.032	6.39
628.365	5.75
628.697	5.87
629.029	5.87
629.361	5.72
629.693	6.03
630.025	5.93
630.357	5.52
630.689	5.64
631.021	5.79
631.353	5.61
631.684	5.88
632.016	6.07
632.348	5.66
632.679	5.89
633.011	5.65
633.342	5.86
633.674	5.9
634.005	5.49
634.336	5.77
634.668	6.15
634.999	5.66
635.33	6.03
635.661	5.99
635.992	5.54
636.323	5.91
636.654	5.93
636.985	5.65
637.316	6
637.647	6.06
637.977	5.66
638.308	6.22
638.639	5.85
638.969	5.96
639.3	5.68
639.63	6.13
639.961	5.46
640.291	5.74
640.622	5.81
640.952	5.82
641.282	6.21
641.612	5.85
641.943	6.18
642.273	5.88
642.603	5.83
642.933	5.85
643.263	5.36
643.592	5.76
643.922	5.99
644.252	5.62
644.582	6.62
644.911	6.09
645.241	6.17
645.571	5.7
645.9	6.03
646.23	6.15
646.559	5.69
646.888	5.86
647.218	5.82
647.547	6.27
647.876	6.03
648.205	6.05
648.534	6.07
648.863	5.74
649.192	5.67
649.521	6.02
649.85	6.31
650.179	6.06
650.508	5.71
650.837	6.4
651.165	6
651.494	6.07
651.822	5.79
652.151	5.42
652.479	6.37
652.808	5.76
653.136	6.45
653.465	5.95
653.793	5.62
654.121	6.5
654.449	5.89
654.777	5.9
655.105	5.99
655.433	6.01
655.761	6.45
656.089	5.9
656.417	6.02
656.745	6.1
657.073	6.04
657.4	6.48
657.728	6.24
658.056	6.07
658.383	6.27
658.711	5.94
659.038	5.84
659.365	6.05
659.693	5.98
660.02	6.15
660.347	6.11
660.674	6.01
661.001	5.8
661.329	5.92
661.656	6.08
661.982	6
662.309	6.17
662.636	5.88
662.963	6.09
663.29	6.05
663.616	5.86
663.943	6.64
664.27	6.04
664.596	5.86
664.923	5.93
665.249	5.72
665.576	5.37
665.902	5.81
666.228	6.19
666.554	5.79
666.881	6.65
667.207	6.71
667.533	6.29
667.859	6.2
668.185	6.31
668.511	6.98
668.837	6.49
669.162	6.45
669.488	5.86
669.814	6.29
670.139	6.7
670.465	6.33
670.791	6.31
671.116	5.58
671.442	6.53
671.767	5.9
672.092	6.33
672.418	6.55
672.743	6.28
673.068	6.3
673.393	6.27
673.718	6.3
674.043	6.82
674.368	6.23
674.693	6.27
675.018	6.02
675.343	6.14
675.667	5.95
675.992	6.35
676.317	6.33
676.641	6.2
676.966	6.42
677.29	5.79
677.615	6.22
677.939	7.09
678.264	6.7
678.588	6.87
678.912	5.78
679.236	6.45
679.56	6.04
679.885	6.99
680.209	6.99
680.532	6.13
680.856	6.23
681.18	6.15
681.504	6.19
681.828	6.83
682.152	6.93
682.475	6.91
682.799	6.3
683.122	6.34
683.446	6.64
683.769	6.29
684.093	6.59
684.416	6.56
684.739	5.94
685.062	6.82
685.386	6.59
685.709	6.27
686.032	6.16
686.355	6.23
686.678	6.35
687.001	6.49
687.324	7.01
687.646	6.81
687.969	7.26
688.292	6.29
688.614	6.6
688.937	6.84
689.26	6.39
689.582	7.01
689.904	6.74
690.227	6.76
690.549	7.45
690.871	6.79
691.194	6.25
691.516	6.36
691.838	6.63
692.16	6.94
692.482	6.65
692.804	5.86
693.126	5.65
