Data from 0369_chest_Reflection__3__282.txt Node

Date: Fri Oct 20 22:57:34 CDT 2023
User: ToomeyLab
Spectrometer: FLMS14357
Trigger mode: 0
Integration Time (sec): 1.000000E-2
Scans to average: 100
Electric dark correction enabled: true
Nonlinearity correction enabled: false
Boxcar width: 0
XAxis mode: Wavelengths
Number of Pixels in Spectrum: 2048
>>>>>Begin Spectral Data<<<<<
189.047	518.89
189.435	518.89
189.823	518.89
190.211	145.29
190.599	511.18
190.987	102.71
191.375	92.85
191.763	73.06
192.151	139.98
192.538	111.85
192.926	57.68
193.314	45.9
193.702	119.5
194.089	250.71
194.477	96.33
194.864	144.72
195.252	22.21
195.639	-443.76
196.027	99.76
196.414	3.14
196.801	182.5
197.189	-549.91
197.576	74.44
197.963	27.51
198.351	71.12
198.738	32.08
199.125	19.22
199.512	22.43
199.899	36.88
200.286	-52.37
200.673	9.38
201.06	9.71
201.447	-13.16
201.833	18.41
202.22	28.23
202.607	42.03
202.994	15.58
203.38	12.62
203.767	17.95
204.154	29.69
204.54	25.07
204.927	37.45
205.313	10.09
205.699	52.65
206.086	17.65
206.472	39.9
206.858	54.03
207.245	3.96
207.631	22.38
208.017	30.5
208.403	1.27
208.789	33.56
209.175	25.66
209.561	18.71
209.947	37.79
210.333	6.16
210.719	11.99
211.105	7.56
211.491	16.84
211.876	-0.2
212.262	13.99
212.648	4.5
213.034	-10.07
213.419	5.97
213.805	0.31
214.19	10.66
214.576	5.17
214.961	0.54
215.346	26.43
215.732	-26.91
216.117	-33.42
216.502	34.5
216.888	25.68
217.273	1.26
217.658	-20.55
218.043	39.3
218.428	-5.45
218.813	11.47
219.198	6.54
219.583	-42.39
219.968	-24.66
220.353	12.01
220.738	0.7
221.122	-10.98
221.507	8.46
221.892	-13.93
222.276	-11
222.661	19.25
223.046	16.84
223.43	9.79
223.815	18.16
224.199	12
224.583	-8.82
224.968	-0.45
225.352	-3.45
225.736	2.74
226.121	4.74
226.505	-1.31
226.889	11.03
227.273	9.22
227.657	5.9
228.041	8.82
228.425	4.96
228.809	5.42
229.193	3.52
229.577	5.85
229.961	2.47
230.344	3.14
230.728	2.46
231.112	4.08
231.495	3.75
231.879	3.49
232.263	4.36
232.646	3.14
233.03	2.88
233.413	2.77
233.797	3.77
234.18	4.86
234.563	3.1
234.946	6.43
235.33	5.46
235.713	3.77
236.096	4.16
236.479	4.61
236.862	3.19
237.245	3.52
237.628	2.89
238.011	3.59
238.394	2.95
238.777	3.53
239.16	3.66
239.543	6.34
239.925	4.63
240.308	3.74
240.691	2.89
241.073	5.8
241.456	4.53
241.838	3.79
242.221	4.59
242.603	4.16
242.986	3.99
243.368	4.12
243.75	3.57
244.133	3.32
244.515	3.34
244.897	3.02
245.279	3.58
245.661	3.27
246.043	3.56
246.425	2.42
246.807	2.58
247.189	3.31
247.571	3.31
247.953	3.94
248.335	3.87
248.717	3.45
249.098	3.09
249.48	3.43
249.862	3.52
250.243	3.76
250.625	3.46
251.006	3.86
251.388	3.45
251.769	3.82
252.151	3.08
252.532	3.08
252.913	3.68
253.295	3.19
253.676	3.38
254.057	3.34
254.438	3.66
254.819	3.24
255.2	3.56
255.581	3.47
255.962	2.59
256.343	4.13
256.724	2.66
257.105	3.02
257.486	3.23
257.867	2.58
258.247	3.6
258.628	3.35
259.009	2.24
259.389	2.67
259.77	2.66
260.15	3.3
260.531	3.92
260.911	3.36
261.292	3.14
261.672	3.25
262.052	3.51
262.432	3.06
262.813	3.13
263.193	3.32
263.573	3.27
263.953	3.43
264.333	3.45
264.713	3.92
265.093	4.19
265.473	3.71
265.853	3.3
266.233	3.2
266.612	3.25
266.992	3.44
267.372	2.69
267.752	3.02
268.131	3.24
268.511	3.5
268.89	3.29
269.27	3.2
269.649	3.02
270.029	3.91
270.408	3.33
270.787	3.49
271.167	3.04
271.546	3.66
271.925	3.96
272.304	3.48
272.683	3.32
273.062	3.32
273.441	3.69
273.82	3.76
274.199	3.57
274.578	3.75
274.957	3.21
275.336	3.65
275.715	3.57
276.093	3.19
276.472	3.59
276.851	3.79
277.229	3.15
277.608	2.8
277.986	2.81
278.365	3.88
278.743	2.89
279.122	3.16
279.5	3.62
279.878	2.64
280.257	3.14
280.635	3.02
281.013	3.58
281.391	3.52
281.769	3.46
282.147	3.15
282.525	3.39
282.903	3.35
283.281	3.71
283.659	3.17
284.037	3.54
284.415	3.13
284.792	3.04
285.17	3.15
285.548	3.33
285.925	2.98
286.303	3.11
286.68	3.47
287.058	3.84
287.435	3.82
287.813	2.68
288.19	3.08
288.567	3.02
288.945	3.43
289.322	3.55
289.699	2.87
290.076	3.78
290.453	3.51
290.83	3.34
291.207	3.54
291.584	3.04
291.961	3.19
292.338	3.07
292.715	3.44
293.092	3.56
293.469	4.11
293.845	3.39
294.222	3.44
294.599	3.32
294.975	3.87
295.352	3.66
295.728	3.75
296.105	3.42
296.481	3.63
296.858	3.63
297.234	3.57
297.61	3.23
297.986	3.35
298.363	3.77
298.739	3.63
299.115	3.4
299.491	3.5
299.867	3.73
300.243	3.59
300.619	3.41
300.995	3.26
301.371	3.76
301.746	3.84
302.122	4.09
302.498	3.62
302.874	3.8
303.249	4
303.625	3.93
304	4.09
304.376	3.38
304.751	3.36
305.127	3.56
305.502	3.43
305.878	3.88
306.253	3.49
306.628	3.56
307.003	4.04
307.378	3.54
307.754	4.36
308.129	4.23
308.504	3.95
308.879	4.17
309.254	4.28
309.629	3.54
310.003	3.21
310.378	4
310.753	3.86
311.128	4.17
311.502	3.91
311.877	4.06
312.252	3.62
312.626	4.11
313.001	4.01
313.375	3.78
313.75	3.68
314.124	3.32
314.498	4.41
314.873	3.64
315.247	3.7
315.621	3.95
315.995	4.07
316.369	3.88
316.743	3.79
317.117	4.13
317.491	3.55
317.865	4.26
318.239	4.7
318.613	4.01
318.987	4
319.361	3.39
319.734	3.23
320.108	3.57
320.482	4.21
320.855	4.48
321.229	4.22
321.602	3.92
321.976	4.15
322.349	4.59
322.723	4.53
323.096	3.9
323.469	4.11
323.843	4.03
324.216	3.77
324.589	4.17
324.962	4.12
325.335	3.78
325.708	4.1
326.081	3.88
326.454	4.11
326.827	4.34
327.2	3.95
327.573	3.87
327.945	4.08
328.318	3.95
328.691	4.02
329.063	4.56
329.436	3.45
329.809	4.27
330.181	4.35
330.553	4.61
330.926	3.52
331.298	3.79
331.671	4.18
332.043	4.06
332.415	4.14
332.787	4.43
333.159	3.91
333.532	4.22
333.904	4.4
334.276	3.76
334.648	4.24
335.02	4.07
335.391	3.65
335.763	4.38
336.135	4.18
336.507	4.09
336.879	3.92
337.25	4.14
337.622	4.47
337.993	4.77
338.365	4.3
338.736	4.2
339.108	4.34
339.479	4.04
339.851	4.12
340.222	3.97
340.593	3.84
340.964	4.14
341.336	4.34
341.707	3.92
342.078	3.85
342.449	4.02
342.82	3.84
343.191	4.19
343.562	4.16
343.933	4.06
344.303	4.16
344.674	4.51
345.045	4.36
345.416	4.54
345.786	3.96
346.157	4.16
346.527	4.03
346.898	4.19
347.268	4.3
347.639	4.21
348.009	3.96
348.38	4.14
348.75	4.27
349.12	4.23
349.49	3.74
349.861	4.89
350.231	3.77
350.601	4.13
350.971	4.23
351.341	4.03
351.711	4.54
352.081	4.23
352.45	4.05
352.82	4.39
353.19	4.31
353.56	4.38
353.929	3.9
354.299	4.06
354.669	3.94
355.038	4.39
355.408	4.26
355.777	4.23
356.147	4.22
356.516	3.6
356.885	4.18
357.254	4.16
357.624	4.32
357.993	3.81
358.362	4.08
358.731	3.95
359.1	3.84
359.469	3.9
359.838	4.3
360.207	4.22
360.576	4.41
360.945	3.96
361.314	3.99
361.682	3.7
362.051	3.81
362.42	4.06
362.788	4.14
363.157	4.38
363.525	4.07
363.894	4.18
364.262	4.08
364.631	4.29
364.999	4.04
365.367	4.05
365.735	4.07
366.104	4.34
366.472	4.18
366.84	4.36
367.208	4.32
367.576	3.98
367.944	4.37
368.312	4.1
368.68	4.34
369.048	4.54
369.416	4.56
369.783	4.48
370.151	3.98
370.519	4.15
370.886	4.26
371.254	4.21
371.621	4.49
371.989	4.08
372.356	4.59
372.724	4.24
373.091	3.96
373.458	4.24
373.826	4.27
374.193	4.08
374.56	4.18
374.927	4.36
375.294	4.27
375.661	4.39
376.028	4.4
376.395	4.67
376.762	4.2
377.129	3.97
377.496	4.57
377.863	4.32
378.229	4.42
378.596	4.43
378.963	4.42
379.329	4.32
379.696	4.39
380.062	4.23
380.429	4.27
380.795	4.38
381.161	4.39
381.528	4.69
381.894	4.26
382.26	4.32
382.626	4.5
382.993	4.42
383.359	4.41
383.725	4.35
384.091	4.18
384.457	4.11
384.823	4.22
385.188	4.47
385.554	4.5
385.92	4.34
386.286	4.61
386.651	4.07
387.017	4.56
387.383	4.46
387.748	4.3
388.114	4.16
388.479	4.49
388.845	4.4
389.21	4.46
389.575	4.35
389.94	4.28
390.306	4.44
390.671	4.15
391.036	4.42
391.401	4.39
391.766	4.32
392.131	4.21
392.496	4.52
392.861	4.32
393.226	4.4
393.591	4.11
393.956	4.54
394.32	4.56
394.685	4.38
395.05	4.59
395.414	4.59
395.779	4.34
396.143	4.37
396.508	4.41
396.872	4.53
397.236	4.5
397.601	4.46
397.965	4.27
398.329	4.05
398.694	4.23
399.058	3.95
399.422	4.68
399.786	4.31
400.15	4.39
400.514	4.41
400.878	4.48
401.242	4.52
401.605	4.56
401.969	4.2
402.333	4.47
402.697	4.5
403.06	4.42
403.424	4.52
403.787	4.54
404.151	4.33
404.514	4.7
404.878	4.63
405.241	4.49
405.604	4.51
405.968	4.58
406.331	4.41
406.694	4.36
407.057	4.55
407.42	4.66
407.783	4.52
408.146	4.39
408.509	4.42
408.872	4.78
409.235	4.57
409.598	4.65
409.961	4.58
410.323	4.58
410.686	4.32
411.049	4.47
411.411	4.47
411.774	4.77
412.136	4.3
412.499	4.44
412.861	4.61
413.223	4.61
413.586	4.54
413.948	4.55
414.31	4.71
414.672	4.58
415.035	4.32
415.397	4.72
415.759	4.51
416.121	4.63
416.483	4.89
416.845	4.67
417.206	4.78
417.568	4.79
417.93	4.81
418.292	4.56
418.653	4.67
419.015	4.46
419.377	4.54
419.738	4.47
420.1	4.45
420.461	4.5
420.822	4.44
421.184	4.45
421.545	4.58
421.906	4.42
422.267	4.52
422.629	4.62
422.99	4.38
423.351	4.51
423.712	4.44
424.073	4.56
424.434	4.45
424.795	4.58
425.155	4.61
425.516	4.51
425.877	4.59
426.238	4.3
426.598	4.53
426.959	4.51
427.32	4.63
427.68	4.62
428.041	4.61
428.401	4.6
428.761	4.66
429.122	4.6
429.482	4.63
429.842	4.52
430.202	4.67
430.563	4.63
430.923	4.88
431.283	4.78
431.643	4.72
432.003	4.78
432.363	4.68
432.722	4.82
433.082	4.77
433.442	4.56
433.802	4.72
434.161	4.69
434.521	4.94
434.881	4.73
435.24	4.74
435.6	4.72
435.959	4.66
436.319	4.79
436.678	4.81
437.037	4.68
437.396	4.88
437.756	4.89
438.115	4.66
438.474	4.73
438.833	4.92
439.192	4.57
439.551	4.74
439.91	4.75
440.269	4.95
440.628	4.85
440.987	4.75
441.345	4.72
441.704	4.72
442.063	4.78
442.421	4.74
442.78	4.76
443.138	4.83
443.497	4.87
443.855	4.83
444.214	4.74
444.572	4.78
444.93	4.96
445.288	4.95
445.647	4.9
446.005	4.71
446.363	4.73
446.721	4.86
447.079	5.02
447.437	4.75
447.795	4.67
448.153	4.83
448.51	4.78
448.868	4.77
449.226	4.81
449.584	4.78
449.941	4.69
450.299	4.7
450.656	4.77
451.014	4.76
451.371	4.96
451.729	4.96
452.086	4.86
452.443	5.07
452.801	4.81
453.158	5.05
453.515	5.02
453.872	4.94
454.229	5.15
454.586	4.92
454.943	4.94
455.3	4.84
455.657	4.97
456.014	4.9
456.371	4.99
456.727	5
457.084	4.88
457.441	4.94
457.797	4.96
458.154	4.89
458.51	4.98
458.867	5.13
459.223	5.1
459.58	4.92
459.936	4.96
460.292	4.97
460.648	4.94
461.005	4.91
461.361	4.92
461.717	4.9
462.073	4.92
462.429	5
462.785	4.97
463.141	5
463.496	5.11
463.852	5.13
464.208	5.21
464.564	5.19
464.919	4.9
465.275	5.39
465.631	5.34
465.986	5.29
466.342	5
466.697	5.16
467.052	5.17
467.408	5.04
467.763	5.19
468.118	5.37
468.473	5.16
468.829	5.27
469.184	5.21
469.539	5.26
469.894	5.14
470.249	5.07
470.603	5.22
470.958	5.23
471.313	5.37
471.668	5.33
472.023	5.19
472.377	5.22
472.732	5.13
473.086	5.48
473.441	5.46
473.795	5.4
474.15	5.18
474.504	5.11
474.859	5.19
475.213	5.38
475.567	5.37
475.921	5.24
476.275	5.19
476.63	5.36
476.984	5.35
477.338	5.16
477.692	5.33
478.045	5.35
478.399	5.21
478.753	5.43
479.107	5.34
479.461	5.29
479.814	5.52
480.168	5.41
480.521	5.4
480.875	5.34
481.228	5.47
481.582	5.49
481.935	5.4
482.289	5.43
482.642	5.2
482.995	5.4
483.348	5.42
483.701	5.39
484.055	5.32
484.408	5.33
484.761	5.29
485.114	5.18
485.466	5.19
485.819	5.11
486.172	5.01
486.525	5.04
486.878	5.14
487.23	5.2
487.583	5.27
487.936	5.31
488.288	5.33
488.641	5.41
488.993	5.27
489.345	5.26
489.698	5.23
490.05	5.26
490.402	5.26
490.754	5.23
491.107	5.31
491.459	5.42
491.811	5.45
492.163	5.45
492.515	5.49
492.866	5.51
493.218	5.4
493.57	5.37
493.922	5.35
494.274	5.33
494.625	5.39
494.977	5.49
495.328	5.55
495.68	5.62
496.031	5.53
496.383	5.72
496.734	5.69
497.086	5.62
497.437	5.71
497.788	5.55
498.139	5.73
498.49	5.71
498.842	5.55
499.193	5.68
499.544	5.63
499.894	5.7
500.245	5.67
500.596	5.69
500.947	5.74
501.298	5.74
501.648	5.74
501.999	5.73
502.35	5.77
502.7	5.93
503.051	5.84
503.401	5.83
503.752	5.8
504.102	5.96
504.452	5.84
504.803	5.83
505.153	5.88
505.503	5.85
505.853	6.03
506.203	5.8
506.553	5.88
506.903	6.06
507.253	5.88
507.603	5.98
507.953	5.91
508.303	5.93
508.652	6
509.002	5.82
509.352	5.96
509.701	6.07
510.051	5.86
510.4	6.09
510.75	6
511.099	6.01
511.449	6.02
511.798	6.08
512.147	6.1
512.496	6.1
512.846	5.97
513.195	6.03
513.544	6.11
513.893	5.95
514.242	6.04
514.591	6.07
514.939	6.02
515.288	6.07
515.637	6.13
515.986	6.32
516.334	6.19
516.683	6.19
517.032	6.15
517.38	6.07
517.729	6.36
518.077	6.32
518.426	6.28
518.774	6.19
519.122	6.32
519.47	6.33
519.819	6.3
520.167	6.17
520.515	6.25
520.863	6.35
521.211	6.3
521.559	6.32
521.907	6.22
522.255	6.38
522.602	6.38
522.95	6.35
523.298	6.48
523.645	6.48
523.993	6.49
524.341	6.51
524.688	6.52
525.036	6.61
525.383	6.48
525.73	6.55
526.078	6.52
526.425	6.68
526.772	6.54
527.119	6.52
527.466	6.53
527.814	6.55
528.161	6.47
528.508	6.44
528.854	6.45
529.201	6.5
529.548	6.53
529.895	6.45
530.242	6.51
530.588	6.32
530.935	6.37
531.282	6.43
531.628	6.46
531.975	6.46
532.321	6.58
532.667	6.68
533.014	6.72
533.36	6.73
533.706	6.82
534.052	6.78
534.399	6.74
534.745	6.7
535.091	6.74
535.437	6.76
535.783	6.73
536.129	6.81
536.474	6.82
536.82	6.93
537.166	6.88
537.512	6.97
537.857	7.12
538.203	7
538.549	7.07
538.894	6.96
539.239	7.02
539.585	7.01
539.93	6.97
540.276	7.28
540.621	7.27
540.966	7.1
541.311	7.26
541.656	7.3
542.001	7.33
542.346	7.35
542.691	7.19
543.036	7.12
543.381	7.03
543.726	7.09
544.071	7.11
544.415	7.1
544.76	7.15
545.105	7.27
545.449	7.28
545.794	7.41
546.138	7.25
546.483	7.36
546.827	7.51
547.171	7.45
547.516	7.37
547.86	7.57
548.204	7.44
548.548	7.5
548.892	7.45
549.236	7.65
549.58	7.5
549.924	7.64
550.268	7.63
550.612	7.63
550.956	7.9
551.3	7.81
551.643	7.85
551.987	8.01
552.33	7.85
552.674	7.86
553.017	7.98
553.361	8.07
553.704	8.13
554.048	8.06
554.391	7.98
554.734	8.23
555.077	8.1
555.42	8.06
555.764	8.09
556.107	8.26
556.45	8.09
556.793	8.19
557.135	8.27
557.478	8.05
557.821	8.31
558.164	8.57
558.507	8.43
558.849	8.37
559.192	8.38
559.534	8.44
559.877	8.39
560.219	8.68
560.562	8.48
560.904	8.36
561.246	8.51
561.589	8.42
561.931	8.65
562.273	8.8
562.615	8.65
562.957	8.78
563.299	8.66
563.641	8.87
563.983	8.63
564.325	8.47
564.667	8.77
565.008	8.64
565.35	8.77
565.692	8.92
566.033	8.99
566.375	8.93
566.716	9.03
567.058	8.84
567.399	9.11
567.741	8.96
568.082	8.84
568.423	8.96
568.764	9.03
569.105	9.15
569.447	8.99
569.788	9.25
570.129	9.21
570.47	9.32
570.811	9.28
571.151	9
571.492	9.3
571.833	9.42
572.174	9.48
572.514	9.38
572.855	9.32
573.195	9.5
573.536	9.26
573.876	9.56
574.217	9.34
574.557	9.37
574.898	9.48
575.238	9.45
575.578	9.54
575.918	9.52
576.258	9.57
576.598	9.59
576.938	9.67
577.278	9.71
577.618	9.63
577.958	9.67
578.298	9.89
578.638	9.73
578.977	9.94
579.317	10.02
579.657	9.99
579.996	10.17
580.336	10.2
580.675	9.96
581.014	10.04
581.354	10.19
581.693	10.33
582.032	10.15
582.372	10.23
582.711	10.28
583.05	10.52
583.389	10.47
583.728	10.48
584.067	10.45
584.406	10.61
584.745	10.51
585.083	10.5
585.422	10.63
585.761	10.73
586.1	10.71
586.438	10.41
586.777	10.71
587.115	10.66
587.454	10.83
587.792	10.73
588.13	11.05
588.469	11
588.807	10.72
589.145	10.95
589.483	10.62
589.821	10.82
590.159	10.83
590.497	10.97
590.835	11
591.173	11.16
591.511	11.34
591.849	11.08
592.187	11.23
592.524	11.15
592.862	11.37
593.2	11.37
593.537	11.23
593.875	11.46
594.212	11.35
594.55	11.4
594.887	11.56
595.224	11.28
595.561	11.44
595.899	11.29
596.236	11.66
596.573	11.71
596.91	11.79
597.247	11.64
597.584	11.39
597.921	11.83
598.258	11.74
598.594	11.75
598.931	11.7
599.268	11.66
599.604	11.76
599.941	11.76
600.277	11.93
600.614	11.97
600.95	12.09
601.287	11.98
601.623	12.27
601.959	12.03
602.296	12.12
602.632	12.56
602.968	12.29
603.304	12.31
603.64	12.43
603.976	12
604.312	12.77
604.648	12.54
604.984	12.46
605.319	12.57
605.655	12.52
605.991	12.56
606.326	12.46
606.662	12.3
606.998	12.45
607.333	12.5
607.668	12.35
608.004	12.84
608.339	12.59
608.674	12.85
609.01	12.95
609.345	13.1
609.68	13.28
610.015	12.94
610.35	12.89
610.685	13.11
611.02	13.04
611.355	12.99
611.689	13.04
612.024	13.05
612.359	13.13
612.694	12.99
613.028	13.13
613.363	13.45
613.697	13.63
614.032	13.33
614.366	13.22
614.7	13.26
615.035	13.52
615.369	13.98
615.703	13.49
616.037	13.6
616.371	13.69
616.705	13.79
617.039	13.82
617.373	13.81
617.707	14.12
618.041	13.93
618.375	13.88
618.709	13.72
619.042	13.92
619.376	14.13
619.71	14.23
620.043	14.07
620.377	14.09
620.71	14.45
621.043	14.55
621.377	14.04
621.71	13.93
622.043	14.23
622.376	14.67
622.709	14.47
623.043	14.37
623.376	14.63
623.709	13.89
624.041	14.61
624.374	14.8
624.707	14.55
625.04	14.84
625.373	14.9
625.705	14.48
626.038	14.97
626.37	14.28
626.703	14.66
627.035	14.92
627.368	14.66
627.7	15.04
628.032	15.16
628.365	15.38
628.697	14.88
629.029	15.25
629.361	15.17
629.693	14.91
630.025	14.94
630.357	15.56
630.689	15.57
631.021	15.5
631.353	15.53
631.684	15.51
632.016	15.75
632.348	15.54
632.679	15.55
633.011	15.93
633.342	15.42
633.674	15.5
634.005	16.12
634.336	15.76
634.668	15.72
634.999	15.62
635.33	15.52
635.661	16.7
635.992	15.92
636.323	15.97
636.654	16.12
636.985	15.79
637.316	16.02
637.647	15.99
637.977	15.74
638.308	16.09
638.639	16.05
638.969	16.47
639.3	15.78
639.63	16.34
639.961	16.57
640.291	16.57
640.622	16.55
640.952	16.66
641.282	16.8
641.612	16.83
641.943	16.73
642.273	16.52
642.603	17.04
642.933	16.77
643.263	17.17
643.592	16.89
643.922	17.3
644.252	16.81
644.582	16.89
644.911	17.13
645.241	16.96
645.571	17.66
645.9	17.05
646.23	17.23
646.559	17.55
646.888	17.76
647.218	17.13
647.547	17.19
647.876	17.45
648.205	17.21
648.534	17.49
648.863	17.63
649.192	17.08
649.521	17.42
649.85	17.27
650.179	17.45
650.508	17.37
650.837	17.63
651.165	17.12
651.494	17.4
651.822	17.52
652.151	18.34
652.479	17.78
652.808	18.16
653.136	17.66
653.465	18.16
653.793	18.36
654.121	18
654.449	18.3
654.777	18.33
655.105	18.33
655.433	18.91
655.761	18.69
656.089	18.8
656.417	18.23
656.745	18.82
657.073	18.61
657.4	18.85
657.728	18.82
658.056	18.9
658.383	18.48
658.711	18.31
659.038	18.82
659.365	19.25
659.693	18.7
660.02	18.86
660.347	18.61
660.674	18.52
661.001	18.64
661.329	18.94
661.656	19.19
661.982	18.84
662.309	18.76
662.636	18.9
662.963	19.07
663.29	19.34
663.616	19.39
663.943	19.28
664.27	19.76
664.596	19.24
664.923	19.44
665.249	19.11
665.576	19.36
665.902	19.19
666.228	19.22
666.554	19
666.881	19.42
667.207	19.7
667.533	19.11
667.859	19.72
668.185	20.01
668.511	20.13
668.837	20.18
669.162	19.91
669.488	20.01
669.814	19.6
670.139	19.78
670.465	19.93
670.791	20.02
671.116	19.87
671.442	20.56
671.767	20.2
672.092	20.13
672.418	20.08
672.743	20.54
673.068	20.96
673.393	20.51
673.718	20.55
674.043	20.21
674.368	20.05
674.693	20.67
675.018	20.92
675.343	20.36
675.667	20.83
675.992	20.9
676.317	20.43
676.641	20.76
676.966	20.96
677.29	21.36
677.615	20.99
677.939	21.39
678.264	21.22
678.588	20.6
678.912	21.7
679.236	20.93
679.56	21.18
679.885	21.08
680.209	20.79
680.532	21.27
680.856	21.54
681.18	21.67
681.504	21.3
681.828	21.85
682.152	21.68
682.475	21.14
682.799	21.12
683.122	21.88
683.446	22.24
683.769	21.83
684.093	22.04
684.416	21.56
684.739	21.36
685.062	21.74
685.386	21.56
685.709	22.31
