Data from 0369_crown_Reflection__1__285.txt Node

Date: Fri Oct 20 23:00:22 CDT 2023
User: ToomeyLab
Spectrometer: FLMS14357
Trigger mode: 0
Integration Time (sec): 1.000000E-2
Scans to average: 100
Electric dark correction enabled: true
Nonlinearity correction enabled: false
Boxcar width: 0
XAxis mode: Wavelengths
Number of Pixels in Spectrum: 2048
>>>>>Begin Spectral Data<<<<<
189.047	957.14
189.435	957.14
189.823	957.14
190.211	190.4
190.599	285.8
190.987	153.11
191.375	208.88
191.763	240.91
192.151	-247.11
192.538	36.69
192.926	-21.58
193.314	12.91
193.702	217.65
194.089	111.52
194.477	224.81
194.864	129.03
195.252	131.24
195.639	55.01
196.027	-496.62
196.414	10.4
196.801	259.32
197.189	-7.72
197.576	32.96
197.963	466.91
198.351	51.89
198.738	-1.26
199.125	38.45
199.512	-11.08
199.899	14.1
200.286	4.19
200.673	-3.21
201.06	60.78
201.447	8.51
201.833	41.52
202.22	14.18
202.607	24.28
202.994	27.08
203.38	29.4
203.767	-26.86
204.154	30.72
204.54	25.85
204.927	31.13
205.313	-28.32
205.699	55.61
206.086	32.35
206.472	41.32
206.858	71.77
207.245	-36.3
207.631	30.11
208.017	31.62
208.403	-29.6
208.789	57.93
209.175	44.3
209.561	17.68
209.947	5.48
210.333	9.22
210.719	12.61
211.105	-7.76
211.491	16.87
211.876	5.17
212.262	9.6
212.648	4.07
213.034	-14.95
213.419	-3.11
213.805	26.18
214.19	-10.38
214.576	-24.85
214.961	15.09
215.346	9.97
215.732	2.36
216.117	-41.56
216.502	-2.9
216.888	-8.46
217.273	-2.56
217.658	6.29
218.043	4.88
218.428	7.3
218.813	19.49
219.198	18.67
219.583	-17.23
219.968	-6.55
220.353	18.34
220.738	11.99
221.122	7.39
221.507	-11.89
221.892	6.62
222.276	20.17
222.661	6.96
223.046	9
223.43	13.66
223.815	22.54
224.199	17.26
224.583	-4.7
224.968	4.05
225.352	-5.87
225.736	7.09
226.121	11.51
226.505	4.05
226.889	9.67
227.273	10.18
227.657	17.27
228.041	10.63
228.425	10.71
228.809	12.54
229.193	8.9
229.577	9.61
229.961	8.86
230.344	9.99
230.728	8.05
231.112	10.33
231.495	9.04
231.879	9
232.263	11.24
232.646	7.8
233.03	9.37
233.413	8.34
233.797	9.73
234.18	8.85
234.563	7.71
234.946	9.36
235.33	7.97
235.713	9.04
236.096	11.25
236.479	11.71
236.862	9.32
237.245	8.72
237.628	8.77
238.011	8.35
238.394	8.12
238.777	10.9
239.16	8.72
239.543	9.81
239.925	10.51
240.308	9.55
240.691	8.75
241.073	10.13
241.456	10.13
241.838	8.75
242.221	9.48
242.603	9.58
242.986	9.41
243.368	9.21
243.75	9.13
244.133	8.85
244.515	8.48
244.897	8.8
245.279	8.93
245.661	8.99
246.043	8.77
246.425	9.35
246.807	9.23
247.189	8.61
247.571	8.33
247.953	9.09
248.335	8.76
248.717	8.59
249.098	8.54
249.48	8.56
249.862	8.66
250.243	8.89
250.625	8.46
251.006	8.59
251.388	8.43
251.769	8.94
252.151	8.68
252.532	8.84
252.913	8.62
253.295	7.13
253.676	7.74
254.057	8.22
254.438	8.25
254.819	8.56
255.2	8.14
255.581	7.77
255.962	9.23
256.343	9
256.724	8.04
257.105	8.86
257.486	8.37
257.867	8.45
258.247	7.89
258.628	7.99
259.009	7.86
259.389	7.44
259.77	7.83
260.15	8.41
260.531	8.71
260.911	8.43
261.292	8.02
261.672	8.3
262.052	7.98
262.432	8.11
262.813	7.98
263.193	7.8
263.573	7.74
263.953	7.81
264.333	7.98
264.713	7.96
265.093	8.53
265.473	8.43
265.853	7.47
266.233	8.35
266.612	7.74
266.992	7.81
267.372	7.22
267.752	7.72
268.131	8.15
268.511	7.47
268.89	7.81
269.27	7.43
269.649	7.58
270.029	7.72
270.408	8.06
270.787	7.78
271.167	7.49
271.546	8.12
271.925	8.25
272.304	7.75
272.683	7.77
273.062	7.87
273.441	7.71
273.82	7.7
274.199	7.6
274.578	7.95
274.957	8.19
275.336	7.8
275.715	7.63
276.093	7.62
276.472	7.71
276.851	7.82
277.229	7.64
277.608	7.57
277.986	7.48
278.365	7.75
278.743	7.35
279.122	7.41
279.5	7.13
279.878	7.34
280.257	7.32
280.635	7.47
281.013	7.82
281.391	7.27
281.769	7.2
282.147	6.94
282.525	7.57
282.903	7.12
283.281	7.48
283.659	6.88
284.037	7.55
284.415	6.6
284.792	7.05
285.17	7.3
285.548	7.03
285.925	7.25
286.303	6.9
286.68	6.76
287.058	7.34
287.435	7.41
287.813	6.78
288.19	7.25
288.567	7.14
288.945	7.33
289.322	7.55
289.699	6.66
290.076	7.68
290.453	7.2
290.83	6.64
291.207	7.24
291.584	6.67
291.961	7.02
292.338	6.78
292.715	7.16
293.092	7.01
293.469	7.09
293.845	6.72
294.222	6.78
294.599	7.09
294.975	7.33
295.352	7.04
295.728	6.65
296.105	6.39
296.481	6.73
296.858	6.43
297.234	6.49
297.61	6.39
297.986	6.44
298.363	6.63
298.739	6.57
299.115	6.46
299.491	6.58
299.867	6.41
300.243	6.52
300.619	6.52
300.995	6.68
301.371	6.72
301.746	6.44
302.122	6.97
302.498	6.12
302.874	6.06
303.249	6.34
303.625	6.69
304	6.56
304.376	6.15
304.751	5.99
305.127	6.58
305.502	6.85
305.878	6.73
306.253	6.23
306.628	6.32
307.003	6.51
307.378	5.67
307.754	6.17
308.129	6.67
308.504	6.82
308.879	6.75
309.254	6.85
309.629	6.09
310.003	5.75
310.378	6.26
310.753	6.22
311.128	6.4
311.502	6.13
311.877	6.32
312.252	5.88
312.626	6.25
313.001	5.61
313.375	5.84
313.75	6.15
314.124	5.97
314.498	5.93
314.873	5.85
315.247	5.83
315.621	6.17
315.995	6.16
316.369	5.74
316.743	6.5
317.117	5.99
317.491	5.54
317.865	6.17
318.239	6.12
318.613	5.91
318.987	5.48
319.361	5.21
319.734	5.29
320.108	5.93
320.482	6.12
320.855	6.07
321.229	7.13
321.602	5.97
321.976	5.75
322.349	6.21
322.723	5.98
323.096	6.09
323.469	6.04
323.843	6.04
324.216	6.11
324.589	6.17
324.962	6.39
325.335	5.8
325.708	5.77
326.081	5.7
326.454	5.77
326.827	6.08
327.2	5.86
327.573	5.88
327.945	5.81
328.318	5.9
328.691	5.88
329.063	6.11
329.436	5.84
329.809	6.37
330.181	5.94
330.553	5.95
330.926	5.82
331.298	5.32
331.671	4.99
332.043	5.43
332.415	5.91
332.787	6.25
333.159	5.78
333.532	6.26
333.904	5.81
334.276	5.26
334.648	5.71
335.02	6.41
335.391	5.51
335.763	6.11
336.135	6.08
336.507	6.23
336.879	5.67
337.25	6.05
337.622	6.06
337.993	5.75
338.365	5.79
338.736	5.56
339.108	6.43
339.479	6
339.851	5.68
340.222	5.4
340.593	5.66
340.964	5.74
341.336	5.91
341.707	5.7
342.078	5.97
342.449	6.16
342.82	5.62
343.191	5.76
343.562	5.53
343.933	5.75
344.303	5.58
344.674	5.66
345.045	6.22
345.416	5.93
345.786	5.42
346.157	5.99
346.527	5.97
346.898	5.61
347.268	5.79
347.639	6.19
348.009	5.72
348.38	6.05
348.75	6.17
349.12	5.69
349.49	5.83
349.861	5.93
350.231	5.8
350.601	5.83
350.971	6.18
351.341	6.34
351.711	6.64
352.081	6.15
352.45	5.87
352.82	6.33
353.19	6.01
353.56	5.98
353.929	5.75
354.299	5.65
354.669	5.54
355.038	6.45
355.408	6.24
355.777	6.03
356.147	5.88
356.516	5.77
356.885	6.04
357.254	5.93
357.624	6.27
357.993	5.61
358.362	5.94
358.731	5.51
359.1	5.76
359.469	5.83
359.838	6.33
360.207	5.82
360.576	6.07
360.945	5.94
361.314	6.08
361.682	6.11
362.051	5.9
362.42	6.13
362.788	6.28
363.157	6.21
363.525	5.88
363.894	6.16
364.262	6.08
364.631	6.01
364.999	6.07
365.367	6.14
365.735	5.96
366.104	6.17
366.472	6.41
366.84	6.17
367.208	6.17
367.576	6.03
367.944	6.22
368.312	6.03
368.68	6.33
369.048	6.31
369.416	6.36
369.783	6.21
370.151	6.25
370.519	5.88
370.886	6.22
371.254	6.72
371.621	6.44
371.989	6.19
372.356	6.53
372.724	6.51
373.091	6.24
373.458	6
373.826	6.41
374.193	6.46
374.56	6.55
374.927	6.52
375.294	6.7
375.661	6.41
376.028	6.84
376.395	6.66
376.762	6.45
377.129	6.56
377.496	6.48
377.863	6.79
378.229	6.58
378.596	6.53
378.963	6.39
379.329	6.65
379.696	6.36
380.062	6.28
380.429	6.38
380.795	6.27
381.161	6.44
381.528	6.86
381.894	6.36
382.26	6.7
382.626	6.75
382.993	6.63
383.359	6.84
383.725	6.67
384.091	6.62
384.457	6.76
384.823	6.69
385.188	6.81
385.554	6.54
385.92	6.72
386.286	6.78
386.651	6.64
387.017	6.83
387.383	6.69
387.748	6.45
388.114	6.29
388.479	6.79
388.845	6.75
389.21	6.47
389.575	6.55
389.94	6.56
390.306	6.45
390.671	6.82
391.036	6.61
391.401	6.9
391.766	6.83
392.131	6.85
392.496	6.64
392.861	6.78
393.226	6.83
393.591	6.85
393.956	6.68
394.32	6.75
394.685	6.47
395.05	7.05
395.414	7.14
395.779	6.88
396.143	6.7
396.508	6.64
396.872	6.92
397.236	6.84
397.601	6.85
397.965	6.82
398.329	6.61
398.694	7
399.058	6.71
399.422	6.9
399.786	6.5
400.15	6.9
400.514	6.68
400.878	6.92
401.242	7.04
401.605	6.96
401.969	6.73
402.333	7.11
402.697	7.16
403.06	6.87
403.424	6.97
403.787	6.84
404.151	7.11
404.514	7.13
404.878	7.29
405.241	7.15
405.604	6.84
405.968	7.16
406.331	6.96
406.694	6.96
407.057	6.89
407.42	7.31
407.783	7.3
408.146	6.98
408.509	7.11
408.872	7.22
409.235	6.91
409.598	7.24
409.961	7.06
410.323	7.24
410.686	6.94
411.049	7.18
411.411	7.06
411.774	7.22
412.136	7.06
412.499	7.23
412.861	7.16
413.223	7.3
413.586	7
413.948	7.29
414.31	7.34
414.672	7.19
415.035	7.07
415.397	7.33
415.759	7.29
416.121	7.21
416.483	7.37
416.845	7.29
417.206	7.13
417.568	7.52
417.93	7.42
418.292	7.14
418.653	7.36
419.015	7
419.377	7.16
419.738	7.19
420.1	7.09
420.461	7.19
420.822	7.11
421.184	7.22
421.545	7.18
421.906	7.14
422.267	7.19
422.629	7.18
422.99	7.12
423.351	7.09
423.712	7.07
424.073	7.25
424.434	7.16
424.795	7.12
425.155	7.2
425.516	7.27
425.877	7.18
426.238	7.06
426.598	7.21
426.959	7.08
427.32	7.24
427.68	7.29
428.041	7.17
428.401	7.18
428.761	7.35
429.122	7.22
429.482	7.41
429.842	7.37
430.202	7.3
430.563	7.32
430.923	7.52
431.283	7.49
431.643	7.56
432.003	7.64
432.363	7.08
432.722	7.28
433.082	7.51
433.442	7.45
433.802	7.5
434.161	7.45
434.521	7.58
434.881	7.42
435.24	7.51
435.6	7.48
435.959	7.45
436.319	7.33
436.678	7.3
437.037	7.39
437.396	7.48
437.756	7.62
438.115	7.37
438.474	7.54
438.833	7.58
439.192	7.29
439.551	7.42
439.91	7.46
440.269	7.62
440.628	7.48
440.987	7.35
441.345	7.52
441.704	7.44
442.063	7.57
442.421	7.48
442.78	7.36
443.138	7.6
443.497	7.49
443.855	7.63
444.214	7.32
444.572	7.51
444.93	7.49
445.288	7.7
445.647	7.56
446.005	7.37
446.363	7.53
446.721	7.54
447.079	7.63
447.437	7.63
447.795	7.39
448.153	7.4
448.51	7.46
448.868	7.39
449.226	7.36
449.584	7.5
449.941	7.45
450.299	7.56
450.656	7.41
451.014	7.54
451.371	7.67
451.729	7.61
452.086	7.58
452.443	7.63
452.801	7.69
453.158	7.77
453.515	7.58
453.872	7.64
454.229	7.73
454.586	7.68
454.943	7.62
455.3	7.56
455.657	7.49
456.014	7.48
456.371	7.67
456.727	7.71
457.084	7.73
457.441	7.84
457.797	7.68
458.154	7.51
458.51	7.67
458.867	7.53
459.223	7.78
459.58	7.51
459.936	7.72
460.292	7.58
460.648	7.59
461.005	7.52
461.361	7.58
461.717	7.46
462.073	7.55
462.429	7.46
462.785	7.5
463.141	7.55
463.496	7.63
463.852	7.56
464.208	7.66
464.564	7.7
464.919	7.67
465.275	7.83
465.631	7.77
465.986	7.67
466.342	7.79
466.697	7.94
467.052	7.66
467.408	7.8
467.763	7.81
468.118	7.98
468.473	7.71
468.829	7.66
469.184	7.97
469.539	7.82
469.894	7.88
470.249	7.81
470.603	7.67
470.958	7.93
471.313	7.91
471.668	8
472.023	7.86
472.377	7.88
472.732	7.73
473.086	7.91
473.441	7.77
473.795	8
474.15	7.87
474.504	7.61
474.859	7.83
475.213	7.91
475.567	7.82
475.921	7.77
476.275	7.88
476.63	7.95
476.984	7.93
477.338	7.83
477.692	7.65
478.045	7.73
478.399	7.82
478.753	7.72
479.107	7.81
479.461	7.81
479.814	7.95
480.168	8.06
480.521	7.77
480.875	7.73
481.228	7.82
481.582	7.95
481.935	7.82
482.289	7.7
482.642	7.78
482.995	7.72
483.348	7.79
483.701	7.7
484.055	7.74
484.408	7.71
484.761	7.71
485.114	7.55
485.466	7.44
485.819	7.36
486.172	7.26
486.525	7.3
486.878	7.34
487.23	7.38
487.583	7.47
487.936	7.5
488.288	7.58
488.641	7.6
488.993	7.46
489.345	7.53
489.698	7.45
490.05	7.44
490.402	7.42
490.754	7.45
491.107	7.46
491.459	7.6
491.811	7.73
492.163	7.57
492.515	7.74
492.866	7.69
493.218	7.62
493.57	7.5
493.922	7.49
494.274	7.44
494.625	7.48
494.977	7.47
495.328	7.72
495.68	7.74
496.031	7.76
496.383	7.75
496.734	7.82
497.086	7.7
497.437	7.78
497.788	7.73
498.139	7.82
498.49	7.76
498.842	7.67
499.193	7.72
499.544	7.74
499.894	7.75
500.245	7.8
500.596	7.8
500.947	7.86
501.298	7.77
501.648	7.84
501.999	7.82
502.35	7.74
502.7	7.93
503.051	7.71
503.401	7.88
503.752	7.81
504.102	7.82
504.452	7.95
504.803	7.86
505.153	8.03
505.503	7.84
505.853	7.97
506.203	7.75
506.553	7.78
506.903	7.77
507.253	7.78
507.603	7.9
507.953	7.85
508.303	7.85
508.652	7.92
509.002	7.88
509.352	7.87
509.701	7.86
510.051	7.75
510.4	7.9
510.75	7.8
511.099	7.79
511.449	7.89
511.798	7.77
512.147	7.83
512.496	7.88
512.846	7.85
513.195	7.85
513.544	7.98
513.893	7.76
514.242	7.82
514.591	7.81
514.939	7.78
515.288	7.72
515.637	7.83
515.986	7.79
516.334	7.88
516.683	7.87
517.032	7.69
517.38	7.89
517.729	7.92
518.077	7.9
518.426	7.94
518.774	7.8
519.122	7.93
519.47	7.84
519.819	7.93
520.167	7.77
520.515	7.72
520.863	7.87
521.211	7.78
521.559	7.77
521.907	7.66
522.255	7.83
522.602	7.93
522.95	7.73
523.298	7.88
523.645	7.77
523.993	7.74
524.341	7.84
524.688	7.84
525.036	7.93
525.383	7.76
525.73	7.83
526.078	7.82
526.425	7.81
526.772	7.88
527.119	7.82
527.466	7.63
527.814	7.75
528.161	7.75
528.508	7.68
528.854	7.69
529.201	7.67
529.548	7.68
529.895	7.62
530.242	7.55
530.588	7.48
530.935	7.42
531.282	7.48
531.628	7.44
531.975	7.45
532.321	7.59
532.667	7.56
533.014	7.66
533.36	7.74
533.706	7.79
534.052	7.73
534.399	7.64
534.745	7.54
535.091	7.58
535.437	7.56
535.783	7.57
536.129	7.59
536.474	7.6
536.82	7.59
537.166	7.64
537.512	7.71
537.857	7.78
538.203	7.81
538.549	7.78
538.894	7.69
539.239	7.75
539.585	7.6
539.93	7.74
540.276	7.79
540.621	7.71
540.966	7.8
541.311	7.79
541.656	7.85
542.001	7.84
542.346	7.93
542.691	7.65
543.036	7.63
543.381	7.5
543.726	7.55
544.071	7.49
544.415	7.53
544.76	7.52
545.105	7.59
545.449	7.63
545.794	7.73
546.138	7.66
546.483	7.69
546.827	7.78
547.171	7.69
547.516	7.64
547.86	7.75
548.204	7.62
548.548	7.71
548.892	7.74
549.236	7.65
549.58	7.57
549.924	7.65
550.268	7.73
550.612	7.68
550.956	7.94
551.3	7.7
551.643	7.72
551.987	7.92
552.33	7.91
552.674	7.8
553.017	7.77
553.361	7.77
553.704	7.87
554.048	7.95
554.391	7.75
554.734	7.89
555.077	7.73
555.42	7.62
555.764	7.78
556.107	7.81
556.45	7.72
556.793	7.62
557.135	7.61
557.478	7.81
557.821	7.93
558.164	8
558.507	7.83
558.849	8.01
559.192	7.73
559.534	7.9
559.877	7.64
560.219	7.82
560.562	7.97
560.904	7.61
561.246	7.75
561.589	7.49
561.931	7.76
562.273	8.12
562.615	7.97
562.957	7.75
563.299	7.58
563.641	7.83
563.983	7.72
564.325	7.73
564.667	7.84
565.008	7.58
565.35	7.71
565.692	7.76
566.033	7.78
566.375	7.83
566.716	7.77
567.058	7.65
567.399	7.73
567.741	7.55
568.082	7.7
568.423	7.78
568.764	7.59
569.105	7.76
569.447	7.63
569.788	7.67
570.129	7.63
570.47	7.69
570.811	7.79
571.151	7.68
571.492	7.74
571.833	7.89
572.174	7.72
572.514	7.68
572.855	7.59
573.195	7.7
573.536	7.46
573.876	7.73
574.217	7.61
574.557	7.66
574.898	7.57
575.238	7.49
575.578	7.81
575.918	7.63
576.258	7.72
576.598	7.58
576.938	7.72
577.278	7.77
577.618	7.59
577.958	7.58
578.298	7.7
578.638	7.65
578.977	7.51
579.317	7.37
579.657	7.55
579.996	7.45
580.336	7.79
580.675	7.3
581.014	7.54
581.354	7.67
581.693	7.6
582.032	7.78
582.372	7.75
582.711	7.75
583.05	7.82
583.389	7.57
583.728	7.87
584.067	7.66
584.406	7.66
584.745	7.46
585.083	7.57
585.422	7.69
585.761	7.7
586.1	7.69
586.438	7.28
586.777	7.68
587.115	7.61
587.454	7.62
587.792	7.58
588.13	7.78
588.469	7.94
588.807	7.3
589.145	7.64
589.483	7.51
589.821	7.43
590.159	7.5
590.497	7.6
590.835	7.57
591.173	7.47
591.511	7.48
591.849	7.44
592.187	7.62
592.524	7.24
592.862	7.42
593.2	7.73
593.537	7.49
593.875	7.46
594.212	7.49
594.55	7.6
594.887	7.53
595.224	7.45
595.561	7.38
595.899	7.25
596.236	7.56
596.573	7.49
596.91	7.42
597.247	7.55
597.584	7.2
597.921	7.45
598.258	7.54
598.594	7.58
598.931	7.29
599.268	7.35
599.604	7.42
599.941	7.42
600.277	7.41
600.614	7.32
600.95	7.3
601.287	7.27
601.623	7.45
601.959	7.58
602.296	7.24
602.632	7.7
602.968	7.21
603.304	7.54
603.64	7.14
603.976	7.48
604.312	7.43
604.648	7.48
604.984	7.56
605.319	7.2
605.655	7.45
605.991	7.21
606.326	7.3
606.662	7.09
606.998	7.01
607.333	7.24
607.668	7.06
608.004	7.21
608.339	7.23
608.674	7.25
609.01	7.2
609.345	7.35
609.68	7.11
610.015	7.45
610.35	7.24
610.685	7.34
611.02	7.09
611.355	7.02
611.689	7.17
612.024	7.28
612.359	7.03
612.694	7.3
613.028	7
613.363	7.35
613.697	7.24
614.032	7.21
614.366	7.36
614.7	7.5
615.035	7.14
615.369	7.42
615.703	7.18
616.037	7.25
616.371	7.09
616.705	7.02
617.039	6.96
617.373	7.13
617.707	7.24
618.041	7.47
618.375	7.11
618.709	6.83
619.042	7.12
619.376	7.58
619.71	6.93
620.043	7.11
620.377	7.07
620.71	7.35
621.043	7.19
621.377	7.07
621.71	7.21
622.043	7
622.376	7.43
622.709	7.38
623.043	7.39
623.376	7.43
623.709	6.89
624.041	7.07
624.374	7.32
624.707	6.64
625.04	7.07
625.373	7.31
625.705	7.01
626.038	7.46
626.37	6.84
626.703	7.19
627.035	6.8
627.368	6.94
627.7	6.99
628.032	7.06
628.365	7.31
628.697	6.95
629.029	7.21
629.361	6.87
629.693	7.18
630.025	6.88
630.357	7.33
630.689	6.86
631.021	7.31
631.353	7.06
631.684	6.97
632.016	7.22
632.348	6.76
632.679	6.65
633.011	7.04
633.342	6.84
633.674	6.97
634.005	7.03
634.336	7.3
634.668	6.88
634.999	6.97
635.33	6.8
635.661	7.33
635.992	7.25
636.323	7.01
636.654	7.13
636.985	6.93
637.316	6.78
637.647	6.94
637.977	6.56
638.308	7.21
638.639	6.92
638.969	6.77
639.3	6.38
639.63	7.03
639.961	6.78
640.291	7.06
640.622	6.76
640.952	6.96
641.282	6.56
641.612	6.63
641.943	7.2
642.273	6.67
642.603	7.43
642.933	6.62
643.263	6.93
643.592	6.67
643.922	7.14
644.252	6.9
644.582	6.68
644.911	6.99
645.241	7.37
645.571	7.27
645.9	6.75
646.23	6.77
646.559	7.02
646.888	6.98
647.218	6.53
647.547	6.66
647.876	6.44
648.205	7.06
648.534	6.36
648.863	7.01
649.192	6.87
649.521	6.65
649.85	7.04
650.179	6.75
650.508	7.08
650.837	7.11
651.165	6.62
651.494	6.58
651.822	6.9
652.151	6.79
652.479	6.98
652.808	6.91
653.136	6.44
653.465	7.07
653.793	6.62
654.121	7.04
654.449	7.19
654.777	6.44
655.105	6.94
655.433	7.07
655.761	6.72
656.089	6.91
656.417	6.98
656.745	6.62
657.073	6.47
657.4	7.18
657.728	7.19
658.056	6.72
658.383	6.7
658.711	6.71
659.038	7.07
659.365	7.33
659.693	6.73
660.02	6.96
660.347	6.94
660.674	6.73
661.001	6.65
661.329	6.64
661.656	6.76
661.982	6.49
662.309	7.15
662.636	6.67
662.963	6.95
663.29	6.57
663.616	6.94
663.943	6.59
664.27	6.29
664.596	6.65
664.923	6.41
665.249	6.59
665.576	7.18
665.902	6.73
666.228	6.58
666.554	7.01
666.881	6.66
667.207	6.76
667.533	6.89
667.859	6.45
668.185	6.88
668.511	7.11
668.837	7.13
669.162	6.74
669.488	7.33
669.814	6.83
670.139	6.3
670.465	6.26
670.791	6.78
671.116	7.02
671.442	6.99
671.767	6.85
672.092	6.78
672.418	7.05
672.743	6.58
673.068	6.9
673.393	6.72
673.718	6.25
674.043	6.87
674.368	6.87
674.693	7.15
675.018	7.38
675.343	6.7
675.667	6.89
675.992	6.55
676.317	7.44
676.641	6.97
676.966	6.99
677.29	6.89
677.615	6.14
677.939	6.34
678.264	6.52
678.588	6.46
678.912	6.71
679.236	6.64
679.56	6.38
679.885	6.69
680.209	7.23
680.532	6.32
680.856	6.2
681.18	7.11
681.504	6.86
681.828	6.82
682.152	6.82
682.475	6.46
682.799	6.93
683.122	6.66
683.446	6.35
683.769	6.94
684.093	6.57
684.416	6.75
684.739	6.21
685.062	5.66
685.386	6.6
685.709	6.87
686.032	6.49
686.355	7.25
686.678	6.08
687.001	7.05
687.324	6.28
687.646	7.4
687.969	7.17
688.292	6.34
688.614	6.84
688.937	6.56
689.26	6.59
689.582	6.61
689.904	5.78
690.227	7.05
690.549	6.56
690.871	7.13
691.194	6.84
691.516	6.27
691.838	7.57
692.16	6.45
