Data from 0369_forehead_Reflection__0__289.txt Node

Date: Fri Oct 20 23:01:33 CDT 2023
User: ToomeyLab
Spectrometer: FLMS14357
Trigger mode: 0
Integration Time (sec): 1.000000E-2
Scans to average: 100
Electric dark correction enabled: true
Nonlinearity correction enabled: false
Boxcar width: 0
XAxis mode: Wavelengths
Number of Pixels in Spectrum: 2048
>>>>>Begin Spectral Data<<<<<
189.047	497.7
189.435	497.7
189.823	497.7
190.211	29.07
190.599	196.57
190.987	30.32
191.375	224.69
191.763	224.85
192.151	168.73
192.538	-48.6
192.926	25.34
193.314	57.82
193.702	732.3
194.089	205.93
194.477	91.83
194.864	-13.25
195.252	215.48
195.639	-400.82
196.027	-98.63
196.414	38.56
196.801	453.72
197.189	-124.87
197.576	55.67
197.963	543.54
198.351	59.33
198.738	11.01
199.125	14.08
199.512	73.32
199.899	32.47
200.286	-4.99
200.673	47.29
201.06	46.9
201.447	-3.67
201.833	51.12
202.22	31.92
202.607	44.5
202.994	11.5
203.38	-0.06
203.767	45.48
204.154	37.71
204.54	45.15
204.927	3.89
205.313	-3.41
205.699	38.69
206.086	35.26
206.472	51.55
206.858	29.19
207.245	-1.25
207.631	55.76
208.017	20.23
208.403	19.49
208.789	70.02
209.175	53.94
209.561	6.75
209.947	34.87
210.333	4.4
210.719	17.55
211.105	-6.31
211.491	25.54
211.876	-6.34
212.262	27.3
212.648	46.41
213.034	12.34
213.419	21.44
213.805	33.49
214.19	18.62
214.576	-5.08
214.961	15.15
215.346	8.53
215.732	28.09
216.117	-5.79
216.502	7.11
216.888	-0.05
217.273	12.58
217.658	-10.03
218.043	36.82
218.428	5.03
218.813	19.62
219.198	9.86
219.583	-15.55
219.968	-19.94
220.353	13
220.738	-0.57
221.122	-9.17
221.507	25.61
221.892	22.2
222.276	22.26
222.661	31.44
223.046	17.44
223.43	0.29
223.815	25.12
224.199	13.52
224.583	4.12
224.968	9.48
225.352	4.99
225.736	5.44
226.121	13.71
226.505	2.43
226.889	7.09
227.273	5.81
227.657	8.29
228.041	11.5
228.425	2.82
228.809	7.79
229.193	5.43
229.577	7.31
229.961	4.09
230.344	3.92
230.728	3.43
231.112	4.77
231.495	3.83
231.879	5.12
232.263	6.35
232.646	3.43
233.03	3.99
233.413	3.87
233.797	3.66
234.18	5.57
234.563	6.07
234.946	6.1
235.33	6.07
235.713	4.62
236.096	6.44
236.479	5.27
236.862	3.71
237.245	3.42
237.628	5.41
238.011	5.55
238.394	4.58
238.777	5.8
239.16	5.38
239.543	6.32
239.925	6.09
240.308	5.01
240.691	3.48
241.073	5.96
241.456	4.31
241.838	5.29
242.221	6.08
242.603	5.98
242.986	5.09
243.368	4.76
243.75	4.28
244.133	4.13
244.515	4.22
244.897	3.99
245.279	4.67
245.661	4.11
246.043	4.81
246.425	4.53
246.807	5.13
247.189	4.92
247.571	4.52
247.953	4.38
248.335	4.61
248.717	4.2
249.098	4.06
249.48	4.25
249.862	3.95
250.243	4.68
250.625	4.43
251.006	4.16
251.388	4.63
251.769	4.47
252.151	4.01
252.532	4.97
252.913	4.64
253.295	3.44
253.676	4.45
254.057	4.58
254.438	4.99
254.819	4.29
255.2	4.47
255.581	4.08
255.962	3.54
256.343	5.37
256.724	4.66
257.105	5.25
257.486	5.86
257.867	4.11
258.247	5.32
258.628	4.22
259.009	4.88
259.389	4.47
259.77	4.81
260.15	4.55
260.531	4.71
260.911	4.89
261.292	4.14
261.672	4.36
262.052	4.22
262.432	4.02
262.813	4.22
263.193	4.4
263.573	4.04
263.953	4.69
264.333	5.05
264.713	4.49
265.093	4.91
265.473	5.33
265.853	3.72
266.233	4.41
266.612	4.42
266.992	4.14
267.372	4.23
267.752	4.55
268.131	4.86
268.511	4.57
268.89	4.32
269.27	4.14
269.649	3.91
270.029	3.79
270.408	4.37
270.787	4.34
271.167	4.63
271.546	4.87
271.925	5.01
272.304	4.9
272.683	4.51
273.062	4.55
273.441	4.07
273.82	4.04
274.199	4.04
274.578	4.3
274.957	3.98
275.336	4.71
275.715	4.53
276.093	4.34
276.472	4.73
276.851	4.38
277.229	4.31
277.608	4.08
277.986	3.53
278.365	4.37
278.743	4.46
279.122	4.15
279.5	4.2
279.878	4.41
280.257	4.64
280.635	4.8
281.013	4.43
281.391	4.63
281.769	4.15
282.147	4.12
282.525	4.5
282.903	4.65
283.281	4.18
283.659	4.21
284.037	5
284.415	3.91
284.792	4.39
285.17	4.39
285.548	4.1
285.925	4.09
286.303	4.31
286.68	4.37
287.058	4.54
287.435	4.45
287.813	4.11
288.19	4.16
288.567	4.39
288.945	4.77
289.322	4.83
289.699	4.41
290.076	4.86
290.453	4.81
290.83	4.63
291.207	5.08
291.584	4.56
291.961	4.4
292.338	4.37
292.715	4.96
293.092	4.69
293.469	5.13
293.845	4.71
294.222	4.9
294.599	5.25
294.975	5.97
295.352	5.04
295.728	5.12
296.105	4.8
296.481	5.38
296.858	5.12
297.234	5.11
297.61	4.77
297.986	5.12
298.363	5.53
298.739	5.81
299.115	5.46
299.491	5.4
299.867	5.52
300.243	5.62
300.619	5.82
300.995	5.78
301.371	6.06
301.746	5.85
302.122	6.36
302.498	5.89
302.874	6.02
303.249	5.95
303.625	6.18
304	6.68
304.376	5.93
304.751	6.09
305.127	6.22
305.502	6.8
305.878	6.51
306.253	6.1
306.628	6.56
307.003	7.1
307.378	6.58
307.754	6.52
308.129	6.92
308.504	7.2
308.879	7.3
309.254	7.82
309.629	6.72
310.003	6.9
310.378	7.64
310.753	7.5
311.128	7.75
311.502	7.26
311.877	7.54
312.252	7.27
312.626	7.68
313.001	7.71
313.375	7.78
313.75	7.75
314.124	7.57
314.498	8.02
314.873	8.19
315.247	8.03
315.621	8.1
315.995	8.24
316.369	8.31
316.743	8.88
317.117	8.81
317.491	7.93
317.865	8.85
318.239	8.97
318.613	8.9
318.987	8.57
319.361	8.51
319.734	8.81
320.108	8.85
320.482	9.57
320.855	8.97
321.229	9.96
321.602	9.74
321.976	9.6
322.349	10.33
322.723	9.17
323.096	9.99
323.469	9.94
323.843	10.52
324.216	9.86
324.589	9.59
324.962	10.37
325.335	10.39
325.708	9.85
326.081	10.01
326.454	10.27
326.827	10.77
327.2	10.51
327.573	10.68
327.945	10.77
328.318	10.33
328.691	10.67
329.063	10.92
329.436	10.41
329.809	11.08
330.181	11.22
330.553	10.95
330.926	10.93
331.298	11.27
331.671	10.94
332.043	11.11
332.415	11.29
332.787	11.33
333.159	10.74
333.532	11.59
333.904	11.76
334.276	11.27
334.648	11.54
335.02	12.01
335.391	11.66
335.763	11.93
336.135	12.45
336.507	11.91
336.879	11.69
337.25	12.06
337.622	12.09
337.993	12.5
338.365	11.97
338.736	12.58
339.108	12.57
339.479	12.25
339.851	12.35
340.222	12.11
340.593	12.13
340.964	12.21
341.336	13.25
341.707	12.84
342.078	12.93
342.449	12.53
342.82	13.06
343.191	12.9
343.562	12.91
343.933	13.18
344.303	12.97
344.674	13.17
345.045	13.26
345.416	13.25
345.786	12.87
346.157	13.48
346.527	13.26
346.898	13.52
347.268	13.52
347.639	13.63
348.009	13.28
348.38	13.59
348.75	13.48
349.12	13.87
349.49	13.62
349.861	14.08
350.231	13.88
350.601	14.28
350.971	14.14
351.341	14.02
351.711	14.24
352.081	14.54
352.45	14.02
352.82	14.42
353.19	14.8
353.56	14.77
353.929	14.76
354.299	14.63
354.669	14.46
355.038	15.04
355.408	14.83
355.777	14.78
356.147	14.85
356.516	14.36
356.885	14.91
357.254	15.14
357.624	15.1
357.993	14.84
358.362	15.37
358.731	14.9
359.1	15.17
359.469	15.04
359.838	15.5
360.207	15.43
360.576	15.44
360.945	15.32
361.314	15.63
361.682	15.62
362.051	15.28
362.42	15.56
362.788	15.58
363.157	15.91
363.525	15.75
363.894	15.78
364.262	15.74
364.631	16.28
364.999	16.36
365.367	15.95
365.735	16.19
366.104	16.15
366.472	16.56
366.84	16.36
367.208	16.38
367.576	16.37
367.944	16.76
368.312	16.51
368.68	16.94
369.048	16.84
369.416	16.86
369.783	17.07
370.151	16.7
370.519	17.18
370.886	17.25
371.254	17.4
371.621	17.42
371.989	17.1
372.356	17.32
372.724	17.65
373.091	17.82
373.458	17.59
373.826	17.38
374.193	17.6
374.56	17.51
374.927	17.83
375.294	17.76
375.661	17.78
376.028	18.31
376.395	18.17
376.762	17.83
377.129	18.35
377.496	18.33
377.863	18.54
378.229	18.17
378.596	18.43
378.963	18.48
379.329	18.36
379.696	18.54
380.062	18.44
380.429	18.52
380.795	18.76
381.161	18.73
381.528	19.31
381.894	18.82
382.26	18.86
382.626	19.09
382.993	19.18
383.359	18.83
383.725	19.07
384.091	19.36
384.457	19.37
384.823	19.9
385.188	19.55
385.554	19.39
385.92	19.93
386.286	19.62
386.651	19.47
387.017	19.63
387.383	19.85
387.748	19.66
388.114	19.72
388.479	19.79
388.845	20.01
389.21	20.02
389.575	19.96
389.94	20.15
390.306	20.53
390.671	20.38
391.036	20.44
391.401	20.59
391.766	20.74
392.131	20.71
392.496	20.8
392.861	20.74
393.226	20.91
393.591	20.51
393.956	20.84
394.32	20.89
394.685	20.96
395.05	21.18
395.414	21.43
395.779	20.97
396.143	21.39
396.508	21.17
396.872	21.26
397.236	21.31
397.601	21.59
397.965	21.32
398.329	21.35
398.694	21.49
399.058	21.7
399.422	21.81
399.786	21.95
400.15	21.77
400.514	21.8
400.878	21.88
401.242	22.09
401.605	22.14
401.969	21.94
402.333	21.93
402.697	22.2
403.06	22.34
403.424	22.28
403.787	22.33
404.151	22.53
404.514	22.61
404.878	22.67
405.241	22.84
405.604	22.7
405.968	23
406.331	22.71
406.694	22.78
407.057	22.99
407.42	23.03
407.783	22.77
408.146	22.96
408.509	23.03
408.872	23.33
409.235	23.28
409.598	23.44
409.961	23.33
410.323	23.53
410.686	23.31
411.049	23.82
411.411	23.6
411.774	23.77
412.136	23.72
412.499	23.74
412.861	23.77
413.223	23.82
413.586	23.87
413.948	24.3
414.31	24.15
414.672	24.18
415.035	24.31
415.397	24.36
415.759	24.3
416.121	24.52
416.483	24.58
416.845	24.58
417.206	24.3
417.568	24.74
417.93	24.3
418.292	24.35
418.653	24.72
419.015	24.53
419.377	24.52
419.738	24.55
420.1	24.33
420.461	24.63
420.822	24.73
421.184	24.8
421.545	24.78
421.906	24.74
422.267	24.71
422.629	24.91
422.99	24.89
423.351	24.82
423.712	24.86
424.073	24.99
424.434	25.13
424.795	25.14
425.155	25.27
425.516	25.3
425.877	25.31
426.238	25.36
426.598	25.25
426.959	25.31
427.32	25.41
427.68	25.76
428.041	25.78
428.401	25.92
428.761	26.08
429.122	26.14
429.482	26.34
429.842	26.32
430.202	26.45
430.563	26.55
430.923	26.69
431.283	26.71
431.643	26.69
432.003	26.83
432.363	26.72
432.722	26.89
433.082	26.92
433.442	26.84
433.802	27.25
434.161	27.09
434.521	27.25
434.881	27.23
435.24	27.11
435.6	27.15
435.959	27.16
436.319	27.46
436.678	27.4
437.037	27.44
437.396	27.72
437.756	27.54
438.115	27.61
438.474	27.71
438.833	27.8
439.192	27.73
439.551	27.83
439.91	28.07
440.269	28.16
440.628	28.16
440.987	28.21
441.345	27.79
441.704	28.04
442.063	28.11
442.421	28.02
442.78	28.21
443.138	28.38
443.497	28.43
443.855	28.41
444.214	28.5
444.572	28.58
444.93	28.75
445.288	28.67
445.647	28.88
446.005	28.75
446.363	28.81
446.721	28.88
447.079	28.88
447.437	28.83
447.795	28.82
448.153	28.7
448.51	28.86
448.868	28.75
449.226	28.88
449.584	29.12
449.941	29.28
450.299	29.21
450.656	29.36
451.014	29.31
451.371	29.53
451.729	29.68
452.086	29.88
452.443	29.82
452.801	29.96
453.158	30.2
453.515	30.06
453.872	30.01
454.229	30.15
454.586	30.24
454.943	30.34
455.3	30.4
455.657	30.36
456.014	30.36
456.371	30.47
456.727	30.7
457.084	30.88
457.441	30.8
457.797	30.93
458.154	30.66
458.51	30.91
458.867	31.04
459.223	31.27
459.58	31.09
459.936	31.17
460.292	31.11
460.648	30.96
461.005	31.42
461.361	30.89
461.717	30.68
462.073	30.98
462.429	30.81
462.785	30.99
463.141	31.27
463.496	31.31
463.852	31.72
464.208	31.76
464.564	31.92
464.919	31.75
465.275	32.11
465.631	32.09
465.986	32.08
466.342	32.3
466.697	32.3
467.052	32.48
467.408	32.3
467.763	32.53
468.118	32.38
468.473	32.28
468.829	32.45
469.184	32.66
469.539	32.66
469.894	32.68
470.249	32.76
470.603	32.71
470.958	33.05
471.313	32.99
471.668	33
472.023	32.95
472.377	33.15
472.732	32.96
473.086	33.23
473.441	33.18
473.795	33.43
474.15	33.33
474.504	33.14
474.859	33.54
475.213	33.6
475.567	33.74
475.921	33.56
476.275	33.43
476.63	33.98
476.984	33.93
477.338	33.88
477.692	33.84
478.045	33.91
478.399	33.83
478.753	33.96
479.107	34.11
479.461	34.14
479.814	34.23
480.168	34.32
480.521	34.07
480.875	34.28
481.228	34.49
481.582	34.52
481.935	34.34
482.289	34.57
482.642	34.49
482.995	34.56
483.348	34.46
483.701	34.43
484.055	34.47
484.408	34.14
484.761	34.22
485.114	33.95
485.466	33.88
485.819	33.59
486.172	33.77
486.525	33.78
486.878	33.85
487.23	33.94
487.583	34.11
487.936	34.5
488.288	34.58
488.641	34.63
488.993	34.5
489.345	34.29
489.698	34.3
490.05	34.34
490.402	34.36
490.754	34.48
491.107	34.78
491.459	34.84
491.811	35.21
492.163	35.31
492.515	35.44
492.866	35.39
493.218	35.28
493.57	35.11
493.922	34.97
494.274	35.08
494.625	35.21
494.977	35.54
495.328	35.8
495.68	36
496.031	36.21
496.383	36.53
496.734	36.63
497.086	36.45
497.437	36.72
497.788	36.66
498.139	36.8
498.49	36.69
498.842	36.44
499.193	36.69
499.544	36.58
499.894	36.72
500.245	36.85
500.596	36.86
500.947	37.06
501.298	37.12
501.648	37.31
501.999	37.36
502.35	37.38
502.7	37.55
503.051	37.8
503.401	37.73
503.752	37.81
504.102	37.87
504.452	37.96
504.803	37.92
505.153	37.89
505.503	37.96
505.853	37.92
506.203	38.02
506.553	37.98
506.903	38.37
507.253	38.28
507.603	38.32
507.953	38.26
508.303	38.31
508.652	38.46
509.002	38.5
509.352	38.57
509.701	38.49
510.051	38.4
510.4	38.54
510.75	38.61
511.099	38.34
511.449	38.57
511.798	38.7
512.147	38.66
512.496	38.92
512.846	38.88
513.195	38.88
513.544	38.97
513.893	38.96
514.242	39
514.591	39.13
514.939	39.03
515.288	39.16
515.637	39.3
515.986	39.45
516.334	39.36
516.683	39.4
517.032	39.27
517.38	39.58
517.729	39.86
518.077	39.95
518.426	39.92
518.774	39.71
519.122	39.81
519.47	39.78
519.819	39.74
520.167	39.71
520.515	39.56
520.863	39.75
521.211	39.56
521.559	39.77
521.907	39.82
522.255	39.71
522.602	40.35
522.95	40.21
523.298	40.38
523.645	40.36
523.993	40.38
524.341	40.71
524.688	40.66
525.036	40.65
525.383	40.68
525.73	40.82
526.078	40.89
526.425	41.03
526.772	40.87
527.119	40.9
527.466	40.41
527.814	40.48
528.161	40.68
528.508	40.63
528.854	40.69
529.201	40.71
529.548	40.84
529.895	40.6
530.242	40.36
530.588	40.15
530.935	40.54
531.282	40.51
531.628	40.47
531.975	40.32
532.321	40.71
532.667	40.97
533.014	41.2
533.36	41.3
533.706	41.57
534.052	41.52
534.399	41.71
534.745	41.5
535.091	41.22
535.437	41.28
535.783	41.25
536.129	41.4
536.474	41.52
536.82	41.7
537.166	41.85
537.512	42.14
537.857	42.25
538.203	42.13
538.549	42.1
538.894	42.13
539.239	42.13
539.585	42.28
539.93	42.36
540.276	42.48
540.621	42.91
540.966	42.89
541.311	43.31
541.656	43.17
542.001	42.9
542.346	42.9
542.691	42.7
543.036	42.56
543.381	42.31
543.726	42.2
544.071	42.28
544.415	42.51
544.76	42.61
545.105	42.98
545.449	42.8
545.794	43.02
546.138	43.13
546.483	43.34
546.827	43.38
547.171	43.64
547.516	43.86
547.86	43.52
548.204	43.72
548.548	43.68
548.892	43.62
549.236	43.74
549.58	43.62
549.924	43.97
550.268	44.16
550.612	44.33
550.956	44.39
551.3	44.48
551.643	44.59
551.987	44.91
552.33	44.73
552.674	44.69
553.017	44.78
553.361	45.09
553.704	45.12
554.048	44.94
554.391	44.9
554.734	45.03
555.077	44.84
555.42	44.86
555.764	45.22
556.107	45.39
556.45	45.25
556.793	45.45
557.135	45.41
557.478	45.69
557.821	45.66
558.164	45.99
558.507	45.83
558.849	45.9
559.192	45.95
559.534	45.99
559.877	45.88
560.219	45.67
560.562	45.97
560.904	45.97
561.246	46.24
561.589	46.55
561.931	46.24
562.273	46.48
562.615	46.6
562.957	46.22
563.299	46.52
563.641	46.63
563.983	46.4
564.325	46.73
564.667	46.64
565.008	46.51
565.35	46.5
565.692	47.02
566.033	46.7
566.375	47.09
566.716	46.93
567.058	47.03
567.399	47.04
567.741	46.96
568.082	46.94
568.423	47.02
568.764	46.84
569.105	47.19
569.447	46.93
569.788	47.35
570.129	47.13
570.47	47.46
570.811	47.66
571.151	47.56
571.492	47.39
571.833	47.73
572.174	47.63
572.514	47.67
572.855	47.61
573.195	47.62
573.536	47.56
573.876	47.67
574.217	47.66
574.557	47.47
574.898	47.83
575.238	47.85
575.578	47.97
575.918	47.79
576.258	48.18
576.598	48.3
576.938	47.95
577.278	48.23
577.618	48.16
577.958	47.99
578.298	48.28
578.638	48.33
578.977	48.36
579.317	48.81
579.657	48.74
579.996	48.99
580.336	49.03
580.675	48.65
581.014	48.93
581.354	49.08
581.693	49.31
582.032	49.14
582.372	48.94
582.711	49.61
583.05	49.69
583.389	49.18
583.728	49.54
584.067	49.38
584.406	49.38
584.745	49.65
585.083	49.37
585.422	49.32
585.761	49.49
586.1	49.66
586.438	49.74
586.777	49.64
587.115	50.07
587.454	50.07
587.792	49.77
588.13	49.92
588.469	50.16
588.807	49.89
589.145	50.14
589.483	50.13
589.821	50.34
590.159	50.33
590.497	50.44
590.835	50.14
591.173	50.15
591.511	50.19
591.849	50.36
592.187	50.26
592.524	50.46
592.862	50.5
593.2	50.77
593.537	50.43
593.875	50.81
594.212	50.73
594.55	50.85
594.887	50.88
595.224	51.15
595.561	50.86
595.899	51.02
596.236	50.69
596.573	50.97
596.91	50.97
597.247	50.93
597.584	50.89
597.921	51.13
598.258	50.95
598.594	51.01
598.931	50.68
599.268	50.88
599.604	51.09
599.941	51.21
600.277	50.98
600.614	51.11
600.95	51.36
601.287	51.37
601.623	51.48
601.959	51.79
602.296	51.98
602.632	52.14
602.968	51.51
603.304	51.72
603.64	52.02
603.976	51.94
604.312	52.03
604.648	51.74
604.984	52.08
605.319	51.92
605.655	52.39
605.991	52.09
606.326	51.79
606.662	51.88
606.998	51.74
607.333	51.67
607.668	51.95
608.004	52.08
608.339	52.28
608.674	52.13
609.01	52.69
609.345	52.62
609.68	52.75
610.015	52.65
610.35	52.77
610.685	52.88
611.02	52.4
611.355	52.83
611.689	52.7
612.024	52.81
612.359	52.88
612.694	52.93
613.028	52.66
613.363	53.02
613.697	53.31
614.032	53.1
614.366	53.09
614.7	53.37
615.035	53.14
615.369	53.64
615.703	53.3
616.037	53.6
616.371	53.12
616.705	53.17
617.039	53.49
617.373	53.78
617.707	54.12
618.041	53.91
618.375	53.36
618.709	53.68
619.042	53.88
619.376	54.09
619.71	54.6
620.043	53.64
620.377	53.96
620.71	54.1
621.043	53.66
621.377	54.01
621.71	54.09
622.043	54.23
622.376	54.4
622.709	54.51
623.043	54.33
623.376	54.22
623.709	54.75
624.041	54.79
624.374	54.7
624.707	54.36
625.04	54.66
625.373	54.38
625.705	54.42
626.038	54.82
626.37	54.74
626.703	55.06
627.035	54.93
627.368	54.93
627.7	54.78
628.032	54.92
628.365	54.56
628.697	54.49
629.029	54.93
629.361	54.85
629.693	55.23
630.025	55.21
630.357	55.19
630.689	55.33
631.021	55.02
631.353	54.77
631.684	55.6
632.016	55.06
632.348	55.53
632.679	55.33
633.011	55.47
633.342	55.59
633.674	55.29
634.005	56.02
634.336	56.09
634.668	55.48
634.999	55.25
635.33	55.69
635.661	56.32
635.992	56.08
636.323	55.99
636.654	55.95
636.985	56.03
637.316	56.05
637.647	55.6
637.977	56.18
638.308	56.34
638.639	55.95
638.969	56.73
639.3	55.44
639.63	55.6
639.961	56.41
640.291	56.26
640.622	57.06
640.952	56.11
641.282	56.9
641.612	56.7
641.943	56.58
642.273	57.01
642.603	56.83
642.933	56.75
643.263	57.02
643.592	56.56
643.922	56.36
644.252	57.06
644.582	56.43
644.911	56.47
645.241	57.23
645.571	56.93
645.9	57.3
646.23	57.27
646.559	56.94
646.888	57.44
647.218	56.97
647.547	57.26
647.876	57.39
648.205	57.31
648.534	56.78
648.863	57.66
649.192	57.14
649.521	57.72
649.85	57.43
650.179	57.22
650.508	57.66
650.837	58.11
651.165	57.62
651.494	57.44
651.822	57.72
652.151	58.11
652.479	57.4
652.808	57.8
653.136	57.41
653.465	57.81
653.793	57.71
654.121	58.62
654.449	57.66
654.777	57.69
655.105	58.22
655.433	58.16
655.761	58.01
656.089	58.56
656.417	58.72
656.745	58.48
657.073	58.13
657.4	57.58
657.728	58.17
658.056	57.84
658.383	58.63
658.711	58.56
659.038	57.81
659.365	58.07
659.693	58.33
660.02	58.25
660.347	58.15
660.674	58.32
661.001	58.44
661.329	58.64
661.656	58.72
661.982	58.37
662.309	59.02
662.636	58.27
662.963	58.91
663.29	58.56
663.616	58.91
663.943	58.51
664.27	58.44
664.596	58.67
664.923	58.73
665.249	58.76
665.576	58.98
665.902	59.1
666.228	59.02
666.554	58.94
666.881	58.27
667.207	59.8
667.533	59.05
667.859	59.4
668.185	59.56
668.511	59.1
668.837	59.32
669.162	59.33
669.488	59.08
