Data from 0369_forehead_Reflection__2__291.txt Node

Date: Fri Oct 20 23:01:54 CDT 2023
User: ToomeyLab
Spectrometer: FLMS14357
Trigger mode: 0
Integration Time (sec): 1.000000E-2
Scans to average: 100
Electric dark correction enabled: true
Nonlinearity correction enabled: false
Boxcar width: 0
XAxis mode: Wavelengths
Number of Pixels in Spectrum: 2048
>>>>>Begin Spectral Data<<<<<
189.047	270.51
189.435	270.51
189.823	270.51
190.211	144.96
190.599	408.41
190.987	68.51
191.375	388.95
191.763	119.24
192.151	-76.08
192.538	-125.82
192.926	12.84
193.314	46.48
193.702	273.58
194.089	147.36
194.477	319.57
194.864	-3.52
195.252	131.87
195.639	54.6
196.027	18.94
196.414	35.98
196.801	362.62
197.189	736.36
197.576	24.3
197.963	-47.47
198.351	33.16
198.738	31.28
199.125	43.08
199.512	49.01
199.899	36.64
200.286	27.22
200.673	42.76
201.06	51.92
201.447	-9.11
201.833	58.48
202.22	46.51
202.607	49.67
202.994	44.1
203.38	36.89
203.767	77.91
204.154	45.27
204.54	44.69
204.927	29.59
205.313	93.47
205.699	49.67
206.086	42.61
206.472	56.38
206.858	78.73
207.245	56.02
207.631	56.25
208.017	32.96
208.403	18.08
208.789	49.08
209.175	22.52
209.561	20.15
209.947	40.52
210.333	42.59
210.719	44.73
211.105	40.77
211.491	39.44
211.876	-4.74
212.262	52.11
212.648	93.63
213.034	18.74
213.419	24.04
213.805	23.01
214.19	14.31
214.576	4.19
214.961	4.3
215.346	24.19
215.732	25.36
216.117	-32.57
216.502	46.79
216.888	40.7
217.273	2.61
217.658	29.34
218.043	39.62
218.428	2.05
218.813	17.17
219.198	25.57
219.583	-5.91
219.968	-22.96
220.353	14.17
220.738	27.3
221.122	18.46
221.507	29
221.892	14.69
222.276	21.97
222.661	16.43
223.046	24.9
223.43	4.29
223.815	26.3
224.199	16.65
224.583	6.29
224.968	6.02
225.352	11
225.736	4.08
226.121	17.93
226.505	3.42
226.889	14.19
227.273	7.86
227.657	9.08
228.041	13.35
228.425	7.96
228.809	12.77
229.193	7.64
229.577	10.58
229.961	5.13
230.344	5.76
230.728	5.35
231.112	6.05
231.495	4.98
231.879	5.88
232.263	5.84
232.646	4.6
233.03	5.4
233.413	5.27
233.797	5.05
234.18	7.13
234.563	10.86
234.946	7.54
235.33	6.86
235.713	6.16
236.096	7.19
236.479	6.93
236.862	6.4
237.245	4.1
237.628	6.56
238.011	6.7
238.394	6.45
238.777	8.26
239.16	6.12
239.543	7.19
239.925	6.43
240.308	6.75
240.691	5.79
241.073	7.36
241.456	6.56
241.838	6.55
242.221	7.12
242.603	6.19
242.986	6.57
243.368	5.68
243.75	5.24
244.133	4.86
244.515	4.93
244.897	5.26
245.279	5.16
245.661	4.88
246.043	4.31
246.425	5.75
246.807	5.54
247.189	5.7
247.571	5.37
247.953	5.3
248.335	5.77
248.717	5.07
249.098	4.66
249.48	4.93
249.862	4.85
250.243	5.33
250.625	5.08
251.006	5.45
251.388	5.38
251.769	5.93
252.151	5.21
252.532	5.36
252.913	5.34
253.295	5.23
253.676	5.07
254.057	5.11
254.438	5.19
254.819	5.51
255.2	5.36
255.581	5.45
255.962	5.14
256.343	6.17
256.724	4.53
257.105	5.01
257.486	6.82
257.867	6.28
258.247	6.29
258.628	5.42
259.009	5.13
259.389	5.04
259.77	5.32
260.15	5.44
260.531	5.64
260.911	5.54
261.292	5.08
261.672	5.03
262.052	5.06
262.432	5.07
262.813	4.94
263.193	5.19
263.573	4.83
263.953	5.27
264.333	5.86
264.713	5.64
265.093	5.86
265.473	5.5
265.853	4.72
266.233	5.28
266.612	5.08
266.992	5.65
267.372	5.09
267.752	5.22
268.131	5.82
268.511	5.29
268.89	5.73
269.27	4.85
269.649	4.71
270.029	4.68
270.408	5.42
270.787	5.45
271.167	4.91
271.546	5.99
271.925	5.56
272.304	5.31
272.683	5.3
273.062	5.31
273.441	5.16
273.82	4.67
274.199	5.22
274.578	4.67
274.957	5.12
275.336	5.17
275.715	5.3
276.093	5.02
276.472	5.37
276.851	4.97
277.229	5.42
277.608	5.24
277.986	4.87
278.365	5.66
278.743	5.16
279.122	4.73
279.5	5.44
279.878	4.36
280.257	5.22
280.635	5.35
281.013	5.64
281.391	5.52
281.769	4.79
282.147	5.04
282.525	5.29
282.903	4.87
283.281	5.12
283.659	5.52
284.037	5.26
284.415	4.12
284.792	4.94
285.17	5.47
285.548	5.16
285.925	4.98
286.303	4.96
286.68	4.59
287.058	5.41
287.435	5.43
287.813	4.61
288.19	4.97
288.567	4.95
288.945	5.43
289.322	5.54
289.699	4.81
290.076	5.88
290.453	5.23
290.83	4.62
291.207	5.93
291.584	5.11
291.961	5.44
292.338	5.29
292.715	5.55
293.092	5.23
293.469	5.49
293.845	5.34
294.222	5.21
294.599	5.71
294.975	6.2
295.352	5.88
295.728	5.68
296.105	5.7
296.481	5.79
296.858	5.66
297.234	6.03
297.61	5.35
297.986	5.92
298.363	6.35
298.739	6.03
299.115	5.98
299.491	6.19
299.867	6.2
300.243	6.3
300.619	5.94
300.995	6.2
301.371	6.71
301.746	6.47
302.122	6.63
302.498	6.1
302.874	6.69
303.249	6.73
303.625	6.65
304	7.04
304.376	6.71
304.751	6.71
305.127	6.61
305.502	8.09
305.878	6.92
306.253	7.5
306.628	7.5
307.003	7.48
307.378	7.61
307.754	7.7
308.129	7.92
308.504	8.3
308.879	8.42
309.254	7.78
309.629	7.99
310.003	7.56
310.378	8.78
310.753	8.31
311.128	8.12
311.502	8.35
311.877	7.97
312.252	8.24
312.626	8.31
313.001	8.18
313.375	8.11
313.75	8.16
314.124	8.59
314.498	8.49
314.873	8.42
315.247	8.92
315.621	9.55
315.995	9.19
316.369	8.86
316.743	9.22
317.117	9.61
317.491	8.86
317.865	9.82
318.239	10.19
318.613	9.6
318.987	9.39
319.361	9.31
319.734	10.12
320.108	9.78
320.482	10.02
320.855	10.35
321.229	11.03
321.602	10.3
321.976	9.97
322.349	10.45
322.723	10.22
323.096	10.95
323.469	10.49
323.843	10.86
324.216	11.51
324.589	11.21
324.962	11.62
325.335	10.88
325.708	11.35
326.081	11.23
326.454	10.91
326.827	11.23
327.2	11.66
327.573	11.39
327.945	11.17
328.318	11.22
328.691	11.39
329.063	11.95
329.436	11.04
329.809	12.26
330.181	12.18
330.553	12.24
330.926	11.73
331.298	12.3
331.671	11.51
332.043	12.25
332.415	12.06
332.787	12.68
333.159	12.62
333.532	12.81
333.904	12.71
334.276	12.14
334.648	12.59
335.02	13
335.391	12.91
335.763	13.32
336.135	13.03
336.507	12.88
336.879	13.43
337.25	12.8
337.622	12.89
337.993	13.25
338.365	13.64
338.736	13.52
339.108	14.03
339.479	13.54
339.851	14.2
340.222	13.84
340.593	13.25
340.964	13.9
341.336	14.44
341.707	13.87
342.078	14.4
342.449	14.71
342.82	13.94
343.191	14.12
343.562	14.69
343.933	14.47
344.303	14.29
344.674	14.92
345.045	15.13
345.416	14.48
345.786	14.71
346.157	15.17
346.527	14.84
346.898	14.56
347.268	15.07
347.639	15.11
348.009	14.67
348.38	15.84
348.75	15.6
349.12	15.44
349.49	15.57
349.861	15.64
350.231	15.47
350.601	15.81
350.971	16.3
351.341	15.84
351.711	16.53
352.081	15.76
352.45	15.81
352.82	16.2
353.19	16.44
353.56	16.23
353.929	16.21
354.299	16.21
354.669	16.45
355.038	16.48
355.408	16.78
355.777	16.57
356.147	16.58
356.516	16.77
356.885	16.7
357.254	17.14
357.624	16.86
357.993	16.99
358.362	16.85
358.731	16.58
359.1	16.89
359.469	17.1
359.838	17.15
360.207	17.34
360.576	17.62
360.945	17.24
361.314	17.38
361.682	17.62
362.051	17.66
362.42	17.51
362.788	17.96
363.157	17.49
363.525	17.65
363.894	17.94
364.262	17.7
364.631	17.92
364.999	18.25
365.367	18
365.735	18.62
366.104	18.55
366.472	18.6
366.84	18.73
367.208	18.59
367.576	18.53
367.944	18.79
368.312	18.57
368.68	18.97
369.048	18.99
369.416	19.26
369.783	19.2
370.151	19.01
370.519	19.26
370.886	19.09
371.254	19.43
371.621	19.38
371.989	19.18
372.356	19.96
372.724	19.79
373.091	19.79
373.458	19.31
373.826	19.46
374.193	19.63
374.56	19.9
374.927	19.88
375.294	20.11
375.661	20.23
376.028	20.15
376.395	20.6
376.762	20.04
377.129	20.36
377.496	20.6
377.863	21.05
378.229	20.81
378.596	20.56
378.963	20.75
379.329	20.89
379.696	20.84
380.062	20.84
380.429	20.67
380.795	21.27
381.161	21.34
381.528	21.63
381.894	21.69
382.26	21.45
382.626	21.7
382.993	21.68
383.359	21.41
383.725	21.51
384.091	21.95
384.457	21.87
384.823	22.18
385.188	22.21
385.554	21.79
385.92	21.82
386.286	22.41
386.651	22.08
387.017	22.26
387.383	22.38
387.748	22.29
388.114	22.2
388.479	22.42
388.845	22.58
389.21	22.67
389.575	22.56
389.94	22.88
390.306	22.88
390.671	23.14
391.036	22.98
391.401	23.16
391.766	23.13
392.131	23.1
392.496	23.69
392.861	23.75
393.226	23.57
393.591	23.57
393.956	23.63
394.32	23.38
394.685	23.44
395.05	23.76
395.414	23.69
395.779	23.67
396.143	23.78
396.508	23.97
396.872	24.04
397.236	24.38
397.601	24.31
397.965	24
398.329	24.17
398.694	24.59
399.058	24.23
399.422	24.45
399.786	24.75
400.15	24.69
400.514	24.73
400.878	24.94
401.242	25.24
401.605	24.95
401.969	24.96
402.333	25
402.697	25.2
403.06	25.22
403.424	25.27
403.787	25.59
404.151	25.4
404.514	25.53
404.878	25.47
405.241	25.64
405.604	25.56
405.968	25.75
406.331	25.75
406.694	25.72
407.057	26.05
407.42	26.49
407.783	26.08
408.146	26.3
408.509	26.15
408.872	26.24
409.235	26.1
409.598	26.6
409.961	26.29
410.323	26.8
410.686	26.57
411.049	26.68
411.411	26.68
411.774	26.96
412.136	26.92
412.499	26.67
412.861	26.83
413.223	27.06
413.586	26.71
413.948	27.33
414.31	27.42
414.672	27.19
415.035	27.44
415.397	27.64
415.759	27.74
416.121	27.62
416.483	27.75
416.845	27.68
417.206	27.7
417.568	27.75
417.93	28.13
418.292	27.55
418.653	27.99
419.015	27.85
419.377	27.93
419.738	28.08
420.1	27.95
420.461	27.97
420.822	28.03
421.184	27.97
421.545	27.92
421.906	27.97
422.267	27.91
422.629	28.07
422.99	27.97
423.351	28.13
423.712	28.04
424.073	28.17
424.434	28.35
424.795	28.53
425.155	28.68
425.516	28.58
425.877	28.51
426.238	28.67
426.598	28.56
426.959	28.67
427.32	28.8
427.68	28.88
428.041	29.25
428.401	29.16
428.761	29.37
429.122	29.36
429.482	29.74
429.842	29.55
430.202	29.72
430.563	29.81
430.923	29.8
431.283	30.4
431.643	30.25
432.003	30.36
432.363	30.25
432.722	30.46
433.082	30.32
433.442	30.38
433.802	30.48
434.161	30.55
434.521	30.59
434.881	30.56
435.24	30.45
435.6	30.61
435.959	30.54
436.319	30.83
436.678	30.53
437.037	30.86
437.396	30.88
437.756	31.25
438.115	31.12
438.474	31.27
438.833	31.25
439.192	31.21
439.551	31.44
439.91	31.45
440.269	31.39
440.628	31.43
440.987	31.5
441.345	31.46
441.704	31.41
442.063	31.53
442.421	31.5
442.78	31.38
443.138	31.65
443.497	31.79
443.855	31.86
444.214	31.83
444.572	32.02
444.93	32.18
445.288	32.16
445.647	32.43
446.005	32.19
446.363	32.44
446.721	32.3
447.079	32.61
447.437	32.56
447.795	32.37
448.153	32.23
448.51	32.28
448.868	32.38
449.226	32.52
449.584	32.56
449.941	32.66
450.299	32.76
450.656	32.78
451.014	33.14
451.371	33.21
451.729	33.26
452.086	33.33
452.443	33.48
452.801	33.55
453.158	33.97
453.515	33.69
453.872	33.84
454.229	33.71
454.586	33.64
454.943	33.75
455.3	33.91
455.657	33.83
456.014	33.98
456.371	33.99
456.727	34.27
457.084	34.43
457.441	34.4
457.797	34.43
458.154	34.45
458.51	34.49
458.867	34.61
459.223	34.75
459.58	34.52
459.936	34.95
460.292	34.57
460.648	34.73
461.005	34.89
461.361	34.56
461.717	34.41
462.073	34.59
462.429	34.32
462.785	34.5
463.141	34.6
463.496	34.81
463.852	35.31
464.208	35.33
464.564	35.42
464.919	35.47
465.275	35.52
465.631	35.69
465.986	35.81
466.342	35.82
466.697	35.92
467.052	35.98
467.408	35.95
467.763	36.29
468.118	36.15
468.473	36.28
468.829	36.25
469.184	36.08
469.539	36.23
469.894	36.4
470.249	36.28
470.603	36.24
470.958	36.7
471.313	36.67
471.668	36.78
472.023	36.62
472.377	36.9
472.732	36.55
473.086	36.95
473.441	36.97
473.795	37.04
474.15	36.96
474.504	36.98
474.859	37.1
475.213	37.23
475.567	37.27
475.921	37.19
476.275	37.32
476.63	37.56
476.984	37.37
477.338	37.62
477.692	37.38
478.045	37.76
478.399	37.84
478.753	37.49
479.107	37.36
479.461	37.79
479.814	37.79
480.168	37.93
480.521	37.83
480.875	37.86
481.228	38.16
481.582	37.96
481.935	38.2
482.289	37.97
482.642	38.09
482.995	38.12
483.348	38.05
483.701	38.01
484.055	38.04
484.408	37.85
484.761	37.85
485.114	37.64
485.466	37.33
485.819	37.38
486.172	37.54
486.525	37.58
486.878	37.42
487.23	37.48
487.583	37.62
487.936	38.01
488.288	37.98
488.641	38.32
488.993	38.11
489.345	38.06
489.698	37.97
490.05	37.92
490.402	37.95
490.754	37.91
491.107	38.16
491.459	38.38
491.811	38.65
492.163	38.67
492.515	38.93
492.866	39.06
493.218	38.79
493.57	38.69
493.922	38.71
494.274	38.65
494.625	38.72
494.977	38.81
495.328	39.19
495.68	39.35
496.031	39.67
496.383	39.96
496.734	39.97
497.086	40.08
497.437	40.26
497.788	40.15
498.139	40.14
498.49	40.13
498.842	40.17
499.193	40.2
499.544	40.39
499.894	40.34
500.245	40.25
500.596	40.36
500.947	40.45
501.298	40.62
501.648	40.74
501.999	40.72
502.35	40.95
502.7	41.01
503.051	41.23
503.401	41.27
503.752	41.21
504.102	41.19
504.452	41.42
504.803	41.34
505.153	41.37
505.503	41.45
505.853	41.42
506.203	41.52
506.553	41.5
506.903	41.63
507.253	41.65
507.603	41.65
507.953	41.74
508.303	41.59
508.652	41.8
509.002	41.77
509.352	42.01
509.701	41.85
510.051	41.86
510.4	42.09
510.75	42.03
511.099	41.95
511.449	42.11
511.798	41.93
512.147	41.88
512.496	42.13
512.846	41.99
513.195	42.09
513.544	42.21
513.893	42.24
514.242	42.32
514.591	42.49
514.939	42.39
515.288	42.55
515.637	42.52
515.986	42.7
516.334	42.67
516.683	42.73
517.032	42.77
517.38	42.75
517.729	43.13
518.077	43.09
518.426	43.08
518.774	43.2
519.122	43.25
519.47	43.17
519.819	43.09
520.167	43.03
520.515	42.87
520.863	43.17
521.211	42.89
521.559	43.05
521.907	43.01
522.255	43.16
522.602	43.41
522.95	43.3
523.298	43.61
523.645	43.53
523.993	43.68
524.341	43.74
524.688	43.73
525.036	43.97
525.383	43.76
525.73	44.04
526.078	43.98
526.425	44.07
526.772	44.12
527.119	43.95
527.466	43.87
527.814	43.8
528.161	43.73
528.508	43.79
528.854	43.74
529.201	43.93
529.548	43.86
529.895	43.77
530.242	43.6
530.588	43.46
530.935	43.76
531.282	43.73
531.628	43.6
531.975	43.27
532.321	43.64
532.667	43.81
533.014	44.13
533.36	44.36
533.706	44.46
534.052	44.52
534.399	44.64
534.745	44.63
535.091	44.36
535.437	44.33
535.783	44.37
536.129	44.27
536.474	44.4
536.82	44.48
537.166	44.65
537.512	45.05
537.857	45.06
538.203	44.91
538.549	45.1
538.894	45.11
539.239	45.15
539.585	45.17
539.93	45.03
540.276	45.41
540.621	45.69
540.966	45.71
541.311	45.85
541.656	45.86
542.001	45.93
542.346	45.92
542.691	45.75
543.036	45.58
543.381	45.27
543.726	45.37
544.071	45.15
544.415	45.14
544.76	45.4
545.105	45.52
545.449	45.71
545.794	45.88
546.138	45.93
546.483	46.03
546.827	46.15
547.171	46.39
547.516	46.42
547.86	46.43
548.204	46.39
548.548	46.59
548.892	46.38
549.236	46.45
549.58	46.62
549.924	46.58
550.268	46.7
550.612	46.78
550.956	47.07
551.3	47.23
551.643	47.25
551.987	47.41
552.33	47.41
552.674	47.18
553.017	47.58
553.361	47.64
553.704	47.54
554.048	47.41
554.391	47.73
554.734	47.68
555.077	47.71
555.42	47.46
555.764	47.97
556.107	47.84
556.45	47.61
556.793	47.92
557.135	47.87
557.478	48.07
557.821	48.12
558.164	48.47
558.507	48.26
558.849	48.56
559.192	48.48
559.534	48.64
559.877	48.28
560.219	48.49
560.562	48.67
560.904	48.38
561.246	48.5
561.589	48.69
561.931	48.81
562.273	48.66
562.615	48.72
562.957	48.62
563.299	48.74
563.641	49.13
563.983	49.05
564.325	48.97
564.667	48.87
565.008	49.06
565.35	48.98
565.692	48.92
566.033	49.07
566.375	49.13
566.716	49.19
567.058	49.39
567.399	49.52
567.741	49.33
568.082	49.26
568.423	49.24
568.764	49.2
569.105	49.54
569.447	49.06
569.788	49.34
570.129	49.35
570.47	49.7
570.811	49.42
571.151	49.69
571.492	49.76
571.833	49.87
572.174	49.82
572.514	49.77
572.855	49.85
573.195	49.74
573.536	49.9
573.876	49.9
574.217	49.76
574.557	49.67
574.898	49.73
575.238	49.63
575.578	50.05
575.918	49.97
576.258	50.02
576.598	50.24
576.938	50.15
577.278	50.33
577.618	50.02
577.958	50.29
578.298	50.44
578.638	50.29
578.977	50.4
579.317	50.4
579.657	50.6
579.996	51.06
580.336	51.14
580.675	50.66
581.014	50.98
581.354	51.06
581.693	50.78
582.032	51.07
582.372	51.05
582.711	51.08
583.05	51.43
583.389	51.28
583.728	51.61
584.067	51.48
584.406	51.25
584.745	51.63
585.083	51.32
585.422	51.7
585.761	51.7
586.1	51.57
586.438	51.08
586.777	51.54
587.115	51.46
587.454	51.77
587.792	51.69
588.13	51.71
588.469	52.01
588.807	51.63
589.145	51.79
589.483	51.84
589.821	52.15
590.159	51.99
590.497	52.1
590.835	52.02
591.173	51.83
591.511	52.27
591.849	51.98
592.187	52.09
592.524	51.97
592.862	52.3
593.2	52.27
593.537	52.21
593.875	52.33
594.212	52.22
594.55	52.76
594.887	52.02
595.224	52.5
595.561	52.42
595.899	52.3
596.236	52.65
596.573	52.63
596.91	52.51
597.247	52.47
597.584	52.52
597.921	52.82
598.258	52.74
598.594	52.75
598.931	52.4
599.268	52.73
599.604	52.79
599.941	52.7
600.277	52.62
600.614	52.81
600.95	52.78
601.287	52.89
601.623	52.8
601.959	53.28
602.296	53.06
602.632	53.24
602.968	53.2
603.304	53.14
603.64	53.3
603.976	53.62
604.312	53.02
604.648	53.44
604.984	53.32
605.319	53.68
605.655	53.39
605.991	53.99
606.326	53.43
606.662	52.99
606.998	53.14
607.333	53.07
607.668	53.25
608.004	53.37
608.339	53.34
608.674	53.48
609.01	53.74
609.345	53.82
609.68	53.9
610.015	54.26
610.35	53.85
610.685	53.98
611.02	53.65
611.355	53.81
611.689	54.05
612.024	53.9
612.359	53.94
612.694	53.96
613.028	54.14
613.363	54.32
613.697	54.29
614.032	53.92
614.366	54.21
614.7	54.53
615.035	54.4
615.369	54.8
615.703	54.63
616.037	54.81
616.371	54.64
616.705	54.44
617.039	54.02
617.373	54.24
617.707	55.08
618.041	55.43
618.375	54.8
618.709	54.76
619.042	54.81
619.376	55.11
619.71	55.09
620.043	54.87
620.377	54.89
620.71	55.26
621.043	55.2
621.377	54.72
621.71	55.04
622.043	54.88
622.376	55.61
622.709	55.11
623.043	55.59
623.376	54.84
623.709	55.52
624.041	55.52
624.374	55.12
624.707	55.52
625.04	55.84
625.373	55.44
625.705	55.24
626.038	55.37
626.37	55.55
626.703	55.55
627.035	55.7
627.368	55.91
627.7	55.97
628.032	55.49
628.365	56.03
628.697	56.02
629.029	55.59
629.361	55.9
629.693	55.86
630.025	56.02
630.357	55.94
630.689	56
631.021	56.09
631.353	56.06
631.684	56.2
632.016	56.07
632.348	55.88
632.679	55.86
633.011	56.13
633.342	56.07
633.674	56.33
634.005	55.92
634.336	56.93
634.668	56.37
634.999	56.69
635.33	56.6
635.661	56.97
635.992	56.61
636.323	56.97
636.654	56.67
636.985	56.6
637.316	56.48
637.647	56.33
637.977	56.83
638.308	56.1
638.639	56.99
638.969	56.94
639.3	56.19
639.63	56.46
639.961	56.43
640.291	57
640.622	56.98
640.952	56.75
641.282	57.02
641.612	57.1
641.943	56.71
642.273	56.67
642.603	57.35
642.933	57.05
643.263	57.06
643.592	57.27
643.922	57.38
644.252	56.92
644.582	57.22
644.911	57.7
645.241	56.97
645.571	57.57
645.9	57.6
646.23	58.28
646.559	57.2
646.888	57.89
647.218	57.66
647.547	57.45
647.876	56.85
648.205	57.64
648.534	57.15
648.863	58.07
649.192	57.75
649.521	57.95
649.85	57.57
650.179	57.85
650.508	58.06
650.837	57.91
651.165	58.09
651.494	57.88
651.822	58.09
652.151	57.81
652.479	57.73
652.808	57.86
653.136	57.69
653.465	58.07
653.793	58.11
654.121	58.47
654.449	58
654.777	58.03
655.105	57.89
655.433	58.46
655.761	57.93
656.089	59.28
656.417	58.05
656.745	58.69
657.073	58.46
657.4	58.01
657.728	58.99
658.056	58.26
658.383	58.22
658.711	58.48
659.038	58.56
659.365	58.44
659.693	58.19
660.02	58.25
660.347	58.58
660.674	58.17
661.001	58.55
661.329	58.82
661.656	59.06
661.982	58.59
662.309	59.07
662.636	58.32
662.963	58.74
663.29	58.56
663.616	58.93
663.943	58.72
664.27	58.85
664.596	57.93
664.923	58.6
665.249	59.24
665.576	59.03
665.902	59.42
666.228	58.98
666.554	58.48
666.881	59.57
667.207	59.16
667.533	58.67
667.859	59.57
668.185	59.8
668.511	58.66
668.837	59.14
669.162	59.08
