Data from 0369_crown_Reflection__3__287.txt Node

Date: Fri Oct 20 23:00:41 CDT 2023
User: ToomeyLab
Spectrometer: FLMS14357
Trigger mode: 0
Integration Time (sec): 1.000000E-2
Scans to average: 100
Electric dark correction enabled: true
Nonlinearity correction enabled: false
Boxcar width: 0
XAxis mode: Wavelengths
Number of Pixels in Spectrum: 2048
>>>>>Begin Spectral Data<<<<<
189.047	1145.16
189.435	1145.16
189.823	1145.16
190.211	-30.58
190.599	47.43
190.987	162.29
191.375	221.01
191.763	71.38
192.151	-137.15
192.538	-58.1
192.926	2.57
193.314	86.66
193.702	190.4
194.089	259
194.477	36.41
194.864	55.56
195.252	153.94
195.639	-273.82
196.027	-283.24
196.414	10.98
196.801	612.36
197.189	-1019.04
197.576	62.34
197.963	394.93
198.351	47.05
198.738	-4.72
199.125	13.75
199.512	28.8
199.899	33.45
200.286	-7.26
200.673	38.05
201.06	20.32
201.447	-8.63
201.833	21.68
202.22	4.67
202.607	56.39
202.994	38.42
203.38	40.66
203.767	34.82
204.154	35.62
204.54	51.94
204.927	28.89
205.313	43.66
205.699	47.85
206.086	28.22
206.472	27.42
206.858	67.88
207.245	46.36
207.631	30.78
208.017	13.82
208.403	-3.95
208.789	27.82
209.175	25.12
209.561	33.71
209.947	-7.51
210.333	2.82
210.719	5.58
211.105	3.74
211.491	19.84
211.876	1.24
212.262	22.47
212.648	40.61
213.034	-5.14
213.419	38.29
213.805	1.79
214.19	18
214.576	15.72
214.961	11.99
215.346	34.57
215.732	30.3
216.117	-11.2
216.502	25.48
216.888	26.1
217.273	20.09
217.658	15.79
218.043	-7.07
218.428	-5.46
218.813	51
219.198	33.9
219.583	-23.91
219.968	-18.28
220.353	22.29
220.738	11.69
221.122	9.37
221.507	9.81
221.892	-1.56
222.276	13.03
222.661	25.08
223.046	13.94
223.43	14.89
223.815	26.93
224.199	22.46
224.583	5.32
224.968	13.99
225.352	2.38
225.736	6.2
226.121	12.98
226.505	11.18
226.889	17.4
227.273	10.69
227.657	17.94
228.041	13.51
228.425	12.73
228.809	14.21
229.193	8.75
229.577	10.72
229.961	9.99
230.344	10.92
230.728	11.21
231.112	11.26
231.495	10.49
231.879	10.76
232.263	12.05
232.646	9.24
233.03	10.21
233.413	10.28
233.797	10.99
234.18	9.21
234.563	10.93
234.946	11.16
235.33	11.47
235.713	10.28
236.096	11.52
236.479	10.82
236.862	10.05
237.245	9.18
237.628	9.64
238.011	11.03
238.394	10.32
238.777	11.99
239.16	10.21
239.543	10.29
239.925	11.15
240.308	12.24
240.691	8.97
241.073	12.23
241.456	11.51
241.838	9.92
242.221	10.29
242.603	11.56
242.986	10.48
243.368	11.05
243.75	10.25
244.133	10.14
244.515	10.02
244.897	10.21
245.279	10.43
245.661	9.76
246.043	9.94
246.425	10.23
246.807	11.23
247.189	9.76
247.571	9.92
247.953	9.62
248.335	10.49
248.717	9.74
249.098	9.3
249.48	9.55
249.862	9.76
250.243	9.9
250.625	9.61
251.006	9.69
251.388	9.5
251.769	10.05
252.151	9.04
252.532	10.65
252.913	9.26
253.295	8.9
253.676	9.76
254.057	9.01
254.438	9.55
254.819	9.33
255.2	9.53
255.581	8.67
255.962	8.73
256.343	9.64
256.724	8.68
257.105	10.16
257.486	10.26
257.867	9.47
258.247	9.78
258.628	10.07
259.009	9.54
259.389	8.68
259.77	8.36
260.15	9.39
260.531	9.35
260.911	9.06
261.292	8.73
261.672	9.14
262.052	9.04
262.432	8.87
262.813	9.04
263.193	8.96
263.573	8.91
263.953	9.21
264.333	9.63
264.713	9.33
265.093	9.61
265.473	9.66
265.853	8.25
266.233	8.71
266.612	8.69
266.992	8.52
267.372	8.76
267.752	8.81
268.131	9.17
268.511	8.64
268.89	8.84
269.27	8.78
269.649	8.8
270.029	8.87
270.408	8.74
270.787	9.08
271.167	8.76
271.546	9.01
271.925	9.04
272.304	8.59
272.683	8.81
273.062	9.04
273.441	8.9
273.82	8.39
274.199	8.73
274.578	8.6
274.957	8.57
275.336	8.58
275.715	8.64
276.093	8.95
276.472	8.37
276.851	8.31
277.229	8.38
277.608	8.08
277.986	7.68
278.365	8.37
278.743	7.94
279.122	7.92
279.5	8.27
279.878	7.18
280.257	8.18
280.635	8.28
281.013	8.54
281.391	8.43
281.769	8.03
282.147	8.54
282.525	7.86
282.903	8.21
283.281	8.38
283.659	7.59
284.037	8.42
284.415	7.39
284.792	7.91
285.17	7.97
285.548	8.1
285.925	7.66
286.303	7.71
286.68	7.7
287.058	8.49
287.435	7.84
287.813	7.46
288.19	7.67
288.567	7.84
288.945	8.24
289.322	7.98
289.699	7.26
290.076	7.95
290.453	7.36
290.83	7.36
291.207	7.97
291.584	7.05
291.961	7.18
292.338	7.35
292.715	7.45
293.092	7.47
293.469	7.88
293.845	7.38
294.222	7.24
294.599	7.52
294.975	8.13
295.352	7.77
295.728	7.16
296.105	7.31
296.481	7.55
296.858	7
297.234	7.47
297.61	7.35
297.986	7.4
298.363	7.5
298.739	7.43
299.115	7.13
299.491	7.49
299.867	7.34
300.243	7.06
300.619	7.16
300.995	6.89
301.371	7.58
301.746	7.18
302.122	7.17
302.498	7.08
302.874	6.81
303.249	7.72
303.625	7.31
304	7.54
304.376	6.93
304.751	6.62
305.127	6.78
305.502	7.34
305.878	6.45
306.253	7.12
306.628	7.08
307.003	7.06
307.378	7.22
307.754	7.35
308.129	7.32
308.504	6.82
308.879	6.94
309.254	7.1
309.629	6.47
310.003	6.5
310.378	6.33
310.753	6.75
311.128	6.5
311.502	6.63
311.877	7.02
312.252	6.71
312.626	6.81
313.001	6.58
313.375	6.76
313.75	6.64
314.124	6.37
314.498	6.75
314.873	6.65
315.247	6.36
315.621	6.57
315.995	7.01
316.369	6.9
316.743	7.04
317.117	6.75
317.491	6.56
317.865	7.33
318.239	6.99
318.613	6.72
318.987	6.68
319.361	6.09
319.734	6.48
320.108	6.29
320.482	6.94
320.855	6.72
321.229	6.58
321.602	7.01
321.976	6.38
322.349	6.83
322.723	6.81
323.096	7.01
323.469	6.32
323.843	6.92
324.216	6.74
324.589	6.73
324.962	7.32
325.335	6.58
325.708	6.64
326.081	6.65
326.454	6.24
326.827	6.55
327.2	6.5
327.573	6.77
327.945	6.51
328.318	5.77
328.691	6.52
329.063	6.61
329.436	6.42
329.809	6.4
330.181	6.99
330.553	6.71
330.926	7.08
331.298	6.11
331.671	5.78
332.043	5.99
332.415	6.26
332.787	6.57
333.159	5.92
333.532	6.91
333.904	6.22
334.276	5.7
334.648	7.2
335.02	6.99
335.391	6.26
335.763	7.16
336.135	6.6
336.507	6.89
336.879	6.64
337.25	6.58
337.622	7.39
337.993	6.58
338.365	6.87
338.736	6.57
339.108	6.57
339.479	5.85
339.851	6.54
340.222	6.19
340.593	5.85
340.964	6.21
341.336	6.93
341.707	7.17
342.078	6.17
342.449	6.62
342.82	6.4
343.191	6.69
343.562	6.27
343.933	6.12
344.303	6.7
344.674	6.76
345.045	6.79
345.416	6.89
345.786	6.6
346.157	6.57
346.527	6.46
346.898	6.65
347.268	6.72
347.639	7.08
348.009	6.05
348.38	6.66
348.75	6.53
349.12	6.29
349.49	6.61
349.861	6.89
350.231	6.77
350.601	6.83
350.971	7.31
351.341	6.56
351.711	7.37
352.081	6.75
352.45	6.16
352.82	6.58
353.19	7.04
353.56	6.56
353.929	6.52
354.299	6.54
354.669	6.59
355.038	6.92
355.408	6.81
355.777	6.34
356.147	6.18
356.516	6.47
356.885	6.48
357.254	6.63
357.624	6.48
357.993	6.43
358.362	6.82
358.731	6.47
359.1	6.22
359.469	6.72
359.838	6.76
360.207	6.55
360.576	7.33
360.945	6.61
361.314	7.04
361.682	7
362.051	6.69
362.42	6.78
362.788	6.91
363.157	6.83
363.525	6.59
363.894	6.57
364.262	6.69
364.631	6.64
364.999	6.98
365.367	6.85
365.735	6.44
366.104	6.87
366.472	6.66
366.84	6.91
367.208	6.78
367.576	6.8
367.944	6.84
368.312	6.82
368.68	7.08
369.048	6.66
369.416	7.12
369.783	7.11
370.151	6.86
370.519	6.7
370.886	7.19
371.254	7.35
371.621	7.11
371.989	6.73
372.356	7.06
372.724	7.23
373.091	6.98
373.458	6.92
373.826	6.92
374.193	6.84
374.56	7.09
374.927	6.83
375.294	7.07
375.661	6.99
376.028	7.2
376.395	7.25
376.762	7.19
377.129	7.22
377.496	7.32
377.863	7.63
378.229	7.74
378.596	7.43
378.963	7.2
379.329	7.31
379.696	7.26
380.062	7.24
380.429	6.92
380.795	6.95
381.161	7.15
381.528	7.48
381.894	7.17
382.26	7.16
382.626	7.64
382.993	7.53
383.359	7.05
383.725	7.27
384.091	7.28
384.457	7.21
384.823	7.17
385.188	7.54
385.554	7.33
385.92	7.54
386.286	7.57
386.651	7.42
387.017	7.56
387.383	7.55
387.748	7.23
388.114	7.25
388.479	7.42
388.845	7.76
389.21	7.33
389.575	7.1
389.94	7.53
390.306	7.6
390.671	7.46
391.036	7.6
391.401	7.58
391.766	7.83
392.131	7.67
392.496	7.66
392.861	7.48
393.226	7.69
393.591	7.53
393.956	7.77
394.32	7.79
394.685	7.49
395.05	7.86
395.414	7.78
395.779	7.34
396.143	7.46
396.508	7.66
396.872	7.55
397.236	7.64
397.601	7.7
397.965	7.44
398.329	7.69
398.694	7.76
399.058	7.74
399.422	7.76
399.786	7.55
400.15	7.49
400.514	7.45
400.878	7.79
401.242	7.62
401.605	7.56
401.969	7.52
402.333	7.59
402.697	7.54
403.06	7.95
403.424	7.43
403.787	7.93
404.151	7.47
404.514	7.84
404.878	7.82
405.241	7.84
405.604	7.73
405.968	7.8
406.331	7.59
406.694	7.86
407.057	7.69
407.42	8.23
407.783	7.75
408.146	7.75
408.509	7.59
408.872	7.91
409.235	7.6
409.598	7.97
409.961	7.95
410.323	7.87
410.686	7.94
411.049	7.95
411.411	8
411.774	7.9
412.136	7.75
412.499	7.88
412.861	7.99
413.223	8.05
413.586	8.08
413.948	8.18
414.31	8.37
414.672	8.03
415.035	8.04
415.397	7.88
415.759	8.02
416.121	8.08
416.483	8.29
416.845	8.24
417.206	8.15
417.568	8.29
417.93	8.18
418.292	7.8
418.653	8.22
419.015	8.02
419.377	8
419.738	7.96
420.1	7.86
420.461	7.96
420.822	7.93
421.184	7.99
421.545	7.85
421.906	7.95
422.267	7.8
422.629	7.95
422.99	7.86
423.351	7.98
423.712	7.92
424.073	7.98
424.434	7.9
424.795	7.86
425.155	7.99
425.516	8
425.877	7.95
426.238	7.86
426.598	8.03
426.959	7.88
427.32	7.89
427.68	8.08
428.041	8.06
428.401	8.03
428.761	8.12
429.122	8.12
429.482	8.09
429.842	8.21
430.202	8.24
430.563	8.11
430.923	8.21
431.283	8.27
431.643	8.16
432.003	8.38
432.363	8.1
432.722	8.34
433.082	8.14
433.442	8.12
433.802	8.4
434.161	8.12
434.521	8.28
434.881	8.16
435.24	8.2
435.6	8.23
435.959	8.13
436.319	8.26
436.678	8.29
437.037	8.32
437.396	8.21
437.756	8.19
438.115	8.16
438.474	8.13
438.833	8.32
439.192	8.31
439.551	8.23
439.91	8.16
440.269	8.33
440.628	8.31
440.987	8.27
441.345	8.22
441.704	8.22
442.063	8.22
442.421	8.16
442.78	8.19
443.138	8.36
443.497	8.43
443.855	8.29
444.214	8.28
444.572	8.39
444.93	8.41
445.288	8.39
445.647	8.44
446.005	8.15
446.363	8.26
446.721	8.12
447.079	8.44
447.437	8.29
447.795	8.24
448.153	8.26
448.51	8.29
448.868	8.21
449.226	8.16
449.584	8.45
449.941	8.27
450.299	8.27
450.656	8.41
451.014	8.34
451.371	8.45
451.729	8.43
452.086	8.37
452.443	8.52
452.801	8.36
453.158	8.5
453.515	8.5
453.872	8.56
454.229	8.46
454.586	8.4
454.943	8.22
455.3	8.48
455.657	8.34
456.014	8.33
456.371	8.4
456.727	8.51
457.084	8.51
457.441	8.53
457.797	8.5
458.154	8.48
458.51	8.45
458.867	8.45
459.223	8.56
459.58	8.43
459.936	8.48
460.292	8.51
460.648	8.38
461.005	8.45
461.361	8.42
461.717	8.34
462.073	8.37
462.429	8.34
462.785	8.28
463.141	8.44
463.496	8.45
463.852	8.46
464.208	8.53
464.564	8.48
464.919	8.56
465.275	8.6
465.631	8.62
465.986	8.47
466.342	8.53
466.697	8.42
467.052	8.6
467.408	8.56
467.763	8.63
468.118	8.78
468.473	8.64
468.829	8.57
469.184	8.7
469.539	8.4
469.894	8.69
470.249	8.58
470.603	8.67
470.958	8.46
471.313	8.69
471.668	8.67
472.023	8.64
472.377	8.61
472.732	8.51
473.086	8.61
473.441	8.65
473.795	8.71
474.15	8.52
474.504	8.55
474.859	8.69
475.213	8.67
475.567	8.64
475.921	8.54
476.275	8.52
476.63	8.69
476.984	8.72
477.338	8.48
477.692	8.59
478.045	8.61
478.399	8.62
478.753	8.71
479.107	8.62
479.461	8.58
479.814	8.68
480.168	8.59
480.521	8.61
480.875	8.63
481.228	8.66
481.582	8.64
481.935	8.61
482.289	8.72
482.642	8.52
482.995	8.61
483.348	8.63
483.701	8.62
484.055	8.58
484.408	8.48
484.761	8.43
485.114	8.39
485.466	8.32
485.819	8.19
486.172	8.15
486.525	8.18
486.878	8.12
487.23	8.17
487.583	8.23
487.936	8.31
488.288	8.37
488.641	8.45
488.993	8.28
489.345	8.33
489.698	8.26
490.05	8.26
490.402	8.27
490.754	8.29
491.107	8.27
491.459	8.36
491.811	8.44
492.163	8.44
492.515	8.55
492.866	8.55
493.218	8.36
493.57	8.33
493.922	8.33
494.274	8.34
494.625	8.33
494.977	8.28
495.328	8.43
495.68	8.58
496.031	8.46
496.383	8.62
496.734	8.62
497.086	8.64
497.437	8.66
497.788	8.49
498.139	8.57
498.49	8.59
498.842	8.48
499.193	8.61
499.544	8.63
499.894	8.62
500.245	8.49
500.596	8.54
500.947	8.64
501.298	8.6
501.648	8.61
501.999	8.55
502.35	8.54
502.7	8.84
503.051	8.71
503.401	8.63
503.752	8.62
504.102	8.78
504.452	8.56
504.803	8.52
505.153	8.69
505.503	8.65
505.853	8.72
506.203	8.69
506.553	8.68
506.903	8.67
507.253	8.71
507.603	8.58
507.953	8.74
508.303	8.56
508.652	8.78
509.002	8.75
509.352	8.61
509.701	8.67
510.051	8.65
510.4	8.59
510.75	8.66
511.099	8.59
511.449	8.67
511.798	8.66
512.147	8.63
512.496	8.68
512.846	8.55
513.195	8.78
513.544	8.66
513.893	8.55
514.242	8.63
514.591	8.61
514.939	8.54
515.288	8.54
515.637	8.69
515.986	8.79
516.334	8.62
516.683	8.69
517.032	8.62
517.38	8.58
517.729	8.8
518.077	8.6
518.426	8.73
518.774	8.55
519.122	8.58
519.47	8.67
519.819	8.64
520.167	8.58
520.515	8.6
520.863	8.6
521.211	8.51
521.559	8.61
521.907	8.5
522.255	8.59
522.602	8.67
522.95	8.62
523.298	8.7
523.645	8.67
523.993	8.63
524.341	8.63
524.688	8.74
525.036	8.7
525.383	8.52
525.73	8.7
526.078	8.65
526.425	8.75
526.772	8.65
527.119	8.57
527.466	8.46
527.814	8.58
528.161	8.62
528.508	8.4
528.854	8.58
529.201	8.47
529.548	8.5
529.895	8.47
530.242	8.34
530.588	8.29
530.935	8.29
531.282	8.31
531.628	8.28
531.975	8.23
532.321	8.32
532.667	8.42
533.014	8.47
533.36	8.55
533.706	8.56
534.052	8.65
534.399	8.53
534.745	8.37
535.091	8.42
535.437	8.47
535.783	8.36
536.129	8.42
536.474	8.41
536.82	8.42
537.166	8.42
537.512	8.6
537.857	8.63
538.203	8.49
538.549	8.59
538.894	8.47
539.239	8.53
539.585	8.47
539.93	8.47
540.276	8.58
540.621	8.66
540.966	8.57
541.311	8.58
541.656	8.56
542.001	8.58
542.346	8.59
542.691	8.52
543.036	8.39
543.381	8.31
543.726	8.34
544.071	8.28
544.415	8.39
544.76	8.33
545.105	8.45
545.449	8.35
545.794	8.58
546.138	8.36
546.483	8.51
546.827	8.51
547.171	8.68
547.516	8.53
547.86	8.74
548.204	8.45
548.548	8.61
548.892	8.41
549.236	8.57
549.58	8.5
549.924	8.45
550.268	8.51
550.612	8.5
550.956	8.78
551.3	8.58
551.643	8.48
551.987	8.64
552.33	8.78
552.674	8.53
553.017	8.56
553.361	8.66
553.704	8.76
554.048	8.57
554.391	8.63
554.734	8.63
555.077	8.58
555.42	8.55
555.764	8.38
556.107	8.53
556.45	8.55
556.793	8.45
557.135	8.43
557.478	8.47
557.821	8.58
558.164	8.62
558.507	8.64
558.849	8.68
559.192	8.73
559.534	8.7
559.877	8.5
560.219	8.78
560.562	8.63
560.904	8.46
561.246	8.66
561.589	8.43
561.931	8.56
562.273	8.74
562.615	8.61
562.957	8.4
563.299	8.69
563.641	8.66
563.983	8.39
564.325	8.59
564.667	8.61
565.008	8.49
565.35	8.58
565.692	8.5
566.033	8.52
566.375	8.44
566.716	8.58
567.058	8.4
567.399	8.58
567.741	8.45
568.082	8.59
568.423	8.53
568.764	8.47
569.105	8.54
569.447	8.44
569.788	8.46
570.129	8.43
570.47	8.5
570.811	8.55
571.151	8.52
571.492	8.58
571.833	8.57
572.174	8.57
572.514	8.37
572.855	8.56
573.195	8.71
573.536	8.36
573.876	8.57
574.217	8.35
574.557	8.18
574.898	8.49
575.238	8.39
575.578	8.36
575.918	8.33
576.258	8.45
576.598	8.49
576.938	8.52
577.278	8.45
577.618	8.2
577.958	8.37
578.298	8.36
578.638	8.45
578.977	8.46
579.317	8.44
579.657	8.42
579.996	8.49
580.336	8.41
580.675	8.42
581.014	8.34
581.354	8.57
581.693	8.56
582.032	8.43
582.372	8.49
582.711	8.34
583.05	8.65
583.389	8.36
583.728	8.31
584.067	8.42
584.406	8.57
584.745	8.39
585.083	8.28
585.422	8.12
585.761	8.44
586.1	8.61
586.438	8.15
586.777	8.5
587.115	8.41
587.454	8.26
587.792	8.46
588.13	8.38
588.469	8.59
588.807	7.95
589.145	8.2
589.483	8.45
589.821	8.15
590.159	8.42
590.497	8.34
590.835	8.45
591.173	8.35
591.511	8.49
591.849	8.25
592.187	8.31
592.524	8.17
592.862	8.25
593.2	8.48
593.537	7.92
593.875	8.2
594.212	8.42
594.55	8.47
594.887	8.43
595.224	8.26
595.561	7.98
595.899	8.07
596.236	8.42
596.573	8.22
596.91	8.24
597.247	8.25
597.584	8.15
597.921	8.28
598.258	8.08
598.594	8.41
598.931	8.08
599.268	8.13
599.604	8.21
599.941	8.06
600.277	8.05
600.614	8.01
600.95	8.19
601.287	7.99
601.623	8.02
601.959	8.19
602.296	8.07
602.632	8.14
602.968	7.98
603.304	8.29
603.64	7.8
603.976	8.08
604.312	8.23
604.648	8.19
604.984	8.44
605.319	8.21
605.655	8.05
605.991	8.12
606.326	7.91
606.662	7.87
606.998	7.93
607.333	7.92
607.668	8.05
608.004	8.1
608.339	8.01
608.674	8.07
609.01	8.05
609.345	8.12
609.68	8.1
610.015	8.09
610.35	8.04
610.685	8.19
611.02	7.97
611.355	7.85
611.689	7.87
612.024	8.16
612.359	8.17
612.694	8.02
613.028	8.08
613.363	7.9
613.697	8.06
614.032	8.08
614.366	7.88
614.7	8.37
615.035	8.24
615.369	8.12
615.703	7.84
616.037	8.16
616.371	8.03
616.705	8.22
617.039	8.22
617.373	8.05
617.707	8.04
618.041	8.01
618.375	8.03
618.709	8
619.042	7.97
619.376	8.28
619.71	8.25
620.043	8.11
620.377	7.98
620.71	7.84
621.043	8.15
621.377	7.55
621.71	8.06
622.043	8
622.376	8.2
622.709	7.96
623.043	8.28
623.376	7.97
623.709	7.75
624.041	7.78
624.374	8.11
624.707	7.91
625.04	8.15
625.373	8.24
625.705	7.7
626.038	8.06
626.37	7.78
626.703	8.13
627.035	7.99
627.368	7.9
627.7	7.86
628.032	7.96
628.365	7.95
628.697	8.29
629.029	7.93
629.361	7.95
629.693	8.1
630.025	7.67
630.357	7.95
630.689	7.75
631.021	8.26
631.353	7.74
631.684	7.7
632.016	8.02
632.348	7.66
632.679	7.41
633.011	7.49
633.342	7.54
633.674	7.82
634.005	8.04
634.336	8.12
634.668	7.57
634.999	7.59
635.33	7.42
635.661	8.15
635.992	7.77
636.323	7.96
636.654	7.87
636.985	7.54
637.316	7.76
637.647	7.69
637.977	7.44
638.308	7.71
638.639	7.89
638.969	8.01
639.3	7.31
639.63	7.82
639.961	7.93
640.291	7.83
640.622	7.73
640.952	7.98
641.282	7.58
641.612	7.86
641.943	7.77
642.273	7.49
642.603	7.89
642.933	7.81
643.263	8.11
643.592	8.18
643.922	8.17
644.252	7.61
644.582	7.68
644.911	8.09
645.241	8.39
645.571	8.46
645.9	7.79
646.23	7.8
646.559	7.51
646.888	8.09
647.218	7.45
647.547	7.43
647.876	7.85
648.205	7.71
648.534	7.47
648.863	7.72
649.192	7.66
649.521	7.78
649.85	7.7
650.179	7.23
650.508	7.67
650.837	7.86
651.165	7.77
651.494	7.38
651.822	7.41
652.151	7.97
652.479	7.46
652.808	7.9
653.136	7.58
653.465	8.02
653.793	7.97
654.121	8.21
654.449	7.83
654.777	7.5
655.105	7.83
655.433	8.08
655.761	7.81
656.089	8.08
656.417	8.07
656.745	8.14
657.073	7.81
657.4	8.01
657.728	8.12
658.056	7.52
658.383	7.47
658.711	7.37
659.038	8.46
659.365	7.76
659.693	8.22
660.02	7.93
660.347	7.87
660.674	7.54
661.001	7.43
661.329	7.84
661.656	7.84
661.982	7.62
662.309	7.53
662.636	7.58
662.963	7.67
663.29	7.53
663.616	8.13
663.943	7.26
664.27	7.81
664.596	7.43
664.923	7.79
665.249	7.55
665.576	7.54
665.902	7.48
666.228	7.48
666.554	8.22
666.881	7.21
667.207	8.18
667.533	8.06
667.859	8.38
668.185	8.09
668.511	8.01
668.837	8.04
669.162	8
669.488	7.53
669.814	7.44
670.139	8.03
670.465	7.94
670.791	7.69
671.116	8.23
671.442	7.27
671.767	7.59
672.092	7.75
672.418	7.63
672.743	8.18
673.068	8.08
673.393	7.89
673.718	7.68
674.043	7.68
674.368	7.52
674.693	8.2
675.018	8.58
675.343	7.36
675.667	8.5
675.992	8.59
676.317	8.26
676.641	8.09
676.966	8.08
677.29	8.4
677.615	7.6
677.939	7.87
678.264	7.91
678.588	7.35
678.912	8.3
679.236	7.36
679.56	7.68
679.885	7.73
680.209	7.45
680.532	7.05
680.856	7.49
681.18	7.24
681.504	7.69
681.828	8.48
682.152	7.46
682.475	7.44
682.799	8.06
683.122	7.84
683.446	7.96
683.769	8.46
684.093	7.58
684.416	7.73
684.739	6.98
685.062	7.11
685.386	7.79
685.709	7.79
686.032	7.44
686.355	7.87
686.678	8.15
687.001	8.08
687.324	7.56
687.646	7.81
687.969	8.1
688.292	7.7
688.614	8.09
688.937	7.84
689.26	7.88
689.582	7.73
689.904	7.44
690.227	8.67
690.549	7.73
690.871	7.38
