Data from 0369_chest_Reflection__0__279.txt Node

Date: Fri Oct 20 22:57:00 CDT 2023
User: ToomeyLab
Spectrometer: FLMS14357
Trigger mode: 0
Integration Time (sec): 1.000000E-2
Scans to average: 100
Electric dark correction enabled: true
Nonlinearity correction enabled: false
Boxcar width: 0
XAxis mode: Wavelengths
Number of Pixels in Spectrum: 2048
>>>>>Begin Spectral Data<<<<<
189.047	1688.02
189.435	1688.02
189.823	1688.02
190.211	100.18
190.599	329.06
190.987	183.99
191.375	188.23
191.763	5.99
192.151	-109.23
192.538	-16.1
192.926	32.91
193.314	81.52
193.702	84.11
194.089	246.2
194.477	-0.59
194.864	25.02
195.252	138.46
195.639	-347.03
196.027	164.95
196.414	87.71
196.801	210.05
197.189	-101.37
197.576	18.99
197.963	268.15
198.351	31.53
198.738	-15.51
199.125	22.48
199.512	43.84
199.899	48.81
200.286	-22.21
200.673	24.24
201.06	20.74
201.447	-6.28
201.833	37.64
202.22	19.02
202.607	33.02
202.994	9.33
203.38	14.07
203.767	60.74
204.154	16.17
204.54	47.97
204.927	-16.79
205.313	5.84
205.699	76.48
206.086	0.71
206.472	23.26
206.858	50.06
207.245	-2.29
207.631	37.96
208.017	37.85
208.403	15.83
208.789	30.88
209.175	19.5
209.561	15.53
209.947	-13.57
210.333	-9.8
210.719	-8.33
211.105	32
211.491	4.14
211.876	-23.18
212.262	11.21
212.648	36.23
213.034	9.62
213.419	17.76
213.805	-10.69
214.19	15.37
214.576	-12.98
214.961	-0.43
215.346	36.03
215.732	12.76
216.117	-28.79
216.502	8.26
216.888	-6.55
217.273	3.29
217.658	-6.91
218.043	8.63
218.428	-5.66
218.813	5.83
219.198	21.26
219.583	-1.82
219.968	-12.92
220.353	2.93
220.738	23.87
221.122	21.39
221.507	14.37
221.892	0.88
222.276	-11.51
222.661	23.92
223.046	3.67
223.43	3.63
223.815	12.61
224.199	18.97
224.583	-9.31
224.968	-9.5
225.352	-4.63
225.736	6.01
226.121	11.03
226.505	-3.41
226.889	7.15
227.273	3.98
227.657	7.34
228.041	9.8
228.425	0.1
228.809	4.46
229.193	4.54
229.577	6.48
229.961	2.44
230.344	2.35
230.728	1.95
231.112	3.56
231.495	2.74
231.879	3.23
232.263	4.25
232.646	1.9
233.03	2.95
233.413	1.67
233.797	2.39
234.18	3.85
234.563	4.14
234.946	7.02
235.33	2.41
235.713	2.79
236.096	4.21
236.479	2.8
236.862	2.54
237.245	2.57
237.628	3.19
238.011	1.99
238.394	3.2
238.777	3.77
239.16	3.42
239.543	4.53
239.925	4.74
240.308	4.47
240.691	2.55
241.073	4.47
241.456	2.7
241.838	2.62
242.221	2.77
242.603	2.78
242.986	2.77
243.368	3.79
243.75	3.14
244.133	2.64
244.515	2.93
244.897	2.59
245.279	3.04
245.661	2.52
246.043	2.8
246.425	3.44
246.807	3.6
247.189	1.99
247.571	2.34
247.953	2.93
248.335	3.24
248.717	2.38
249.098	2.62
249.48	2.59
249.862	2.93
250.243	2.84
250.625	2.98
251.006	3.06
251.388	2.78
251.769	2.93
252.151	3.48
252.532	3.32
252.913	2.49
253.295	1.81
253.676	3.21
254.057	2.75
254.438	2.47
254.819	2.94
255.2	2.74
255.581	3.42
255.962	2.33
256.343	2.8
256.724	2.74
257.105	2.91
257.486	2.56
257.867	2.22
258.247	1.95
258.628	2.84
259.009	2.43
259.389	2.41
259.77	2.54
260.15	2.13
260.531	2.95
260.911	2.94
261.292	2.58
261.672	2.77
262.052	2.68
262.432	2.64
262.813	2.51
263.193	2.75
263.573	2.59
263.953	3.22
264.333	3
264.713	3.08
265.093	3.25
265.473	2.97
265.853	2.48
266.233	1.79
266.612	2.45
266.992	2.21
267.372	2.22
267.752	2.41
268.131	2.42
268.511	2.34
268.89	2.67
269.27	2.5
269.649	2.01
270.029	2.98
270.408	3.19
270.787	3.11
271.167	2.5
271.546	2.92
271.925	3.26
272.304	2.91
272.683	2.49
273.062	2.35
273.441	2.88
273.82	2.67
274.199	2.67
274.578	2.6
274.957	2.51
275.336	2.71
275.715	3.15
276.093	2.56
276.472	2.83
276.851	2.68
277.229	3.04
277.608	2.17
277.986	2.27
278.365	3.72
278.743	2.84
279.122	2.31
279.5	2.64
279.878	1.79
280.257	2.51
280.635	3.25
281.013	2.75
281.391	3.19
281.769	1.94
282.147	2.73
282.525	2.92
282.903	2.34
283.281	2.5
283.659	2.55
284.037	2.64
284.415	2.13
284.792	2.52
285.17	2.77
285.548	2.09
285.925	2.39
286.303	2.01
286.68	2.4
287.058	3.15
287.435	3.04
287.813	2.33
288.19	2.58
288.567	2.38
288.945	3.09
289.322	2.68
289.699	2.44
290.076	3.1
290.453	2.73
290.83	2.47
291.207	2.7
291.584	2.59
291.961	2.33
292.338	2.48
292.715	2.72
293.092	2.75
293.469	3.24
293.845	2.61
294.222	2.3
294.599	2.73
294.975	3.83
295.352	2.72
295.728	2.7
296.105	2.79
296.481	2.74
296.858	2.89
297.234	2.92
297.61	2.3
297.986	2.52
298.363	2.67
298.739	2.92
299.115	2.73
299.491	2.89
299.867	2.77
300.243	2.91
300.619	2.59
300.995	2.84
301.371	2.89
301.746	2.81
302.122	2.84
302.498	2.7
302.874	2.99
303.249	2.91
303.625	2.61
304	3.17
304.376	2.66
304.751	2.28
305.127	2.73
305.502	3.68
305.878	3.16
306.253	2.52
306.628	3.33
307.003	2.94
307.378	2.93
307.754	3.1
308.129	3.78
308.504	3.02
308.879	2.95
309.254	2.86
309.629	2.86
310.003	2.52
310.378	3.22
310.753	3.17
311.128	3.14
311.502	2.89
311.877	2.85
312.252	3.09
312.626	3.22
313.001	3.31
313.375	3.05
313.75	3.07
314.124	2.77
314.498	3.12
314.873	2.83
315.247	3.12
315.621	3.61
315.995	3.12
316.369	2.93
316.743	3.34
317.117	3.51
317.491	2.36
317.865	3.35
318.239	3.56
318.613	3.38
318.987	3.17
319.361	2.48
319.734	3.01
320.108	2.25
320.482	3.31
320.855	2.91
321.229	3.54
321.602	2.96
321.976	2.78
322.349	3.57
322.723	3.21
323.096	3.54
323.469	3.09
323.843	2.64
324.216	3.19
324.589	3.1
324.962	3.29
325.335	3.18
325.708	2.95
326.081	3.34
326.454	3.51
326.827	3.25
327.2	3.13
327.573	3.32
327.945	2.67
328.318	3.28
328.691	3.25
329.063	3.89
329.436	3.19
329.809	3.34
330.181	3.39
330.553	3.53
330.926	3.51
331.298	3.52
331.671	2.86
332.043	3.14
332.415	3.41
332.787	3.55
333.159	3.31
333.532	3.43
333.904	3.53
334.276	2.86
334.648	3.63
335.02	3.6
335.391	3.23
335.763	3.6
336.135	3.7
336.507	3.54
336.879	2.81
337.25	2.99
337.622	4.03
337.993	3.98
338.365	3.34
338.736	3.17
339.108	3.55
339.479	3.07
339.851	3.7
340.222	2.96
340.593	3.02
340.964	3.12
341.336	3.79
341.707	3.23
342.078	3.27
342.449	3.33
342.82	3.28
343.191	2.97
343.562	3.32
343.933	3.22
344.303	3.52
344.674	3.15
345.045	3.39
345.416	3.62
345.786	3.11
346.157	3.49
346.527	3.26
346.898	3.27
347.268	3.75
347.639	3.28
348.009	3.19
348.38	3.37
348.75	3.64
349.12	3.32
349.49	3.09
349.861	3.32
350.231	2.98
350.601	3.42
350.971	3.45
351.341	3.35
351.711	3.94
352.081	3.56
352.45	2.94
352.82	3.72
353.19	3.59
353.56	3.61
353.929	3.55
354.299	3.23
354.669	3.22
355.038	3.69
355.408	3.67
355.777	3.44
356.147	3.29
356.516	3.34
356.885	3.55
357.254	3.49
357.624	3.21
357.993	3.65
358.362	3.71
358.731	3.06
359.1	2.93
359.469	3.4
359.838	3.34
360.207	3.6
360.576	3.48
360.945	3.29
361.314	3.26
361.682	3.23
362.051	3.46
362.42	3.42
362.788	3.44
363.157	3.36
363.525	3.45
363.894	3.41
364.262	3.35
364.631	3.62
364.999	3.26
365.367	3.38
365.735	3.18
366.104	3.37
366.472	3.54
366.84	3.56
367.208	3.45
367.576	3.46
367.944	3.44
368.312	3.24
368.68	3.56
369.048	3.35
369.416	3.62
369.783	3.48
370.151	3.6
370.519	3.37
370.886	3.64
371.254	3.6
371.621	3.7
371.989	3.33
372.356	3.52
372.724	3.51
373.091	3.68
373.458	3.32
373.826	3.22
374.193	3.43
374.56	3.41
374.927	3.46
375.294	3.68
375.661	3.77
376.028	3.79
376.395	3.66
376.762	3.47
377.129	3.72
377.496	3.82
377.863	3.74
378.229	3.66
378.596	3.55
378.963	3.6
379.329	3.61
379.696	3.63
380.062	3.51
380.429	3.16
380.795	3.57
381.161	3.61
381.528	4.19
381.894	3.6
382.26	3.46
382.626	4.04
382.993	3.49
383.359	3.66
383.725	3.44
384.091	3.56
384.457	3.91
384.823	3.75
385.188	3.73
385.554	3.57
385.92	3.61
386.286	3.72
386.651	3.24
387.017	3.59
387.383	3.42
387.748	3.65
388.114	3.5
388.479	3.35
388.845	3.69
389.21	3.42
389.575	3.32
389.94	3.58
390.306	3.57
390.671	3.78
391.036	3.58
391.401	3.56
391.766	3.69
392.131	3.8
392.496	3.8
392.861	3.57
393.226	3.86
393.591	3.5
393.956	3.62
394.32	3.66
394.685	3.81
395.05	3.85
395.414	3.98
395.779	3.37
396.143	3.59
396.508	3.69
396.872	3.58
397.236	3.46
397.601	3.57
397.965	3.54
398.329	3.49
398.694	3.68
399.058	3.49
399.422	3.72
399.786	3.68
400.15	3.56
400.514	3.52
400.878	3.73
401.242	3.67
401.605	3.63
401.969	3.46
402.333	3.73
402.697	3.68
403.06	3.46
403.424	3.78
403.787	3.77
404.151	3.94
404.514	3.64
404.878	3.95
405.241	3.67
405.604	3.66
405.968	3.89
406.331	3.71
406.694	3.46
407.057	3.51
407.42	3.84
407.783	3.56
408.146	3.6
408.509	3.67
408.872	3.85
409.235	3.71
409.598	3.79
409.961	3.69
410.323	3.69
410.686	3.72
411.049	3.62
411.411	3.71
411.774	3.71
412.136	3.83
412.499	3.75
412.861	3.85
413.223	3.84
413.586	3.83
413.948	3.84
414.31	4.02
414.672	3.7
415.035	3.81
415.397	3.72
415.759	3.86
416.121	3.84
416.483	4.02
416.845	3.96
417.206	3.82
417.568	4
417.93	3.84
418.292	3.57
418.653	3.89
419.015	3.75
419.377	3.81
419.738	3.7
420.1	3.67
420.461	3.67
420.822	3.59
421.184	3.73
421.545	3.7
421.906	3.61
422.267	3.72
422.629	3.76
422.99	3.69
423.351	3.72
423.712	3.7
424.073	3.77
424.434	3.8
424.795	3.58
425.155	3.74
425.516	3.66
425.877	3.79
426.238	3.71
426.598	3.73
426.959	3.69
427.32	3.71
427.68	3.77
428.041	3.69
428.401	3.84
428.761	3.79
429.122	3.82
429.482	3.76
429.842	3.85
430.202	3.79
430.563	3.99
430.923	3.98
431.283	3.74
431.643	4.04
432.003	4.01
432.363	3.89
432.722	3.9
433.082	3.98
433.442	3.77
433.802	4.21
434.161	3.68
434.521	3.98
434.881	3.86
435.24	3.9
435.6	3.81
435.959	3.86
436.319	3.95
436.678	4.01
437.037	3.93
437.396	4.02
437.756	3.92
438.115	3.85
438.474	4.06
438.833	3.98
439.192	3.67
439.551	3.86
439.91	3.87
440.269	4.02
440.628	3.98
440.987	3.93
441.345	3.86
441.704	3.93
442.063	3.94
442.421	3.82
442.78	3.84
443.138	3.96
443.497	4.07
443.855	3.99
444.214	3.87
444.572	3.97
444.93	4.09
445.288	4.02
445.647	4.2
446.005	3.81
446.363	4.07
446.721	4.02
447.079	4
447.437	3.99
447.795	3.95
448.153	3.87
448.51	3.93
448.868	3.91
449.226	3.99
449.584	3.98
449.941	3.88
450.299	3.99
450.656	3.96
451.014	4.05
451.371	4.02
451.729	3.87
452.086	4
452.443	4.04
452.801	4.02
453.158	4.2
453.515	4.12
453.872	4.15
454.229	4.37
454.586	4.14
454.943	4.06
455.3	4.06
455.657	4.11
456.014	4.05
456.371	4.09
456.727	4.11
457.084	4.18
457.441	4.1
457.797	4.18
458.154	4.09
458.51	4.11
458.867	4.14
459.223	4.15
459.58	4.17
459.936	4.11
460.292	4.25
460.648	3.99
461.005	4.13
461.361	4.19
461.717	3.99
462.073	4.09
462.429	4.04
462.785	4.07
463.141	4.21
463.496	4.16
463.852	4.19
464.208	4.28
464.564	4.34
464.919	4.28
465.275	4.38
465.631	4.42
465.986	4.27
466.342	4.35
466.697	4.17
467.052	4.23
467.408	4.31
467.763	4.35
468.118	4.63
468.473	4.18
468.829	4.24
469.184	4.31
469.539	4.38
469.894	4.36
470.249	4.36
470.603	4.26
470.958	4.42
471.313	4.54
471.668	4.32
472.023	4.41
472.377	4.28
472.732	4.2
473.086	4.4
473.441	4.51
473.795	4.6
474.15	4.43
474.504	4.38
474.859	4.44
475.213	4.29
475.567	4.5
475.921	4.33
476.275	4.41
476.63	4.59
476.984	4.51
477.338	4.4
477.692	4.37
478.045	4.42
478.399	4.41
478.753	4.46
479.107	4.36
479.461	4.4
479.814	4.59
480.168	4.43
480.521	4.48
480.875	4.43
481.228	4.54
481.582	4.46
481.935	4.46
482.289	4.53
482.642	4.5
482.995	4.49
483.348	4.45
483.701	4.54
484.055	4.55
484.408	4.36
484.761	4.34
485.114	4.28
485.466	4.27
485.819	4.16
486.172	4.07
486.525	4.13
486.878	4.19
487.23	4.28
487.583	4.31
487.936	4.36
488.288	4.36
488.641	4.42
488.993	4.31
489.345	4.34
489.698	4.32
490.05	4.32
490.402	4.26
490.754	4.33
491.107	4.37
491.459	4.5
491.811	4.41
492.163	4.43
492.515	4.53
492.866	4.55
493.218	4.42
493.57	4.41
493.922	4.39
494.274	4.33
494.625	4.49
494.977	4.5
495.328	4.63
495.68	4.66
496.031	4.58
496.383	4.83
496.734	4.67
497.086	4.79
497.437	4.76
497.788	4.68
498.139	4.84
498.49	4.73
498.842	4.67
499.193	4.71
499.544	4.74
499.894	4.8
500.245	4.8
500.596	4.86
500.947	4.78
501.298	4.86
501.648	4.75
501.999	4.75
502.35	4.93
502.7	4.93
503.051	4.89
503.401	4.84
503.752	4.88
504.102	4.86
504.452	4.88
504.803	4.8
505.153	5
505.503	5.02
505.853	5
506.203	4.85
506.553	4.98
506.903	4.92
507.253	4.99
507.603	4.94
507.953	5.06
508.303	5
508.652	5.07
509.002	4.99
509.352	5.1
509.701	5.07
510.051	4.9
510.4	5.11
510.75	4.95
511.099	5.09
511.449	5.09
511.798	5.11
512.147	5.04
512.496	5.07
512.846	5.01
513.195	5.08
513.544	5.09
513.893	4.93
514.242	5.05
514.591	5.15
514.939	5.11
515.288	5.04
515.637	5.12
515.986	5.2
516.334	5.26
516.683	5.14
517.032	5
517.38	5.09
517.729	5.29
518.077	5.2
518.426	5.17
518.774	5.19
519.122	5.29
519.47	5.23
519.819	5.15
520.167	5.14
520.515	5.18
520.863	5.23
521.211	5.24
521.559	5.28
521.907	5.24
522.255	5.28
522.602	5.39
522.95	5.3
523.298	5.41
523.645	5.39
523.993	5.4
524.341	5.38
524.688	5.39
525.036	5.44
525.383	5.44
525.73	5.53
526.078	5.59
526.425	5.56
526.772	5.48
527.119	5.43
527.466	5.38
527.814	5.42
528.161	5.41
528.508	5.37
528.854	5.37
529.201	5.45
529.548	5.4
529.895	5.43
530.242	5.29
530.588	5.24
530.935	5.25
531.282	5.32
531.628	5.36
531.975	5.4
532.321	5.43
532.667	5.47
533.014	5.48
533.36	5.61
533.706	5.66
534.052	5.64
534.399	5.53
534.745	5.49
535.091	5.55
535.437	5.53
535.783	5.55
536.129	5.6
536.474	5.68
536.82	5.72
537.166	5.7
537.512	5.89
537.857	5.89
538.203	5.83
538.549	5.91
538.894	5.73
539.239	5.83
539.585	5.86
539.93	5.89
540.276	6.03
540.621	5.99
540.966	6.11
541.311	6.14
541.656	5.99
542.001	6.08
542.346	6.11
542.691	5.99
543.036	6.03
543.381	5.91
543.726	5.81
544.071	5.95
544.415	6.05
544.76	6.02
545.105	6.13
545.449	6.11
545.794	6.23
546.138	6.13
546.483	6.19
546.827	6.32
547.171	6.34
547.516	6.3
547.86	6.31
548.204	6.28
548.548	6.41
548.892	6.35
549.236	6.42
549.58	6.31
549.924	6.41
550.268	6.53
550.612	6.6
550.956	6.87
551.3	6.77
551.643	6.49
551.987	6.78
552.33	6.77
552.674	6.8
553.017	6.75
553.361	6.8
553.704	6.71
554.048	6.76
554.391	6.88
554.734	6.96
555.077	6.83
555.42	6.71
555.764	6.75
556.107	6.96
556.45	6.94
556.793	6.91
557.135	6.86
557.478	7.05
557.821	7.2
558.164	7.25
558.507	7.17
558.849	7.29
559.192	7.1
559.534	7.2
559.877	7.12
560.219	7.32
560.562	7.14
560.904	7.29
561.246	7.33
561.589	7.41
561.931	7.41
562.273	7.51
562.615	7.54
562.957	7.55
563.299	7.54
563.641	7.57
563.983	7.41
564.325	7.51
564.667	7.71
565.008	7.68
565.35	7.54
565.692	7.69
566.033	7.72
566.375	7.86
566.716	7.73
567.058	7.71
567.399	7.76
567.741	7.94
568.082	8.02
568.423	7.69
568.764	7.8
569.105	7.85
569.447	7.93
569.788	7.81
570.129	7.93
570.47	7.96
570.811	8.11
571.151	7.94
571.492	8.09
571.833	8.2
572.174	8.18
572.514	8.17
572.855	8.15
573.195	8.13
573.536	8.08
573.876	8.35
574.217	7.99
574.557	8.1
574.898	8.19
575.238	8.31
575.578	8.19
575.918	8.36
576.258	8.58
576.598	8.49
576.938	8.56
577.278	8.57
577.618	8.41
577.958	8.46
578.298	8.52
578.638	8.68
578.977	8.7
579.317	8.6
579.657	8.68
579.996	8.89
580.336	9.12
580.675	8.82
581.014	8.97
581.354	9.29
581.693	8.95
582.032	9.14
582.372	9.35
582.711	9.34
583.05	9.27
583.389	9.03
583.728	9.45
584.067	9.38
584.406	9.36
584.745	9.45
585.083	9.42
585.422	9.42
585.761	9.43
586.1	9.68
586.438	9.35
586.777	9.52
587.115	9.71
587.454	9.76
587.792	9.68
588.13	9.77
588.469	9.92
588.807	9.3
589.145	9.89
589.483	9.66
589.821	9.75
590.159	10
590.497	9.88
590.835	9.99
591.173	9.89
591.511	10.2
591.849	9.87
592.187	10.09
592.524	9.9
592.862	10.2
593.2	10.2
593.537	10.09
593.875	10.07
594.212	10.34
594.55	10.41
594.887	10.56
595.224	10.55
595.561	10.31
595.899	10.45
596.236	10.67
596.573	10.62
596.91	10.72
597.247	10.84
597.584	10.48
597.921	10.63
598.258	10.76
598.594	10.76
598.931	10.54
599.268	10.6
599.604	10.83
599.941	10.71
600.277	10.71
600.614	10.84
600.95	10.87
601.287	10.89
601.623	11.02
601.959	11.13
602.296	11.28
602.632	11.31
602.968	11.02
603.304	11.48
603.64	11.41
603.976	11.23
604.312	11.62
604.648	11.46
604.984	11.75
605.319	11.6
605.655	11.36
605.991	11.77
606.326	11.34
606.662	11.36
606.998	11.24
607.333	11.44
607.668	11.43
608.004	11.64
608.339	11.63
608.674	11.75
609.01	12.02
609.345	11.86
609.68	11.93
610.015	12.11
610.35	12.34
610.685	12.5
611.02	12.08
611.355	12.16
611.689	12.04
612.024	12.1
612.359	12.29
612.694	12.29
613.028	12.2
613.363	12.38
613.697	12.43
614.032	12.46
614.366	12.58
614.7	12.79
615.035	12.74
615.369	12.89
615.703	12.42
616.037	12.92
616.371	12.8
616.705	12.81
617.039	13.07
617.373	13.06
617.707	13.19
618.041	13.41
618.375	13.05
618.709	12.74
619.042	13.27
619.376	13.59
619.71	13.52
620.043	13.43
620.377	13.24
620.71	13.31
621.043	13.54
621.377	13.77
621.71	13.49
622.043	13.61
622.376	13.66
622.709	13.47
623.043	13.49
623.376	13.51
623.709	13.74
624.041	13.85
624.374	13.92
624.707	13.94
625.04	13.65
625.373	13.98
625.705	13.82
626.038	14.19
626.37	14.09
626.703	14.32
627.035	13.71
627.368	14.38
627.7	14.31
628.032	14.08
628.365	14.62
628.697	14.5
629.029	14.62
629.361	14.32
629.693	14.54
630.025	14.5
630.357	14.73
630.689	14.64
631.021	15.07
631.353	14.54
631.684	14.64
632.016	14.99
632.348	14.82
632.679	15.02
633.011	15.18
633.342	14.86
633.674	15.05
634.005	15.3
634.336	15.72
634.668	15.15
634.999	15.18
635.33	14.91
635.661	15.48
635.992	15.58
636.323	15.89
636.654	15.55
636.985	15.78
637.316	15.93
637.647	15.58
637.977	15.7
638.308	15.97
638.639	16.19
638.969	15.95
639.3	15.62
639.63	15.81
639.961	15.72
640.291	16.05
640.622	15.69
640.952	16.27
641.282	16.03
641.612	16.21
641.943	16.44
642.273	16.28
642.603	16.56
642.933	16.46
643.263	16.93
643.592	16.72
643.922	17.08
644.252	16.6
644.582	16.68
644.911	16.45
645.241	17.21
645.571	17.19
645.9	17.21
646.23	16.7
646.559	16.81
646.888	17.05
647.218	16.71
647.547	16.76
647.876	16.8
648.205	17.27
648.534	16.87
648.863	17.51
649.192	17.28
649.521	17.64
649.85	17.17
650.179	17.53
650.508	17.63
650.837	18.04
651.165	17.86
651.494	17.21
651.822	17.79
652.151	18.62
652.479	18.06
652.808	18.13
653.136	17.84
653.465	18.68
653.793	18.17
654.121	18.25
654.449	18.33
654.777	18.43
655.105	18.92
655.433	18.62
655.761	18.44
656.089	18.63
656.417	19.14
656.745	18.5
657.073	18.54
657.4	18.83
657.728	18.72
658.056	18.89
658.383	18.44
658.711	18.71
659.038	18.51
659.365	19.18
659.693	19.13
660.02	18.98
660.347	18.9
660.674	18.98
661.001	18.73
661.329	19.22
661.656	19.55
661.982	19.13
662.309	19.06
662.636	19.28
662.963	19.49
663.29	19.66
663.616	19.99
663.943	19.27
664.27	19.64
664.596	19.04
664.923	19.42
665.249	20.31
665.576	19.53
665.902	19.79
666.228	19.79
666.554	20.15
666.881	19.87
667.207	20.28
667.533	20.28
667.859	20.29
668.185	20.37
668.511	20.6
668.837	21.23
669.162	20.65
669.488	20.73
669.814	20.19
670.139	20.63
670.465	20.83
670.791	20.66
671.116	20.9
671.442	20.27
671.767	20.57
672.092	20.38
672.418	20.99
672.743	20.8
673.068	20.8
673.393	20.78
673.718	21.1
674.043	20.69
674.368	20.86
674.693	21.17
675.018	21.7
675.343	21.15
675.667	22.18
675.992	21.24
676.317	21.23
676.641	21.6
676.966	21.66
677.29	21.7
677.615	22.11
677.939	22.31
678.264	22.04
678.588	21.32
678.912	22.56
679.236	22.1
679.56	21.81
679.885	22.47
680.209	22.37
680.532	22.04
680.856	22.34
681.18	22.13
681.504	22.36
681.828	22.68
682.152	22.28
682.475	21.62
682.799	22.23
683.122	22.86
683.446	22.3
683.769	22.37
684.093	22.39
684.416	22.89
684.739	22.21
685.062	22.72
685.386	22.6
685.709	23.36
