Data from 0369_forehead_Reflection__4__293.txt Node

Date: Fri Oct 20 23:02:14 CDT 2023
User: ToomeyLab
Spectrometer: FLMS14357
Trigger mode: 0
Integration Time (sec): 1.000000E-2
Scans to average: 100
Electric dark correction enabled: true
Nonlinearity correction enabled: false
Boxcar width: 0
XAxis mode: Wavelengths
Number of Pixels in Spectrum: 2048
>>>>>Begin Spectral Data<<<<<
189.047	-447
189.435	-447
189.823	-447
190.211	112.2
190.599	5.71
190.987	53.15
191.375	340.07
191.763	61.55
192.151	-126.97
192.538	2.45
192.926	69.53
193.314	73.9
193.702	550.46
194.089	274.77
194.477	26.27
194.864	71.97
195.252	167.92
195.639	269.53
196.027	-124.58
196.414	49.17
196.801	221.8
197.189	421.61
197.576	24.83
197.963	606.62
198.351	58.49
198.738	21.95
199.125	33.15
199.512	38.69
199.899	28.46
200.286	-17.09
200.673	21.33
201.06	50.26
201.447	-10.22
201.833	23.72
202.22	15
202.607	41.39
202.994	19.84
203.38	24.05
203.767	37.53
204.154	38.32
204.54	61.4
204.927	56.43
205.313	33.08
205.699	60.2
206.086	39.42
206.472	43.35
206.858	66.55
207.245	53.21
207.631	36.49
208.017	5.71
208.403	17.2
208.789	58.25
209.175	31.9
209.561	58.86
209.947	16.04
210.333	55.8
210.719	29.21
211.105	53.88
211.491	8.15
211.876	-1.28
212.262	44.45
212.648	48.69
213.034	-11.99
213.419	30.18
213.805	5.89
214.19	-0.92
214.576	13.41
214.961	31.34
215.346	34.93
215.732	18.88
216.117	-23.13
216.502	39.7
216.888	9.12
217.273	-25.12
217.658	15.27
218.043	34.6
218.428	9.67
218.813	2.1
219.198	21.1
219.583	6.13
219.968	14.84
220.353	27.92
220.738	24.91
221.122	-0.67
221.507	15.35
221.892	11.71
222.276	7.68
222.661	26.79
223.046	25.8
223.43	19.38
223.815	23.05
224.199	16.11
224.583	-2.15
224.968	1.14
225.352	11.19
225.736	1.31
226.121	3.34
226.505	1.31
226.889	12.34
227.273	6.88
227.657	9.31
228.041	11.91
228.425	8.26
228.809	6.55
229.193	6.32
229.577	5.91
229.961	4.22
230.344	4.56
230.728	3.27
231.112	4.83
231.495	3.8
231.879	4.35
232.263	5.61
232.646	3.54
233.03	3.19
233.413	3.4
233.797	3.44
234.18	5.46
234.563	6.34
234.946	7.23
235.33	4.44
235.713	4.79
236.096	6.11
236.479	6.1
236.862	4.57
237.245	4.5
237.628	3.85
238.011	5
238.394	3.51
238.777	6.26
239.16	3.97
239.543	6.06
239.925	7.63
240.308	5.14
240.691	5.36
241.073	5.99
241.456	5.74
241.838	3.19
242.221	4.92
242.603	4.33
242.986	4.72
243.368	4.35
243.75	4.25
244.133	3.36
244.515	3.5
244.897	3.79
245.279	4.31
245.661	4.07
246.043	3.59
246.425	3.96
246.807	3.13
247.189	4
247.571	3.94
247.953	4.25
248.335	4.25
248.717	3.79
249.098	3.79
249.48	3.74
249.862	4.03
250.243	4.28
250.625	4.19
251.006	4.15
251.388	4.28
251.769	4.77
252.151	3.32
252.532	3.56
252.913	4.1
253.295	2.94
253.676	4.44
254.057	3.81
254.438	4.38
254.819	4.08
255.2	4.19
255.581	4.41
255.962	4.68
256.343	3.92
256.724	2.69
257.105	3.7
257.486	4.64
257.867	3.72
258.247	4.37
258.628	4.44
259.009	3.11
259.389	3.63
259.77	3.93
260.15	4.16
260.531	4.18
260.911	4.55
261.292	4.12
261.672	4.07
262.052	4.18
262.432	3.87
262.813	4.05
263.193	4.1
263.573	4.09
263.953	4.27
264.333	4.58
264.713	4.78
265.093	4.54
265.473	4.36
265.853	3.98
266.233	4.35
266.612	3.64
266.992	5.26
267.372	4.07
267.752	3.76
268.131	4.8
268.511	4.1
268.89	4.66
269.27	4.55
269.649	4.39
270.029	4.24
270.408	4.11
270.787	4.01
271.167	3.69
271.546	4.47
271.925	4.75
272.304	4.13
272.683	4.11
273.062	4.5
273.441	4.01
273.82	3.98
274.199	4.36
274.578	4.33
274.957	4.22
275.336	4.43
275.715	4.42
276.093	4.03
276.472	4.11
276.851	4.37
277.229	4.37
277.608	4.26
277.986	3.34
278.365	4.27
278.743	4.82
279.122	4.75
279.5	4.02
279.878	3.91
280.257	4.45
280.635	4.05
281.013	3.75
281.391	4.66
281.769	3.79
282.147	3.95
282.525	4.5
282.903	4.21
283.281	3.74
283.659	4.3
284.037	4.04
284.415	3.54
284.792	3.95
285.17	4.64
285.548	4.55
285.925	4.31
286.303	4.09
286.68	3.97
287.058	4.4
287.435	4.53
287.813	3.86
288.19	4.33
288.567	4.01
288.945	4.16
289.322	4.79
289.699	3.9
290.076	4.89
290.453	4.66
290.83	3.97
291.207	4.38
291.584	4.27
291.961	4.13
292.338	4.04
292.715	4.34
293.092	4.3
293.469	5.08
293.845	4.29
294.222	4.83
294.599	4.29
294.975	5.14
295.352	5.06
295.728	4.91
296.105	4.4
296.481	4.8
296.858	5.15
297.234	5.41
297.61	4.65
297.986	4.63
298.363	5.08
298.739	5.28
299.115	5.03
299.491	5.18
299.867	5.21
300.243	4.85
300.619	5.33
300.995	5.03
301.371	5.72
301.746	5.61
302.122	6.11
302.498	5.53
302.874	6.3
303.249	5.68
303.625	5.88
304	6.69
304.376	6.11
304.751	5.68
305.127	5.91
305.502	6.5
305.878	6.15
306.253	6.2
306.628	6.2
307.003	6.63
307.378	6.2
307.754	6.36
308.129	6.84
308.504	6.76
308.879	6.95
309.254	7.49
309.629	6.35
310.003	6.56
310.378	7.29
310.753	7.13
311.128	7.24
311.502	7.01
311.877	7.19
312.252	6.93
312.626	7.53
313.001	7.73
313.375	7.27
313.75	7.38
314.124	7.13
314.498	7.47
314.873	7.42
315.247	8.17
315.621	8.16
315.995	8.49
316.369	8
316.743	8.48
317.117	8.48
317.491	8.15
317.865	8.76
318.239	9.48
318.613	8.89
318.987	8.66
319.361	8.32
319.734	8.76
320.108	8.72
320.482	8.96
320.855	9.13
321.229	9.03
321.602	9.28
321.976	9.16
322.349	9.53
322.723	9.46
323.096	9.92
323.469	9.56
323.843	10.11
324.216	10.06
324.589	9.77
324.962	10.01
325.335	10.09
325.708	10.47
326.081	10.22
326.454	10.1
326.827	10.76
327.2	10.24
327.573	9.85
327.945	9.78
328.318	9.95
328.691	10.5
329.063	10.83
329.436	10.47
329.809	11.16
330.181	10.95
330.553	11.41
330.926	10.89
331.298	10.8
331.671	10.57
332.043	10.73
332.415	11.08
332.787	11.54
333.159	11.5
333.532	12.12
333.904	10.92
334.276	11.31
334.648	11.74
335.02	11.76
335.391	11.39
335.763	11.68
336.135	12.01
336.507	11.77
336.879	11.79
337.25	12.24
337.622	12.13
337.993	12.03
338.365	12.34
338.736	12.02
339.108	12.61
339.479	12.58
339.851	12.35
340.222	12.14
340.593	12.03
340.964	12.15
341.336	13.03
341.707	12.38
342.078	12.88
342.449	12.57
342.82	13.19
343.191	13.27
343.562	12.79
343.933	13.02
344.303	13.5
344.674	13.49
345.045	13.81
345.416	13.19
345.786	13.28
346.157	13.4
346.527	13.16
346.898	13.38
347.268	13.28
347.639	14.22
348.009	13.82
348.38	14.13
348.75	14.03
349.12	14.15
349.49	13.89
349.861	14.45
350.231	13.83
350.601	14.11
350.971	14.09
351.341	14.48
351.711	14.6
352.081	14.7
352.45	14.66
352.82	14.59
353.19	14.86
353.56	14.83
353.929	14.46
354.299	15.03
354.669	15.24
355.038	15.45
355.408	15.18
355.777	15.43
356.147	15.05
356.516	15.22
356.885	15.34
357.254	15.51
357.624	15.21
357.993	15.63
358.362	15.76
358.731	15.25
359.1	15.45
359.469	15.61
359.838	15.71
360.207	15.75
360.576	15.92
360.945	15.82
361.314	16.22
361.682	16.13
362.051	15.9
362.42	15.95
362.788	16.09
363.157	16.47
363.525	16.11
363.894	16.24
364.262	16.37
364.631	16.85
364.999	16.58
365.367	16.5
365.735	16.66
366.104	16.67
366.472	16.72
366.84	17.29
367.208	17.04
367.576	17.25
367.944	17.5
368.312	17.13
368.68	17.2
369.048	17.08
369.416	17.54
369.783	17.73
370.151	17.64
370.519	17.66
370.886	17.6
371.254	17.71
371.621	18
371.989	17.8
372.356	18.37
372.724	18.39
373.091	18.13
373.458	17.88
373.826	18.21
374.193	17.98
374.56	18.29
374.927	18.59
375.294	18.25
375.661	18.49
376.028	18.72
376.395	18.55
376.762	18.49
377.129	18.78
377.496	18.77
377.863	19.19
378.229	19
378.596	18.69
378.963	18.99
379.329	19.22
379.696	19.17
380.062	19.41
380.429	19.01
380.795	18.88
381.161	19.38
381.528	19.47
381.894	19.71
382.26	19.5
382.626	19.71
382.993	19.53
383.359	19.56
383.725	19.97
384.091	20.16
384.457	19.96
384.823	20.31
385.188	20.2
385.554	20.29
385.92	20.19
386.286	20.23
386.651	20.45
387.017	20.29
387.383	20.35
387.748	20.18
388.114	20.29
388.479	20.57
388.845	20.84
389.21	20.65
389.575	20.58
389.94	20.97
390.306	20.96
390.671	21.02
391.036	20.98
391.401	21.21
391.766	21.43
392.131	20.94
392.496	21.39
392.861	21.5
393.226	21.5
393.591	21.32
393.956	21.8
394.32	21.57
394.685	21.76
395.05	21.96
395.414	21.74
395.779	21.73
396.143	21.95
396.508	21.83
396.872	22.02
397.236	22.04
397.601	22.16
397.965	22.32
398.329	22.11
398.694	22.61
399.058	22.16
399.422	22.67
399.786	22.64
400.15	22.52
400.514	22.58
400.878	22.66
401.242	22.97
401.605	22.72
401.969	22.73
402.333	23.04
402.697	23.12
403.06	22.97
403.424	23.17
403.787	23.36
404.151	23.19
404.514	23.43
404.878	23.49
405.241	23.48
405.604	23.31
405.968	23.43
406.331	23.54
406.694	23.47
407.057	23.38
407.42	24.1
407.783	23.72
408.146	23.92
408.509	23.91
408.872	24.43
409.235	24.18
409.598	24.47
409.961	24.6
410.323	24.68
410.686	24.85
411.049	24.72
411.411	24.8
411.774	25.04
412.136	24.71
412.499	24.92
412.861	24.93
413.223	25.25
413.586	25.24
413.948	25.56
414.31	25.62
414.672	25.45
415.035	25.52
415.397	25.75
415.759	25.99
416.121	25.85
416.483	26.11
416.845	25.98
417.206	26.04
417.568	26.32
417.93	26.44
418.292	25.8
418.653	26.05
419.015	26.19
419.377	26.17
419.738	26.12
420.1	25.82
420.461	26.05
420.822	25.93
421.184	26
421.545	26.16
421.906	26.14
422.267	26.07
422.629	26.22
422.99	26.07
423.351	26.04
423.712	26.03
424.073	26.27
424.434	26.42
424.795	26.4
425.155	26.67
425.516	26.55
425.877	26.65
426.238	26.37
426.598	26.47
426.959	26.65
427.32	26.65
427.68	26.92
428.041	27.06
428.401	27.16
428.761	27.46
429.122	27.28
429.482	27.67
429.842	27.86
430.202	27.76
430.563	27.86
430.923	28.07
431.283	28.3
431.643	28.13
432.003	28.38
432.363	28.18
432.722	28.6
433.082	28.37
433.442	28.33
433.802	28.55
434.161	28.38
434.521	28.71
434.881	28.51
435.24	28.52
435.6	28.49
435.959	28.43
436.319	28.66
436.678	28.73
437.037	28.94
437.396	29.03
437.756	29.07
438.115	29
438.474	29.31
438.833	29.44
439.192	29.45
439.551	29.23
439.91	29.56
440.269	29.45
440.628	29.49
440.987	29.47
441.345	29.3
441.704	29.21
442.063	29.38
442.421	29.36
442.78	29.41
443.138	29.57
443.497	29.56
443.855	29.59
444.214	29.69
444.572	29.58
444.93	30.08
445.288	30.02
445.647	30.38
446.005	29.99
446.363	30.23
446.721	29.99
447.079	30.18
447.437	30.07
447.795	29.84
448.153	29.76
448.51	30.07
448.868	29.8
449.226	30
449.584	30.02
449.941	30.23
450.299	30.36
450.656	30.45
451.014	30.55
451.371	30.88
451.729	30.81
452.086	30.97
452.443	31.19
452.801	30.92
453.158	31.35
453.515	30.97
453.872	31.21
454.229	31.31
454.586	31.08
454.943	31.27
455.3	31.12
455.657	31.35
456.014	31.45
456.371	31.33
456.727	31.48
457.084	31.59
457.441	31.62
457.797	31.68
458.154	31.71
458.51	31.68
458.867	31.91
459.223	31.76
459.58	32.04
459.936	32.03
460.292	31.84
460.648	31.99
461.005	31.94
461.361	31.79
461.717	31.46
462.073	31.74
462.429	31.54
462.785	31.78
463.141	31.94
463.496	32.25
463.852	32.61
464.208	32.57
464.564	32.72
464.919	32.74
465.275	32.89
465.631	32.98
465.986	32.95
466.342	32.86
466.697	32.91
467.052	32.88
467.408	33.05
467.763	33.29
468.118	33.22
468.473	33.33
468.829	33.3
469.184	33.25
469.539	33.35
469.894	33.52
470.249	33.5
470.603	33.45
470.958	33.84
471.313	33.87
471.668	33.96
472.023	33.85
472.377	34.13
472.732	33.72
473.086	34.13
473.441	34.18
473.795	34.03
474.15	34.11
474.504	33.99
474.859	34.2
475.213	34.37
475.567	34.33
475.921	34.09
476.275	34.31
476.63	34.53
476.984	34.57
477.338	34.48
477.692	34.64
478.045	34.71
478.399	34.69
478.753	34.38
479.107	34.42
479.461	34.75
479.814	34.92
480.168	34.76
480.521	34.72
480.875	34.81
481.228	34.88
481.582	34.97
481.935	34.87
482.289	34.94
482.642	35.05
482.995	34.92
483.348	34.94
483.701	34.84
484.055	34.82
484.408	34.48
484.761	34.56
485.114	34.35
485.466	34.1
485.819	33.87
486.172	33.93
486.525	33.99
486.878	34.03
487.23	34.08
487.583	34.31
487.936	34.63
488.288	34.76
488.641	34.87
488.993	34.59
489.345	34.5
489.698	34.46
490.05	34.42
490.402	34.54
490.754	34.56
491.107	34.85
491.459	35.11
491.811	35.29
492.163	35.45
492.515	35.43
492.866	35.68
493.218	35.47
493.57	34.96
493.922	35.01
494.274	35.13
494.625	35.22
494.977	35.53
495.328	35.72
495.68	36.12
496.031	36.37
496.383	36.63
496.734	36.58
497.086	36.65
497.437	36.76
497.788	36.81
498.139	36.82
498.49	36.65
498.842	36.61
499.193	36.69
499.544	36.65
499.894	36.89
500.245	36.87
500.596	36.87
500.947	37.06
501.298	36.99
501.648	37.12
501.999	37.33
502.35	37.19
502.7	37.28
503.051	37.72
503.401	37.73
503.752	37.67
504.102	37.9
504.452	37.76
504.803	37.93
505.153	38.1
505.503	37.78
505.853	37.84
506.203	37.69
506.553	37.99
506.903	37.95
507.253	38.02
507.603	38.12
507.953	38.08
508.303	38.07
508.652	38.31
509.002	38.21
509.352	38.38
509.701	38.34
510.051	38.21
510.4	38.46
510.75	38.24
511.099	38.31
511.449	38.45
511.798	38.21
512.147	38.27
512.496	38.63
512.846	38.33
513.195	38.56
513.544	38.58
513.893	38.59
514.242	38.76
514.591	38.53
514.939	38.78
515.288	38.81
515.637	39.05
515.986	39.17
516.334	39.16
516.683	38.94
517.032	39.15
517.38	39.25
517.729	39.47
518.077	39.4
518.426	39.25
518.774	39.38
519.122	39.39
519.47	39.25
519.819	39.2
520.167	39.11
520.515	38.93
520.863	39.11
521.211	39.16
521.559	39.13
521.907	39.23
522.255	39.21
522.602	39.57
522.95	39.58
523.298	39.88
523.645	39.85
523.993	39.78
524.341	39.92
524.688	40.05
525.036	40.28
525.383	40
525.73	40.11
526.078	40.2
526.425	40.34
526.772	40.26
527.119	40.07
527.466	39.71
527.814	39.66
528.161	39.78
528.508	39.7
528.854	39.89
529.201	39.99
529.548	40.05
529.895	39.85
530.242	39.53
530.588	39.36
530.935	39.56
531.282	39.62
531.628	39.47
531.975	39.47
532.321	39.82
532.667	40.06
533.014	40.27
533.36	40.45
533.706	40.51
534.052	40.63
534.399	40.71
534.745	40.54
535.091	40.26
535.437	40.14
535.783	40.24
536.129	40.48
536.474	40.45
536.82	40.62
537.166	40.81
537.512	41.05
537.857	41.15
538.203	41.18
538.549	41.28
538.894	41.02
539.239	41.09
539.585	41.02
539.93	41.3
540.276	41.48
540.621	41.67
540.966	41.71
541.311	42.12
541.656	41.63
542.001	41.97
542.346	42.02
542.691	41.68
543.036	41.42
543.381	41.16
543.726	41.13
544.071	41.12
544.415	41.35
544.76	41.39
545.105	41.69
545.449	41.73
545.794	41.77
546.138	41.79
546.483	42.02
546.827	42.21
547.171	42.41
547.516	42.24
547.86	42.38
548.204	42.34
548.548	42.46
548.892	42.39
549.236	42.37
549.58	42.43
549.924	42.81
550.268	42.8
550.612	42.85
550.956	43.01
551.3	43.19
551.643	43.06
551.987	43.46
552.33	43.47
552.674	43.17
553.017	43.46
553.361	43.51
553.704	43.75
554.048	43.58
554.391	43.71
554.734	43.65
555.077	43.46
555.42	43.32
555.764	43.61
556.107	43.78
556.45	43.88
556.793	43.84
557.135	43.82
557.478	44.09
557.821	44.19
558.164	44.22
558.507	44.23
558.849	44.34
559.192	44.42
559.534	44.43
559.877	44.37
560.219	44.48
560.562	44.17
560.904	44.36
561.246	44.75
561.589	44.65
561.931	44.49
562.273	44.71
562.615	44.77
562.957	44.6
563.299	44.82
563.641	44.91
563.983	44.69
564.325	44.92
564.667	44.96
565.008	44.91
565.35	44.62
565.692	44.99
566.033	44.92
566.375	45.14
566.716	45.01
567.058	45.34
567.399	45.23
567.741	44.87
568.082	45.37
568.423	45.04
568.764	44.76
569.105	45.04
569.447	45.01
569.788	45.23
570.129	45.15
570.47	45.42
570.811	45.24
571.151	45.35
571.492	45.44
571.833	45.63
572.174	45.67
572.514	45.29
572.855	45.73
573.195	45.74
573.536	45.45
573.876	45.83
574.217	45.35
574.557	45.4
574.898	45.7
575.238	45.58
575.578	45.83
575.918	45.5
576.258	45.88
576.598	45.95
576.938	45.99
577.278	46.12
577.618	45.84
577.958	46.16
578.298	46.24
578.638	46.24
578.977	46.34
579.317	46.29
579.657	46.39
579.996	46.66
580.336	46.86
580.675	46.5
581.014	46.72
581.354	46.87
581.693	46.86
582.032	46.91
582.372	46.93
582.711	47.2
583.05	47.23
583.389	47.14
583.728	46.86
584.067	47.38
584.406	47.3
584.745	47.08
585.083	47.38
585.422	47.23
585.761	47.47
586.1	47.62
586.438	47.5
586.777	47.56
587.115	47.55
587.454	47.81
587.792	47.25
588.13	47.56
588.469	47.8
588.807	47.03
589.145	47.69
589.483	47.58
589.821	47.6
590.159	47.94
590.497	48.11
590.835	47.73
591.173	47.76
591.511	47.84
591.849	48.06
592.187	47.94
592.524	47.76
592.862	47.97
593.2	48.03
593.537	47.91
593.875	48.13
594.212	48.14
594.55	48.58
594.887	48.13
595.224	48.49
595.561	48.04
595.899	48.46
596.236	48.27
596.573	48.29
596.91	48.5
597.247	48.14
597.584	48.39
597.921	48.47
598.258	48.35
598.594	48.66
598.931	48.26
599.268	48.14
599.604	48.51
599.941	48.43
600.277	48.18
600.614	48.43
600.95	48.52
601.287	48.48
601.623	48.69
601.959	48.94
602.296	49.18
602.632	49.16
602.968	48.88
603.304	49.2
603.64	49.02
603.976	48.97
604.312	49.18
604.648	48.93
604.984	49.21
605.319	49.26
605.655	49.21
605.991	49.22
606.326	48.85
606.662	49.02
606.998	48.83
607.333	48.74
607.668	49.1
608.004	49.19
608.339	49.27
608.674	49.13
609.01	49.63
609.345	49.88
609.68	49.81
610.015	49.64
610.35	49.52
610.685	50.03
611.02	49.62
611.355	49.28
611.689	49.44
612.024	49.62
612.359	49.64
612.694	49.74
613.028	50.01
613.363	49.87
613.697	50.03
614.032	49.74
614.366	50.22
614.7	49.99
615.035	50.4
615.369	50.35
615.703	50.5
616.037	50.48
616.371	50.41
616.705	50.41
617.039	50.22
617.373	50.57
617.707	50.64
618.041	51.11
618.375	50.19
618.709	50.3
619.042	50.88
619.376	50.71
619.71	51.18
620.043	50.72
620.377	50.94
620.71	50.52
621.043	50.64
621.377	50.4
621.71	50.81
622.043	51.09
622.376	50.57
622.709	50.95
623.043	51.64
623.376	50.75
623.709	50.81
624.041	51.59
624.374	51.2
624.707	50.97
625.04	51.38
625.373	51.39
625.705	51
626.038	51.32
626.37	51.33
626.703	51.22
627.035	51.44
627.368	51.28
627.7	51.29
628.032	51.57
628.365	51.66
628.697	51.28
629.029	51.77
629.361	51.38
629.693	51.62
630.025	51.9
630.357	51.74
630.689	51.32
631.021	51.86
631.353	51.41
631.684	51.88
632.016	51.63
632.348	51.55
632.679	51.82
633.011	52.24
633.342	51.98
633.674	52.35
634.005	52.3
634.336	52.06
634.668	51.95
634.999	52.42
635.33	52.09
635.661	52.65
635.992	52.35
636.323	52.15
636.654	52.52
636.985	51.93
637.316	52.03
637.647	52.35
637.977	52.14
638.308	52
638.639	52.62
638.969	53.09
639.3	52.17
639.63	52.7
639.961	52.56
640.291	52.24
640.622	52.94
640.952	52.97
641.282	53.12
641.612	52.78
641.943	52.73
642.273	53.58
642.603	53.1
642.933	52.55
643.263	52.69
643.592	53.36
643.922	53.47
644.252	53.07
644.582	52.89
644.911	53.57
645.241	53.16
645.571	53.5
645.9	53.57
646.23	53.1
646.559	53.16
646.888	54.26
647.218	53.25
647.547	53.73
647.876	53.66
648.205	53.68
648.534	53.21
648.863	53.71
649.192	53.33
649.521	53.37
649.85	53.48
650.179	53.2
650.508	53.36
650.837	53.76
651.165	53.71
651.494	53.37
651.822	53.07
652.151	53.81
652.479	53.49
652.808	53.4
653.136	52.77
653.465	53.67
653.793	53.55
654.121	53.8
654.449	53.78
654.777	53.83
655.105	53.82
655.433	53.93
655.761	53.06
656.089	54.51
656.417	54.06
656.745	54.01
657.073	53.79
657.4	54.27
657.728	54.49
658.056	54.38
658.383	53.94
658.711	54.14
659.038	53.88
659.365	54.26
659.693	54.45
660.02	54.63
660.347	53.92
660.674	53.92
661.001	54.15
661.329	54.34
661.656	54.35
661.982	54.19
662.309	54.59
662.636	54.13
662.963	54.37
663.29	54.58
663.616	54.63
663.943	54
664.27	54.31
664.596	54.29
664.923	54.71
665.249	54.69
665.576	54.93
665.902	54.96
666.228	54.84
666.554	54.52
666.881	54.86
667.207	55.25
667.533	54.77
667.859	54.73
668.185	55.25
668.511	55.71
668.837	54.97
669.162	54.51
669.488	55.19
