Data from 0369_chest_Reflection__2__281.txt Node

Date: Fri Oct 20 22:57:24 CDT 2023
User: ToomeyLab
Spectrometer: FLMS14357
Trigger mode: 0
Integration Time (sec): 1.000000E-2
Scans to average: 100
Electric dark correction enabled: true
Nonlinearity correction enabled: false
Boxcar width: 0
XAxis mode: Wavelengths
Number of Pixels in Spectrum: 2048
>>>>>Begin Spectral Data<<<<<
189.047	723.5
189.435	723.5
189.823	723.5
190.211	120.12
190.599	-23.35
190.987	129.3
191.375	-108.45
191.763	139.2
192.151	134.52
192.538	-93.33
192.926	34.34
193.314	45.51
193.702	249.54
194.089	-25.53
194.477	157.08
194.864	123.88
195.252	194.4
195.639	-490.39
196.027	-179.05
196.414	57.52
196.801	347.35
197.189	-757.8
197.576	97.13
197.963	428.34
198.351	41.6
198.738	-7.74
199.125	31.88
199.512	31.37
199.899	49.26
200.286	15.9
200.673	52.6
201.06	17.23
201.447	12.16
201.833	20.43
202.22	-6.36
202.607	43.99
202.994	19.98
203.38	37.75
203.767	26.52
204.154	44.77
204.54	45.8
204.927	15.81
205.313	18.69
205.699	39.8
206.086	1.64
206.472	38.97
206.858	46.5
207.245	24.88
207.631	24.98
208.017	39.58
208.403	17.37
208.789	49.12
209.175	-2.9
209.561	38.97
209.947	-11.63
210.333	37.63
210.719	20.48
211.105	31.38
211.491	20.96
211.876	35.02
212.262	38.48
212.648	21.57
213.034	2.06
213.419	26.03
213.805	12.74
214.19	4.68
214.576	13.59
214.961	18.17
215.346	28.54
215.732	2.68
216.117	-54.87
216.502	14.5
216.888	15.74
217.273	13.11
217.658	8.12
218.043	1.64
218.428	4.58
218.813	26.65
219.198	-1.43
219.583	-24.36
219.968	-11.76
220.353	16.59
220.738	9.79
221.122	-9.68
221.507	13.1
221.892	8.03
222.276	-2.46
222.661	24.74
223.046	14.44
223.43	-2.77
223.815	18.76
224.199	22.71
224.583	-0.29
224.968	1.63
225.352	-2.67
225.736	7.18
226.121	12.03
226.505	-2.44
226.889	5.88
227.273	12.41
227.657	5.31
228.041	9.11
228.425	5.27
228.809	3.73
229.193	0.66
229.577	5.7
229.961	3.18
230.344	3.2
230.728	3.47
231.112	3.99
231.495	3.52
231.879	3.37
232.263	3.76
232.646	3.95
233.03	2.6
233.413	4.2
233.797	3.84
234.18	2.82
234.563	4.06
234.946	5.6
235.33	2.78
235.713	3.51
236.096	3.49
236.479	4.99
236.862	4.02
237.245	2.13
237.628	5.34
238.011	5.24
238.394	3.25
238.777	5.39
239.16	2.79
239.543	6.48
239.925	5.79
240.308	5.01
240.691	4.42
241.073	5.38
241.456	3.77
241.838	4.7
242.221	3.95
242.603	4.05
242.986	4.23
243.368	4.16
243.75	4.27
244.133	3.12
244.515	3.33
244.897	3.35
245.279	4.02
245.661	3.4
246.043	3.95
246.425	2.69
246.807	3.67
247.189	3.88
247.571	3.17
247.953	4.24
248.335	4.41
248.717	3.43
249.098	3.2
249.48	3.48
249.862	3.7
250.243	3.7
250.625	3.68
251.006	4.18
251.388	3.77
251.769	4.28
252.151	3.03
252.532	3.72
252.913	4.04
253.295	4.28
253.676	4.19
254.057	3.53
254.438	3.62
254.819	3.68
255.2	3.72
255.581	3.89
255.962	3.22
256.343	4.38
256.724	2.78
257.105	4.06
257.486	4.39
257.867	3.47
258.247	4.16
258.628	2.53
259.009	4.22
259.389	3.63
259.77	3.71
260.15	3.75
260.531	4.04
260.911	3.6
261.292	3.54
261.672	3.52
262.052	3.66
262.432	3.58
262.813	3.54
263.193	3.43
263.573	3.02
263.953	3.95
264.333	4.16
264.713	4.04
265.093	4.05
265.473	3.78
265.853	2.72
266.233	3.8
266.612	3.1
266.992	4.01
267.372	3.76
267.752	3.16
268.131	3.53
268.511	3.53
268.89	3.36
269.27	3.22
269.649	3.12
270.029	3.2
270.408	4.04
270.787	3.58
271.167	3.06
271.546	3.65
271.925	4.26
272.304	4.03
272.683	3.88
273.062	3.41
273.441	3.55
273.82	3.36
274.199	3.84
274.578	3.55
274.957	3.55
275.336	3.55
275.715	3.56
276.093	3.53
276.472	3.71
276.851	3.49
277.229	3.83
277.608	2.52
277.986	2.83
278.365	3.55
278.743	3.17
279.122	3.05
279.5	3.47
279.878	2.97
280.257	3.59
280.635	3.72
281.013	3.72
281.391	3.99
281.769	3.68
282.147	3.42
282.525	3.51
282.903	3.68
283.281	3.09
283.659	3.42
284.037	3.44
284.415	2.74
284.792	3.18
285.17	3.64
285.548	3.64
285.925	3.27
286.303	3.19
286.68	3.49
287.058	4.1
287.435	3.34
287.813	3.09
288.19	3.4
288.567	3.44
288.945	3.6
289.322	3.99
289.699	2.99
290.076	3.73
290.453	3.68
290.83	3.29
291.207	3.92
291.584	3.68
291.961	3.82
292.338	3.55
292.715	3.6
293.092	4.11
293.469	4.07
293.845	3.6
294.222	3.54
294.599	3.22
294.975	4.67
295.352	4.25
295.728	4.18
296.105	3.64
296.481	3.77
296.858	4.05
297.234	4.58
297.61	3.44
297.986	3.93
298.363	4.18
298.739	4.13
299.115	3.88
299.491	4.08
299.867	4.09
300.243	4.38
300.619	4.09
300.995	3.78
301.371	4.61
301.746	4.37
302.122	4.52
302.498	4.57
302.874	4.63
303.249	4.57
303.625	4.22
304	4.65
304.376	3.91
304.751	4.16
305.127	4.24
305.502	4.71
305.878	4.52
306.253	4.94
306.628	4.58
307.003	4.75
307.378	4.81
307.754	5.09
308.129	4.92
308.504	5.54
308.879	4.87
309.254	5.03
309.629	4.54
310.003	4.18
310.378	4.98
310.753	4.88
311.128	4.85
311.502	4.72
311.877	4.93
312.252	4.29
312.626	5.3
313.001	4.68
313.375	4.81
313.75	4.99
314.124	4.92
314.498	5.47
314.873	5.06
315.247	4.74
315.621	5
315.995	5.46
316.369	5.35
316.743	5.41
317.117	5.16
317.491	4.55
317.865	5
318.239	5.39
318.613	5.7
318.987	5.42
319.361	4.79
319.734	5.09
320.108	4.94
320.482	5.65
320.855	5.17
321.229	5.72
321.602	5.63
321.976	5.54
322.349	5.51
322.723	5.29
323.096	5.79
323.469	5.28
323.843	5.93
324.216	5.24
324.589	5.66
324.962	5.55
325.335	5.81
325.708	5.5
326.081	5.74
326.454	6.07
326.827	5.95
327.2	5.74
327.573	5.38
327.945	5.74
328.318	5.51
328.691	6.05
329.063	6.21
329.436	5.31
329.809	5.92
330.181	5.56
330.553	5.37
330.926	6.21
331.298	5.44
331.671	5.46
332.043	5.4
332.415	6.11
332.787	6.03
333.159	5.41
333.532	5.89
333.904	5.72
334.276	5.48
334.648	6.12
335.02	6.05
335.391	5.91
335.763	6.01
336.135	5.69
336.507	6.14
336.879	5.6
337.25	5.89
337.622	6.12
337.993	6.66
338.365	5.99
338.736	5.95
339.108	6.07
339.479	5.91
339.851	5.96
340.222	6.12
340.593	6.09
340.964	5.96
341.336	6.27
341.707	5.97
342.078	5.91
342.449	5.97
342.82	5.66
343.191	6.04
343.562	6.35
343.933	5.93
344.303	6.43
344.674	6.13
345.045	6.29
345.416	6.65
345.786	5.93
346.157	5.91
346.527	5.86
346.898	6.3
347.268	6.14
347.639	6.49
348.009	5.72
348.38	6.35
348.75	5.97
349.12	6.09
349.49	6.05
349.861	6.5
350.231	5.84
350.601	6.13
350.971	6.47
351.341	6.34
351.711	6.78
352.081	6.36
352.45	6.12
352.82	6.06
353.19	6.64
353.56	6.04
353.929	6.36
354.299	6.15
354.669	6.28
355.038	6.18
355.408	6.6
355.777	6.58
356.147	6.29
356.516	6.12
356.885	6.35
357.254	6.19
357.624	6.22
357.993	6.02
358.362	6.57
358.731	6.02
359.1	5.79
359.469	5.82
359.838	6.26
360.207	6.31
360.576	6.42
360.945	6.31
361.314	6.28
361.682	6.45
362.051	6.23
362.42	6.29
362.788	6.24
363.157	6.41
363.525	6.15
363.894	6.36
364.262	6.36
364.631	6.49
364.999	6.57
365.367	6.7
365.735	6.2
366.104	6.28
366.472	6.59
366.84	6.46
367.208	6.59
367.576	6.82
367.944	6.44
368.312	6.51
368.68	6.64
369.048	6.65
369.416	7.09
369.783	6.64
370.151	6.54
370.519	6.69
370.886	6.56
371.254	6.64
371.621	7.05
371.989	6.49
372.356	7.03
372.724	6.88
373.091	6.6
373.458	6.4
373.826	6.55
374.193	6.62
374.56	6.69
374.927	6.62
375.294	6.78
375.661	6.91
376.028	7.29
376.395	6.93
376.762	6.76
377.129	6.58
377.496	6.79
377.863	6.84
378.229	6.89
378.596	6.89
378.963	6.88
379.329	6.78
379.696	6.67
380.062	6.76
380.429	6.9
380.795	6.54
381.161	6.82
381.528	7.06
381.894	6.86
382.26	7.04
382.626	7.07
382.993	6.98
383.359	6.96
383.725	6.85
384.091	7.09
384.457	7.11
384.823	6.71
385.188	7.18
385.554	6.92
385.92	7.03
386.286	6.92
386.651	6.83
387.017	7.26
387.383	6.94
387.748	6.63
388.114	6.8
388.479	6.88
388.845	7.21
389.21	6.93
389.575	6.78
389.94	6.95
390.306	7.21
390.671	7.06
391.036	6.95
391.401	7.2
391.766	7.39
392.131	7.17
392.496	7.41
392.861	7.26
393.226	7.06
393.591	6.84
393.956	6.95
394.32	7.26
394.685	6.99
395.05	7.05
395.414	7.22
395.779	7.03
396.143	6.99
396.508	7.01
396.872	7.19
397.236	7.23
397.601	7.18
397.965	7.12
398.329	7.02
398.694	7.34
399.058	7.04
399.422	7.29
399.786	7.17
400.15	7.13
400.514	7.07
400.878	7.42
401.242	7.31
401.605	7.25
401.969	6.97
402.333	7.22
402.697	7.33
403.06	7.17
403.424	7.43
403.787	7.26
404.151	7.25
404.514	7.32
404.878	7.25
405.241	7.38
405.604	7.17
405.968	7.33
406.331	7.48
406.694	7.36
407.057	7.36
407.42	7.65
407.783	7.18
408.146	7.15
408.509	7.26
408.872	7.61
409.235	7.3
409.598	7.53
409.961	7.76
410.323	7.72
410.686	7.2
411.049	7.44
411.411	7.39
411.774	7.7
412.136	7.61
412.499	7.67
412.861	7.52
413.223	7.75
413.586	7.67
413.948	7.8
414.31	7.88
414.672	7.42
415.035	7.62
415.397	7.62
415.759	7.63
416.121	7.58
416.483	7.68
416.845	7.64
417.206	7.64
417.568	7.73
417.93	7.69
418.292	7.54
418.653	7.76
419.015	7.53
419.377	7.27
419.738	7.41
420.1	7.47
420.461	7.52
420.822	7.4
421.184	7.46
421.545	7.57
421.906	7.53
422.267	7.49
422.629	7.57
422.99	7.47
423.351	7.49
423.712	7.46
424.073	7.52
424.434	7.5
424.795	7.6
425.155	7.67
425.516	7.6
425.877	7.63
426.238	7.51
426.598	7.67
426.959	7.58
427.32	7.66
427.68	7.71
428.041	7.64
428.401	7.81
428.761	7.86
429.122	7.67
429.482	7.84
429.842	7.73
430.202	7.98
430.563	7.85
430.923	7.97
431.283	7.93
431.643	8
432.003	8.17
432.363	7.78
432.722	7.99
433.082	7.85
433.442	7.89
433.802	8.13
434.161	7.95
434.521	8.05
434.881	7.84
435.24	7.99
435.6	7.94
435.959	7.97
436.319	7.95
436.678	8.05
437.037	7.91
437.396	8.12
437.756	7.99
438.115	7.9
438.474	8.19
438.833	8.14
439.192	7.88
439.551	7.95
439.91	8.1
440.269	8.18
440.628	8.17
440.987	8.07
441.345	8.07
441.704	8.05
442.063	7.95
442.421	8.15
442.78	8.06
443.138	8.14
443.497	8.14
443.855	8.11
444.214	8.06
444.572	8.08
444.93	8.2
445.288	8.21
445.647	8.48
446.005	8.14
446.363	8.24
446.721	8.15
447.079	8.22
447.437	8.24
447.795	8
448.153	8.12
448.51	8.13
448.868	8.16
449.226	8.16
449.584	8.26
449.941	8.2
450.299	8.32
450.656	8.13
451.014	8.37
451.371	8.26
451.729	8.31
452.086	8.35
452.443	8.48
452.801	8.43
453.158	8.6
453.515	8.5
453.872	8.54
454.229	8.58
454.586	8.38
454.943	8.48
455.3	8.45
455.657	8.51
456.014	8.38
456.371	8.62
456.727	8.7
457.084	8.7
457.441	8.65
457.797	8.54
458.154	8.52
458.51	8.52
458.867	8.61
459.223	8.7
459.58	8.55
459.936	8.77
460.292	8.62
460.648	8.41
461.005	8.55
461.361	8.63
461.717	8.29
462.073	8.59
462.429	8.46
462.785	8.53
463.141	8.68
463.496	8.7
463.852	8.84
464.208	8.96
464.564	8.81
464.919	8.78
465.275	8.92
465.631	8.91
465.986	8.83
466.342	8.87
466.697	8.87
467.052	8.82
467.408	8.92
467.763	9.14
468.118	9.12
468.473	8.82
468.829	8.91
469.184	9.07
469.539	9
469.894	8.88
470.249	8.99
470.603	8.91
470.958	9.16
471.313	9.29
471.668	9.08
472.023	9.13
472.377	9.22
472.732	8.78
473.086	9.1
473.441	9.07
473.795	9.23
474.15	9.08
474.504	8.99
474.859	9.18
475.213	9.18
475.567	9.16
475.921	9.26
476.275	9.15
476.63	9.23
476.984	9.43
477.338	9.27
477.692	9.31
478.045	9.2
478.399	9.43
478.753	9.3
479.107	9.21
479.461	9.3
479.814	9.42
480.168	9.43
480.521	9.26
480.875	9.26
481.228	9.38
481.582	9.43
481.935	9.28
482.289	9.41
482.642	9.33
482.995	9.39
483.348	9.42
483.701	9.38
484.055	9.4
484.408	9.15
484.761	9.18
485.114	9.18
485.466	9.01
485.819	8.92
486.172	8.81
486.525	8.93
486.878	8.96
487.23	9.03
487.583	9.09
487.936	9.26
488.288	9.28
488.641	9.34
488.993	9.23
489.345	9.23
489.698	9.16
490.05	9.14
490.402	9.14
490.754	9.16
491.107	9.27
491.459	9.39
491.811	9.55
492.163	9.51
492.515	9.52
492.866	9.61
493.218	9.5
493.57	9.4
493.922	9.31
494.274	9.38
494.625	9.4
494.977	9.5
495.328	9.64
495.68	9.74
496.031	9.75
496.383	9.91
496.734	9.86
497.086	9.88
497.437	10
497.788	9.9
498.139	9.99
498.49	9.82
498.842	9.77
499.193	9.94
499.544	9.87
499.894	9.99
500.245	9.85
500.596	10.01
500.947	10.04
501.298	10.01
501.648	10.11
501.999	10.24
502.35	10.1
502.7	10.28
503.051	10.32
503.401	10.31
503.752	10.28
504.102	10.3
504.452	10.3
504.803	10.19
505.153	10.31
505.503	10.43
505.853	10.4
506.203	10.29
506.553	10.25
506.903	10.31
507.253	10.41
507.603	10.45
507.953	10.41
508.303	10.32
508.652	10.49
509.002	10.44
509.352	10.62
509.701	10.46
510.051	10.29
510.4	10.41
510.75	10.46
511.099	10.45
511.449	10.6
511.798	10.6
512.147	10.63
512.496	10.5
512.846	10.61
513.195	10.6
513.544	10.8
513.893	10.61
514.242	10.72
514.591	10.72
514.939	10.6
515.288	10.7
515.637	10.72
515.986	10.86
516.334	10.76
516.683	10.78
517.032	10.67
517.38	10.84
517.729	10.94
518.077	11.04
518.426	10.93
518.774	10.93
519.122	10.95
519.47	10.99
519.819	10.82
520.167	10.95
520.515	10.85
520.863	11.02
521.211	10.89
521.559	10.89
521.907	10.96
522.255	11.01
522.602	11.13
522.95	11.05
523.298	11.21
523.645	11.27
523.993	11.25
524.341	11.33
524.688	11.31
525.036	11.24
525.383	11.18
525.73	11.41
526.078	11.42
526.425	11.46
526.772	11.47
527.119	11.39
527.466	11.25
527.814	11.29
528.161	11.26
528.508	11.17
528.854	11.29
529.201	11.3
529.548	11.39
529.895	11.24
530.242	11.18
530.588	11
530.935	11.02
531.282	11.08
531.628	11.21
531.975	11.15
532.321	11.26
532.667	11.43
533.014	11.58
533.36	11.59
533.706	11.7
534.052	11.72
534.399	11.64
534.745	11.57
535.091	11.5
535.437	11.64
535.783	11.5
536.129	11.65
536.474	11.59
536.82	11.81
537.166	11.77
537.512	11.98
537.857	12.02
538.203	12
538.549	12.04
538.894	11.98
539.239	11.96
539.585	12.04
539.93	12.1
540.276	12.27
540.621	12.17
540.966	12.34
541.311	12.39
541.656	12.21
542.001	12.37
542.346	12.46
542.691	12.28
543.036	12.09
543.381	12.04
543.726	12.04
544.071	12.07
544.415	12.16
544.76	12.21
545.105	12.37
545.449	12.35
545.794	12.41
546.138	12.49
546.483	12.51
546.827	12.71
547.171	12.71
547.516	12.73
547.86	12.74
548.204	12.78
548.548	12.8
548.892	12.88
549.236	12.86
549.58	12.78
549.924	12.85
550.268	13.01
550.612	13.04
550.956	13.2
551.3	13.07
551.643	13.1
551.987	13.42
552.33	13.43
552.674	13.24
553.017	13.49
553.361	13.36
553.704	13.5
554.048	13.51
554.391	13.55
554.734	13.61
555.077	13.39
555.42	13.33
555.764	13.4
556.107	13.63
556.45	13.6
556.793	13.55
557.135	13.58
557.478	13.64
557.821	13.9
558.164	13.96
558.507	13.73
558.849	14.11
559.192	13.96
559.534	14.03
559.877	13.78
560.219	13.96
560.562	14.11
560.904	14.02
561.246	14.2
561.589	13.9
561.931	14.39
562.273	14.28
562.615	14.34
562.957	14.48
563.299	14.33
563.641	14.45
563.983	14.2
564.325	14.25
564.667	14.33
565.008	14.32
565.35	14.61
565.692	14.59
566.033	14.65
566.375	14.47
566.716	14.75
567.058	14.61
567.399	14.51
567.741	14.57
568.082	14.64
568.423	14.79
568.764	14.62
569.105	14.7
569.447	14.6
569.788	14.84
570.129	14.79
570.47	14.91
570.811	15.08
571.151	15.07
571.492	14.96
571.833	15.29
572.174	15.11
572.514	15.18
572.855	14.93
573.195	15.21
573.536	15.22
573.876	15.12
574.217	15
574.557	14.99
574.898	15.23
575.238	15.15
575.578	15.41
575.918	15.27
576.258	15.45
576.598	15.48
576.938	15.38
577.278	15.58
577.618	15.23
577.958	15.47
578.298	15.52
578.638	15.69
578.977	15.69
579.317	15.71
579.657	15.93
579.996	15.95
580.336	15.98
580.675	15.73
581.014	16.11
581.354	15.78
581.693	15.87
582.032	16.17
582.372	15.97
582.711	16.04
583.05	16.33
583.389	16.26
583.728	16.33
584.067	16.46
584.406	16.42
584.745	16.68
585.083	16.29
585.422	16.42
585.761	16.61
586.1	16.35
586.438	16.25
586.777	16.63
587.115	16.75
587.454	16.72
587.792	16.67
588.13	16.81
588.469	16.79
588.807	16.55
589.145	16.66
589.483	16.86
589.821	16.6
590.159	16.84
590.497	16.89
590.835	17.15
591.173	16.89
591.511	16.94
591.849	16.95
592.187	16.87
592.524	16.73
592.862	17.2
593.2	17.13
593.537	17.02
593.875	17.23
594.212	17.36
594.55	17.45
594.887	17.66
595.224	17.6
595.561	17.09
595.899	17.39
596.236	17.68
596.573	17.41
596.91	17.68
597.247	17.57
597.584	17.43
597.921	17.61
598.258	17.55
598.594	17.82
598.931	17.46
599.268	17.61
599.604	17.74
599.941	17.65
600.277	17.59
600.614	17.95
600.95	17.64
601.287	17.69
601.623	18.18
601.959	17.99
602.296	18.18
602.632	18.12
602.968	17.94
603.304	18.02
603.64	18.18
603.976	18.11
604.312	18.52
604.648	18.18
604.984	18.51
605.319	18.28
605.655	18.21
605.991	18.33
606.326	18.16
606.662	18.3
606.998	17.99
607.333	18.21
607.668	18.33
608.004	18.43
608.339	18.54
608.674	18.88
609.01	18.98
609.345	18.74
609.68	19.09
610.015	18.76
610.35	18.77
610.685	19.12
611.02	18.84
611.355	18.86
611.689	18.89
612.024	18.84
612.359	18.77
612.694	18.92
613.028	19.1
613.363	19.21
613.697	19.05
614.032	19.15
614.366	19.35
614.7	18.91
615.035	19.33
615.369	19.5
615.703	19.31
616.037	19.52
616.371	19.6
616.705	19.48
617.039	19.38
617.373	19.29
617.707	19.55
618.041	19.62
618.375	19.7
618.709	19.83
619.042	19.74
619.376	20.2
619.71	20.35
620.043	20.32
620.377	19.97
620.71	19.96
621.043	19.93
621.377	19.77
621.71	20.07
622.043	19.97
622.376	20.2
622.709	20.22
623.043	20.07
623.376	20.22
623.709	19.91
624.041	19.95
624.374	20.39
624.707	20.49
625.04	20.43
625.373	20.13
625.705	20.3
626.038	20.62
626.37	20.59
626.703	20.15
627.035	20.38
627.368	20.51
627.7	20.61
628.032	20.6
628.365	20.39
628.697	20.16
629.029	20.68
629.361	20.72
629.693	20.51
630.025	20.62
630.357	20.91
630.689	20.68
631.021	21.07
631.353	20.85
631.684	20.7
632.016	21.09
632.348	20.67
632.679	20.48
633.011	21.08
633.342	20.86
633.674	20.96
634.005	21.8
634.336	21.8
634.668	20.74
634.999	21.06
635.33	20.95
635.661	21.85
635.992	21.75
636.323	21.6
636.654	21.63
636.985	21.58
637.316	21.26
637.647	21.23
637.977	21.31
638.308	21.7
638.639	21.67
638.969	21.76
639.3	21.3
639.63	21.73
639.961	21.71
640.291	21.63
640.622	21.51
640.952	21.66
641.282	21.57
641.612	22.17
641.943	22.12
642.273	22.1
642.603	22
642.933	22.13
643.263	22.27
643.592	22.08
643.922	22.13
644.252	21.76
644.582	22.14
644.911	22.73
645.241	22.43
645.571	22.58
645.9	22.51
646.23	22.59
646.559	22.37
646.888	23.02
647.218	22.5
647.547	22.44
647.876	22.72
648.205	22.61
648.534	22.72
648.863	22.7
649.192	22.52
649.521	22.25
649.85	22.03
650.179	22.63
650.508	22.59
650.837	22.82
651.165	22.94
651.494	22.32
651.822	22.82
652.151	23.27
652.479	22.48
652.808	22.94
653.136	22.87
653.465	23.69
653.793	23.22
654.121	23.1
654.449	23.23
654.777	22.87
655.105	22.97
655.433	23.07
655.761	23.58
656.089	23.97
656.417	23.21
656.745	23.43
657.073	23.21
657.4	24.01
657.728	23.52
658.056	23.08
658.383	23.6
658.711	23.65
659.038	23.81
659.365	23.62
659.693	23.44
660.02	22.81
660.347	23.23
660.674	23.48
661.001	23.4
661.329	23.42
661.656	24.06
661.982	23.7
662.309	23.44
662.636	23.68
662.963	23.77
663.29	24.01
663.616	23.99
663.943	23.4
664.27	24.13
664.596	24.32
664.923	23.47
665.249	23.62
665.576	24.08
665.902	24
666.228	24.2
666.554	24.13
666.881	23.79
667.207	24.51
667.533	24.38
667.859	24.18
668.185	24.17
668.511	23.84
668.837	25.15
669.162	24.33
669.488	24.36
669.814	24
670.139	24.36
670.465	23.87
670.791	24.25
671.116	24.43
671.442	23.87
671.767	24.59
672.092	24.38
672.418	24.3
672.743	24.84
673.068	24.87
673.393	24.52
673.718	24.69
674.043	24.81
674.368	24.66
674.693	25.38
675.018	25.11
675.343	25.09
675.667	25.39
675.992	24.82
676.317	24.62
676.641	25.1
676.966	25.52
677.29	25.23
677.615	25.48
677.939	24.8
678.264	25.21
678.588	24.35
678.912	25.61
679.236	25.52
679.56	24.87
679.885	25.72
680.209	25.74
680.532	25.64
