Data from 0369_chest_Reflection__1__280.txt Node

Date: Fri Oct 20 22:57:11 CDT 2023
User: ToomeyLab
Spectrometer: FLMS14357
Trigger mode: 0
Integration Time (sec): 1.000000E-2
Scans to average: 100
Electric dark correction enabled: true
Nonlinearity correction enabled: false
Boxcar width: 0
XAxis mode: Wavelengths
Number of Pixels in Spectrum: 2048
>>>>>Begin Spectral Data<<<<<
189.047	582.03
189.435	582.03
189.823	582.03
190.211	118.14
190.599	190.61
190.987	118.15
191.375	645.7
191.763	110.61
192.151	129.17
192.538	96.79
192.926	29.36
193.314	57.55
193.702	143.55
194.089	241.38
194.477	34.75
194.864	-9.67
195.252	119.96
195.639	-654.6
196.027	43.76
196.414	69.3
196.801	203.91
197.189	-101.37
197.576	83.68
197.963	883.66
198.351	44.9
198.738	-4.76
199.125	8.04
199.512	22.63
199.899	51.95
200.286	-34.16
200.673	-9.23
201.06	22.19
201.447	-1.88
201.833	38.61
202.22	16.8
202.607	15.95
202.994	19.89
203.38	1.15
203.767	40.15
204.154	29.84
204.54	30.82
204.927	31.59
205.313	-11.85
205.699	37.67
206.086	20.96
206.472	23.49
206.858	31.73
207.245	-36.27
207.631	23.06
208.017	8.47
208.403	-8.26
208.789	23.14
209.175	23.35
209.561	7.01
209.947	4.09
210.333	-1.23
210.719	30.89
211.105	12.71
211.491	7.38
211.876	-10.99
212.262	33.37
212.648	19.02
213.034	3.12
213.419	4.24
213.805	1.11
214.19	19.17
214.576	-6.74
214.961	7.21
215.346	14.58
215.732	8.46
216.117	-11.83
216.502	36.78
216.888	0.73
217.273	-16.77
217.658	-8.19
218.043	-3.37
218.428	-14.38
218.813	-4.3
219.198	-6.51
219.583	-39.88
219.968	-4.94
220.353	12.29
220.738	9.24
221.122	6.23
221.507	19.3
221.892	9.47
222.276	17.17
222.661	5.35
223.046	7.49
223.43	-5.92
223.815	9.01
224.199	10.37
224.583	-11.91
224.968	-1.52
225.352	-5.97
225.736	0.14
226.121	6.72
226.505	-4.98
226.889	-0.05
227.273	4.63
227.657	6.17
228.041	5.83
228.425	0.85
228.809	2.42
229.193	2.67
229.577	2.17
229.961	0.93
230.344	0.54
230.728	0.97
231.112	1.98
231.495	1.26
231.879	1.65
232.263	1.1
232.646	0.81
233.03	0.25
233.413	-0.28
233.797	1.52
234.18	0.85
234.563	0.17
234.946	2.74
235.33	-0.04
235.713	1.49
236.096	1.59
236.479	0.85
236.862	0.13
237.245	0.2
237.628	0.38
238.011	1.53
238.394	-0.14
238.777	2.87
239.16	0.54
239.543	1.86
239.925	3.03
240.308	3.24
240.691	0.06
241.073	0.87
241.456	1.9
241.838	0.72
242.221	1.96
242.603	1.94
242.986	1.58
243.368	1.75
243.75	1.23
244.133	0.43
244.515	0.75
244.897	1.14
245.279	1.16
245.661	1.49
246.043	1.41
246.425	1.73
246.807	1.15
247.189	0.11
247.571	1.04
247.953	1.38
248.335	1.43
248.717	1.09
249.098	1.06
249.48	1.08
249.862	1.47
250.243	1.55
250.625	1.32
251.006	1.3
251.388	1.2
251.769	1.39
252.151	0.78
252.532	1.67
252.913	1.49
253.295	1.16
253.676	1.23
254.057	1.16
254.438	0.92
254.819	1.1
255.2	1.15
255.581	0.3
255.962	0.79
256.343	1.92
256.724	-0.93
257.105	2.13
257.486	1.95
257.867	2.28
258.247	1.18
258.628	0.72
259.009	0.94
259.389	0.76
259.77	0.88
260.15	1.44
260.531	1.63
260.911	1.52
261.292	1.06
261.672	1.33
262.052	1.36
262.432	1.42
262.813	1.17
263.193	1.53
263.573	0.84
263.953	1.52
264.333	1.19
264.713	1.29
265.093	1.71
265.473	1.37
265.853	1.46
266.233	1.94
266.612	1.01
266.992	1.61
267.372	1.06
267.752	0.82
268.131	1.28
268.511	1.71
268.89	1.37
269.27	0.74
269.649	1
270.029	1.1
270.408	1.75
270.787	1.12
271.167	1.53
271.546	1.08
271.925	1.74
272.304	1.88
272.683	1.37
273.062	1.38
273.441	1.01
273.82	1.28
274.199	1.55
274.578	1.64
274.957	1.36
275.336	1.53
275.715	1.72
276.093	1.17
276.472	0.86
276.851	1.74
277.229	1.77
277.608	1.01
277.986	0.94
278.365	1.68
278.743	1.11
279.122	0.55
279.5	1.21
279.878	0.45
280.257	1.11
280.635	1.25
281.013	1.34
281.391	1.87
281.769	1.42
282.147	1.29
282.525	1.4
282.903	1.58
283.281	1.25
283.659	1.03
284.037	1.19
284.415	0.78
284.792	1
285.17	1.2
285.548	1.59
285.925	0.98
286.303	0.98
286.68	1.08
287.058	1.61
287.435	1.45
287.813	1.21
288.19	1.19
288.567	1.35
288.945	1.5
289.322	1.53
289.699	0.42
290.076	1.43
290.453	1.66
290.83	0.99
291.207	1.7
291.584	0.97
291.961	1.06
292.338	0.84
292.715	1.4
293.092	1.47
293.469	1.41
293.845	1.26
294.222	0.97
294.599	1.86
294.975	1.87
295.352	1.22
295.728	1.53
296.105	1.37
296.481	1.09
296.858	1.39
297.234	1.55
297.61	1.14
297.986	1.23
298.363	1.54
298.739	1.35
299.115	1.44
299.491	1.47
299.867	1.58
300.243	1.44
300.619	1.35
300.995	1.34
301.371	1.48
301.746	1.73
302.122	1.8
302.498	1.55
302.874	1.66
303.249	1.3
303.625	1.81
304	1.71
304.376	1.29
304.751	1.38
305.127	1.38
305.502	2.26
305.878	1.91
306.253	1.56
306.628	1.33
307.003	1.59
307.378	1.68
307.754	1.75
308.129	2.09
308.504	1.92
308.879	1.83
309.254	2.21
309.629	1.6
310.003	1.57
310.378	2.22
310.753	1.91
311.128	2.21
311.502	1.68
311.877	1.56
312.252	1.69
312.626	2.28
313.001	1.93
313.375	1.76
313.75	1.82
314.124	1.43
314.498	1.86
314.873	1.49
315.247	1.58
315.621	1.57
315.995	2.32
316.369	1.46
316.743	2.33
317.117	1.79
317.491	1.47
317.865	2.41
318.239	2.52
318.613	2.07
318.987	1.37
319.361	1.69
319.734	1.62
320.108	1.83
320.482	1.93
320.855	1.58
321.229	2.45
321.602	2.05
321.976	1.85
322.349	2.57
322.723	2.18
323.096	2.02
323.469	1.83
323.843	1.7
324.216	2.37
324.589	2.23
324.962	2.49
325.335	2.61
325.708	2.17
326.081	1.88
326.454	2.33
326.827	2.33
327.2	2.43
327.573	2.57
327.945	2.2
328.318	2.05
328.691	2.02
329.063	2.39
329.436	1.84
329.809	2.28
330.181	2.37
330.553	2.09
330.926	2.05
331.298	1.88
331.671	1.2
332.043	2.02
332.415	2.4
332.787	2.83
333.159	1.77
333.532	2.48
333.904	1.94
334.276	1.63
334.648	1.98
335.02	2.44
335.391	2.24
335.763	2.41
336.135	2.23
336.507	2.64
336.879	2.21
337.25	2.52
337.622	2.75
337.993	3.07
338.365	2.25
338.736	2.4
339.108	2.37
339.479	2.1
339.851	2.18
340.222	1.88
340.593	1.99
340.964	2.41
341.336	2.54
341.707	2.63
342.078	2.28
342.449	2.23
342.82	2.44
343.191	2.1
343.562	2.59
343.933	2.26
344.303	2.52
344.674	2.63
345.045	2.51
345.416	2.63
345.786	2.42
346.157	3.1
346.527	2.17
346.898	2.85
347.268	2.49
347.639	2.84
348.009	2.71
348.38	2.5
348.75	2.5
349.12	2.55
349.49	2.46
349.861	2.97
350.231	1.95
350.601	2.3
350.971	2.82
351.341	2.6
351.711	2.91
352.081	2.86
352.45	2.6
352.82	2.47
353.19	2.84
353.56	2.67
353.929	2.36
354.299	2.33
354.669	2.57
355.038	2.75
355.408	2.74
355.777	2.79
356.147	2.87
356.516	2.19
356.885	2.63
357.254	2.64
357.624	2.47
357.993	2.4
358.362	2.37
358.731	2.12
359.1	2.21
359.469	2.13
359.838	2.7
360.207	2.7
360.576	2.91
360.945	2.49
361.314	2.56
361.682	2.55
362.051	2.59
362.42	2.2
362.788	2.62
363.157	2.67
363.525	2.5
363.894	2.68
364.262	2.38
364.631	2.46
364.999	2.49
365.367	2.55
365.735	2.7
366.104	2.49
366.472	2.5
366.84	2.51
367.208	2.55
367.576	2.24
367.944	2.74
368.312	2.55
368.68	2.63
369.048	2.75
369.416	2.67
369.783	2.5
370.151	2.82
370.519	2.63
370.886	2.79
371.254	2.76
371.621	2.88
371.989	2.63
372.356	2.8
372.724	3.1
373.091	2.64
373.458	2.52
373.826	2.46
374.193	2.45
374.56	2.87
374.927	2.92
375.294	2.87
375.661	2.71
376.028	2.81
376.395	2.84
376.762	2.44
377.129	2.74
377.496	2.83
377.863	2.9
378.229	3.1
378.596	3.09
378.963	2.75
379.329	3.07
379.696	2.81
380.062	2.96
380.429	2.65
380.795	2.62
381.161	2.87
381.528	2.91
381.894	2.72
382.26	2.67
382.626	2.97
382.993	2.82
383.359	2.88
383.725	2.79
384.091	2.78
384.457	2.89
384.823	2.76
385.188	2.88
385.554	2.62
385.92	2.57
386.286	2.88
386.651	2.42
387.017	2.87
387.383	2.72
387.748	2.81
388.114	2.62
388.479	2.66
388.845	3.26
389.21	2.8
389.575	2.53
389.94	2.81
390.306	2.96
390.671	2.86
391.036	2.97
391.401	2.89
391.766	3.21
392.131	2.73
392.496	2.99
392.861	2.73
393.226	2.88
393.591	2.68
393.956	2.99
394.32	3.08
394.685	2.79
395.05	3.04
395.414	2.98
395.779	2.68
396.143	2.77
396.508	2.81
396.872	2.84
397.236	2.95
397.601	2.64
397.965	2.92
398.329	2.85
398.694	3.1
399.058	2.73
399.422	2.92
399.786	2.91
400.15	2.63
400.514	2.71
400.878	3.11
401.242	2.92
401.605	3.04
401.969	2.62
402.333	2.81
402.697	2.92
403.06	2.91
403.424	3
403.787	2.93
404.151	2.97
404.514	2.78
404.878	2.95
405.241	2.8
405.604	2.86
405.968	3.15
406.331	2.91
406.694	2.89
407.057	2.91
407.42	3.26
407.783	2.83
408.146	2.96
408.509	3.02
408.872	3.31
409.235	2.94
409.598	3.14
409.961	3.03
410.323	2.98
410.686	2.71
411.049	3.21
411.411	2.89
411.774	3.09
412.136	2.98
412.499	2.87
412.861	3.06
413.223	3
413.586	3
413.948	3.15
414.31	3.37
414.672	2.77
415.035	2.97
415.397	3.07
415.759	3.13
416.121	2.91
416.483	3.1
416.845	2.82
417.206	3
417.568	3.01
417.93	2.97
418.292	2.91
418.653	3.01
419.015	2.9
419.377	3.06
419.738	2.94
420.1	3.04
420.461	3.04
420.822	2.93
421.184	3.04
421.545	2.97
421.906	2.93
422.267	2.9
422.629	2.94
422.99	2.85
423.351	2.98
423.712	2.9
424.073	2.93
424.434	2.86
424.795	2.87
425.155	3.06
425.516	2.92
425.877	2.95
426.238	2.84
426.598	2.96
426.959	2.96
427.32	2.94
427.68	2.93
428.041	2.9
428.401	3.14
428.761	3.08
429.122	2.92
429.482	3.01
429.842	3.07
430.202	2.99
430.563	2.97
430.923	3.05
431.283	3
431.643	3.17
432.003	3.26
432.363	3.09
432.722	3.18
433.082	2.95
433.442	2.94
433.802	3.24
434.161	2.99
434.521	3.25
434.881	3.05
435.24	3.2
435.6	2.92
435.959	2.99
436.319	3.18
436.678	3.18
437.037	3.01
437.396	3.19
437.756	3.14
438.115	2.98
438.474	3.19
438.833	3.29
439.192	3.07
439.551	3.18
439.91	3.04
440.269	3.12
440.628	3.14
440.987	3.18
441.345	2.96
441.704	3.14
442.063	3.2
442.421	3.14
442.78	3.09
443.138	3.23
443.497	3.17
443.855	3.27
444.214	3.14
444.572	3.12
444.93	3.23
445.288	3.12
445.647	3.46
446.005	3.11
446.363	3.07
446.721	3.1
447.079	3.38
447.437	3.1
447.795	2.97
448.153	3.11
448.51	3.13
448.868	3.18
449.226	3.08
449.584	3.2
449.941	3.17
450.299	3.21
450.656	3.15
451.014	3.29
451.371	3.26
451.729	3.39
452.086	3.22
452.443	3.33
452.801	3.27
453.158	3.33
453.515	3.26
453.872	3.38
454.229	3.51
454.586	3.3
454.943	3.31
455.3	3.17
455.657	3.43
456.014	3.23
456.371	3.22
456.727	3.32
457.084	3.2
457.441	3.2
457.797	3.36
458.154	3.31
458.51	3.31
458.867	3.24
459.223	3.23
459.58	3.28
459.936	3.47
460.292	3.33
460.648	3.15
461.005	3.29
461.361	3.32
461.717	3.14
462.073	3.3
462.429	3.17
462.785	3.21
463.141	3.44
463.496	3.35
463.852	3.41
464.208	3.41
464.564	3.45
464.919	3.31
465.275	3.4
465.631	3.63
465.986	3.38
466.342	3.35
466.697	3.29
467.052	3.24
467.408	3.51
467.763	3.52
468.118	3.64
468.473	3.46
468.829	3.37
469.184	3.49
469.539	3.5
469.894	3.45
470.249	3.42
470.603	3.35
470.958	3.67
471.313	3.71
471.668	3.55
472.023	3.43
472.377	3.51
472.732	3.24
473.086	3.43
473.441	3.5
473.795	3.76
474.15	3.24
474.504	3.34
474.859	3.38
475.213	3.63
475.567	3.42
475.921	3.57
476.275	3.47
476.63	3.62
476.984	3.62
477.338	3.42
477.692	3.52
478.045	3.63
478.399	3.52
478.753	3.57
479.107	3.51
479.461	3.5
479.814	3.63
480.168	3.67
480.521	3.54
480.875	3.58
481.228	3.61
481.582	3.66
481.935	3.56
482.289	3.49
482.642	3.46
482.995	3.47
483.348	3.51
483.701	3.54
484.055	3.47
484.408	3.46
484.761	3.39
485.114	3.39
485.466	3.32
485.819	3.29
486.172	3.25
486.525	3.24
486.878	3.32
487.23	3.4
487.583	3.41
487.936	3.37
488.288	3.46
488.641	3.59
488.993	3.39
489.345	3.42
489.698	3.43
490.05	3.39
490.402	3.38
490.754	3.41
491.107	3.51
491.459	3.5
491.811	3.58
492.163	3.53
492.515	3.53
492.866	3.6
493.218	3.53
493.57	3.43
493.922	3.38
494.274	3.45
494.625	3.52
494.977	3.52
495.328	3.63
495.68	3.66
496.031	3.68
496.383	3.77
496.734	3.77
497.086	3.75
497.437	3.79
497.788	3.64
498.139	3.85
498.49	3.63
498.842	3.63
499.193	3.67
499.544	3.76
499.894	3.72
500.245	3.67
500.596	3.72
500.947	3.79
501.298	3.76
501.648	3.73
501.999	3.77
502.35	3.76
502.7	3.91
503.051	3.75
503.401	3.86
503.752	3.87
504.102	3.93
504.452	3.79
504.803	3.77
505.153	3.89
505.503	3.83
505.853	3.89
506.203	3.9
506.553	3.72
506.903	3.9
507.253	3.92
507.603	3.87
507.953	3.88
508.303	3.79
508.652	3.95
509.002	3.84
509.352	4
509.701	3.95
510.051	3.74
510.4	3.82
510.75	3.9
511.099	3.84
511.449	3.99
511.798	3.94
512.147	4
512.496	3.85
512.846	3.9
513.195	3.95
513.544	3.95
513.893	3.9
514.242	3.87
514.591	3.94
514.939	3.96
515.288	3.96
515.637	4
515.986	4.02
516.334	3.91
516.683	4.03
517.032	3.87
517.38	3.94
517.729	4.11
518.077	4.1
518.426	4.04
518.774	3.9
519.122	4.03
519.47	4.07
519.819	3.94
520.167	3.99
520.515	4.01
520.863	4.08
521.211	3.88
521.559	4.06
521.907	4.08
522.255	3.98
522.602	4.18
522.95	4.05
523.298	4.09
523.645	4.19
523.993	4.15
524.341	4.15
524.688	4.23
525.036	4.2
525.383	4.06
525.73	4.32
526.078	4.14
526.425	4.25
526.772	4.11
527.119	4.18
527.466	4.06
527.814	4.17
528.161	4.18
528.508	4.1
528.854	4.14
529.201	4.11
529.548	4.22
529.895	4.12
530.242	4.02
530.588	3.97
530.935	3.99
531.282	4.05
531.628	4.09
531.975	4.05
532.321	4.12
532.667	4.16
533.014	4.23
533.36	4.26
533.706	4.36
534.052	4.26
534.399	4.23
534.745	4.14
535.091	4.14
535.437	4.28
535.783	4.22
536.129	4.26
536.474	4.29
536.82	4.35
537.166	4.31
537.512	4.44
537.857	4.45
538.203	4.39
538.549	4.56
538.894	4.26
539.239	4.4
539.585	4.37
539.93	4.53
540.276	4.52
540.621	4.61
540.966	4.63
541.311	4.59
541.656	4.69
542.001	4.57
542.346	4.52
542.691	4.52
543.036	4.46
543.381	4.39
543.726	4.36
544.071	4.38
544.415	4.43
544.76	4.46
545.105	4.57
545.449	4.56
545.794	4.58
546.138	4.63
546.483	4.66
546.827	4.67
547.171	4.7
547.516	4.62
547.86	4.78
548.204	4.72
548.548	4.77
548.892	4.69
549.236	4.81
549.58	4.65
549.924	4.7
550.268	4.81
550.612	4.86
550.956	5.14
551.3	4.9
551.643	4.99
551.987	5.11
552.33	4.95
552.674	4.84
553.017	5.08
553.361	5.07
553.704	4.99
554.048	4.91
554.391	5.04
554.734	5.09
555.077	4.93
555.42	4.99
555.764	4.99
556.107	5.21
556.45	4.96
556.793	4.99
557.135	5.13
557.478	5.3
557.821	5.21
558.164	5.4
558.507	5.29
558.849	5.32
559.192	5.31
559.534	5.36
559.877	5.01
560.219	5.38
560.562	5.47
560.904	5.28
561.246	5.34
561.589	5.31
561.931	5.43
562.273	5.31
562.615	5.52
562.957	5.44
563.299	5.19
563.641	5.34
563.983	5.41
564.325	5.35
564.667	5.49
565.008	5.28
565.35	5.42
565.692	5.51
566.033	5.57
566.375	5.44
566.716	5.51
567.058	5.45
567.399	5.55
567.741	5.5
568.082	5.68
568.423	5.72
568.764	5.48
569.105	5.72
569.447	5.49
569.788	5.71
570.129	5.67
570.47	5.66
570.811	5.79
571.151	5.58
571.492	5.62
571.833	5.9
572.174	5.79
572.514	5.84
572.855	5.79
573.195	5.68
573.536	5.64
573.876	5.9
574.217	5.82
574.557	5.72
574.898	5.73
575.238	5.68
575.578	6.01
575.918	5.84
576.258	6.12
576.598	6.02
576.938	5.86
577.278	6.07
577.618	5.78
577.958	5.84
578.298	5.95
578.638	6.11
578.977	6.05
579.317	5.95
579.657	6.09
579.996	6.11
580.336	6.12
580.675	6.23
581.014	6.12
581.354	6.27
581.693	6.28
582.032	6.3
582.372	6.35
582.711	6.51
583.05	6.41
583.389	6.53
583.728	6.47
584.067	6.37
584.406	6.37
584.745	6.37
585.083	6.45
585.422	6.57
585.761	6.51
586.1	6.54
586.438	6.44
586.777	6.4
587.115	6.77
587.454	6.63
587.792	6.5
588.13	6.57
588.469	6.73
588.807	6.4
589.145	6.48
589.483	6.38
589.821	6.54
590.159	6.59
590.497	6.56
590.835	6.5
591.173	6.5
591.511	6.86
591.849	6.59
592.187	6.65
592.524	6.43
592.862	6.69
593.2	6.96
593.537	6.69
593.875	6.57
594.212	6.93
594.55	6.94
594.887	6.91
595.224	6.87
595.561	6.76
595.899	6.87
596.236	6.96
596.573	6.89
596.91	7.02
597.247	6.97
597.584	7.14
597.921	6.95
598.258	6.91
598.594	7.14
598.931	6.83
599.268	7.09
599.604	7.14
599.941	7.13
600.277	7.02
600.614	7.18
600.95	7.25
601.287	7.24
601.623	7.27
601.959	7.28
602.296	7.19
602.632	7.57
602.968	7.17
603.304	7.43
603.64	7.15
603.976	7.39
604.312	7.63
604.648	7.37
604.984	7.63
605.319	7.42
605.655	7.29
605.991	7.46
606.326	7.33
606.662	7.35
606.998	7.18
607.333	7.28
607.668	7.31
608.004	7.54
608.339	7.38
608.674	7.61
609.01	7.75
609.345	7.84
609.68	7.63
610.015	7.69
610.35	7.77
610.685	7.81
611.02	7.74
611.355	7.5
611.689	7.48
612.024	7.81
612.359	7.8
612.694	7.94
613.028	7.89
613.363	7.75
613.697	7.77
614.032	7.93
614.366	8.13
614.7	7.91
615.035	7.85
615.369	8.25
615.703	7.66
616.037	8.25
616.371	8.2
616.705	7.95
617.039	8.01
617.373	7.86
617.707	8.08
618.041	8.24
618.375	8.06
618.709	8.43
619.042	8.36
619.376	8.61
619.71	8.76
620.043	8.21
620.377	8.18
620.71	8.1
621.043	8.41
621.377	8.23
621.71	8.22
622.043	8.37
622.376	8.76
622.709	8.41
623.043	8.3
623.376	8.29
623.709	8.44
624.041	8.57
624.374	8.61
624.707	8.38
625.04	8.33
625.373	8.68
625.705	8.5
626.038	8.64
626.37	8.45
626.703	8.41
627.035	8.59
627.368	8.8
627.7	9.04
628.032	8.84
628.365	9.1
628.697	8.7
629.029	8.79
629.361	8.53
629.693	8.61
630.025	8.89
630.357	9.03
630.689	8.48
631.021	9.04
631.353	8.78
631.684	8.86
632.016	8.91
632.348	8.8
632.679	8.94
633.011	9.02
633.342	8.54
633.674	9.13
634.005	9.49
634.336	9.41
634.668	9.01
634.999	9.28
635.33	8.76
635.661	9.17
635.992	9.24
636.323	9.33
636.654	9.55
636.985	9.41
637.316	9.34
637.647	9.49
637.977	9.1
638.308	9.31
638.639	9.31
638.969	9.5
639.3	8.85
639.63	9.65
639.961	9.41
640.291	9.46
640.622	9.41
640.952	9.83
641.282	9.34
641.612	9.86
641.943	9.85
642.273	9.75
642.603	9.51
642.933	9.49
643.263	9.9
643.592	9.79
643.922	9.69
644.252	9.49
644.582	9.31
644.911	9.79
645.241	10.13
645.571	10.6
645.9	9.56
646.23	9.77
646.559	9.77
646.888	10.13
647.218	9.82
647.547	9.71
647.876	9.84
648.205	9.95
648.534	9.72
648.863	10.05
649.192	9.98
649.521	9.81
649.85	10.3
650.179	10.28
650.508	10.3
650.837	10.58
651.165	10.63
651.494	9.98
651.822	10.31
652.151	10.74
652.479	10.58
652.808	10.49
653.136	10.08
653.465	10.81
653.793	10.48
654.121	10.69
654.449	10.68
654.777	10.28
655.105	10.47
655.433	10.56
655.761	10.69
656.089	10.73
656.417	10.35
656.745	10.34
657.073	10.57
657.4	11.17
657.728	11.03
658.056	10.71
658.383	10.39
658.711	10.49
659.038	10.81
659.365	10.97
659.693	10.82
660.02	10.52
660.347	10.37
660.674	10.88
661.001	10.42
661.329	10.46
661.656	10.75
661.982	10.57
662.309	10.73
662.636	10.37
662.963	11.17
663.29	11.08
663.616	10.76
663.943	10.51
664.27	11.25
664.596	10.95
664.923	10.8
665.249	10.67
665.576	10.82
665.902	10.76
666.228	11.3
666.554	10.91
666.881	10.76
667.207	11.53
667.533	11.18
667.859	11.12
668.185	11.45
668.511	11.47
668.837	11.87
669.162	11.22
669.488	11.22
669.814	10.71
670.139	11.11
670.465	11.49
670.791	12.1
671.116	11.35
671.442	11.14
671.767	11.53
672.092	11.66
672.418	11.18
672.743	11.54
673.068	11.95
673.393	11.48
673.718	11.63
674.043	11.49
674.368	11.07
674.693	11.68
675.018	12.21
675.343	11.65
675.667	11.95
675.992	12.35
676.317	11.86
676.641	11.94
676.966	12.33
677.29	11.2
677.615	11.68
677.939	11.91
678.264	12.42
678.588	11.42
678.912	12.19
679.236	11.73
679.56	11.95
679.885	12.18
680.209	11.55
680.532	11.33
680.856	11.63
681.18	12.11
681.504	12.16
681.828	12.19
682.152	12.42
682.475	11.38
682.799	12.01
683.122	11.46
683.446	12.26
683.769	12.77
684.093	12.02
684.416	12.47
684.739	11.93
685.062	11.94
685.386	11.99
685.709	11.85
686.032	12.24
686.355	12.79
686.678	12.08
687.001	12.59
687.324	12
687.646	12.75
687.969	12.86
688.292	12.29
688.614	12.66
688.937	12.1
689.26	12.25
689.582	11.72
