Data from 0369_chest_Reflection__4__283.txt Node

Date: Fri Oct 20 22:58:14 CDT 2023
User: ToomeyLab
Spectrometer: FLMS14357
Trigger mode: 0
Integration Time (sec): 1.000000E-2
Scans to average: 100
Electric dark correction enabled: true
Nonlinearity correction enabled: false
Boxcar width: 0
XAxis mode: Wavelengths
Number of Pixels in Spectrum: 2048
>>>>>Begin Spectral Data<<<<<
189.047	1316.59
189.435	1316.59
189.823	1316.59
190.211	117.49
190.599	268.49
190.987	110.05
191.375	-25.92
191.763	184.9
192.151	-601.78
192.538	67.75
192.926	-50.25
193.314	66.93
193.702	488.03
194.089	51.87
194.477	-4.14
194.864	196.36
195.252	139.79
195.639	-1136.81
196.027	-22.48
196.414	79.05
196.801	426.63
197.189	-402.23
197.576	4.67
197.963	248.91
198.351	43.94
198.738	28.48
199.125	29.45
199.512	54.98
199.899	37.19
200.286	20.18
200.673	41.84
201.06	-17.93
201.447	18.89
201.833	46.53
202.22	40.42
202.607	42.12
202.994	33.86
203.38	11.49
203.767	31.32
204.154	7.51
204.54	22.63
204.927	22.11
205.313	-5.36
205.699	18.48
206.086	24.08
206.472	26.83
206.858	44.66
207.245	74.69
207.631	25.49
208.017	-7.97
208.403	1
208.789	24.74
209.175	-42.92
209.561	19.6
209.947	7.37
210.333	13.86
210.719	21.19
211.105	10.66
211.491	35.29
211.876	-0.41
212.262	50.4
212.648	31.25
213.034	15.24
213.419	23.38
213.805	8.32
214.19	15.77
214.576	1.26
214.961	8.53
215.346	27.86
215.732	21.56
216.117	-28.02
216.502	8.88
216.888	15.05
217.273	2.22
217.658	2.6
218.043	10.04
218.428	-6.02
218.813	5.34
219.198	-1.28
219.583	-0.79
219.968	-13.4
220.353	17.9
220.738	9.68
221.122	10.56
221.507	7.26
221.892	12.79
222.276	14.07
222.661	12.11
223.046	22.73
223.43	18.85
223.815	16.35
224.199	21.23
224.583	1.16
224.968	1.47
225.352	0.81
225.736	11.56
226.121	7.65
226.505	7.08
226.889	7.68
227.273	7.36
227.657	9.42
228.041	12.13
228.425	4.68
228.809	9.36
229.193	4.03
229.577	8.46
229.961	4.85
230.344	4.89
230.728	4.33
231.112	6.15
231.495	5.05
231.879	6.16
232.263	5.64
232.646	4.2
233.03	5.74
233.413	5.7
233.797	5.44
234.18	6.49
234.563	6.78
234.946	5.53
235.33	7.53
235.713	5.8
236.096	6.52
236.479	6.48
236.862	5.16
237.245	4.71
237.628	5.68
238.011	6.75
238.394	4.74
238.777	8.04
239.16	6.85
239.543	6.81
239.925	6
240.308	5.11
240.691	6.37
241.073	7.06
241.456	6.11
241.838	6.86
242.221	6.94
242.603	5.71
242.986	5.89
243.368	6.27
243.75	5.36
244.133	5.09
244.515	5.21
244.897	5.2
245.279	5.41
245.661	5.37
246.043	5.64
246.425	5.32
246.807	4.35
247.189	5.42
247.571	5.06
247.953	5.58
248.335	5.43
248.717	4.98
249.098	4.72
249.48	4.95
249.862	5.18
250.243	5.31
250.625	4.83
251.006	5.36
251.388	4.98
251.769	5.44
252.151	5.25
252.532	5.67
252.913	4.62
253.295	3.77
253.676	5.24
254.057	4.82
254.438	4.86
254.819	4.85
255.2	4.68
255.581	4.5
255.962	5.92
256.343	5.9
256.724	3.98
257.105	5.26
257.486	5.49
257.867	5.24
258.247	5.84
258.628	4.4
259.009	4.93
259.389	5.37
259.77	4.66
260.15	5.27
260.531	5.14
260.911	5.02
261.292	4.62
261.672	4.68
262.052	4.8
262.432	4.77
262.813	4.64
263.193	4.99
263.573	4.93
263.953	4.94
264.333	5
264.713	5.2
265.093	4.83
265.473	4.63
265.853	3.71
266.233	4.57
266.612	4.45
266.992	4.72
267.372	4.55
267.752	4.89
268.131	4.99
268.511	5.18
268.89	5.05
269.27	4.92
269.649	4.66
270.029	5.03
270.408	4.72
270.787	5.54
271.167	4.68
271.546	5.23
271.925	5.15
272.304	5.24
272.683	4.83
273.062	5.08
273.441	4.77
273.82	4.7
274.199	5.34
274.578	4.85
274.957	4.92
275.336	4.87
275.715	4.83
276.093	4.53
276.472	5.05
276.851	5.02
277.229	4.79
277.608	4.43
277.986	4.3
278.365	5.5
278.743	4.49
279.122	4.74
279.5	4.67
279.878	4.31
280.257	4.49
280.635	4.53
281.013	5.11
281.391	5.41
281.769	4.77
282.147	3.88
282.525	4.53
282.903	4.53
283.281	4.63
283.659	4.47
284.037	4.8
284.415	4.34
284.792	4.41
285.17	4.55
285.548	4.44
285.925	4.69
286.303	4.14
286.68	4.33
287.058	4.7
287.435	4.77
287.813	3.9
288.19	4.36
288.567	4.44
288.945	4.84
289.322	5.12
289.699	3.71
290.076	4.86
290.453	4.49
290.83	4.73
291.207	4.82
291.584	4.47
291.961	4.4
292.338	4.38
292.715	4.57
293.092	4.2
293.469	4.61
293.845	4.28
294.222	4.48
294.599	4.1
294.975	5.15
295.352	4.89
295.728	4.67
296.105	4.31
296.481	4.62
296.858	4.5
297.234	4.51
297.61	4.48
297.986	4.61
298.363	4.21
298.739	4.61
299.115	4.27
299.491	4.45
299.867	4.4
300.243	4.47
300.619	4.28
300.995	5.03
301.371	4.89
301.746	4.87
302.122	4.98
302.498	4.29
302.874	4.41
303.249	4.19
303.625	4.51
304	5.18
304.376	4.08
304.751	4.1
305.127	4.27
305.502	4.94
305.878	4.49
306.253	4.52
306.628	4.36
307.003	4.56
307.378	4.39
307.754	4.89
308.129	4.95
308.504	4.47
308.879	4.33
309.254	4.5
309.629	4.06
310.003	3.88
310.378	4.42
310.753	4.49
311.128	4.73
311.502	4.22
311.877	4.55
312.252	4.19
312.626	4.76
313.001	4.54
313.375	4.3
313.75	4.29
314.124	4.21
314.498	4.57
314.873	4.18
315.247	4.18
315.621	4.47
315.995	4.29
316.369	4.46
316.743	5.2
317.117	4.57
317.491	4.06
317.865	4.7
318.239	4.76
318.613	4.69
318.987	4.19
319.361	3.51
319.734	4.19
320.108	4.19
320.482	5.12
320.855	4.01
321.229	5.14
321.602	4.53
321.976	4.11
322.349	4.74
322.723	3.97
323.096	4.78
323.469	3.98
323.843	4.82
324.216	4.52
324.589	4.42
324.962	4.44
325.335	4.61
325.708	4.4
326.081	4.42
326.454	4.74
326.827	4.68
327.2	4.72
327.573	4.48
327.945	4.74
328.318	4.43
328.691	4.7
329.063	5.31
329.436	3.89
329.809	4.43
330.181	4.46
330.553	4.65
330.926	4.51
331.298	4.56
331.671	4.01
332.043	4.21
332.415	4.52
332.787	4.66
333.159	4.18
333.532	4.26
333.904	4.7
334.276	4.02
334.648	4.68
335.02	4.71
335.391	4.09
335.763	4.66
336.135	4.76
336.507	4.36
336.879	4.35
337.25	4.61
337.622	4.66
337.993	5.03
338.365	4.49
338.736	4.53
339.108	5.06
339.479	4.26
339.851	4.54
340.222	3.96
340.593	3.83
340.964	4.49
341.336	4.95
341.707	4.93
342.078	4.57
342.449	4.1
342.82	4.68
343.191	4.03
343.562	4.39
343.933	4.35
344.303	4.46
344.674	4.67
345.045	4.96
345.416	4.75
345.786	4.7
346.157	4.62
346.527	4.42
346.898	4.23
347.268	4.45
347.639	4.66
348.009	4.53
348.38	5.09
348.75	4.5
349.12	4.64
349.49	4.45
349.861	4.66
350.231	4.36
350.601	4.11
350.971	4.82
351.341	4.72
351.711	5.33
352.081	4.41
352.45	4.4
352.82	4.7
353.19	4.79
353.56	4.54
353.929	4.7
354.299	4.19
354.669	4.82
355.038	4.85
355.408	4.71
355.777	4.71
356.147	4.3
356.516	4.2
356.885	4.54
357.254	4.32
357.624	4.26
357.993	4.25
358.362	4.46
358.731	4.42
359.1	4.24
359.469	4.67
359.838	4.8
360.207	4.64
360.576	4.8
360.945	4.46
361.314	4.56
361.682	4.67
362.051	4.31
362.42	4.17
362.788	4.59
363.157	4.57
363.525	4.61
363.894	4.6
364.262	4.57
364.631	4.7
364.999	4.71
365.367	4.69
365.735	4.63
366.104	4.48
366.472	4.55
366.84	4.76
367.208	4.51
367.576	4.69
367.944	4.77
368.312	4.34
368.68	4.53
369.048	4.61
369.416	4.64
369.783	4.75
370.151	4.8
370.519	4.58
370.886	4.81
371.254	5.09
371.621	4.56
371.989	4.24
372.356	4.59
372.724	4.92
373.091	4.55
373.458	4.35
373.826	4.63
374.193	4.66
374.56	4.63
374.927	4.42
375.294	4.65
375.661	5
376.028	4.82
376.395	4.74
376.762	4.45
377.129	4.63
377.496	4.5
377.863	5
378.229	4.43
378.596	4.7
378.963	4.85
379.329	4.93
379.696	4.88
380.062	4.72
380.429	4.77
380.795	4.53
381.161	4.86
381.528	4.8
381.894	4.7
382.26	4.68
382.626	4.69
382.993	4.8
383.359	4.73
383.725	4.67
384.091	4.66
384.457	4.93
384.823	4.72
385.188	4.83
385.554	4.37
385.92	4.73
386.286	4.9
386.651	4.32
387.017	4.92
387.383	4.5
387.748	4.39
388.114	4.51
388.479	4.66
388.845	5.1
389.21	4.73
389.575	4.16
389.94	4.71
390.306	4.58
390.671	4.61
391.036	4.78
391.401	4.73
391.766	4.9
392.131	4.73
392.496	4.75
392.861	4.55
393.226	4.82
393.591	4.56
393.956	4.78
394.32	4.77
394.685	4.93
395.05	4.81
395.414	4.74
395.779	4.53
396.143	4.56
396.508	4.6
396.872	4.8
397.236	4.79
397.601	4.8
397.965	4.53
398.329	4.46
398.694	4.75
399.058	4.6
399.422	4.65
399.786	4.66
400.15	4.74
400.514	4.59
400.878	4.84
401.242	4.98
401.605	4.79
401.969	4.64
402.333	4.69
402.697	4.86
403.06	4.67
403.424	4.85
403.787	4.78
404.151	4.71
404.514	4.74
404.878	4.9
405.241	4.92
405.604	4.67
405.968	4.92
406.331	4.76
406.694	4.73
407.057	4.65
407.42	5.04
407.783	4.89
408.146	4.72
408.509	4.78
408.872	4.88
409.235	4.85
409.598	5.06
409.961	5.05
410.323	4.74
410.686	4.59
411.049	4.66
411.411	4.64
411.774	4.89
412.136	4.92
412.499	4.86
412.861	4.92
413.223	5.09
413.586	4.87
413.948	4.92
414.31	5.08
414.672	4.71
415.035	4.88
415.397	4.78
415.759	4.95
416.121	4.98
416.483	4.91
416.845	4.86
417.206	4.86
417.568	5.01
417.93	4.88
418.292	4.75
418.653	4.96
419.015	4.71
419.377	4.68
419.738	4.61
420.1	4.82
420.461	4.85
420.822	4.8
421.184	4.71
421.545	4.72
421.906	4.78
422.267	4.78
422.629	4.67
422.99	4.66
423.351	4.72
423.712	4.67
424.073	4.77
424.434	4.79
424.795	4.68
425.155	4.84
425.516	4.78
425.877	4.73
426.238	4.66
426.598	4.75
426.959	4.65
427.32	4.78
427.68	4.82
428.041	4.72
428.401	4.81
428.761	4.82
429.122	4.79
429.482	4.75
429.842	4.83
430.202	4.89
430.563	4.98
430.923	4.93
431.283	4.89
431.643	5.02
432.003	5.05
432.363	4.92
432.722	5.02
433.082	4.95
433.442	4.86
433.802	5.15
434.161	4.89
434.521	4.93
434.881	4.94
435.24	4.86
435.6	4.83
435.959	4.9
436.319	5.08
436.678	4.82
437.037	4.84
437.396	5.11
437.756	4.9
438.115	4.73
438.474	4.95
438.833	5.14
439.192	4.86
439.551	4.99
439.91	4.92
440.269	4.99
440.628	5.03
440.987	4.9
441.345	4.93
441.704	4.89
442.063	4.82
442.421	4.79
442.78	4.92
443.138	5
443.497	4.92
443.855	4.93
444.214	4.96
444.572	4.87
444.93	5.13
445.288	4.95
445.647	5.31
446.005	4.91
446.363	4.87
446.721	4.84
447.079	4.96
447.437	4.86
447.795	4.85
448.153	4.78
448.51	4.93
448.868	4.89
449.226	4.88
449.584	4.88
449.941	4.92
450.299	4.9
450.656	4.9
451.014	5.01
451.371	4.88
451.729	4.94
452.086	5.05
452.443	4.98
452.801	4.93
453.158	5.11
453.515	4.96
453.872	4.95
454.229	5.24
454.586	4.93
454.943	5.01
455.3	4.93
455.657	5.08
456.014	4.83
456.371	5.11
456.727	5.24
457.084	5.07
457.441	5.03
457.797	5.07
458.154	4.92
458.51	4.98
458.867	4.97
459.223	5.16
459.58	5.11
459.936	5.14
460.292	5.01
460.648	4.93
461.005	4.97
461.361	5.01
461.717	4.85
462.073	5.05
462.429	4.88
462.785	5
463.141	5.03
463.496	5.03
463.852	5.15
464.208	5.2
464.564	5.2
464.919	5.11
465.275	5.24
465.631	5.23
465.986	5.16
466.342	5.16
466.697	5.2
467.052	5.11
467.408	5.14
467.763	5.14
468.118	5.44
468.473	5.1
468.829	5.21
469.184	5.07
469.539	5.17
469.894	5.27
470.249	5.11
470.603	5.19
470.958	5.29
471.313	5.19
471.668	5.34
472.023	5.29
472.377	5.27
472.732	5.06
473.086	5.32
473.441	5.32
473.795	5.36
474.15	5.09
474.504	5.09
474.859	5.29
475.213	5.32
475.567	5.29
475.921	5.36
476.275	5.25
476.63	5.42
476.984	5.43
477.338	5.14
477.692	5.34
478.045	5.3
478.399	5.29
478.753	5.26
479.107	5.24
479.461	5.27
479.814	5.44
480.168	5.34
480.521	5.41
480.875	5.22
481.228	5.29
481.582	5.3
481.935	5.17
482.289	5.26
482.642	5.18
482.995	5.2
483.348	5.26
483.701	5.27
484.055	5.23
484.408	5.13
484.761	5.14
485.114	5.03
485.466	4.95
485.819	4.93
486.172	4.85
486.525	4.92
486.878	4.96
487.23	5.02
487.583	5.05
487.936	5.08
488.288	5.03
488.641	5.14
488.993	5.07
489.345	5.05
489.698	5.03
490.05	5
490.402	5.02
490.754	5.07
491.107	5.08
491.459	5.12
491.811	5.23
492.163	5.12
492.515	5.21
492.866	5.2
493.218	5.13
493.57	5.09
493.922	5.13
494.274	5.07
494.625	5.11
494.977	5.16
495.328	5.27
495.68	5.35
496.031	5.3
496.383	5.36
496.734	5.48
497.086	5.45
497.437	5.39
497.788	5.35
498.139	5.49
498.49	5.39
498.842	5.33
499.193	5.42
499.544	5.33
499.894	5.38
500.245	5.32
500.596	5.32
500.947	5.51
501.298	5.49
501.648	5.51
501.999	5.44
502.35	5.42
502.7	5.58
503.051	5.35
503.401	5.5
503.752	5.58
504.102	5.5
504.452	5.59
504.803	5.5
505.153	5.37
505.503	5.43
505.853	5.59
506.203	5.51
506.553	5.53
506.903	5.57
507.253	5.56
507.603	5.7
507.953	5.48
508.303	5.57
508.652	5.62
509.002	5.56
509.352	5.63
509.701	5.63
510.051	5.58
510.4	5.58
510.75	5.54
511.099	5.61
511.449	5.49
511.798	5.65
512.147	5.54
512.496	5.62
512.846	5.53
513.195	5.68
513.544	5.61
513.893	5.49
514.242	5.51
514.591	5.59
514.939	5.62
515.288	5.66
515.637	5.68
515.986	5.66
516.334	5.67
516.683	5.68
517.032	5.64
517.38	5.65
517.729	5.73
518.077	5.67
518.426	5.64
518.774	5.66
519.122	5.77
519.47	5.77
519.819	5.65
520.167	5.59
520.515	5.61
520.863	5.73
521.211	5.7
521.559	5.71
521.907	5.68
522.255	5.78
522.602	5.8
522.95	5.57
523.298	5.83
523.645	5.8
523.993	5.76
524.341	5.81
524.688	5.83
525.036	5.97
525.383	5.71
525.73	5.94
526.078	5.9
526.425	6
526.772	5.87
527.119	5.84
527.466	5.79
527.814	5.83
528.161	5.82
528.508	5.75
528.854	5.79
529.201	5.84
529.548	5.84
529.895	5.83
530.242	5.73
530.588	5.67
530.935	5.67
531.282	5.72
531.628	5.74
531.975	5.72
532.321	5.82
532.667	5.86
533.014	5.93
533.36	5.98
533.706	5.99
534.052	6.07
534.399	5.9
534.745	5.93
535.091	5.93
535.437	5.95
535.783	5.9
536.129	5.96
536.474	6
536.82	6.05
537.166	6.02
537.512	6.17
537.857	6.15
538.203	6.19
538.549	6.19
538.894	6.11
539.239	6.16
539.585	6.22
539.93	6.2
540.276	6.28
540.621	6.31
540.966	6.32
541.311	6.32
541.656	6.4
542.001	6.37
542.346	6.29
542.691	6.32
543.036	6.27
543.381	6.16
543.726	6.13
544.071	6.17
544.415	6.2
544.76	6.19
545.105	6.43
545.449	6.34
545.794	6.41
546.138	6.41
546.483	6.28
546.827	6.5
547.171	6.56
547.516	6.45
547.86	6.54
548.204	6.46
548.548	6.52
548.892	6.5
549.236	6.6
549.58	6.49
549.924	6.6
550.268	6.6
550.612	6.65
550.956	6.91
551.3	6.77
551.643	6.78
551.987	6.76
552.33	6.88
552.674	6.91
553.017	6.83
553.361	6.94
553.704	7.03
554.048	6.77
554.391	6.77
554.734	6.94
555.077	6.84
555.42	6.77
555.764	6.88
556.107	7.05
556.45	7.01
556.793	6.87
557.135	6.9
557.478	6.91
557.821	7.21
558.164	7.16
558.507	7.22
558.849	7.37
559.192	7.17
559.534	7.29
559.877	7.05
560.219	7.28
560.562	7.09
560.904	7.16
561.246	7.18
561.589	7.3
561.931	7.33
562.273	7.51
562.615	7.43
562.957	7.49
563.299	7.42
563.641	7.58
563.983	7.35
564.325	7.52
564.667	7.37
565.008	7.42
565.35	7.48
565.692	7.51
566.033	7.57
566.375	7.69
566.716	7.7
567.058	7.55
567.399	7.7
567.741	7.62
568.082	7.5
568.423	7.61
568.764	7.48
569.105	7.82
569.447	7.61
569.788	7.65
570.129	7.71
570.47	7.88
570.811	7.87
571.151	7.77
571.492	7.86
571.833	8.09
572.174	8.04
572.514	8.06
572.855	7.84
573.195	8.17
573.536	7.75
573.876	8.12
574.217	7.97
574.557	7.91
574.898	7.95
575.238	7.97
575.578	7.98
575.918	7.98
576.258	8.12
576.598	8.23
576.938	8.23
577.278	8.19
577.618	7.97
577.958	8.2
578.298	8.27
578.638	8.39
578.977	8.35
579.317	8.29
579.657	8.35
579.996	8.44
580.336	8.57
580.675	8.45
581.014	8.63
581.354	8.66
581.693	8.66
582.032	8.75
582.372	8.78
582.711	8.62
583.05	8.75
583.389	8.87
583.728	8.98
584.067	9.06
584.406	8.82
584.745	8.88
585.083	8.72
585.422	8.7
585.761	9.02
586.1	8.99
586.438	8.62
586.777	9.11
587.115	9.02
587.454	8.96
587.792	8.86
588.13	9.24
588.469	9.16
588.807	8.79
589.145	9.22
589.483	9.09
589.821	9.21
590.159	9.22
590.497	9.29
590.835	9.29
591.173	9.18
591.511	9.33
591.849	9.41
592.187	9.41
592.524	9.26
592.862	9.39
593.2	9.49
593.537	9.4
593.875	9.46
594.212	9.68
594.55	9.53
594.887	9.6
595.224	9.7
595.561	9.46
595.899	9.57
596.236	9.74
596.573	9.67
596.91	9.96
597.247	9.81
597.584	9.62
597.921	9.88
598.258	9.88
598.594	9.79
598.931	9.7
599.268	9.59
599.604	9.95
599.941	9.96
600.277	9.79
600.614	10.2
600.95	9.99
601.287	10.07
601.623	10.21
601.959	10.14
602.296	10.19
602.632	10.32
602.968	10.13
603.304	10.45
603.64	10.33
603.976	10.47
604.312	10.46
604.648	10.47
604.984	10.6
605.319	10.42
605.655	10.52
605.991	10.51
606.326	10.55
606.662	10.34
606.998	10.29
607.333	10.57
607.668	10.37
608.004	10.77
608.339	10.73
608.674	10.74
609.01	10.86
609.345	10.85
609.68	11.09
610.015	10.85
610.35	11.05
610.685	11.43
611.02	10.84
611.355	10.7
611.689	10.99
612.024	11.05
612.359	11.24
612.694	11.14
613.028	11.19
613.363	11.01
613.697	11.22
614.032	11.27
614.366	11.28
614.7	11.79
615.035	11.49
615.369	11.51
615.703	11.44
616.037	11.61
616.371	11.4
616.705	11.49
617.039	11.43
617.373	11.66
617.707	11.78
618.041	11.66
618.375	11.56
618.709	11.34
619.042	11.84
619.376	11.95
619.71	12.04
620.043	12.14
620.377	11.61
620.71	12.08
621.043	11.92
621.377	11.69
621.71	11.82
622.043	12.28
622.376	12.27
622.709	12.29
623.043	12.14
623.376	11.89
623.709	12.07
624.041	12.17
624.374	12.07
624.707	12.19
625.04	12.39
625.373	12.64
625.705	12.11
626.038	12.47
626.37	12.18
626.703	12.44
627.035	12.66
627.368	12.67
627.7	12.84
628.032	12.58
628.365	12.98
628.697	12.76
629.029	12.68
629.361	12.67
629.693	12.67
630.025	12.77
630.357	12.74
630.689	12.96
631.021	13.16
631.353	12.99
631.684	12.95
632.016	13.44
632.348	12.88
632.679	12.94
633.011	13.13
633.342	13.18
633.674	13.13
634.005	13.33
634.336	13.85
634.668	13.2
634.999	13.38
635.33	13.19
635.661	13.85
635.992	13.67
636.323	13.57
636.654	13.95
636.985	13.37
637.316	13.31
637.647	13.85
637.977	13.69
638.308	13.75
638.639	13.65
638.969	14.16
639.3	13.68
639.63	13.54
639.961	13.59
640.291	13.72
640.622	13.99
640.952	14.13
641.282	13.91
641.612	13.92
641.943	14.11
642.273	13.75
642.603	14.07
642.933	13.98
643.263	14.66
643.592	14.67
643.922	14.72
644.252	14.19
644.582	14.57
644.911	15.31
645.241	14.51
645.571	15.12
645.9	14.5
646.23	14.9
646.559	14.45
646.888	14.88
647.218	14.43
647.547	14.68
647.876	14.92
648.205	14.75
648.534	14.55
648.863	14.5
649.192	14.85
649.521	15.07
649.85	15.33
650.179	14.96
650.508	15.01
650.837	15.05
651.165	15.55
651.494	14.92
651.822	15.3
652.151	15.65
652.479	14.98
652.808	15.13
653.136	15.11
653.465	15.32
653.793	15.54
654.121	15.69
654.449	15.47
654.777	15.12
655.105	15.52
655.433	15.47
655.761	15.66
656.089	15.68
656.417	16.09
656.745	15.62
657.073	15.99
657.4	16.29
657.728	15.89
658.056	16.3
658.383	16.23
658.711	16.43
659.038	15.65
659.365	16.04
659.693	16.55
660.02	15.62
660.347	16.07
660.674	15.75
661.001	15.79
661.329	16.21
661.656	16.07
661.982	16.03
662.309	16.43
662.636	15.97
662.963	16.49
663.29	16.19
663.616	16.59
663.943	16.11
664.27	16.68
664.596	16.84
664.923	16.52
665.249	16.39
665.576	16.23
665.902	16.71
666.228	16.91
666.554	17.15
666.881	16.18
667.207	16.86
667.533	17.08
667.859	16.58
668.185	17.44
668.511	17.83
668.837	17.11
669.162	17.74
669.488	17.13
669.814	16.6
670.139	17.06
670.465	17.16
670.791	17.55
671.116	17.15
671.442	17.44
671.767	17.61
672.092	17.32
672.418	17.12
672.743	17.44
673.068	17.31
673.393	17.31
673.718	17.38
674.043	16.61
674.368	17.11
674.693	17.67
675.018	18.02
675.343	17.69
675.667	17.66
675.992	17.75
676.317	18.17
676.641	18.24
676.966	18.12
677.29	17.57
677.615	17.53
677.939	18.2
678.264	17.6
678.588	17.59
678.912	18.37
679.236	17.96
679.56	18.26
679.885	18.29
680.209	18.29
680.532	17.75
680.856	18.44
681.18	18.2
681.504	18.54
681.828	18.13
682.152	18.42
682.475	18.53
682.799	18.54
683.122	18.87
683.446	18.42
683.769	18.77
684.093	18.94
684.416	18.91
684.739	18.64
685.062	18.26
685.386	18.98
685.709	19.1
686.032	19.18
686.355	18.78
