Data from 0369_forehead_Reflection__1__290.txt Node

Date: Fri Oct 20 23:01:44 CDT 2023
User: ToomeyLab
Spectrometer: FLMS14357
Trigger mode: 0
Integration Time (sec): 1.000000E-2
Scans to average: 100
Electric dark correction enabled: true
Nonlinearity correction enabled: false
Boxcar width: 0
XAxis mode: Wavelengths
Number of Pixels in Spectrum: 2048
>>>>>Begin Spectral Data<<<<<
189.047	1337.79
189.435	1337.79
189.823	1337.79
190.211	210.07
190.599	-140.49
190.987	-10.24
191.375	-126.57
191.763	90.07
192.151	264.32
192.538	-116.13
192.926	28.32
193.314	55.01
193.702	142.72
194.089	112.46
194.477	57.16
194.864	118.25
195.252	183.01
195.639	-724.95
196.027	-116.76
196.414	42.25
196.801	-93.86
197.189	-127.44
197.576	45.39
197.963	116.75
198.351	47.16
198.738	27.33
199.125	36.76
199.512	57.44
199.899	43.6
200.286	26.62
200.673	25.32
201.06	41.1
201.447	17.27
201.833	51.65
202.22	29.3
202.607	39.97
202.994	27.87
203.38	6.97
203.767	56.44
204.154	53.25
204.54	71.55
204.927	66.31
205.313	39.22
205.699	20.98
206.086	82.07
206.472	54.99
206.858	71.74
207.245	39.77
207.631	39.19
208.017	53.12
208.403	55.8
208.789	74.57
209.175	-22.77
209.561	36.2
209.947	0.95
210.333	60.26
210.719	27.3
211.105	46.36
211.491	24.31
211.876	44.95
212.262	35.68
212.648	14.38
213.034	0.05
213.419	32.64
213.805	34.04
214.19	28.89
214.576	34.33
214.961	47.55
215.346	31.68
215.732	25.63
216.117	17.02
216.502	46.3
216.888	10.07
217.273	4.09
217.658	28.42
218.043	17.13
218.428	15.82
218.813	41.03
219.198	11.71
219.583	10.41
219.968	17.58
220.353	22.42
220.738	29.98
221.122	-2.53
221.507	21.02
221.892	6.34
222.276	21
222.661	11.25
223.046	20.2
223.43	9.92
223.815	15.94
224.199	23.51
224.583	1.12
224.968	8.13
225.352	10.89
225.736	9.22
226.121	15.5
226.505	12.73
226.889	16.04
227.273	13.77
227.657	10.26
228.041	10.31
228.425	4.49
228.809	10.89
229.193	4.52
229.577	7.01
229.961	5.13
230.344	5.27
230.728	3.33
231.112	5.06
231.495	4.47
231.879	4.59
232.263	5.93
232.646	3.75
233.03	4.36
233.413	3.46
233.797	5.83
234.18	4.43
234.563	7.38
234.946	8.34
235.33	3.63
235.713	5.4
236.096	8.05
236.479	6
236.862	4.66
237.245	4.48
237.628	5.04
238.011	5.34
238.394	6.13
238.777	6.54
239.16	4.47
239.543	6.46
239.925	5.62
240.308	6.14
240.691	5
241.073	6.63
241.456	5.63
241.838	4.74
242.221	5.57
242.603	4.95
242.986	4.97
243.368	4.67
243.75	5.05
244.133	3.88
244.515	4.03
244.897	4.29
245.279	4.44
245.661	4.29
246.043	3.66
246.425	4.32
246.807	4.63
247.189	5.39
247.571	4.48
247.953	4.24
248.335	4.62
248.717	4.08
249.098	4.12
249.48	3.89
249.862	4.31
250.243	4.64
250.625	4.68
251.006	4.52
251.388	4.96
251.769	5.3
252.151	3.84
252.532	5.17
252.913	4.84
253.295	3.39
253.676	4.75
254.057	4.3
254.438	4.51
254.819	4.54
255.2	4.12
255.581	5.04
255.962	5.5
256.343	4.63
256.724	4.77
257.105	4.89
257.486	5.15
257.867	5.08
258.247	5.25
258.628	4.3
259.009	4.74
259.389	4.5
259.77	4.4
260.15	4.37
260.531	4.15
260.911	4.95
261.292	4.34
261.672	4.42
262.052	4.32
262.432	4.28
262.813	4.2
263.193	4.6
263.573	4.53
263.953	4.68
264.333	4.73
264.713	4.92
265.093	5.12
265.473	5.47
265.853	4.97
266.233	4.89
266.612	4.08
266.992	4.62
267.372	4.51
267.752	4.52
268.131	4.4
268.511	4.75
268.89	4.48
269.27	4.74
269.649	3.89
270.029	5.07
270.408	4.63
270.787	4.63
271.167	4.3
271.546	4.68
271.925	5.18
272.304	4.74
272.683	4.59
273.062	4.46
273.441	4.46
273.82	4.21
274.199	5.12
274.578	4.55
274.957	4.63
275.336	4.82
275.715	4.64
276.093	4.24
276.472	4.9
276.851	4.41
277.229	4.53
277.608	3.98
277.986	3.94
278.365	4.56
278.743	4.15
279.122	4.92
279.5	4.53
279.878	4.28
280.257	4.68
280.635	4.42
281.013	4.73
281.391	4.95
281.769	4.58
282.147	4.04
282.525	4.78
282.903	4.3
283.281	4.46
283.659	4
284.037	4.48
284.415	3.94
284.792	4.37
285.17	4.54
285.548	4.53
285.925	4.61
286.303	4.14
286.68	4.28
287.058	5.14
287.435	4.44
287.813	4.32
288.19	4.29
288.567	4.63
288.945	4.75
289.322	4.89
289.699	3.88
290.076	4.92
290.453	5.11
290.83	4.68
291.207	5.2
291.584	4.53
291.961	4.82
292.338	4.87
292.715	4.86
293.092	5
293.469	5.03
293.845	4.81
294.222	5.37
294.599	4.89
294.975	5.74
295.352	5.63
295.728	5.21
296.105	5.28
296.481	5.63
296.858	5.67
297.234	5.1
297.61	4.91
297.986	5
298.363	5.61
298.739	5.49
299.115	5.42
299.491	5.27
299.867	5.23
300.243	5.44
300.619	5.49
300.995	5.88
301.371	6.23
301.746	5.96
302.122	6.58
302.498	6.08
302.874	6.23
303.249	6.03
303.625	6.37
304	6.57
304.376	5.82
304.751	5.93
305.127	6.49
305.502	7.04
305.878	6.64
306.253	6.62
306.628	6.69
307.003	6.64
307.378	6.4
307.754	7.01
308.129	7.52
308.504	7.36
308.879	7
309.254	7.45
309.629	6.94
310.003	7.06
310.378	7.2
310.753	7.49
311.128	7.41
311.502	7.83
311.877	7.59
312.252	7.62
312.626	7.92
313.001	7.8
313.375	7.64
313.75	7.92
314.124	7.45
314.498	8.14
314.873	8.01
315.247	8.43
315.621	8.63
315.995	8.61
316.369	8.52
316.743	8.4
317.117	8.5
317.491	8.02
317.865	8.69
318.239	8.82
318.613	9.07
318.987	8.81
319.361	8.5
319.734	8.42
320.108	9.01
320.482	9.28
320.855	9.63
321.229	9.85
321.602	9.35
321.976	9.48
322.349	10.08
322.723	9.76
323.096	9.99
323.469	9.32
323.843	9.53
324.216	9.9
324.589	10.5
324.962	10.72
325.335	10.6
325.708	9.91
326.081	10.56
326.454	10.41
326.827	10.64
327.2	10.55
327.573	10.21
327.945	10.54
328.318	10.03
328.691	10.39
329.063	11.01
329.436	10.51
329.809	10.95
330.181	11.27
330.553	11.88
330.926	11.21
331.298	10.73
331.671	10.97
332.043	10.91
332.415	11.31
332.787	11.52
333.159	10.93
333.532	11.41
333.904	11.73
334.276	11.12
334.648	11.52
335.02	11.88
335.391	11.66
335.763	11.84
336.135	12.13
336.507	12.23
336.879	11.51
337.25	12.2
337.622	12
337.993	12.56
338.365	11.7
338.736	12.33
339.108	12.12
339.479	12.18
339.851	12.78
340.222	12.15
340.593	12.19
340.964	12.01
341.336	12.77
341.707	12.42
342.078	12.79
342.449	13.04
342.82	12.77
343.191	12.86
343.562	12.65
343.933	12.41
344.303	12.76
344.674	13.03
345.045	13.16
345.416	13.08
345.786	12.86
346.157	13.29
346.527	12.84
346.898	13.46
347.268	13.38
347.639	13.29
348.009	12.98
348.38	13.41
348.75	13.36
349.12	13.55
349.49	13.34
349.861	14.06
350.231	13.91
350.601	13.94
350.971	14.31
351.341	14.46
351.711	14.51
352.081	13.88
352.45	14.07
352.82	14.13
353.19	14.73
353.56	14.48
353.929	14.47
354.299	14.24
354.669	14.39
355.038	14.65
355.408	15.22
355.777	14.44
356.147	14.75
356.516	14.42
356.885	14.56
357.254	14.67
357.624	14.99
357.993	14.84
358.362	15.16
358.731	14.54
359.1	14.94
359.469	14.79
359.838	15.05
360.207	15.06
360.576	15.04
360.945	14.73
361.314	15.68
361.682	15.5
362.051	15.02
362.42	15.22
362.788	15.65
363.157	15.34
363.525	15.35
363.894	15.32
364.262	15.33
364.631	15.55
364.999	15.71
365.367	16.06
365.735	15.88
366.104	16.04
366.472	15.58
366.84	16.22
367.208	16.45
367.576	16.08
367.944	16.25
368.312	16.56
368.68	16.2
369.048	16.55
369.416	16.61
369.783	16.51
370.151	16.61
370.519	16.76
370.886	16.87
371.254	16.93
371.621	16.99
371.989	16.91
372.356	16.93
372.724	17.27
373.091	16.78
373.458	16.68
373.826	17.02
374.193	17.06
374.56	17.44
374.927	17.32
375.294	17.68
375.661	17.33
376.028	17.59
376.395	17.75
376.762	17.3
377.129	17.72
377.496	17.54
377.863	18.12
378.229	17.96
378.596	17.89
378.963	17.85
379.329	17.81
379.696	18.13
380.062	17.99
380.429	17.69
380.795	17.92
381.161	18.35
381.528	18.22
381.894	18.19
382.26	18.46
382.626	18.76
382.993	18.45
383.359	18.41
383.725	18.4
384.091	18.55
384.457	18.91
384.823	18.94
385.188	18.69
385.554	18.92
385.92	18.85
386.286	19.31
386.651	19.1
387.017	19.61
387.383	19.34
387.748	19.27
388.114	19.29
388.479	19.37
388.845	19.53
389.21	19.13
389.575	18.91
389.94	19.54
390.306	19.8
390.671	19.31
391.036	19.69
391.401	19.98
391.766	19.79
392.131	19.84
392.496	20.04
392.861	20.06
393.226	20.1
393.591	20.2
393.956	20.04
394.32	20.3
394.685	20.17
395.05	20.24
395.414	20.68
395.779	19.97
396.143	20.5
396.508	20.16
396.872	20.5
397.236	20.39
397.601	20.54
397.965	20.64
398.329	20.69
398.694	21.41
399.058	20.73
399.422	20.89
399.786	20.82
400.15	20.87
400.514	21.1
400.878	21
401.242	21.39
401.605	21.31
401.969	21.23
402.333	21.23
402.697	21.65
403.06	21.3
403.424	21.55
403.787	21.31
404.151	21.69
404.514	21.61
404.878	21.95
405.241	21.97
405.604	21.94
405.968	21.72
406.331	21.89
406.694	21.9
407.057	21.66
407.42	22.3
407.783	22.09
408.146	22.05
408.509	22
408.872	22.39
409.235	22.14
409.598	22.55
409.961	22.46
410.323	22.66
410.686	22.53
411.049	22.39
411.411	22.57
411.774	22.71
412.136	22.68
412.499	22.74
412.861	22.8
413.223	22.78
413.586	22.81
413.948	23.1
414.31	23.52
414.672	23.24
415.035	23.22
415.397	23.26
415.759	23.4
416.121	23.38
416.483	23.52
416.845	23.42
417.206	23.39
417.568	23.49
417.93	23.78
418.292	23.39
418.653	23.83
419.015	23.65
419.377	23.51
419.738	23.63
420.1	23.49
420.461	23.67
420.822	23.72
421.184	23.68
421.545	23.76
421.906	23.67
422.267	23.71
422.629	23.81
422.99	23.61
423.351	23.69
423.712	23.68
424.073	23.91
424.434	23.93
424.795	24.13
425.155	24.19
425.516	24.08
425.877	24.04
426.238	24.05
426.598	24.09
426.959	24.05
427.32	24.18
427.68	24.43
428.041	24.55
428.401	24.83
428.761	25.02
429.122	24.94
429.482	25.11
429.842	25.02
430.202	25.28
430.563	25.39
430.923	25.44
431.283	25.54
431.643	25.38
432.003	25.79
432.363	25.59
432.722	25.8
433.082	25.74
433.442	25.69
433.802	25.73
434.161	25.77
434.521	25.81
434.881	25.73
435.24	25.86
435.6	25.77
435.959	25.79
436.319	25.94
436.678	26.1
437.037	26.04
437.396	26.33
437.756	26.33
438.115	26.26
438.474	26.47
438.833	26.4
439.192	26.35
439.551	26.45
439.91	26.73
440.269	26.8
440.628	26.79
440.987	26.65
441.345	26.69
441.704	26.83
442.063	26.78
442.421	26.51
442.78	26.76
443.138	27.02
443.497	26.93
443.855	26.96
444.214	27.04
444.572	27.04
444.93	27.32
445.288	27.33
445.647	27.52
446.005	27.17
446.363	27.4
446.721	27.36
447.079	27.56
447.437	27.46
447.795	27.27
448.153	27.4
448.51	27.36
448.868	27.44
449.226	27.49
449.584	27.51
449.941	27.63
450.299	27.81
450.656	27.93
451.014	27.87
451.371	28.21
451.729	28.02
452.086	28.14
452.443	28.44
452.801	28.45
453.158	28.51
453.515	28.41
453.872	28.65
454.229	28.55
454.586	28.67
454.943	28.78
455.3	28.57
455.657	28.72
456.014	28.84
456.371	28.76
456.727	29.09
457.084	29.35
457.441	29.11
457.797	29.08
458.154	29.33
458.51	29.23
458.867	29.42
459.223	29.28
459.58	29.45
459.936	29.34
460.292	29.24
460.648	29.36
461.005	29.47
461.361	29.22
461.717	29.2
462.073	29.17
462.429	29.19
462.785	29.29
463.141	29.47
463.496	29.51
463.852	29.99
464.208	29.98
464.564	30.18
464.919	30.2
465.275	30.17
465.631	30.37
465.986	30.5
466.342	30.75
466.697	30.33
467.052	30.52
467.408	30.5
467.763	30.54
468.118	30.84
468.473	30.57
468.829	30.94
469.184	30.89
469.539	30.93
469.894	30.93
470.249	30.84
470.603	30.82
470.958	31.03
471.313	31.16
471.668	31.28
472.023	31.15
472.377	31.29
472.732	31.04
473.086	31.44
473.441	31.53
473.795	31.62
474.15	31.59
474.504	31.46
474.859	31.77
475.213	31.91
475.567	31.76
475.921	31.74
476.275	31.82
476.63	32.11
476.984	32.24
477.338	31.96
477.692	32.24
478.045	31.99
478.399	32.1
478.753	32.12
479.107	32.07
479.461	32.3
479.814	32.4
480.168	32.58
480.521	32.3
480.875	32.39
481.228	32.63
481.582	32.37
481.935	32.59
482.289	32.59
482.642	32.43
482.995	32.49
483.348	32.61
483.701	32.55
484.055	32.53
484.408	32.33
484.761	32.29
485.114	32.15
485.466	31.83
485.819	31.86
486.172	31.85
486.525	31.83
486.878	31.67
487.23	31.74
487.583	31.92
487.936	32.27
488.288	32.34
488.641	32.61
488.993	32.42
489.345	32.32
489.698	32.41
490.05	32.22
490.402	32.35
490.754	32.4
491.107	32.53
491.459	32.79
491.811	32.97
492.163	33.16
492.515	33.28
492.866	33.45
493.218	33.24
493.57	33.06
493.922	33
494.274	32.99
494.625	32.93
494.977	33.19
495.328	33.63
495.68	33.7
496.031	34.06
496.383	34.33
496.734	34.37
497.086	34.41
497.437	34.64
497.788	34.61
498.139	34.52
498.49	34.5
498.842	34.5
499.193	34.47
499.544	34.6
499.894	34.69
500.245	34.73
500.596	34.79
500.947	34.76
501.298	34.77
501.648	35.2
501.999	35.08
502.35	35.04
502.7	35.39
503.051	35.38
503.401	35.5
503.752	35.45
504.102	35.51
504.452	35.71
504.803	35.68
505.153	35.52
505.503	35.6
505.853	35.89
506.203	35.78
506.553	35.79
506.903	35.82
507.253	35.96
507.603	35.91
507.953	35.98
508.303	35.82
508.652	36.05
509.002	36.09
509.352	36.35
509.701	36.13
510.051	36.19
510.4	36.33
510.75	36.1
511.099	36.23
511.449	36.36
511.798	36.09
512.147	36.31
512.496	36.23
512.846	36.21
513.195	36.5
513.544	36.55
513.893	36.58
514.242	36.6
514.591	36.63
514.939	36.54
515.288	36.68
515.637	36.85
515.986	37.09
516.334	36.99
516.683	36.89
517.032	36.97
517.38	37.24
517.729	37.33
518.077	37.27
518.426	37.14
518.774	37.21
519.122	37.33
519.47	37.24
519.819	37.34
520.167	37.13
520.515	36.96
520.863	37.14
521.211	37.08
521.559	37.14
521.907	37.3
522.255	37.23
522.602	37.52
522.95	37.49
523.298	37.73
523.645	38.02
523.993	37.84
524.341	38.03
524.688	38.12
525.036	38.14
525.383	38.11
525.73	38.12
526.078	38.28
526.425	38.35
526.772	38.38
527.119	38.29
527.466	37.98
527.814	38.02
528.161	38.04
528.508	37.86
528.854	38.04
529.201	37.98
529.548	38.04
529.895	37.88
530.242	37.77
530.588	37.56
530.935	37.85
531.282	37.82
531.628	37.6
531.975	37.5
532.321	37.78
532.667	38.1
533.014	38.32
533.36	38.55
533.706	38.58
534.052	38.79
534.399	38.78
534.745	38.64
535.091	38.53
535.437	38.48
535.783	38.43
536.129	38.5
536.474	38.62
536.82	38.72
537.166	38.84
537.512	39.11
537.857	39.38
538.203	39.26
538.549	39.43
538.894	39.3
539.239	39.31
539.585	39.21
539.93	39.32
540.276	39.75
540.621	39.78
540.966	39.97
541.311	40.12
541.656	39.93
542.001	40.16
542.346	40.05
542.691	39.94
543.036	39.7
543.381	39.58
543.726	39.55
544.071	39.45
544.415	39.37
544.76	39.45
545.105	39.85
545.449	39.91
545.794	40.23
546.138	40.07
546.483	40.17
546.827	40.51
547.171	40.62
547.516	40.63
547.86	40.67
548.204	40.82
548.548	40.79
548.892	40.68
549.236	40.76
549.58	41
549.924	40.9
550.268	40.98
550.612	41.05
550.956	41.42
551.3	41.55
551.643	41.67
551.987	41.71
552.33	41.81
552.674	41.75
553.017	41.85
553.361	41.69
553.704	42.29
554.048	41.89
554.391	41.69
554.734	41.99
555.077	42.14
555.42	41.89
555.764	42
556.107	42.28
556.45	42.18
556.793	42.24
557.135	42.28
557.478	42.62
557.821	42.62
558.164	42.61
558.507	42.68
558.849	42.94
559.192	42.94
559.534	42.69
559.877	42.51
560.219	43
560.562	42.88
560.904	42.8
561.246	43.12
561.589	43
561.931	42.99
562.273	43.45
562.615	43.33
562.957	43.24
563.299	43.22
563.641	43.24
563.983	43.16
564.325	43.22
564.667	43.46
565.008	43.32
565.35	43.55
565.692	43.73
566.033	43.81
566.375	43.88
566.716	43.56
567.058	43.57
567.399	43.69
567.741	43.79
568.082	43.72
568.423	43.73
568.764	43.52
569.105	43.6
569.447	43.46
569.788	43.86
570.129	43.78
570.47	44.15
570.811	44.09
571.151	44.15
571.492	44.1
571.833	44.2
572.174	44.28
572.514	43.98
572.855	44.3
573.195	44.45
573.536	44.15
573.876	44.3
574.217	44.16
574.557	44.22
574.898	44.34
575.238	44.52
575.578	44.58
575.918	44.29
576.258	44.65
576.598	44.7
576.938	44.75
577.278	44.9
577.618	44.91
577.958	44.72
578.298	44.73
578.638	44.91
578.977	45.02
579.317	44.96
579.657	45.16
579.996	45.23
580.336	45.57
580.675	45.28
581.014	45.36
581.354	45.54
581.693	45.63
582.032	45.48
582.372	45.7
582.711	45.71
583.05	45.66
583.389	45.83
583.728	45.77
584.067	46.03
584.406	46.06
584.745	45.78
585.083	45.99
585.422	46.25
585.761	46.33
586.1	45.93
586.438	46.07
586.777	46.08
587.115	46.43
587.454	46.36
587.792	46.45
588.13	46.58
588.469	46.72
588.807	46.43
589.145	46.52
589.483	46.73
589.821	46.56
590.159	46.67
590.497	46.54
590.835	46.72
591.173	46.44
591.511	46.74
591.849	46.74
592.187	46.75
592.524	46.54
592.862	46.78
593.2	46.92
593.537	47.01
593.875	46.91
594.212	46.98
594.55	47.04
594.887	47.5
595.224	47.55
595.561	47.32
595.899	47.28
596.236	47.09
596.573	47.38
596.91	47.32
597.247	47.25
597.584	47.39
597.921	47.65
598.258	47.46
598.594	47.46
598.931	47.18
599.268	47.2
599.604	47.37
599.941	47.47
600.277	47.19
600.614	47.5
600.95	47.48
601.287	47.45
601.623	47.91
601.959	47.84
602.296	47.91
602.632	48.2
602.968	48.02
603.304	48.45
603.64	48.26
603.976	48.53
604.312	47.89
604.648	48.33
604.984	48.3
605.319	48.27
605.655	48.51
605.991	48.3
606.326	48.01
606.662	47.84
606.998	47.93
607.333	48.03
607.668	47.96
608.004	48.07
608.339	48.12
608.674	48.4
609.01	48.97
609.345	48.81
609.68	49.24
610.015	48.72
610.35	48.77
610.685	48.82
611.02	48.43
611.355	49.01
611.689	48.97
612.024	48.77
612.359	49.14
612.694	48.91
613.028	49.17
613.363	49.06
613.697	49.1
614.032	48.94
614.366	49.26
614.7	49.7
615.035	49.29
615.369	49.76
615.703	49.24
616.037	49.61
616.371	49.48
616.705	49.55
617.039	49.71
617.373	49.89
617.707	50.07
618.041	50.07
618.375	49.37
618.709	49.65
619.042	49.93
619.376	50.08
619.71	50.23
620.043	50
620.377	49.97
620.71	50.51
621.043	50.01
621.377	50.05
621.71	50.41
622.043	49.89
622.376	50.11
622.709	50.27
623.043	50.87
623.376	50.21
623.709	50.52
624.041	50.58
624.374	50.06
624.707	50.31
625.04	51.08
625.373	50.87
625.705	50.39
626.038	50.28
626.37	50.67
626.703	51.25
627.035	50.66
627.368	51.01
627.7	50.77
628.032	50.86
628.365	50.77
628.697	51.01
629.029	50.72
629.361	50.84
629.693	50.85
630.025	50.9
630.357	51.26
630.689	50.84
631.021	51.2
631.353	51.03
631.684	50.99
632.016	51.24
632.348	51.53
632.679	50.96
633.011	51.43
633.342	51.39
633.674	51.75
634.005	51.77
634.336	52.06
634.668	51.19
634.999	51.03
635.33	51.83
635.661	51.73
635.992	51.73
636.323	51.94
636.654	51.66
636.985	51.61
637.316	51.52
637.647	51.69
637.977	51.27
638.308	51.67
638.639	51.63
638.969	51.92
639.3	51.4
639.63	51.39
639.961	52.21
640.291	51.93
640.622	52.54
640.952	51.95
641.282	51.8
641.612	52.23
641.943	52
642.273	52.51
642.603	52.53
642.933	52.08
643.263	52.1
643.592	52.5
643.922	52.8
644.252	52.29
644.582	52.35
644.911	53.16
645.241	52.36
645.571	52.54
645.9	53.25
646.23	52.5
646.559	52.45
646.888	53.03
647.218	53.13
647.547	52.97
647.876	52.72
648.205	52.44
648.534	52.37
648.863	53.44
649.192	53.41
649.521	53.45
649.85	52.96
650.179	53
650.508	52.98
650.837	53.76
651.165	52.97
651.494	52.75
651.822	53.21
652.151	53.38
652.479	52.99
652.808	53.31
653.136	53.1
653.465	53.45
653.793	53.46
654.121	53.77
654.449	53.05
654.777	53.44
655.105	53.66
655.433	53.59
655.761	53.21
656.089	53.82
656.417	53.74
656.745	53.74
657.073	53.6
657.4	53.87
657.728	53.78
658.056	53.47
658.383	53.83
658.711	53.4
659.038	53.45
659.365	53.1
659.693	53.99
660.02	53.53
660.347	54.26
660.674	53.82
661.001	54.08
661.329	54.16
661.656	54.57
661.982	54
662.309	54.08
662.636	53.57
662.963	54.21
663.29	54.11
663.616	54.33
663.943	53.88
664.27	53.93
664.596	53.93
664.923	53.96
665.249	54.41
665.576	54.66
665.902	54.91
666.228	54.46
666.554	54.21
666.881	54.56
667.207	54.78
667.533	54.84
667.859	54.83
668.185	54.66
668.511	54.73
668.837	54.72
669.162	54.48
669.488	54.2
669.814	54.58
