Data from 0369_crown_Reflection__4__288.txt Node

Date: Fri Oct 20 23:00:50 CDT 2023
User: ToomeyLab
Spectrometer: FLMS14357
Trigger mode: 0
Integration Time (sec): 1.000000E-2
Scans to average: 100
Electric dark correction enabled: true
Nonlinearity correction enabled: false
Boxcar width: 0
XAxis mode: Wavelengths
Number of Pixels in Spectrum: 2048
>>>>>Begin Spectral Data<<<<<
189.047	-386.64
189.435	-386.64
189.823	-386.64
190.211	61.24
190.599	133.96
190.987	16.14
191.375	423.47
191.763	115.88
192.151	-311.33
192.538	-50.8
192.926	-17.36
193.314	39.46
193.702	334.47
194.089	148.13
194.477	155.54
194.864	81.69
195.252	227.78
195.639	849.28
196.027	-163.01
196.414	81.59
196.801	150.35
197.189	179.59
197.576	11.07
197.963	478.9
198.351	40.99
198.738	33.54
199.125	19.86
199.512	35.72
199.899	7.65
200.286	9.49
200.673	39.22
201.06	-41.42
201.447	37.56
201.833	5.97
202.22	34.82
202.607	23.07
202.994	33.28
203.38	9.41
203.767	66.08
204.154	40.14
204.54	52.16
204.927	39.12
205.313	9.83
205.699	42.19
206.086	22.45
206.472	67.17
206.858	46.18
207.245	-42.97
207.631	22.87
208.017	23.12
208.403	17.98
208.789	34.58
209.175	-1.78
209.561	17.65
209.947	11.33
210.333	0.62
210.719	25.88
211.105	-1.53
211.491	9.71
211.876	-19.6
212.262	47.1
212.648	19.33
213.034	30.53
213.419	28.79
213.805	0.61
214.19	-11.79
214.576	8.1
214.961	25.08
215.346	16.82
215.732	-6.41
216.117	-20.41
216.502	0.42
216.888	-0.78
217.273	18.99
217.658	-11.52
218.043	-3.4
218.428	-8.68
218.813	8.1
219.198	-2.73
219.583	-21.21
219.968	10.52
220.353	6.83
220.738	22.16
221.122	-2.66
221.507	-2.66
221.892	18.98
222.276	14.01
222.661	30.16
223.046	14.41
223.43	11.9
223.815	18.13
224.199	19.91
224.583	-5.4
224.968	-8.84
225.352	9.79
225.736	4.85
226.121	3.29
226.505	4.01
226.889	3.49
227.273	4.95
227.657	10.6
228.041	11.99
228.425	8.96
228.809	9.68
229.193	4.58
229.577	9.06
229.961	6.15
230.344	6.67
230.728	7.52
231.112	8.32
231.495	6.83
231.879	7.41
232.263	8.11
232.646	7.22
233.03	6.13
233.413	6.25
233.797	7.11
234.18	7.07
234.563	7.64
234.946	8.46
235.33	7.93
235.713	8.16
236.096	8.14
236.479	8.19
236.862	8.43
237.245	7.49
237.628	7.26
238.011	9.02
238.394	6.08
238.777	8.89
239.16	7.75
239.543	8.76
239.925	6.76
240.308	6.37
240.691	7.03
241.073	7.78
241.456	8.38
241.838	6.39
242.221	8.33
242.603	8.53
242.986	7.82
243.368	7.83
243.75	6.8
244.133	6.22
244.515	6.87
244.897	6.98
245.279	6.88
245.661	6.92
246.043	6.99
246.425	6.63
246.807	7.27
247.189	6.45
247.571	5.73
247.953	7.48
248.335	7.12
248.717	6.73
249.098	6.6
249.48	6.41
249.862	6.8
250.243	7.18
250.625	7.14
251.006	7.12
251.388	6.97
251.769	7.55
252.151	7.23
252.532	6.59
252.913	6.61
253.295	5.55
253.676	6.75
254.057	6.61
254.438	7.1
254.819	6.54
255.2	6.95
255.581	7.05
255.962	6.21
256.343	7.56
256.724	4.48
257.105	7.35
257.486	7.9
257.867	7.17
258.247	6.88
258.628	5.94
259.009	6.61
259.389	6.45
259.77	6.17
260.15	6.32
260.531	7.31
260.911	6.72
261.292	6.05
261.672	6.21
262.052	6.48
262.432	6.44
262.813	6.4
263.193	6.42
263.573	6.05
263.953	6.56
264.333	6.87
264.713	6.76
265.093	6.42
265.473	6.85
265.853	6.67
266.233	5.85
266.612	6.4
266.992	6.38
267.372	6.51
267.752	6
268.131	6.8
268.511	6.62
268.89	6.24
269.27	6.29
269.649	5.54
270.029	6.24
270.408	6.59
270.787	6.3
271.167	6.44
271.546	6.6
271.925	6.75
272.304	6.67
272.683	6.2
273.062	6.42
273.441	6.27
273.82	6.1
274.199	6.31
274.578	6.17
274.957	6.55
275.336	6.52
275.715	6.26
276.093	5.83
276.472	6.02
276.851	5.95
277.229	6.48
277.608	5.86
277.986	5.92
278.365	6.04
278.743	5.91
279.122	6.13
279.5	5.98
279.878	5.41
280.257	5.51
280.635	6.05
281.013	5.89
281.391	6.07
281.769	5.42
282.147	6.23
282.525	6.25
282.903	5.68
283.281	5.88
283.659	5.72
284.037	6.01
284.415	5.33
284.792	5.6
285.17	5.71
285.548	5.89
285.925	5.6
286.303	5.53
286.68	5.61
287.058	6
287.435	6.21
287.813	5.14
288.19	5.46
288.567	5.53
288.945	5.76
289.322	6.1
289.699	5.09
290.076	6.33
290.453	5.42
290.83	5.32
291.207	6.11
291.584	5.56
291.961	5.37
292.338	5.13
292.715	5.52
293.092	5.84
293.469	5.71
293.845	5.33
294.222	5.72
294.599	5.04
294.975	5.89
295.352	5.63
295.728	5.21
296.105	5.05
296.481	5.36
296.858	5.31
297.234	5.53
297.61	4.9
297.986	5.52
298.363	5.35
298.739	5.06
299.115	5.22
299.491	5.29
299.867	5.33
300.243	5.64
300.619	5.23
300.995	4.97
301.371	5.61
301.746	5.2
302.122	5.56
302.498	5.06
302.874	5.44
303.249	5
303.625	5.12
304	5.61
304.376	5.09
304.751	4.7
305.127	4.7
305.502	5.26
305.878	5.29
306.253	5.42
306.628	5.27
307.003	5.12
307.378	5.14
307.754	5.4
308.129	5.03
308.504	5.23
308.879	5.01
309.254	5.38
309.629	4.64
310.003	4.79
310.378	5.34
310.753	5.12
311.128	5.17
311.502	5.53
311.877	4.92
312.252	5.1
312.626	4.93
313.001	5.02
313.375	5.12
313.75	5.17
314.124	4.81
314.498	5.07
314.873	5.08
315.247	5
315.621	4.94
315.995	4.91
316.369	5.11
316.743	5.58
317.117	5.41
317.491	4.33
317.865	5.11
318.239	5.71
318.613	4.97
318.987	4.74
319.361	4.22
319.734	4.62
320.108	4.66
320.482	5.36
320.855	5.31
321.229	5.36
321.602	5.38
321.976	5.17
322.349	4.48
322.723	4.99
323.096	4.9
323.469	4.06
323.843	4.95
324.216	4.72
324.589	4.66
324.962	5.15
325.335	4.89
325.708	5.16
326.081	5.38
326.454	4.81
326.827	5.6
327.2	5.08
327.573	4.95
327.945	4.93
328.318	4.7
328.691	4.65
329.063	5.1
329.436	4.13
329.809	5.15
330.181	5.16
330.553	5.08
330.926	5
331.298	5.16
331.671	4.35
332.043	4.85
332.415	4.83
332.787	5.09
333.159	4.64
333.532	5.14
333.904	5.29
334.276	4.19
334.648	4.79
335.02	4.95
335.391	5.07
335.763	5.25
336.135	5.07
336.507	4.7
336.879	4.73
337.25	4.76
337.622	4.49
337.993	4.82
338.365	4.89
338.736	4.53
339.108	5.32
339.479	4.9
339.851	4.85
340.222	4.96
340.593	4.78
340.964	4.72
341.336	5.31
341.707	5.05
342.078	4.83
342.449	4.53
342.82	4.66
343.191	4.94
343.562	5.22
343.933	4.64
344.303	4.54
344.674	4.95
345.045	5.17
345.416	5.04
345.786	4.77
346.157	5.08
346.527	4.99
346.898	4.99
347.268	5.02
347.639	4.84
348.009	4.53
348.38	4.7
348.75	4.65
349.12	5.42
349.49	4.73
349.861	5.17
350.231	4.72
350.601	4.82
350.971	5.34
351.341	4.7
351.711	5.38
352.081	4.87
352.45	5.07
352.82	5.07
353.19	4.93
353.56	5.05
353.929	5.1
354.299	5.19
354.669	5.07
355.038	5
355.408	5
355.777	5.01
356.147	4.8
356.516	5.12
356.885	5.03
357.254	4.87
357.624	4.79
357.993	4.93
358.362	5
358.731	4.34
359.1	4.48
359.469	4.84
359.838	4.8
360.207	4.92
360.576	5.48
360.945	4.98
361.314	5.1
361.682	5.13
362.051	4.75
362.42	4.92
362.788	5.16
363.157	5.05
363.525	4.94
363.894	5.02
364.262	5.03
364.631	5.07
364.999	5.03
365.367	5.19
365.735	5.14
366.104	4.89
366.472	5.09
366.84	5.35
367.208	5.31
367.576	5.03
367.944	5.24
368.312	5.21
368.68	5.57
369.048	5.06
369.416	4.97
369.783	5.24
370.151	5.16
370.519	5.11
370.886	5.05
371.254	5.47
371.621	5.54
371.989	4.97
372.356	5.37
372.724	5.28
373.091	5.2
373.458	4.96
373.826	5.23
374.193	4.93
374.56	5.42
374.927	5.47
375.294	5.26
375.661	5.75
376.028	5.59
376.395	5.38
376.762	5.17
377.129	4.97
377.496	5.55
377.863	5.48
378.229	5.59
378.596	5.19
378.963	5.6
379.329	5.28
379.696	5.56
380.062	5.4
380.429	5.15
380.795	5.33
381.161	5.53
381.528	5.72
381.894	5.15
382.26	5.5
382.626	5.77
382.993	5.3
383.359	5.39
383.725	5.51
384.091	5.59
384.457	5.57
384.823	5.43
385.188	5.69
385.554	5.37
385.92	5.56
386.286	5.19
386.651	5.47
387.017	5.64
387.383	5.63
387.748	5.55
388.114	5.44
388.479	5.44
388.845	5.7
389.21	5.34
389.575	5.36
389.94	5.76
390.306	5.58
390.671	5.22
391.036	5.41
391.401	5.72
391.766	5.86
392.131	5.46
392.496	5.54
392.861	5.83
393.226	5.69
393.591	5.56
393.956	5.75
394.32	5.7
394.685	5.59
395.05	5.56
395.414	5.97
395.779	5.55
396.143	5.47
396.508	5.43
396.872	5.63
397.236	5.67
397.601	5.77
397.965	5.55
398.329	5.42
398.694	5.79
399.058	5.6
399.422	5.84
399.786	5.75
400.15	5.65
400.514	5.56
400.878	5.67
401.242	5.77
401.605	5.8
401.969	5.38
402.333	5.7
402.697	5.84
403.06	5.82
403.424	5.8
403.787	5.51
404.151	5.81
404.514	5.99
404.878	5.96
405.241	5.77
405.604	5.65
405.968	5.86
406.331	6
406.694	5.85
407.057	5.69
407.42	5.96
407.783	5.83
408.146	5.72
408.509	5.74
408.872	6.14
409.235	5.66
409.598	5.91
409.961	5.72
410.323	5.75
410.686	5.62
411.049	5.97
411.411	5.74
411.774	5.82
412.136	5.89
412.499	6.07
412.861	6.03
413.223	5.92
413.586	5.84
413.948	6.01
414.31	6.29
414.672	5.71
415.035	5.81
415.397	6.11
415.759	5.98
416.121	5.81
416.483	6.17
416.845	5.85
417.206	5.84
417.568	5.97
417.93	6.05
418.292	5.81
418.653	6.05
419.015	5.86
419.377	5.82
419.738	5.99
420.1	5.94
420.461	5.79
420.822	5.83
421.184	5.8
421.545	5.9
421.906	5.88
422.267	5.76
422.629	5.89
422.99	5.74
423.351	5.85
423.712	5.7
424.073	5.89
424.434	5.79
424.795	5.79
425.155	5.97
425.516	5.87
425.877	5.83
426.238	5.76
426.598	5.84
426.959	5.81
427.32	5.89
427.68	6.02
428.041	5.86
428.401	5.91
428.761	5.97
429.122	5.85
429.482	6.05
429.842	5.91
430.202	6.02
430.563	6.07
430.923	6.08
431.283	6
431.643	6.2
432.003	6.2
432.363	5.95
432.722	6.19
433.082	6.03
433.442	6.03
433.802	6.35
434.161	6
434.521	6.26
434.881	6.07
435.24	6.19
435.6	5.97
435.959	6.1
436.319	6.07
436.678	6.12
437.037	6.19
437.396	6.03
437.756	6.09
438.115	5.9
438.474	5.99
438.833	6.29
439.192	6.03
439.551	6.03
439.91	6.17
440.269	6.28
440.628	6.14
440.987	6.01
441.345	5.97
441.704	6.09
442.063	6.11
442.421	6.02
442.78	5.97
443.138	6.2
443.497	6.12
443.855	6.11
444.214	6.03
444.572	6.02
444.93	6.22
445.288	6.15
445.647	6.31
446.005	5.94
446.363	6.06
446.721	6.17
447.079	6.17
447.437	6
447.795	5.98
448.153	5.99
448.51	6.09
448.868	5.98
449.226	6.01
449.584	6.04
449.941	6.01
450.299	6.09
450.656	6.04
451.014	6.13
451.371	6.23
451.729	6.05
452.086	6.16
452.443	6.24
452.801	6.15
453.158	6.42
453.515	6.3
453.872	6.29
454.229	6.24
454.586	6.19
454.943	6.19
455.3	6.14
455.657	6.31
456.014	6.16
456.371	6.2
456.727	6.13
457.084	6.37
457.441	6.31
457.797	6.24
458.154	6.22
458.51	6.22
458.867	6.26
459.223	6.31
459.58	6.28
459.936	6.3
460.292	6.19
460.648	6.06
461.005	6.12
461.361	6.09
461.717	5.98
462.073	6.12
462.429	6.06
462.785	6.19
463.141	6.25
463.496	6.28
463.852	6.34
464.208	6.29
464.564	6.3
464.919	6.26
465.275	6.45
465.631	6.37
465.986	6.32
466.342	6.47
466.697	6.36
467.052	6.2
467.408	6.33
467.763	6.39
468.118	6.55
468.473	6.46
468.829	6.32
469.184	6.46
469.539	6.33
469.894	6.5
470.249	6.29
470.603	6.27
470.958	6.44
471.313	6.5
471.668	6.45
472.023	6.51
472.377	6.45
472.732	6.15
473.086	6.5
473.441	6.56
473.795	6.46
474.15	6.35
474.504	6.24
474.859	6.4
475.213	6.51
475.567	6.54
475.921	6.49
476.275	6.33
476.63	6.44
476.984	6.43
477.338	6.53
477.692	6.4
478.045	6.38
478.399	6.36
478.753	6.48
479.107	6.39
479.461	6.48
479.814	6.43
480.168	6.53
480.521	6.4
480.875	6.48
481.228	6.54
481.582	6.42
481.935	6.32
482.289	6.26
482.642	6.39
482.995	6.28
483.348	6.27
483.701	6.31
484.055	6.31
484.408	6.2
484.761	6.16
485.114	6.13
485.466	6.06
485.819	5.91
486.172	5.88
486.525	5.9
486.878	5.99
487.23	6.04
487.583	6.07
487.936	6.16
488.288	6.18
488.641	6.19
488.993	6.11
489.345	6.06
489.698	6.04
490.05	5.98
490.402	6.01
490.754	6.05
491.107	6.07
491.459	6.16
491.811	6.27
492.163	6.18
492.515	6.28
492.866	6.32
493.218	6.16
493.57	6.08
493.922	6.05
494.274	6.05
494.625	6.11
494.977	6.1
495.328	6.23
495.68	6.43
496.031	6.36
496.383	6.44
496.734	6.4
497.086	6.37
497.437	6.6
497.788	6.32
498.139	6.43
498.49	6.38
498.842	6.18
499.193	6.32
499.544	6.35
499.894	6.37
500.245	6.25
500.596	6.37
500.947	6.43
501.298	6.37
501.648	6.29
501.999	6.42
502.35	6.45
502.7	6.5
503.051	6.45
503.401	6.47
503.752	6.52
504.102	6.4
504.452	6.48
504.803	6.4
505.153	6.54
505.503	6.54
505.853	6.53
506.203	6.34
506.553	6.48
506.903	6.47
507.253	6.45
507.603	6.4
507.953	6.46
508.303	6.5
508.652	6.5
509.002	6.46
509.352	6.48
509.701	6.41
510.051	6.42
510.4	6.42
510.75	6.41
511.099	6.39
511.449	6.39
511.798	6.52
512.147	6.37
512.496	6.46
512.846	6.35
513.195	6.42
513.544	6.41
513.893	6.35
514.242	6.35
514.591	6.47
514.939	6.3
515.288	6.3
515.637	6.36
515.986	6.45
516.334	6.4
516.683	6.43
517.032	6.26
517.38	6.43
517.729	6.5
518.077	6.39
518.426	6.49
518.774	6.36
519.122	6.43
519.47	6.39
519.819	6.32
520.167	6.34
520.515	6.31
520.863	6.39
521.211	6.38
521.559	6.36
521.907	6.32
522.255	6.32
522.602	6.5
522.95	6.37
523.298	6.43
523.645	6.42
523.993	6.27
524.341	6.38
524.688	6.47
525.036	6.49
525.383	6.47
525.73	6.5
526.078	6.41
526.425	6.44
526.772	6.4
527.119	6.36
527.466	6.29
527.814	6.33
528.161	6.29
528.508	6.29
528.854	6.3
529.201	6.33
529.548	6.35
529.895	6.28
530.242	6.13
530.588	6.02
530.935	6.01
531.282	6.09
531.628	6.17
531.975	6.05
532.321	6.15
532.667	6.25
533.014	6.35
533.36	6.39
533.706	6.3
534.052	6.45
534.399	6.26
534.745	6.2
535.091	6.21
535.437	6.25
535.783	6.13
536.129	6.19
536.474	6.26
536.82	6.34
537.166	6.26
537.512	6.38
537.857	6.4
538.203	6.27
538.549	6.42
538.894	6.21
539.239	6.34
539.585	6.23
539.93	6.28
540.276	6.44
540.621	6.45
540.966	6.43
541.311	6.44
541.656	6.38
542.001	6.45
542.346	6.42
542.691	6.29
543.036	6.26
543.381	6.16
543.726	6.12
544.071	6.11
544.415	6.14
544.76	6.22
545.105	6.23
545.449	6.24
545.794	6.34
546.138	6.21
546.483	6.31
546.827	6.36
547.171	6.44
547.516	6.35
547.86	6.36
548.204	6.34
548.548	6.34
548.892	6.17
549.236	6.31
549.58	6.27
549.924	6.15
550.268	6.42
550.612	6.34
550.956	6.53
551.3	6.37
551.643	6.32
551.987	6.35
552.33	6.39
552.674	6.37
553.017	6.49
553.361	6.54
553.704	6.69
554.048	6.43
554.391	6.35
554.734	6.43
555.077	6.48
555.42	6.25
555.764	6.34
556.107	6.5
556.45	6.4
556.793	6.33
557.135	6.41
557.478	6.4
557.821	6.53
558.164	6.56
558.507	6.47
558.849	6.72
559.192	6.4
559.534	6.59
559.877	6.27
560.219	6.53
560.562	6.46
560.904	6.36
561.246	6.59
561.589	6.41
561.931	6.51
562.273	6.39
562.615	6.76
562.957	6.47
563.299	6.62
563.641	6.41
563.983	6.5
564.325	6.36
564.667	6.51
565.008	6.31
565.35	6.39
565.692	6.59
566.033	6.37
566.375	6.39
566.716	6.29
567.058	6.44
567.399	6.33
567.741	6.32
568.082	6.34
568.423	6.4
568.764	6.29
569.105	6.35
569.447	6.32
569.788	6.29
570.129	6.42
570.47	6.37
570.811	6.4
571.151	6.4
571.492	6.56
571.833	6.5
572.174	6.53
572.514	6.46
572.855	6.4
573.195	6.35
573.536	6.19
573.876	6.47
574.217	6.34
574.557	6.19
574.898	6.08
575.238	6.18
575.578	6.32
575.918	6.14
576.258	6.47
576.598	6.4
576.938	6.41
577.278	6.46
577.618	6.17
577.958	6.29
578.298	6.27
578.638	6.44
578.977	6.25
579.317	6.33
579.657	6.18
579.996	6.37
580.336	6.59
580.675	6.2
581.014	6.3
581.354	6.32
581.693	6.33
582.032	6.46
582.372	6.31
582.711	6.35
583.05	6.62
583.389	6.4
583.728	6.35
584.067	6.17
584.406	6.19
584.745	6.22
585.083	6.26
585.422	6.33
585.761	6.34
586.1	6.32
586.438	6.31
586.777	6.38
587.115	6.47
587.454	6.33
587.792	6.46
588.13	6.61
588.469	6.4
588.807	6.06
589.145	6.13
589.483	6.12
589.821	6.2
590.159	6.41
590.497	6.41
590.835	6.18
591.173	6.18
591.511	6.31
591.849	6.28
592.187	6.25
592.524	6.08
592.862	6.25
593.2	6.24
593.537	6.09
593.875	6.18
594.212	6.49
594.55	6.41
594.887	6.28
595.224	5.99
595.561	6.15
595.899	6.13
596.236	6.34
596.573	6.32
596.91	6.44
597.247	6.13
597.584	6.13
597.921	6.37
598.258	6.12
598.594	6.37
598.931	6
599.268	5.96
599.604	6.15
599.941	6.09
600.277	6.07
600.614	6.17
600.95	6.08
601.287	6.14
601.623	6.26
601.959	6.05
602.296	6.11
602.632	6.11
602.968	5.92
603.304	6.22
603.64	6.03
603.976	6.21
604.312	6.4
604.648	6.26
604.984	6.1
605.319	6.15
605.655	5.97
605.991	6.14
606.326	5.93
606.662	6.05
606.998	5.89
607.333	5.83
607.668	5.95
608.004	6.01
608.339	6.03
608.674	6.25
609.01	6.33
609.345	6.17
609.68	6.33
610.015	6.06
610.35	6.17
610.685	6.29
611.02	6
611.355	6.11
611.689	5.93
612.024	6.03
612.359	6.01
612.694	6.09
613.028	6.19
613.363	5.84
613.697	6.02
614.032	6.11
614.366	6.11
614.7	6.02
615.035	5.78
615.369	6.42
615.703	5.77
616.037	6.37
616.371	6.09
616.705	6.05
617.039	6.17
617.373	6.18
617.707	6.09
618.041	6.03
618.375	5.93
618.709	5.75
619.042	6.35
619.376	6.34
619.71	6.13
620.043	6.22
620.377	6.19
620.71	6.05
621.043	6.26
621.377	6.01
621.71	6.14
622.043	6
622.376	6.42
622.709	6.14
623.043	5.91
623.376	5.97
623.709	5.81
624.041	5.9
624.374	6.19
624.707	5.77
625.04	6.21
625.373	6.08
625.705	5.96
626.038	6.11
626.37	5.44
626.703	6.14
627.035	5.9
627.368	6.14
627.7	5.66
628.032	6
628.365	6.42
628.697	5.77
629.029	5.82
629.361	5.73
629.693	5.74
630.025	5.81
630.357	6.14
630.689	5.84
631.021	6.38
631.353	6.09
631.684	5.76
632.016	6.23
632.348	5.8
632.679	5.93
633.011	6.12
633.342	5.68
633.674	6.21
634.005	5.95
634.336	6.1
634.668	5.68
634.999	5.83
635.33	5.52
635.661	6.17
635.992	6.12
636.323	5.66
636.654	5.73
636.985	5.71
637.316	5.76
637.647	5.86
637.977	5.79
638.308	5.85
638.639	6.18
638.969	5.68
639.3	5.78
639.63	6.12
639.961	6.16
640.291	5.71
640.622	5.99
640.952	5.88
641.282	5.66
641.612	5.81
641.943	6.11
642.273	5.79
642.603	5.9
642.933	5.66
643.263	6.27
643.592	5.97
643.922	6.54
644.252	5.66
644.582	6.08
644.911	6.3
645.241	6.15
645.571	6.12
645.9	5.95
646.23	5.91
646.559	5.5
646.888	5.43
647.218	5.8
647.547	5.6
647.876	5.55
648.205	6.06
648.534	6.16
648.863	5.85
649.192	5.85
649.521	5.99
649.85	6.42
650.179	5.64
650.508	5.71
650.837	5.92
651.165	5.81
651.494	5.45
651.822	6
652.151	6.1
652.479	5.52
652.808	6.18
653.136	5.47
653.465	5.47
653.793	5.88
654.121	6.16
654.449	5.8
654.777	5.87
655.105	5.88
655.433	6.36
655.761	5.94
656.089	5.91
656.417	6.11
656.745	6.19
657.073	5.99
657.4	6.79
657.728	5.96
658.056	5.89
658.383	5.69
658.711	5.22
659.038	5.85
659.365	5.9
659.693	5.92
660.02	5.71
660.347	5.88
660.674	5.65
661.001	5.73
661.329	6.15
661.656	5.88
661.982	5.81
662.309	5.85
662.636	5.86
662.963	5.74
663.29	5.73
663.616	6.14
663.943	5.66
664.27	6.25
664.596	5.6
664.923	5.29
665.249	5.99
665.576	5.71
665.902	6.1
666.228	5.95
666.554	6.14
666.881	5.84
667.207	5.58
667.533	6.2
667.859	6.02
668.185	6.38
668.511	6.08
668.837	6.2
669.162	6.11
669.488	6.02
669.814	5.55
670.139	5.72
670.465	5.77
670.791	5.7
671.116	6.25
671.442	5.89
671.767	5.62
672.092	5.56
672.418	5.88
672.743	5.64
673.068	6.12
673.393	6.11
673.718	5.79
674.043	5.75
674.368	5.61
674.693	6.16
675.018	6.53
675.343	5.93
675.667	5.92
675.992	6.1
676.317	5.58
676.641	5.76
676.966	6.03
677.29	6.25
677.615	5.88
677.939	5.79
678.264	6.25
678.588	6.07
678.912	6.91
679.236	5.76
679.56	5.87
679.885	6.01
680.209	6.24
680.532	4.93
680.856	5.36
681.18	5.42
681.504	6.02
681.828	6.03
682.152	6.42
682.475	5.47
682.799	5.52
683.122	5.82
683.446	5.82
683.769	6.07
684.093	5.82
684.416	6
684.739	5.09
685.062	5.23
685.386	5.82
685.709	6.05
686.032	6.14
686.355	5.89
686.678	6.12
687.001	6.35
687.324	5.22
687.646	5.83
687.969	6.28
688.292	5.68
688.614	5.79
688.937	5.39
689.26	5.31
689.582	5.52
689.904	5.08
690.227	6
690.549	6.12
690.871	5.83
691.194	6.46
691.516	5.53
691.838	6.6
692.16	6.84
692.482	6.29
692.804	5.35
693.126	5.82
693.448	6.34
