Data from 0011_chest_Reflection__2__334.txt Node

Date: Thu Dec 15 19:16:51 CST 2022
User: ToomeyLab
Spectrometer: FLMS14357
Trigger mode: 0
Integration Time (sec): 1.000000E-2
Scans to average: 100
Electric dark correction enabled: true
Nonlinearity correction enabled: false
Boxcar width: 0
XAxis mode: Wavelengths
Number of Pixels in Spectrum: 2048
>>>>>Begin Spectral Data<<<<<
189.047	-21.32
189.435	-21.32
189.823	-21.32
190.211	-225.94
190.599	153.19
190.987	12.31
191.375	-48.14
191.763	116.8
192.151	738.2
192.538	-111.31
192.926	109.94
193.314	130.57
193.702	82.59
194.089	7.37
194.477	331.68
194.864	157.02
195.252	2.71
195.639	337.99
196.027	91.96
196.414	203.19
196.801	-170.03
197.189	9.02
197.576	303.29
197.963	57.87
198.351	4.63
198.738	-40.41
199.125	-43.81
199.512	57.85
199.899	-107.09
200.286	0.49
200.673	61.26
201.06	-13.42
201.447	-46.91
201.833	-33.34
202.22	-38.34
202.607	-31.41
202.994	-23.24
203.38	-8.49
203.767	-28.47
204.154	14.41
204.54	53.78
204.927	9.47
205.313	55.07
205.699	11.58
206.086	43.97
206.472	-12.09
206.858	30.41
207.245	10.15
207.631	0.61
208.017	30.63
208.403	-13.73
208.789	-14.55
209.175	-19.34
209.561	-77.74
209.947	-12.74
210.333	27.56
210.719	20.19
211.105	30.22
211.491	-12.77
211.876	-72.61
212.262	17.66
212.648	-23.92
213.034	-39.38
213.419	3.01
213.805	-79.87
214.19	-71.83
214.576	6.51
214.961	-12.85
215.346	-17.36
215.732	-5.94
216.117	-20.44
216.502	-13.89
216.888	-15.64
217.273	-11.03
217.658	-36.95
218.043	-43.71
218.428	-42.78
218.813	5.9
219.198	-46.58
219.583	-11.6
219.968	-12.75
220.353	-22.15
220.738	0.71
221.122	-33.72
221.507	-44.02
221.892	-6.66
222.276	-45.15
222.661	-17.84
223.046	-7.61
223.43	9.36
223.815	-6.24
224.199	-3.94
224.583	-3.62
224.968	-11.09
225.352	-31.45
225.736	3.35
226.121	-7.49
226.505	-8.37
226.889	-0.27
227.273	-2.63
227.657	-1.32
228.041	-2.92
228.425	-4.4
228.809	0.14
229.193	3.05
229.577	2.41
229.961	2.09
230.344	3.27
230.728	3.75
231.112	4.22
231.495	1.64
231.879	2.68
232.263	4.73
232.646	1.7
233.03	4.54
233.413	4.23
233.797	2.83
234.18	2.85
234.563	2.44
234.946	0.62
235.33	4.73
235.713	3.87
236.096	4.21
236.479	3.95
236.862	2.35
237.245	3.01
237.628	3.55
238.011	2.48
238.394	3.59
238.777	3.06
239.16	6.06
239.543	4.57
239.925	3.76
240.308	2.21
240.691	0.74
241.073	3.94
241.456	3.22
241.838	3.07
242.221	2.68
242.603	3.65
242.986	3.3
243.368	4.23
243.75	3.82
244.133	3.77
244.515	3.73
244.897	3.49
245.279	3.11
245.661	3.15
246.043	4.36
246.425	3.76
246.807	3.47
247.189	3.7
247.571	3.52
247.953	3.53
248.335	3.66
248.717	3.92
249.098	3.71
249.48	3.61
249.862	3.81
250.243	3.71
250.625	3.58
251.006	3.93
251.388	3.93
251.769	3.57
252.151	4.34
252.532	3.07
252.913	3.36
253.295	3.49
253.676	3.54
254.057	2.74
254.438	2.88
254.819	2.37
255.2	3.24
255.581	4.8
255.962	3.49
256.343	3.85
256.724	3.7
257.105	2.77
257.486	2.6
257.867	2.34
258.247	3.44
258.628	2.44
259.009	2.87
259.389	2.66
259.77	3.07
260.15	3.63
260.531	3.02
260.911	3.62
261.292	3.55
261.672	3.3
262.052	3.22
262.432	3.08
262.813	3.79
263.193	3.16
263.573	3.53
263.953	2.36
264.333	3.57
264.713	3.47
265.093	1.95
265.473	2.91
265.853	2.41
266.233	3.26
266.612	3.02
266.992	3.14
267.372	3.43
267.752	3.56
268.131	2.52
268.511	3.03
268.89	3.62
269.27	2.87
269.649	2.79
270.029	2.87
270.408	2.75
270.787	3.3
271.167	3.15
271.546	3.92
271.925	3.02
272.304	2.92
272.683	3.05
273.062	3.31
273.441	2.75
273.82	3.05
274.199	2.82
274.578	3.11
274.957	3.29
275.336	3.85
275.715	3.64
276.093	2.67
276.472	2.7
276.851	3.54
277.229	2.6
277.608	2.66
277.986	3.09
278.365	3.38
278.743	3.38
279.122	2.73
279.5	2.74
279.878	2.63
280.257	3.04
280.635	3.21
281.013	2.28
281.391	2.56
281.769	3.47
282.147	2.56
282.525	2.68
282.903	2.76
283.281	3.48
283.659	3.43
284.037	2.43
284.415	3.04
284.792	3.34
285.17	2.88
285.548	2.89
285.925	2.89
286.303	3.29
286.68	3.41
287.058	3.29
287.435	2.83
287.813	2.93
288.19	3.2
288.567	2.87
288.945	2.66
289.322	3.07
289.699	3.34
290.076	2.55
290.453	2.66
290.83	3.29
291.207	2.8
291.584	3.24
291.961	3.04
292.338	2.93
292.715	3.28
293.092	3.45
293.469	3.66
293.845	3.66
294.222	3.93
294.599	2.77
294.975	2.77
295.352	3.57
295.728	3.29
296.105	3.66
296.481	3.61
296.858	3.47
297.234	2.66
297.61	3.65
297.986	3.84
298.363	3.44
298.739	3.49
299.115	3.63
299.491	3.84
299.867	3.06
300.243	3.35
300.619	3.19
300.995	3.84
301.371	3.6
301.746	3.67
302.122	3.66
302.498	3.29
302.874	3.48
303.249	3.65
303.625	3.47
304	3.74
304.376	4
304.751	4.05
305.127	3.58
305.502	3.89
305.878	3.84
306.253	3.07
306.628	4.25
307.003	3
307.378	3.29
307.754	3.3
308.129	3.33
308.504	3.56
308.879	3.99
309.254	3.6
309.629	3.66
310.003	3.44
310.378	3.65
310.753	3.75
311.128	3.35
311.502	3.48
311.877	3.37
312.252	3.74
312.626	4.11
313.001	3.9
313.375	3.7
313.75	3.63
314.124	3.7
314.498	4.12
314.873	3.24
315.247	3.48
315.621	3.06
315.995	3.6
316.369	3.21
316.743	3.82
317.117	3.89
317.491	3.92
317.865	3.25
318.239	4.17
318.613	3.73
318.987	3.41
319.361	3.81
319.734	3.89
320.108	3.38
320.482	4.24
320.855	3.78
321.229	4
321.602	3.88
321.976	3.5
322.349	4.23
322.723	4.15
323.096	3.6
323.469	3.29
323.843	3.67
324.216	3.93
324.589	4.38
324.962	3.08
325.335	3.87
325.708	4.04
326.081	3.79
326.454	3.87
326.827	3.5
327.2	3.01
327.573	4.57
327.945	3.8
328.318	3.98
328.691	3.86
329.063	3.75
329.436	3.49
329.809	4.56
330.181	4.47
330.553	4.09
330.926	4.13
331.298	3.35
331.671	3.44
332.043	3.38
332.415	4.18
332.787	3.6
333.159	3.63
333.532	3.76
333.904	4.48
334.276	3.81
334.648	3.95
335.02	3.89
335.391	3.47
335.763	3.93
336.135	4.31
336.507	3.87
336.879	4.07
337.25	3.8
337.622	4.12
337.993	3.6
338.365	4.25
338.736	3.95
339.108	3.94
339.479	3.94
339.851	4.23
340.222	4.01
340.593	3.93
340.964	4.32
341.336	3.89
341.707	3.63
342.078	4.04
342.449	3.65
342.82	4.26
343.191	4.09
343.562	3.98
343.933	3.76
344.303	3.92
344.674	4.22
345.045	4.08
345.416	4.42
345.786	3.78
346.157	4.36
346.527	4.14
346.898	3.87
347.268	4.17
347.639	3.95
348.009	4.15
348.38	3.91
348.75	4.32
349.12	4.23
349.49	3.92
349.861	4.32
350.231	4.28
350.601	4.32
350.971	3.83
351.341	4.04
351.711	3.9
352.081	4.06
352.45	3.66
352.82	4.2
353.19	4.12
353.56	3.78
353.929	4.15
354.299	4.3
354.669	4.39
355.038	4.17
355.408	4.05
355.777	4.18
356.147	3.87
356.516	3.93
356.885	4.22
357.254	4.03
357.624	3.86
357.993	4.3
358.362	4.35
358.731	4.48
359.1	4.07
359.469	4.31
359.838	4.26
360.207	4.39
360.576	4.14
360.945	4.28
361.314	4.19
361.682	3.87
362.051	4.25
362.42	4.39
362.788	4.32
363.157	4.2
363.525	4.29
363.894	4.19
364.262	4.24
364.631	4.56
364.999	4.42
365.367	4.31
365.735	4.39
366.104	4.4
366.472	4.37
366.84	4.06
367.208	4.22
367.576	4.43
367.944	4.08
368.312	4.12
368.68	4.41
369.048	4.06
369.416	4.2
369.783	4.4
370.151	4.52
370.519	4.89
370.886	4.4
371.254	4.62
371.621	4.49
371.989	4.64
372.356	4.27
372.724	4.33
373.091	4.52
373.458	4.31
373.826	4.54
374.193	4.44
374.56	4.7
374.927	4.18
375.294	4.42
375.661	4.14
376.028	4.37
376.395	4.73
376.762	4.27
377.129	4.37
377.496	4.46
377.863	4.29
378.229	4.55
378.596	4.63
378.963	4.66
379.329	4.63
379.696	4.33
380.062	4.37
380.429	4.47
380.795	5.01
381.161	4.48
381.528	4.33
381.894	4.23
382.26	4.83
382.626	4.56
382.993	4.93
383.359	4.49
383.725	4.5
384.091	4.74
384.457	4.43
384.823	4.52
385.188	4.6
385.554	4.59
385.92	4.53
386.286	4.79
386.651	4.52
387.017	4.85
387.383	4.52
387.748	4.79
388.114	4.91
388.479	4.61
388.845	4.36
389.21	5.03
389.575	4.73
389.94	4.63
390.306	4.78
390.671	4.62
391.036	4.4
391.401	4.58
391.766	4.39
392.131	4.82
392.496	4.82
392.861	4.64
393.226	4.76
393.591	4.9
393.956	4.7
394.32	4.72
394.685	4.78
395.05	4.64
395.414	4.64
395.779	5.01
396.143	4.6
396.508	4.87
396.872	4.79
397.236	4.91
397.601	4.93
397.965	4.74
398.329	4.76
398.694	4.34
399.058	4.78
399.422	4.67
399.786	4.61
400.15	4.74
400.514	4.7
400.878	4.75
401.242	4.71
401.605	4.95
401.969	4.73
402.333	4.6
402.697	4.96
403.06	4.9
403.424	5.01
403.787	4.84
404.151	4.87
404.514	5.04
404.878	4.54
405.241	4.87
405.604	4.85
405.968	4.87
406.331	4.91
406.694	4.8
407.057	4.56
407.42	4.84
407.783	4.95
408.146	4.88
408.509	4.95
408.872	4.87
409.235	4.99
409.598	5
409.961	5.03
410.323	4.74
410.686	4.92
411.049	5.05
411.411	4.77
411.774	4.92
412.136	4.98
412.499	5.04
412.861	4.52
413.223	4.68
413.586	4.89
413.948	5.1
414.31	5.1
414.672	4.98
415.035	5.07
415.397	5.07
415.759	4.63
416.121	5.02
416.483	4.93
416.845	4.94
417.206	5.03
417.568	4.96
417.93	4.95
418.292	4.93
418.653	4.83
419.015	5
419.377	4.94
419.738	5.01
420.1	4.96
420.461	4.79
420.822	4.98
421.184	4.97
421.545	4.98
421.906	4.97
422.267	4.88
422.629	4.88
422.99	4.86
423.351	4.91
423.712	4.97
424.073	5
424.434	5.12
424.795	4.97
425.155	4.87
425.516	4.96
425.877	4.97
426.238	5
426.598	5.14
426.959	5.17
427.32	4.91
427.68	4.92
428.041	5.2
428.401	4.95
428.761	5.24
429.122	5.11
429.482	5.11
429.842	5.09
430.202	5.1
430.563	5.08
430.923	5.15
431.283	5.3
431.643	5.29
432.003	5.11
432.363	5.34
432.722	5.31
433.082	5.08
433.442	5.33
433.802	5.17
434.161	5.13
434.521	5.2
434.881	5.18
435.24	5.06
435.6	5.12
435.959	5.14
436.319	5.12
436.678	5.26
437.037	5.25
437.396	5.24
437.756	4.94
438.115	5.2
438.474	5.16
438.833	5.27
439.192	5.34
439.551	5.12
439.91	5.43
440.269	5.21
440.628	5.25
440.987	5.31
441.345	5.26
441.704	5.31
442.063	5.26
442.421	5.32
442.78	5.28
443.138	5.28
443.497	5.16
443.855	5.46
444.214	5.21
444.572	5.49
444.93	5.33
445.288	5.4
445.647	5.22
446.005	5.38
446.363	5.29
446.721	5.27
447.079	5.13
447.437	5.3
447.795	5.28
448.153	5.25
448.51	5.35
448.868	5.19
449.226	5.35
449.584	5.26
449.941	5.36
450.299	5.23
450.656	5.38
451.014	5.46
451.371	5.5
451.729	5.34
452.086	5.39
452.443	5.45
452.801	5.52
453.158	5.61
453.515	5.45
453.872	5.39
454.229	5.32
454.586	5.47
454.943	5.5
455.3	5.38
455.657	5.35
456.014	5.47
456.371	5.46
456.727	5.51
457.084	5.66
457.441	5.55
457.797	5.53
458.154	5.53
458.51	5.34
458.867	5.27
459.223	5.3
459.58	5.55
459.936	5.5
460.292	5.39
460.648	5.28
461.005	5.38
461.361	5.55
461.717	5.37
462.073	5.53
462.429	5.6
462.785	5.67
463.141	5.65
463.496	5.69
463.852	5.71
464.208	5.69
464.564	5.56
464.919	5.69
465.275	5.59
465.631	5.77
465.986	5.53
466.342	5.53
466.697	5.51
467.052	5.84
467.408	5.71
467.763	5.56
468.118	5.49
468.473	5.69
468.829	5.55
469.184	5.72
469.539	5.59
469.894	5.68
470.249	5.84
470.603	5.8
470.958	5.76
471.313	5.79
471.668	5.85
472.023	5.89
472.377	5.79
472.732	5.96
473.086	5.96
473.441	5.74
473.795	5.95
474.15	5.84
474.504	5.85
474.859	5.51
475.213	5.87
475.567	5.58
475.921	5.8
476.275	5.8
476.63	5.79
476.984	5.76
477.338	5.89
477.692	5.69
478.045	5.88
478.399	5.88
478.753	5.87
479.107	6
479.461	5.79
479.814	5.94
480.168	5.98
480.521	5.98
480.875	5.99
481.228	5.89
481.582	5.95
481.935	6.06
482.289	5.95
482.642	5.97
482.995	5.86
483.348	5.86
483.701	5.86
484.055	5.88
484.408	5.81
484.761	5.76
485.114	5.57
485.466	5.56
485.819	5.59
486.172	5.65
486.525	5.72
486.878	5.81
487.23	5.77
487.583	5.88
487.936	5.82
488.288	5.83
488.641	5.71
488.993	5.71
489.345	5.68
489.698	5.75
490.05	5.77
490.402	5.85
490.754	5.85
491.107	5.86
491.459	6.06
491.811	5.98
492.163	5.94
492.515	5.89
492.866	5.79
493.218	5.81
493.57	5.95
493.922	5.93
494.274	6.02
494.625	6.03
494.977	6.16
495.328	6.17
495.68	6.13
496.031	6.17
496.383	6.13
496.734	6.25
497.086	6.15
497.437	6.25
497.788	6.21
498.139	6.24
498.49	6.3
498.842	6.23
499.193	6.17
499.544	6.29
499.894	6.23
500.245	6.32
500.596	6.35
500.947	6.23
501.298	6.32
501.648	6.35
501.999	6.42
502.35	6.21
502.7	6.53
503.051	6.37
503.401	6.3
503.752	6.31
504.102	6.36
504.452	6.24
504.803	6.31
505.153	6.42
505.503	6.4
505.853	6.57
506.203	6.53
506.553	6.35
506.903	6.59
507.253	6.5
507.603	6.41
507.953	6.58
508.303	6.44
508.652	6.3
509.002	6.55
509.352	6.47
509.701	6.38
510.051	6.53
510.4	6.53
510.75	6.38
511.099	6.43
511.449	6.52
511.798	6.45
512.147	6.5
512.496	6.62
512.846	6.58
513.195	6.52
513.544	6.55
513.893	6.67
514.242	6.52
514.591	6.62
514.939	6.76
515.288	6.58
515.637	6.63
515.986	6.76
516.334	6.8
516.683	6.75
517.032	6.56
517.38	6.74
517.729	6.67
518.077	6.83
518.426	6.78
518.774	6.74
519.122	6.85
519.47	6.65
519.819	6.82
520.167	6.67
520.515	6.69
520.863	6.7
521.211	6.7
521.559	6.66
521.907	6.84
522.255	6.86
522.602	6.94
522.95	6.9
523.298	6.92
523.645	6.98
523.993	6.93
524.341	6.95
524.688	7.01
525.036	6.91
525.383	7.01
525.73	6.96
526.078	7.05
526.425	6.97
526.772	6.9
527.119	6.95
527.466	6.98
527.814	6.86
528.161	7.02
528.508	7.06
528.854	6.97
529.201	6.89
529.548	6.89
529.895	6.82
530.242	6.75
530.588	6.79
530.935	6.83
531.282	6.9
531.628	7
531.975	7.03
532.321	7.12
532.667	7.22
533.014	7.25
533.36	7.16
533.706	7.19
534.052	7.15
534.399	7.14
534.745	7.09
535.091	7.03
535.437	7.18
535.783	7.15
536.129	7.24
536.474	7.33
536.82	7.43
537.166	7.32
537.512	7.33
537.857	7.33
538.203	7.37
538.549	7.33
538.894	7.44
539.239	7.52
539.585	7.56
539.93	7.56
540.276	7.49
540.621	7.61
540.966	7.58
541.311	7.61
541.656	7.62
542.001	7.53
542.346	7.39
542.691	7.39
543.036	7.38
543.381	7.44
543.726	7.54
544.071	7.5
544.415	7.57
544.76	7.61
545.105	7.62
545.449	7.64
545.794	7.7
546.138	7.79
546.483	7.81
546.827	7.86
547.171	7.91
547.516	7.94
547.86	7.89
548.204	7.95
548.548	7.87
548.892	7.87
549.236	7.89
549.58	8.06
549.924	8.1
550.268	8.07
550.612	8.21
550.956	8.31
551.3	8.44
551.643	8.23
551.987	8.51
552.33	8.5
552.674	8.43
553.017	8.42
553.361	8.3
553.704	8.38
554.048	8.11
554.391	8.37
554.734	8.32
555.077	8.23
555.42	8.35
555.764	8.36
556.107	8.52
556.45	8.47
556.793	8.64
557.135	8.66
557.478	8.5
557.821	8.7
558.164	8.58
558.507	8.42
558.849	8.76
559.192	8.62
559.534	8.63
559.877	8.62
560.219	8.62
560.562	8.74
560.904	9.01
561.246	8.48
561.589	8.73
561.931	8.86
562.273	8.69
562.615	8.73
562.957	8.72
563.299	8.88
563.641	9
563.983	8.71
564.325	8.99
564.667	8.8
565.008	8.87
565.35	8.98
565.692	9.01
566.033	8.98
566.375	9.14
566.716	9.06
567.058	9.18
567.399	9.2
567.741	9.07
568.082	9.18
568.423	9.06
568.764	9.2
569.105	9.29
569.447	9.24
569.788	9.2
570.129	9.21
570.47	9.17
570.811	9.34
571.151	9.41
571.492	9.39
571.833	9.25
572.174	9.43
572.514	9.52
572.855	9.63
573.195	9.52
573.536	9.48
573.876	9.47
574.217	9.52
574.557	9.5
574.898	9.66
575.238	9.67
575.578	9.74
575.918	9.85
576.258	9.76
576.598	9.71
576.938	9.67
577.278	9.75
577.618	9.66
577.958	9.86
578.298	10
578.638	9.73
578.977	9.99
579.317	10.03
579.657	10.05
579.996	10.2
580.336	10.18
580.675	9.88
581.014	10.27
581.354	10.15
581.693	10.33
582.032	10.57
582.372	10.37
582.711	10.18
583.05	10.26
583.389	10.39
583.728	10.58
584.067	10.17
584.406	10.53
584.745	10.22
585.083	10.32
585.422	10.42
585.761	10.47
586.1	10.51
586.438	10.36
586.777	10.68
587.115	10.7
587.454	10.46
587.792	10.76
588.13	10.68
588.469	10.69
588.807	10.64
589.145	10.65
589.483	10.51
589.821	10.81
590.159	10.96
590.497	10.89
590.835	10.86
591.173	10.84
591.511	11.06
591.849	10.73
592.187	10.83
592.524	10.89
592.862	11.15
593.2	11.08
593.537	11.12
593.875	11.28
594.212	11.19
594.55	11.18
594.887	11.05
595.224	11.57
595.561	11.34
595.899	11.48
596.236	11.48
596.573	11.35
596.91	11.15
597.247	11.46
597.584	11.55
597.921	11.63
598.258	11.7
598.594	11.43
598.931	11.2
599.268	11.3
599.604	11.55
599.941	11.59
600.277	11.74
600.614	11.59
600.95	11.6
601.287	11.54
601.623	11.48
601.959	11.87
602.296	11.93
602.632	11.72
602.968	11.71
603.304	11.75
603.64	11.71
603.976	11.74
604.312	11.98
604.648	12.07
604.984	12.08
605.319	11.99
605.655	11.97
605.991	11.88
606.326	11.95
606.662	11.94
606.998	12.21
607.333	12.11
607.668	12.05
608.004	12.12
608.339	12.19
608.674	12.24
609.01	12.55
609.345	12.39
609.68	12.39
610.015	12.66
610.35	12.46
610.685	12.02
611.02	12.41
611.355	12.26
611.689	12.55
612.024	12.6
612.359	12.73
612.694	12.54
613.028	12.5
613.363	12.7
613.697	12.54
614.032	12.86
614.366	12.6
614.7	12.67
615.035	12.94
615.369	12.92
615.703	12.81
616.037	12.88
616.371	13.12
616.705	12.89
617.039	13.03
617.373	13.11
617.707	12.88
618.041	12.75
618.375	12.69
618.709	12.79
619.042	13.13
619.376	12.9
619.71	13.1
620.043	13.6
620.377	13.32
620.71	13.29
621.043	13.56
621.377	13.63
621.71	13.53
622.043	13.61
622.376	13.39
622.709	13.73
623.043	13.29
623.376	13.54
623.709	13.83
624.041	13.62
624.374	13.86
624.707	13.54
625.04	13.38
625.373	13.88
625.705	13.69
626.038	13.88
626.37	13.48
626.703	14.12
627.035	13.9
627.368	13.9
627.7	13.94
628.032	13.93
628.365	13.89
628.697	14.35
629.029	14.15
629.361	14.13
629.693	14.13
630.025	14.05
630.357	14.4
630.689	13.93
631.021	14.02
631.353	14.16
631.684	14.03
632.016	13.85
632.348	13.97
632.679	14.52
633.011	14.15
633.342	14.16
633.674	14.07
634.005	14.53
634.336	14.45
634.668	14.49
634.999	14.23
635.33	14.31
635.661	14.44
635.992	14.43
636.323	14.4
636.654	14.19
636.985	14.53
637.316	14.73
637.647	14.69
637.977	14.87
638.308	14.85
638.639	14.6
638.969	14.58
639.3	14.69
639.63	14.79
639.961	15.09
640.291	14.94
640.622	14.76
640.952	15.18
641.282	14.47
641.612	15.07
641.943	14.89
642.273	14.92
642.603	15.21
642.933	15.17
643.263	14.91
643.592	15.37
643.922	15.11
644.252	15.24
644.582	15.42
644.911	15.32
645.241	14.87
645.571	15.1
645.9	15.34
646.23	15.76
646.559	15.03
646.888	15.89
647.218	15.7
647.547	15.55
647.876	15.4
648.205	15.8
648.534	15.38
648.863	15.7
649.192	15.59
649.521	15.3
649.85	15.78
650.179	16.07
650.508	15.78
650.837	15.99
651.165	15.75
651.494	15.73
651.822	15.71
652.151	15.34
652.479	16.27
652.808	16.01
653.136	15.71
653.465	15.71
653.793	16.03
654.121	15.82
654.449	15.99
654.777	15.72
655.105	15.64
655.433	16.12
655.761	16.38
656.089	16.3
656.417	16.6
656.745	16.55
657.073	16.09
657.4	15.9
657.728	16.18
658.056	16.27
658.383	16.05
658.711	16.98
659.038	16.77
659.365	16.95
659.693	16.34
660.02	16.23
660.347	16.16
660.674	16.31
661.001	16.57
661.329	16.41
661.656	16.2
661.982	16.53
662.309	16.65
662.636	16.89
662.963	16.31
663.29	16.92
663.616	16.89
663.943	17.06
664.27	17.07
664.596	16.24
664.923	17.5
665.249	16.86
665.576	16.62
665.902	16.7
666.228	17.28
666.554	17.64
666.881	16.8
667.207	17.44
667.533	16.99
667.859	16.87
668.185	17.18
668.511	16.92
668.837	16.89
669.162	17.1
669.488	16.9
669.814	16.81
670.139	16.86
670.465	17.78
670.791	16.81
671.116	17.06
671.442	17.3
671.767	17.72
672.092	17.41
672.418	17.35
672.743	17.46
673.068	17.51
673.393	17.38
673.718	17.17
674.043	17.59
674.368	17.71
674.693	17.83
675.018	18.19
675.343	18.17
675.667	17.69
675.992	17.58
676.317	17.4
676.641	18.15
676.966	17.48
677.29	17.92
677.615	17.43
677.939	17.58
678.264	17.38
678.588	17.59
678.912	17.88
679.236	17.97
679.56	17.53
679.885	17.92
680.209	18.28
680.532	17.98
680.856	18.4
681.18	18.62
681.504	18.01
681.828	17.75
682.152	18.17
682.475	18.47
682.799	18.22
683.122	18.66
683.446	17.81
683.769	18
684.093	18.59
684.416	18.44
