Data from 0011_crown_Reflection__2__339.txt Node

Date: Thu Dec 15 19:18:23 CST 2022
User: ToomeyLab
Spectrometer: FLMS14357
Trigger mode: 0
Integration Time (sec): 1.000000E-2
Scans to average: 100
Electric dark correction enabled: true
Nonlinearity correction enabled: false
Boxcar width: 0
XAxis mode: Wavelengths
Number of Pixels in Spectrum: 2048
>>>>>Begin Spectral Data<<<<<
189.047	51.79
189.435	51.79
189.823	51.79
190.211	-209.66
190.599	81.06
190.987	75.7
191.375	-60.25
191.763	85.45
192.151	162.04
192.538	38.71
192.926	52.88
193.314	127.6
193.702	252.4
194.089	124.09
194.477	428.93
194.864	96.79
195.252	15.62
195.639	369.16
196.027	89.76
196.414	137.67
196.801	-37.8
197.189	63.09
197.576	230.59
197.963	178.2
198.351	-33.11
198.738	-155.95
199.125	-64.91
199.512	16.87
199.899	-15.67
200.286	-63.61
200.673	16.9
201.06	-4.76
201.447	1.97
201.833	-16.66
202.22	14.68
202.607	-57.41
202.994	-25.11
203.38	48.73
203.767	13.63
204.154	-3.62
204.54	-44.25
204.927	-14.6
205.313	21.51
205.699	17.26
206.086	23.64
206.472	16.44
206.858	-12.35
207.245	-45.38
207.631	-37.58
208.017	28.89
208.403	-190.75
208.789	-12.81
209.175	-60.76
209.561	-122.35
209.947	-73.04
210.333	-28.13
210.719	10.28
211.105	8.72
211.491	12.59
211.876	-50.27
212.262	-29.51
212.648	-16.11
213.034	2.88
213.419	-18.61
213.805	-106.81
214.19	-87.37
214.576	-16.71
214.961	8.79
215.346	-30.76
215.732	-41.75
216.117	-2.7
216.502	-53.28
216.888	-38.95
217.273	21.26
217.658	-19.8
218.043	-26.85
218.428	-46.13
218.813	-10.43
219.198	-91.8
219.583	-69.24
219.968	-14.03
220.353	-95.58
220.738	5.8
221.122	-11.7
221.507	-28.47
221.892	-38.96
222.276	-51.04
222.661	-27.25
223.046	-16.06
223.43	1.74
223.815	-14.67
224.199	-15.05
224.583	-11.52
224.968	-11
225.352	-8.35
225.736	4.18
226.121	-9.94
226.505	-17.16
226.889	-0.49
227.273	-3.61
227.657	2.42
228.041	0.21
228.425	-4.18
228.809	1.5
229.193	3.76
229.577	3.47
229.961	4.26
230.344	4.94
230.728	5.88
231.112	5.32
231.495	2.5
231.879	3.55
232.263	3.66
232.646	2.07
233.03	5.13
233.413	4.19
233.797	-0.19
234.18	3.19
234.563	0.61
234.946	1.62
235.33	2.48
235.713	3.42
236.096	6.66
236.479	5.35
236.862	3.73
237.245	1.9
237.628	4.7
238.011	3.14
238.394	1.84
238.777	4.08
239.16	4.01
239.543	6.36
239.925	0.64
240.308	3.22
240.691	3.09
241.073	3.73
241.456	3.1
241.838	4.27
242.221	4.06
242.603	4.62
242.986	4.05
243.368	4.61
243.75	4.27
244.133	4.79
244.515	5.04
244.897	3.45
245.279	3.98
245.661	2.9
246.043	4.51
246.425	3.53
246.807	3.67
247.189	4.1
247.571	4.07
247.953	4.2
248.335	4.34
248.717	4.42
249.098	4.49
249.48	4.24
249.862	4.19
250.243	4.42
250.625	4.27
251.006	4.77
251.388	3.72
251.769	3.08
252.151	4.11
252.532	4.32
252.913	3.83
253.295	3.53
253.676	3.98
254.057	4.12
254.438	3.97
254.819	4.24
255.2	4.32
255.581	3.45
255.962	4.05
256.343	4.61
256.724	4.75
257.105	3.84
257.486	3.26
257.867	3.28
258.247	4.01
258.628	3.68
259.009	3.45
259.389	3.17
259.77	3.39
260.15	4.64
260.531	4.52
260.911	4.05
261.292	4.35
261.672	4
262.052	4.22
262.432	3.79
262.813	3.7
263.193	4.6
263.573	3.68
263.953	3.7
264.333	3.75
264.713	3.73
265.093	3.46
265.473	3.11
265.853	3.83
266.233	3.93
266.612	3.43
266.992	3.43
267.372	4.19
267.752	4.23
268.131	3.58
268.511	4.14
268.89	4.41
269.27	3.93
269.649	3.68
270.029	4.12
270.408	3.59
270.787	3.8
271.167	2.72
271.546	4.64
271.925	4.34
272.304	3.62
272.683	3.51
273.062	3.75
273.441	4.02
273.82	3.86
274.199	3.65
274.578	3.77
274.957	4.08
275.336	4.3
275.715	3.89
276.093	3.21
276.472	3.63
276.851	3.77
277.229	3.62
277.608	3.44
277.986	3.89
278.365	3.96
278.743	3.76
279.122	3.48
279.5	3.31
279.878	3.94
280.257	3.28
280.635	4
281.013	3.01
281.391	3.45
281.769	4.24
282.147	4.11
282.525	3.22
282.903	3.48
283.281	4.43
283.659	4.23
284.037	3.57
284.415	4.02
284.792	3.82
285.17	3.87
285.548	3.54
285.925	3.77
286.303	4.35
286.68	3.73
287.058	4.3
287.435	3.76
287.813	3.86
288.19	3.86
288.567	3.89
288.945	3.67
289.322	3.76
289.699	3.78
290.076	3.9
290.453	3.36
290.83	3.63
291.207	3.97
291.584	4.16
291.961	3.82
292.338	3.65
292.715	3.63
293.092	3.94
293.469	3.79
293.845	4.19
294.222	4.29
294.599	3.14
294.975	3.47
295.352	3.93
295.728	3.95
296.105	3.9
296.481	3.83
296.858	3.69
297.234	3.29
297.61	3.59
297.986	4.41
298.363	3.98
298.739	4.13
299.115	4.02
299.491	4.36
299.867	4.01
300.243	4.4
300.619	4.02
300.995	3.62
301.371	4.12
301.746	3.84
302.122	3.81
302.498	3.45
302.874	4.16
303.249	4.22
303.625	3.49
304	3.98
304.376	4.37
304.751	4.13
305.127	3.72
305.502	3.91
305.878	4.05
306.253	3.45
306.628	4.06
307.003	3.46
307.378	3.66
307.754	3.79
308.129	3.74
308.504	3.94
308.879	3.86
309.254	4.19
309.629	3.83
310.003	3.91
310.378	4.06
310.753	4.04
311.128	3.73
311.502	4.09
311.877	3.84
312.252	4.01
312.626	4.07
313.001	4.29
313.375	4.03
313.75	4.16
314.124	4.12
314.498	4.39
314.873	3.47
315.247	3.54
315.621	3.69
315.995	3.93
316.369	3.68
316.743	3.5
317.117	4.07
317.491	4.24
317.865	4.01
318.239	4.57
318.613	3.45
318.987	3.3
319.361	3.82
319.734	3.38
320.108	3.84
320.482	4.26
320.855	3.83
321.229	3.81
321.602	3.75
321.976	3.94
322.349	4.59
322.723	3.03
323.096	3.83
323.469	3.64
323.843	3.15
324.216	3.77
324.589	4.04
324.962	3.88
325.335	3.61
325.708	4.38
326.081	4.35
326.454	4.18
326.827	4.08
327.2	3.53
327.573	4.47
327.945	3.51
328.318	3.5
328.691	3.54
329.063	3.68
329.436	3.64
329.809	4.8
330.181	4.73
330.553	4.2
330.926	4.43
331.298	3.57
331.671	3.71
332.043	3.81
332.415	4.33
332.787	3.88
333.159	3.65
333.532	3.98
333.904	4.11
334.276	3.96
334.648	3.95
335.02	3.81
335.391	4.07
335.763	3.74
336.135	3.66
336.507	3.72
336.879	4.15
337.25	4.23
337.622	4.53
337.993	4.03
338.365	4.09
338.736	4.22
339.108	4.32
339.479	3.7
339.851	4.08
340.222	4.18
340.593	4.47
340.964	4.38
341.336	3.56
341.707	4.02
342.078	3.7
342.449	4.15
342.82	4.17
343.191	4.03
343.562	4.33
343.933	3.9
344.303	4.24
344.674	4.05
345.045	3.87
345.416	4.16
345.786	4.33
346.157	4.26
346.527	4.28
346.898	3.74
347.268	4.18
347.639	3.99
348.009	4.09
348.38	4.25
348.75	4.53
349.12	4.35
349.49	4.08
349.861	4.17
350.231	4.25
350.601	4.27
350.971	4.22
351.341	4.56
351.711	4.1
352.081	3.89
352.45	4.04
352.82	3.85
353.19	4.18
353.56	4.03
353.929	4.28
354.299	4.39
354.669	4.25
355.038	4.41
355.408	4.3
355.777	4.58
356.147	4.11
356.516	3.94
356.885	3.93
357.254	4.09
357.624	3.85
357.993	4.04
358.362	4.37
358.731	4.53
359.1	4.35
359.469	4.39
359.838	4.61
360.207	4.35
360.576	4.51
360.945	4.29
361.314	4.04
361.682	4.04
362.051	4.53
362.42	4.14
362.788	4.43
363.157	4.36
363.525	4.46
363.894	4.09
364.262	4.35
364.631	4.79
364.999	4.28
365.367	4.17
365.735	4.37
366.104	4.43
366.472	4.35
366.84	4.35
367.208	4.58
367.576	4.57
367.944	4.38
368.312	4.17
368.68	4.87
369.048	4.33
369.416	4.14
369.783	4.21
370.151	4.69
370.519	4.37
370.886	4.65
371.254	4.76
371.621	4.53
371.989	4.67
372.356	4.46
372.724	4.54
373.091	4.64
373.458	4.39
373.826	4.78
374.193	4.61
374.56	4.53
374.927	4.28
375.294	5.08
375.661	4.76
376.028	4.18
376.395	4.42
376.762	4.07
377.129	4.57
377.496	4.68
377.863	4.59
378.229	4.63
378.596	4.56
378.963	4.88
379.329	4.49
379.696	4.57
380.062	4.9
380.429	4.5
380.795	5.06
381.161	4.66
381.528	4.52
381.894	4.44
382.26	4.7
382.626	4.8
382.993	4.78
383.359	4.81
383.725	4.58
384.091	4.86
384.457	4.5
384.823	4.77
385.188	4.67
385.554	4.4
385.92	4.82
386.286	4.71
386.651	4.83
387.017	5
387.383	4.58
387.748	4.94
388.114	4.75
388.479	4.76
388.845	4.66
389.21	4.72
389.575	5.06
389.94	5.18
390.306	4.79
390.671	4.93
391.036	4.88
391.401	5.03
391.766	4.81
392.131	4.96
392.496	4.77
392.861	4.68
393.226	4.67
393.591	4.86
393.956	4.8
394.32	5.1
394.685	5.03
395.05	4.89
395.414	4.92
395.779	5.03
396.143	4.89
396.508	4.92
396.872	4.75
397.236	5.26
397.601	5.07
397.965	4.89
398.329	5.09
398.694	4.76
399.058	4.85
399.422	4.68
399.786	4.71
400.15	4.95
400.514	5.17
400.878	5.06
401.242	4.91
401.605	4.84
401.969	4.81
402.333	4.81
402.697	5.26
403.06	4.92
403.424	5.09
403.787	5.01
404.151	4.95
404.514	5.08
404.878	4.73
405.241	5.06
405.604	4.92
405.968	4.95
406.331	5.21
406.694	5.22
407.057	4.85
407.42	4.93
407.783	4.96
408.146	5.13
408.509	5.09
408.872	4.99
409.235	5.22
409.598	5.03
409.961	5.18
410.323	5.09
410.686	4.88
411.049	5.08
411.411	4.85
411.774	4.96
412.136	5.1
412.499	5.21
412.861	4.57
413.223	4.87
413.586	5.21
413.948	5.09
414.31	5.19
414.672	5.08
415.035	5.11
415.397	4.97
415.759	4.93
416.121	5.14
416.483	5.08
416.845	4.98
417.206	5.1
417.568	4.99
417.93	5.12
418.292	5.03
418.653	4.96
419.015	5.03
419.377	5
419.738	5.1
420.1	4.96
420.461	5.01
420.822	5.04
421.184	5.08
421.545	5.17
421.906	5.15
422.267	5.05
422.629	5.08
422.99	5.08
423.351	5.14
423.712	5.14
424.073	5.25
424.434	5.23
424.795	5.1
425.155	5.09
425.516	5.19
425.877	5.14
426.238	5.16
426.598	5.17
426.959	5.25
427.32	5.05
427.68	5.2
428.041	5.37
428.401	5.09
428.761	5.4
429.122	5.17
429.482	5.26
429.842	5.22
430.202	5.32
430.563	5.13
430.923	5.3
431.283	5.48
431.643	5.42
432.003	5.28
432.363	5.29
432.722	5.43
433.082	5.27
433.442	5.34
433.802	5.37
434.161	5.29
434.521	5.23
434.881	5.41
435.24	5.31
435.6	5.43
435.959	5.46
436.319	5.43
436.678	5.44
437.037	5.45
437.396	5.53
437.756	5.32
438.115	5.49
438.474	5.55
438.833	5.38
439.192	5.44
439.551	5.36
439.91	5.62
440.269	5.36
440.628	5.46
440.987	5.45
441.345	5.49
441.704	5.39
442.063	5.4
442.421	5.44
442.78	5.57
443.138	5.49
443.497	5.56
443.855	5.8
444.214	5.43
444.572	5.73
444.93	5.56
445.288	5.53
445.647	5.4
446.005	5.5
446.363	5.67
446.721	5.61
447.079	5.51
447.437	5.53
447.795	5.59
448.153	5.52
448.51	5.57
448.868	5.53
449.226	5.54
449.584	5.55
449.941	5.58
450.299	5.57
450.656	5.66
451.014	5.73
451.371	5.8
451.729	5.68
452.086	5.68
452.443	6.04
452.801	5.82
453.158	5.89
453.515	5.73
453.872	5.75
454.229	5.58
454.586	5.57
454.943	5.77
455.3	5.92
455.657	5.7
456.014	5.74
456.371	5.78
456.727	5.75
457.084	6.01
457.441	5.87
457.797	5.8
458.154	5.76
458.51	5.7
458.867	5.82
459.223	5.71
459.58	5.9
459.936	5.79
460.292	5.83
460.648	5.67
461.005	5.7
461.361	5.75
461.717	5.82
462.073	5.77
462.429	5.86
462.785	5.9
463.141	5.94
463.496	5.96
463.852	6.14
464.208	5.91
464.564	5.92
464.919	5.75
465.275	5.87
465.631	6
465.986	6.02
466.342	5.93
466.697	5.79
467.052	6.11
467.408	5.91
467.763	6.01
468.118	5.75
468.473	5.96
468.829	5.88
469.184	6.02
469.539	5.92
469.894	5.94
470.249	5.97
470.603	6.2
470.958	6.25
471.313	6.14
471.668	6.05
472.023	6.08
472.377	6.04
472.732	6.24
473.086	6.09
473.441	5.98
473.795	6.28
474.15	6.11
474.504	6.02
474.859	5.91
475.213	6.35
475.567	6.02
475.921	6.12
476.275	6.12
476.63	6.1
476.984	6.15
477.338	6.21
477.692	6.16
478.045	6.18
478.399	6.01
478.753	6.04
479.107	6.19
479.461	6.14
479.814	6.11
480.168	6.22
480.521	6.15
480.875	6.06
481.228	6.22
481.582	6.21
481.935	6.18
482.289	6.1
482.642	6.26
482.995	6.13
483.348	6.15
483.701	6.14
484.055	6.06
484.408	6
484.761	5.95
485.114	5.87
485.466	5.82
485.819	5.87
486.172	5.87
486.525	5.89
486.878	5.97
487.23	5.99
487.583	6.11
487.936	6.1
488.288	6.08
488.641	5.98
488.993	5.95
489.345	5.9
489.698	6.02
490.05	5.99
490.402	6.05
490.754	6.06
491.107	6.01
491.459	6.26
491.811	6.21
492.163	6.17
492.515	6.06
492.866	6.08
493.218	6.07
493.57	6.07
493.922	6.01
494.274	6.21
494.625	6.31
494.977	6.31
495.328	6.43
495.68	6.35
496.031	6.32
496.383	6.39
496.734	6.21
497.086	6.37
497.437	6.53
497.788	6.43
498.139	6.34
498.49	6.36
498.842	6.48
499.193	6.29
499.544	6.45
499.894	6.37
500.245	6.51
500.596	6.44
500.947	6.42
501.298	6.47
501.648	6.44
501.999	6.47
502.35	6.41
502.7	6.65
503.051	6.5
503.401	6.5
503.752	6.51
504.102	6.45
504.452	6.47
504.803	6.39
505.153	6.56
505.503	6.56
505.853	6.58
506.203	6.5
506.553	6.49
506.903	6.58
507.253	6.4
507.603	6.52
507.953	6.59
508.303	6.65
508.652	6.46
509.002	6.64
509.352	6.69
509.701	6.52
510.051	6.64
510.4	6.72
510.75	6.4
511.099	6.45
511.449	6.53
511.798	6.47
512.147	6.51
512.496	6.72
512.846	6.47
513.195	6.51
513.544	6.67
513.893	6.56
514.242	6.57
514.591	6.51
514.939	6.75
515.288	6.78
515.637	6.57
515.986	6.68
516.334	6.69
516.683	6.69
517.032	6.64
517.38	6.61
517.729	6.66
518.077	6.6
518.426	6.7
518.774	6.7
519.122	6.75
519.47	6.69
519.819	6.62
520.167	6.52
520.515	6.58
520.863	6.5
521.211	6.51
521.559	6.6
521.907	6.74
522.255	6.59
522.602	6.77
522.95	6.78
523.298	6.77
523.645	6.85
523.993	6.76
524.341	6.74
524.688	6.65
525.036	6.84
525.383	6.88
525.73	6.58
526.078	6.76
526.425	6.66
526.772	6.7
527.119	6.76
527.466	6.77
527.814	6.72
528.161	6.73
528.508	6.78
528.854	6.68
529.201	6.6
529.548	6.62
529.895	6.47
530.242	6.47
530.588	6.5
530.935	6.51
531.282	6.51
531.628	6.53
531.975	6.53
532.321	6.61
532.667	6.77
533.014	6.78
533.36	6.8
533.706	6.78
534.052	6.74
534.399	6.75
534.745	6.6
535.091	6.62
535.437	6.68
535.783	6.71
536.129	6.68
536.474	6.73
536.82	6.87
537.166	6.81
537.512	6.76
537.857	6.84
538.203	6.74
538.549	6.84
538.894	6.89
539.239	6.89
539.585	6.91
539.93	6.98
540.276	6.92
540.621	7
540.966	7.04
541.311	6.88
541.656	6.92
542.001	6.89
542.346	6.79
542.691	6.72
543.036	6.68
543.381	6.68
543.726	6.72
544.071	6.78
544.415	6.87
544.76	6.82
545.105	6.81
545.449	6.85
545.794	6.97
546.138	6.94
546.483	7.1
546.827	6.99
547.171	6.99
547.516	7.11
547.86	7.09
548.204	7.02
548.548	6.99
548.892	7.04
549.236	7
549.58	7.12
549.924	7.14
550.268	7.26
550.612	7.13
550.956	7.23
551.3	7.3
551.643	7.13
551.987	7.34
552.33	7.43
552.674	7.18
553.017	7.2
553.361	7.25
553.704	7.33
554.048	7.22
554.391	7.39
554.734	7.23
555.077	7.32
555.42	7.19
555.764	7.28
556.107	7.34
556.45	7.43
556.793	7.26
557.135	7.25
557.478	7.39
557.821	7.42
558.164	7.43
558.507	7.24
558.849	7.33
559.192	7.23
559.534	7.48
559.877	7.29
560.219	7.26
560.562	7.35
560.904	7.63
561.246	7.28
561.589	7.44
561.931	7.31
562.273	7.45
562.615	7.37
562.957	7.33
563.299	7.25
563.641	7.42
563.983	7.29
564.325	7.46
564.667	7.46
565.008	7.17
565.35	7.29
565.692	7.43
566.033	7.4
566.375	7.45
566.716	7.14
567.058	7.49
567.399	7.39
567.741	7.34
568.082	7.53
568.423	7.3
568.764	7.46
569.105	7.5
569.447	7.33
569.788	7.28
570.129	7.42
570.47	7.56
570.811	7.27
571.151	7.48
571.492	7.61
571.833	7.4
572.174	7.66
572.514	7.54
572.855	7.6
573.195	7.47
573.536	7.61
573.876	7.5
574.217	7.6
574.557	7.39
574.898	7.42
575.238	7.67
575.578	7.59
575.918	7.62
576.258	7.78
576.598	7.48
576.938	7.43
577.278	7.52
577.618	7.58
577.958	7.58
578.298	7.53
578.638	7.49
578.977	7.57
579.317	7.6
579.657	7.66
579.996	7.84
580.336	7.7
580.675	7.44
581.014	7.9
581.354	7.56
581.693	7.83
582.032	7.78
582.372	7.83
582.711	7.81
583.05	7.72
583.389	8.01
583.728	8.01
584.067	7.83
584.406	7.72
584.745	7.44
585.083	7.58
585.422	7.96
585.761	7.9
586.1	7.83
586.438	7.64
586.777	7.86
587.115	7.88
587.454	7.63
587.792	7.88
588.13	7.67
588.469	7.87
588.807	7.88
589.145	7.82
589.483	7.81
589.821	7.87
590.159	7.92
590.497	8
590.835	7.89
591.173	7.81
591.511	7.95
591.849	7.96
592.187	7.67
592.524	8.1
592.862	7.91
593.2	8.06
593.537	8
593.875	7.91
594.212	7.82
594.55	7.69
594.887	8.06
595.224	7.92
595.561	7.91
595.899	7.96
596.236	8.02
596.573	7.82
596.91	8
597.247	7.98
597.584	7.85
597.921	7.97
598.258	8.14
598.594	7.85
598.931	7.82
599.268	7.93
599.604	7.91
599.941	7.87
600.277	8
600.614	7.89
600.95	7.82
601.287	7.6
601.623	7.78
601.959	8.38
602.296	8.03
602.632	8.11
602.968	8.13
603.304	8
603.64	8.06
603.976	7.95
604.312	7.95
604.648	8.12
604.984	8.21
605.319	7.97
605.655	8.08
605.991	7.83
606.326	8.14
606.662	7.88
606.998	8.06
607.333	8.02
607.668	8.08
608.004	7.98
608.339	8
608.674	8.16
609.01	8.31
609.345	8.22
609.68	8.12
610.015	7.97
610.35	8.14
610.685	8.03
611.02	7.95
611.355	8.16
611.689	8.1
612.024	8.08
612.359	8.25
612.694	8.36
613.028	7.91
613.363	8.21
613.697	8.25
614.032	8.12
614.366	8.4
614.7	8.31
615.035	8.07
615.369	8.3
615.703	8.26
616.037	8.24
616.371	8.06
616.705	8.11
617.039	8.68
617.373	8.59
617.707	8.37
618.041	7.96
618.375	7.81
618.709	8.3
619.042	8.57
619.376	8.42
619.71	8.13
620.043	8.45
620.377	8.53
620.71	8.27
621.043	8.25
621.377	8.53
621.71	8.61
622.043	8.46
622.376	8.27
622.709	8.61
623.043	8.41
623.376	8.5
623.709	8.52
624.041	8.28
624.374	8.22
624.707	8.15
625.04	8.42
625.373	8.5
625.705	8.41
626.038	8.47
626.37	8.15
626.703	8.38
627.035	8.48
627.368	8.78
627.7	8.26
628.032	8.59
628.365	8.64
628.697	8.67
629.029	8.54
629.361	8.72
629.693	8.32
630.025	8.67
630.357	8.72
630.689	8.23
631.021	8.89
631.353	8.55
631.684	8.61
632.016	8.13
632.348	8.03
632.679	8.86
633.011	8.34
633.342	8.72
633.674	8.74
634.005	8.79
634.336	8.49
634.668	8.56
634.999	8.45
635.33	8.77
635.661	8.47
635.992	8.53
636.323	8.37
636.654	8.52
636.985	8.57
637.316	8.48
637.647	8.77
637.977	8.5
638.308	8.98
638.639	8.22
638.969	8.91
639.3	8.77
639.63	8.61
639.961	8.77
640.291	8.41
640.622	9.03
640.952	8.76
641.282	8.28
641.612	8.83
641.943	8.54
642.273	8.69
642.603	9.06
642.933	8.84
643.263	8.93
643.592	9.29
643.922	8.97
644.252	8.47
644.582	8.85
644.911	9.02
645.241	8.73
645.571	9.09
645.9	8.89
646.23	9.32
646.559	8.33
646.888	9.03
647.218	8.78
647.547	8.68
647.876	8.52
648.205	8.83
648.534	8.88
648.863	8.71
649.192	8.87
649.521	8.87
649.85	9.13
650.179	8.78
650.508	8.86
650.837	8.98
651.165	8.91
651.494	9.08
651.822	9.02
652.151	8.39
652.479	9.02
652.808	8.65
653.136	8.63
653.465	9.27
653.793	8.98
654.121	8.97
654.449	8.87
654.777	8.59
655.105	8.37
655.433	9.59
655.761	8.76
656.089	9.17
656.417	9.18
656.745	9.15
657.073	8.93
657.4	8.56
657.728	8.48
658.056	8.47
658.383	8.73
658.711	9.19
659.038	9.49
659.365	8.77
659.693	9.42
660.02	8.58
660.347	9.35
660.674	9.08
661.001	9.14
661.329	9.02
661.656	8.66
661.982	8.96
662.309	9
662.636	9.03
662.963	9
663.29	9.22
663.616	8.78
663.943	9.3
664.27	9.32
664.596	8.92
664.923	9.19
665.249	9.01
665.576	8.69
665.902	9.39
666.228	9.54
666.554	9.74
666.881	8.95
667.207	8.8
667.533	9.06
667.859	9.58
668.185	9.12
668.511	9.72
668.837	9.34
669.162	9.37
669.488	8.38
669.814	8.64
670.139	8.78
670.465	9.4
670.791	8.32
671.116	9.2
671.442	8.23
671.767	9.29
672.092	9.39
672.418	9.23
672.743	8.74
673.068	8.79
673.393	9.76
673.718	8.93
674.043	9.71
674.368	9.26
674.693	9.39
675.018	9.65
675.343	9.73
675.667	8.88
675.992	9.04
676.317	8.63
676.641	9.35
676.966	8.87
677.29	8.75
677.615	9.01
677.939	9.93
678.264	8.89
678.588	9.33
678.912	9.2
679.236	8.97
679.56	9.06
679.885	9.06
680.209	9.18
680.532	9.53
680.856	9.64
681.18	9.97
681.504	9.28
681.828	9.27
682.152	9.26
682.475	9.55
682.799	9.21
683.122	9.24
683.446	8.73
683.769	9.65
684.093	9.74
684.416	8.94
684.739	8.91
685.062	9.17
685.386	9.34
685.709	9.6
686.032	9.76
686.355	9.68
686.678	9.85
687.001	9.44
687.324	9.6
687.646	9.18
687.969	9.97
688.292	9.7
688.614	9.6
688.937	9.59
689.26	9.91
689.582	9.76
689.904	9.65
690.227	9.83
690.549	9.72
690.871	9.49
691.194	8.7
691.516	9.46
691.838	9.67
