Data from 0011_forehead_Reflection__3__345.txt Node

Date: Thu Dec 15 19:20:04 CST 2022
User: ToomeyLab
Spectrometer: FLMS14357
Trigger mode: 0
Integration Time (sec): 1.000000E-2
Scans to average: 100
Electric dark correction enabled: true
Nonlinearity correction enabled: false
Boxcar width: 0
XAxis mode: Wavelengths
Number of Pixels in Spectrum: 2048
>>>>>Begin Spectral Data<<<<<
189.047	-30.32
189.435	-30.32
189.823	-30.32
190.211	-38.12
190.599	196.32
190.987	77.3
191.375	-41.83
191.763	59.06
192.151	178.12
192.538	45.47
192.926	129.84
193.314	187.66
193.702	119.58
194.089	52.66
194.477	333.6
194.864	41.74
195.252	-8.11
195.639	380.6
196.027	-112.76
196.414	110.68
196.801	-23.69
197.189	49.43
197.576	147.87
197.963	250.39
198.351	41.55
198.738	-46.98
199.125	-50.03
199.512	9.89
199.899	-93.84
200.286	-4.06
200.673	59.12
201.06	-15.62
201.447	-24.07
201.833	36.22
202.22	-11.07
202.607	3.22
202.994	26.15
203.38	22.62
203.767	-56.37
204.154	24.67
204.54	84.97
204.927	42.52
205.313	20.51
205.699	18.49
206.086	-2.23
206.472	-11.91
206.858	-37.89
207.245	-26.06
207.631	-36.19
208.017	25.2
208.403	-116.13
208.789	-0.54
209.175	-0.05
209.561	-83.34
209.947	7.54
210.333	-43.4
210.719	12.69
211.105	17.85
211.491	-1.63
211.876	-32.43
212.262	-7.11
212.648	0.34
213.034	-20.72
213.419	-1.06
213.805	-49.41
214.19	-57.47
214.576	-17.34
214.961	0.57
215.346	-55.07
215.732	-3.52
216.117	0.41
216.502	-19.57
216.888	11.28
217.273	1.9
217.658	-5.45
218.043	-43.31
218.428	-16.1
218.813	10.4
219.198	-99.8
219.583	20.47
219.968	10.02
220.353	-38.16
220.738	-3.42
221.122	-20.99
221.507	-23.13
221.892	-54.08
222.276	-58.35
222.661	-18.48
223.046	-5.02
223.43	15.28
223.815	-7.59
224.199	-2.76
224.583	-13.72
224.968	4.34
225.352	-21.88
225.736	13.35
226.121	-0.15
226.505	-3.29
226.889	-4.43
227.273	-2.47
227.657	-2.97
228.041	1.67
228.425	2.75
228.809	-1.01
229.193	3.78
229.577	2.89
229.961	2.95
230.344	3.97
230.728	4
231.112	3.2
231.495	1.66
231.879	2.72
232.263	3.39
232.646	2.1
233.03	4.64
233.413	4.47
233.797	1.21
234.18	3.04
234.563	5.5
234.946	2.08
235.33	4.51
235.713	3.65
236.096	4.26
236.479	5.6
236.862	2.8
237.245	1.41
237.628	3.63
238.011	2.38
238.394	3.89
238.777	4.78
239.16	5.18
239.543	3.39
239.925	1.24
240.308	3.75
240.691	3.94
241.073	2.65
241.456	4.06
241.838	2.69
242.221	4.02
242.603	4.81
242.986	3.41
243.368	3.75
243.75	4.22
244.133	4.21
244.515	4.01
244.897	3.96
245.279	3.04
245.661	3.79
246.043	3.91
246.425	3.69
246.807	3.18
247.189	3.56
247.571	3.67
247.953	3.68
248.335	3.95
248.717	3.76
249.098	3.75
249.48	3.45
249.862	3.57
250.243	4.1
250.625	3.99
251.006	4.81
251.388	4.32
251.769	2.89
252.151	3.75
252.532	3.86
252.913	3.36
253.295	3.56
253.676	4.23
254.057	3.74
254.438	3.66
254.819	3.3
255.2	4.71
255.581	4.74
255.962	4.27
256.343	3.82
256.724	3.65
257.105	3.22
257.486	2.93
257.867	3.92
258.247	3.6
258.628	3.83
259.009	3.41
259.389	2.96
259.77	3.63
260.15	3.83
260.531	4.13
260.911	3.33
261.292	3.75
261.672	3.86
262.052	3.66
262.432	3.35
262.813	3.56
263.193	4.18
263.573	3.61
263.953	3.23
264.333	4.27
264.713	4.1
265.093	3.48
265.473	2.24
265.853	4.09
266.233	3.73
266.612	2.49
266.992	3.09
267.372	3.48
267.752	3.93
268.131	3.34
268.511	3.17
268.89	3.9
269.27	3.03
269.649	3.2
270.029	2.77
270.408	3.25
270.787	3.63
271.167	3.97
271.546	4.13
271.925	3.94
272.304	3.23
272.683	3.06
273.062	3.16
273.441	3.42
273.82	3.6
274.199	3.18
274.578	3.83
274.957	3.07
275.336	3.76
275.715	3.69
276.093	3.1
276.472	2.8
276.851	3.67
277.229	2.89
277.608	3.48
277.986	3.52
278.365	3.78
278.743	3.55
279.122	3.57
279.5	3.18
279.878	3
280.257	3.17
280.635	3.64
281.013	2.83
281.391	3.71
281.769	4.13
282.147	3.1
282.525	3.29
282.903	3.25
283.281	4.19
283.659	3.51
284.037	3.83
284.415	3.3
284.792	3.47
285.17	2.88
285.548	3.29
285.925	3.34
286.303	3.9
286.68	3.26
287.058	3.48
287.435	3.43
287.813	3.66
288.19	3.13
288.567	3.47
288.945	3.18
289.322	3.55
289.699	3.99
290.076	3.75
290.453	3.14
290.83	3.9
291.207	3.5
291.584	3.35
291.961	3.54
292.338	3.55
292.715	3.33
293.092	4.16
293.469	3.75
293.845	3.71
294.222	4.29
294.599	3.23
294.975	2.95
295.352	3.92
295.728	3.66
296.105	3.63
296.481	3.95
296.858	3.81
297.234	3.53
297.61	3.77
297.986	4.08
298.363	3.98
298.739	4.13
299.115	3.91
299.491	4.27
299.867	3.73
300.243	3.68
300.619	3.4
300.995	3.87
301.371	4.3
301.746	4.08
302.122	3.25
302.498	3.94
302.874	4.06
303.249	4.06
303.625	3.45
304	3.92
304.376	4.44
304.751	3.87
305.127	3.89
305.502	4.33
305.878	3.94
306.253	3.95
306.628	3.93
307.003	3.67
307.378	3.83
307.754	4.47
308.129	4.16
308.504	4.1
308.879	3.91
309.254	4.52
309.629	4.41
310.003	3.85
310.378	4.72
310.753	4.39
311.128	3.93
311.502	4.36
311.877	4.2
312.252	4.66
312.626	4.49
313.001	4.5
313.375	4.4
313.75	4.41
314.124	4.57
314.498	4.68
314.873	4.34
315.247	4.16
315.621	4.41
315.995	4.2
316.369	4.06
316.743	4.15
317.117	4.47
317.491	4.65
317.865	4
318.239	5.06
318.613	4.47
318.987	3.81
319.361	4.42
319.734	4.38
320.108	4.37
320.482	4.83
320.855	4.73
321.229	4.48
321.602	4.93
321.976	4.16
322.349	5.44
322.723	4.62
323.096	4.71
323.469	4.8
323.843	4.89
324.216	4.98
324.589	4.4
324.962	4.29
325.335	4.91
325.708	4.71
326.081	4.8
326.454	5.18
326.827	5.04
327.2	4.24
327.573	5.37
327.945	4.54
328.318	4.99
328.691	4.84
329.063	4.53
329.436	4.44
329.809	4.8
330.181	5.34
330.553	4.44
330.926	4.9
331.298	5.03
331.671	4.66
332.043	5.09
332.415	5.19
332.787	4.74
333.159	4.87
333.532	4.85
333.904	5
334.276	5.12
334.648	5.05
335.02	4.9
335.391	4.92
335.763	4.93
336.135	5.06
336.507	4.65
336.879	4.8
337.25	5.38
337.622	5.17
337.993	5.16
338.365	4.89
338.736	4.95
339.108	5.33
339.479	4.73
339.851	5.18
340.222	5.13
340.593	5.05
340.964	5.22
341.336	5.19
341.707	4.9
342.078	5.08
342.449	5.3
342.82	5.61
343.191	5.46
343.562	5.51
343.933	5.19
344.303	5.8
344.674	5.29
345.045	5.33
345.416	5.5
345.786	5.22
346.157	5.66
346.527	5.26
346.898	5.02
347.268	5.14
347.639	5.16
348.009	5.5
348.38	5.4
348.75	5.77
349.12	5.86
349.49	5.34
349.861	5.48
350.231	5.88
350.601	5.61
350.971	5.24
351.341	5.56
351.711	5.59
352.081	5.58
352.45	5.8
352.82	5.57
353.19	5.28
353.56	5.71
353.929	5.41
354.299	6.32
354.669	5.84
355.038	5.68
355.408	5.65
355.777	5.89
356.147	5.78
356.516	5.27
356.885	5.72
357.254	5.55
357.624	5.61
357.993	5.69
358.362	5.93
358.731	6.11
359.1	5.76
359.469	6.3
359.838	5.9
360.207	6.03
360.576	5.96
360.945	6.06
361.314	5.75
361.682	5.75
362.051	5.7
362.42	5.99
362.788	6.1
363.157	5.72
363.525	6.1
363.894	5.92
364.262	5.84
364.631	6.02
364.999	6
365.367	5.96
365.735	6.05
366.104	5.99
366.472	6.23
366.84	6.01
367.208	6.15
367.576	6.28
367.944	6.33
368.312	6.05
368.68	6.42
369.048	6.18
369.416	6.17
369.783	6.21
370.151	6.32
370.519	6.71
370.886	6.48
371.254	6.68
371.621	6.52
371.989	6.44
372.356	6.19
372.724	6.49
373.091	6.11
373.458	6.04
373.826	6.47
374.193	6.36
374.56	6.36
374.927	6.09
375.294	6.43
375.661	6.66
376.028	6.38
376.395	6.83
376.762	6.79
377.129	6.18
377.496	6.5
377.863	6.54
378.229	6.68
378.596	6.87
378.963	6.86
379.329	6.61
379.696	6.41
380.062	6.81
380.429	6.49
380.795	6.96
381.161	6.51
381.528	6.5
381.894	6.52
382.26	6.79
382.626	6.78
382.993	6.86
383.359	7.03
383.725	6.77
384.091	6.73
384.457	6.83
384.823	6.83
385.188	7.24
385.554	6.65
385.92	6.79
386.286	6.8
386.651	6.78
387.017	7.16
387.383	6.95
387.748	7.21
388.114	7.05
388.479	6.94
388.845	6.79
389.21	7.16
389.575	7
389.94	7.32
390.306	7.12
390.671	7.24
391.036	7.05
391.401	7.17
391.766	6.85
392.131	7.39
392.496	7.44
392.861	7.07
393.226	7.04
393.591	7.15
393.956	7.18
394.32	7.48
394.685	7.41
395.05	7.14
395.414	7.4
395.779	7.38
396.143	7.09
396.508	7.26
396.872	7.25
397.236	7.61
397.601	7.53
397.965	7.33
398.329	7.63
398.694	7.22
399.058	7.09
399.422	7.45
399.786	7.24
400.15	7.26
400.514	7.29
400.878	7.2
401.242	7.5
401.605	7.45
401.969	7.27
402.333	7.17
402.697	7.42
403.06	7.09
403.424	7.51
403.787	7.53
404.151	7.62
404.514	7.26
404.878	7.54
405.241	7.21
405.604	7.34
405.968	7.51
406.331	7.53
406.694	7.48
407.057	7.4
407.42	7.59
407.783	7.65
408.146	7.61
408.509	7.65
408.872	7.57
409.235	7.63
409.598	7.9
409.961	7.69
410.323	7.58
410.686	7.38
411.049	7.62
411.411	7.54
411.774	7.66
412.136	7.68
412.499	7.79
412.861	7.52
413.223	7.57
413.586	7.65
413.948	8.04
414.31	8.1
414.672	7.58
415.035	7.98
415.397	7.65
415.759	7.54
416.121	7.82
416.483	7.76
416.845	7.83
417.206	7.88
417.568	7.8
417.93	7.81
418.292	7.77
418.653	7.71
419.015	7.88
419.377	7.62
419.738	7.96
420.1	7.91
420.461	7.74
420.822	7.81
421.184	7.79
421.545	7.72
421.906	7.96
422.267	7.81
422.629	7.7
422.99	7.86
423.351	7.82
423.712	7.91
424.073	7.93
424.434	7.95
424.795	7.93
425.155	7.82
425.516	7.97
425.877	7.96
426.238	7.98
426.598	8.15
426.959	8.12
427.32	7.95
427.68	8.16
428.041	8.23
428.401	8.29
428.761	8.32
429.122	8.2
429.482	8.32
429.842	8.21
430.202	8.41
430.563	8.43
430.923	8.5
431.283	8.61
431.643	8.65
432.003	8.37
432.363	8.57
432.722	8.52
433.082	8.57
433.442	8.48
433.802	8.47
434.161	8.43
434.521	8.45
434.881	8.42
435.24	8.54
435.6	8.66
435.959	8.55
436.319	8.57
436.678	8.77
437.037	8.6
437.396	8.74
437.756	8.64
438.115	8.75
438.474	8.71
438.833	8.75
439.192	8.71
439.551	8.71
439.91	8.87
440.269	8.77
440.628	8.77
440.987	8.87
441.345	8.8
441.704	8.71
442.063	8.82
442.421	8.79
442.78	8.85
443.138	8.83
443.497	8.81
443.855	8.94
444.214	8.66
444.572	9.04
444.93	9.04
445.288	8.97
445.647	8.95
446.005	9.03
446.363	9.05
446.721	9.01
447.079	8.96
447.437	9.09
447.795	9.03
448.153	8.94
448.51	9.03
448.868	8.99
449.226	9.07
449.584	9.14
449.941	9.09
450.299	9.09
450.656	9.17
451.014	9.34
451.371	9.47
451.729	9.29
452.086	9.34
452.443	9.53
452.801	9.33
453.158	9.47
453.515	9.32
453.872	9.41
454.229	9.24
454.586	9.25
454.943	9.45
455.3	9.44
455.657	9.32
456.014	9.39
456.371	9.44
456.727	9.84
457.084	9.76
457.441	9.69
457.797	9.6
458.154	9.7
458.51	9.66
458.867	9.78
459.223	9.62
459.58	9.8
459.936	9.65
460.292	9.67
460.648	9.55
461.005	9.68
461.361	9.53
461.717	9.68
462.073	9.62
462.429	9.68
462.785	9.86
463.141	9.7
463.496	9.83
463.852	9.97
464.208	9.9
464.564	9.87
464.919	9.96
465.275	10.09
465.631	10.24
465.986	10.14
466.342	10.05
466.697	10.14
467.052	10.22
467.408	10.14
467.763	10.04
468.118	9.93
468.473	10.29
468.829	10.09
469.184	10.33
469.539	10.12
469.894	10.3
470.249	10.25
470.603	10.33
470.958	10.22
471.313	10.41
471.668	10.4
472.023	10.37
472.377	10.37
472.732	10.45
473.086	10.46
473.441	10.36
473.795	10.68
474.15	10.55
474.504	10.46
474.859	10.3
475.213	10.51
475.567	10.46
475.921	10.53
476.275	10.67
476.63	10.71
476.984	10.49
477.338	10.77
477.692	10.48
478.045	10.65
478.399	10.67
478.753	10.63
479.107	10.77
479.461	10.64
479.814	10.69
480.168	10.6
480.521	10.73
480.875	10.61
481.228	10.79
481.582	10.72
481.935	10.89
482.289	10.67
482.642	10.86
482.995	10.78
483.348	10.57
483.701	10.72
484.055	10.71
484.408	10.61
484.761	10.48
485.114	10.34
485.466	10.29
485.819	10.29
486.172	10.36
486.525	10.37
486.878	10.46
487.23	10.54
487.583	10.76
487.936	10.67
488.288	10.68
488.641	10.66
488.993	10.6
489.345	10.57
489.698	10.57
490.05	10.64
490.402	10.67
490.754	10.72
491.107	10.82
491.459	11.06
491.811	11.03
492.163	10.99
492.515	10.9
492.866	10.9
493.218	10.84
493.57	10.92
493.922	10.97
494.274	10.98
494.625	11.15
494.977	11.29
495.328	11.36
495.68	11.39
496.031	11.32
496.383	11.44
496.734	11.37
497.086	11.52
497.437	11.57
497.788	11.55
498.139	11.49
498.49	11.41
498.842	11.56
499.193	11.41
499.544	11.64
499.894	11.57
500.245	11.66
500.596	11.57
500.947	11.67
501.298	11.65
501.648	11.73
501.999	11.68
502.35	11.69
502.7	12
503.051	11.79
503.401	11.85
503.752	11.8
504.102	11.85
504.452	11.89
504.803	11.87
505.153	12.04
505.503	12.08
505.853	12.07
506.203	12.04
506.553	11.99
506.903	12.08
507.253	12.03
507.603	12.24
507.953	12.1
508.303	12.14
508.652	12
509.002	12.27
509.352	12.16
509.701	12.01
510.051	12.23
510.4	12.35
510.75	12.11
511.099	12.09
511.449	12.26
511.798	12.13
512.147	12.31
512.496	12.3
512.846	12.23
513.195	12.39
513.544	12.26
513.893	12.35
514.242	12.38
514.591	12.3
514.939	12.49
515.288	12.43
515.637	12.37
515.986	12.58
516.334	12.51
516.683	12.58
517.032	12.47
517.38	12.63
517.729	12.43
518.077	12.71
518.426	12.63
518.774	12.63
519.122	12.68
519.47	12.63
519.819	12.54
520.167	12.43
520.515	12.59
520.863	12.48
521.211	12.47
521.559	12.52
521.907	12.75
522.255	12.69
522.602	12.66
522.95	12.84
523.298	12.86
523.645	12.89
523.993	13.09
524.341	12.82
524.688	12.97
525.036	12.86
525.383	12.85
525.73	12.82
526.078	12.97
526.425	12.89
526.772	12.89
527.119	12.87
527.466	12.86
527.814	12.88
528.161	12.88
528.508	12.92
528.854	12.93
529.201	12.78
529.548	12.7
529.895	12.65
530.242	12.65
530.588	12.66
530.935	12.61
531.282	12.62
531.628	12.66
531.975	12.77
532.321	12.98
532.667	13.08
533.014	13.16
533.36	13.15
533.706	13.27
534.052	13.25
534.399	13.13
534.745	13.06
535.091	12.97
535.437	13.09
535.783	13.02
536.129	13.26
536.474	13.28
536.82	13.31
537.166	13.34
537.512	13.49
537.857	13.35
538.203	13.45
538.549	13.39
538.894	13.43
539.239	13.54
539.585	13.61
539.93	13.67
540.276	13.57
540.621	13.88
540.966	13.96
541.311	13.89
541.656	13.86
542.001	13.76
542.346	13.63
542.691	13.51
543.036	13.5
543.381	13.5
543.726	13.51
544.071	13.55
544.415	13.68
544.76	13.61
545.105	13.71
545.449	13.87
545.794	13.87
546.138	13.97
546.483	14.11
546.827	14.02
547.171	14.17
547.516	14.27
547.86	14.14
548.204	14.17
548.548	14.18
548.892	14.2
549.236	14.25
549.58	14.16
549.924	14.41
550.268	14.4
550.612	14.47
550.956	14.69
551.3	14.81
551.643	14.5
551.987	14.7
552.33	14.73
552.674	14.68
553.017	14.87
553.361	14.88
553.704	14.76
554.048	14.63
554.391	14.83
554.734	14.66
555.077	14.67
555.42	14.81
555.764	14.91
556.107	15
556.45	15.05
556.793	15.06
557.135	14.93
557.478	15.17
557.821	15.04
558.164	15.14
558.507	15.09
558.849	15.24
559.192	14.91
559.534	15.26
559.877	15.33
560.219	15.18
560.562	15.2
560.904	15.49
561.246	15.32
561.589	15.37
561.931	15.36
562.273	15.13
562.615	15.29
562.957	15.39
563.299	15.16
563.641	15.52
563.983	15.08
564.325	15.62
564.667	15.42
565.008	15.72
565.35	15.37
565.692	15.65
566.033	15.62
566.375	15.63
566.716	15.56
567.058	15.64
567.399	15.75
567.741	15.74
568.082	15.56
568.423	15.61
568.764	15.68
569.105	15.63
569.447	15.71
569.788	15.66
570.129	15.78
570.47	15.85
570.811	15.73
571.151	15.95
571.492	15.81
571.833	15.84
572.174	16.15
572.514	15.91
572.855	16.08
573.195	15.84
573.536	16
573.876	15.92
574.217	15.82
574.557	15.94
574.898	15.98
575.238	16.12
575.578	16.22
575.918	16.15
576.258	16.25
576.598	16.14
576.938	16.17
577.278	16.33
577.618	16.22
577.958	16.33
578.298	16.3
578.638	16.31
578.977	16.48
579.317	16.44
579.657	16.6
579.996	16.76
580.336	16.45
580.675	16.53
581.014	16.66
581.354	16.44
581.693	16.71
582.032	16.88
582.372	16.74
582.711	16.85
583.05	16.69
583.389	17.07
583.728	17.03
584.067	16.55
584.406	16.85
584.745	16.84
585.083	16.88
585.422	16.82
585.761	16.95
586.1	17.05
586.438	17.02
586.777	17.1
587.115	17.21
587.454	16.98
587.792	17.03
588.13	17.22
588.469	16.98
588.807	17.3
589.145	17.4
589.483	17.13
589.821	17.27
590.159	17.46
590.497	17.69
590.835	17.22
591.173	17.42
591.511	17.57
591.849	17.36
592.187	17.24
592.524	17.58
592.862	17.39
593.2	17.56
593.537	17.19
593.875	17.54
594.212	17.6
594.55	17.42
594.887	17.83
595.224	17.91
595.561	17.72
595.899	17.51
596.236	17.8
596.573	17.71
596.91	17.56
597.247	17.8
597.584	17.79
597.921	17.93
598.258	18.04
598.594	17.86
598.931	17.75
599.268	17.76
599.604	17.81
599.941	17.82
600.277	17.74
600.614	17.82
600.95	17.97
601.287	17.98
601.623	18.03
601.959	18.58
602.296	18.21
602.632	18.26
602.968	18.13
603.304	18.36
603.64	18.61
603.976	18.24
604.312	18.41
604.648	18.36
604.984	18.36
605.319	18.39
605.655	18.3
605.991	18.03
606.326	18.21
606.662	18.09
606.998	18.42
607.333	18.46
607.668	18.43
608.004	18.5
608.339	18.44
608.674	18.56
609.01	18.86
609.345	18.61
609.68	18.45
610.015	18.61
610.35	18.9
610.685	18.53
611.02	18.56
611.355	18.69
611.689	18.68
612.024	18.64
612.359	18.91
612.694	18.9
613.028	18.62
613.363	19.04
613.697	19.16
614.032	18.71
614.366	18.72
614.7	19.31
615.035	18.91
615.369	19.11
615.703	19.27
616.037	19.31
616.371	19.32
616.705	19.52
617.039	19.09
617.373	19.92
617.707	19.39
618.041	19.33
618.375	18.66
618.709	19.23
619.042	19.12
619.376	19.51
619.71	19.41
620.043	19.54
620.377	19.33
620.71	19.42
621.043	19.59
621.377	19.88
621.71	19.98
622.043	19.55
622.376	19.56
622.709	19.69
623.043	19.74
623.376	19.75
623.709	19.98
624.041	19.46
624.374	19.73
624.707	19.77
625.04	19.77
625.373	19.83
625.705	20.23
626.038	20.19
626.37	19.96
626.703	20.33
627.035	20.21
627.368	20.04
627.7	20.32
628.032	20.03
628.365	20.3
628.697	20.33
629.029	19.92
629.361	20.07
629.693	20.1
630.025	20.3
630.357	20.45
630.689	20.39
631.021	20.28
631.353	20.6
631.684	20.69
632.016	20.1
632.348	20.19
632.679	20.44
633.011	20.54
633.342	20.75
633.674	20.48
634.005	20.42
634.336	20.32
634.668	20.57
634.999	20.48
635.33	20.82
635.661	20.55
635.992	20.71
636.323	20.93
636.654	20.68
636.985	20.79
637.316	20.5
637.647	20.69
637.977	20.53
638.308	20.83
638.639	20.43
638.969	20.76
639.3	21.03
639.63	20.96
639.961	21.15
640.291	20.67
640.622	21.33
640.952	21.17
641.282	20.79
641.612	21.04
641.943	21.17
642.273	21
642.603	21.39
642.933	21.57
643.263	21.65
643.592	21.32
643.922	21.39
644.252	20.99
644.582	21.49
644.911	20.88
645.241	20.88
645.571	21.24
645.9	21.44
646.23	22
646.559	21.13
646.888	21.8
647.218	21.67
647.547	21.81
647.876	21.76
648.205	21.52
648.534	21.83
648.863	21.76
649.192	21.26
649.521	22.09
649.85	22.04
650.179	21.75
650.508	21.55
650.837	22.18
651.165	21.97
651.494	21.88
651.822	22.17
652.151	21.56
652.479	22.21
652.808	22.12
653.136	21.44
653.465	21.86
653.793	22.05
654.121	21.87
654.449	21.44
654.777	22.22
655.105	21.35
655.433	21.98
655.761	21.72
656.089	22.09
656.417	22.19
656.745	22.65
657.073	22.2
657.4	22.04
657.728	22.18
658.056	22.39
658.383	22.47
658.711	22.46
659.038	22.92
659.365	22.49
659.693	22.51
660.02	22.29
660.347	22.54
660.674	22.41
661.001	22.94
661.329	22.51
661.656	22.19
661.982	22.32
662.309	22.2
662.636	22.27
662.963	22.44
663.29	22.53
663.616	22.86
663.943	22.81
664.27	22.41
664.596	22.54
664.923	23.04
665.249	23.55
665.576	22.48
665.902	22.61
666.228	22.96
666.554	23.29
666.881	23.05
667.207	22.82
667.533	23.38
667.859	22.77
668.185	22.97
668.511	23.05
668.837	23.78
669.162	23.74
669.488	22.88
669.814	23.37
670.139	22.78
670.465	23.66
670.791	22.87
671.116	23.01
671.442	22.84
671.767	23.39
672.092	23.51
672.418	23.11
672.743	23
673.068	23.14
673.393	24.06
673.718	23.06
674.043	23.09
674.368	23.47
674.693	23.58
675.018	24.09
675.343	23.89
675.667	24.14
675.992	24.34
676.317	22.97
676.641	23.84
676.966	23.57
677.29	23.65
