Data from 0011_crown_Reflection__0__337.txt Node

Date: Thu Dec 15 19:18:05 CST 2022
User: ToomeyLab
Spectrometer: FLMS14357
Trigger mode: 0
Integration Time (sec): 1.000000E-2
Scans to average: 100
Electric dark correction enabled: true
Nonlinearity correction enabled: false
Boxcar width: 0
XAxis mode: Wavelengths
Number of Pixels in Spectrum: 2048
>>>>>Begin Spectral Data<<<<<
189.047	-25.17
189.435	-25.17
189.823	-25.17
190.211	-127.96
190.599	93.9
190.987	84.3
191.375	30.45
191.763	60.48
192.151	39.51
192.538	89.31
192.926	1.66
193.314	4.84
193.702	58.89
194.089	86.35
194.477	-150.66
194.864	5.51
195.252	61.83
195.639	255.52
196.027	41.15
196.414	138.33
196.801	-77.21
197.189	24.29
197.576	303.43
197.963	132.36
198.351	46.86
198.738	-134.47
199.125	-80.57
199.512	34.63
199.899	2.13
200.286	-11.17
200.673	55.82
201.06	-7.39
201.447	45.72
201.833	-17.57
202.22	12.25
202.607	-45.25
202.994	-14.72
203.38	25.12
203.767	-21.18
204.154	13.73
204.54	-11.18
204.927	-16.84
205.313	1.13
205.699	-1.73
206.086	8.95
206.472	21.1
206.858	-18.16
207.245	-27.46
207.631	-88.3
208.017	9.05
208.403	-128.96
208.789	-15.79
209.175	-22.85
209.561	-157.38
209.947	-44.71
210.333	-0.57
210.719	5.21
211.105	46.2
211.491	-15.5
211.876	-24.13
212.262	29.83
212.648	-8.08
213.034	-19.71
213.419	-42.03
213.805	-80.76
214.19	9.7
214.576	-58.43
214.961	-5.9
215.346	-1.54
215.732	-58.82
216.117	7.6
216.502	-37.24
216.888	14.69
217.273	12.39
217.658	-11.84
218.043	-44.86
218.428	-41.27
218.813	6.27
219.198	-102.55
219.583	-21.81
219.968	-28.71
220.353	5.13
220.738	-5.75
221.122	-8.05
221.507	-7.84
221.892	-34.91
222.276	-65.19
222.661	-25.24
223.046	-8.72
223.43	6.56
223.815	4.16
224.199	-6.32
224.583	-3
224.968	-0.78
225.352	-10.63
225.736	-0.27
226.121	-3.6
226.505	-10.87
226.889	-8.26
227.273	-4.89
227.657	-0.55
228.041	2.15
228.425	-0.27
228.809	4.55
229.193	7.06
229.577	3.11
229.961	5.05
230.344	5.98
230.728	6.7
231.112	6.14
231.495	4.04
231.879	5.23
232.263	5.28
232.646	4.49
233.03	5.83
233.413	6.67
233.797	5.71
234.18	4.05
234.563	5.5
234.946	1.86
235.33	3.48
235.713	4.81
236.096	6.65
236.479	5.73
236.862	2.03
237.245	4.71
237.628	4.85
238.011	3.74
238.394	4.69
238.777	4.39
239.16	3.99
239.543	6.01
239.925	3.22
240.308	4.12
240.691	4.76
241.073	3.64
241.456	4.71
241.838	5.91
242.221	4.8
242.603	5.22
242.986	5.36
243.368	5.09
243.75	5.29
244.133	5.27
244.515	4.93
244.897	4.89
245.279	4.71
245.661	3.98
246.043	5.87
246.425	4.75
246.807	5.19
247.189	4.38
247.571	5.04
247.953	5.2
248.335	5.11
248.717	5.19
249.098	5.01
249.48	4.92
249.862	5.06
250.243	5.13
250.625	4.96
251.006	5.52
251.388	4.97
251.769	3.56
252.151	4.99
252.532	4.37
252.913	4.64
253.295	4.79
253.676	5.08
254.057	4.62
254.438	5.57
254.819	4.7
255.2	5.04
255.581	6.29
255.962	4.87
256.343	3.98
256.724	4.97
257.105	5.3
257.486	2.93
257.867	3.95
258.247	4.81
258.628	4.2
259.009	3.9
259.389	4.19
259.77	4.8
260.15	5.57
260.531	4.99
260.911	4.93
261.292	4.79
261.672	4.75
262.052	4.86
262.432	4.39
262.813	4.99
263.193	5.08
263.573	4.66
263.953	4.39
264.333	4.61
264.713	4.55
265.093	3.62
265.473	3.6
265.853	4.39
266.233	4.64
266.612	3.55
266.992	4.23
267.372	4.6
267.752	4.83
268.131	5.11
268.511	4.47
268.89	5.22
269.27	4.48
269.649	4.65
270.029	4.42
270.408	4.1
270.787	4.19
271.167	4.4
271.546	5.46
271.925	4.46
272.304	4.35
272.683	4.53
273.062	4.44
273.441	4.48
273.82	4.61
274.199	4.27
274.578	4.77
274.957	4.72
275.336	4.51
275.715	4.94
276.093	3.75
276.472	3.49
276.851	5.01
277.229	3.63
277.608	4.17
277.986	4.51
278.365	4.83
278.743	4.6
279.122	3.89
279.5	4.26
279.878	4.48
280.257	4.58
280.635	4.36
281.013	4.49
281.391	4.25
281.769	4.99
282.147	3.67
282.525	3.96
282.903	4.38
283.281	5.09
283.659	4.55
284.037	4.29
284.415	4.23
284.792	4.53
285.17	3.95
285.548	3.46
285.925	3.96
286.303	4.49
286.68	4.4
287.058	4.56
287.435	4.31
287.813	4.61
288.19	4.14
288.567	4.25
288.945	3.7
289.322	4.24
289.699	4.36
290.076	4.31
290.453	3.51
290.83	4.59
291.207	4.33
291.584	4.63
291.961	4.48
292.338	3.93
292.715	4.06
293.092	4.47
293.469	4.29
293.845	4.37
294.222	4.8
294.599	3.57
294.975	4.34
295.352	4.43
295.728	4.27
296.105	4.09
296.481	4.27
296.858	4.52
297.234	3.76
297.61	4.41
297.986	4.6
298.363	4.4
298.739	4.38
299.115	4.38
299.491	4.5
299.867	4.07
300.243	4.53
300.619	4.37
300.995	4.44
301.371	4.12
301.746	4.84
302.122	4.17
302.498	3.76
302.874	4.4
303.249	4.13
303.625	3.78
304	4.54
304.376	4.19
304.751	4.11
305.127	4.29
305.502	4.28
305.878	4.72
306.253	3.84
306.628	4.13
307.003	4.31
307.378	4.84
307.754	4.15
308.129	3.87
308.504	4.2
308.879	4.48
309.254	4.36
309.629	4.16
310.003	4.2
310.378	4.68
310.753	4.56
311.128	3.94
311.502	4.16
311.877	4.06
312.252	4.33
312.626	4.33
313.001	4.4
313.375	4.56
313.75	4.45
314.124	4.33
314.498	4.73
314.873	3.97
315.247	4.2
315.621	4.12
315.995	4.3
316.369	4.13
316.743	4.25
317.117	3.97
317.491	4.64
317.865	4.01
318.239	5.23
318.613	3.79
318.987	3.34
319.361	4.16
319.734	3.95
320.108	4.54
320.482	4.67
320.855	3.94
321.229	4.16
321.602	4.56
321.976	3.66
322.349	4.57
322.723	4.61
323.096	3.72
323.469	3.82
323.843	3.66
324.216	3.96
324.589	4.35
324.962	4.15
325.335	4.71
325.708	4.07
326.081	4.45
326.454	4.22
326.827	3.95
327.2	3.7
327.573	4.17
327.945	4.23
328.318	4.2
328.691	3.94
329.063	3.6
329.436	4.15
329.809	4.19
330.181	5.41
330.553	5.12
330.926	4.56
331.298	3.96
331.671	4.22
332.043	4.16
332.415	4.5
332.787	4.24
333.159	3.27
333.532	4.41
333.904	3.99
334.276	4.23
334.648	3.96
335.02	4.26
335.391	3.99
335.763	3.95
336.135	4.03
336.507	3.83
336.879	4.24
337.25	4.36
337.622	4.74
337.993	4.13
338.365	4.42
338.736	4.42
339.108	4.36
339.479	4.43
339.851	4.39
340.222	4.95
340.593	4.07
340.964	4.15
341.336	4.32
341.707	4.1
342.078	3.98
342.449	4.27
342.82	4.38
343.191	4.17
343.562	4.46
343.933	4.03
344.303	4.61
344.674	3.99
345.045	4.68
345.416	4.51
345.786	4.14
346.157	4.44
346.527	4.36
346.898	4.1
347.268	4.48
347.639	4.07
348.009	4.61
348.38	3.88
348.75	4.02
349.12	4.45
349.49	4.42
349.861	4.53
350.231	4.01
350.601	4.51
350.971	3.93
351.341	4.42
351.711	4.11
352.081	4.54
352.45	4.35
352.82	4.06
353.19	3.87
353.56	4.3
353.929	4.49
354.299	4.27
354.669	4.77
355.038	4.45
355.408	4.47
355.777	4.52
356.147	4.37
356.516	3.99
356.885	4.28
357.254	4.09
357.624	4.14
357.993	4.51
358.362	4.5
358.731	4.69
359.1	4.57
359.469	4.69
359.838	4.43
360.207	4.34
360.576	4.44
360.945	4.61
361.314	4.37
361.682	4.1
362.051	4.37
362.42	4.49
362.788	4.58
363.157	4.58
363.525	4.68
363.894	4.45
364.262	4.63
364.631	4.63
364.999	4.5
365.367	4.66
365.735	4.46
366.104	4.44
366.472	4.36
366.84	4.57
367.208	4.56
367.576	4.62
367.944	4.35
368.312	4.32
368.68	4.83
369.048	4.67
369.416	4.52
369.783	4.5
370.151	4.83
370.519	4.72
370.886	4.97
371.254	4.78
371.621	4.63
371.989	4.57
372.356	4.55
372.724	4.49
373.091	4.52
373.458	4.6
373.826	4.81
374.193	4.57
374.56	4.72
374.927	4.31
375.294	4.85
375.661	4.64
376.028	4.47
376.395	4.69
376.762	4.43
377.129	4.52
377.496	4.66
377.863	4.67
378.229	4.81
378.596	4.91
378.963	4.72
379.329	4.86
379.696	4.75
380.062	4.56
380.429	4.5
380.795	5.03
381.161	4.64
381.528	4.33
381.894	4.81
382.26	4.75
382.626	4.89
382.993	4.73
383.359	4.71
383.725	4.43
384.091	4.68
384.457	4.53
384.823	4.79
385.188	4.84
385.554	4.93
385.92	4.76
386.286	4.82
386.651	4.6
387.017	5.2
387.383	4.96
387.748	4.83
388.114	4.87
388.479	4.68
388.845	4.84
389.21	5.08
389.575	5
389.94	5.02
390.306	4.83
390.671	5.06
391.036	4.88
391.401	5.03
391.766	4.73
392.131	5.17
392.496	4.77
392.861	4.79
393.226	4.7
393.591	4.97
393.956	5.01
394.32	5.12
394.685	5
395.05	5.28
395.414	4.9
395.779	5.19
396.143	4.84
396.508	5.04
396.872	4.9
397.236	5.25
397.601	4.99
397.965	5.02
398.329	5.02
398.694	5.02
399.058	4.91
399.422	4.8
399.786	4.92
400.15	4.9
400.514	5.08
400.878	5.07
401.242	5.21
401.605	5.1
401.969	4.9
402.333	4.83
402.697	5.06
403.06	4.94
403.424	5.06
403.787	5.23
404.151	5.01
404.514	5.08
404.878	4.98
405.241	5.03
405.604	5.17
405.968	5.14
406.331	5.39
406.694	5.16
407.057	5.05
407.42	5.07
407.783	5.02
408.146	5.05
408.509	5.13
408.872	5.04
409.235	5.24
409.598	5.15
409.961	5.36
410.323	5.13
410.686	4.99
411.049	5.08
411.411	5.1
411.774	4.95
412.136	4.97
412.499	5.36
412.861	4.84
413.223	5.18
413.586	5.2
413.948	5.24
414.31	5.23
414.672	5.05
415.035	5.42
415.397	5.06
415.759	5.01
416.121	5.13
416.483	5.06
416.845	5.05
417.206	5.15
417.568	5.08
417.93	5.39
418.292	5.1
418.653	5.04
419.015	5.18
419.377	4.98
419.738	5.31
420.1	5.04
420.461	5.13
420.822	5.23
421.184	5.15
421.545	5.22
421.906	5.18
422.267	5.13
422.629	5.14
422.99	5.03
423.351	5.24
423.712	5.22
424.073	5.3
424.434	5.42
424.795	5.14
425.155	5.06
425.516	5.1
425.877	5.18
426.238	5.09
426.598	5.28
426.959	5.25
427.32	5.28
427.68	5.28
428.041	5.29
428.401	5.15
428.761	5.39
429.122	5.41
429.482	5.39
429.842	5.38
430.202	5.5
430.563	5.42
430.923	5.48
431.283	5.56
431.643	5.53
432.003	5.54
432.363	5.48
432.722	5.35
433.082	5.45
433.442	5.42
433.802	5.37
434.161	5.35
434.521	5.33
434.881	5.41
435.24	5.37
435.6	5.49
435.959	5.61
436.319	5.58
436.678	5.45
437.037	5.46
437.396	5.66
437.756	5.27
438.115	5.49
438.474	5.44
438.833	5.49
439.192	5.42
439.551	5.46
439.91	5.54
440.269	5.51
440.628	5.51
440.987	5.51
441.345	5.59
441.704	5.54
442.063	5.39
442.421	5.41
442.78	5.55
443.138	5.64
443.497	5.63
443.855	5.46
444.214	5.41
444.572	5.76
444.93	5.61
445.288	5.6
445.647	5.57
446.005	5.48
446.363	5.66
446.721	5.58
447.079	5.51
447.437	5.59
447.795	5.6
448.153	5.55
448.51	5.62
448.868	5.59
449.226	5.71
449.584	5.57
449.941	5.66
450.299	5.71
450.656	5.56
451.014	5.74
451.371	5.78
451.729	5.66
452.086	5.74
452.443	5.88
452.801	5.74
453.158	5.82
453.515	5.67
453.872	5.75
454.229	5.58
454.586	5.62
454.943	5.77
455.3	5.79
455.657	5.78
456.014	5.75
456.371	5.94
456.727	5.83
457.084	5.97
457.441	5.97
457.797	5.7
458.154	5.84
458.51	5.85
458.867	5.87
459.223	5.79
459.58	5.86
459.936	5.83
460.292	5.84
460.648	5.67
461.005	5.79
461.361	5.78
461.717	5.75
462.073	5.89
462.429	5.84
462.785	6.09
463.141	5.84
463.496	5.98
463.852	6
464.208	5.9
464.564	5.86
464.919	5.93
465.275	6.1
465.631	6.09
465.986	6
466.342	5.85
466.697	5.89
467.052	6.1
467.408	6.09
467.763	5.95
468.118	5.88
468.473	6.04
468.829	5.84
469.184	6.15
469.539	5.97
469.894	6.12
470.249	6
470.603	6.14
470.958	6.15
471.313	6.16
471.668	5.93
472.023	6.17
472.377	6.01
472.732	6.24
473.086	6.13
473.441	6.14
473.795	6.38
474.15	6.21
474.504	6.03
474.859	5.88
475.213	6.31
475.567	6.03
475.921	5.99
476.275	6.08
476.63	6.21
476.984	6.08
477.338	6.2
477.692	6.07
478.045	6.24
478.399	6.14
478.753	6.06
479.107	6.15
479.461	6.19
479.814	6.1
480.168	6.14
480.521	6.24
480.875	6.22
481.228	6.26
481.582	6.2
481.935	6.23
482.289	6.09
482.642	6.19
482.995	6.14
483.348	6.12
483.701	6.13
484.055	6.16
484.408	6.06
484.761	5.92
485.114	5.83
485.466	5.81
485.819	5.8
486.172	5.85
486.525	5.92
486.878	5.99
487.23	6.01
487.583	6.19
487.936	6.09
488.288	6.08
488.641	6.02
488.993	5.93
489.345	5.91
489.698	5.98
490.05	5.99
490.402	6.04
490.754	6.06
491.107	6.16
491.459	6.28
491.811	6.23
492.163	6.23
492.515	6.13
492.866	6
493.218	6.05
493.57	6.14
493.922	6.06
494.274	6.22
494.625	6.36
494.977	6.29
495.328	6.41
495.68	6.39
496.031	6.35
496.383	6.42
496.734	6.27
497.086	6.49
497.437	6.44
497.788	6.45
498.139	6.37
498.49	6.3
498.842	6.5
499.193	6.33
499.544	6.41
499.894	6.37
500.245	6.48
500.596	6.48
500.947	6.42
501.298	6.48
501.648	6.41
501.999	6.66
502.35	6.43
502.7	6.61
503.051	6.53
503.401	6.51
503.752	6.38
504.102	6.51
504.452	6.44
504.803	6.51
505.153	6.58
505.503	6.43
505.853	6.56
506.203	6.6
506.553	6.51
506.903	6.5
507.253	6.57
507.603	6.55
507.953	6.52
508.303	6.57
508.652	6.49
509.002	6.61
509.352	6.63
509.701	6.48
510.051	6.61
510.4	6.51
510.75	6.56
511.099	6.46
511.449	6.64
511.798	6.55
512.147	6.53
512.496	6.67
512.846	6.6
513.195	6.57
513.544	6.71
513.893	6.56
514.242	6.64
514.591	6.55
514.939	6.63
515.288	6.72
515.637	6.56
515.986	6.7
516.334	6.72
516.683	6.67
517.032	6.84
517.38	6.59
517.729	6.76
518.077	6.74
518.426	6.72
518.774	6.6
519.122	6.68
519.47	6.59
519.819	6.64
520.167	6.6
520.515	6.68
520.863	6.64
521.211	6.58
521.559	6.6
521.907	6.67
522.255	6.74
522.602	6.74
522.95	6.88
523.298	6.56
523.645	6.79
523.993	6.79
524.341	6.8
524.688	6.67
525.036	6.8
525.383	6.77
525.73	6.65
526.078	6.84
526.425	6.76
526.772	6.67
527.119	6.77
527.466	6.7
527.814	6.59
528.161	6.73
528.508	6.81
528.854	6.72
529.201	6.65
529.548	6.61
529.895	6.54
530.242	6.47
530.588	6.48
530.935	6.51
531.282	6.61
531.628	6.64
531.975	6.67
532.321	6.76
532.667	6.79
533.014	6.85
533.36	6.82
533.706	6.86
534.052	6.85
534.399	6.7
534.745	6.68
535.091	6.63
535.437	6.69
535.783	6.68
536.129	6.77
536.474	6.87
536.82	6.94
537.166	6.87
537.512	6.84
537.857	6.85
538.203	6.81
538.549	6.81
538.894	6.83
539.239	6.95
539.585	6.91
539.93	7.06
540.276	7.03
540.621	7
540.966	7.06
541.311	7.08
541.656	6.92
542.001	6.82
542.346	6.79
542.691	6.68
543.036	6.74
543.381	6.72
543.726	6.77
544.071	6.82
544.415	6.78
544.76	6.94
545.105	6.94
545.449	7.07
545.794	7.08
546.138	6.96
546.483	7.03
546.827	7.13
547.171	7.06
547.516	7.09
547.86	7.09
548.204	7.09
548.548	7.02
548.892	7.02
549.236	7.02
549.58	7.19
549.924	7.14
550.268	7.25
550.612	7.29
550.956	7.2
551.3	7.47
551.643	7.23
551.987	7.32
552.33	7.36
552.674	7.14
553.017	7.44
553.361	7.22
553.704	7.33
554.048	7.22
554.391	7.24
554.734	7.1
555.077	7.31
555.42	7.24
555.764	7.39
556.107	7.44
556.45	7.43
556.793	7.47
557.135	7.36
557.478	7.25
557.821	7.34
558.164	7.42
558.507	7.22
558.849	7.41
559.192	7.31
559.534	7.37
559.877	7.35
560.219	7.47
560.562	7.32
560.904	7.55
561.246	7.44
561.589	7.49
561.931	7.45
562.273	7.39
562.615	7.44
562.957	7.36
563.299	7.38
563.641	7.48
563.983	7.35
564.325	7.45
564.667	7.46
565.008	7.26
565.35	7.3
565.692	7.52
566.033	7.39
566.375	7.44
566.716	7.45
567.058	7.37
567.399	7.5
567.741	7.31
568.082	7.45
568.423	7.49
568.764	7.49
569.105	7.48
569.447	7.39
569.788	7.53
570.129	7.53
570.47	7.54
570.811	7.55
571.151	7.39
571.492	7.56
571.833	7.47
572.174	7.67
572.514	7.7
572.855	7.57
573.195	7.44
573.536	7.76
573.876	7.56
574.217	7.43
574.557	7.69
574.898	7.44
575.238	7.66
575.578	7.64
575.918	7.56
576.258	7.74
576.598	7.62
576.938	7.6
577.278	7.64
577.618	7.66
577.958	7.77
578.298	7.64
578.638	7.61
578.977	7.79
579.317	7.78
579.657	7.52
579.996	7.87
580.336	7.72
580.675	7.47
581.014	7.74
581.354	7.81
581.693	7.93
582.032	8.08
582.372	7.9
582.711	7.83
583.05	7.71
583.389	7.85
583.728	7.92
584.067	7.75
584.406	7.67
584.745	7.62
585.083	7.85
585.422	8.03
585.761	8.04
586.1	7.89
586.438	7.82
586.777	7.8
587.115	7.9
587.454	7.65
587.792	7.9
588.13	7.98
588.469	7.8
588.807	8.14
589.145	7.79
589.483	7.57
589.821	7.91
590.159	8
590.497	8.07
590.835	8.01
591.173	8.05
591.511	8.09
591.849	8.15
592.187	7.87
592.524	7.99
592.862	7.89
593.2	8.36
593.537	7.81
593.875	7.87
594.212	8.08
594.55	8.25
594.887	8.17
595.224	8.12
595.561	7.89
595.899	8.13
596.236	8.04
596.573	7.94
596.91	7.77
597.247	8.15
597.584	8.04
597.921	7.86
598.258	8.18
598.594	7.92
598.931	7.85
599.268	8.14
599.604	8.11
599.941	8.07
600.277	8.13
600.614	7.97
600.95	7.89
601.287	7.84
601.623	7.84
601.959	8.37
602.296	8.03
602.632	8.18
602.968	8.05
603.304	8.07
603.64	8.37
603.976	8.12
604.312	8.22
604.648	8.23
604.984	8.27
605.319	8.18
605.655	8.05
605.991	8.09
606.326	7.94
606.662	7.99
606.998	8.39
607.333	8.21
607.668	8.07
608.004	8.17
608.339	8
608.674	8.16
609.01	8.4
609.345	8.29
609.68	8.17
610.015	8.38
610.35	8.44
610.685	8.14
611.02	7.99
611.355	8.15
611.689	8.29
612.024	8.35
612.359	8.35
612.694	8.46
613.028	8.34
613.363	8.48
613.697	8.5
614.032	8.27
614.366	8.17
614.7	8.43
615.035	8.29
615.369	8.35
615.703	8.18
616.037	8.52
616.371	8.24
616.705	8.39
617.039	8.29
617.373	8.62
617.707	8.01
618.041	8.18
618.375	8.02
618.709	8.07
619.042	7.95
619.376	8.51
619.71	8.43
620.043	8.74
620.377	8.41
620.71	8.23
621.043	8.51
621.377	8.3
621.71	8.9
622.043	8.67
622.376	8.25
622.709	8.73
623.043	8.21
623.376	8.26
623.709	8.6
624.041	8.47
624.374	8.45
624.707	8.51
625.04	8.36
625.373	8.45
625.705	8.83
626.038	8.69
626.37	8.21
626.703	8.49
627.035	8.71
627.368	8.5
627.7	8.48
628.032	8.67
628.365	8.8
628.697	8.76
629.029	8.43
629.361	8.61
629.693	8.26
630.025	8.37
630.357	8.58
630.689	8.88
631.021	8.75
631.353	8.61
631.684	8.42
632.016	8.07
632.348	8.63
632.679	9.28
633.011	8.67
633.342	8.6
633.674	8.27
634.005	8.49
634.336	8.84
634.668	8.67
634.999	8.72
635.33	8.77
635.661	8.66
635.992	8.89
636.323	8.54
636.654	8.76
636.985	8.37
637.316	8.67
637.647	8.85
637.977	8.7
638.308	8.99
638.639	8.61
638.969	8.61
639.3	8.85
639.63	8.6
639.961	8.91
640.291	8.71
640.622	8.74
640.952	8.91
641.282	8.5
641.612	8.89
641.943	8.44
642.273	8.58
642.603	9.48
642.933	8.98
643.263	9.29
643.592	9.1
643.922	9.31
644.252	9.16
644.582	9.02
644.911	8.7
645.241	8.97
645.571	8.85
645.9	8.95
646.23	9.04
646.559	8.58
646.888	8.81
647.218	8.83
647.547	8.63
647.876	8.84
648.205	8.5
648.534	9.04
648.863	8.73
649.192	9.32
649.521	9.06
649.85	9.04
650.179	9.06
650.508	9.06
650.837	9.31
651.165	9.07
651.494	8.68
651.822	9.21
652.151	8.93
652.479	9.22
652.808	9.01
653.136	8.87
653.465	8.72
653.793	8.84
654.121	9.03
654.449	9.24
654.777	8.96
655.105	8.65
655.433	9.14
655.761	8.77
656.089	8.86
656.417	9.52
656.745	9.63
657.073	9.02
657.4	9.18
657.728	8.17
658.056	9.08
658.383	9.17
658.711	9.14
659.038	9.54
659.365	9.61
659.693	8.77
660.02	8.65
660.347	9.07
660.674	8.66
661.001	9.09
661.329	9.12
661.656	8.8
661.982	8.86
662.309	8.91
662.636	8.92
662.963	9.09
663.29	9.11
663.616	9.23
663.943	9.47
664.27	9.21
664.596	8.97
664.923	9.39
665.249	9.54
665.576	9.22
665.902	8.97
666.228	9.21
666.554	10.21
666.881	9.41
667.207	9.38
667.533	9.16
667.859	8.95
668.185	9.18
668.511	9.15
668.837	8.63
669.162	9.39
669.488	8.63
669.814	9.74
670.139	8.69
670.465	10.11
670.791	9.01
671.116	9.41
671.442	8.78
671.767	9.42
672.092	9.28
672.418	9.28
672.743	9.15
673.068	9.38
673.393	9.31
673.718	9.27
674.043	9.25
674.368	9.52
674.693	9.65
675.018	9.59
675.343	9.67
675.667	9.18
675.992	8.99
676.317	8.51
676.641	10
676.966	9.63
677.29	9.23
677.615	8.98
677.939	9.78
678.264	9.02
678.588	9.27
678.912	9.19
679.236	9.07
679.56	8.59
679.885	9.19
680.209	9.6
680.532	10.13
680.856	9.55
681.18	10.15
681.504	9.33
681.828	9.22
682.152	9.74
682.475	9.79
682.799	9.38
683.122	9.78
683.446	9.17
683.769	9.81
684.093	9.83
684.416	9.18
684.739	9.93
685.062	9.39
685.386	9.66
685.709	9.82
686.032	10.05
686.355	9.59
686.678	9.26
687.001	9.31
687.324	9.09
687.646	9.52
687.969	9.65
688.292	9.29
688.614	10.28
688.937	10.08
689.26	9.85
689.582	9.35
689.904	9.92
690.227	10.27
690.549	9.79
690.871	9.95
691.194	8.96
691.516	9.93
