Data from 0011_chest_Reflection__0__332.txt Node

Date: Thu Dec 15 19:16:30 CST 2022
User: ToomeyLab
Spectrometer: FLMS14357
Trigger mode: 0
Integration Time (sec): 1.000000E-2
Scans to average: 100
Electric dark correction enabled: true
Nonlinearity correction enabled: false
Boxcar width: 0
XAxis mode: Wavelengths
Number of Pixels in Spectrum: 2048
>>>>>Begin Spectral Data<<<<<
189.047	-10.38
189.435	-10.38
189.823	-10.38
190.211	42.4
190.599	46.59
190.987	44.31
191.375	69.19
191.763	105.85
192.151	191.27
192.538	208.07
192.926	59.05
193.314	64.13
193.702	-69.6
194.089	-245.55
194.477	52.69
194.864	24.43
195.252	25.68
195.639	356.99
196.027	104.15
196.414	340.71
196.801	78.2
197.189	76.05
197.576	-168.04
197.963	232.04
198.351	18.19
198.738	-110.94
199.125	-37.85
199.512	25.41
199.899	-52.82
200.286	-3.2
200.673	26.65
201.06	-53.39
201.447	-26.5
201.833	24.99
202.22	-32.16
202.607	-35.9
202.994	-10.01
203.38	-6.57
203.767	-4.7
204.154	10.36
204.54	-5.56
204.927	-14.16
205.313	27.94
205.699	2.63
206.086	25.1
206.472	17.18
206.858	8.27
207.245	-22.54
207.631	-49.48
208.017	35.38
208.403	-82.21
208.789	5.85
209.175	-42.33
209.561	-124.37
209.947	-9.41
210.333	-69.05
210.719	31.72
211.105	22.86
211.491	-18.39
211.876	-23.57
212.262	-13.22
212.648	-0.44
213.034	-12.61
213.419	-21.44
213.805	-65.99
214.19	-64.69
214.576	-67.03
214.961	5.69
215.346	-34.28
215.732	16.53
216.117	10.72
216.502	-25.82
216.888	-17.37
217.273	11.07
217.658	13.84
218.043	-57.88
218.428	-17.85
218.813	-18.22
219.198	-33.88
219.583	-4.96
219.968	-26.16
220.353	-89.99
220.738	-14.88
221.122	-51.63
221.507	-10.58
221.892	-41.18
222.276	-15.55
222.661	-13.66
223.046	-19.05
223.43	19.05
223.815	-1.89
224.199	-0.35
224.583	-0.78
224.968	0.79
225.352	-4.28
225.736	0.74
226.121	-7.53
226.505	-6.63
226.889	4.92
227.273	5.13
227.657	2.78
228.041	0.44
228.425	-0.54
228.809	-0.96
229.193	0.38
229.577	3.32
229.961	2.67
230.344	4.25
230.728	4.42
231.112	4.59
231.495	3.02
231.879	5.29
232.263	4.35
232.646	1.85
233.03	3.36
233.413	3.59
233.797	1.16
234.18	0.91
234.563	2.71
234.946	1
235.33	3.79
235.713	5
236.096	4.97
236.479	5.39
236.862	2.96
237.245	4.18
237.628	4.22
238.011	2.03
238.394	1.88
238.777	5.11
239.16	4.39
239.543	4.21
239.925	2.4
240.308	2.06
240.691	2.39
241.073	2.11
241.456	3.39
241.838	4.36
242.221	3.31
242.603	4.4
242.986	3.66
243.368	4.07
243.75	4.4
244.133	4.09
244.515	3.77
244.897	3.77
245.279	3.12
245.661	3.53
246.043	2.95
246.425	2.54
246.807	3.84
247.189	3.64
247.571	3.6
247.953	3.72
248.335	3.93
248.717	3.82
249.098	3.79
249.48	3.49
249.862	3.84
250.243	3.77
250.625	3.93
251.006	4.52
251.388	3.64
251.769	2.96
252.151	3.61
252.532	3.22
252.913	3.32
253.295	3.79
253.676	3.66
254.057	3.06
254.438	3.63
254.819	3.38
255.2	3.89
255.581	4.01
255.962	3.37
256.343	2.39
256.724	2.37
257.105	3.57
257.486	2.58
257.867	3.32
258.247	3.42
258.628	3.48
259.009	2.59
259.389	2.6
259.77	3.69
260.15	3.65
260.531	3.27
260.911	3.23
261.292	3.61
261.672	3.47
262.052	3.64
262.432	3.24
262.813	3.21
263.193	2.74
263.573	2.87
263.953	2.6
264.333	3.53
264.713	3.66
265.093	2.95
265.473	2.08
265.853	2.83
266.233	2.66
266.612	2.82
266.992	3.04
267.372	3.59
267.752	3.45
268.131	2.42
268.511	2.95
268.89	3.56
269.27	2.52
269.649	2.81
270.029	2.45
270.408	3.26
270.787	3.13
271.167	3.04
271.546	3.68
271.925	3.52
272.304	3.06
272.683	2.66
273.062	3.21
273.441	2.64
273.82	3.28
274.199	3.35
274.578	3.26
274.957	3.25
275.336	2.96
275.715	2.93
276.093	2.2
276.472	2.53
276.851	2.97
277.229	2.87
277.608	2.8
277.986	2.73
278.365	3.98
278.743	2.79
279.122	3.2
279.5	3.08
279.878	3.03
280.257	2.37
280.635	3.16
281.013	2.52
281.391	3.05
281.769	3.13
282.147	2.96
282.525	2.71
282.903	2.36
283.281	3.49
283.659	3.46
284.037	2.73
284.415	2.98
284.792	2.96
285.17	3.34
285.548	2.96
285.925	2.58
286.303	3.23
286.68	2.86
287.058	2.8
287.435	2.9
287.813	2.94
288.19	2.85
288.567	2.89
288.945	2.67
289.322	3.21
289.699	3.39
290.076	3.37
290.453	2.44
290.83	2.85
291.207	2.95
291.584	2.94
291.961	2.55
292.338	2.92
292.715	2.93
293.092	3.31
293.469	2.68
293.845	2.65
294.222	3.44
294.599	2.57
294.975	1.95
295.352	2.99
295.728	2.62
296.105	2.72
296.481	3
296.858	2.54
297.234	2.59
297.61	2.9
297.986	3.27
298.363	2.79
298.739	2.99
299.115	2.99
299.491	3.19
299.867	2.83
300.243	2.79
300.619	2.38
300.995	3.13
301.371	2.83
301.746	2.69
302.122	2.48
302.498	3
302.874	2.7
303.249	2.64
303.625	2.52
304	2.69
304.376	2.96
304.751	3.15
305.127	3
305.502	3
305.878	2.68
306.253	2.74
306.628	2.95
307.003	2.58
307.378	2.9
307.754	2.81
308.129	2.7
308.504	2.97
308.879	3.21
309.254	2.81
309.629	2.94
310.003	2.67
310.378	3.5
310.753	2.91
311.128	2.64
311.502	3.09
311.877	2.65
312.252	2.8
312.626	3.4
313.001	3.18
313.375	2.97
313.75	3.16
314.124	3.18
314.498	3.31
314.873	2.37
315.247	3.05
315.621	2.7
315.995	2.64
316.369	2.17
316.743	2.83
317.117	3.04
317.491	2.97
317.865	2.18
318.239	3.14
318.613	2.77
318.987	2.11
319.361	2.99
319.734	2.92
320.108	2.97
320.482	2.73
320.855	2.66
321.229	2.85
321.602	3
321.976	2.63
322.349	2.88
322.723	2.55
323.096	3.09
323.469	2.97
323.843	2.44
324.216	2.57
324.589	2.98
324.962	2.57
325.335	3.02
325.708	3.06
326.081	2.49
326.454	2.82
326.827	2.74
327.2	2.24
327.573	3.72
327.945	2.86
328.318	2.9
328.691	2.65
329.063	2.65
329.436	2.32
329.809	2.95
330.181	3.53
330.553	3.14
330.926	3.36
331.298	2.85
331.671	2.84
332.043	2.86
332.415	2.86
332.787	3.01
333.159	2.98
333.532	2.77
333.904	2.9
334.276	3.06
334.648	3.22
335.02	2.59
335.391	2.86
335.763	3.2
336.135	3.36
336.507	2.41
336.879	2.98
337.25	2.87
337.622	3.26
337.993	2.79
338.365	3.14
338.736	2.7
339.108	3.06
339.479	2.84
339.851	3.19
340.222	3.65
340.593	2.64
340.964	3.14
341.336	2.63
341.707	2.9
342.078	2.84
342.449	2.91
342.82	3.21
343.191	2.82
343.562	3.17
343.933	2.34
344.303	3.23
344.674	2.81
345.045	3.13
345.416	3.12
345.786	2.97
346.157	3.06
346.527	2.87
346.898	2.69
347.268	3.19
347.639	2.62
348.009	2.99
348.38	2.97
348.75	3.63
349.12	2.92
349.49	2.91
349.861	3.28
350.231	3.09
350.601	2.77
350.971	2.67
351.341	3.28
351.711	3.41
352.081	2.63
352.45	2.82
352.82	2.66
353.19	2.91
353.56	2.87
353.929	2.97
354.299	2.89
354.669	3.17
355.038	3.24
355.408	3.05
355.777	3.42
356.147	3.43
356.516	2.8
356.885	3.22
357.254	2.61
357.624	2.7
357.993	3.53
358.362	3.14
358.731	3.13
359.1	3.04
359.469	3.46
359.838	3.1
360.207	2.98
360.576	3.39
360.945	3.25
361.314	2.96
361.682	2.72
362.051	3.04
362.42	3.36
362.788	3.21
363.157	3
363.525	3.2
363.894	2.79
364.262	3.08
364.631	3.21
364.999	2.99
365.367	3.15
365.735	2.88
366.104	3.13
366.472	3.05
366.84	3.06
367.208	3.25
367.576	2.91
367.944	3.21
368.312	3.06
368.68	3.11
369.048	3.26
369.416	3.08
369.783	2.83
370.151	3.65
370.519	3.61
370.886	2.99
371.254	3.09
371.621	3.34
371.989	3.29
372.356	3.29
372.724	3.12
373.091	3.04
373.458	3.17
373.826	3.4
374.193	3.5
374.56	3.34
374.927	3.04
375.294	3.2
375.661	3.26
376.028	3.37
376.395	3.43
376.762	3.22
377.129	3.17
377.496	3.36
377.863	3.61
378.229	3.35
378.596	3.27
378.963	3.49
379.329	3.35
379.696	3.04
380.062	3.4
380.429	3.35
380.795	3.52
381.161	3.3
381.528	3.08
381.894	3.12
382.26	3.12
382.626	3.24
382.993	3.64
383.359	3.2
383.725	2.99
384.091	3.28
384.457	3.18
384.823	3.3
385.188	3.35
385.554	3.47
385.92	3.27
386.286	3.29
386.651	3.38
387.017	3.44
387.383	3.77
387.748	3.58
388.114	3.23
388.479	3.39
388.845	3.02
389.21	3.71
389.575	3.77
389.94	3.28
390.306	3.36
390.671	3.43
391.036	3.43
391.401	3.38
391.766	3.2
392.131	3.48
392.496	3.3
392.861	3.47
393.226	3.3
393.591	3.53
393.956	3.43
394.32	3.72
394.685	3.47
395.05	3.42
395.414	3.28
395.779	3.68
396.143	3.3
396.508	3.27
396.872	3.19
397.236	3.89
397.601	3.55
397.965	3.38
398.329	3.35
398.694	3.3
399.058	3.3
399.422	3.39
399.786	3.11
400.15	3.34
400.514	3.53
400.878	3.24
401.242	3.49
401.605	3.37
401.969	3.34
402.333	3.31
402.697	3.88
403.06	3.28
403.424	3.32
403.787	3.25
404.151	3.57
404.514	3.68
404.878	3.12
405.241	3.31
405.604	3.37
405.968	3.36
406.331	3.67
406.694	3.31
407.057	3.24
407.42	3.52
407.783	3.54
408.146	3.37
408.509	3.35
408.872	3.66
409.235	3.63
409.598	3.51
409.961	3.69
410.323	3.29
410.686	3.24
411.049	3.64
411.411	3.19
411.774	3.46
412.136	3.49
412.499	3.49
412.861	3.25
413.223	3.28
413.586	3.56
413.948	3.52
414.31	3.37
414.672	3.44
415.035	3.71
415.397	3.24
415.759	3.14
416.121	3.65
416.483	3.37
416.845	3.7
417.206	3.48
417.568	3.27
417.93	3.54
418.292	3.43
418.653	3.21
419.015	3.54
419.377	3.34
419.738	3.54
420.1	3.4
420.461	3.3
420.822	3.47
421.184	3.5
421.545	3.33
421.906	3.4
422.267	3.42
422.629	3.34
422.99	3.42
423.351	3.34
423.712	3.41
424.073	3.45
424.434	3.5
424.795	3.29
425.155	3.27
425.516	3.36
425.877	3.48
426.238	3.46
426.598	3.41
426.959	3.54
427.32	3.45
427.68	3.49
428.041	3.61
428.401	3.34
428.761	3.47
429.122	3.56
429.482	3.4
429.842	3.38
430.202	3.64
430.563	3.45
430.923	3.55
431.283	3.76
431.643	3.72
432.003	3.59
432.363	3.83
432.722	3.62
433.082	3.45
433.442	3.58
433.802	3.44
434.161	3.52
434.521	3.66
434.881	3.54
435.24	3.47
435.6	3.57
435.959	3.58
436.319	3.48
436.678	3.57
437.037	3.51
437.396	3.68
437.756	3.4
438.115	3.52
438.474	3.78
438.833	3.56
439.192	3.5
439.551	3.52
439.91	3.6
440.269	3.51
440.628	3.4
440.987	3.5
441.345	3.48
441.704	3.51
442.063	3.52
442.421	3.57
442.78	3.59
443.138	3.64
443.497	3.49
443.855	3.6
444.214	3.34
444.572	3.65
444.93	3.6
445.288	3.53
445.647	3.38
446.005	3.55
446.363	3.54
446.721	3.52
447.079	3.5
447.437	3.55
447.795	3.57
448.153	3.54
448.51	3.58
448.868	3.47
449.226	3.53
449.584	3.57
449.941	3.48
450.299	3.47
450.656	3.42
451.014	3.6
451.371	3.69
451.729	3.51
452.086	3.52
452.443	3.61
452.801	3.62
453.158	3.72
453.515	3.56
453.872	3.58
454.229	3.53
454.586	3.55
454.943	3.55
455.3	3.75
455.657	3.67
456.014	3.7
456.371	3.68
456.727	3.65
457.084	3.71
457.441	3.76
457.797	3.69
458.154	3.72
458.51	3.58
458.867	3.56
459.223	3.53
459.58	3.49
459.936	3.6
460.292	3.55
460.648	3.54
461.005	3.47
461.361	3.56
461.717	3.51
462.073	3.72
462.429	3.67
462.785	3.71
463.141	3.58
463.496	3.57
463.852	3.75
464.208	3.58
464.564	3.57
464.919	3.69
465.275	3.51
465.631	3.79
465.986	3.88
466.342	3.53
466.697	3.62
467.052	3.7
467.408	3.7
467.763	3.64
468.118	3.63
468.473	3.73
468.829	3.46
469.184	3.79
469.539	3.67
469.894	3.65
470.249	3.66
470.603	3.89
470.958	3.86
471.313	3.68
471.668	3.66
472.023	3.67
472.377	3.62
472.732	3.86
473.086	3.77
473.441	3.55
473.795	3.86
474.15	3.63
474.504	3.55
474.859	3.45
475.213	3.73
475.567	3.71
475.921	3.69
476.275	3.91
476.63	3.66
476.984	3.76
477.338	3.68
477.692	3.63
478.045	3.75
478.399	3.72
478.753	3.66
479.107	3.7
479.461	3.63
479.814	3.86
480.168	3.69
480.521	3.82
480.875	3.71
481.228	3.65
481.582	3.8
481.935	3.78
482.289	3.78
482.642	3.78
482.995	3.69
483.348	3.65
483.701	3.76
484.055	3.7
484.408	3.63
484.761	3.57
485.114	3.52
485.466	3.46
485.819	3.48
486.172	3.55
486.525	3.59
486.878	3.65
487.23	3.62
487.583	3.71
487.936	3.63
488.288	3.61
488.641	3.59
488.993	3.56
489.345	3.55
489.698	3.57
490.05	3.58
490.402	3.66
490.754	3.6
491.107	3.61
491.459	3.71
491.811	3.72
492.163	3.71
492.515	3.68
492.866	3.53
493.218	3.57
493.57	3.57
493.922	3.69
494.274	3.8
494.625	3.81
494.977	3.79
495.328	3.89
495.68	3.82
496.031	3.85
496.383	3.75
496.734	3.66
497.086	3.8
497.437	3.84
497.788	3.87
498.139	3.78
498.49	3.79
498.842	3.84
499.193	3.77
499.544	3.87
499.894	3.75
500.245	3.93
500.596	3.75
500.947	3.79
501.298	3.83
501.648	3.77
501.999	3.96
502.35	3.76
502.7	4
503.051	3.83
503.401	3.94
503.752	3.77
504.102	3.86
504.452	3.69
504.803	3.84
505.153	3.84
505.503	3.91
505.853	3.91
506.203	3.92
506.553	3.84
506.903	3.88
507.253	3.9
507.603	3.96
507.953	3.85
508.303	3.81
508.652	3.77
509.002	3.91
509.352	3.85
509.701	3.73
510.051	4.04
510.4	4.05
510.75	3.82
511.099	3.81
511.449	3.96
511.798	3.82
512.147	3.92
512.496	3.96
512.846	3.79
513.195	3.86
513.544	4.02
513.893	3.91
514.242	3.9
514.591	3.94
514.939	4.03
515.288	4.12
515.637	4
515.986	4.01
516.334	4.12
516.683	3.91
517.032	3.91
517.38	3.87
517.729	3.88
518.077	4
518.426	4.02
518.774	3.92
519.122	3.96
519.47	3.9
519.819	3.96
520.167	4
520.515	4.01
520.863	3.92
521.211	3.95
521.559	3.95
521.907	4.03
522.255	3.97
522.602	4.06
522.95	4.04
523.298	4
523.645	4.06
523.993	3.97
524.341	4.04
524.688	4.14
525.036	3.91
525.383	4.02
525.73	4.07
526.078	4.23
526.425	4.03
526.772	4.02
527.119	4.14
527.466	4.02
527.814	4.06
528.161	4.15
528.508	4.14
528.854	4.13
529.201	3.97
529.548	3.96
529.895	3.9
530.242	3.92
530.588	3.92
530.935	3.97
531.282	4
531.628	4.09
531.975	4.04
532.321	4.07
532.667	4.13
533.014	4.19
533.36	4.26
533.706	4.18
534.052	4.17
534.399	4.13
534.745	4.08
535.091	4.04
535.437	4.11
535.783	4.15
536.129	4.17
536.474	4.28
536.82	4.32
537.166	4.22
537.512	4.32
537.857	4.21
538.203	4.18
538.549	4.18
538.894	4.3
539.239	4.35
539.585	4.42
539.93	4.36
540.276	4.31
540.621	4.44
540.966	4.31
541.311	4.34
541.656	4.49
542.001	4.31
542.346	4.26
542.691	4.15
543.036	4.22
543.381	4.17
543.726	4.31
544.071	4.3
544.415	4.42
544.76	4.37
545.105	4.4
545.449	4.41
545.794	4.39
546.138	4.47
546.483	4.53
546.827	4.41
547.171	4.47
547.516	4.54
547.86	4.47
548.204	4.49
548.548	4.45
548.892	4.48
549.236	4.45
549.58	4.55
549.924	4.6
550.268	4.69
550.612	4.76
550.956	4.71
551.3	4.69
551.643	4.66
551.987	4.74
552.33	4.77
552.674	4.73
553.017	4.71
553.361	4.74
553.704	4.69
554.048	4.59
554.391	4.8
554.734	4.7
555.077	4.64
555.42	4.75
555.764	4.8
556.107	4.95
556.45	4.87
556.793	5.06
557.135	5.01
557.478	4.88
557.821	4.91
558.164	4.95
558.507	4.67
558.849	5.05
559.192	4.9
559.534	5.06
559.877	4.87
560.219	4.89
560.562	4.82
560.904	5.22
561.246	4.83
561.589	5.16
561.931	5.11
562.273	5
562.615	4.89
562.957	5.01
563.299	4.87
563.641	5.02
563.983	4.84
564.325	5.05
564.667	5.14
565.008	5.01
565.35	4.98
565.692	4.96
566.033	5.18
566.375	5.07
566.716	5.05
567.058	5.16
567.399	5.22
567.741	5.14
568.082	5.16
568.423	5.26
568.764	5.14
569.105	5.23
569.447	5.26
569.788	5.25
570.129	5.22
570.47	5.29
570.811	5.26
571.151	5.37
571.492	5.31
571.833	5.36
572.174	5.44
572.514	5.56
572.855	5.51
573.195	5.26
573.536	5.59
573.876	5.44
574.217	5.42
574.557	5.61
574.898	5.5
575.238	5.61
575.578	5.64
575.918	5.4
576.258	5.76
576.598	5.66
576.938	5.7
577.278	5.65
577.618	5.51
577.958	5.56
578.298	5.68
578.638	5.77
578.977	5.76
579.317	5.75
579.657	5.63
579.996	5.8
580.336	5.87
580.675	5.84
581.014	5.98
581.354	5.65
581.693	5.97
582.032	6.24
582.372	6
582.711	6.18
583.05	5.82
583.389	6.2
583.728	6.13
584.067	5.91
584.406	6
584.745	6.02
585.083	6.02
585.422	6.29
585.761	6.25
586.1	6.22
586.438	5.93
586.777	6.22
587.115	6.27
587.454	6.3
587.792	6.43
588.13	6.33
588.469	6.23
588.807	6.41
589.145	6.21
589.483	6.19
589.821	6.26
590.159	6.26
590.497	6.43
590.835	6.37
591.173	6.44
591.511	6.42
591.849	6.49
592.187	6.32
592.524	6.68
592.862	6.45
593.2	6.58
593.537	6.46
593.875	6.63
594.212	6.53
594.55	6.55
594.887	6.73
595.224	6.66
595.561	6.73
595.899	6.65
596.236	6.82
596.573	6.47
596.91	6.76
597.247	7.02
597.584	6.79
597.921	6.65
598.258	7.08
598.594	6.8
598.931	6.57
599.268	6.8
599.604	7.02
599.941	6.88
600.277	7.01
600.614	7.06
600.95	6.75
601.287	6.8
601.623	6.83
601.959	7.3
602.296	7
602.632	7.11
602.968	6.85
603.304	7.09
603.64	7.22
603.976	6.94
604.312	7.21
604.648	7.19
604.984	7.12
605.319	7.41
605.655	7.06
605.991	6.96
606.326	7.28
606.662	6.99
606.998	7.4
607.333	7.16
607.668	7.32
608.004	7.57
608.339	7.35
608.674	7.71
609.01	7.75
609.345	7.55
609.68	7.33
610.015	7.64
610.35	7.58
610.685	7.22
611.02	7.56
611.355	7.74
611.689	7.65
612.024	7.52
612.359	7.61
612.694	7.74
613.028	7.82
613.363	7.8
613.697	7.88
614.032	7.9
614.366	7.88
614.7	8.12
615.035	7.73
615.369	8.13
615.703	7.9
616.037	8.23
616.371	8.12
616.705	7.92
617.039	8.17
617.373	8.23
617.707	8.24
618.041	8.16
618.375	7.83
618.709	8.11
619.042	8.11
619.376	8.47
619.71	8.23
620.043	8.55
620.377	8.13
620.71	8.11
621.043	8.46
621.377	8.48
621.71	8.42
622.043	8.55
622.376	8.17
622.709	9
623.043	8.65
623.376	8.66
623.709	8.66
624.041	8.61
624.374	8.64
624.707	8.48
625.04	8.76
625.373	8.67
625.705	8.85
626.038	8.64
626.37	8.69
626.703	8.85
627.035	8.81
627.368	9.11
627.7	8.62
628.032	8.79
628.365	9.1
628.697	9.32
629.029	8.72
629.361	9.11
629.693	8.96
630.025	9.11
630.357	8.97
630.689	9.01
631.021	9.28
631.353	9.16
631.684	9
632.016	8.47
632.348	9.27
632.679	9.29
633.011	9.5
633.342	9.2
633.674	8.91
634.005	9.46
634.336	9.57
634.668	9.4
634.999	9.19
635.33	9.42
635.661	9.22
635.992	9.36
636.323	9.59
636.654	9.63
636.985	9.42
637.316	9.67
637.647	9.55
637.977	9.66
638.308	10.06
638.639	9.55
638.969	9.65
639.3	9.66
639.63	9.64
639.961	9.76
640.291	9.57
640.622	9.82
640.952	9.95
641.282	9.44
641.612	9.63
641.943	9.61
642.273	9.78
642.603	10.5
642.933	9.98
643.263	10.17
643.592	10.42
643.922	10.47
644.252	10.07
644.582	10.43
644.911	10.03
645.241	9.92
645.571	10.4
645.9	10.63
646.23	10.51
646.559	9.78
646.888	10.47
647.218	10.5
647.547	10.44
647.876	10.59
648.205	10.34
648.534	10.59
648.863	10.21
649.192	10.82
649.521	10.99
649.85	10.82
650.179	10.53
650.508	10.85
650.837	10.89
651.165	10.75
651.494	10.62
651.822	10.66
652.151	10.11
652.479	10.62
652.808	10.94
653.136	10.72
653.465	10.88
653.793	11.08
654.121	11.03
654.449	10.57
654.777	10.56
655.105	10.57
655.433	11.45
655.761	11.06
656.089	11.4
656.417	11.44
656.745	11.32
657.073	11.05
657.4	11.47
657.728	10.71
658.056	11.15
658.383	11.28
658.711	11.61
659.038	11.67
659.365	11.26
659.693	11.48
660.02	11.58
660.347	11.02
660.674	11.44
661.001	11.31
661.329	11.53
661.656	11.09
661.982	11.43
662.309	11.93
662.636	11.57
662.963	11.76
663.29	11.61
663.616	11.15
663.943	11.69
664.27	12.13
664.596	11.12
664.923	11.85
665.249	12.04
665.576	12.01
665.902	11.59
666.228	12.41
666.554	12.05
666.881	11.72
667.207	12.62
667.533	12.22
667.859	12.1
668.185	11.79
668.511	12.77
668.837	12.84
669.162	12.12
669.488	11.83
669.814	12.15
670.139	12.24
670.465	12.68
670.791	11.87
671.116	11.99
671.442	11.73
671.767	12.5
672.092	12
672.418	12.35
672.743	12.32
673.068	12.13
673.393	13.06
673.718	12.9
674.043	12.37
674.368	12.72
674.693	12.35
675.018	12.98
675.343	12.65
675.667	12.44
675.992	12.76
676.317	11.98
676.641	13.08
676.966	13.04
677.29	12.47
677.615	12.45
677.939	12.92
678.264	12.94
678.588	13.25
678.912	13.18
679.236	13.02
679.56	13.21
679.885	13.07
680.209	13.21
680.532	13.72
680.856	13.61
681.18	13.63
681.504	13.38
681.828	12.84
682.152	13.04
682.475	13.4
682.799	13.3
683.122	13.33
683.446	13
683.769	13.62
684.093	13.32
684.416	13.43
684.739	13.41
685.062	14.18
685.386	13.84
685.709	13.97
686.032	13.68
686.355	13.92
686.678	14.43
687.001	13.82
687.324	13.79
687.646	14.38
687.969	14.58
688.292	13.64
688.614	13.82
688.937	14.34
