Data from 0011_forehead_Reflection__2__344.txt Node

Date: Thu Dec 15 19:19:52 CST 2022
User: ToomeyLab
Spectrometer: FLMS14357
Trigger mode: 0
Integration Time (sec): 1.000000E-2
Scans to average: 100
Electric dark correction enabled: true
Nonlinearity correction enabled: false
Boxcar width: 0
XAxis mode: Wavelengths
Number of Pixels in Spectrum: 2048
>>>>>Begin Spectral Data<<<<<
189.047	-26.49
189.435	-26.49
189.823	-26.49
190.211	-155
190.599	18.55
190.987	-8.39
191.375	-31.02
191.763	100.67
192.151	39.67
192.538	82.18
192.926	89.21
193.314	40.71
193.702	-18.89
194.089	27.03
194.477	403.45
194.864	20.26
195.252	18.72
195.639	360.27
196.027	117.53
196.414	177.11
196.801	-48.61
197.189	99.65
197.576	-104.53
197.963	84.79
198.351	26.73
198.738	-20.3
199.125	-36.81
199.512	-1.11
199.899	-27.43
200.286	-33.95
200.673	95.5
201.06	-16.05
201.447	-22.09
201.833	4.32
202.22	-15.22
202.607	-20.13
202.994	51.88
203.38	19.63
203.767	-3.34
204.154	13.98
204.54	18.61
204.927	59.32
205.313	12.02
205.699	17.36
206.086	19.42
206.472	11.35
206.858	18.44
207.245	26.1
207.631	14.17
208.017	41.91
208.403	-72.62
208.789	-4.11
209.175	3.31
209.561	-54.14
209.947	-11.72
210.333	-19.17
210.719	19.72
211.105	22.69
211.491	-3.78
211.876	-12.47
212.262	-17.2
212.648	9.92
213.034	-22.72
213.419	26.65
213.805	-15.57
214.19	-61.42
214.576	-19.66
214.961	45.65
215.346	-0.66
215.732	-8.39
216.117	12.07
216.502	-10.44
216.888	16.48
217.273	4.06
217.658	10.7
218.043	-40.74
218.428	-11.98
218.813	10.92
219.198	-12.44
219.583	3.98
219.968	17.08
220.353	-39.94
220.738	-12.37
221.122	8
221.507	-26.21
221.892	-6.52
222.276	-70.47
222.661	-18.09
223.046	-21.88
223.43	9.54
223.815	-2.22
224.199	-0.71
224.583	-9.39
224.968	-7.99
225.352	-8.36
225.736	4.92
226.121	-6.49
226.505	0.32
226.889	-1.36
227.273	1.57
227.657	6.99
228.041	2.48
228.425	-3.08
228.809	2.14
229.193	2.12
229.577	2.12
229.961	1.93
230.344	2.95
230.728	2.91
231.112	3.52
231.495	1.41
231.879	1.54
232.263	3.66
232.646	2.7
233.03	2.86
233.413	3.24
233.797	1.72
234.18	1.95
234.563	3.82
234.946	1.63
235.33	2.17
235.713	4.16
236.096	3.78
236.479	4.59
236.862	1.01
237.245	2.66
237.628	3.4
238.011	1.77
238.394	2.56
238.777	2.45
239.16	4.97
239.543	4.77
239.925	0.75
240.308	1.61
240.691	1.12
241.073	2.1
241.456	2.8
241.838	2.39
242.221	2.28
242.603	3.12
242.986	3.09
243.368	2.79
243.75	3.14
244.133	3.52
244.515	3.08
244.897	2.51
245.279	2.88
245.661	2.52
246.043	2.91
246.425	3.48
246.807	2.38
247.189	2.66
247.571	2.52
247.953	2.88
248.335	2.89
248.717	3.14
249.098	2.97
249.48	2.72
249.862	2.83
250.243	2.93
250.625	2.83
251.006	3.99
251.388	2.63
251.769	2.04
252.151	3.29
252.532	2.54
252.913	2.59
253.295	2.27
253.676	3.19
254.057	2.6
254.438	2.9
254.819	2.92
255.2	2.58
255.581	2.87
255.962	3.79
256.343	3.41
256.724	2.21
257.105	2.08
257.486	1.23
257.867	3.29
258.247	3.37
258.628	3.51
259.009	2.67
259.389	2.74
259.77	2.37
260.15	4.11
260.531	2.79
260.911	2.75
261.292	2.92
261.672	2.86
262.052	2.74
262.432	2.53
262.813	2.92
263.193	2.26
263.573	2.9
263.953	2.4
264.333	2.77
264.713	2.77
265.093	2.75
265.473	2.18
265.853	2.65
266.233	2.4
266.612	1.88
266.992	2.58
267.372	2.8
267.752	2.91
268.131	3.05
268.511	2.55
268.89	3.25
269.27	1.62
269.649	2.56
270.029	2.5
270.408	2.83
270.787	2.67
271.167	3.06
271.546	3.42
271.925	3.1
272.304	2.6
272.683	2.51
273.062	2.4
273.441	2.71
273.82	2.53
274.199	2.8
274.578	2.76
274.957	2.74
275.336	3.29
275.715	3
276.093	2.01
276.472	2.4
276.851	2.32
277.229	2.25
277.608	2.63
277.986	3.13
278.365	2.96
278.743	2.89
279.122	2.32
279.5	2.59
279.878	2.19
280.257	3.18
280.635	2.48
281.013	1.88
281.391	2.49
281.769	2.95
282.147	2.51
282.525	2.54
282.903	2.29
283.281	2.89
283.659	3.07
284.037	2.51
284.415	2.67
284.792	2.65
285.17	2.86
285.548	2.54
285.925	2.57
286.303	2.91
286.68	3.05
287.058	2.86
287.435	2.46
287.813	2.61
288.19	2.61
288.567	2.83
288.945	2.24
289.322	2.29
289.699	2.64
290.076	2.48
290.453	2.32
290.83	2.46
291.207	2.9
291.584	3.17
291.961	2.63
292.338	2.68
292.715	2.41
293.092	3.42
293.469	2.65
293.845	2.88
294.222	3.48
294.599	2.39
294.975	2.07
295.352	2.99
295.728	3.58
296.105	3.11
296.481	3.31
296.858	3.03
297.234	2.46
297.61	2.94
297.986	3.39
298.363	2.9
298.739	3.41
299.115	3.15
299.491	3.47
299.867	2.95
300.243	3.09
300.619	2.65
300.995	2.89
301.371	3.31
301.746	3.02
302.122	2.48
302.498	3.32
302.874	3.38
303.249	3.2
303.625	2.68
304	3.16
304.376	3.38
304.751	3.11
305.127	3.1
305.502	3.44
305.878	3.36
306.253	2.82
306.628	3.22
307.003	3.47
307.378	3.31
307.754	3.61
308.129	3.08
308.504	3.47
308.879	3.38
309.254	3.99
309.629	3.67
310.003	2.9
310.378	3.16
310.753	3.57
311.128	3.2
311.502	3.24
311.877	3.57
312.252	3.23
312.626	3.72
313.001	3.7
313.375	3.93
313.75	3.28
314.124	3.66
314.498	4
314.873	3.46
315.247	3.7
315.621	3.3
315.995	3.48
316.369	3.05
316.743	2.98
317.117	3.31
317.491	3.69
317.865	3.22
318.239	4.15
318.613	3.27
318.987	3.4
319.361	3.74
319.734	3.6
320.108	3.53
320.482	4.08
320.855	3.95
321.229	3.34
321.602	3.67
321.976	3.71
322.349	4.36
322.723	3.38
323.096	3.48
323.469	3.41
323.843	3
324.216	3.26
324.589	3.74
324.962	3.7
325.335	3.92
325.708	4.09
326.081	4.06
326.454	4.34
326.827	3.82
327.2	3.38
327.573	4.14
327.945	3.58
328.318	3.7
328.691	3.77
329.063	3.64
329.436	3.89
329.809	4.37
330.181	4.34
330.553	4.61
330.926	4.2
331.298	3.61
331.671	3.64
332.043	3.65
332.415	4.06
332.787	3.83
333.159	3.65
333.532	4.11
333.904	4.46
334.276	4.08
334.648	4.35
335.02	3.98
335.391	3.73
335.763	4.21
336.135	4.15
336.507	4.11
336.879	4.35
337.25	4.01
337.622	4.57
337.993	4.05
338.365	4.64
338.736	4.72
339.108	4.14
339.479	4.42
339.851	4.9
340.222	4.8
340.593	4.35
340.964	4.24
341.336	4.55
341.707	4.06
342.078	4.09
342.449	4.49
342.82	4.49
343.191	4.52
343.562	4.24
343.933	3.95
344.303	4.74
344.674	3.98
345.045	4.48
345.416	4.61
345.786	4.15
346.157	4.48
346.527	4.51
346.898	4.23
347.268	4.7
347.639	4.51
348.009	4.43
348.38	3.78
348.75	4.72
349.12	4.46
349.49	4.36
349.861	4.44
350.231	4.34
350.601	4.22
350.971	4.32
351.341	4.81
351.711	4.59
352.081	3.96
352.45	4.26
352.82	3.91
353.19	4.55
353.56	4.25
353.929	4.38
354.299	4.53
354.669	4.68
355.038	4.66
355.408	4.77
355.777	4.9
356.147	4.71
356.516	4.51
356.885	4.87
357.254	4.48
357.624	4.28
357.993	5.05
358.362	4.66
358.731	5.06
359.1	4.78
359.469	4.78
359.838	4.75
360.207	4.71
360.576	4.96
360.945	5.02
361.314	4.54
361.682	4.39
362.051	5.01
362.42	4.91
362.788	4.98
363.157	4.93
363.525	5.02
363.894	4.74
364.262	4.88
364.631	5.18
364.999	4.86
365.367	4.84
365.735	4.9
366.104	4.92
366.472	5.03
366.84	5.18
367.208	5.31
367.576	4.92
367.944	4.9
368.312	5
368.68	5.1
369.048	5.12
369.416	4.84
369.783	4.42
370.151	5.47
370.519	5.72
370.886	5.52
371.254	5.59
371.621	5.12
371.989	5.2
372.356	5.11
372.724	5.2
373.091	5.29
373.458	4.97
373.826	5.37
374.193	5.22
374.56	5.24
374.927	4.79
375.294	5.3
375.661	5.7
376.028	5.38
376.395	5.17
376.762	5.01
377.129	5.32
377.496	5.15
377.863	5.46
378.229	5.37
378.596	5.44
378.963	5.46
379.329	5.45
379.696	5.38
380.062	5.48
380.429	5.31
380.795	5.45
381.161	5.4
381.528	5.22
381.894	5.73
382.26	5.78
382.626	5.63
382.993	5.85
383.359	5.48
383.725	5.15
384.091	5.62
384.457	5.14
384.823	5.79
385.188	5.48
385.554	5.86
385.92	5.47
386.286	5.72
386.651	5.7
387.017	5.86
387.383	5.93
387.748	5.69
388.114	5.93
388.479	5.59
388.845	5.41
389.21	5.72
389.575	5.87
389.94	6.13
390.306	5.71
390.671	5.69
391.036	5.85
391.401	5.78
391.766	5.68
392.131	5.93
392.496	5.79
392.861	5.77
393.226	5.74
393.591	5.9
393.956	5.89
394.32	5.93
394.685	5.91
395.05	5.92
395.414	5.91
395.779	6.08
396.143	5.64
396.508	5.64
396.872	5.81
397.236	6.27
397.601	6.07
397.965	6.08
398.329	5.9
398.694	5.7
399.058	6.09
399.422	6.11
399.786	6.07
400.15	5.97
400.514	6.16
400.878	6.11
401.242	5.96
401.605	5.99
401.969	6.04
402.333	6
402.697	6.47
403.06	6.08
403.424	6.22
403.787	6.19
404.151	6.07
404.514	6.13
404.878	6.15
405.241	6.15
405.604	6.06
405.968	6.13
406.331	6.27
406.694	6.19
407.057	6.01
407.42	6.29
407.783	6.36
408.146	6.29
408.509	6.25
408.872	6.36
409.235	6.42
409.598	6.37
409.961	6.28
410.323	6.14
410.686	6.26
411.049	6.35
411.411	6.27
411.774	6.37
412.136	6.23
412.499	6.37
412.861	6.03
413.223	6.27
413.586	6.27
413.948	6.55
414.31	6.45
414.672	6.29
415.035	6.37
415.397	6.45
415.759	6.35
416.121	6.47
416.483	6.29
416.845	6.17
417.206	6.38
417.568	6.21
417.93	6.38
418.292	6.19
418.653	6
419.015	6.35
419.377	6.25
419.738	6.41
420.1	6.34
420.461	6.31
420.822	6.33
421.184	6.4
421.545	6.4
421.906	6.36
422.267	6.42
422.629	6.37
422.99	6.4
423.351	6.32
423.712	6.52
424.073	6.52
424.434	6.68
424.795	6.46
425.155	6.48
425.516	6.45
425.877	6.55
426.238	6.5
426.598	6.61
426.959	6.59
427.32	6.72
427.68	6.64
428.041	6.79
428.401	6.63
428.761	6.81
429.122	6.88
429.482	6.83
429.842	6.86
430.202	7.01
430.563	6.93
430.923	6.88
431.283	7.15
431.643	7.2
432.003	6.99
432.363	7.15
432.722	7.08
433.082	6.9
433.442	7.12
433.802	7.06
434.161	7.05
434.521	7.08
434.881	7.2
435.24	7.1
435.6	7.06
435.959	7.17
436.319	7.1
436.678	7.09
437.037	7.28
437.396	7.25
437.756	7.29
438.115	7.42
438.474	7.36
438.833	7.43
439.192	7.4
439.551	7.19
439.91	7.27
440.269	7.37
440.628	7.41
440.987	7.35
441.345	7.37
441.704	7.34
442.063	7.2
442.421	7.35
442.78	7.47
443.138	7.43
443.497	7.36
443.855	7.47
444.214	7.43
444.572	7.58
444.93	7.56
445.288	7.54
445.647	7.51
446.005	7.61
446.363	7.58
446.721	7.68
447.079	7.62
447.437	7.62
447.795	7.73
448.153	7.62
448.51	7.7
448.868	7.57
449.226	7.74
449.584	7.77
449.941	7.69
450.299	7.85
450.656	7.84
451.014	7.86
451.371	7.83
451.729	7.9
452.086	8.04
452.443	8.06
452.801	7.98
453.158	8.13
453.515	7.94
453.872	8.04
454.229	7.95
454.586	7.96
454.943	8.1
455.3	8.16
455.657	8.1
456.014	8.14
456.371	8.21
456.727	8.24
457.084	8.4
457.441	8.2
457.797	8.16
458.154	8.37
458.51	8.35
458.867	8.22
459.223	8.33
459.58	8.31
459.936	8.38
460.292	8.24
460.648	8.19
461.005	8.3
461.361	8.3
461.717	8.33
462.073	8.31
462.429	8.31
462.785	8.55
463.141	8.4
463.496	8.44
463.852	8.68
464.208	8.48
464.564	8.32
464.919	8.71
465.275	8.76
465.631	8.99
465.986	8.7
466.342	8.49
466.697	8.64
467.052	8.87
467.408	8.87
467.763	8.56
468.118	8.57
468.473	8.93
468.829	8.65
469.184	8.9
469.539	8.64
469.894	8.87
470.249	8.93
470.603	9.01
470.958	8.98
471.313	9.05
471.668	9.13
472.023	8.98
472.377	8.97
472.732	9.17
473.086	9.18
473.441	8.85
473.795	9.23
474.15	9.05
474.504	9.12
474.859	8.83
475.213	9.12
475.567	8.95
475.921	9.18
476.275	9.26
476.63	9.25
476.984	9.12
477.338	9.26
477.692	9.19
478.045	9.27
478.399	9.24
478.753	9.21
479.107	9.16
479.461	9.22
479.814	9.36
480.168	9.34
480.521	9.55
480.875	9.36
481.228	9.48
481.582	9.35
481.935	9.52
482.289	9.44
482.642	9.52
482.995	9.39
483.348	9.4
483.701	9.34
484.055	9.28
484.408	9.25
484.761	9.16
485.114	9.04
485.466	9.05
485.819	9.1
486.172	9.06
486.525	9.03
486.878	9.15
487.23	9.19
487.583	9.37
487.936	9.32
488.288	9.37
488.641	9.3
488.993	9.34
489.345	9.3
489.698	9.33
490.05	9.31
490.402	9.3
490.754	9.36
491.107	9.42
491.459	9.68
491.811	9.66
492.163	9.64
492.515	9.59
492.866	9.55
493.218	9.61
493.57	9.58
493.922	9.54
494.274	9.6
494.625	9.73
494.977	9.85
495.328	9.93
495.68	10
496.031	9.99
496.383	10.04
496.734	9.94
497.086	10.07
497.437	10.18
497.788	10.31
498.139	10.1
498.49	10.06
498.842	10.22
499.193	10.03
499.544	10.06
499.894	10.09
500.245	10.25
500.596	10.31
500.947	10.3
501.298	10.18
501.648	10.3
501.999	10.37
502.35	10.27
502.7	10.52
503.051	10.36
503.401	10.47
503.752	10.55
504.102	10.44
504.452	10.41
504.803	10.38
505.153	10.62
505.503	10.53
505.853	10.49
506.203	10.64
506.553	10.52
506.903	10.59
507.253	10.69
507.603	10.71
507.953	10.61
508.303	10.63
508.652	10.66
509.002	10.71
509.352	10.77
509.701	10.65
510.051	10.8
510.4	10.79
510.75	10.52
511.099	10.66
511.449	10.81
511.798	10.75
512.147	10.68
512.496	10.77
512.846	10.83
513.195	10.79
513.544	10.92
513.893	10.83
514.242	10.87
514.591	10.83
514.939	10.85
515.288	10.97
515.637	10.93
515.986	10.94
516.334	11.09
516.683	11.02
517.032	11.07
517.38	11.03
517.729	11.03
518.077	11.09
518.426	11.13
518.774	11.02
519.122	11.09
519.47	11.03
519.819	10.97
520.167	11.02
520.515	11.03
520.863	10.98
521.211	10.95
521.559	11.06
521.907	11.08
522.255	11.11
522.602	11.23
522.95	11.26
523.298	11.32
523.645	11.38
523.993	11.35
524.341	11.33
524.688	11.26
525.036	11.37
525.383	11.36
525.73	11.23
526.078	11.49
526.425	11.26
526.772	11.29
527.119	11.34
527.466	11.42
527.814	11.34
528.161	11.33
528.508	11.42
528.854	11.36
529.201	11.3
529.548	11.18
529.895	11.11
530.242	11.17
530.588	11.11
530.935	11.09
531.282	10.99
531.628	11.08
531.975	11.12
532.321	11.29
532.667	11.46
533.014	11.52
533.36	11.58
533.706	11.66
534.052	11.54
534.399	11.59
534.745	11.46
535.091	11.5
535.437	11.4
535.783	11.49
536.129	11.44
536.474	11.66
536.82	11.71
537.166	11.61
537.512	11.87
537.857	11.79
538.203	11.75
538.549	11.81
538.894	11.84
539.239	11.71
539.585	11.83
539.93	12.02
540.276	11.92
540.621	12.04
540.966	12.09
541.311	12.13
541.656	11.93
542.001	11.92
542.346	11.96
542.691	11.84
543.036	11.8
543.381	11.87
543.726	11.79
544.071	11.72
544.415	11.82
544.76	11.87
545.105	11.98
545.449	12.07
545.794	12.15
546.138	12.2
546.483	12.26
546.827	12.21
547.171	12.33
547.516	12.38
547.86	12.27
548.204	12.34
548.548	12.27
548.892	12.38
549.236	12.42
549.58	12.53
549.924	12.58
550.268	12.57
550.612	12.5
550.956	12.68
551.3	12.96
551.643	12.72
551.987	12.91
552.33	12.97
552.674	12.7
553.017	12.82
553.361	13.04
553.704	12.96
554.048	12.93
554.391	13.07
554.734	12.77
555.077	12.83
555.42	12.83
555.764	12.92
556.107	13.07
556.45	12.97
556.793	13.08
557.135	13.08
557.478	13.22
557.821	13.37
558.164	13.29
558.507	13.1
558.849	13.42
559.192	13.4
559.534	13.24
559.877	13.31
560.219	13.23
560.562	13.31
560.904	13.59
561.246	13.25
561.589	13.31
561.931	13.31
562.273	13.38
562.615	13.42
562.957	13.37
563.299	13.61
563.641	13.53
563.983	13.35
564.325	13.46
564.667	13.55
565.008	13.59
565.35	13.25
565.692	13.33
566.033	13.57
566.375	13.72
566.716	13.57
567.058	13.64
567.399	13.53
567.741	13.69
568.082	13.61
568.423	13.6
568.764	13.65
569.105	13.5
569.447	13.56
569.788	13.63
570.129	13.77
570.47	13.69
570.811	13.69
571.151	13.95
571.492	14.08
571.833	13.96
572.174	14.02
572.514	13.92
572.855	14.06
573.195	13.96
573.536	14.2
573.876	13.83
574.217	13.84
574.557	13.88
574.898	13.91
575.238	14.16
575.578	14.01
575.918	14.18
576.258	14.38
576.598	14.17
576.938	14.05
577.278	14.03
577.618	14.22
577.958	14.26
578.298	14.21
578.638	14.37
578.977	14.31
579.317	14.32
579.657	14.38
579.996	14.65
580.336	14.38
580.675	14.48
581.014	14.56
581.354	14.41
581.693	14.59
582.032	14.54
582.372	14.78
582.711	14.71
583.05	14.58
583.389	14.77
583.728	14.86
584.067	14.65
584.406	14.81
584.745	14.71
585.083	14.85
585.422	14.9
585.761	15.11
586.1	14.98
586.438	14.56
586.777	14.91
587.115	14.97
587.454	14.73
587.792	14.71
588.13	15.01
588.469	14.92
588.807	15.24
589.145	15.05
589.483	14.87
589.821	15.15
590.159	15.24
590.497	15.42
590.835	15.25
591.173	15.32
591.511	15.28
591.849	15.18
592.187	14.97
592.524	15.5
592.862	15.06
593.2	15.15
593.537	15.28
593.875	15.33
594.212	15.35
594.55	15.26
594.887	15.52
595.224	15.74
595.561	15.36
595.899	15.59
596.236	15.74
596.573	15.32
596.91	15.23
597.247	15.67
597.584	15.61
597.921	15.57
598.258	15.57
598.594	15.47
598.931	15.43
599.268	15.35
599.604	15.52
599.941	15.53
600.277	15.53
600.614	15.46
600.95	15.55
601.287	15.64
601.623	15.75
601.959	16.23
602.296	15.75
602.632	16.05
602.968	15.88
603.304	15.95
603.64	16.08
603.976	15.71
604.312	15.99
604.648	16
604.984	16.13
605.319	16.02
605.655	15.82
605.991	15.88
606.326	15.9
606.662	15.9
606.998	16.08
607.333	15.93
607.668	15.98
608.004	15.91
608.339	15.97
608.674	16.02
609.01	16.33
609.345	16.43
609.68	15.99
610.015	16.28
610.35	16.31
610.685	16.11
611.02	16.24
611.355	16.3
611.689	16.35
612.024	16.42
612.359	16.49
612.694	16.44
613.028	16.29
613.363	16.42
613.697	16.54
614.032	16.34
614.366	16.43
614.7	16.68
615.035	16.79
615.369	16.85
615.703	16.73
616.037	16.83
616.371	16.71
616.705	16.73
617.039	16.92
617.373	16.66
617.707	16.7
618.041	16.67
618.375	16.46
618.709	16.78
619.042	16.74
619.376	16.74
619.71	17.07
620.043	17.17
620.377	17.09
620.71	16.95
621.043	17.18
621.377	16.96
621.71	17.36
622.043	17.35
622.376	16.88
622.709	17.46
623.043	17.13
623.376	17.39
623.709	17.4
624.041	17.38
624.374	17.55
624.707	17.29
625.04	17.34
625.373	17.79
625.705	17.46
626.038	17.4
626.37	17.22
626.703	17.31
627.035	17.31
627.368	17.66
627.7	17.74
628.032	17.77
628.365	17.84
628.697	17.75
629.029	17.48
629.361	17.71
629.693	17.53
630.025	17.48
630.357	18.03
630.689	17.86
631.021	18
631.353	17.85
631.684	17.69
632.016	17.81
632.348	17.88
632.679	17.95
633.011	17.95
633.342	18.25
633.674	17.73
634.005	18
634.336	18.25
634.668	18.13
634.999	17.87
635.33	18.08
635.661	18.07
635.992	18.14
636.323	18.14
636.654	17.8
636.985	17.41
637.316	17.84
637.647	18.29
637.977	18.08
638.308	18.58
638.639	18.34
638.969	18.14
639.3	17.97
639.63	18.57
639.961	18.11
640.291	18.42
640.622	18.88
640.952	18.93
641.282	18.34
641.612	18.21
641.943	18.16
642.273	18.48
642.603	18.44
642.933	18.54
643.263	18.38
643.592	18.88
643.922	18.93
644.252	18.62
644.582	18.76
644.911	18.29
645.241	18.39
645.571	18.54
645.9	19
646.23	18.93
646.559	18.45
646.888	18.98
647.218	18.81
647.547	18.92
647.876	18.78
648.205	18.51
648.534	18.88
648.863	18.7
649.192	19.23
649.521	18.75
649.85	19.47
650.179	18.77
650.508	18.91
650.837	19.1
651.165	18.56
651.494	19.21
651.822	19.41
652.151	19.46
652.479	19.21
652.808	19.34
653.136	19.08
653.465	18.75
653.793	18.95
654.121	19.15
654.449	19.03
654.777	19.49
655.105	18.51
655.433	19.1
655.761	19.57
656.089	19.01
656.417	19.53
656.745	19.77
657.073	19.23
657.4	19.07
657.728	18.84
658.056	19.98
658.383	19.36
658.711	19.81
659.038	19.59
659.365	19.88
659.693	20.08
660.02	19.4
660.347	19.31
660.674	19.9
661.001	19.58
661.329	19.49
661.656	18.94
661.982	19.79
662.309	19.81
662.636	19.59
662.963	19.68
663.29	19.89
663.616	19.93
663.943	20.12
664.27	20.19
664.596	19.7
664.923	20.25
665.249	20.19
665.576	19.85
665.902	20.24
666.228	20.11
666.554	20.46
666.881	20.24
667.207	20.51
667.533	20.39
667.859	19.99
668.185	20.1
668.511	20.28
668.837	19.95
669.162	20.56
669.488	19.58
669.814	20.09
670.139	20.08
670.465	20.57
670.791	19.83
671.116	19.93
671.442	19.83
671.767	20.45
672.092	20.64
672.418	20.33
672.743	20.25
673.068	20.43
673.393	20.54
673.718	20.19
674.043	20.46
674.368	20.51
674.693	20.31
675.018	20.79
675.343	21.19
675.667	21.11
675.992	20.92
676.317	19.66
676.641	20.75
676.966	20.77
677.29	20.69
677.615	20.03
677.939	21.42
678.264	20.67
678.588	20.96
678.912	21.22
679.236	20.54
