Data from 0011_forehead_Reflection__4__346.txt Node

Date: Thu Dec 15 19:20:18 CST 2022
User: ToomeyLab
Spectrometer: FLMS14357
Trigger mode: 0
Integration Time (sec): 1.000000E-2
Scans to average: 100
Electric dark correction enabled: true
Nonlinearity correction enabled: false
Boxcar width: 0
XAxis mode: Wavelengths
Number of Pixels in Spectrum: 2048
>>>>>Begin Spectral Data<<<<<
189.047	41.62
189.435	41.62
189.823	41.62
190.211	-218.98
190.599	55.69
190.987	50.82
191.375	-4.57
191.763	0
192.151	67.92
192.538	81.93
192.926	14.36
193.314	154.99
193.702	-112.3
194.089	24.6
194.477	271.27
194.864	77.28
195.252	68.01
195.639	358.53
196.027	117.26
196.414	246.28
196.801	-46.81
197.189	101.03
197.576	41.7
197.963	152.22
198.351	-2.03
198.738	-112.16
199.125	-66.62
199.512	67.38
199.899	-60.86
200.286	-34.06
200.673	8.15
201.06	-49.84
201.447	3.96
201.833	9.64
202.22	7.5
202.607	-25.88
202.994	0.95
203.38	4.82
203.767	-0.19
204.154	-8.68
204.54	-0.31
204.927	31.39
205.313	22.58
205.699	45.16
206.086	6.98
206.472	6.52
206.858	-14.13
207.245	-24.03
207.631	-3.04
208.017	37.57
208.403	-28.46
208.789	-4.31
209.175	-29.67
209.561	-95.31
209.947	-34.08
210.333	-73.57
210.719	18.86
211.105	12.35
211.491	-15.18
211.876	-29.71
212.262	19.41
212.648	-14.83
213.034	-28.02
213.419	-13.28
213.805	-88.47
214.19	-138
214.576	-30.21
214.961	6.35
215.346	-24.57
215.732	-11.25
216.117	-2.13
216.502	-8.55
216.888	-10.98
217.273	-21.91
217.658	-19.4
218.043	-52.54
218.428	-33.75
218.813	8.06
219.198	-74.43
219.583	-30.59
219.968	-15.3
220.353	-100.25
220.738	-0.32
221.122	-24.36
221.507	-26.53
221.892	-35.04
222.276	-59.36
222.661	-0.7
223.046	-31.86
223.43	16.59
223.815	-5.94
224.199	0.08
224.583	-2.32
224.968	2.1
225.352	-4.31
225.736	3.92
226.121	-12.96
226.505	-3.49
226.889	-8.87
227.273	-5.27
227.657	1.08
228.041	-5.41
228.425	-0.89
228.809	0.97
229.193	-0.86
229.577	0.78
229.961	-0.25
230.344	1.99
230.728	2.82
231.112	2.45
231.495	0.21
231.879	-0.61
232.263	3
232.646	0.03
233.03	3.15
233.413	0.96
233.797	-1.09
234.18	1.02
234.563	-0.85
234.946	0.03
235.33	0.36
235.713	0.04
236.096	2.68
236.479	1.88
236.862	0.41
237.245	-0.35
237.628	1.43
238.011	-0.51
238.394	1.43
238.777	2.42
239.16	2.36
239.543	2.26
239.925	2.15
240.308	0.13
240.691	1.87
241.073	0.6
241.456	0.68
241.838	1.23
242.221	2.26
242.603	2.05
242.986	1.64
243.368	2.36
243.75	2.69
244.133	2.15
244.515	1.35
244.897	1.61
245.279	1.41
245.661	0.63
246.043	1.78
246.425	2.23
246.807	0.93
247.189	1.48
247.571	1.86
247.953	1.73
248.335	2.15
248.717	2
249.098	1.87
249.48	1.51
249.862	1.87
250.243	2.19
250.625	1.99
251.006	2.15
251.388	1.71
251.769	0.34
252.151	2.46
252.532	0.8
252.913	1.17
253.295	1.24
253.676	1.97
254.057	1.78
254.438	2.04
254.819	1.78
255.2	2.42
255.581	2.46
255.962	2.39
256.343	1.64
256.724	1.75
257.105	0.69
257.486	0.06
257.867	1.22
258.247	1.72
258.628	1.97
259.009	1.31
259.389	1.14
259.77	1.11
260.15	2.36
260.531	1.62
260.911	1.91
261.292	2.05
261.672	1.8
262.052	2.04
262.432	1.58
262.813	1.36
263.193	1.86
263.573	1.36
263.953	1.08
264.333	1.54
264.713	1.74
265.093	1.41
265.473	0.17
265.853	1.81
266.233	1.66
266.612	0.93
266.992	1.34
267.372	2.16
267.752	1.66
268.131	0.99
268.511	1.95
268.89	2.36
269.27	1.01
269.649	0.93
270.029	1.13
270.408	1.28
270.787	1.43
271.167	2.54
271.546	2.41
271.925	2.02
272.304	1.44
272.683	1.17
273.062	1.74
273.441	1.37
273.82	1.84
274.199	1.27
274.578	2.03
274.957	1.67
275.336	1.74
275.715	2.05
276.093	1.46
276.472	1
276.851	1.89
277.229	1.34
277.608	1.37
277.986	1.86
278.365	2.18
278.743	1.72
279.122	1.2
279.5	1.15
279.878	0.91
280.257	1.33
280.635	1.89
281.013	1.38
281.391	1.46
281.769	1.79
282.147	1.86
282.525	1.4
282.903	1.32
283.281	1.8
283.659	1.49
284.037	1.48
284.415	1.24
284.792	1.85
285.17	1.37
285.548	1.5
285.925	1.54
286.303	1.9
286.68	1.73
287.058	1.83
287.435	1.7
287.813	1.59
288.19	1.71
288.567	1.77
288.945	1.27
289.322	2.07
289.699	1.98
290.076	1.59
290.453	1.6
290.83	1.46
291.207	1.85
291.584	2.02
291.961	1.86
292.338	1.58
292.715	1.63
293.092	2.02
293.469	1.34
293.845	1.84
294.222	2.08
294.599	2
294.975	1.1
295.352	1.91
295.728	1.94
296.105	1.96
296.481	2.28
296.858	2.1
297.234	1.56
297.61	1.99
297.986	2.51
298.363	2.15
298.739	2.25
299.115	2.24
299.491	2.43
299.867	1.79
300.243	1.82
300.619	1.87
300.995	2.09
301.371	2.45
301.746	1.81
302.122	2.01
302.498	2.1
302.874	2.62
303.249	2.35
303.625	1.72
304	2.46
304.376	2.4
304.751	2.21
305.127	1.93
305.502	2.41
305.878	2.34
306.253	1.98
306.628	2.08
307.003	1.93
307.378	2.32
307.754	2.27
308.129	2.28
308.504	2.04
308.879	2.25
309.254	2.42
309.629	2.36
310.003	2.17
310.378	2.4
310.753	2.38
311.128	2.3
311.502	2.33
311.877	2.18
312.252	2.2
312.626	3.31
313.001	2.42
313.375	2.61
313.75	2.45
314.124	2.51
314.498	2.48
314.873	2.15
315.247	2.04
315.621	2.47
315.995	2.66
316.369	2.21
316.743	2.34
317.117	2.55
317.491	3.11
317.865	2.24
318.239	3.01
318.613	2.93
318.987	2.34
319.361	2.66
319.734	2.58
320.108	2.65
320.482	2.79
320.855	2.75
321.229	2.13
321.602	2.67
321.976	2.33
322.349	3.28
322.723	2.62
323.096	2.29
323.469	2.41
323.843	2.18
324.216	2.57
324.589	2.9
324.962	2.32
325.335	2.72
325.708	2.64
326.081	2.51
326.454	2.49
326.827	2.74
327.2	2.33
327.573	3.03
327.945	2.48
328.318	2.51
328.691	2.93
329.063	2.74
329.436	2.55
329.809	2.95
330.181	3.45
330.553	3.09
330.926	3.22
331.298	3.01
331.671	3.03
332.043	2.69
332.415	3.19
332.787	3.02
333.159	2.72
333.532	3.03
333.904	2.97
334.276	3.04
334.648	3.09
335.02	2.71
335.391	3.12
335.763	3.05
336.135	3.63
336.507	3.09
336.879	3.1
337.25	3.12
337.622	3.11
337.993	3.12
338.365	3.31
338.736	3.19
339.108	3.03
339.479	3.05
339.851	3.32
340.222	3.4
340.593	3
340.964	3
341.336	2.74
341.707	3.18
342.078	2.8
342.449	3.45
342.82	3.43
343.191	3.02
343.562	3.28
343.933	2.94
344.303	3.44
344.674	3.27
345.045	3.6
345.416	3.86
345.786	3.38
346.157	3.12
346.527	3.17
346.898	2.82
347.268	3.1
347.639	3.45
348.009	3.56
348.38	2.99
348.75	3.39
349.12	3.2
349.49	3.55
349.861	3.16
350.231	3.4
350.601	3.42
350.971	2.92
351.341	3.11
351.711	3.38
352.081	3.04
352.45	3.1
352.82	2.97
353.19	3.6
353.56	3.3
353.929	3.67
354.299	3.71
354.669	3.92
355.038	4.03
355.408	3.43
355.777	3.81
356.147	3.72
356.516	3.49
356.885	3.69
357.254	3.39
357.624	3.41
357.993	3.85
358.362	3.67
358.731	3.78
359.1	3.7
359.469	3.77
359.838	3.64
360.207	3.72
360.576	4.1
360.945	3.86
361.314	3.67
361.682	3.52
362.051	3.69
362.42	3.72
362.788	3.81
363.157	3.64
363.525	3.79
363.894	3.71
364.262	4.21
364.631	4.02
364.999	3.76
365.367	3.62
365.735	3.8
366.104	3.76
366.472	3.63
366.84	4.05
367.208	4.1
367.576	3.89
367.944	4.01
368.312	4.08
368.68	4.27
369.048	4.02
369.416	3.6
369.783	3.94
370.151	4.24
370.519	4.25
370.886	4.2
371.254	4.33
371.621	4.12
371.989	4.08
372.356	4
372.724	4.13
373.091	4.06
373.458	4.07
373.826	4.47
374.193	4.41
374.56	3.83
374.927	4.28
375.294	4.26
375.661	4.71
376.028	3.97
376.395	4.44
376.762	3.91
377.129	4.16
377.496	4.39
377.863	4.31
378.229	4.75
378.596	4.56
378.963	4.45
379.329	4.3
379.696	4.35
380.062	4.37
380.429	4.15
380.795	4.58
381.161	4.24
381.528	4.28
381.894	4.37
382.26	4.45
382.626	4.52
382.993	4.97
383.359	4.42
383.725	4.44
384.091	4.54
384.457	4.56
384.823	4.62
385.188	4.43
385.554	4.74
385.92	4.54
386.286	4.65
386.651	4.53
387.017	4.88
387.383	4.9
387.748	4.73
388.114	4.84
388.479	4.58
388.845	4.56
389.21	5.29
389.575	4.76
389.94	4.88
390.306	4.49
390.671	4.84
391.036	4.68
391.401	4.95
391.766	4.99
392.131	5.08
392.496	4.91
392.861	4.9
393.226	4.73
393.591	4.98
393.956	4.94
394.32	5.23
394.685	4.85
395.05	4.98
395.414	4.88
395.779	5.01
396.143	4.87
396.508	4.95
396.872	5.05
397.236	5.28
397.601	5.32
397.965	5.06
398.329	5.13
398.694	4.8
399.058	4.97
399.422	4.87
399.786	5.14
400.15	5.19
400.514	5.33
400.878	5.08
401.242	5.17
401.605	5.06
401.969	5.11
402.333	4.98
402.697	5.31
403.06	5.15
403.424	5
403.787	5.03
404.151	5.06
404.514	5.2
404.878	5.08
405.241	5.15
405.604	5.12
405.968	5.31
406.331	5.25
406.694	5.17
407.057	5.21
407.42	5.24
407.783	5.38
408.146	5.42
408.509	5.29
408.872	5.22
409.235	5.14
409.598	5.52
409.961	5.41
410.323	5.2
410.686	5.35
411.049	5.22
411.411	5.23
411.774	5.36
412.136	5.31
412.499	5.58
412.861	5.14
413.223	5.29
413.586	5.39
413.948	5.5
414.31	5.49
414.672	5.33
415.035	5.65
415.397	5.47
415.759	5.05
416.121	5.47
416.483	5.37
416.845	5.52
417.206	5.58
417.568	5.57
417.93	5.44
418.292	5.43
418.653	5.34
419.015	5.52
419.377	5.48
419.738	5.69
420.1	5.55
420.461	5.48
420.822	5.59
421.184	5.56
421.545	5.62
421.906	5.52
422.267	5.55
422.629	5.56
422.99	5.56
423.351	5.61
423.712	5.66
424.073	5.74
424.434	5.83
424.795	5.61
425.155	5.72
425.516	5.67
425.877	5.79
426.238	5.69
426.598	5.79
426.959	5.78
427.32	5.75
427.68	5.84
428.041	5.85
428.401	5.98
428.761	6.09
429.122	5.92
429.482	5.97
429.842	6.07
430.202	6.07
430.563	6.22
430.923	6.22
431.283	6.24
431.643	6.39
432.003	6.13
432.363	6.24
432.722	6.3
433.082	6.22
433.442	6.4
433.802	6.17
434.161	6.26
434.521	6.27
434.881	6.37
435.24	6.32
435.6	6.42
435.959	6.37
436.319	6.31
436.678	6.47
437.037	6.32
437.396	6.45
437.756	6.26
438.115	6.41
438.474	6.61
438.833	6.59
439.192	6.5
439.551	6.41
439.91	6.59
440.269	6.68
440.628	6.52
440.987	6.51
441.345	6.75
441.704	6.64
442.063	6.57
442.421	6.66
442.78	6.67
443.138	6.81
443.497	6.67
443.855	6.91
444.214	6.72
444.572	7.03
444.93	6.88
445.288	6.93
445.647	6.81
446.005	6.92
446.363	6.82
446.721	6.98
447.079	6.83
447.437	6.94
447.795	6.91
448.153	6.93
448.51	7.02
448.868	6.95
449.226	7.01
449.584	7.02
449.941	7.12
450.299	7
450.656	7.07
451.014	7.22
451.371	7.26
451.729	7.24
452.086	7.28
452.443	7.22
452.801	7.28
453.158	7.42
453.515	7.51
453.872	7.39
454.229	7.22
454.586	7.23
454.943	7.55
455.3	7.43
455.657	7.49
456.014	7.48
456.371	7.53
456.727	7.74
457.084	7.72
457.441	7.76
457.797	7.6
458.154	7.69
458.51	7.67
458.867	7.52
459.223	7.73
459.58	7.76
459.936	7.7
460.292	7.62
460.648	7.6
461.005	7.59
461.361	7.67
461.717	7.65
462.073	7.75
462.429	7.8
462.785	7.88
463.141	7.92
463.496	7.87
463.852	8.08
464.208	7.84
464.564	7.89
464.919	7.92
465.275	8.13
465.631	8.24
465.986	8.11
466.342	7.95
466.697	8.12
467.052	8.27
467.408	8.47
467.763	8.08
468.118	8.15
468.473	8.19
468.829	7.97
469.184	8.27
469.539	8.09
469.894	8.09
470.249	8.21
470.603	8.44
470.958	8.47
471.313	8.44
471.668	8.31
472.023	8.6
472.377	8.42
472.732	8.6
473.086	8.58
473.441	8.38
473.795	8.87
474.15	8.57
474.504	8.69
474.859	8.4
475.213	8.81
475.567	8.65
475.921	8.76
476.275	8.75
476.63	8.71
476.984	8.69
477.338	8.87
477.692	8.9
478.045	8.81
478.399	8.79
478.753	8.68
479.107	8.88
479.461	8.78
479.814	8.81
480.168	8.88
480.521	8.95
480.875	9.07
481.228	8.98
481.582	8.91
481.935	9.02
482.289	9.05
482.642	9.2
482.995	8.93
483.348	8.9
483.701	8.97
484.055	8.92
484.408	8.85
484.761	8.71
485.114	8.57
485.466	8.55
485.819	8.57
486.172	8.63
486.525	8.66
486.878	8.81
487.23	8.86
487.583	8.96
487.936	8.94
488.288	9
488.641	8.92
488.993	8.88
489.345	8.88
489.698	8.92
490.05	8.92
490.402	9
490.754	9.03
491.107	9.1
491.459	9.27
491.811	9.35
492.163	9.33
492.515	9.32
492.866	9.22
493.218	9.16
493.57	9.22
493.922	9.16
494.274	9.31
494.625	9.44
494.977	9.46
495.328	9.57
495.68	9.65
496.031	9.78
496.383	9.68
496.734	9.71
497.086	10.04
497.437	9.88
497.788	10.02
498.139	9.9
498.49	9.88
498.842	9.93
499.193	9.75
499.544	9.85
499.894	10.01
500.245	9.93
500.596	9.99
500.947	9.87
501.298	10.05
501.648	10
501.999	10.29
502.35	10.09
502.7	10.31
503.051	10.21
503.401	10.21
503.752	10.18
504.102	10.25
504.452	10.32
504.803	10.16
505.153	10.46
505.503	10.31
505.853	10.57
506.203	10.37
506.553	10.35
506.903	10.44
507.253	10.36
507.603	10.48
507.953	10.49
508.303	10.48
508.652	10.29
509.002	10.65
509.352	10.6
509.701	10.52
510.051	10.67
510.4	10.65
510.75	10.55
511.099	10.46
511.449	10.59
511.798	10.49
512.147	10.49
512.496	10.66
512.846	10.5
513.195	10.79
513.544	10.76
513.893	10.71
514.242	10.69
514.591	10.66
514.939	10.76
515.288	10.75
515.637	10.88
515.986	10.93
516.334	10.97
516.683	10.9
517.032	10.97
517.38	10.84
517.729	10.96
518.077	11.07
518.426	11.07
518.774	11.06
519.122	10.99
519.47	10.9
519.819	10.9
520.167	10.88
520.515	10.85
520.863	10.85
521.211	10.89
521.559	10.98
521.907	11.07
522.255	11.01
522.602	11.23
522.95	11.23
523.298	11.38
523.645	11.29
523.993	11.27
524.341	11.33
524.688	11.34
525.036	11.41
525.383	11.26
525.73	11.24
526.078	11.32
526.425	11.36
526.772	11.21
527.119	11.22
527.466	11.26
527.814	11.27
528.161	11.32
528.508	11.38
528.854	11.32
529.201	11.24
529.548	11.12
529.895	11.02
530.242	11.03
530.588	11.01
530.935	10.98
531.282	11
531.628	11.11
531.975	11.2
532.321	11.3
532.667	11.5
533.014	11.47
533.36	11.5
533.706	11.64
534.052	11.64
534.399	11.58
534.745	11.46
535.091	11.42
535.437	11.45
535.783	11.54
536.129	11.48
536.474	11.68
536.82	11.85
537.166	11.72
537.512	11.93
537.857	11.9
538.203	11.81
538.549	11.83
538.894	11.84
539.239	11.86
539.585	12.01
539.93	12.01
540.276	12.15
540.621	12.31
540.966	12.27
541.311	12.33
541.656	12.11
542.001	12.1
542.346	11.93
542.691	11.86
543.036	11.94
543.381	11.91
543.726	11.93
544.071	11.91
544.415	12.04
544.76	11.97
545.105	12.19
545.449	12.29
545.794	12.25
546.138	12.32
546.483	12.49
546.827	12.52
547.171	12.48
547.516	12.55
547.86	12.65
548.204	12.59
548.548	12.46
548.892	12.5
549.236	12.67
549.58	12.73
549.924	12.77
550.268	12.77
550.612	12.9
550.956	12.97
551.3	13.12
551.643	13.13
551.987	13.07
552.33	13.21
552.674	13.1
553.017	13.14
553.361	13.22
553.704	13.28
554.048	13.18
554.391	13.14
554.734	13.06
555.077	13.19
555.42	13.07
555.764	13.2
556.107	13.36
556.45	13.33
556.793	13.49
557.135	13.49
557.478	13.6
557.821	13.41
558.164	13.55
558.507	13.48
558.849	13.77
559.192	13.5
559.534	13.48
559.877	13.49
560.219	13.65
560.562	13.59
560.904	13.86
561.246	13.69
561.589	13.82
561.931	13.69
562.273	13.76
562.615	13.61
562.957	13.49
563.299	13.9
563.641	13.84
563.983	13.75
564.325	13.88
564.667	13.93
565.008	13.81
565.35	13.87
565.692	13.83
566.033	14.01
566.375	14
566.716	13.97
567.058	14.06
567.399	14.11
567.741	14.07
568.082	14.04
568.423	14.02
568.764	14.11
569.105	14.01
569.447	14.14
569.788	14.21
570.129	14.28
570.47	14.21
570.811	14.18
571.151	14.36
571.492	14.42
571.833	14.26
572.174	14.44
572.514	14.23
572.855	14.39
573.195	14.29
573.536	14.5
573.876	14.44
574.217	14.31
574.557	14.29
574.898	14.53
575.238	14.45
575.578	14.44
575.918	14.66
576.258	14.66
576.598	14.56
576.938	14.68
577.278	14.53
577.618	14.75
577.958	14.77
578.298	14.83
578.638	14.81
578.977	14.89
579.317	14.82
579.657	14.65
579.996	14.93
580.336	15.01
580.675	14.8
581.014	14.91
581.354	14.78
581.693	15.26
582.032	15.13
582.372	15.17
582.711	15.3
583.05	15.35
583.389	15.45
583.728	15.35
584.067	15.14
584.406	15.28
584.745	15.29
585.083	15.43
585.422	15.3
585.761	15.65
586.1	15.55
586.438	15.56
586.777	15.38
587.115	15.63
587.454	15.35
587.792	15.63
588.13	15.54
588.469	15.61
588.807	15.62
589.145	15.76
589.483	15.58
589.821	15.59
590.159	15.52
590.497	15.97
590.835	15.95
591.173	16.02
591.511	15.84
591.849	15.86
592.187	15.89
592.524	15.86
592.862	15.68
593.2	15.75
593.537	15.82
593.875	15.72
594.212	16.05
594.55	16.05
594.887	16.25
595.224	16.07
595.561	15.98
595.899	16.22
596.236	16.27
596.573	16.01
596.91	15.83
597.247	16.32
597.584	16.21
597.921	16.36
598.258	16.34
598.594	15.88
598.931	16.24
599.268	16.01
599.604	16.09
599.941	16.42
600.277	16.08
600.614	16.15
600.95	16.28
601.287	16.16
601.623	16.17
601.959	16.98
602.296	16.65
602.632	16.61
602.968	16.71
603.304	16.85
603.64	16.71
603.976	16.43
604.312	16.72
604.648	17.01
604.984	16.88
605.319	16.58
605.655	16.54
605.991	16.42
606.326	16.81
606.662	16.51
606.998	16.86
607.333	16.8
607.668	16.81
608.004	16.83
608.339	16.85
608.674	17.12
609.01	16.94
609.345	16.91
609.68	17
610.015	16.99
610.35	17.18
610.685	16.8
611.02	17.14
611.355	17.14
611.689	16.95
612.024	17.17
612.359	17.17
612.694	17.34
613.028	17.38
613.363	17.25
613.697	17.49
614.032	17.42
614.366	17.47
614.7	17.51
615.035	17.13
615.369	17.7
615.703	17.45
616.037	17.62
616.371	17.51
616.705	17.75
617.039	17.77
617.373	17.74
617.707	17.72
618.041	17.98
618.375	16.99
618.709	18.03
619.042	17.82
619.376	17.67
619.71	17.93
620.043	18.18
620.377	17.79
620.71	17.68
621.043	18.39
621.377	18.23
621.71	18.44
622.043	18.22
622.376	18.16
622.709	18.57
623.043	17.88
623.376	18.04
623.709	18.4
624.041	18.33
624.374	18.65
624.707	18.22
625.04	18.41
625.373	18.23
625.705	18.62
626.038	18.57
626.37	18.2
626.703	18.2
627.035	18.62
627.368	18.92
627.7	18.73
628.032	18.58
628.365	18.89
628.697	18.55
629.029	18.39
629.361	18.84
629.693	18.69
630.025	18.79
630.357	18.81
630.689	18.82
631.021	18.78
631.353	18.87
631.684	18.83
632.016	18.71
632.348	18.67
632.679	18.9
633.011	18.82
633.342	19.16
633.674	18.88
634.005	19.04
634.336	19.28
634.668	18.79
634.999	18.79
635.33	19.04
635.661	19.22
635.992	19.48
636.323	19.37
636.654	19.3
636.985	19.07
637.316	19.39
637.647	19.57
637.977	19.35
638.308	19.45
638.639	19.22
638.969	19.26
639.3	19.65
639.63	19.56
639.961	19.5
640.291	19.57
640.622	19.61
640.952	19.63
641.282	19.24
641.612	19.49
641.943	19.48
642.273	19.59
642.603	20.04
642.933	20.09
643.263	19.39
643.592	19.92
643.922	19.88
644.252	20.1
644.582	20.35
644.911	19.76
645.241	20.3
645.571	19.51
645.9	19.96
646.23	20.33
646.559	19.89
646.888	20.52
647.218	20.08
647.547	19.67
647.876	19.77
648.205	19.75
648.534	20.12
648.863	20.2
649.192	20.49
649.521	20.71
649.85	20.48
650.179	20.42
650.508	20.33
650.837	20.7
651.165	20.37
651.494	20.39
651.822	20.25
652.151	20.45
652.479	20.98
652.808	20.56
653.136	20.15
653.465	20.05
653.793	20.85
654.121	20.51
654.449	20.47
654.777	20.26
655.105	20.57
655.433	21.47
655.761	20.73
656.089	20.52
656.417	21.34
656.745	21.11
657.073	20.63
657.4	20.4
657.728	20.88
658.056	21.06
658.383	20.85
658.711	21.2
659.038	21.41
659.365	20.91
659.693	21.35
660.02	21.07
660.347	20.81
660.674	21.12
661.001	21.12
661.329	21.19
661.656	20.77
661.982	21.21
662.309	20.92
662.636	21.53
662.963	21.32
663.29	21.52
663.616	21.87
663.943	21.23
664.27	21.45
664.596	21.05
664.923	21.78
665.249	21.16
665.576	21.35
665.902	21.23
666.228	21.82
666.554	21.62
666.881	21.51
667.207	21.61
667.533	21.6
667.859	21.75
668.185	21.66
668.511	21.4
668.837	21.19
669.162	21.44
669.488	21.42
669.814	21.37
670.139	21.54
670.465	22.44
670.791	21.3
671.116	21.69
671.442	21.45
671.767	22.09
672.092	22.1
672.418	22.14
672.743	21.84
673.068	21.73
673.393	22.17
673.718	22.01
674.043	21.95
674.368	22.51
674.693	21.97
675.018	22.7
675.343	22.41
675.667	21.93
675.992	22.48
676.317	21.97
676.641	22.1
676.966	22.08
677.29	21.48
677.615	21.99
677.939	22.46
678.264	21.87
678.588	22.79
678.912	22.33
679.236	22.3
679.56	21.86
