Data from 0011_crown_Reflection__3__340.txt Node

Date: Thu Dec 15 19:18:33 CST 2022
User: ToomeyLab
Spectrometer: FLMS14357
Trigger mode: 0
Integration Time (sec): 1.000000E-2
Scans to average: 100
Electric dark correction enabled: true
Nonlinearity correction enabled: false
Boxcar width: 0
XAxis mode: Wavelengths
Number of Pixels in Spectrum: 2048
>>>>>Begin Spectral Data<<<<<
189.047	60.66
189.435	60.66
189.823	60.66
190.211	-92.95
190.599	51.16
190.987	119.52
191.375	-57.29
191.763	29.53
192.151	60.33
192.538	-179.48
192.926	103.99
193.314	61.85
193.702	-122.59
194.089	114.99
194.477	-61.42
194.864	10.55
195.252	29.11
195.639	163.55
196.027	150.6
196.414	45.22
196.801	-31.85
197.189	90.92
197.576	-701.92
197.963	38.63
198.351	7.68
198.738	-114.28
199.125	-84.5
199.512	25.29
199.899	-61.69
200.286	-38.09
200.673	33.18
201.06	-94.98
201.447	12.94
201.833	-31.41
202.22	-62.13
202.607	-54.9
202.994	-6.5
203.38	17.31
203.767	-21.56
204.154	19.08
204.54	4.83
204.927	31.18
205.313	31.53
205.699	-11.21
206.086	3.37
206.472	43.39
206.858	-29.89
207.245	-40.17
207.631	-0.99
208.017	30.23
208.403	-88.99
208.789	-53.81
209.175	-35.58
209.561	-173.05
209.947	-2.58
210.333	12.88
210.719	30.93
211.105	15.36
211.491	-21.22
211.876	-51.47
212.262	-17.74
212.648	-32.49
213.034	-38.71
213.419	-12.67
213.805	-21.89
214.19	-67.42
214.576	-25.3
214.961	-0.15
215.346	-68.31
215.732	-23.68
216.117	-14.6
216.502	-52.94
216.888	-31.83
217.273	10.45
217.658	-11.64
218.043	-32.86
218.428	-40.93
218.813	-3.49
219.198	-67.63
219.583	-18.4
219.968	-3.55
220.353	-3.42
220.738	-7.2
221.122	-1.94
221.507	-34.1
221.892	-42.02
222.276	-60.75
222.661	-30.22
223.046	-24.84
223.43	10.33
223.815	-1.21
224.199	-10.58
224.583	-6.03
224.968	-14.72
225.352	-11.39
225.736	5.42
226.121	-10.41
226.505	1.29
226.889	-0.17
227.273	-7.47
227.657	3.86
228.041	-1.05
228.425	-2.37
228.809	1.6
229.193	2.64
229.577	3.97
229.961	4.21
230.344	4.82
230.728	4.82
231.112	5.41
231.495	2.28
231.879	4.04
232.263	5.03
232.646	1.81
233.03	5.9
233.413	3.2
233.797	1.05
234.18	1.23
234.563	3.33
234.946	1.21
235.33	3.89
235.713	4.66
236.096	5.54
236.479	3
236.862	4.12
237.245	3.73
237.628	3.71
238.011	4.31
238.394	2.15
238.777	2.33
239.16	6.62
239.543	3.83
239.925	3.96
240.308	3.5
240.691	1.68
241.073	4.22
241.456	3.16
241.838	3.72
242.221	5.54
242.603	4.49
242.986	4.8
243.368	5.03
243.75	4.85
244.133	5.12
244.515	4.78
244.897	4.53
245.279	4.13
245.661	4.85
246.043	4
246.425	5.19
246.807	3.64
247.189	4.64
247.571	4.45
247.953	4.38
248.335	4.71
248.717	4.71
249.098	4.47
249.48	4.17
249.862	4.38
250.243	4.58
250.625	4.75
251.006	4.3
251.388	4.32
251.769	4.29
252.151	4.22
252.532	4.05
252.913	4.42
253.295	3.94
253.676	4.05
254.057	4.24
254.438	4.09
254.819	3.49
255.2	4.93
255.581	5.33
255.962	4.85
256.343	4.53
256.724	4.62
257.105	4.97
257.486	3.12
257.867	3.58
258.247	4.27
258.628	4.27
259.009	3.09
259.389	2.73
259.77	3.94
260.15	4.54
260.531	4.28
260.911	4.16
261.292	4.28
261.672	4.2
262.052	4.46
262.432	4.22
262.813	4.25
263.193	4.13
263.573	4.18
263.953	3.7
264.333	4.58
264.713	4.33
265.093	3.2
265.473	3.67
265.853	4.89
266.233	4.12
266.612	3.08
266.992	3.32
267.372	4.29
267.752	4.37
268.131	3.81
268.511	4.38
268.89	4.53
269.27	3.08
269.649	3.91
270.029	3.53
270.408	3.84
270.787	3.62
271.167	4.24
271.546	4.56
271.925	3.92
272.304	4.24
272.683	3.82
273.062	3.69
273.441	3.81
273.82	3.82
274.199	3.83
274.578	4.51
274.957	3.98
275.336	4.19
275.715	4.06
276.093	3.5
276.472	3.36
276.851	3.98
277.229	4.02
277.608	3.68
277.986	4.03
278.365	4.06
278.743	4.15
279.122	3.71
279.5	3.58
279.878	3.5
280.257	3.6
280.635	4.24
281.013	2.84
281.391	3.81
281.769	4.31
282.147	3.59
282.525	3.42
282.903	3.93
283.281	4.24
283.659	4.21
284.037	3.68
284.415	3.82
284.792	4.02
285.17	3.37
285.548	3.57
285.925	3.87
286.303	4.12
286.68	3.62
287.058	3.67
287.435	4.04
287.813	3.96
288.19	3.93
288.567	3.76
288.945	4.23
289.322	4.09
289.699	3.99
290.076	4.02
290.453	3.67
290.83	3.6
291.207	3.76
291.584	3.8
291.961	3.93
292.338	3.52
292.715	3.42
293.092	4.1
293.469	3.89
293.845	3.56
294.222	4.88
294.599	3.47
294.975	3.02
295.352	3.5
295.728	3.69
296.105	3.88
296.481	3.83
296.858	3.79
297.234	3.37
297.61	3.89
297.986	4.25
298.363	4.21
298.739	4.14
299.115	3.68
299.491	3.84
299.867	3.74
300.243	3.25
300.619	3.8
300.995	3.63
301.371	3.82
301.746	3.86
302.122	3.33
302.498	3.7
302.874	4.13
303.249	3.46
303.625	3.66
304	3.59
304.376	4.05
304.751	3.94
305.127	4.02
305.502	3.85
305.878	3.64
306.253	3.73
306.628	3.58
307.003	3.81
307.378	3.56
307.754	3.68
308.129	3.81
308.504	3.71
308.879	3.82
309.254	4.12
309.629	3.7
310.003	3.43
310.378	3.81
310.753	3.84
311.128	3.46
311.502	3.93
311.877	3.86
312.252	3.84
312.626	4.05
313.001	3.72
313.375	3.83
313.75	3.94
314.124	3.39
314.498	4.32
314.873	3.62
315.247	3.55
315.621	3.37
315.995	3.74
316.369	3.43
316.743	3.5
317.117	3.62
317.491	3.78
317.865	3.29
318.239	4.38
318.613	3.59
318.987	3.16
319.361	3.59
319.734	3.32
320.108	3.71
320.482	4.06
320.855	3.39
321.229	3.75
321.602	3.74
321.976	3.2
322.349	4.13
322.723	3.61
323.096	3.86
323.469	3.61
323.843	3.41
324.216	3.3
324.589	3.95
324.962	3.74
325.335	3.49
325.708	3.9
326.081	3.66
326.454	3.76
326.827	3.35
327.2	3.35
327.573	4.3
327.945	3.43
328.318	3.79
328.691	3.28
329.063	3.23
329.436	3.3
329.809	3.77
330.181	4.52
330.553	4.25
330.926	3.97
331.298	3.49
331.671	3.84
332.043	3.47
332.415	3.8
332.787	3.52
333.159	3.23
333.532	4
333.904	3.79
334.276	4.01
334.648	3.54
335.02	3.66
335.391	3.37
335.763	3.28
336.135	3.79
336.507	3.73
336.879	3.87
337.25	3.62
337.622	3.85
337.993	3.29
338.365	3.72
338.736	3.5
339.108	3.58
339.479	4.15
339.851	4.1
340.222	4.22
340.593	3.87
340.964	3.8
341.336	3.96
341.707	3.49
342.078	3.67
342.449	3.53
342.82	4.04
343.191	3.56
343.562	3.88
343.933	3.78
344.303	3.46
344.674	3.88
345.045	3.69
345.416	4.12
345.786	3.46
346.157	4.14
346.527	3.77
346.898	3.62
347.268	3.74
347.639	3.74
348.009	3.67
348.38	3.19
348.75	3.66
349.12	3.83
349.49	3.81
349.861	3.77
350.231	3.71
350.601	3.95
350.971	3.78
351.341	3.8
351.711	3.58
352.081	3.43
352.45	3.62
352.82	3.29
353.19	3.69
353.56	3.52
353.929	4.05
354.299	3.87
354.669	3.64
355.038	3.9
355.408	3.93
355.777	4.02
356.147	3.82
356.516	3.35
356.885	3.58
357.254	3.57
357.624	3.44
357.993	3.78
358.362	3.8
358.731	4.21
359.1	3.91
359.469	3.84
359.838	3.91
360.207	3.61
360.576	4.19
360.945	4.01
361.314	3.92
361.682	3.69
362.051	3.99
362.42	4.05
362.788	3.87
363.157	3.68
363.525	3.83
363.894	3.94
364.262	3.77
364.631	4.3
364.999	3.76
365.367	3.77
365.735	3.72
366.104	3.88
366.472	3.94
366.84	4.11
367.208	4.08
367.576	3.86
367.944	3.89
368.312	3.75
368.68	3.89
369.048	4.23
369.416	3.83
369.783	3.96
370.151	4.16
370.519	4.15
370.886	3.98
371.254	3.91
371.621	4.21
371.989	3.98
372.356	3.83
372.724	4.07
373.091	3.92
373.458	3.79
373.826	4.02
374.193	3.61
374.56	4.21
374.927	3.91
375.294	4.18
375.661	3.95
376.028	3.92
376.395	4.17
376.762	3.94
377.129	4.04
377.496	4.08
377.863	4.15
378.229	4.36
378.596	4.19
378.963	4.32
379.329	4.24
379.696	3.89
380.062	4.09
380.429	3.98
380.795	4.33
381.161	3.82
381.528	4.01
381.894	3.82
382.26	4.22
382.626	4.21
382.993	4.4
383.359	4.01
383.725	3.8
384.091	4.18
384.457	3.85
384.823	4.35
385.188	4.04
385.554	4.27
385.92	4.1
386.286	4.24
386.651	4.13
387.017	4.15
387.383	4.09
387.748	4.38
388.114	4.5
388.479	4.1
388.845	4.05
389.21	4.32
389.575	4.4
389.94	4.42
390.306	4.12
390.671	4.53
391.036	4.2
391.401	4.14
391.766	4.09
392.131	4.33
392.496	4.32
392.861	4.47
393.226	4.13
393.591	4.24
393.956	4.33
394.32	4.39
394.685	4.53
395.05	4.35
395.414	4.17
395.779	4.62
396.143	4.31
396.508	4.39
396.872	4.44
397.236	4.44
397.601	4.5
397.965	4.25
398.329	4.43
398.694	4.19
399.058	4.46
399.422	3.99
399.786	4.14
400.15	4.34
400.514	4.4
400.878	4.08
401.242	4.7
401.605	4.37
401.969	4.21
402.333	4.1
402.697	4.37
403.06	4.27
403.424	4.15
403.787	4.48
404.151	4.39
404.514	4.45
404.878	4.24
405.241	4.46
405.604	4.38
405.968	4.33
406.331	4.62
406.694	4.47
407.057	4.4
407.42	4.24
407.783	4.45
408.146	4.38
408.509	4.42
408.872	4.62
409.235	4.54
409.598	4.36
409.961	4.45
410.323	4.41
410.686	4.34
411.049	4.55
411.411	4.26
411.774	4.41
412.136	4.45
412.499	4.54
412.861	4.23
413.223	4.34
413.586	4.47
413.948	4.47
414.31	4.56
414.672	4.39
415.035	4.51
415.397	4.39
415.759	4.23
416.121	4.43
416.483	4.34
416.845	4.39
417.206	4.43
417.568	4.55
417.93	4.48
418.292	4.36
418.653	4.46
419.015	4.52
419.377	4.33
419.738	4.36
420.1	4.34
420.461	4.4
420.822	4.58
421.184	4.56
421.545	4.45
421.906	4.44
422.267	4.44
422.629	4.34
422.99	4.31
423.351	4.37
423.712	4.28
424.073	4.41
424.434	4.56
424.795	4.3
425.155	4.4
425.516	4.41
425.877	4.43
426.238	4.4
426.598	4.47
426.959	4.51
427.32	4.41
427.68	4.48
428.041	4.56
428.401	4.49
428.761	4.65
429.122	4.61
429.482	4.59
429.842	4.43
430.202	4.63
430.563	4.65
430.923	4.59
431.283	4.78
431.643	4.75
432.003	4.63
432.363	4.72
432.722	4.69
433.082	4.69
433.442	4.59
433.802	4.61
434.161	4.54
434.521	4.63
434.881	4.56
435.24	4.6
435.6	4.66
435.959	4.71
436.319	4.64
436.678	4.71
437.037	4.6
437.396	4.62
437.756	4.57
438.115	4.62
438.474	4.66
438.833	4.81
439.192	4.69
439.551	4.56
439.91	4.65
440.269	4.71
440.628	4.62
440.987	4.69
441.345	4.66
441.704	4.58
442.063	4.65
442.421	4.86
442.78	4.8
443.138	4.62
443.497	4.65
443.855	4.89
444.214	4.72
444.572	4.8
444.93	4.73
445.288	4.85
445.647	4.64
446.005	4.88
446.363	4.81
446.721	4.77
447.079	4.7
447.437	4.81
447.795	4.8
448.153	4.74
448.51	4.77
448.868	4.65
449.226	4.81
449.584	4.73
449.941	4.82
450.299	4.79
450.656	4.85
451.014	4.85
451.371	4.75
451.729	4.88
452.086	4.89
452.443	5
452.801	4.88
453.158	5.04
453.515	4.82
453.872	4.87
454.229	4.71
454.586	4.75
454.943	4.87
455.3	4.94
455.657	4.75
456.014	4.8
456.371	4.99
456.727	4.99
457.084	5.05
457.441	5.11
457.797	4.91
458.154	4.83
458.51	4.85
458.867	4.93
459.223	4.94
459.58	5.04
459.936	4.93
460.292	4.78
460.648	4.77
461.005	4.89
461.361	4.87
461.717	4.84
462.073	4.88
462.429	4.86
462.785	5.03
463.141	4.9
463.496	4.95
463.852	5.17
464.208	5.11
464.564	4.95
464.919	5.02
465.275	5.15
465.631	5.23
465.986	5
466.342	4.87
466.697	5.05
467.052	5.21
467.408	5.16
467.763	4.98
468.118	4.89
468.473	5.16
468.829	4.93
469.184	5.17
469.539	4.88
469.894	5.05
470.249	5.09
470.603	5.16
470.958	5.08
471.313	5.29
471.668	5.12
472.023	5.07
472.377	5.12
472.732	5.19
473.086	5.12
473.441	5.2
473.795	5.26
474.15	5.05
474.504	5.04
474.859	5.08
475.213	5.18
475.567	5.05
475.921	5.17
476.275	5.36
476.63	5.2
476.984	5.13
477.338	5.25
477.692	5.02
478.045	5.2
478.399	5.12
478.753	4.94
479.107	5.21
479.461	5.03
479.814	5.09
480.168	5.16
480.521	5.26
480.875	5.17
481.228	5.22
481.582	5.28
481.935	5.36
482.289	5.19
482.642	5.3
482.995	5.15
483.348	5.04
483.701	5.15
484.055	5.17
484.408	5.24
484.761	5.02
485.114	4.91
485.466	4.91
485.819	4.91
486.172	4.97
486.525	5.03
486.878	5.05
487.23	5.04
487.583	5.15
487.936	5.09
488.288	5.09
488.641	5.02
488.993	5.06
489.345	5.03
489.698	5.07
490.05	5.05
490.402	5.11
490.754	5.12
491.107	5.09
491.459	5.23
491.811	5.24
492.163	5.21
492.515	5.13
492.866	5.06
493.218	5.14
493.57	5.18
493.922	5.12
494.274	5.22
494.625	5.3
494.977	5.26
495.328	5.32
495.68	5.31
496.031	5.38
496.383	5.32
496.734	5.3
497.086	5.47
497.437	5.38
497.788	5.44
498.139	5.36
498.49	5.38
498.842	5.36
499.193	5.26
499.544	5.39
499.894	5.37
500.245	5.51
500.596	5.38
500.947	5.34
501.298	5.43
501.648	5.48
501.999	5.45
502.35	5.28
502.7	5.51
503.051	5.4
503.401	5.44
503.752	5.33
504.102	5.35
504.452	5.42
504.803	5.44
505.153	5.53
505.503	5.44
505.853	5.54
506.203	5.56
506.553	5.45
506.903	5.49
507.253	5.48
507.603	5.41
507.953	5.49
508.303	5.53
508.652	5.41
509.002	5.59
509.352	5.57
509.701	5.41
510.051	5.56
510.4	5.63
510.75	5.38
511.099	5.4
511.449	5.53
511.798	5.49
512.147	5.4
512.496	5.5
512.846	5.51
513.195	5.62
513.544	5.49
513.893	5.49
514.242	5.44
514.591	5.55
514.939	5.55
515.288	5.53
515.637	5.61
515.986	5.48
516.334	5.59
516.683	5.6
517.032	5.54
517.38	5.53
517.729	5.51
518.077	5.64
518.426	5.68
518.774	5.59
519.122	5.65
519.47	5.56
519.819	5.53
520.167	5.45
520.515	5.53
520.863	5.46
521.211	5.45
521.559	5.52
521.907	5.51
522.255	5.54
522.602	5.57
522.95	5.71
523.298	5.6
523.645	5.66
523.993	5.79
524.341	5.54
524.688	5.64
525.036	5.58
525.383	5.61
525.73	5.54
526.078	5.64
526.425	5.5
526.772	5.52
527.119	5.65
527.466	5.57
527.814	5.58
528.161	5.57
528.508	5.67
528.854	5.57
529.201	5.48
529.548	5.43
529.895	5.38
530.242	5.38
530.588	5.41
530.935	5.49
531.282	5.41
531.628	5.48
531.975	5.52
532.321	5.54
532.667	5.68
533.014	5.68
533.36	5.67
533.706	5.62
534.052	5.59
534.399	5.51
534.745	5.49
535.091	5.55
535.437	5.55
535.783	5.57
536.129	5.61
536.474	5.67
536.82	5.73
537.166	5.66
537.512	5.65
537.857	5.68
538.203	5.72
538.549	5.7
538.894	5.65
539.239	5.74
539.585	5.84
539.93	5.85
540.276	5.85
540.621	5.81
540.966	5.86
541.311	5.78
541.656	5.72
542.001	5.77
542.346	5.73
542.691	5.57
543.036	5.61
543.381	5.61
543.726	5.72
544.071	5.64
544.415	5.74
544.76	5.69
545.105	5.7
545.449	5.79
545.794	5.71
546.138	5.8
546.483	5.92
546.827	5.79
547.171	5.97
547.516	5.9
547.86	5.93
548.204	5.81
548.548	5.81
548.892	5.93
549.236	5.83
549.58	5.96
549.924	6.1
550.268	5.97
550.612	5.95
550.956	6.08
551.3	6.12
551.643	5.87
551.987	6.18
552.33	5.96
552.674	5.91
553.017	6
553.361	6.13
553.704	6.06
554.048	5.94
554.391	5.98
554.734	5.85
555.077	5.91
555.42	5.91
555.764	5.99
556.107	6.11
556.45	6.18
556.793	6.14
557.135	6.1
557.478	6
557.821	6.21
558.164	6.24
558.507	5.96
558.849	6.12
559.192	6.04
559.534	6
559.877	6.03
560.219	6.13
560.562	6.18
560.904	6.3
561.246	6.04
561.589	6.18
561.931	6.1
562.273	6.09
562.615	6.01
562.957	6.21
563.299	6.23
563.641	6.19
563.983	6.04
564.325	6.26
564.667	6.1
565.008	6.17
565.35	6.11
565.692	6.07
566.033	6.17
566.375	6.1
566.716	6.03
567.058	6.05
567.399	6.13
567.741	6.19
568.082	6.17
568.423	6.15
568.764	6.22
569.105	6.1
569.447	6.18
569.788	6.19
570.129	6.24
570.47	6.17
570.811	6.09
571.151	6.31
571.492	6.38
571.833	6.12
572.174	6.43
572.514	6.17
572.855	6.38
573.195	6.1
573.536	6.47
573.876	6.16
574.217	6.22
574.557	6.25
574.898	6.26
575.238	6.36
575.578	6.32
575.918	6.33
576.258	6.37
576.598	6.2
576.938	6.15
577.278	6.33
577.618	6.3
577.958	6.28
578.298	6.3
578.638	6.4
578.977	6.26
579.317	6.23
579.657	6.31
579.996	6.29
580.336	6.39
580.675	6.08
581.014	6.18
581.354	6.23
581.693	6.39
582.032	6.5
582.372	6.39
582.711	6.41
583.05	6.39
583.389	6.42
583.728	6.89
584.067	6.29
584.406	6.34
584.745	6.22
585.083	6.3
585.422	6.56
585.761	6.79
586.1	6.46
586.438	6.28
586.777	6.42
587.115	6.56
587.454	6.29
587.792	6.36
588.13	6.41
588.469	6.45
588.807	6.43
589.145	6.39
589.483	6.39
589.821	6.41
590.159	6.55
590.497	6.57
590.835	6.5
591.173	6.82
591.511	6.84
591.849	6.52
592.187	6.21
592.524	6.59
592.862	6.3
593.2	6.47
593.537	6.32
593.875	6.64
594.212	6.43
594.55	6.48
594.887	6.62
595.224	6.53
595.561	6.49
595.899	6.62
596.236	6.72
596.573	6.41
596.91	6.39
597.247	6.76
597.584	6.85
597.921	6.42
598.258	6.6
598.594	6.48
598.931	6.22
599.268	6.36
599.604	6.63
599.941	6.65
600.277	6.59
600.614	6.53
600.95	6.34
601.287	6.6
601.623	6.39
601.959	7.06
602.296	6.88
602.632	6.77
602.968	6.52
603.304	6.75
603.64	6.68
603.976	6.36
604.312	6.56
604.648	6.71
604.984	6.59
605.319	6.61
605.655	6.72
605.991	6.56
606.326	6.63
606.662	6.44
606.998	6.7
607.333	6.75
607.668	6.51
608.004	6.6
608.339	6.6
608.674	6.78
609.01	6.99
609.345	6.67
609.68	6.73
610.015	6.69
610.35	6.68
610.685	6.39
611.02	6.73
611.355	6.63
611.689	6.62
612.024	7
612.359	6.98
612.694	6.8
613.028	6.78
613.363	6.6
613.697	6.81
614.032	6.63
614.366	6.67
614.7	6.84
615.035	6.86
615.369	7.06
615.703	6.73
616.037	6.86
616.371	6.67
616.705	6.98
617.039	7.01
617.373	6.88
617.707	6.91
618.041	6.63
618.375	6.51
618.709	6.7
619.042	6.81
619.376	6.9
619.71	6.52
620.043	6.95
620.377	6.69
620.71	6.79
621.043	7.1
621.377	7.15
621.71	7.27
622.043	7.07
622.376	6.86
622.709	7.33
623.043	6.88
623.376	6.7
623.709	7.13
624.041	6.68
624.374	7.42
624.707	6.94
625.04	7.04
625.373	7.13
625.705	6.95
626.038	6.69
626.37	6.79
626.703	7.01
627.035	6.96
627.368	7.39
627.7	7.06
628.032	6.67
628.365	7.17
628.697	7.13
629.029	6.94
629.361	7.14
629.693	6.9
630.025	7.08
630.357	7.1
630.689	6.9
631.021	7.12
631.353	6.97
631.684	7.19
632.016	6.71
632.348	7.17
632.679	7.12
633.011	6.79
633.342	7.12
633.674	7.04
634.005	7.07
634.336	7.29
634.668	6.98
634.999	7.06
635.33	6.92
635.661	6.97
635.992	6.99
636.323	6.91
636.654	7.04
636.985	7
637.316	7.26
637.647	7.08
637.977	6.83
638.308	7.4
638.639	7.12
638.969	7.08
639.3	7.01
639.63	6.83
639.961	6.97
640.291	6.8
640.622	7.16
640.952	7.5
641.282	7.28
641.612	7.2
641.943	7.13
642.273	7.08
642.603	7.21
642.933	7.19
643.263	7.55
643.592	7.43
643.922	7.46
644.252	7.2
644.582	7.34
644.911	7.22
645.241	6.98
645.571	7.23
645.9	7.39
646.23	7.91
646.559	6.89
646.888	7.61
647.218	7.1
647.547	7.18
647.876	7.56
648.205	7
648.534	7.5
648.863	7.15
649.192	7.41
649.521	6.93
649.85	7.24
650.179	7.35
650.508	7.37
650.837	7.53
651.165	7.55
651.494	7.44
651.822	7.39
652.151	6.93
652.479	7.42
652.808	7.48
653.136	6.6
653.465	7.3
653.793	7.38
654.121	7.21
654.449	7.49
654.777	7.03
655.105	6.96
655.433	7.52
655.761	6.96
656.089	7.16
656.417	7.91
656.745	7.53
657.073	7.14
657.4	7.28
657.728	6.94
658.056	7.43
658.383	6.99
658.711	6.99
659.038	7.65
659.365	7.65
659.693	7.16
660.02	6.73
660.347	7.41
660.674	7.16
661.001	7.55
661.329	7.45
661.656	7.44
661.982	7.39
662.309	7.46
662.636	7.25
662.963	7.48
663.29	8.03
663.616	6.89
663.943	7.54
664.27	7.79
664.596	7.05
664.923	7.49
665.249	7.18
665.576	7.52
665.902	7.27
666.228	7.72
666.554	7.76
666.881	6.97
667.207	7.57
667.533	7.51
667.859	7.09
668.185	7.25
668.511	7.56
668.837	7.62
669.162	7.83
669.488	7.2
669.814	7.2
670.139	6.9
670.465	7.95
670.791	7.18
671.116	7.86
671.442	7.13
671.767	7.28
672.092	7.26
672.418	7.89
672.743	6.99
673.068	7.18
673.393	7.8
673.718	7.01
674.043	7.34
674.368	7.51
674.693	7.69
675.018	7.85
675.343	7.94
675.667	7.68
675.992	7.65
676.317	7.12
676.641	7.75
676.966	7.46
677.29	7.85
677.615	7.4
677.939	7.59
678.264	7.59
678.588	7.31
678.912	7.92
679.236	7.58
679.56	7.75
679.885	7.13
680.209	7.86
680.532	8.37
680.856	7.95
681.18	8.48
681.504	7.62
681.828	7.23
682.152	7.84
682.475	7.24
682.799	7.59
683.122	7.99
683.446	7.28
683.769	8.04
684.093	8.15
684.416	7.53
684.739	7.53
685.062	7.92
685.386	7.62
685.709	7.62
686.032	7.67
686.355	8.34
686.678	8.25
687.001	7.96
687.324	7.91
687.646	7.83
687.969	7.83
688.292	7.51
688.614	8.21
688.937	7.06
689.26	8
689.582	7.8
689.904	8.3
690.227	7.75
690.549	8.08
690.871	7.68
691.194	7.5
691.516	7.21
691.838	7.97
