Data from 0011_chest_Reflection__4__336.txt Node

Date: Thu Dec 15 19:17:12 CST 2022
User: ToomeyLab
Spectrometer: FLMS14357
Trigger mode: 0
Integration Time (sec): 1.000000E-2
Scans to average: 100
Electric dark correction enabled: true
Nonlinearity correction enabled: false
Boxcar width: 0
XAxis mode: Wavelengths
Number of Pixels in Spectrum: 2048
>>>>>Begin Spectral Data<<<<<
189.047	120.41
189.435	120.41
189.823	120.41
190.211	-113.52
190.599	90.67
190.987	75.86
191.375	104.13
191.763	34.06
192.151	205.71
192.538	146.5
192.926	114.74
193.314	21.38
193.702	14.78
194.089	-105.06
194.477	480
194.864	40.87
195.252	-14.68
195.639	612.71
196.027	164.94
196.414	255.59
196.801	78.15
197.189	48.57
197.576	-389.57
197.963	-2.93
198.351	2.74
198.738	-21.03
199.125	-28.93
199.512	91.42
199.899	-36.38
200.286	-2.35
200.673	79.03
201.06	-24.71
201.447	34.44
201.833	-10.61
202.22	-54.04
202.607	-22.38
202.994	37.49
203.38	8.8
203.767	25.46
204.154	-1.54
204.54	12.94
204.927	16.54
205.313	31.41
205.699	0.78
206.086	36.76
206.472	11.53
206.858	29.95
207.245	-1.48
207.631	-29.66
208.017	20.49
208.403	-62.8
208.789	-6.95
209.175	-31.98
209.561	-104.84
209.947	-50.69
210.333	-15.83
210.719	11.41
211.105	37.45
211.491	12.1
211.876	-22.99
212.262	-12.66
212.648	-6.45
213.034	4.17
213.419	15.37
213.805	-19.83
214.19	-87
214.576	-26.22
214.961	6.54
215.346	-12.74
215.732	-5.86
216.117	21.15
216.502	-15.54
216.888	-26.77
217.273	1.89
217.658	8.32
218.043	-22.06
218.428	-6.35
218.813	7.5
219.198	-77.66
219.583	-30.27
219.968	28.31
220.353	-25.1
220.738	4.72
221.122	-26.58
221.507	-16.56
221.892	-29.06
222.276	-19.98
222.661	-14.91
223.046	-14.42
223.43	18.68
223.815	-3.91
224.199	-8.42
224.583	-10.73
224.968	-9.97
225.352	-14.58
225.736	9.53
226.121	-1.29
226.505	-2.75
226.889	2.66
227.273	-4.71
227.657	0.4
228.041	2.36
228.425	2.3
228.809	3.94
229.193	5.2
229.577	5.01
229.961	3.76
230.344	5.1
230.728	5.74
231.112	5.83
231.495	2.34
231.879	5.71
232.263	5.56
232.646	5.19
233.03	8.26
233.413	5.38
233.797	4.65
234.18	5.48
234.563	4.32
234.946	1.23
235.33	4.41
235.713	4.12
236.096	6.01
236.479	4.7
236.862	3.06
237.245	5.4
237.628	5.26
238.011	4.29
238.394	4.07
238.777	4.88
239.16	8.02
239.543	7.09
239.925	4.9
240.308	3.64
240.691	4.11
241.073	4.81
241.456	3.37
241.838	5.2
242.221	4.52
242.603	4.69
242.986	4.78
243.368	5.44
243.75	4.83
244.133	5.15
244.515	4.59
244.897	4.91
245.279	4.1
245.661	3.96
246.043	4
246.425	4.67
246.807	4.15
247.189	4.52
247.571	4.5
247.953	4.9
248.335	4.74
248.717	5
249.098	4.92
249.48	4.69
249.862	4.72
250.243	4.72
250.625	4.58
251.006	5.26
251.388	4.86
251.769	2.88
252.151	4.16
252.532	3.8
252.913	4.58
253.295	4.5
253.676	4.77
254.057	4.55
254.438	4.84
254.819	4.03
255.2	5.09
255.581	5.42
255.962	4.78
256.343	3.88
256.724	4.61
257.105	4.3
257.486	3.51
257.867	4.71
258.247	3.91
258.628	4.85
259.009	3.77
259.389	4.47
259.77	4.55
260.15	4.91
260.531	4.35
260.911	4.25
261.292	4.73
261.672	4.42
262.052	4.54
262.432	3.99
262.813	4.37
263.193	4.1
263.573	4.34
263.953	4.16
264.333	5.2
264.713	4.83
265.093	4.33
265.473	3.52
265.853	3.76
266.233	4.4
266.612	4.06
266.992	3.68
267.372	4.27
267.752	4.23
268.131	3.79
268.511	4.04
268.89	4.19
269.27	3.51
269.649	3.39
270.029	3.69
270.408	3.76
270.787	4.01
271.167	4.54
271.546	4.09
271.925	4.37
272.304	4.42
272.683	3.7
273.062	4
273.441	3.77
273.82	3.95
274.199	4.06
274.578	4.32
274.957	4.08
275.336	4.46
275.715	4.21
276.093	3.96
276.472	3.49
276.851	4.61
277.229	4.5
277.608	3.78
277.986	3.98
278.365	4.5
278.743	4.15
279.122	4.01
279.5	3.89
279.878	4.1
280.257	4.08
280.635	3.98
281.013	2.99
281.391	3.28
281.769	4.28
282.147	3.8
282.525	4.19
282.903	3.68
283.281	3.83
283.659	4.16
284.037	3.62
284.415	3.78
284.792	3.74
285.17	4.15
285.548	4.01
285.925	3.72
286.303	4.07
286.68	4.1
287.058	3.89
287.435	3.82
287.813	3.99
288.19	3.82
288.567	3.69
288.945	3.4
289.322	3.98
289.699	4.21
290.076	3.84
290.453	3.84
290.83	3.86
291.207	3.83
291.584	4.06
291.961	3.9
292.338	4.02
292.715	3.93
293.092	4.1
293.469	3.79
293.845	4.21
294.222	4.45
294.599	3.55
294.975	3.44
295.352	4.02
295.728	3.77
296.105	3.67
296.481	3.94
296.858	4.05
297.234	3.32
297.61	3.88
297.986	4.4
298.363	4.14
298.739	4.2
299.115	3.86
299.491	4.4
299.867	3.77
300.243	4.1
300.619	3.4
300.995	3.81
301.371	4.33
301.746	3.65
302.122	3.18
302.498	3.89
302.874	3.83
303.249	3.75
303.625	3.5
304	3.95
304.376	3.85
304.751	3.78
305.127	3.82
305.502	3.46
305.878	3.83
306.253	3.56
306.628	3.44
307.003	3.91
307.378	3.42
307.754	3.54
308.129	3.95
308.504	4.14
308.879	3.65
309.254	3.63
309.629	3.74
310.003	3.72
310.378	3.91
310.753	3.89
311.128	3.36
311.502	3.75
311.877	3.61
312.252	3.86
312.626	4.38
313.001	3.92
313.375	3.97
313.75	4.18
314.124	3.73
314.498	4.02
314.873	3.5
315.247	3.64
315.621	3.63
315.995	4.05
316.369	3.52
316.743	3.31
317.117	3.8
317.491	4.32
317.865	3.15
318.239	4.36
318.613	3.2
318.987	3.56
319.361	3.97
319.734	4
320.108	3.47
320.482	3.86
320.855	3.91
321.229	4.22
321.602	4.18
321.976	2.85
322.349	4.41
322.723	3.26
323.096	3.96
323.469	3.81
323.843	2.82
324.216	3.4
324.589	3.71
324.962	3.53
325.335	3.62
325.708	4.16
326.081	3.83
326.454	3.75
326.827	3.76
327.2	3.69
327.573	3.84
327.945	3.54
328.318	3.55
328.691	3.73
329.063	3.5
329.436	3.24
329.809	4.25
330.181	4.13
330.553	3.76
330.926	3.91
331.298	3.46
331.671	3.66
332.043	3.61
332.415	3.38
332.787	3.39
333.159	3.61
333.532	3.97
333.904	3.67
334.276	3.96
334.648	3.68
335.02	3.55
335.391	3.53
335.763	3.62
336.135	4.3
336.507	3.46
336.879	3.97
337.25	2.99
337.622	4.16
337.993	3.79
338.365	3.76
338.736	3.66
339.108	3.82
339.479	3.81
339.851	4.16
340.222	4.01
340.593	4.06
340.964	4.13
341.336	3.84
341.707	3.75
342.078	3.79
342.449	3.68
342.82	3.93
343.191	3.92
343.562	3.53
343.933	3.75
344.303	3.83
344.674	3.71
345.045	4.13
345.416	4.08
345.786	3.65
346.157	4.02
346.527	3.51
346.898	3.48
347.268	3.73
347.639	3.85
348.009	3.63
348.38	3.62
348.75	4.05
349.12	4.41
349.49	4.08
349.861	3.66
350.231	3.64
350.601	4.19
350.971	3.51
351.341	3.79
351.711	3.94
352.081	3.58
352.45	3.65
352.82	3.69
353.19	4.04
353.56	3.58
353.929	3.66
354.299	4.23
354.669	3.91
355.038	4.03
355.408	3.92
355.777	3.95
356.147	3.69
356.516	4.26
356.885	3.7
357.254	3.68
357.624	3.78
357.993	4.26
358.362	4.22
358.731	4.27
359.1	3.84
359.469	4.12
359.838	3.75
360.207	3.94
360.576	3.88
360.945	4.28
361.314	3.91
361.682	3.88
362.051	4.07
362.42	3.99
362.788	3.98
363.157	3.76
363.525	4.09
363.894	3.84
364.262	3.97
364.631	4.15
364.999	4.04
365.367	3.67
365.735	4.13
366.104	3.81
366.472	4
366.84	3.97
367.208	4.25
367.576	4.13
367.944	3.92
368.312	3.93
368.68	4.22
369.048	4.13
369.416	3.85
369.783	3.8
370.151	4.57
370.519	4.45
370.886	3.99
371.254	3.98
371.621	4.1
371.989	4.15
372.356	3.92
372.724	4.01
373.091	3.93
373.458	4.26
373.826	4.42
374.193	4.29
374.56	4.11
374.927	3.77
375.294	4.13
375.661	4.42
376.028	4.14
376.395	4.22
376.762	4.03
377.129	4.01
377.496	4.25
377.863	4.14
378.229	4.58
378.596	4.14
378.963	4.08
379.329	4.38
379.696	3.88
380.062	4.08
380.429	4.07
380.795	4.22
381.161	3.82
381.528	3.84
381.894	4.07
382.26	4.16
382.626	4.36
382.993	4.44
383.359	3.88
383.725	3.87
384.091	4.37
384.457	3.95
384.823	4.12
385.188	4.13
385.554	4.14
385.92	4.02
386.286	4.26
386.651	4.1
387.017	4.29
387.383	4.2
387.748	4.54
388.114	4.3
388.479	4.28
388.845	3.91
389.21	4.4
389.575	4.26
389.94	3.99
390.306	4.13
390.671	4.39
391.036	4.39
391.401	4.09
391.766	4.09
392.131	4.24
392.496	4.51
392.861	4.11
393.226	4.07
393.591	4.23
393.956	4.28
394.32	4.15
394.685	4.4
395.05	4.32
395.414	4.21
395.779	4.3
396.143	4.22
396.508	4.39
396.872	4.13
397.236	4.55
397.601	4.56
397.965	4.38
398.329	4.39
398.694	4.12
399.058	4.37
399.422	4
399.786	4.2
400.15	4.16
400.514	4.32
400.878	4.35
401.242	4.43
401.605	4.3
401.969	4.28
402.333	4.28
402.697	4.78
403.06	4.31
403.424	4.36
403.787	4.3
404.151	4.44
404.514	4.41
404.878	4.2
405.241	4.41
405.604	4.25
405.968	4.38
406.331	4.64
406.694	4.34
407.057	4.22
407.42	4.19
407.783	4.41
408.146	4.48
408.509	4.65
408.872	4.33
409.235	4.65
409.598	4.48
409.961	4.36
410.323	4.27
410.686	4.19
411.049	4.41
411.411	4.41
411.774	4.36
412.136	4.37
412.499	4.44
412.861	3.97
413.223	4.34
413.586	4.41
413.948	4.54
414.31	4.69
414.672	4.5
415.035	4.68
415.397	4.27
415.759	4.21
416.121	4.47
416.483	4.47
416.845	4.37
417.206	4.24
417.568	4.27
417.93	4.44
418.292	4.38
418.653	4.28
419.015	4.3
419.377	4.35
419.738	4.43
420.1	4.42
420.461	4.33
420.822	4.45
421.184	4.38
421.545	4.38
421.906	4.34
422.267	4.34
422.629	4.29
422.99	4.28
423.351	4.3
423.712	4.35
424.073	4.4
424.434	4.49
424.795	4.36
425.155	4.36
425.516	4.36
425.877	4.39
426.238	4.29
426.598	4.39
426.959	4.42
427.32	4.35
427.68	4.46
428.041	4.39
428.401	4.32
428.761	4.53
429.122	4.53
429.482	4.39
429.842	4.39
430.202	4.63
430.563	4.34
430.923	4.46
431.283	4.48
431.643	4.52
432.003	4.44
432.363	4.59
432.722	4.52
433.082	4.4
433.442	4.65
433.802	4.55
434.161	4.47
434.521	4.52
434.881	4.62
435.24	4.49
435.6	4.53
435.959	4.58
436.319	4.42
436.678	4.65
437.037	4.52
437.396	4.54
437.756	4.45
438.115	4.57
438.474	4.55
438.833	4.45
439.192	4.44
439.551	4.48
439.91	4.5
440.269	4.61
440.628	4.54
440.987	4.52
441.345	4.51
441.704	4.53
442.063	4.39
442.421	4.39
442.78	4.62
443.138	4.54
443.497	4.45
443.855	4.55
444.214	4.48
444.572	4.61
444.93	4.54
445.288	4.65
445.647	4.41
446.005	4.62
446.363	4.54
446.721	4.56
447.079	4.44
447.437	4.54
447.795	4.61
448.153	4.54
448.51	4.55
448.868	4.49
449.226	4.61
449.584	4.47
449.941	4.55
450.299	4.51
450.656	4.57
451.014	4.74
451.371	4.64
451.729	4.64
452.086	4.7
452.443	4.7
452.801	4.62
453.158	4.7
453.515	4.65
453.872	4.7
454.229	4.42
454.586	4.6
454.943	4.77
455.3	4.63
455.657	4.68
456.014	4.76
456.371	4.66
456.727	4.83
457.084	4.82
457.441	4.67
457.797	4.69
458.154	4.7
458.51	4.47
458.867	4.6
459.223	4.59
459.58	4.59
459.936	4.7
460.292	4.57
460.648	4.51
461.005	4.64
461.361	4.54
461.717	4.69
462.073	4.64
462.429	4.68
462.785	4.79
463.141	4.71
463.496	4.77
463.852	4.81
464.208	4.75
464.564	4.52
464.919	4.68
465.275	4.76
465.631	4.83
465.986	4.69
466.342	4.73
466.697	4.67
467.052	4.74
467.408	4.98
467.763	4.75
468.118	4.8
468.473	4.66
468.829	4.79
469.184	4.8
469.539	4.65
469.894	4.7
470.249	4.71
470.603	5
470.958	4.8
471.313	4.89
471.668	4.89
472.023	4.83
472.377	4.75
472.732	4.96
473.086	4.68
473.441	4.87
473.795	4.97
474.15	4.85
474.504	4.66
474.859	4.63
475.213	4.78
475.567	4.78
475.921	4.78
476.275	4.84
476.63	4.88
476.984	4.67
477.338	4.92
477.692	4.84
478.045	4.77
478.399	4.88
478.753	4.8
479.107	4.98
479.461	4.72
479.814	4.88
480.168	4.82
480.521	4.94
480.875	4.86
481.228	4.86
481.582	4.83
481.935	4.97
482.289	4.81
482.642	4.84
482.995	4.74
483.348	4.82
483.701	4.76
484.055	4.81
484.408	4.73
484.761	4.7
485.114	4.52
485.466	4.5
485.819	4.54
486.172	4.65
486.525	4.68
486.878	4.76
487.23	4.78
487.583	4.82
487.936	4.69
488.288	4.73
488.641	4.73
488.993	4.68
489.345	4.62
489.698	4.65
490.05	4.71
490.402	4.77
490.754	4.85
491.107	4.8
491.459	4.91
491.811	4.87
492.163	4.85
492.515	4.81
492.866	4.71
493.218	4.67
493.57	4.73
493.922	4.8
494.274	4.95
494.625	4.97
494.977	4.94
495.328	4.92
495.68	4.9
496.031	5.01
496.383	4.91
496.734	4.91
497.086	4.96
497.437	5.19
497.788	4.98
498.139	4.97
498.49	5
498.842	5.07
499.193	4.96
499.544	5.05
499.894	5.01
500.245	5.06
500.596	4.99
500.947	5.03
501.298	5.05
501.648	5.18
501.999	5.18
502.35	5.02
502.7	5.24
503.051	5.03
503.401	5.12
503.752	5.01
504.102	4.97
504.452	4.87
504.803	5.13
505.153	5.19
505.503	5
505.853	5.18
506.203	5.16
506.553	5.11
506.903	5.16
507.253	5.12
507.603	5.24
507.953	5.18
508.303	5.29
508.652	5.09
509.002	5.29
509.352	5.3
509.701	5.12
510.051	5.27
510.4	5.17
510.75	5.13
511.099	5.07
511.449	5.14
511.798	5.16
512.147	5.17
512.496	5.09
512.846	5.17
513.195	5.24
513.544	5.3
513.893	5.15
514.242	5.24
514.591	5.24
514.939	5.4
515.288	5.3
515.637	5.23
515.986	5.42
516.334	5.36
516.683	5.26
517.032	5.22
517.38	5.21
517.729	5.32
518.077	5.38
518.426	5.29
518.774	5.38
519.122	5.35
519.47	5.25
519.819	5.26
520.167	5.22
520.515	5.28
520.863	5.29
521.211	5.23
521.559	5.33
521.907	5.47
522.255	5.28
522.602	5.4
522.95	5.36
523.298	5.46
523.645	5.4
523.993	5.37
524.341	5.28
524.688	5.48
525.036	5.48
525.383	5.52
525.73	5.32
526.078	5.53
526.425	5.32
526.772	5.42
527.119	5.36
527.466	5.41
527.814	5.38
528.161	5.41
528.508	5.56
528.854	5.47
529.201	5.37
529.548	5.39
529.895	5.24
530.242	5.24
530.588	5.28
530.935	5.3
531.282	5.33
531.628	5.41
531.975	5.43
532.321	5.46
532.667	5.58
533.014	5.64
533.36	5.6
533.706	5.63
534.052	5.5
534.399	5.46
534.745	5.47
535.091	5.45
535.437	5.56
535.783	5.54
536.129	5.55
536.474	5.76
536.82	5.66
537.166	5.54
537.512	5.79
537.857	5.66
538.203	5.64
538.549	5.61
538.894	5.76
539.239	5.73
539.585	5.83
539.93	5.86
540.276	5.92
540.621	5.83
540.966	5.9
541.311	5.88
541.656	5.82
542.001	5.76
542.346	5.75
542.691	5.64
543.036	5.69
543.381	5.71
543.726	5.8
544.071	5.79
544.415	5.81
544.76	5.91
545.105	5.96
545.449	5.96
545.794	5.99
546.138	5.9
546.483	6.09
546.827	5.99
547.171	6.06
547.516	6.17
547.86	6.04
548.204	6.12
548.548	6.05
548.892	6.17
549.236	6.12
549.58	6.24
549.924	6.23
550.268	6.31
550.612	6.37
550.956	6.3
551.3	6.5
551.643	6.25
551.987	6.45
552.33	6.47
552.674	6.42
553.017	6.45
553.361	6.37
553.704	6.34
554.048	6.17
554.391	6.49
554.734	6.38
555.077	6.48
555.42	6.42
555.764	6.55
556.107	6.59
556.45	6.68
556.793	6.67
557.135	6.53
557.478	6.75
557.821	6.72
558.164	6.72
558.507	6.49
558.849	6.67
559.192	6.82
559.534	6.7
559.877	6.66
560.219	6.85
560.562	6.58
560.904	7.11
561.246	6.84
561.589	6.88
561.931	6.71
562.273	6.67
562.615	6.76
562.957	6.77
563.299	6.79
563.641	6.8
563.983	6.58
564.325	6.85
564.667	6.93
565.008	6.86
565.35	6.82
565.692	6.9
566.033	6.94
566.375	7.06
566.716	6.99
567.058	6.97
567.399	7.13
567.741	6.94
568.082	7.07
568.423	6.99
568.764	7.08
569.105	7.17
569.447	7.21
569.788	7.18
570.129	7.36
570.47	7.25
570.811	7.19
571.151	7.19
571.492	7.37
571.833	7.43
572.174	7.46
572.514	7.57
572.855	7.5
573.195	7.24
573.536	7.53
573.876	7.33
574.217	7.51
574.557	7.39
574.898	7.47
575.238	7.71
575.578	7.59
575.918	7.55
576.258	7.81
576.598	7.59
576.938	7.64
577.278	7.68
577.618	7.8
577.958	7.56
578.298	7.63
578.638	7.68
578.977	7.93
579.317	7.86
579.657	7.82
579.996	7.99
580.336	8.05
580.675	7.96
581.014	7.91
581.354	7.71
581.693	8.08
582.032	8.33
582.372	8.34
582.711	8.15
583.05	8.14
583.389	8.34
583.728	8.44
584.067	8.05
584.406	8.39
584.745	8.05
585.083	8.18
585.422	8.59
585.761	8.23
586.1	8.27
586.438	8.4
586.777	8.47
587.115	8.58
587.454	8.31
587.792	8.5
588.13	8.5
588.469	8.44
588.807	8.73
589.145	8.44
589.483	8.4
589.821	8.58
590.159	8.71
590.497	8.73
590.835	8.62
591.173	8.92
591.511	8.88
591.849	8.77
592.187	8.81
592.524	8.91
592.862	8.79
593.2	9.18
593.537	8.79
593.875	8.82
594.212	8.93
594.55	8.93
594.887	9.28
595.224	9.06
595.561	8.85
595.899	9.22
596.236	9.11
596.573	9.03
596.91	9.28
597.247	9.35
597.584	9.41
597.921	9.28
598.258	9.09
598.594	9.22
598.931	9.15
599.268	9.28
599.604	9.44
599.941	9.46
600.277	9.55
600.614	9.29
600.95	9.56
601.287	9.31
601.623	9.45
601.959	9.81
602.296	9.5
602.632	9.62
602.968	9.72
603.304	9.9
603.64	9.73
603.976	9.57
604.312	9.51
604.648	9.78
604.984	9.82
605.319	9.74
605.655	9.72
605.991	9.85
606.326	9.82
606.662	9.59
606.998	10.03
607.333	10.14
607.668	9.96
608.004	10.03
608.339	10.03
608.674	10.09
609.01	10.28
609.345	10.19
609.68	9.9
610.015	10.13
610.35	10.23
610.685	10.04
611.02	10.1
611.355	10.12
611.689	10.21
612.024	10.41
612.359	10.53
612.694	10.62
613.028	10.45
613.363	10.56
613.697	10.54
614.032	10.55
614.366	10.33
614.7	10.83
615.035	10.63
615.369	11.03
615.703	10.85
616.037	10.61
616.371	10.72
616.705	11.07
617.039	11.04
617.373	10.93
617.707	10.84
618.041	10.57
618.375	10.49
618.709	10.9
619.042	11.02
619.376	10.99
619.71	11.11
620.043	11.06
620.377	11.37
620.71	11.01
621.043	11.51
621.377	11.25
621.71	11.79
622.043	11.28
622.376	11.42
622.709	11.96
623.043	11.14
623.376	11.33
623.709	11.67
624.041	11.41
624.374	11.73
624.707	11.47
625.04	11.84
625.373	11.85
625.705	11.6
626.038	11.87
626.37	11.66
626.703	11.93
627.035	11.64
627.368	11.62
627.7	11.99
628.032	11.8
628.365	12.15
628.697	12.1
629.029	11.76
629.361	12.16
629.693	11.9
630.025	12.2
630.357	12.15
630.689	12.37
631.021	12.36
631.353	12.24
631.684	12.15
632.016	12.07
632.348	12.21
632.679	12.56
633.011	12.35
633.342	12.41
633.674	12.44
634.005	12.45
634.336	12.42
634.668	12.49
634.999	12.43
635.33	12.61
635.661	12.54
635.992	12.58
636.323	12.73
636.654	12.6
636.985	12.65
637.316	12.81
637.647	12.83
637.977	12.76
638.308	12.96
638.639	12.92
638.969	12.7
639.3	12.85
639.63	12.73
639.961	13.35
640.291	12.95
640.622	13.08
640.952	13.48
641.282	12.96
641.612	13.03
641.943	13.45
642.273	13.35
642.603	13.57
642.933	13.78
643.263	13.46
643.592	13.61
643.922	13.8
644.252	13.33
644.582	13.54
644.911	13.41
645.241	13.54
645.571	13.64
645.9	13.59
646.23	14.04
646.559	13.16
646.888	14.19
647.218	13.84
647.547	13.67
647.876	13.79
648.205	13.88
648.534	13.94
648.863	14.2
649.192	13.62
649.521	14
649.85	14.4
650.179	13.86
650.508	14.14
650.837	14.35
651.165	14.05
651.494	14.14
651.822	14.5
652.151	13.75
652.479	14.65
652.808	14.36
653.136	14.11
653.465	14.18
653.793	14.5
654.121	14.65
654.449	14.4
654.777	14.01
655.105	14.24
655.433	14.94
655.761	14.35
656.089	14.6
656.417	14.75
656.745	15.18
657.073	14.64
657.4	15.07
657.728	14.45
658.056	14.62
658.383	14.59
658.711	14.89
659.038	15.05
659.365	15.16
659.693	14.86
660.02	14.57
660.347	14.89
660.674	15.16
661.001	14.99
661.329	14.99
661.656	15.01
661.982	15.24
662.309	15.47
662.636	15.13
662.963	15.3
663.29	15.26
663.616	15.34
663.943	15.66
664.27	15.29
664.596	15.25
664.923	15.66
665.249	15.71
665.576	15.34
665.902	15.6
666.228	15.87
666.554	16.4
666.881	16.07
667.207	16.14
667.533	15.76
667.859	15.78
668.185	15.63
668.511	16.06
668.837	16.07
669.162	16.04
669.488	15.52
669.814	16.69
670.139	15.99
670.465	16.52
670.791	15.36
671.116	15.64
671.442	16.21
671.767	16.29
672.092	16.95
672.418	15.76
672.743	16.45
673.068	15.99
673.393	16.34
673.718	16.75
674.043	16.35
674.368	16.69
674.693	16.49
675.018	17.29
675.343	17.02
675.667	16.75
675.992	17.02
676.317	15.73
676.641	17.18
676.966	16.83
677.29	16.98
677.615	17.27
677.939	16.43
678.264	16.42
678.588	16.77
678.912	16.78
679.236	16.8
679.56	17
679.885	16.31
680.209	17.63
680.532	17.85
680.856	17.39
681.18	17.91
681.504	17.33
681.828	16.87
682.152	17.06
682.475	17.51
682.799	17.48
683.122	17.24
683.446	16.9
683.769	17.71
684.093	17.22
684.416	16.99
684.739	17.67
685.062	17.61
685.386	17.52
685.709	18.01
686.032	18.26
686.355	18.22
686.678	18.49
