Data from 0011_forehead_Reflection__0__342.txt Node

Date: Thu Dec 15 19:19:25 CST 2022
User: ToomeyLab
Spectrometer: FLMS14357
Trigger mode: 0
Integration Time (sec): 1.000000E-2
Scans to average: 100
Electric dark correction enabled: true
Nonlinearity correction enabled: false
Boxcar width: 0
XAxis mode: Wavelengths
Number of Pixels in Spectrum: 2048
>>>>>Begin Spectral Data<<<<<
189.047	10.01
189.435	10.01
189.823	10.01
190.211	-555.42
190.599	14.51
190.987	81.41
191.375	-35.57
191.763	134.94
192.151	12.33
192.538	90.09
192.926	116.16
193.314	-3.13
193.702	80.69
194.089	-60.03
194.477	138.78
194.864	22.48
195.252	26.73
195.639	38.06
196.027	58.23
196.414	97.67
196.801	-32.04
197.189	74.26
197.576	-591.63
197.963	-157.71
198.351	10.06
198.738	-77.43
199.125	-24.8
199.512	11.24
199.899	-8.02
200.286	-46.3
200.673	21.22
201.06	31.41
201.447	-1.2
201.833	14.82
202.22	0.57
202.607	7.97
202.994	10.19
203.38	21.57
203.767	-21.8
204.154	29.34
204.54	23.15
204.927	6.54
205.313	24.37
205.699	24.43
206.086	37.66
206.472	20.2
206.858	12.85
207.245	-6.71
207.631	-32.05
208.017	38.33
208.403	-6.96
208.789	8.93
209.175	-36.31
209.561	-110.86
209.947	-21.68
210.333	-1.67
210.719	20.62
211.105	33.48
211.491	6.09
211.876	-24.46
212.262	-9.22
212.648	-26.38
213.034	-41.3
213.419	-4.23
213.805	-39.91
214.19	-86.99
214.576	-6.16
214.961	5.08
215.346	-21.62
215.732	-27.42
216.117	-11.6
216.502	-17.38
216.888	-38.65
217.273	-30.49
217.658	-13.44
218.043	-37.9
218.428	-20.67
218.813	-21.99
219.198	-40.16
219.583	-30.89
219.968	-25.84
220.353	-67.39
220.738	-2.54
221.122	13.41
221.507	-12.07
221.892	-33.2
222.276	-72.06
222.661	-18.1
223.046	-23.86
223.43	0.76
223.815	-11.62
224.199	1.33
224.583	-2.79
224.968	-5.82
225.352	-5.37
225.736	10.71
226.121	0.49
226.505	-5.88
226.889	-4.78
227.273	2.27
227.657	1.6
228.041	2.48
228.425	-0.76
228.809	2.34
229.193	2.94
229.577	2.5
229.961	2.18
230.344	3.27
230.728	3.79
231.112	3.84
231.495	0.66
231.879	3.02
232.263	3.94
232.646	1.87
233.03	2.55
233.413	3.21
233.797	0.93
234.18	1.22
234.563	1.97
234.946	0.94
235.33	3.11
235.713	3.17
236.096	1.92
236.479	3.8
236.862	0.5
237.245	2.12
237.628	3.46
238.011	4.02
238.394	0.53
238.777	4.05
239.16	3
239.543	5.7
239.925	1.41
240.308	1.4
240.691	1.04
241.073	1.06
241.456	2.77
241.838	2.71
242.221	2.69
242.603	3.39
242.986	3.16
243.368	2.86
243.75	3.12
244.133	3.11
244.515	3.07
244.897	2.87
245.279	2.99
245.661	2.6
246.043	3.82
246.425	3.4
246.807	3.08
247.189	3.65
247.571	3.1
247.953	2.77
248.335	3.17
248.717	3.18
249.098	3.11
249.48	2.75
249.862	3.55
250.243	3.29
250.625	3.34
251.006	3.7
251.388	3.28
251.769	1.29
252.151	4.04
252.532	2.11
252.913	2.7
253.295	2.88
253.676	2.71
254.057	2.82
254.438	2.24
254.819	3.5
255.2	2.59
255.581	4.24
255.962	3.66
256.343	2.93
256.724	3.35
257.105	1.85
257.486	1.84
257.867	3.28
258.247	3.81
258.628	3.51
259.009	2.5
259.389	2.35
259.77	1.91
260.15	3.54
260.531	2.91
260.911	2.68
261.292	2.99
261.672	3
262.052	3.18
262.432	2.59
262.813	3.66
263.193	3.53
263.573	3.19
263.953	2.27
264.333	3.06
264.713	2.73
265.093	3.44
265.473	2.74
265.853	3.1
266.233	2.27
266.612	1.95
266.992	3.41
267.372	2.95
267.752	3.08
268.131	2.89
268.511	2.52
268.89	3.13
269.27	2.24
269.649	2.47
270.029	3.39
270.408	2.07
270.787	3.17
271.167	3.41
271.546	3.18
271.925	3.29
272.304	2.81
272.683	2.57
273.062	2.68
273.441	2.35
273.82	2.77
274.199	2.9
274.578	3.09
274.957	2.61
275.336	2.65
275.715	3.2
276.093	2.3
276.472	2.22
276.851	2.99
277.229	2.53
277.608	2.09
277.986	2.24
278.365	3.06
278.743	3.02
279.122	2.77
279.5	2.9
279.878	2.23
280.257	2.86
280.635	2.74
281.013	2.17
281.391	2.52
281.769	3.36
282.147	2.87
282.525	2.32
282.903	2.8
283.281	2.96
283.659	2.99
284.037	2.83
284.415	3.13
284.792	3.29
285.17	3.13
285.548	2.78
285.925	2.81
286.303	3.3
286.68	3.09
287.058	3.06
287.435	2.79
287.813	2.9
288.19	2.88
288.567	2.47
288.945	2.67
289.322	2.92
289.699	3.34
290.076	2.99
290.453	2.61
290.83	3.25
291.207	2.55
291.584	2.98
291.961	2.88
292.338	2.92
292.715	2.98
293.092	3.42
293.469	2.82
293.845	3.28
294.222	3.17
294.599	2.75
294.975	2.53
295.352	3.43
295.728	3.17
296.105	2.86
296.481	3.21
296.858	2.87
297.234	2.76
297.61	3.1
297.986	3.43
298.363	3.49
298.739	3.43
299.115	3.17
299.491	3.41
299.867	3.25
300.243	3.25
300.619	2.97
300.995	3.24
301.371	3.51
301.746	3.5
302.122	2.68
302.498	2.99
302.874	3.81
303.249	3.63
303.625	3.11
304	2.95
304.376	3.42
304.751	3.21
305.127	3.24
305.502	3.37
305.878	3.66
306.253	3.39
306.628	3.57
307.003	3.66
307.378	3.08
307.754	3.59
308.129	3.61
308.504	3.67
308.879	3.58
309.254	3.82
309.629	3.48
310.003	3.87
310.378	3.81
310.753	3.88
311.128	3.12
311.502	3.71
311.877	3.55
312.252	3.58
312.626	4.09
313.001	3.82
313.375	4.04
313.75	3.68
314.124	3.69
314.498	4.01
314.873	3.72
315.247	4.04
315.621	3.21
315.995	3.51
316.369	3.49
316.743	3.91
317.117	3.7
317.491	4.46
317.865	3.98
318.239	4.16
318.613	3.94
318.987	3.79
319.361	3.74
319.734	3.9
320.108	3.68
320.482	4.43
320.855	4.29
321.229	4.09
321.602	4.19
321.976	3.39
322.349	4.84
322.723	3.87
323.096	3.88
323.469	4.06
323.843	4.13
324.216	3.99
324.589	4.18
324.962	4.35
325.335	4.19
325.708	4.18
326.081	4.26
326.454	4.52
326.827	4.18
327.2	3.99
327.573	4.62
327.945	3.84
328.318	4.27
328.691	4.28
329.063	3.65
329.436	4.4
329.809	4.38
330.181	5.17
330.553	4.3
330.926	4.84
331.298	4.18
331.671	3.94
332.043	4.09
332.415	4.27
332.787	4.76
333.159	4.26
333.532	4.67
333.904	4.8
334.276	4.67
334.648	4.57
335.02	5.24
335.391	4.8
335.763	4.25
336.135	4.43
336.507	3.87
336.879	4.37
337.25	4.53
337.622	4.74
337.993	4.37
338.365	4.78
338.736	4.6
339.108	4.91
339.479	5.03
339.851	5.07
340.222	4.89
340.593	4.45
340.964	4.53
341.336	4.67
341.707	4.96
342.078	4.16
342.449	4.74
342.82	4.45
343.191	4.85
343.562	4.83
343.933	4.66
344.303	5.07
344.674	5.02
345.045	5.11
345.416	5.01
345.786	4.49
346.157	5.32
346.527	4.53
346.898	4.65
347.268	5.04
347.639	4.61
348.009	4.85
348.38	4.81
348.75	5.21
349.12	5.09
349.49	4.82
349.861	5.07
350.231	4.68
350.601	5.15
350.971	4.55
351.341	5.26
351.711	4.83
352.081	4.8
352.45	4.66
352.82	4.66
353.19	5.04
353.56	4.88
353.929	5.11
354.299	5.24
354.669	5.22
355.038	5.36
355.408	5.17
355.777	5.18
356.147	4.96
356.516	5.28
356.885	4.9
357.254	5.19
357.624	5.34
357.993	5.13
358.362	5.21
358.731	5.51
359.1	5.07
359.469	5.28
359.838	5.41
360.207	5.21
360.576	5.25
360.945	5.22
361.314	5.28
361.682	5.15
362.051	5.24
362.42	5.67
362.788	5.45
363.157	5.21
363.525	5.41
363.894	5.14
364.262	5.26
364.631	5.71
364.999	5.59
365.367	5.33
365.735	5.79
366.104	5.26
366.472	5.42
366.84	5.77
367.208	6.02
367.576	5.71
367.944	5.78
368.312	5.52
368.68	6.03
369.048	5.64
369.416	5.46
369.783	5.75
370.151	5.71
370.519	5.82
370.886	5.45
371.254	6.06
371.621	6.08
371.989	5.9
372.356	5.75
372.724	5.54
373.091	5.46
373.458	5.55
373.826	5.87
374.193	5.77
374.56	5.87
374.927	5.73
375.294	6.04
375.661	5.96
376.028	5.79
376.395	6.18
376.762	5.8
377.129	5.96
377.496	5.9
377.863	6.07
378.229	6.22
378.596	6.27
378.963	5.96
379.329	6.05
379.696	6.03
380.062	6.04
380.429	5.92
380.795	6.5
381.161	6.01
381.528	6.02
381.894	6.02
382.26	5.93
382.626	6.34
382.993	6.37
383.359	6.18
383.725	6.03
384.091	6.41
384.457	5.92
384.823	6.44
385.188	6.27
385.554	6.17
385.92	6.18
386.286	6.28
386.651	6.09
387.017	6.69
387.383	6.16
387.748	6.54
388.114	6.35
388.479	6.49
388.845	6.34
389.21	6.64
389.575	6.7
389.94	6.83
390.306	6.63
390.671	6.79
391.036	6.59
391.401	6.65
391.766	6.36
392.131	6.91
392.496	6.5
392.861	6.33
393.226	6.4
393.591	6.52
393.956	6.74
394.32	6.55
394.685	6.7
395.05	6.58
395.414	6.67
395.779	6.68
396.143	6.5
396.508	6.43
396.872	6.6
397.236	6.93
397.601	6.77
397.965	6.76
398.329	6.79
398.694	6.55
399.058	6.82
399.422	6.9
399.786	6.77
400.15	6.74
400.514	6.97
400.878	6.63
401.242	7.07
401.605	6.98
401.969	6.7
402.333	6.71
402.697	7.31
403.06	6.83
403.424	7
403.787	7.15
404.151	7.06
404.514	6.96
404.878	6.85
405.241	6.83
405.604	6.98
405.968	6.83
406.331	7.06
406.694	6.75
407.057	6.92
407.42	6.79
407.783	7.3
408.146	6.94
408.509	7.01
408.872	6.97
409.235	7.08
409.598	6.82
409.961	7.49
410.323	6.98
410.686	6.99
411.049	7.02
411.411	7
411.774	7.06
412.136	7.2
412.499	7.19
412.861	6.91
413.223	6.93
413.586	7.3
413.948	7.34
414.31	7.13
414.672	7.12
415.035	7.18
415.397	7.21
415.759	7.2
416.121	7.31
416.483	7.34
416.845	7.33
417.206	7.21
417.568	7.08
417.93	7.23
418.292	6.95
418.653	7.21
419.015	7.28
419.377	7.28
419.738	7.42
420.1	7.29
420.461	7.22
420.822	7.26
421.184	7.23
421.545	7.4
421.906	7.39
422.267	7.33
422.629	7.31
422.99	7.26
423.351	7.39
423.712	7.37
424.073	7.62
424.434	7.54
424.795	7.46
425.155	7.44
425.516	7.41
425.877	7.51
426.238	7.5
426.598	7.56
426.959	7.61
427.32	7.51
427.68	7.64
428.041	8.03
428.401	7.67
428.761	7.9
429.122	7.9
429.482	7.87
429.842	8
430.202	8.02
430.563	7.89
430.923	8.1
431.283	8.26
431.643	8.14
432.003	8.21
432.363	8.22
432.722	8.17
433.082	8.08
433.442	8.38
433.802	8.07
434.161	8.01
434.521	8.08
434.881	8.14
435.24	8.15
435.6	8.21
435.959	8.34
436.319	8.21
436.678	8.63
437.037	8.28
437.396	8.43
437.756	8.39
438.115	8.48
438.474	8.51
438.833	8.49
439.192	8.29
439.551	8.37
439.91	8.51
440.269	8.57
440.628	8.4
440.987	8.46
441.345	8.57
441.704	8.41
442.063	8.52
442.421	8.54
442.78	8.56
443.138	8.62
443.497	8.62
443.855	8.74
444.214	8.57
444.572	8.88
444.93	8.93
445.288	9.01
445.647	8.76
446.005	8.75
446.363	8.93
446.721	8.93
447.079	8.82
447.437	8.87
447.795	8.92
448.153	8.76
448.51	8.85
448.868	8.87
449.226	9.08
449.584	8.93
449.941	9.12
450.299	9.08
450.656	9.05
451.014	9.35
451.371	9.32
451.729	9.24
452.086	9.34
452.443	9.4
452.801	9.23
453.158	9.46
453.515	9.28
453.872	9.39
454.229	9.35
454.586	9.23
454.943	9.42
455.3	9.39
455.657	9.36
456.014	9.55
456.371	9.72
456.727	9.6
457.084	9.84
457.441	9.73
457.797	9.57
458.154	9.76
458.51	9.55
458.867	9.58
459.223	9.56
459.58	9.82
459.936	9.64
460.292	9.59
460.648	9.62
461.005	9.59
461.361	9.62
461.717	9.76
462.073	9.76
462.429	9.84
462.785	9.92
463.141	9.94
463.496	9.97
463.852	10.13
464.208	10.03
464.564	10.11
464.919	10.09
465.275	10.16
465.631	10.49
465.986	10.28
466.342	10.09
466.697	10.04
467.052	10.4
467.408	10.34
467.763	10.35
468.118	10.23
468.473	10.38
468.829	10.21
469.184	10.46
469.539	10.37
469.894	10.57
470.249	10.52
470.603	10.75
470.958	10.62
471.313	10.74
471.668	10.55
472.023	10.75
472.377	10.55
472.732	10.7
473.086	10.55
473.441	10.64
473.795	10.82
474.15	10.72
474.504	10.68
474.859	10.59
475.213	10.84
475.567	10.72
475.921	10.82
476.275	10.91
476.63	10.91
476.984	10.74
477.338	10.97
477.692	11.04
478.045	11.12
478.399	11.08
478.753	10.87
479.107	11.18
479.461	10.96
479.814	11.09
480.168	11.09
480.521	11.21
480.875	10.99
481.228	11.21
481.582	11.07
481.935	11.23
482.289	11.22
482.642	11.26
482.995	11.19
483.348	11.16
483.701	11.16
484.055	11.05
484.408	10.93
484.761	10.88
485.114	10.62
485.466	10.6
485.819	10.56
486.172	10.78
486.525	10.85
486.878	11.04
487.23	11.05
487.583	11.15
487.936	11.1
488.288	11.11
488.641	11.01
488.993	10.93
489.345	10.97
489.698	11.02
490.05	11.04
490.402	11.17
490.754	11.27
491.107	11.42
491.459	11.48
491.811	11.64
492.163	11.62
492.515	11.56
492.866	11.3
493.218	11.3
493.57	11.36
493.922	11.41
494.274	11.59
494.625	11.73
494.977	11.84
495.328	12.04
495.68	12.04
496.031	12.01
496.383	11.99
496.734	12.1
497.086	12.17
497.437	12.16
497.788	12.23
498.139	12.18
498.49	12.08
498.842	12.21
499.193	11.99
499.544	12.19
499.894	12.21
500.245	12.31
500.596	12.43
500.947	12.28
501.298	12.31
501.648	12.5
501.999	12.42
502.35	12.46
502.7	12.54
503.051	12.36
503.401	12.63
503.752	12.54
504.102	12.63
504.452	12.58
504.803	12.57
505.153	12.75
505.503	12.69
505.853	12.83
506.203	12.73
506.553	12.78
506.903	12.7
507.253	12.77
507.603	12.84
507.953	12.82
508.303	12.88
508.652	12.85
509.002	13
509.352	12.94
509.701	12.81
510.051	12.95
510.4	12.81
510.75	12.83
511.099	12.76
511.449	12.99
511.798	12.9
512.147	12.99
512.496	13.05
512.846	13.13
513.195	13.04
513.544	13.14
513.893	13.14
514.242	13.18
514.591	13.18
514.939	13.2
515.288	13.28
515.637	13.3
515.986	13.33
516.334	13.47
516.683	13.29
517.032	13.36
517.38	13.34
517.729	13.48
518.077	13.43
518.426	13.44
518.774	13.47
519.122	13.4
519.47	13.45
519.819	13.32
520.167	13.27
520.515	13.34
520.863	13.31
521.211	13.33
521.559	13.48
521.907	13.63
522.255	13.68
522.602	13.71
522.95	13.72
523.298	13.83
523.645	13.78
523.993	13.89
524.341	13.94
524.688	13.82
525.036	13.87
525.383	13.9
525.73	13.82
526.078	13.97
526.425	13.98
526.772	13.72
527.119	13.72
527.466	13.79
527.814	13.78
528.161	13.77
528.508	13.86
528.854	13.83
529.201	13.73
529.548	13.55
529.895	13.39
530.242	13.39
530.588	13.42
530.935	13.5
531.282	13.6
531.628	13.71
531.975	13.83
532.321	13.88
532.667	14.1
533.014	13.99
533.36	14.14
533.706	14.19
534.052	14.11
534.399	14.02
534.745	13.92
535.091	13.84
535.437	13.94
535.783	14.09
536.129	14.16
536.474	14.34
536.82	14.41
537.166	14.25
537.512	14.44
537.857	14.44
538.203	14.42
538.549	14.37
538.894	14.51
539.239	14.69
539.585	14.65
539.93	14.81
540.276	14.89
540.621	14.93
540.966	14.98
541.311	14.9
541.656	14.83
542.001	14.81
542.346	14.63
542.691	14.39
543.036	14.31
543.381	14.33
543.726	14.54
544.071	14.62
544.415	14.74
544.76	14.75
545.105	14.8
545.449	14.93
545.794	15.03
546.138	15.06
546.483	15.13
546.827	15.14
547.171	15.28
547.516	15.21
547.86	15.21
548.204	15.17
548.548	15.05
548.892	15.31
549.236	15.35
549.58	15.5
549.924	15.62
550.268	15.7
550.612	15.76
550.956	15.99
551.3	16.03
551.643	15.9
551.987	15.9
552.33	15.97
552.674	16.02
553.017	16
553.361	16.01
553.704	15.93
554.048	15.91
554.391	15.82
554.734	15.97
555.077	15.98
555.42	16.07
555.764	16.21
556.107	16.32
556.45	16.4
556.793	16.23
557.135	16.13
557.478	16.39
557.821	16.56
558.164	16.51
558.507	16.3
558.849	16.46
559.192	16.42
559.534	16.46
559.877	16.3
560.219	16.62
560.562	16.37
560.904	16.72
561.246	16.56
561.589	16.83
561.931	16.63
562.273	16.82
562.615	16.49
562.957	16.66
563.299	16.7
563.641	16.74
563.983	16.73
564.325	16.84
564.667	16.89
565.008	16.89
565.35	16.94
565.692	16.94
566.033	16.85
566.375	17
566.716	16.94
567.058	17.1
567.399	17.02
567.741	16.96
568.082	16.92
568.423	16.84
568.764	16.99
569.105	17.03
569.447	16.99
569.788	17.18
570.129	17.4
570.47	17.45
570.811	17.2
571.151	17.32
571.492	17.43
571.833	17.25
572.174	17.51
572.514	17.48
572.855	17.5
573.195	17.32
573.536	17.36
573.876	17.32
574.217	17.38
574.557	17.6
574.898	17.66
575.238	17.52
575.578	17.74
575.918	17.69
576.258	17.67
576.598	17.65
576.938	17.49
577.278	17.64
577.618	17.8
577.958	17.87
578.298	17.86
578.638	17.99
578.977	18.06
579.317	17.9
579.657	17.91
579.996	18.08
580.336	18.33
580.675	18.08
581.014	18.22
581.354	18.13
581.693	18.54
582.032	18.64
582.372	18.43
582.711	18.49
583.05	18.51
583.389	18.53
583.728	18.51
584.067	18.49
584.406	18.71
584.745	18.5
585.083	18.57
585.422	18.81
585.761	18.82
586.1	18.74
586.438	18.59
586.777	18.54
587.115	18.97
587.454	18.86
587.792	18.78
588.13	18.95
588.469	18.82
588.807	18.97
589.145	18.87
589.483	19
589.821	19.06
590.159	19.13
590.497	19.21
590.835	19.16
591.173	19.06
591.511	19.33
591.849	19.09
592.187	19.22
592.524	19.19
592.862	19
593.2	19.15
593.537	19.14
593.875	19.28
594.212	19.4
594.55	19.46
594.887	19.19
595.224	19.59
595.561	19.34
595.899	19.24
596.236	19.54
596.573	19.57
596.91	19.25
597.247	19.81
597.584	19.83
597.921	19.51
598.258	19.61
598.594	19.45
598.931	19.39
599.268	19.54
599.604	19.56
599.941	19.61
600.277	19.77
600.614	19.91
600.95	19.84
601.287	19.38
601.623	19.62
601.959	20.3
602.296	20.11
602.632	20.05
602.968	20
603.304	20.42
603.64	20.12
603.976	19.91
604.312	20.17
604.648	20.2
604.984	20.21
605.319	20.06
605.655	19.94
605.991	20.04
606.326	20.21
606.662	20.09
606.998	20.29
607.333	20.23
607.668	20.17
608.004	20.43
608.339	20.18
608.674	20.43
609.01	20.7
609.345	20.82
609.68	20.48
610.015	20.66
610.35	20.99
610.685	20.4
611.02	20.54
611.355	20.56
611.689	20.65
612.024	20.63
612.359	20.78
612.694	20.96
613.028	20.79
613.363	20.8
613.697	20.88
614.032	21.2
614.366	21.15
614.7	21.24
615.035	21.35
615.369	21.3
615.703	21.29
616.037	21.2
616.371	20.96
616.705	21.29
617.039	21.43
617.373	21.41
617.707	21.54
618.041	21.32
618.375	21.31
618.709	21.9
619.042	21.57
619.376	21.53
619.71	21.78
620.043	21.95
620.377	21.67
620.71	21.44
621.043	21.91
621.377	21.76
621.71	22.27
622.043	21.74
622.376	21.86
622.709	22.11
623.043	21.98
623.376	21.92
623.709	22.55
624.041	21.87
624.374	22.2
624.707	22.04
625.04	22.18
625.373	22.19
625.705	22.29
626.038	22.14
626.37	21.9
626.703	21.99
627.035	22.29
627.368	22.33
627.7	22.19
628.032	22.31
628.365	22.26
628.697	22.34
629.029	22.34
629.361	22.64
629.693	22.3
630.025	22.56
630.357	22.79
630.689	22.47
631.021	22.55
631.353	22.8
631.684	22.57
632.016	22.36
632.348	22.59
632.679	22.82
633.011	22.97
633.342	22.99
633.674	22.67
634.005	22.99
634.336	22.89
634.668	23.03
634.999	22.92
635.33	22.92
635.661	22.7
635.992	22.91
636.323	23.37
636.654	23.12
636.985	23.12
637.316	23.37
637.647	23.29
637.977	23.58
638.308	23.21
638.639	22.99
638.969	23.17
639.3	23.38
639.63	23.34
639.961	23.47
640.291	23.72
640.622	23.64
640.952	23.98
641.282	23.13
641.612	23.61
641.943	23.47
642.273	23.55
642.603	23.82
642.933	24.22
643.263	23.85
643.592	23.78
643.922	23.68
644.252	23.8
644.582	24.39
644.911	23.84
645.241	23.6
645.571	23.92
645.9	23.99
646.23	24.1
646.559	24.17
646.888	24.46
647.218	24.09
647.547	24.31
647.876	24.03
648.205	23.73
648.534	24.32
648.863	24.48
649.192	24.35
649.521	24.62
649.85	24.86
650.179	24.03
650.508	23.9
650.837	24.51
651.165	24.45
651.494	24.41
651.822	24.36
652.151	24.2
652.479	24.63
652.808	24.68
653.136	24.41
653.465	24.82
653.793	24.87
654.121	25.21
654.449	24.57
654.777	24.44
655.105	24.66
655.433	24.89
655.761	24.95
656.089	25.28
656.417	25.39
656.745	24.98
657.073	24.65
657.4	25.17
657.728	24.39
658.056	25.29
658.383	25.28
658.711	25.26
659.038	25.09
659.365	25.14
659.693	25.13
660.02	25.24
660.347	24.93
660.674	24.69
661.001	25.24
661.329	25.05
661.656	25.09
661.982	25.38
662.309	25.2
662.636	25.65
662.963	25.91
663.29	25.93
663.616	25.87
663.943	25.8
664.27	25.33
664.596	25.54
664.923	26
665.249	26.53
665.576	26.17
665.902	25.69
666.228	25.97
666.554	26.63
666.881	25.61
667.207	25.61
667.533	26.55
667.859	26.16
668.185	25.85
668.511	26.42
668.837	26.25
669.162	25.97
669.488	25.44
669.814	26.21
670.139	25.93
670.465	26.76
670.791	26.2
671.116	26.27
671.442	26.15
671.767	26.15
672.092	26.89
672.418	26.63
672.743	26.01
673.068	26.94
673.393	26.8
673.718	26.47
674.043	26.78
674.368	26.89
674.693	26.71
675.018	27.07
675.343	26.63
675.667	26.66
675.992	26.97
676.317	26.24
676.641	26.94
676.966	26.7
677.29	26.62
677.615	27.23
