Data from 0011_chest_Reflection__1__333.txt Node

Date: Thu Dec 15 19:16:40 CST 2022
User: ToomeyLab
Spectrometer: FLMS14357
Trigger mode: 0
Integration Time (sec): 1.000000E-2
Scans to average: 100
Electric dark correction enabled: true
Nonlinearity correction enabled: false
Boxcar width: 0
XAxis mode: Wavelengths
Number of Pixels in Spectrum: 2048
>>>>>Begin Spectral Data<<<<<
189.047	-12.56
189.435	-12.56
189.823	-12.56
190.211	-311.08
190.599	194.9
190.987	-39.11
191.375	-25.12
191.763	58.76
192.151	217.55
192.538	156.37
192.926	116.47
193.314	94.52
193.702	268.87
194.089	184.05
194.477	-47.82
194.864	-38.94
195.252	-25.68
195.639	180.27
196.027	36.42
196.414	173.72
196.801	65.27
197.189	147.52
197.576	536.76
197.963	84.95
198.351	17.55
198.738	8.36
199.125	-33.92
199.512	-31.44
199.899	-46.7
200.286	-69.26
200.673	35.99
201.06	2.04
201.447	52.03
201.833	-37.79
202.22	18.11
202.607	10.18
202.994	4.17
203.38	12.04
203.767	15.07
204.154	26.65
204.54	3.21
204.927	-5.02
205.313	51.37
205.699	26.96
206.086	2.54
206.472	12.5
206.858	4.07
207.245	27.34
207.631	14.46
208.017	35.45
208.403	-119.19
208.789	-10.41
209.175	-42.07
209.561	-22.33
209.947	19.78
210.333	14.23
210.719	13.93
211.105	8.68
211.491	-13.11
211.876	-28.47
212.262	33.2
212.648	27.53
213.034	5.16
213.419	-19.17
213.805	-79.4
214.19	-68.2
214.576	-35.81
214.961	9.1
215.346	-46.66
215.732	7.47
216.117	-12.74
216.502	-34.27
216.888	-7.76
217.273	11.6
217.658	-28.52
218.043	-17.5
218.428	-4.08
218.813	-13.5
219.198	-42.58
219.583	-18.2
219.968	3.9
220.353	-18.17
220.738	-4.64
221.122	-14.19
221.507	-9.01
221.892	-35.32
222.276	-44.45
222.661	-15.23
223.046	-4.36
223.43	6.87
223.815	7.88
224.199	-3.47
224.583	8.5
224.968	-9.45
225.352	-12
225.736	7.88
226.121	8.17
226.505	-1.43
226.889	2.57
227.273	-4.12
227.657	5.97
228.041	6.58
228.425	1.53
228.809	2.1
229.193	1.77
229.577	4.91
229.961	4.45
230.344	5.58
230.728	5.96
231.112	4.65
231.495	3.2
231.879	4.82
232.263	5.69
232.646	3.71
233.03	5.84
233.413	6.32
233.797	5.37
234.18	1.76
234.563	5.42
234.946	2.28
235.33	4.76
235.713	5.9
236.096	6.11
236.479	4.54
236.862	2.49
237.245	2.9
237.628	6.6
238.011	5.71
238.394	2.63
238.777	5.8
239.16	6.07
239.543	6.21
239.925	3.82
240.308	2.96
240.691	4.96
241.073	5.23
241.456	3.55
241.838	5.83
242.221	4.13
242.603	4.81
242.986	5.22
243.368	5.7
243.75	5.49
244.133	5.19
244.515	5.27
244.897	5.29
245.279	5.15
245.661	5.04
246.043	4.84
246.425	5.55
246.807	4.95
247.189	3.96
247.571	4.92
247.953	4.74
248.335	4.95
248.717	5.37
249.098	5.24
249.48	5.01
249.862	5.33
250.243	5.02
250.625	5.19
251.006	5.15
251.388	4.18
251.769	4.32
252.151	5.77
252.532	4.79
252.913	4.84
253.295	4.21
253.676	4.82
254.057	4.29
254.438	4.13
254.819	4.79
255.2	5.29
255.581	5.01
255.962	4.17
256.343	4.8
256.724	6.13
257.105	5.75
257.486	5.3
257.867	4.61
258.247	5.05
258.628	5.15
259.009	4.18
259.389	3.76
259.77	4.52
260.15	5.11
260.531	4.46
260.911	4.54
261.292	4.74
261.672	4.68
262.052	4.62
262.432	4.34
262.813	4.91
263.193	4.76
263.573	4.91
263.953	4.35
264.333	4.85
264.713	4.46
265.093	3.79
265.473	3.49
265.853	4.19
266.233	4.93
266.612	3.63
266.992	4.78
267.372	4.18
267.752	4.88
268.131	4.44
268.511	4.66
268.89	5.14
269.27	3.82
269.649	4.5
270.029	4.43
270.408	4.25
270.787	4.08
271.167	4.86
271.546	5.15
271.925	4.26
272.304	4.23
272.683	4.15
273.062	4.47
273.441	4.16
273.82	4.3
274.199	3.85
274.578	4.73
274.957	4.35
275.336	4.7
275.715	4.93
276.093	4.09
276.472	3.61
276.851	4.37
277.229	3.9
277.608	4.38
277.986	4.48
278.365	4.19
278.743	3.92
279.122	3.73
279.5	4.33
279.878	4.08
280.257	4.29
280.635	4.26
281.013	3.95
281.391	4.28
281.769	4.78
282.147	4.24
282.525	3.78
282.903	3.82
283.281	4.64
283.659	4.07
284.037	4.47
284.415	4.22
284.792	4.34
285.17	3.84
285.548	4.57
285.925	4.22
286.303	4.69
286.68	4.24
287.058	4.45
287.435	4.21
287.813	4.4
288.19	4.22
288.567	3.89
288.945	4.26
289.322	4.26
289.699	4.12
290.076	4.23
290.453	4.14
290.83	4.33
291.207	4.48
291.584	4.83
291.961	4.5
292.338	4.29
292.715	4.28
293.092	4.9
293.469	4.39
293.845	4.49
294.222	4.87
294.599	3.98
294.975	4.23
295.352	4.63
295.728	4.37
296.105	4.38
296.481	4.41
296.858	4.72
297.234	4.24
297.61	4.29
297.986	4.79
298.363	4.59
298.739	4.48
299.115	4.43
299.491	4.84
299.867	4.25
300.243	4.03
300.619	4.59
300.995	4.42
301.371	4.62
301.746	4.78
302.122	4.3
302.498	4.26
302.874	4.49
303.249	4.4
303.625	3.87
304	4.63
304.376	4.89
304.751	4.83
305.127	4.13
305.502	4.55
305.878	4.34
306.253	4.03
306.628	4.91
307.003	4.14
307.378	4.44
307.754	4.77
308.129	4.67
308.504	4.64
308.879	4.83
309.254	4.85
309.629	4.46
310.003	4.32
310.378	4.64
310.753	4.48
311.128	4.16
311.502	4.72
311.877	4.43
312.252	4.35
312.626	4.72
313.001	4.59
313.375	4.64
313.75	4.63
314.124	4.71
314.498	5.3
314.873	4.36
315.247	4.52
315.621	4.34
315.995	4.4
316.369	4.29
316.743	4.45
317.117	4.55
317.491	4.5
317.865	4.33
318.239	5.45
318.613	4.21
318.987	3.82
319.361	4.61
319.734	4.28
320.108	4.84
320.482	4.45
320.855	4.31
321.229	4.21
321.602	5.33
321.976	3.87
322.349	4.97
322.723	4.51
323.096	4.65
323.469	4.25
323.843	4.58
324.216	4.86
324.589	4.68
324.962	4.21
325.335	4.44
325.708	4.61
326.081	4.35
326.454	4.95
326.827	4.59
327.2	4.26
327.573	5.07
327.945	3.93
328.318	4.63
328.691	4.69
329.063	4.69
329.436	4.75
329.809	4.86
330.181	5.18
330.553	4.92
330.926	4.95
331.298	4.51
331.671	5.07
332.043	4.57
332.415	4.84
332.787	4.87
333.159	4.54
333.532	4.77
333.904	4.36
334.276	4.57
334.648	4.82
335.02	4.67
335.391	4.63
335.763	4.49
336.135	4.44
336.507	4.39
336.879	4.66
337.25	4.97
337.622	4.46
337.993	4.64
338.365	4.66
338.736	5
339.108	4.75
339.479	4.52
339.851	4.76
340.222	5.04
340.593	4.58
340.964	4.54
341.336	4.51
341.707	4.8
342.078	4.62
342.449	4.92
342.82	4.77
343.191	4.41
343.562	4.8
343.933	4.52
344.303	4.89
344.674	4.82
345.045	4.82
345.416	5.12
345.786	4.81
346.157	4.82
346.527	4.54
346.898	4.78
347.268	5.25
347.639	4.38
348.009	5.22
348.38	4.74
348.75	5.48
349.12	4.73
349.49	4.96
349.861	4.67
350.231	4.53
350.601	4.94
350.971	4.58
351.341	5.09
351.711	4.99
352.081	4.49
352.45	4.47
352.82	4.57
353.19	4.56
353.56	4.7
353.929	5.09
354.299	4.6
354.669	5.34
355.038	5.24
355.408	4.88
355.777	5.18
356.147	4.7
356.516	4.56
356.885	4.99
357.254	4.72
357.624	4.63
357.993	4.88
358.362	5.02
358.731	4.79
359.1	4.86
359.469	5.22
359.838	4.99
360.207	4.76
360.576	5.16
360.945	4.73
361.314	4.87
361.682	4.72
362.051	5.06
362.42	5.04
362.788	4.99
363.157	4.75
363.525	5.1
363.894	4.73
364.262	5.02
364.631	5.06
364.999	4.78
365.367	5.27
365.735	4.8
366.104	5.15
366.472	4.96
366.84	4.65
367.208	5.51
367.576	4.94
367.944	4.95
368.312	4.83
368.68	5.41
369.048	4.84
369.416	4.79
369.783	5.14
370.151	5.4
370.519	5.18
370.886	5.3
371.254	5.36
371.621	5.19
371.989	5.11
372.356	5.2
372.724	5.14
373.091	5.17
373.458	4.87
373.826	5.25
374.193	4.94
374.56	4.91
374.927	5.17
375.294	5.42
375.661	4.77
376.028	5.08
376.395	5.34
376.762	4.84
377.129	4.82
377.496	5.17
377.863	5.05
378.229	5.32
378.596	5.04
378.963	5.15
379.329	5.59
379.696	4.97
380.062	5.28
380.429	5.01
380.795	5.53
381.161	5.1
381.528	5.19
381.894	5.11
382.26	5.28
382.626	5.27
382.993	5.45
383.359	5.26
383.725	5.1
384.091	5.26
384.457	5.08
384.823	5.43
385.188	5.47
385.554	5.3
385.92	4.97
386.286	5.33
386.651	5.18
387.017	5.29
387.383	5
387.748	5.33
388.114	5.22
388.479	5.28
388.845	5.07
389.21	5.55
389.575	5.75
389.94	5.47
390.306	5.21
390.671	5.3
391.036	5.34
391.401	5.47
391.766	5.52
392.131	5.47
392.496	5.33
392.861	5.24
393.226	5.13
393.591	5.52
393.956	5.33
394.32	5.39
394.685	5.4
395.05	5.47
395.414	5.25
395.779	5.47
396.143	5.09
396.508	5.11
396.872	5.47
397.236	5.92
397.601	5.58
397.965	5.52
398.329	5.46
398.694	5.33
399.058	5.34
399.422	5.48
399.786	5.46
400.15	5.49
400.514	5.3
400.878	5.44
401.242	5.5
401.605	5.72
401.969	5.24
402.333	5.39
402.697	5.73
403.06	5.57
403.424	5.4
403.787	5.18
404.151	5.53
404.514	5.5
404.878	5.63
405.241	5.58
405.604	5.37
405.968	5.44
406.331	5.48
406.694	5.53
407.057	5.55
407.42	5.58
407.783	5.48
408.146	5.52
408.509	5.64
408.872	5.41
409.235	5.62
409.598	5.39
409.961	5.48
410.323	5.31
410.686	5.39
411.049	5.51
411.411	5.45
411.774	5.54
412.136	5.56
412.499	5.5
412.861	5.23
413.223	5.21
413.586	5.52
413.948	5.62
414.31	5.44
414.672	5.4
415.035	5.57
415.397	5.42
415.759	5.22
416.121	5.54
416.483	5.52
416.845	5.66
417.206	5.58
417.568	5.53
417.93	5.49
418.292	5.54
418.653	5.34
419.015	5.44
419.377	5.51
419.738	5.54
420.1	5.41
420.461	5.34
420.822	5.59
421.184	5.44
421.545	5.54
421.906	5.48
422.267	5.48
422.629	5.49
422.99	5.48
423.351	5.49
423.712	5.55
424.073	5.5
424.434	5.68
424.795	5.47
425.155	5.48
425.516	5.52
425.877	5.52
426.238	5.44
426.598	5.55
426.959	5.63
427.32	5.49
427.68	5.65
428.041	5.68
428.401	5.65
428.761	5.73
429.122	5.54
429.482	5.63
429.842	5.59
430.202	5.7
430.563	5.57
430.923	5.77
431.283	5.6
431.643	5.93
432.003	5.82
432.363	5.83
432.722	5.77
433.082	5.72
433.442	5.78
433.802	5.67
434.161	5.65
434.521	5.72
434.881	5.75
435.24	5.72
435.6	5.81
435.959	5.69
436.319	5.85
436.678	5.9
437.037	5.77
437.396	5.85
437.756	5.72
438.115	5.83
438.474	5.91
438.833	5.71
439.192	5.79
439.551	5.72
439.91	5.84
440.269	5.83
440.628	5.74
440.987	5.82
441.345	5.79
441.704	5.68
442.063	5.68
442.421	5.81
442.78	5.76
443.138	5.73
443.497	5.71
443.855	5.86
444.214	5.63
444.572	5.89
444.93	5.9
445.288	5.8
445.647	5.68
446.005	5.95
446.363	5.82
446.721	5.8
447.079	5.78
447.437	5.79
447.795	5.88
448.153	5.72
448.51	5.79
448.868	5.84
449.226	5.82
449.584	5.76
449.941	5.74
450.299	5.81
450.656	5.79
451.014	6.02
451.371	5.92
451.729	6.01
452.086	5.91
452.443	6.02
452.801	5.79
453.158	6.01
453.515	5.87
453.872	5.87
454.229	5.87
454.586	5.68
454.943	5.94
455.3	5.95
455.657	6
456.014	6
456.371	5.92
456.727	6.08
457.084	6.32
457.441	6.03
457.797	5.96
458.154	6.1
458.51	5.94
458.867	6.01
459.223	5.97
459.58	6.07
459.936	5.97
460.292	5.9
460.648	6
461.005	5.93
461.361	5.86
461.717	5.85
462.073	6.03
462.429	6.01
462.785	6.05
463.141	6.02
463.496	6.13
463.852	6.1
464.208	6.07
464.564	5.9
464.919	6.04
465.275	6.1
465.631	6.24
465.986	6.22
466.342	5.92
466.697	6.03
467.052	6.19
467.408	6.28
467.763	6.11
468.118	5.98
468.473	6.1
468.829	6.11
469.184	6.13
469.539	5.98
469.894	6.14
470.249	6.1
470.603	6.13
470.958	6.19
471.313	6.26
471.668	6.28
472.023	6.24
472.377	6.22
472.732	6.19
473.086	6.07
473.441	6.39
473.795	6.24
474.15	6.05
474.504	6.15
474.859	6.02
475.213	6.27
475.567	6.17
475.921	6.17
476.275	6.29
476.63	6.18
476.984	6.18
477.338	6.35
477.692	6.22
478.045	6.17
478.399	6.2
478.753	6.26
479.107	6.3
479.461	6.14
479.814	6.19
480.168	6.34
480.521	6.34
480.875	6.31
481.228	6.31
481.582	6.32
481.935	6.31
482.289	6.29
482.642	6.31
482.995	6.22
483.348	6.27
483.701	6.2
484.055	6.25
484.408	6.11
484.761	6.03
485.114	5.98
485.466	5.98
485.819	5.98
486.172	6.05
486.525	6.03
486.878	6.18
487.23	6.13
487.583	6.23
487.936	6.19
488.288	6.19
488.641	6.2
488.993	6.13
489.345	6.08
489.698	6.08
490.05	6.18
490.402	6.14
490.754	6.16
491.107	6.17
491.459	6.33
491.811	6.34
492.163	6.37
492.515	6.25
492.866	6.14
493.218	6.18
493.57	6.2
493.922	6.22
494.274	6.32
494.625	6.42
494.977	6.4
495.328	6.46
495.68	6.38
496.031	6.39
496.383	6.42
496.734	6.47
497.086	6.59
497.437	6.51
497.788	6.58
498.139	6.5
498.49	6.46
498.842	6.58
499.193	6.44
499.544	6.55
499.894	6.5
500.245	6.6
500.596	6.61
500.947	6.66
501.298	6.6
501.648	6.58
501.999	6.68
502.35	6.63
502.7	6.82
503.051	6.69
503.401	6.73
503.752	6.61
504.102	6.59
504.452	6.58
504.803	6.72
505.153	6.79
505.503	6.6
505.853	6.83
506.203	6.73
506.553	6.66
506.903	6.74
507.253	6.79
507.603	6.82
507.953	6.8
508.303	6.74
508.652	6.58
509.002	6.85
509.352	6.91
509.701	6.68
510.051	6.85
510.4	6.86
510.75	6.77
511.099	6.77
511.449	6.82
511.798	6.79
512.147	6.74
512.496	6.81
512.846	6.78
513.195	6.9
513.544	6.91
513.893	6.82
514.242	6.84
514.591	6.89
514.939	6.84
515.288	6.96
515.637	6.91
515.986	6.97
516.334	6.97
516.683	7.05
517.032	6.92
517.38	6.95
517.729	7.01
518.077	6.9
518.426	6.96
518.774	7.07
519.122	7.02
519.47	7.03
519.819	6.94
520.167	6.97
520.515	7.01
520.863	6.9
521.211	6.95
521.559	7.05
521.907	7.02
522.255	7
522.602	7.13
522.95	7.1
523.298	7.23
523.645	7.11
523.993	7.21
524.341	7.16
524.688	7.12
525.036	7.21
525.383	7.11
525.73	7.16
526.078	7.33
526.425	7.2
526.772	7.27
527.119	7.19
527.466	7.23
527.814	7.2
528.161	7.18
528.508	7.23
528.854	7.07
529.201	7.17
529.548	7.19
529.895	7.02
530.242	7.02
530.588	7.04
530.935	7.02
531.282	7.04
531.628	7.15
531.975	7.18
532.321	7.21
532.667	7.35
533.014	7.32
533.36	7.41
533.706	7.45
534.052	7.42
534.399	7.35
534.745	7.31
535.091	7.23
535.437	7.32
535.783	7.38
536.129	7.27
536.474	7.45
536.82	7.53
537.166	7.43
537.512	7.43
537.857	7.58
538.203	7.58
538.549	7.51
538.894	7.58
539.239	7.57
539.585	7.68
539.93	7.68
540.276	7.67
540.621	7.71
540.966	7.68
541.311	7.81
541.656	7.66
542.001	7.7
542.346	7.63
542.691	7.57
543.036	7.58
543.381	7.63
543.726	7.7
544.071	7.69
544.415	7.67
544.76	7.71
545.105	7.68
545.449	7.8
545.794	7.87
546.138	7.9
546.483	7.99
546.827	7.98
547.171	7.97
547.516	8.05
547.86	8.07
548.204	8.06
548.548	8.09
548.892	8.05
549.236	8.17
549.58	8.19
549.924	8.29
550.268	8.28
550.612	8.32
550.956	8.42
551.3	8.48
551.643	8.29
551.987	8.55
552.33	8.52
552.674	8.27
553.017	8.49
553.361	8.45
553.704	8.54
554.048	8.4
554.391	8.56
554.734	8.31
555.077	8.48
555.42	8.56
555.764	8.54
556.107	8.75
556.45	8.61
556.793	8.66
557.135	8.79
557.478	8.57
557.821	8.71
558.164	8.86
558.507	8.75
558.849	8.94
559.192	8.92
559.534	8.68
559.877	8.87
560.219	8.85
560.562	8.72
560.904	8.99
561.246	8.79
561.589	9.21
561.931	9.14
562.273	9.08
562.615	9.14
562.957	9.11
563.299	9.04
563.641	8.99
563.983	8.93
564.325	9.15
564.667	9.23
565.008	9.08
565.35	9.12
565.692	9.25
566.033	9.15
566.375	9.2
566.716	9.01
567.058	9.15
567.399	9.34
567.741	9.32
568.082	9.32
568.423	9.2
568.764	9.22
569.105	9.35
569.447	9.26
569.788	9.38
570.129	9.44
570.47	9.62
570.811	9.42
571.151	9.61
571.492	9.54
571.833	9.54
572.174	9.76
572.514	9.92
572.855	9.83
573.195	9.68
573.536	9.86
573.876	9.82
574.217	9.65
574.557	9.64
574.898	9.87
575.238	9.86
575.578	9.83
575.918	9.96
576.258	10.06
576.598	9.9
576.938	9.83
577.278	10.01
577.618	10.07
577.958	10.09
578.298	10.09
578.638	9.96
578.977	10.06
579.317	10.06
579.657	10.26
579.996	10.31
580.336	10.38
580.675	10.19
581.014	10.56
581.354	10.18
581.693	10.5
582.032	10.63
582.372	10.43
582.711	10.59
583.05	10.52
583.389	10.66
583.728	10.61
584.067	10.46
584.406	10.71
584.745	10.67
585.083	10.72
585.422	10.74
585.761	10.71
586.1	10.97
586.438	10.69
586.777	10.89
587.115	11.06
587.454	10.77
587.792	10.81
588.13	11.09
588.469	10.95
588.807	11.28
589.145	10.98
589.483	10.96
589.821	11.09
590.159	11.17
590.497	11.22
590.835	11.25
591.173	11.22
591.511	11.55
591.849	11.2
592.187	11.18
592.524	11.4
592.862	11.15
593.2	11.71
593.537	11.51
593.875	11.47
594.212	11.37
594.55	11.4
594.887	11.59
595.224	11.64
595.561	11.61
595.899	11.72
596.236	11.9
596.573	11.77
596.91	11.69
597.247	11.88
597.584	11.95
597.921	11.94
598.258	12.09
598.594	11.77
598.931	11.55
599.268	11.7
599.604	11.99
599.941	12.14
600.277	12.06
600.614	12.04
600.95	12.08
601.287	11.83
601.623	11.99
601.959	12.55
602.296	12.38
602.632	12.22
602.968	12.36
603.304	12.6
603.64	12.48
603.976	12.35
604.312	12.35
604.648	12.4
604.984	12.52
605.319	12.59
605.655	12.53
605.991	12.51
606.326	12.51
606.662	12.46
606.998	12.68
607.333	12.59
607.668	12.52
608.004	12.57
608.339	12.85
608.674	12.96
609.01	13.03
609.345	13.11
609.68	12.85
610.015	13.21
610.35	13.14
610.685	12.94
611.02	13.18
611.355	13.27
611.689	13.21
612.024	13.21
612.359	13.3
612.694	13.38
613.028	13.21
613.363	13.33
613.697	13.17
614.032	13.17
614.366	13.5
614.7	13.4
615.035	13.52
615.369	13.81
615.703	13.29
616.037	13.43
616.371	13.48
616.705	13.83
617.039	13.46
617.373	13.97
617.707	13.7
618.041	13.5
618.375	13.08
618.709	13.88
619.042	13.9
619.376	13.59
619.71	13.82
620.043	14.15
620.377	13.74
620.71	14.04
621.043	13.58
621.377	14.18
621.71	14.48
622.043	14.33
622.376	14.07
622.709	14.51
623.043	14.35
623.376	14.27
623.709	14.59
624.041	14.56
624.374	14.18
624.707	14.67
625.04	14.33
625.373	14.36
625.705	14.58
626.038	14.61
626.37	14.4
626.703	14.67
627.035	14.54
627.368	14.93
627.7	14.54
628.032	14.76
628.365	14.81
628.697	15.1
629.029	14.78
629.361	15.08
629.693	14.85
630.025	14.89
630.357	14.97
630.689	15.22
631.021	15.12
631.353	15.05
631.684	15.24
632.016	14.66
632.348	15.19
632.679	15.13
633.011	15.23
633.342	15.43
633.674	14.99
634.005	15.19
634.336	15.61
634.668	15.33
634.999	15.27
635.33	15.75
635.661	15.33
635.992	15.7
636.323	15.59
636.654	15.76
636.985	15.59
637.316	15.65
637.647	16.01
637.977	15.53
638.308	16.1
638.639	15.8
638.969	15.77
639.3	16.02
639.63	15.69
639.961	15.58
640.291	16.16
640.622	16.15
640.952	16.33
641.282	15.65
641.612	15.84
641.943	15.98
642.273	15.81
642.603	16.63
642.933	16.84
643.263	16.74
643.592	16.64
643.922	16.92
644.252	16.59
644.582	16.99
644.911	16.57
645.241	16.2
645.571	16.55
645.9	16.83
646.23	17.29
646.559	16.05
646.888	16.69
647.218	17.06
647.547	16.73
647.876	16.82
648.205	16.69
648.534	17.1
648.863	16.91
649.192	17.12
649.521	17.42
649.85	17.31
650.179	17.13
650.508	16.99
650.837	17.41
651.165	17.06
651.494	17.35
651.822	17.17
652.151	17.26
652.479	17.53
652.808	17.11
653.136	17
653.465	17.27
653.793	17.19
654.121	17.35
654.449	17.19
654.777	17.44
655.105	16.88
655.433	17.69
655.761	17.59
656.089	17.82
656.417	18.06
656.745	18.11
657.073	17.47
657.4	18.26
657.728	17.64
658.056	18.39
658.383	17.69
658.711	18.37
659.038	18.52
659.365	18.36
659.693	18.01
660.02	17.85
660.347	18.15
660.674	18.13
661.001	18.29
661.329	18.04
661.656	17.91
661.982	18.06
662.309	18.3
662.636	18.44
662.963	18.49
663.29	18.51
663.616	18.22
663.943	18.83
664.27	18.46
664.596	18.37
664.923	18.65
665.249	18.55
665.576	18.64
665.902	18.82
666.228	19.46
666.554	18.92
666.881	18.37
667.207	19.02
667.533	19.18
667.859	18.86
668.185	18.2
668.511	19.8
668.837	19.59
669.162	18.57
669.488	18.6
669.814	19.64
670.139	18.58
670.465	19.48
670.791	18.68
671.116	19.38
671.442	18.61
671.767	19.17
672.092	19.18
672.418	19.25
672.743	18.4
673.068	19.45
673.393	19.74
673.718	19.5
674.043	19.41
674.368	19.59
674.693	19.67
675.018	20.28
675.343	20.09
675.667	19.68
675.992	19.53
676.317	18.89
676.641	20.09
676.966	20.27
677.29	19.24
677.615	18.88
677.939	19.97
678.264	19.57
678.588	20.36
678.912	20.2
679.236	19.74
679.56	19.86
679.885	19.66
680.209	20.47
680.532	20.39
680.856	20.44
681.18	20.92
681.504	20.04
681.828	20.03
682.152	19.87
682.475	20.42
682.799	20.73
683.122	20.69
683.446	20.27
683.769	20.58
684.093	20.59
684.416	20.48
