Data from 0011_crown_Reflection__4__341.txt Node

Date: Thu Dec 15 19:18:42 CST 2022
User: ToomeyLab
Spectrometer: FLMS14357
Trigger mode: 0
Integration Time (sec): 1.000000E-2
Scans to average: 100
Electric dark correction enabled: true
Nonlinearity correction enabled: false
Boxcar width: 0
XAxis mode: Wavelengths
Number of Pixels in Spectrum: 2048
>>>>>Begin Spectral Data<<<<<
189.047	11.65
189.435	11.65
189.823	11.65
190.211	-382.28
190.599	93.76
190.987	-30.21
191.375	-39.26
191.763	96.32
192.151	38.61
192.538	328.1
192.926	188.29
193.314	102.56
193.702	-16.52
194.089	-6.6
194.477	-81.93
194.864	29.14
195.252	11.5
195.639	269.1
196.027	-20.09
196.414	66.78
196.801	-150.68
197.189	59.35
197.576	-16.32
197.963	-36.33
198.351	22.22
198.738	33.66
199.125	-87.83
199.512	57.64
199.899	-55.22
200.286	-38.85
200.673	22.86
201.06	-58.38
201.447	-34.89
201.833	-53.04
202.22	5.98
202.607	-26.26
202.994	-33.56
203.38	-24.44
203.767	12
204.154	44.28
204.54	-33.82
204.927	-67.11
205.313	13.65
205.699	-8.01
206.086	14.11
206.472	-11.34
206.858	-24.59
207.245	-21.28
207.631	5.35
208.017	41.34
208.403	-93.74
208.789	-0.93
209.175	-33.39
209.561	-136.95
209.947	-39.07
210.333	-26.1
210.719	12.67
211.105	26.13
211.491	-49.76
211.876	-27.88
212.262	-29.04
212.648	8.75
213.034	-27.97
213.419	-5.26
213.805	-25.65
214.19	-80.05
214.576	-77.36
214.961	14.96
215.346	-33.85
215.732	-27.08
216.117	-5.34
216.502	-23.17
216.888	-0.4
217.273	-15.39
217.658	-42.3
218.043	-47.76
218.428	-38.48
218.813	10.61
219.198	-96.33
219.583	-26.76
219.968	9.04
220.353	-24.95
220.738	-26.67
221.122	-11.66
221.507	-40.63
221.892	-40.88
222.276	-46.35
222.661	-43.33
223.046	-18.31
223.43	12.52
223.815	-13.21
224.199	-12.89
224.583	0.11
224.968	-14.41
225.352	-16.67
225.736	-0.15
226.121	-2.1
226.505	-12.96
226.889	3.84
227.273	-5.49
227.657	5.06
228.041	1.13
228.425	-0.94
228.809	1.5
229.193	3.35
229.577	2.97
229.961	3.01
230.344	4.95
230.728	3.85
231.112	3.64
231.495	2.59
231.879	3.28
232.263	3.9
232.646	3.38
233.03	3.6
233.413	2.8
233.797	1.97
234.18	0.94
234.563	2.65
234.946	4.22
235.33	5
235.713	3.91
236.096	4.39
236.479	4.59
236.862	1.94
237.245	2.29
237.628	3.46
238.011	3.22
238.394	3.22
238.777	3.26
239.16	5.17
239.543	6.28
239.925	1.63
240.308	2.59
240.691	3.69
241.073	2.85
241.456	3.51
241.838	2.69
242.221	4.54
242.603	4.68
242.986	4.36
243.368	4.22
243.75	4.52
244.133	4.33
244.515	3.83
244.897	3.58
245.279	3.27
245.661	2.91
246.043	4.02
246.425	4.5
246.807	3.9
247.189	4.04
247.571	4.15
247.953	3.98
248.335	4.18
248.717	4.15
249.098	4.07
249.48	4.14
249.862	4.02
250.243	3.79
250.625	3.87
251.006	4.29
251.388	3.29
251.769	3.61
252.151	4.96
252.532	2.89
252.913	3.98
253.295	3.29
253.676	4.01
254.057	3.63
254.438	3.06
254.819	4.1
255.2	3.72
255.581	4.61
255.962	4.24
256.343	3.6
256.724	4.35
257.105	3.39
257.486	2.71
257.867	3.88
258.247	2.91
258.628	4.21
259.009	2.94
259.389	2.95
259.77	3.5
260.15	4.2
260.531	3.88
260.911	3.81
261.292	3.81
261.672	3.95
262.052	3.86
262.432	3.69
262.813	3.62
263.193	4.4
263.573	3.69
263.953	3.98
264.333	3.87
264.713	4.15
265.093	3.62
265.473	3.26
265.853	3.03
266.233	3.05
266.612	3.34
266.992	3.38
267.372	3.85
267.752	4.65
268.131	3.76
268.511	3
268.89	3.63
269.27	3.37
269.649	3.28
270.029	3.35
270.408	3.6
270.787	3.97
271.167	3.75
271.546	4.28
271.925	3.84
272.304	3.56
272.683	3.65
273.062	3.66
273.441	3.54
273.82	3.87
274.199	3.53
274.578	3.83
274.957	3.29
275.336	3.91
275.715	3.99
276.093	3.17
276.472	3.35
276.851	3.95
277.229	3.54
277.608	3.38
277.986	3.59
278.365	3.42
278.743	3.01
279.122	3.34
279.5	3.05
279.878	2.74
280.257	3.37
280.635	4.1
281.013	2.96
281.391	3.56
281.769	4.39
282.147	3.78
282.525	3.53
282.903	3.21
283.281	3.77
283.659	3.94
284.037	3.73
284.415	3.38
284.792	3.31
285.17	3.24
285.548	3.55
285.925	3.15
286.303	3.79
286.68	3.42
287.058	3.71
287.435	3.5
287.813	3.74
288.19	3.69
288.567	3.58
288.945	3.17
289.322	3.72
289.699	3.61
290.076	3.36
290.453	3.16
290.83	3.58
291.207	3.6
291.584	3.98
291.961	3.63
292.338	3.4
292.715	3.14
293.092	3.93
293.469	3.6
293.845	3.99
294.222	4.16
294.599	3.18
294.975	3.06
295.352	2.99
295.728	3.41
296.105	3.5
296.481	3.64
296.858	3.68
297.234	2.79
297.61	3.67
297.986	4.04
298.363	3.9
298.739	3.78
299.115	3.8
299.491	3.77
299.867	3.44
300.243	3.88
300.619	3.05
300.995	3.4
301.371	3.99
301.746	3.69
302.122	3.61
302.498	3.16
302.874	3.6
303.249	3.41
303.625	3.25
304	3.36
304.376	3.98
304.751	3.35
305.127	3.36
305.502	3.93
305.878	3.28
306.253	3.34
306.628	3.87
307.003	3.28
307.378	3.34
307.754	3.58
308.129	2.98
308.504	3.68
308.879	3.04
309.254	3.73
309.629	3.79
310.003	3.1
310.378	4.05
310.753	3.73
311.128	3.64
311.502	3.95
311.877	3.61
312.252	3.78
312.626	3.97
313.001	3.78
313.375	3.47
313.75	3.63
314.124	3.94
314.498	3.98
314.873	3.39
315.247	3.47
315.621	3.32
315.995	3.11
316.369	3.05
316.743	3.54
317.117	2.93
317.491	4.01
317.865	2.86
318.239	3.93
318.613	4
318.987	3.2
319.361	3.55
319.734	3.23
320.108	3.55
320.482	3.76
320.855	3.8
321.229	3.25
321.602	3.43
321.976	3.34
322.349	4.42
322.723	3.81
323.096	3.81
323.469	3.18
323.843	2.83
324.216	3.75
324.589	3.59
324.962	3.51
325.335	3.31
325.708	3.8
326.081	3.81
326.454	3.72
326.827	3.7
327.2	3.09
327.573	3.86
327.945	3.34
328.318	3.5
328.691	3.73
329.063	2.78
329.436	3.07
329.809	3.91
330.181	4.34
330.553	3.72
330.926	3.81
331.298	3.28
331.671	3.5
332.043	3.81
332.415	3.56
332.787	3.92
333.159	3.53
333.532	3.77
333.904	3.94
334.276	3.56
334.648	3.87
335.02	3.58
335.391	2.94
335.763	4.09
336.135	3.78
336.507	3.63
336.879	3.71
337.25	3.42
337.622	3.86
337.993	3.65
338.365	3.57
338.736	4.05
339.108	3.66
339.479	3.52
339.851	3.63
340.222	3.96
340.593	3.69
340.964	3.77
341.336	3.33
341.707	3.62
342.078	3.62
342.449	3.64
342.82	3.68
343.191	3.6
343.562	3.55
343.933	3.38
344.303	3.8
344.674	3.43
345.045	3.95
345.416	3.98
345.786	3.52
346.157	3.73
346.527	3.68
346.898	3.27
347.268	3.79
347.639	3.59
348.009	3.96
348.38	3.91
348.75	3.52
349.12	3.65
349.49	3.86
349.861	3.32
350.231	3.42
350.601	3.97
350.971	3.18
351.341	3.67
351.711	3.56
352.081	3.26
352.45	3.54
352.82	3.28
353.19	3.32
353.56	3.24
353.929	3.87
354.299	4.06
354.669	3.8
355.038	3.92
355.408	3.8
355.777	3.78
356.147	3.66
356.516	3.75
356.885	3.66
357.254	3.68
357.624	3.22
357.993	3.68
358.362	3.62
358.731	3.77
359.1	3.81
359.469	3.91
359.838	4.07
360.207	3.91
360.576	3.79
360.945	3.92
361.314	3.7
361.682	3.61
362.051	3.61
362.42	3.89
362.788	3.77
363.157	3.57
363.525	4.05
363.894	3.88
364.262	3.74
364.631	4.18
364.999	3.78
365.367	3.59
365.735	3.64
366.104	3.75
366.472	3.76
366.84	3.53
367.208	4.08
367.576	3.56
367.944	3.89
368.312	3.98
368.68	4.35
369.048	3.67
369.416	3.62
369.783	4
370.151	4
370.519	4.31
370.886	3.83
371.254	4.23
371.621	4.31
371.989	3.67
372.356	3.61
372.724	3.79
373.091	3.75
373.458	3.64
373.826	4.11
374.193	3.88
374.56	4.2
374.927	3.49
375.294	4.1
375.661	3.92
376.028	3.7
376.395	3.79
376.762	3.47
377.129	3.65
377.496	3.82
377.863	3.61
378.229	4.25
378.596	4.17
378.963	3.87
379.329	4.07
379.696	3.79
380.062	4.07
380.429	3.38
380.795	4.07
381.161	3.74
381.528	3.94
381.894	4.03
382.26	3.98
382.626	3.91
382.993	4.36
383.359	3.59
383.725	3.92
384.091	4.13
384.457	3.99
384.823	3.87
385.188	4.1
385.554	3.97
385.92	4.15
386.286	3.88
386.651	3.9
387.017	4.26
387.383	3.86
387.748	4.15
388.114	4.09
388.479	4.03
388.845	3.72
389.21	4.4
389.575	4.3
389.94	4.16
390.306	4.29
390.671	4.2
391.036	4.24
391.401	4.13
391.766	3.98
392.131	4.3
392.496	3.88
392.861	3.93
393.226	3.77
393.591	4.21
393.956	4.12
394.32	4.34
394.685	4.17
395.05	4.2
395.414	4.06
395.779	4.35
396.143	3.96
396.508	4.19
396.872	4.22
397.236	4.58
397.601	4.31
397.965	4.07
398.329	4.33
398.694	4.13
399.058	4.08
399.422	3.93
399.786	4.08
400.15	4.2
400.514	4.35
400.878	4.15
401.242	4.44
401.605	4.27
401.969	4.3
402.333	3.99
402.697	4.35
403.06	4.3
403.424	4.29
403.787	4.3
404.151	4.46
404.514	4.18
404.878	4.13
405.241	4.23
405.604	4.28
405.968	4.24
406.331	4.51
406.694	4.42
407.057	4.12
407.42	4.26
407.783	4.23
408.146	4.19
408.509	4.37
408.872	4.23
409.235	4.4
409.598	4.11
409.961	4.51
410.323	4.04
410.686	4.24
411.049	4.48
411.411	4.26
411.774	4.31
412.136	4.17
412.499	4.47
412.861	4.1
413.223	4.18
413.586	4.36
413.948	4.56
414.31	4.53
414.672	4.33
415.035	4.46
415.397	4.36
415.759	4.16
416.121	4.53
416.483	4.2
416.845	4.34
417.206	4.31
417.568	4.47
417.93	4.42
418.292	4.33
418.653	4.25
419.015	4.33
419.377	4.28
419.738	4.38
420.1	4.36
420.461	4.3
420.822	4.47
421.184	4.41
421.545	4.36
421.906	4.29
422.267	4.3
422.629	4.31
422.99	4.3
423.351	4.35
423.712	4.45
424.073	4.44
424.434	4.46
424.795	4.37
425.155	4.36
425.516	4.36
425.877	4.36
426.238	4.37
426.598	4.44
426.959	4.5
427.32	4.44
427.68	4.5
428.041	4.56
428.401	4.3
428.761	4.73
429.122	4.5
429.482	4.38
429.842	4.47
430.202	4.67
430.563	4.58
430.923	4.57
431.283	4.62
431.643	4.64
432.003	4.59
432.363	4.68
432.722	4.48
433.082	4.48
433.442	4.83
433.802	4.47
434.161	4.42
434.521	4.6
434.881	4.59
435.24	4.52
435.6	4.6
435.959	4.47
436.319	4.52
436.678	4.71
437.037	4.69
437.396	4.82
437.756	4.58
438.115	4.66
438.474	4.79
438.833	4.63
439.192	4.61
439.551	4.57
439.91	4.63
440.269	4.63
440.628	4.61
440.987	4.67
441.345	4.62
441.704	4.68
442.063	4.47
442.421	4.61
442.78	4.64
443.138	4.73
443.497	4.67
443.855	4.76
444.214	4.49
444.572	4.89
444.93	4.77
445.288	4.62
445.647	4.53
446.005	4.76
446.363	4.79
446.721	4.67
447.079	4.66
447.437	4.69
447.795	4.7
448.153	4.65
448.51	4.62
448.868	4.67
449.226	4.74
449.584	4.75
449.941	4.77
450.299	4.68
450.656	4.66
451.014	4.81
451.371	4.93
451.729	4.81
452.086	4.81
452.443	4.98
452.801	4.79
453.158	5.03
453.515	4.87
453.872	4.7
454.229	4.6
454.586	4.65
454.943	4.89
455.3	4.88
455.657	4.79
456.014	4.83
456.371	4.95
456.727	5.04
457.084	5.01
457.441	4.87
457.797	4.86
458.154	4.91
458.51	4.97
458.867	5.05
459.223	4.84
459.58	4.99
459.936	4.87
460.292	4.81
460.648	4.8
461.005	4.95
461.361	4.83
461.717	4.84
462.073	4.94
462.429	5.03
462.785	5.09
463.141	5.06
463.496	4.91
463.852	5.06
464.208	4.93
464.564	4.99
464.919	4.88
465.275	5
465.631	5.17
465.986	4.95
466.342	5.04
466.697	4.76
467.052	5.08
467.408	5.09
467.763	4.96
468.118	4.9
468.473	5.05
468.829	4.97
469.184	5.19
469.539	4.93
469.894	5.2
470.249	5.14
470.603	5.18
470.958	5.15
471.313	5.17
471.668	5.11
472.023	5.18
472.377	5.05
472.732	5.19
473.086	5.06
473.441	5.27
473.795	5.35
474.15	5.12
474.504	5.2
474.859	4.97
475.213	5.2
475.567	4.99
475.921	5.32
476.275	5.28
476.63	5.13
476.984	4.98
477.338	5.23
477.692	5.12
478.045	5.16
478.399	5.19
478.753	5.17
479.107	5.21
479.461	5.04
479.814	5.29
480.168	5.11
480.521	5.34
480.875	5.12
481.228	5.25
481.582	5.28
481.935	5.29
482.289	5.16
482.642	5.3
482.995	5.18
483.348	5.11
483.701	5.2
484.055	5.12
484.408	5.08
484.761	5.07
485.114	4.92
485.466	4.9
485.819	4.96
486.172	5
486.525	5.02
486.878	5.08
487.23	5.1
487.583	5.15
487.936	5.12
488.288	5.18
488.641	5.04
488.993	5.05
489.345	5.03
489.698	5.01
490.05	5.13
490.402	5.12
490.754	5.14
491.107	5.24
491.459	5.29
491.811	5.24
492.163	5.21
492.515	5.16
492.866	5.12
493.218	5.17
493.57	5.17
493.922	5.18
494.274	5.36
494.625	5.32
494.977	5.28
495.328	5.4
495.68	5.34
496.031	5.36
496.383	5.29
496.734	5.42
497.086	5.41
497.437	5.43
497.788	5.49
498.139	5.33
498.49	5.48
498.842	5.43
499.193	5.36
499.544	5.61
499.894	5.42
500.245	5.43
500.596	5.49
500.947	5.42
501.298	5.53
501.648	5.42
501.999	5.58
502.35	5.39
502.7	5.71
503.051	5.44
503.401	5.64
503.752	5.51
504.102	5.45
504.452	5.48
504.803	5.37
505.153	5.58
505.503	5.59
505.853	5.65
506.203	5.58
506.553	5.65
506.903	5.56
507.253	5.62
507.603	5.66
507.953	5.58
508.303	5.63
508.652	5.53
509.002	5.59
509.352	5.59
509.701	5.45
510.051	5.73
510.4	5.63
510.75	5.63
511.099	5.5
511.449	5.69
511.798	5.67
512.147	5.58
512.496	5.62
512.846	5.57
513.195	5.66
513.544	5.76
513.893	5.7
514.242	5.59
514.591	5.58
514.939	5.77
515.288	5.68
515.637	5.68
515.986	5.67
516.334	5.79
516.683	5.73
517.032	5.75
517.38	5.65
517.729	5.64
518.077	5.81
518.426	5.84
518.774	5.71
519.122	5.77
519.47	5.64
519.819	5.7
520.167	5.71
520.515	5.69
520.863	5.69
521.211	5.73
521.559	5.71
521.907	5.78
522.255	5.86
522.602	5.76
522.95	5.86
523.298	5.92
523.645	5.76
523.993	5.78
524.341	5.96
524.688	5.83
525.036	5.91
525.383	5.96
525.73	5.72
526.078	6.01
526.425	5.83
526.772	5.75
527.119	5.78
527.466	5.81
527.814	5.84
528.161	5.81
528.508	5.87
528.854	5.78
529.201	5.74
529.548	5.74
529.895	5.69
530.242	5.62
530.588	5.64
530.935	5.68
531.282	5.7
531.628	5.77
531.975	5.78
532.321	5.85
532.667	5.94
533.014	5.94
533.36	5.87
533.706	5.84
534.052	5.87
534.399	5.83
534.745	5.78
535.091	5.77
535.437	5.82
535.783	5.84
536.129	5.88
536.474	5.9
536.82	6.05
537.166	6.02
537.512	5.94
537.857	5.93
538.203	5.94
538.549	5.87
538.894	5.96
539.239	6
539.585	6.14
539.93	6
540.276	6.07
540.621	6.2
540.966	6.09
541.311	6.04
541.656	6.09
542.001	6.02
542.346	5.99
542.691	5.95
543.036	5.9
543.381	5.88
543.726	6
544.071	5.95
544.415	5.97
544.76	6.02
545.105	6.02
545.449	6.1
545.794	6.03
546.138	6.11
546.483	6.2
546.827	6.15
547.171	6.26
547.516	6.31
547.86	6.21
548.204	6.19
548.548	6.04
548.892	6.21
549.236	6.17
549.58	6.14
549.924	6.35
550.268	6.36
550.612	6.43
550.956	6.42
551.3	6.52
551.643	6.33
551.987	6.45
552.33	6.56
552.674	6.33
553.017	6.46
553.361	6.47
553.704	6.42
554.048	6.37
554.391	6.34
554.734	6.13
555.077	6.42
555.42	6.4
555.764	6.38
556.107	6.54
556.45	6.41
556.793	6.5
557.135	6.48
557.478	6.5
557.821	6.52
558.164	6.56
558.507	6.47
558.849	6.66
559.192	6.55
559.534	6.55
559.877	6.48
560.219	6.65
560.562	6.48
560.904	6.75
561.246	6.48
561.589	6.78
561.931	6.57
562.273	6.5
562.615	6.58
562.957	6.6
563.299	6.73
563.641	6.65
563.983	6.43
564.325	6.56
564.667	6.51
565.008	6.62
565.35	6.63
565.692	6.62
566.033	6.71
566.375	6.79
566.716	6.62
567.058	6.64
567.399	6.67
567.741	6.78
568.082	6.57
568.423	6.61
568.764	6.59
569.105	6.76
569.447	6.65
569.788	6.68
570.129	6.68
570.47	6.59
570.811	6.82
571.151	6.84
571.492	6.8
571.833	6.74
572.174	6.86
572.514	6.88
572.855	6.93
573.195	6.62
573.536	6.78
573.876	6.68
574.217	6.83
574.557	6.73
574.898	6.78
575.238	6.77
575.578	6.99
575.918	6.88
576.258	6.95
576.598	6.69
576.938	6.82
577.278	6.87
577.618	6.8
577.958	6.9
578.298	6.75
578.638	6.85
578.977	6.92
579.317	6.92
579.657	6.93
579.996	7.04
580.336	7.01
580.675	6.99
581.014	7.11
581.354	7
581.693	7.14
582.032	7.13
582.372	6.93
582.711	6.98
583.05	7.01
583.389	7.01
583.728	7.19
584.067	6.88
584.406	7.04
584.745	6.96
585.083	7.13
585.422	7.14
585.761	7.16
586.1	7.13
586.438	6.91
586.777	7.04
587.115	7.04
587.454	7.11
587.792	7.08
588.13	7.03
588.469	7.07
588.807	7.25
589.145	7.14
589.483	7.01
589.821	6.99
590.159	7.01
590.497	7.22
590.835	7.17
591.173	7.26
591.511	7.2
591.849	7.28
592.187	7.12
592.524	7.34
592.862	7.33
593.2	7.26
593.537	7.11
593.875	7.06
594.212	7.41
594.55	7.41
594.887	7.37
595.224	7.28
595.561	7.41
595.899	7.31
596.236	7.56
596.573	7.22
596.91	7.22
597.247	7.57
597.584	7.43
597.921	7.45
598.258	7.5
598.594	7.3
598.931	7.23
599.268	7.11
599.604	7.37
599.941	7.38
600.277	7.39
600.614	7.47
600.95	7.31
601.287	7.19
601.623	7.08
601.959	7.68
602.296	7.65
602.632	7.42
602.968	7.35
603.304	7.38
603.64	7.49
603.976	7.39
604.312	7.43
604.648	7.46
604.984	7.59
605.319	7.55
605.655	7.43
605.991	7.35
606.326	7.4
606.662	7.28
606.998	7.71
607.333	7.43
607.668	7.46
608.004	7.51
608.339	7.33
608.674	7.78
609.01	7.85
609.345	7.63
609.68	7.69
610.015	7.63
610.35	7.48
610.685	7.42
611.02	7.45
611.355	7.48
611.689	7.47
612.024	7.54
612.359	7.52
612.694	7.74
613.028	7.59
613.363	7.63
613.697	7.53
614.032	7.8
614.366	7.47
614.7	7.99
615.035	7.85
615.369	7.95
615.703	7.59
616.037	7.69
616.371	7.58
616.705	7.77
617.039	7.93
617.373	8.21
617.707	7.87
618.041	7.81
618.375	7.11
618.709	7.59
619.042	7.78
619.376	7.84
619.71	7.76
620.043	8.22
620.377	7.87
620.71	7.8
621.043	7.99
621.377	8.18
621.71	8.37
622.043	7.75
622.376	7.95
622.709	8.49
623.043	8.13
623.376	7.79
623.709	8.35
624.041	7.63
624.374	8.11
624.707	7.98
625.04	8.1
625.373	8.18
625.705	8.04
626.038	7.91
626.37	7.94
626.703	7.96
627.035	8.11
627.368	8.06
627.7	8.08
628.032	7.88
628.365	8.17
628.697	8.35
629.029	7.93
629.361	8.28
629.693	8.09
630.025	8.23
630.357	8.23
630.689	8.16
631.021	8.11
631.353	8.13
631.684	7.94
632.016	7.89
632.348	8.1
632.679	8.13
633.011	8.13
633.342	8.3
633.674	7.95
634.005	8.16
634.336	8.37
634.668	8.28
634.999	8.04
635.33	8.32
635.661	8.36
635.992	7.98
636.323	8.19
636.654	8.25
636.985	8.22
637.316	8.23
637.647	8.32
637.977	8.31
638.308	8.64
638.639	8.38
638.969	8.24
639.3	8.36
639.63	8.48
639.961	8.42
640.291	7.83
640.622	8.48
640.952	8.83
641.282	7.94
641.612	8.45
641.943	8.05
642.273	8.57
642.603	8.53
642.933	8.56
643.263	8.58
643.592	8.35
643.922	8.69
644.252	8.22
644.582	8.53
644.911	8.29
645.241	8.43
645.571	8.76
645.9	8.42
646.23	8.95
646.559	8.12
646.888	8.94
647.218	8.66
647.547	8.42
647.876	8.36
648.205	8.22
648.534	8.47
648.863	8.19
649.192	8.32
649.521	8.47
649.85	8.57
650.179	8.76
650.508	8.66
650.837	8.78
651.165	8.8
651.494	8.7
651.822	8.99
652.151	8.24
652.479	8.72
652.808	8.94
653.136	8.47
653.465	8.42
653.793	8.79
654.121	8.88
654.449	8.59
654.777	8.22
655.105	8.44
655.433	9.18
655.761	8.71
656.089	8.85
656.417	9.13
656.745	9.42
657.073	8.66
657.4	8.65
657.728	8.75
658.056	8.82
658.383	9.14
658.711	8.73
659.038	9.27
659.365	8.93
659.693	8.86
660.02	8.66
660.347	8.44
660.674	8.74
661.001	9.05
661.329	8.79
661.656	8.67
661.982	8.63
662.309	8.86
662.636	8.81
662.963	8.83
663.29	9.41
663.616	8.77
663.943	8.91
664.27	8.93
664.596	8.52
664.923	9.28
665.249	9.34
665.576	9.32
665.902	8.69
666.228	9.36
666.554	9.75
666.881	9.12
667.207	9
667.533	8.86
667.859	9.08
668.185	8.91
668.511	9.36
668.837	9.08
669.162	9.3
669.488	8.66
669.814	8.67
670.139	8.66
670.465	9.81
670.791	8.52
671.116	8.8
671.442	8.4
671.767	9.13
672.092	9.51
672.418	9
672.743	9.08
673.068	8.76
673.393	9.43
673.718	8.61
674.043	9.33
674.368	9.16
674.693	9.05
675.018	9.54
675.343	9.62
675.667	9.36
675.992	9.53
676.317	8.46
676.641	9.83
676.966	9.44
677.29	9.03
677.615	9.18
677.939	9.7
678.264	9.26
678.588	9.48
678.912	9.63
679.236	9.2
679.56	8.83
679.885	9.58
680.209	9.62
680.532	10
680.856	9.59
681.18	10.12
681.504	9.71
681.828	9.28
682.152	9.4
682.475	9.12
682.799	9.02
683.122	9.35
683.446	8.57
683.769	9.98
684.093	9.7
684.416	9.08
684.739	9.23
685.062	9.24
685.386	9.35
685.709	9.64
686.032	9.51
686.355	9.79
686.678	9.88
687.001	9.44
687.324	9.6
687.646	9.62
687.969	9.19
688.292	10.16
688.614	9.73
688.937	9.68
689.26	9.7
689.582	10
689.904	9.62
690.227	10.32
690.549	10.54
690.871	9.61
691.194	9.4
691.516	9.36
