Data from 0029_forehead_Reflection__4__135.txt Node

Date: Thu Oct 20 21:57:37 CDT 2022
User: ToomeyLab
Spectrometer: FLMS14357
Trigger mode: 0
Integration Time (sec): 1.000000E-2
Scans to average: 100
Electric dark correction enabled: true
Nonlinearity correction enabled: false
Boxcar width: 0
XAxis mode: Wavelengths
Number of Pixels in Spectrum: 2048
>>>>>Begin Spectral Data<<<<<
189.047	-76.99
189.435	-76.99
189.823	-76.99
190.211	-70.01
190.599	209.81
190.987	272.63
191.375	97.12
191.763	-231.84
192.151	757.43
192.538	262.99
192.926	84.67
193.314	124.61
193.702	9.36
194.089	-23.74
194.477	-368.62
194.864	153.64
195.252	78.07
195.639	-3.27
196.027	2485.19
196.414	61.11
196.801	183.02
197.189	-34.22
197.576	116.44
197.963	-5.95
198.351	54.42
198.738	-0.21
199.125	15.84
199.512	7.53
199.899	27.58
200.286	27.53
200.673	-22.66
201.06	56.27
201.447	24.92
201.833	16.72
202.22	20.79
202.607	35.31
202.994	5.48
203.38	7.98
203.767	13.17
204.154	42.74
204.54	18.71
204.927	-7.89
205.313	26.31
205.699	19.47
206.086	15.4
206.472	15.06
206.858	-11.04
207.245	34.85
207.631	9.81
208.017	28.05
208.403	-32.66
208.789	17.85
209.175	18.43
209.561	60.2
209.947	48.94
210.333	24.31
210.719	26.05
211.105	33.02
211.491	-16.96
211.876	21.37
212.262	15.79
212.648	-17.21
213.034	13.43
213.419	-1.1
213.805	8.63
214.19	-31.25
214.576	5.83
214.961	6.84
215.346	-3.25
215.732	10.99
216.117	-9.92
216.502	44.32
216.888	4.5
217.273	4.03
217.658	29.27
218.043	3.08
218.428	29.7
218.813	17.08
219.198	21.91
219.583	16.62
219.968	37.87
220.353	7.27
220.738	24.2
221.122	14.78
221.507	-0.05
221.892	15.62
222.276	17.68
222.661	17.92
223.046	2.03
223.43	10.43
223.815	10.97
224.199	-0.56
224.583	7.64
224.968	5.89
225.352	14.8
225.736	12.52
226.121	4.57
226.505	5.99
226.889	4.76
227.273	2.59
227.657	6.18
228.041	4.15
228.425	4.98
228.809	9.68
229.193	3.7
229.577	5.13
229.961	4.97
230.344	4.79
230.728	4.92
231.112	4.49
231.495	5.86
231.879	5.89
232.263	6.66
232.646	4.82
233.03	4.24
233.413	2.68
233.797	3.75
234.18	4.1
234.563	5.06
234.946	5.93
235.33	6.09
235.713	4.43
236.096	4.4
236.479	5.94
236.862	4.49
237.245	4.09
237.628	5.22
238.011	6.31
238.394	5.27
238.777	5.54
239.16	4.76
239.543	5.16
239.925	5.52
240.308	5.64
240.691	5.73
241.073	3.4
241.456	4.42
241.838	3.86
242.221	4.03
242.603	5.02
242.986	5.01
243.368	4.95
243.75	4.87
244.133	5.13
244.515	4.42
244.897	4.84
245.279	3.28
245.661	5.16
246.043	5.11
246.425	5.96
246.807	5.55
247.189	5.21
247.571	5.23
247.953	4.72
248.335	4.78
248.717	4.57
249.098	4.61
249.48	4.65
249.862	4.89
250.243	4.77
250.625	5.2
251.006	5.24
251.388	5.48
251.769	5.16
252.151	3.94
252.532	4.8
252.913	4.51
253.295	5.01
253.676	5.12
254.057	4.06
254.438	5.16
254.819	5.14
255.2	4.83
255.581	4.15
255.962	5.74
256.343	4.34
256.724	5.22
257.105	5.45
257.486	5.38
257.867	5.91
258.247	5.36
258.628	5.02
259.009	3.83
259.389	4.87
259.77	4.99
260.15	4.95
260.531	4.87
260.911	4.61
261.292	4.89
261.672	4.59
262.052	4.88
262.432	5.11
262.813	4.33
263.193	4.98
263.573	5.33
263.953	4.79
264.333	4.64
264.713	5.3
265.093	4.94
265.473	5.51
265.853	5.29
266.233	4.93
266.612	5.39
266.992	4.39
267.372	4.96
267.752	4.72
268.131	5.32
268.511	5.34
268.89	5.12
269.27	4.73
269.649	4.51
270.029	4.73
270.408	4.44
270.787	4.78
271.167	4.15
271.546	4.73
271.925	5.07
272.304	4.74
272.683	4.64
273.062	4.66
273.441	5.06
273.82	4.96
274.199	4.8
274.578	4.48
274.957	4.59
275.336	4.72
275.715	5.24
276.093	5.2
276.472	5.43
276.851	4.92
277.229	4.79
277.608	4.74
277.986	4.81
278.365	4.71
278.743	5.14
279.122	4.92
279.5	4.48
279.878	5.02
280.257	5.2
280.635	4.64
281.013	5.08
281.391	5.24
281.769	5.04
282.147	4.72
282.525	4.53
282.903	4.67
283.281	4.37
283.659	4.74
284.037	4.4
284.415	4.86
284.792	4.82
285.17	5.15
285.548	5.01
285.925	4.89
286.303	4.98
286.68	5.09
287.058	4.89
287.435	4.68
287.813	4.74
288.19	4.88
288.567	4.9
288.945	4.98
289.322	5.3
289.699	4.7
290.076	4.79
290.453	5.01
290.83	5.56
291.207	5.4
291.584	5.24
291.961	4.91
292.338	4.67
292.715	4.87
293.092	5.56
293.469	5.23
293.845	5.6
294.222	5.42
294.599	6.19
294.975	5.29
295.352	5.95
295.728	5.35
296.105	5.6
296.481	5.32
296.858	5.6
297.234	5.54
297.61	5.54
297.986	5.69
298.363	5.58
298.739	5.66
299.115	5.37
299.491	5.59
299.867	5.82
300.243	6.03
300.619	5.88
300.995	5.78
301.371	5.8
301.746	5.64
302.122	6.36
302.498	5.82
302.874	6.58
303.249	6.29
303.625	6.04
304	6.65
304.376	6.18
304.751	6.65
305.127	5.94
305.502	6.45
305.878	6.87
306.253	6.19
306.628	6.67
307.003	6.76
307.378	6.25
307.754	6.97
308.129	6.27
308.504	6.5
308.879	7.04
309.254	6.49
309.629	6.52
310.003	6.78
310.378	7.01
310.753	7.45
311.128	7.29
311.502	7.04
311.877	7.39
312.252	7.1
312.626	7.25
313.001	7.05
313.375	7.48
313.75	6.85
314.124	7.02
314.498	7.37
314.873	7.55
315.247	7.56
315.621	7.51
315.995	7.74
316.369	8.05
316.743	7.49
317.117	7.8
317.491	7.78
317.865	7.71
318.239	7.69
318.613	8.55
318.987	7.86
319.361	8.25
319.734	7.66
320.108	8.22
320.482	8.18
320.855	8.41
321.229	8.7
321.602	7.76
321.976	8.18
322.349	8.58
322.723	9.03
323.096	8.58
323.469	8.14
323.843	9.06
324.216	8.65
324.589	9.05
324.962	8.98
325.335	9.07
325.708	8.97
326.081	8.68
326.454	9
326.827	8.98
327.2	9.4
327.573	9.23
327.945	9.11
328.318	9.1
328.691	9.56
329.063	9.18
329.436	9.17
329.809	9.73
330.181	9.6
330.553	9.5
330.926	9.88
331.298	9.35
331.671	9.59
332.043	10.06
332.415	9.52
332.787	9.93
333.159	9.97
333.532	10.42
333.904	10.2
334.276	9.83
334.648	9.76
335.02	10.07
335.391	10.14
335.763	10.37
336.135	10.34
336.507	9.72
336.879	10.88
337.25	10.15
337.622	10.5
337.993	10.18
338.365	10.75
338.736	10.32
339.108	10.81
339.479	10.46
339.851	10.52
340.222	10.52
340.593	10.59
340.964	10.77
341.336	10.86
341.707	11.12
342.078	10.6
342.449	10.87
342.82	10.87
343.191	10.94
343.562	11.05
343.933	10.79
344.303	10.79
344.674	11.02
345.045	11.51
345.416	11.14
345.786	11.38
346.157	11.42
346.527	11.12
346.898	11.44
347.268	11.44
347.639	11.58
348.009	11.57
348.38	11.84
348.75	11.88
349.12	12.07
349.49	11.72
349.861	12.04
350.231	12.14
350.601	12.58
350.971	12.26
351.341	12.41
351.711	12.04
352.081	11.98
352.45	12.25
352.82	11.88
353.19	12.39
353.56	12.35
353.929	12.47
354.299	12.82
354.669	12.59
355.038	12.54
355.408	12.4
355.777	12.59
356.147	12.72
356.516	12.81
356.885	12.59
357.254	12.89
357.624	13.03
357.993	12.91
358.362	13.07
358.731	13.28
359.1	12.8
359.469	13.14
359.838	12.91
360.207	13.39
360.576	12.9
360.945	13.46
361.314	13.51
361.682	13.43
362.051	13.4
362.42	13.6
362.788	13.68
363.157	13.47
363.525	13.54
363.894	13.48
364.262	13.69
364.631	13.81
364.999	13.82
365.367	13.85
365.735	13.75
366.104	13.85
366.472	14.01
366.84	14.24
367.208	14.01
367.576	14.29
367.944	14.75
368.312	14.5
368.68	14.67
369.048	14.15
369.416	14.23
369.783	14.26
370.151	14.83
370.519	14.75
370.886	14.91
371.254	14.9
371.621	14.65
371.989	14.79
372.356	14.63
372.724	14.69
373.091	14.94
373.458	14.76
373.826	15.03
374.193	14.7
374.56	15.05
374.927	15.48
375.294	15.36
375.661	15.52
376.028	15.32
376.395	15.65
376.762	15.46
377.129	15.38
377.496	15.3
377.863	15.66
378.229	15.54
378.596	15.68
378.963	15.98
379.329	15.91
379.696	15.99
380.062	15.82
380.429	16.12
380.795	16.25
381.161	16.18
381.528	16.27
381.894	16.08
382.26	16.22
382.626	16.22
382.993	16.39
383.359	16.38
383.725	16.57
384.091	16.68
384.457	16.62
384.823	16.77
385.188	17.01
385.554	16.42
385.92	16.66
386.286	16.92
386.651	16.75
387.017	16.83
387.383	16.98
387.748	17.26
388.114	17
388.479	17.05
388.845	17.43
389.21	17.42
389.575	17.16
389.94	17.54
390.306	17.46
390.671	17.32
391.036	17.62
391.401	17.3
391.766	17.79
392.131	17.62
392.496	17.65
392.861	17.82
393.226	17.78
393.591	18
393.956	17.93
394.32	18.01
394.685	18.25
395.05	17.96
395.414	18.28
395.779	18.28
396.143	18.29
396.508	18.31
396.872	18.32
397.236	18.26
397.601	18.72
397.965	18.68
398.329	18.63
398.694	18.69
399.058	18.86
399.422	19.04
399.786	18.41
400.15	18.73
400.514	19.06
400.878	19.08
401.242	19.24
401.605	19.07
401.969	19.02
402.333	19.12
402.697	19.47
403.06	19.36
403.424	19.22
403.787	19.67
404.151	19.68
404.514	19.52
404.878	19.6
405.241	19.8
405.604	19.7
405.968	19.67
406.331	19.84
406.694	19.58
407.057	19.82
407.42	19.92
407.783	19.89
408.146	20.06
408.509	20.04
408.872	20.13
409.235	20.28
409.598	20.23
409.961	20.42
410.323	20.68
410.686	20.6
411.049	20.45
411.411	20.37
411.774	20.36
412.136	20.65
412.499	20.66
412.861	20.53
413.223	20.88
413.586	20.68
413.948	21.03
414.31	20.96
414.672	20.98
415.035	21.25
415.397	21
415.759	21.3
416.121	21.24
416.483	21.38
416.845	21.19
417.206	21.21
417.568	21.52
417.93	21.36
418.292	21.48
418.653	21.61
419.015	21.68
419.377	21.51
419.738	21.57
420.1	21.55
420.461	21.54
420.822	21.61
421.184	21.54
421.545	21.66
421.906	21.58
422.267	21.66
422.629	21.54
422.99	21.52
423.351	21.68
423.712	21.64
424.073	21.87
424.434	22.03
424.795	22.08
425.155	22.11
425.516	21.99
425.877	22.1
426.238	22.19
426.598	22.22
426.959	22.21
427.32	22.51
427.68	22.53
428.041	22.59
428.401	22.7
428.761	22.67
429.122	22.87
429.482	22.95
429.842	23.16
430.202	23.24
430.563	23.17
430.923	23.57
431.283	23.39
431.643	23.38
432.003	23.51
432.363	23.69
432.722	23.8
433.082	23.63
433.442	23.74
433.802	23.61
434.161	23.72
434.521	23.78
434.881	23.66
435.24	23.74
435.6	23.81
435.959	23.88
436.319	23.82
436.678	23.82
437.037	24.15
437.396	24.15
437.756	24.42
438.115	24.52
438.474	24.51
438.833	24.56
439.192	24.71
439.551	24.53
439.91	24.61
440.269	24.71
440.628	24.52
440.987	24.67
441.345	24.58
441.704	24.51
442.063	24.62
442.421	24.56
442.78	24.63
443.138	24.6
443.497	24.58
443.855	24.79
444.214	25.03
444.572	25.17
444.93	25.14
445.288	25.14
445.647	25.34
446.005	25.22
446.363	25.47
446.721	25.3
447.079	25.28
447.437	25.14
447.795	25.16
448.153	25.24
448.51	25.16
448.868	25.32
449.226	25.27
449.584	25.43
449.941	25.65
450.299	25.85
450.656	25.96
451.014	26.11
451.371	26.09
451.729	26.29
452.086	26.27
452.443	26.13
452.801	26.46
453.158	26.5
453.515	26.62
453.872	26.58
454.229	26.46
454.586	26.49
454.943	26.59
455.3	26.77
455.657	26.62
456.014	26.95
456.371	26.89
456.727	27.05
457.084	26.9
457.441	27.22
457.797	27.11
458.154	27.31
458.51	27.32
458.867	27.49
459.223	27.63
459.58	27.37
459.936	27.33
460.292	27.43
460.648	27.3
461.005	27.35
461.361	27.09
461.717	26.95
462.073	27.13
462.429	27.12
462.785	27.48
463.141	27.64
463.496	27.91
463.852	27.78
464.208	27.95
464.564	27.93
464.919	28.16
465.275	28.3
465.631	28.17
465.986	28.38
466.342	28.52
466.697	28.45
467.052	28.44
467.408	28.48
467.763	28.6
468.118	28.73
468.473	28.6
468.829	28.57
469.184	28.63
469.539	28.45
469.894	28.76
470.249	28.88
470.603	28.85
470.958	28.94
471.313	29.08
471.668	28.9
472.023	29.14
472.377	28.92
472.732	29.13
473.086	29.12
473.441	29.29
473.795	29.47
474.15	29.4
474.504	29.42
474.859	29.38
475.213	29.52
475.567	29.44
475.921	29.59
476.275	29.85
476.63	29.99
476.984	30.06
477.338	29.97
477.692	30.23
478.045	30.06
478.399	30.02
478.753	29.98
479.107	30.11
479.461	30.16
479.814	30.15
480.168	30.24
480.521	30.24
480.875	30.27
481.228	30.23
481.582	30.53
481.935	30.6
482.289	30.39
482.642	30.56
482.995	30.41
483.348	30.38
483.701	30.39
484.055	30.34
484.408	30.43
484.761	30.29
485.114	30.2
485.466	30.06
485.819	29.7
486.172	29.3
486.525	29.42
486.878	29.58
487.23	29.91
487.583	30.09
487.936	30.63
488.288	30.71
488.641	30.56
488.993	30.31
489.345	30.41
489.698	30.24
490.05	30.13
490.402	30.23
490.754	30.45
491.107	30.75
491.459	30.97
491.811	31.27
492.163	31.45
492.515	31.45
492.866	31.4
493.218	31.19
493.57	30.82
493.922	30.71
494.274	30.8
494.625	31.2
494.977	31.46
495.328	31.65
495.68	32.16
496.031	32.32
496.383	32.36
496.734	32.39
497.086	32.59
497.437	32.74
497.788	32.73
498.139	32.51
498.49	32.51
498.842	32.14
499.193	32.25
499.544	32.57
499.894	32.63
500.245	32.61
500.596	32.92
500.947	32.82
501.298	33.12
501.648	33.05
501.999	33.17
502.35	33.38
502.7	33.28
503.051	33.48
503.401	33.51
503.752	33.47
504.102	33.63
504.452	33.77
504.803	33.63
505.153	33.75
505.503	33.91
505.853	33.63
506.203	33.66
506.553	33.74
506.903	33.71
507.253	33.86
507.603	33.99
507.953	34.08
508.303	34.19
508.652	34
509.002	34.15
509.352	34.22
509.701	34.14
510.051	34.08
510.4	34.13
510.75	33.92
511.099	34.13
511.449	34.14
511.798	34.19
512.147	34.25
512.496	34.4
512.846	34.46
513.195	34.67
513.544	34.7
513.893	34.63
514.242	34.61
514.591	34.61
514.939	34.78
515.288	34.89
515.637	34.98
515.986	34.87
516.334	35.05
516.683	35.21
517.032	35.3
517.38	35.2
517.729	35.45
518.077	35.53
518.426	35.43
518.774	35.37
519.122	35.51
519.47	35.28
519.819	35.33
520.167	35.16
520.515	35.08
520.863	35.06
521.211	35.09
521.559	35.23
521.907	35.38
522.255	35.56
522.602	35.74
522.95	36
523.298	35.88
523.645	36.07
523.993	36.19
524.341	36.28
524.688	36.31
525.036	36.39
525.383	36.4
525.73	36.59
526.078	36.29
526.425	36.36
526.772	36.26
527.119	36.17
527.466	36.24
527.814	36.06
528.161	36.07
528.508	36.18
528.854	36.38
529.201	36.38
529.548	36.38
529.895	36.44
530.242	36.25
530.588	35.95
530.935	35.6
531.282	35.49
531.628	35.63
531.975	36.02
532.321	36.31
532.667	36.51
533.014	36.76
533.36	36.84
533.706	36.98
534.052	37.18
534.399	37.13
534.745	37.08
535.091	36.77
535.437	36.71
535.783	36.57
536.129	36.74
536.474	36.98
536.82	37.27
537.166	37.39
537.512	37.56
537.857	37.65
538.203	37.76
538.549	37.57
538.894	37.44
539.239	37.37
539.585	37.46
539.93	37.75
540.276	38.01
540.621	38.32
540.966	38.55
541.311	38.57
541.656	38.45
542.001	38.47
542.346	38.42
542.691	38.08
543.036	37.9
543.381	37.71
543.726	37.55
544.071	37.51
544.415	37.77
544.76	38.08
545.105	38.23
545.449	38.4
545.794	38.4
546.138	38.68
546.483	38.66
546.827	38.94
547.171	39.09
547.516	39.11
547.86	39
548.204	39.03
548.548	39.06
548.892	38.91
549.236	39.16
549.58	39.35
549.924	39.48
550.268	39.42
550.612	39.83
550.956	39.74
551.3	40.25
551.643	40.15
551.987	40.32
552.33	40.29
552.674	40.23
553.017	40.22
553.361	40.36
553.704	40.37
554.048	40.49
554.391	40.29
554.734	40.21
555.077	40.18
555.42	40.33
555.764	40.37
556.107	40.5
556.45	40.61
556.793	40.67
557.135	40.89
557.478	40.76
557.821	40.9
558.164	41.17
558.507	41.13
558.849	41.13
559.192	41.39
559.534	41.35
559.877	41.13
560.219	41.38
560.562	41.64
560.904	41.64
561.246	41.37
561.589	41.71
561.931	41.73
562.273	41.54
562.615	41.81
562.957	41.47
563.299	41.62
563.641	41.84
563.983	41.88
564.325	41.77
564.667	41.81
565.008	42.16
565.35	41.91
565.692	42.14
566.033	42.11
566.375	42.33
566.716	42.34
567.058	42.29
567.399	42.06
567.741	42.22
568.082	42.12
568.423	42.28
568.764	42.05
569.105	42.16
569.447	42.47
569.788	42.41
570.129	42.21
570.47	42.65
570.811	42.48
571.151	42.71
571.492	42.74
571.833	42.91
572.174	42.82
572.514	42.78
572.855	42.92
573.195	43.12
573.536	42.77
573.876	42.97
574.217	42.85
574.557	42.76
574.898	42.87
575.238	43.05
575.578	43.13
575.918	43.28
576.258	43.16
576.598	43.31
576.938	43.14
577.278	43.34
577.618	43.15
577.958	43.37
578.298	43.67
578.638	43.69
578.977	43.92
579.317	43.72
579.657	43.89
579.996	43.64
580.336	43.74
580.675	44.27
581.014	44.03
581.354	44.32
581.693	44.3
582.032	44.27
582.372	44.67
582.711	44.49
583.05	44.44
583.389	44.56
583.728	44.58
584.067	44.38
584.406	44.79
584.745	44.81
585.083	44.56
585.422	44.89
585.761	44.99
586.1	44.92
586.438	45.14
586.777	45.02
587.115	45.03
587.454	45.08
587.792	45
588.13	45.3
588.469	45.34
588.807	45.26
589.145	45.29
589.483	45.48
589.821	45.35
590.159	45.27
590.497	45.35
590.835	45.26
591.173	45.49
591.511	45.26
591.849	45.28
592.187	45.39
592.524	45.48
592.862	45.66
593.2	45.56
593.537	45.72
593.875	45.54
594.212	45.67
594.55	45.6
594.887	45.65
595.224	45.89
595.561	45.99
595.899	46.11
596.236	45.99
596.573	46.03
596.91	45.78
597.247	46.28
597.584	46.12
597.921	46.02
598.258	46.17
598.594	46.17
598.931	45.97
599.268	46.14
599.604	45.96
599.941	45.87
600.277	46.06
600.614	46.13
600.95	46.31
601.287	46.7
601.623	46.27
601.959	46.63
602.296	46.87
602.632	46.62
602.968	46.84
603.304	46.77
603.64	46.77
603.976	47.22
604.312	47.11
604.648	47.25
604.984	46.95
605.319	47.28
605.655	47.01
605.991	46.94
606.326	46.89
606.662	46.86
606.998	46.73
607.333	47.11
607.668	46.54
608.004	46.81
608.339	47.12
608.674	47.49
609.01	47.69
609.345	47.83
609.68	47.57
610.015	47.84
610.35	47.88
610.685	47.48
611.02	47.72
611.355	47.65
611.689	47.61
612.024	47.47
612.359	47.69
612.694	47.97
613.028	47.49
613.363	47.8
613.697	47.97
614.032	48.28
614.366	48.24
614.7	48.59
615.035	48.13
615.369	48.14
615.703	48.54
616.037	48.47
616.371	48.46
616.705	48.22
617.039	48.7
617.373	48.38
617.707	48.65
618.041	48.44
618.375	48.7
618.709	49
619.042	48.98
619.376	48.84
619.71	48.71
620.043	48.92
620.377	49.29
620.71	48.77
621.043	48.6
621.377	48.91
621.71	49.18
622.043	49.1
622.376	49.24
622.709	49.13
623.043	49.33
623.376	49.08
623.709	49.37
624.041	49.68
624.374	50.3
624.707	49.59
625.04	49.68
625.373	49.85
625.705	49.26
626.038	49.66
626.37	49.79
626.703	49.93
627.035	49.82
627.368	49.63
627.7	50.25
628.032	49.87
628.365	49.78
628.697	49.83
629.029	49.64
629.361	50.03
629.693	49.92
630.025	49.84
630.357	49.76
630.689	49.92
631.021	49.55
631.353	49.73
631.684	50.06
632.016	50.2
632.348	50.12
632.679	50.22
633.011	50.34
633.342	50.57
633.674	50.73
634.005	50.63
634.336	50.31
634.668	50.44
634.999	50.85
635.33	50.65
635.661	51.04
635.992	50.79
636.323	50.81
636.654	50.8
636.985	50.66
637.316	50.59
637.647	50.72
637.977	51.1
638.308	50.83
638.639	50.8
638.969	50.77
639.3	50.97
639.63	51.41
639.961	51.42
640.291	51.25
640.622	51.14
640.952	51.18
641.282	51.88
641.612	51.1
641.943	51.07
642.273	51.39
642.603	51.31
642.933	51.36
643.263	51.62
643.592	51.45
643.922	51.24
644.252	51.77
644.582	51.86
644.911	52.11
645.241	51.88
645.571	51.63
645.9	52.34
646.23	52.42
646.559	52.4
646.888	51.87
647.218	51.41
647.547	51.65
647.876	51.68
648.205	51.81
648.534	51.98
648.863	52.25
649.192	52.57
649.521	51.6
649.85	51.88
650.179	51.83
650.508	52.21
650.837	51.99
651.165	52.19
651.494	52.12
651.822	51.97
652.151	52.74
652.479	52.56
652.808	52.49
653.136	52.11
653.465	52.69
653.793	52.62
654.121	52.55
654.449	52.28
654.777	52.35
655.105	52.93
655.433	53.07
655.761	52.93
656.089	52.45
656.417	53.17
656.745	53.19
657.073	53.44
657.4	52.76
657.728	52.79
658.056	52.85
658.383	52.67
658.711	53.03
659.038	53.17
659.365	53.09
659.693	52.96
660.02	53.44
660.347	53.24
660.674	53.58
661.001	53.74
661.329	53.38
661.656	53.16
661.982	53.68
662.309	53.72
662.636	53.55
662.963	53.27
663.29	53.76
663.616	53.75
663.943	54.48
664.27	53.47
664.596	53.19
664.923	53.55
665.249	53.61
665.576	53.46
665.902	53.88
666.228	53.92
666.554	53.68
666.881	53.97
667.207	53.78
667.533	53.79
667.859	53.82
668.185	54.31
668.511	53.81
668.837	53.88
669.162	53.56
669.488	53.96
669.814	54.91
