Data from 0029_crown_Reflection__1__127.txt Node

Date: Thu Oct 20 21:55:36 CDT 2022
User: ToomeyLab
Spectrometer: FLMS14357
Trigger mode: 0
Integration Time (sec): 1.000000E-2
Scans to average: 100
Electric dark correction enabled: true
Nonlinearity correction enabled: false
Boxcar width: 0
XAxis mode: Wavelengths
Number of Pixels in Spectrum: 2048
>>>>>Begin Spectral Data<<<<<
189.047	11.42
189.435	11.42
189.823	11.42
190.211	-32.29
190.599	-50.73
190.987	184.64
191.375	158.04
191.763	-128.12
192.151	150.94
192.538	46.54
192.926	166.82
193.314	7.64
193.702	115.94
194.089	84.17
194.477	34.76
194.864	719.54
195.252	77.59
195.639	26.68
196.027	6733.33
196.414	116.4
196.801	252.83
197.189	1.88
197.576	98.67
197.963	-54.47
198.351	11.97
198.738	-100.07
199.125	4.63
199.512	-27.07
199.899	-82.43
200.286	-18.08
200.673	-2.5
201.06	18.22
201.447	-2
201.833	-2.81
202.22	-54.98
202.607	-31.55
202.994	-20.5
203.38	-71.99
203.767	2.18
204.154	-31.54
204.54	0.85
204.927	8.9
205.313	5.28
205.699	39.12
206.086	-7.36
206.472	-1.21
206.858	-39.88
207.245	12.42
207.631	-0.98
208.017	-26.92
208.403	-78.12
208.789	-22.22
209.175	9.43
209.561	0.32
209.947	1.5
210.333	25.23
210.719	14.78
211.105	9.62
211.491	-28.45
211.876	-25.59
212.262	0.74
212.648	-11.04
213.034	-9
213.419	12.22
213.805	10.22
214.19	-66.28
214.576	0.05
214.961	-26.23
215.346	0.74
215.732	-17.99
216.117	-12.55
216.502	13.03
216.888	-12.7
217.273	-15.08
217.658	-5.59
218.043	2.5
218.428	4.91
218.813	14.66
219.198	-5.15
219.583	-8.1
219.968	0.08
220.353	-14.51
220.738	6.68
221.122	-4.87
221.507	0.07
221.892	-7.71
222.276	1.09
222.661	-3.24
223.046	14.78
223.43	-6.84
223.815	0.73
224.199	-7.3
224.583	2.5
224.968	12.46
225.352	11.11
225.736	3.07
226.121	-8.19
226.505	2.41
226.889	3.13
227.273	-2.8
227.657	0.74
228.041	-2.18
228.425	1.94
228.809	0.14
229.193	0.92
229.577	1.79
229.961	3.01
230.344	2.82
230.728	2.07
231.112	2.73
231.495	2.59
231.879	2.79
232.263	3.65
232.646	3.58
233.03	2.97
233.413	1.38
233.797	2.54
234.18	-0.05
234.563	1.36
234.946	0.92
235.33	1.61
235.713	2.47
236.096	1.77
236.479	5.02
236.862	3.45
237.245	1.28
237.628	1.77
238.011	4.65
238.394	3.11
238.777	3.06
239.16	0.98
239.543	1.16
239.925	2.52
240.308	2.41
240.691	4.13
241.073	1.04
241.456	1.93
241.838	1.31
242.221	2.09
242.603	3.01
242.986	2.54
243.368	2.08
243.75	2.65
244.133	2.82
244.515	2.73
244.897	2.29
245.279	1.66
245.661	3.16
246.043	3.04
246.425	2.72
246.807	2.77
247.189	2.64
247.571	2.66
247.953	2.37
248.335	2.55
248.717	2.57
249.098	2.51
249.48	2.29
249.862	2.3
250.243	2.19
250.625	2.95
251.006	2.34
251.388	2.12
251.769	2.79
252.151	2.48
252.532	2.59
252.913	1.82
253.295	2.65
253.676	2.6
254.057	2.16
254.438	1.81
254.819	2.32
255.2	3.15
255.581	1.74
255.962	2.6
256.343	1.51
256.724	1.52
257.105	2.4
257.486	1.91
257.867	2.34
258.247	2.27
258.628	1.91
259.009	1.61
259.389	2.16
259.77	1.77
260.15	2
260.531	2.19
260.911	1.65
261.292	2.39
261.672	2.37
262.052	2.35
262.432	2.78
262.813	1.89
263.193	2.74
263.573	2.02
263.953	2.56
264.333	1.8
264.713	2.61
265.093	1.83
265.473	2.36
265.853	2.02
266.233	1.96
266.612	2.68
266.992	2.05
267.372	2.28
267.752	2.1
268.131	2.45
268.511	1.95
268.89	2.21
269.27	2.26
269.649	1.32
270.029	2.21
270.408	1.46
270.787	1.64
271.167	1.77
271.546	2.03
271.925	2.27
272.304	2.4
272.683	1.71
273.062	1.9
273.441	2.08
273.82	2.5
274.199	1.76
274.578	1.87
274.957	1.86
275.336	2.14
275.715	1.65
276.093	2.43
276.472	2.02
276.851	2.38
277.229	2.15
277.608	1.76
277.986	2.25
278.365	1.85
278.743	2.09
279.122	2.06
279.5	2.14
279.878	2.17
280.257	2.02
280.635	2.4
281.013	1.97
281.391	2.42
281.769	2.35
282.147	1.97
282.525	1.3
282.903	1.95
283.281	1.7
283.659	1.54
284.037	1.25
284.415	1.93
284.792	1.46
285.17	2.3
285.548	1.81
285.925	1.93
286.303	1.78
286.68	2.2
287.058	1.83
287.435	2.04
287.813	1.95
288.19	1.78
288.567	2.01
288.945	1.8
289.322	1.81
289.699	1.32
290.076	1.95
290.453	1.52
290.83	1.9
291.207	1.87
291.584	1.6
291.961	2.01
292.338	1.82
292.715	1.83
293.092	2.37
293.469	1.75
293.845	2.07
294.222	1.9
294.599	2.42
294.975	2.08
295.352	2.12
295.728	1.97
296.105	2.32
296.481	1.75
296.858	1.75
297.234	2.02
297.61	1.93
297.986	1.64
298.363	1.53
298.739	1.79
299.115	1.79
299.491	1.81
299.867	1.73
300.243	1.84
300.619	2.03
300.995	1.79
301.371	2.01
301.746	1.51
302.122	2.05
302.498	2.11
302.874	2.44
303.249	1.96
303.625	1.52
304	2.56
304.376	2.19
304.751	2.64
305.127	1.69
305.502	2.16
305.878	2.14
306.253	1.5
306.628	2
307.003	1.79
307.378	1.56
307.754	1.8
308.129	1.68
308.504	2.05
308.879	1.94
309.254	1.26
309.629	1.73
310.003	1.64
310.378	1.93
310.753	1.8
311.128	1.65
311.502	1.64
311.877	2.17
312.252	1.86
312.626	1.68
313.001	1.85
313.375	1.87
313.75	1.82
314.124	1.73
314.498	1.56
314.873	1.56
315.247	1.81
315.621	1.49
315.995	1.76
316.369	1.99
316.743	1.53
317.117	2.17
317.491	2.16
317.865	1.67
318.239	1.78
318.613	2.31
318.987	1.52
319.361	1.56
319.734	1.21
320.108	1.98
320.482	1.8
320.855	2.23
321.229	1.92
321.602	1.24
321.976	1.2
322.349	1.66
322.723	1.6
323.096	1.93
323.469	1.23
323.843	1.93
324.216	1.64
324.589	2.43
324.962	1.61
325.335	2.06
325.708	1.79
326.081	2.06
326.454	1.96
326.827	1.92
327.2	2.28
327.573	1.73
327.945	1.69
328.318	1.56
328.691	2.13
329.063	2.35
329.436	2.06
329.809	1.96
330.181	1.99
330.553	1.78
330.926	1.77
331.298	1.59
331.671	1.81
332.043	1.92
332.415	1.95
332.787	2.31
333.159	1.74
333.532	1.88
333.904	1.74
334.276	1.9
334.648	1.6
335.02	2.05
335.391	1.61
335.763	1.86
336.135	2.1
336.507	1.62
336.879	2.62
337.25	1.38
337.622	2.25
337.993	1.59
338.365	2.22
338.736	2.38
339.108	1.66
339.479	1.46
339.851	1.61
340.222	1.9
340.593	2.22
340.964	1.93
341.336	1.88
341.707	1.69
342.078	2.14
342.449	1.66
342.82	2.04
343.191	1.87
343.562	1.96
343.933	1.94
344.303	1.72
344.674	1.95
345.045	1.97
345.416	2.08
345.786	1.52
346.157	1.89
346.527	1.54
346.898	1.93
347.268	1.88
347.639	1.71
348.009	2.04
348.38	2.32
348.75	1.5
349.12	2.17
349.49	2.3
349.861	2.12
350.231	2.12
350.601	2.19
350.971	2.14
351.341	1.97
351.711	2.03
352.081	1.9
352.45	1.67
352.82	1.77
353.19	1.9
353.56	1.7
353.929	1.99
354.299	1.77
354.669	1.79
355.038	2.06
355.408	1.41
355.777	1.89
356.147	2.16
356.516	1.8
356.885	1.72
357.254	2.15
357.624	2.01
357.993	1.63
358.362	2.03
358.731	2.2
359.1	1.81
359.469	2.04
359.838	1.94
360.207	2.47
360.576	1.73
360.945	2.05
361.314	1.94
361.682	2.09
362.051	1.72
362.42	2.04
362.788	1.8
363.157	1.9
363.525	1.95
363.894	1.85
364.262	2.14
364.631	1.86
364.999	1.94
365.367	2
365.735	2.16
366.104	1.8
366.472	1.99
366.84	1.96
367.208	1.99
367.576	1.86
367.944	2.04
368.312	2.02
368.68	2.26
369.048	2.11
369.416	1.62
369.783	2.26
370.151	2.43
370.519	2.06
370.886	1.7
371.254	2.14
371.621	1.72
371.989	2.12
372.356	1.73
372.724	2.08
373.091	2.34
373.458	1.87
373.826	2.31
374.193	2.16
374.56	1.56
374.927	2.04
375.294	2.14
375.661	2.31
376.028	2.11
376.395	2.46
376.762	1.93
377.129	1.93
377.496	1.94
377.863	1.88
378.229	1.86
378.596	1.9
378.963	1.84
379.329	2.23
379.696	2.23
380.062	2.28
380.429	2.38
380.795	2.18
381.161	2.3
381.528	2.15
381.894	1.99
382.26	1.96
382.626	2.22
382.993	1.74
383.359	2.06
383.725	2.2
384.091	2.08
384.457	1.94
384.823	2.14
385.188	2.25
385.554	1.81
385.92	1.87
386.286	1.83
386.651	2.01
387.017	1.96
387.383	2.16
387.748	2.06
388.114	2.09
388.479	1.98
388.845	2.28
389.21	2.18
389.575	1.88
389.94	2.35
390.306	2.19
390.671	2.07
391.036	2.07
391.401	1.86
391.766	2.26
392.131	2.3
392.496	1.85
392.861	1.91
393.226	2.07
393.591	2.35
393.956	2.07
394.32	2.13
394.685	2.24
395.05	1.96
395.414	2.06
395.779	2.12
396.143	2.26
396.508	2.25
396.872	2.22
397.236	2.33
397.601	2.57
397.965	2.18
398.329	2.24
398.694	1.97
399.058	2.11
399.422	2.26
399.786	2.16
400.15	2.13
400.514	2.18
400.878	2.12
401.242	2.15
401.605	2.37
401.969	2.26
402.333	2.15
402.697	2.51
403.06	2.07
403.424	2.04
403.787	2.16
404.151	2.15
404.514	1.96
404.878	2.13
405.241	2.09
405.604	2.13
405.968	2.07
406.331	2.18
406.694	2.05
407.057	2.1
407.42	2.15
407.783	2.04
408.146	2.28
408.509	2.14
408.872	2.31
409.235	2.09
409.598	2.19
409.961	2.19
410.323	2.29
410.686	2.04
411.049	2.19
411.411	1.94
411.774	1.84
412.136	2.24
412.499	2.27
412.861	2.39
413.223	2.19
413.586	2.28
413.948	2.22
414.31	1.9
414.672	2.18
415.035	2.06
415.397	2.03
415.759	2.15
416.121	2.15
416.483	2.2
416.845	2.27
417.206	2.09
417.568	2.36
417.93	2.02
418.292	2.3
418.653	2.25
419.015	2.29
419.377	2.19
419.738	2.14
420.1	2.18
420.461	2.19
420.822	2.2
421.184	2.14
421.545	2.29
421.906	2.07
422.267	2.05
422.629	2.07
422.99	2.16
423.351	2.15
423.712	2.06
424.073	2.12
424.434	2.14
424.795	2.17
425.155	2.15
425.516	2.11
425.877	2.08
426.238	2.18
426.598	2.3
426.959	2.23
427.32	2.33
427.68	2.23
428.041	2.22
428.401	2.17
428.761	2.11
429.122	2.24
429.482	2.11
429.842	2.29
430.202	2.35
430.563	2.18
430.923	2.35
431.283	2.24
431.643	2.3
432.003	2.22
432.363	2.33
432.722	2.42
433.082	2.16
433.442	2.28
433.802	2.19
434.161	2.3
434.521	2.19
434.881	2.15
435.24	2.09
435.6	2.16
435.959	2.38
436.319	2.31
436.678	2.25
437.037	2.35
437.396	2.24
437.756	2.17
438.115	2.26
438.474	2.24
438.833	2.21
439.192	2.29
439.551	2.21
439.91	2.21
440.269	2.15
440.628	2.2
440.987	2.16
441.345	2.25
441.704	2.17
442.063	2.33
442.421	2.12
442.78	2.08
443.138	2.34
443.497	2.19
443.855	2.24
444.214	2.39
444.572	2.36
444.93	2.09
445.288	2.24
445.647	2.38
446.005	2.18
446.363	2.17
446.721	2.22
447.079	2.1
447.437	2.12
447.795	2.09
448.153	2.19
448.51	2.26
448.868	2.17
449.226	2.21
449.584	2.2
449.941	2.3
450.299	2.28
450.656	2.38
451.014	2.31
451.371	2.29
451.729	2.31
452.086	2.52
452.443	2.17
452.801	2.23
453.158	2.24
453.515	2.24
453.872	2.1
454.229	2.21
454.586	2.23
454.943	2.15
455.3	2.34
455.657	2.16
456.014	2.3
456.371	2.12
456.727	2.32
457.084	2.32
457.441	2.37
457.797	2.3
458.154	2.31
458.51	2.16
458.867	2.27
459.223	2.42
459.58	2.15
459.936	2.24
460.292	2.2
460.648	2.12
461.005	2.05
461.361	2.11
461.717	2.26
462.073	2.32
462.429	2.3
462.785	2.35
463.141	2.38
463.496	2.5
463.852	2.37
464.208	2.29
464.564	2.28
464.919	2.45
465.275	2.27
465.631	2.17
465.986	2.38
466.342	2.17
466.697	2.23
467.052	2.2
467.408	2.27
467.763	2.13
468.118	2.46
468.473	2.43
468.829	2.22
469.184	2.3
469.539	2.27
469.894	2.25
470.249	2.49
470.603	2.22
470.958	2.37
471.313	2.24
471.668	2.36
472.023	2.37
472.377	2.28
472.732	2.32
473.086	2.29
473.441	2.24
473.795	2.4
474.15	2.25
474.504	2.27
474.859	2.46
475.213	2.46
475.567	2.4
475.921	2.24
476.275	2.39
476.63	2.53
476.984	2.35
477.338	2.2
477.692	2.31
478.045	2.35
478.399	2.27
478.753	2.16
479.107	2.24
479.461	2.36
479.814	2.29
480.168	2.42
480.521	2.42
480.875	2.34
481.228	2.3
481.582	2.22
481.935	2.26
482.289	2.2
482.642	2.11
482.995	2.32
483.348	2.34
483.701	2.22
484.055	2.18
484.408	2.11
484.761	2.08
485.114	1.97
485.466	1.99
485.819	2.11
486.172	2.21
486.525	2.31
486.878	2.35
487.23	2.36
487.583	2.27
487.936	2.23
488.288	2.14
488.641	2.09
488.993	2.11
489.345	2.12
489.698	2.16
490.05	2.25
490.402	2.32
490.754	2.35
491.107	2.32
491.459	2.39
491.811	2.3
492.163	2.24
492.515	2.14
492.866	2.08
493.218	2.08
493.57	2.18
493.922	2.23
494.274	2.3
494.625	2.38
494.977	2.44
495.328	2.41
495.68	2.3
496.031	2.35
496.383	2.36
496.734	2.3
497.086	2.29
497.437	2.33
497.788	2.29
498.139	2.14
498.49	2.27
498.842	2.22
499.193	2.28
499.544	2.36
499.894	2.36
500.245	2.29
500.596	2.36
500.947	2.27
501.298	2.33
501.648	2.32
501.999	2.34
502.35	2.46
502.7	2.32
503.051	2.46
503.401	2.31
503.752	2.41
504.102	2.28
504.452	2.35
504.803	2.22
505.153	2.28
505.503	2.43
505.853	2.2
506.203	2.24
506.553	2.35
506.903	2.19
507.253	2.38
507.603	2.33
507.953	2.29
508.303	2.34
508.652	2.21
509.002	2.27
509.352	2.32
509.701	2.31
510.051	2.2
510.4	2.22
510.75	2.17
511.099	2.28
511.449	2.23
511.798	2.26
512.147	2.34
512.496	2.38
512.846	2.31
513.195	2.34
513.544	2.32
513.893	2.39
514.242	2.26
514.591	2.43
514.939	2.39
515.288	2.27
515.637	2.34
515.986	2.24
516.334	2.4
516.683	2.44
517.032	2.3
517.38	2.3
517.729	2.34
518.077	2.31
518.426	2.31
518.774	2.34
519.122	2.27
519.47	2.25
519.819	2.23
520.167	2.19
520.515	2.28
520.863	2.28
521.211	2.33
521.559	2.35
521.907	2.3
522.255	2.35
522.602	2.24
522.95	2.4
523.298	2.2
523.645	2.3
523.993	2.22
524.341	2.31
524.688	2.25
525.036	2.32
525.383	2.39
525.73	2.25
526.078	2.3
526.425	2.22
526.772	2.19
527.119	2.18
527.466	2.27
527.814	2.26
528.161	2.23
528.508	2.19
528.854	2.28
529.201	2.17
529.548	2.1
529.895	2.05
530.242	2.03
530.588	2.15
530.935	2.26
531.282	2.3
531.628	2.31
531.975	2.38
532.321	2.3
532.667	2.3
533.014	2.34
533.36	2.25
533.706	2.15
534.052	2.17
534.399	2.21
534.745	2.12
535.091	2.15
535.437	2.18
535.783	2.32
536.129	2.34
536.474	2.38
536.82	2.29
537.166	2.32
537.512	2.22
537.857	2.16
538.203	2.23
538.549	2.24
538.894	2.3
539.239	2.42
539.585	2.36
539.93	2.42
540.276	2.43
540.621	2.38
540.966	2.28
541.311	2.24
541.656	2.27
542.001	2.16
542.346	2.07
542.691	2.08
543.036	2.1
543.381	2.17
543.726	2.21
544.071	2.34
544.415	2.4
544.76	2.23
545.105	2.31
545.449	2.21
545.794	2.34
546.138	2.44
546.483	2.38
546.827	2.29
547.171	2.22
547.516	2.3
547.86	2.26
548.204	2.26
548.548	2.27
548.892	2.29
549.236	2.29
549.58	2.42
549.924	2.25
550.268	2.32
550.612	2.47
550.956	2.31
551.3	2.35
551.643	2.36
551.987	2.45
552.33	2.34
552.674	2.17
553.017	2.34
553.361	2.4
553.704	2.33
554.048	2.31
554.391	2.23
554.734	2.22
555.077	2.23
555.42	2.4
555.764	2.4
556.107	2.3
556.45	2.34
556.793	2.33
557.135	2.37
557.478	2.28
557.821	2.42
558.164	2.28
558.507	2.38
558.849	2.4
559.192	2.46
559.534	2.37
559.877	2.53
560.219	2.54
560.562	2.38
560.904	2.24
561.246	2.23
561.589	2.47
561.931	2.12
562.273	2.41
562.615	2.33
562.957	2.08
563.299	2.43
563.641	2.34
563.983	2.51
564.325	2.27
564.667	2.36
565.008	2.4
565.35	2.31
565.692	2.44
566.033	2.14
566.375	2.26
566.716	2.36
567.058	2.31
567.399	2.21
567.741	2.24
568.082	2.26
568.423	2.36
568.764	2.29
569.105	2.44
569.447	2.29
569.788	2.36
570.129	2.28
570.47	2.38
570.811	2.2
571.151	2.22
571.492	2.3
571.833	2.48
572.174	2.3
572.514	2.24
572.855	2.38
573.195	2.31
573.536	2.29
573.876	2.19
574.217	2.2
574.557	2.28
574.898	2.18
575.238	2.47
575.578	2.25
575.918	2.35
576.258	2.33
576.598	2.23
576.938	2.27
577.278	2.29
577.618	2.46
577.958	2.37
578.298	2.4
578.638	2.29
578.977	2.39
579.317	2.26
579.657	2.16
579.996	2.43
580.336	2.56
580.675	2.59
581.014	2.3
581.354	2.29
581.693	2.15
582.032	2.49
582.372	2.35
582.711	2.12
583.05	2.31
583.389	2.09
583.728	2.35
584.067	2.29
584.406	2.39
584.745	2.34
585.083	2.08
585.422	2.38
585.761	2.51
586.1	2.45
586.438	2.48
586.777	2.42
587.115	2.32
587.454	2.47
587.792	2.35
588.13	2.49
588.469	2.67
588.807	2.11
589.145	2.34
589.483	2.29
589.821	2.18
590.159	2.39
590.497	2.43
590.835	2.16
591.173	2.46
591.511	2.36
591.849	2.27
592.187	2.16
592.524	2.21
592.862	2.29
593.2	2.33
593.537	2.19
593.875	2.29
594.212	2.29
594.55	2.16
594.887	2.26
595.224	2.29
595.561	2.29
595.899	2.59
596.236	2.51
596.573	2.5
596.91	2.17
597.247	2.32
597.584	2.28
597.921	2.32
598.258	2.16
598.594	2.23
598.931	2.19
599.268	2.17
599.604	2.31
599.941	2.51
600.277	2.46
600.614	2.34
600.95	2.31
601.287	2.32
601.623	2.25
601.959	2.36
602.296	2.22
602.632	2.07
602.968	2.46
603.304	2.37
603.64	2.5
603.976	2.28
604.312	2.13
604.648	2.4
604.984	2.22
605.319	2.31
605.655	2.31
605.991	2.1
606.326	2.36
606.662	2.27
606.998	2.47
607.333	2.37
607.668	2.24
608.004	2.44
608.339	2.45
608.674	2.4
609.01	2.45
609.345	2.32
609.68	2.23
610.015	2.42
610.35	2.42
610.685	2.38
611.02	2.27
611.355	2.25
611.689	2.33
612.024	2.26
612.359	2.36
612.694	2.19
613.028	2.37
613.363	2.32
613.697	2.48
614.032	2.56
614.366	2.54
614.7	2.03
615.035	2.23
615.369	2.19
615.703	2.25
616.037	2.64
616.371	2.23
616.705	2.11
617.039	2.18
617.373	2.27
617.707	2.5
618.041	2.13
618.375	2.15
618.709	2.23
619.042	1.98
619.376	2.02
619.71	2.39
620.043	2.14
620.377	2.46
620.71	2.5
621.043	2.44
621.377	1.82
621.71	2.27
622.043	2.34
622.376	2.36
622.709	2.72
623.043	2.24
623.376	2.56
623.709	2.5
624.041	2.38
624.374	2.38
624.707	2.14
625.04	2.48
625.373	2.59
625.705	1.79
626.038	2.56
626.37	2.35
626.703	2.23
627.035	2.36
627.368	2.44
627.7	2.18
628.032	2.31
628.365	2.09
628.697	2.35
629.029	2.38
629.361	2.53
629.693	2.39
630.025	2.58
630.357	2.31
630.689	2.38
631.021	2.33
631.353	2.34
631.684	2.5
632.016	2.17
632.348	2.51
632.679	1.88
633.011	2.81
633.342	2.28
633.674	2.24
634.005	2.35
634.336	2.33
634.668	2.49
634.999	2.38
635.33	2.61
635.661	2.06
635.992	2.32
636.323	2.63
636.654	2.23
636.985	2.5
637.316	2.32
637.647	2.41
637.977	2.89
638.308	2.38
638.639	2.44
638.969	2.5
639.3	2.51
639.63	2.3
639.961	2.09
640.291	2.4
640.622	2.65
640.952	2.41
641.282	2.36
641.612	2.25
641.943	2.38
642.273	2.28
642.603	2.17
642.933	2.24
643.263	2.04
643.592	2.55
643.922	2.34
644.252	2.23
644.582	2.14
644.911	2.39
645.241	2.57
645.571	2.45
645.9	2.73
646.23	2.58
646.559	2.33
646.888	2.24
647.218	2.17
647.547	2.25
647.876	2.17
648.205	2.23
648.534	2.36
648.863	2.41
649.192	2.14
649.521	2.55
649.85	2.26
650.179	2.12
650.508	2.73
650.837	2.31
651.165	2.1
651.494	2.42
651.822	2.5
652.151	2.41
652.479	2.14
652.808	2.53
653.136	2.26
653.465	2.24
653.793	2.23
654.121	2.61
654.449	2.58
654.777	2.32
655.105	2.69
655.433	2.24
655.761	2.3
656.089	2.09
656.417	2.78
656.745	2.63
657.073	2.18
657.4	2.28
657.728	2.41
658.056	2.45
658.383	2.39
658.711	2.69
659.038	2.56
659.365	2.1
659.693	2.34
660.02	2.51
660.347	2.45
660.674	2.34
661.001	2.37
661.329	2.24
661.656	2.36
661.982	2.29
662.309	2.47
662.636	2.68
662.963	2.06
663.29	2.47
663.616	2.45
663.943	2.89
664.27	2.39
664.596	2.5
664.923	2.09
665.249	2.65
665.576	2.6
665.902	2.58
666.228	2.28
666.554	1.96
666.881	2.4
667.207	2.68
667.533	2.51
667.859	2.36
668.185	3.01
668.511	2.63
668.837	1.85
669.162	2.69
669.488	2.28
669.814	3.04
670.139	2.4
670.465	2
670.791	2.77
671.116	2.38
671.442	2.36
671.767	2.69
672.092	2.52
672.418	2.09
672.743	2.31
673.068	1.81
673.393	2.05
673.718	2.07
674.043	1.81
674.368	2.17
674.693	2.97
675.018	2.64
675.343	2.46
675.667	2.16
675.992	2.36
676.317	2.29
676.641	2.37
676.966	2.48
677.29	2.83
677.615	2.85
677.939	2.68
678.264	2.65
678.588	2.67
678.912	2.57
679.236	2.52
679.56	1.91
679.885	2.74
680.209	2.23
680.532	2.73
680.856	2.94
681.18	2.32
681.504	2.26
681.828	2.25
682.152	2.64
682.475	2.12
682.799	3.18
683.122	2.31
683.446	2.34
683.769	2.87
684.093	2.77
684.416	2.35
684.739	2.15
685.062	2.67
685.386	2.24
685.709	2.32
686.032	2.42
686.355	2.19
686.678	2.79
687.001	2.37
687.324	2.91
687.646	2.03
687.969	2.04
688.292	3.37
688.614	2.62
688.937	2.46
689.26	2.36
689.582	2.28
689.904	3.04
690.227	2.2
690.549	3.8
690.871	2.47
691.194	2.84
691.516	2.39
691.838	2.2
692.16	2.45
692.482	2.6
