Data from 0029_crown_Reflection__2__128.txt Node

Date: Thu Oct 20 21:55:47 CDT 2022
User: ToomeyLab
Spectrometer: FLMS14357
Trigger mode: 0
Integration Time (sec): 1.000000E-2
Scans to average: 100
Electric dark correction enabled: true
Nonlinearity correction enabled: false
Boxcar width: 0
XAxis mode: Wavelengths
Number of Pixels in Spectrum: 2048
>>>>>Begin Spectral Data<<<<<
189.047	-103.1
189.435	-103.1
189.823	-103.1
190.211	-51.39
190.599	63.73
190.987	-97.13
191.375	156.18
191.763	-150.43
192.151	665.8
192.538	74.5
192.926	89.36
193.314	108.43
193.702	-237.85
194.089	65.35
194.477	-478.1
194.864	345.59
195.252	60.54
195.639	80.18
196.027	15325.93
196.414	4.53
196.801	-234.21
197.189	-16.84
197.576	146.76
197.963	-55.75
198.351	-4.19
198.738	-59.92
199.125	-22.16
199.512	24.05
199.899	1.49
200.286	11.98
200.673	11.21
201.06	0.79
201.447	13.77
201.833	-34.72
202.22	-27.6
202.607	16.71
202.994	-19.17
203.38	-73.13
203.767	-45.28
204.154	-38.67
204.54	-1.22
204.927	-14.79
205.313	26.34
205.699	-3.56
206.086	-23.35
206.472	36.68
206.858	-35.12
207.245	23.13
207.631	-24.92
208.017	-6.55
208.403	-51.56
208.789	16.02
209.175	7.59
209.561	26.05
209.947	-41.51
210.333	8.16
210.719	10.6
211.105	5.01
211.491	-35.21
211.876	-3.48
212.262	-4.47
212.648	5.22
213.034	-23.79
213.419	-13.45
213.805	-5.56
214.19	-12.67
214.576	-21.79
214.961	-36.27
215.346	-48.63
215.732	-2.26
216.117	-22.88
216.502	-37.39
216.888	1.54
217.273	-9.31
217.658	6.58
218.043	11.86
218.428	-14.77
218.813	10.77
219.198	-7.77
219.583	3.53
219.968	9.31
220.353	-15.36
220.738	11.42
221.122	5.55
221.507	-5.98
221.892	6.61
222.276	-2.76
222.661	10.74
223.046	11.85
223.43	-1.42
223.815	6.32
224.199	-3.84
224.583	1.27
224.968	3.09
225.352	17.76
225.736	11.54
226.121	5.14
226.505	6.07
226.889	4.68
227.273	5.18
227.657	8.4
228.041	3.76
228.425	9.58
228.809	8.97
229.193	8.57
229.577	6.07
229.961	8.01
230.344	6.81
230.728	7.31
231.112	7.49
231.495	7.44
231.879	8.27
232.263	8.72
232.646	8.3
233.03	7.72
233.413	4.4
233.797	5.32
234.18	6.47
234.563	7.58
234.946	6.36
235.33	7.41
235.713	7.31
236.096	6.53
236.479	8.48
236.862	7.72
237.245	7.9
237.628	6.86
238.011	7.53
238.394	8.05
238.777	7.74
239.16	7.32
239.543	6.54
239.925	6.27
240.308	6.88
240.691	8.1
241.073	6.34
241.456	7.53
241.838	7.93
242.221	6.81
242.603	7.46
242.986	7.16
243.368	7.55
243.75	7.32
244.133	7.54
244.515	6.98
244.897	7.27
245.279	6.39
245.661	8.4
246.043	7.67
246.425	7.63
246.807	7.27
247.189	7.21
247.571	7.37
247.953	7.23
248.335	7.23
248.717	6.88
249.098	6.8
249.48	7.06
249.862	6.81
250.243	6.78
250.625	6.98
251.006	6.79
251.388	6.74
251.769	7.12
252.151	6.21
252.532	7.03
252.913	6.28
253.295	7.05
253.676	6.78
254.057	5.99
254.438	6.99
254.819	6.56
255.2	7.04
255.581	5.98
255.962	7.73
256.343	6.43
256.724	6.24
257.105	7.31
257.486	6.03
257.867	6.73
258.247	7.33
258.628	6.75
259.009	5.56
259.389	6.2
259.77	6.48
260.15	6.4
260.531	6.84
260.911	6.76
261.292	6.64
261.672	6.22
262.052	6.27
262.432	6.27
262.813	6.22
263.193	6.96
263.573	6.36
263.953	6.21
264.333	6.24
264.713	6.46
265.093	5.97
265.473	6.36
265.853	6.73
266.233	6.08
266.612	6.29
266.992	6.02
267.372	6.69
267.752	6.15
268.131	6.65
268.511	6.26
268.89	6.33
269.27	6.04
269.649	5.43
270.029	5.65
270.408	5.1
270.787	5.28
271.167	6
271.546	5.41
271.925	6.04
272.304	6.14
272.683	6.03
273.062	5.75
273.441	5.88
273.82	6.1
274.199	5.8
274.578	5.62
274.957	5.71
275.336	5.69
275.715	5.58
276.093	6
276.472	6.66
276.851	6.24
277.229	5.19
277.608	5.62
277.986	5.66
278.365	5.27
278.743	5.29
279.122	5.97
279.5	5.84
279.878	6
280.257	5.44
280.635	5.72
281.013	5.62
281.391	6
281.769	5.64
282.147	5.59
282.525	5.13
282.903	5.61
283.281	5.07
283.659	5.17
284.037	5.27
284.415	5.26
284.792	5.14
285.17	6.07
285.548	5.22
285.925	5.35
286.303	5.3
286.68	5.82
287.058	5.66
287.435	5.42
287.813	5.42
288.19	5.36
288.567	5.35
288.945	5.47
289.322	5.54
289.699	4.98
290.076	5.48
290.453	5.28
290.83	5.32
291.207	5.51
291.584	5.05
291.961	5.06
292.338	4.95
292.715	5.07
293.092	5.36
293.469	5.12
293.845	5.22
294.222	5.5
294.599	6.16
294.975	4.6
295.352	5.57
295.728	5.16
296.105	5.42
296.481	4.78
296.858	5.31
297.234	5.36
297.61	5.27
297.986	4.94
298.363	5.39
298.739	5.12
299.115	5.03
299.491	5.03
299.867	4.82
300.243	5.26
300.619	5.21
300.995	4.44
301.371	5.54
301.746	4.72
302.122	5.49
302.498	5.23
302.874	5.69
303.249	5.06
303.625	4.72
304	5.33
304.376	5.39
304.751	5.3
305.127	4.89
305.502	5.23
305.878	5.27
306.253	4.47
306.628	4.94
307.003	4.91
307.378	4.83
307.754	5.03
308.129	4.97
308.504	5.22
308.879	5
309.254	4.75
309.629	4.91
310.003	5.14
310.378	5
310.753	5.09
311.128	5.09
311.502	4.9
311.877	5.14
312.252	4.87
312.626	4.75
313.001	4.77
313.375	5.33
313.75	4.74
314.124	4.57
314.498	4.81
314.873	5.06
315.247	4.86
315.621	4.9
315.995	4.63
316.369	4.73
316.743	4.41
317.117	4.62
317.491	5.2
317.865	4.85
318.239	4.96
318.613	5.17
318.987	5.07
319.361	5.24
319.734	4.46
320.108	5.16
320.482	4.83
320.855	4.68
321.229	4.92
321.602	4.17
321.976	4.87
322.349	4.96
322.723	5.13
323.096	5.12
323.469	4.97
323.843	5.05
324.216	4.91
324.589	5.32
324.962	4.74
325.335	5.34
325.708	5
326.081	5.14
326.454	4.9
326.827	5.02
327.2	5.95
327.573	5.26
327.945	4.91
328.318	4.52
328.691	5.35
329.063	4.92
329.436	4.94
329.809	5.47
330.181	4.98
330.553	5
330.926	5.04
331.298	4.68
331.671	5.13
332.043	4.72
332.415	4.7
332.787	5.38
333.159	5.14
333.532	4.54
333.904	5.26
334.276	5.13
334.648	5.01
335.02	4.93
335.391	4.83
335.763	5.11
336.135	5.03
336.507	5.09
336.879	5.45
337.25	4.97
337.622	5.32
337.993	5.06
338.365	4.81
338.736	5.15
339.108	5.04
339.479	5.23
339.851	4.79
340.222	4.5
340.593	5.03
340.964	5.6
341.336	4.82
341.707	4.87
342.078	5.03
342.449	4.87
342.82	5.34
343.191	5.15
343.562	5.11
343.933	5.49
344.303	5.19
344.674	5.31
345.045	5.38
345.416	5
345.786	5.08
346.157	4.95
346.527	5.24
346.898	5.21
347.268	5.05
347.639	5.2
348.009	5.35
348.38	5.18
348.75	4.88
349.12	5.19
349.49	5.27
349.861	5.46
350.231	4.75
350.601	5.61
350.971	5.19
351.341	5.48
351.711	5.44
352.081	5.16
352.45	4.99
352.82	5.16
353.19	5.35
353.56	5.31
353.929	5.19
354.299	5.39
354.669	5.15
355.038	5.45
355.408	5.09
355.777	5.38
356.147	5.65
356.516	5.36
356.885	5.26
357.254	5.87
357.624	5.25
357.993	5.06
358.362	5.57
358.731	5.35
359.1	5.19
359.469	5.19
359.838	5.31
360.207	5.77
360.576	5.01
360.945	5.76
361.314	5.16
361.682	5.7
362.051	5.42
362.42	5.31
362.788	5.56
363.157	5.38
363.525	5.51
363.894	5.2
364.262	5.46
364.631	5.39
364.999	5.4
365.367	5.47
365.735	5.2
366.104	5.13
366.472	5.34
366.84	5.8
367.208	5.35
367.576	5.6
367.944	5.96
368.312	5.51
368.68	5.86
369.048	5.56
369.416	5.5
369.783	5.64
370.151	5.91
370.519	5.75
370.886	5.49
371.254	5.75
371.621	5.48
371.989	5.57
372.356	5.45
372.724	5.75
373.091	5.8
373.458	5.47
373.826	5.6
374.193	5.9
374.56	5.45
374.927	5.62
375.294	5.54
375.661	5.87
376.028	5.51
376.395	6.05
376.762	5.62
377.129	5.62
377.496	5.57
377.863	5.68
378.229	5.63
378.596	5.81
378.963	5.85
379.329	5.86
379.696	5.59
380.062	5.58
380.429	5.87
380.795	5.9
381.161	5.89
381.528	5.79
381.894	5.67
382.26	5.84
382.626	5.85
382.993	5.67
383.359	6.08
383.725	5.95
384.091	5.94
384.457	5.61
384.823	5.68
385.188	5.78
385.554	5.78
385.92	5.84
386.286	5.74
386.651	5.81
387.017	5.73
387.383	5.84
387.748	6.05
388.114	5.96
388.479	5.9
388.845	6.08
389.21	6.09
389.575	5.77
389.94	6.02
390.306	6.15
390.671	5.92
391.036	5.87
391.401	5.62
391.766	6.34
392.131	6.07
392.496	5.82
392.861	5.73
393.226	5.88
393.591	6.08
393.956	5.88
394.32	5.83
394.685	6.08
395.05	6.03
395.414	6.1
395.779	6.01
396.143	5.96
396.508	5.94
396.872	6.15
397.236	5.99
397.601	6.18
397.965	6.03
398.329	5.96
398.694	6.18
399.058	6.01
399.422	6.32
399.786	5.75
400.15	6.02
400.514	6.27
400.878	5.95
401.242	5.96
401.605	6.47
401.969	5.92
402.333	6.12
402.697	6.19
403.06	6.14
403.424	5.97
403.787	5.84
404.151	6.01
404.514	5.85
404.878	6.33
405.241	6.13
405.604	6.14
405.968	6.16
406.331	6.24
406.694	6.03
407.057	6.3
407.42	6.22
407.783	6.03
408.146	6.27
408.509	5.91
408.872	6.27
409.235	6.02
409.598	6.29
409.961	6.12
410.323	6.3
410.686	6.28
411.049	5.97
411.411	6.14
411.774	6.14
412.136	6.2
412.499	6.23
412.861	5.96
413.223	6.28
413.586	6.24
413.948	6.03
414.31	6.24
414.672	6.21
415.035	6.32
415.397	6.15
415.759	6.32
416.121	6.26
416.483	6.09
416.845	6.33
417.206	6.24
417.568	6.36
417.93	6.1
418.292	6.27
418.653	6.26
419.015	6.35
419.377	6.35
419.738	6.28
420.1	6.28
420.461	6.21
420.822	6.18
421.184	6.2
421.545	6.31
421.906	6.19
422.267	6.22
422.629	6.19
422.99	6.13
423.351	5.96
423.712	6.15
424.073	6.19
424.434	6.11
424.795	6.1
425.155	6.27
425.516	6.24
425.877	6.18
426.238	6.22
426.598	6.2
426.959	6.04
427.32	6.2
427.68	6.14
428.041	6.29
428.401	6.14
428.761	6.06
429.122	6.31
429.482	6.11
429.842	6.3
430.202	6.46
430.563	6.3
430.923	6.52
431.283	6.36
431.643	6.34
432.003	6.42
432.363	6.41
432.722	6.58
433.082	6.38
433.442	6.45
433.802	6.41
434.161	6.44
434.521	6.39
434.881	6.42
435.24	6.23
435.6	6.3
435.959	6.36
436.319	6.16
436.678	6.26
437.037	6.36
437.396	6.37
437.756	6.4
438.115	6.36
438.474	6.3
438.833	6.29
439.192	6.22
439.551	6.31
439.91	6.36
440.269	6.36
440.628	6.38
440.987	6.3
441.345	6.38
441.704	6.34
442.063	6.37
442.421	6.22
442.78	6.28
443.138	6.3
443.497	6.3
443.855	6.21
444.214	6.3
444.572	6.38
444.93	6.28
445.288	6.28
445.647	6.33
446.005	6.32
446.363	6.35
446.721	6.34
447.079	6.36
447.437	6.35
447.795	6.32
448.153	6.26
448.51	6.25
448.868	6.26
449.226	6.21
449.584	6.17
449.941	6.23
450.299	6.3
450.656	6.23
451.014	6.31
451.371	6.39
451.729	6.29
452.086	6.41
452.443	6.36
452.801	6.41
453.158	6.45
453.515	6.37
453.872	6.26
454.229	6.24
454.586	6.41
454.943	6.27
455.3	6.3
455.657	6.23
456.014	6.42
456.371	6.31
456.727	6.33
457.084	6.18
457.441	6.6
457.797	6.45
458.154	6.35
458.51	6.37
458.867	6.38
459.223	6.53
459.58	6.37
459.936	6.54
460.292	6.44
460.648	6.39
461.005	6.43
461.361	6.36
461.717	6.39
462.073	6.31
462.429	6.28
462.785	6.32
463.141	6.46
463.496	6.44
463.852	6.37
464.208	6.37
464.564	6.4
464.919	6.41
465.275	6.38
465.631	6.36
465.986	6.39
466.342	6.3
466.697	6.48
467.052	6.37
467.408	6.39
467.763	6.41
468.118	6.46
468.473	6.53
468.829	6.49
469.184	6.45
469.539	6.31
469.894	6.48
470.249	6.46
470.603	6.45
470.958	6.47
471.313	6.29
471.668	6.38
472.023	6.32
472.377	6.32
472.732	6.3
473.086	6.47
473.441	6.48
473.795	6.49
474.15	6.49
474.504	6.29
474.859	6.53
475.213	6.49
475.567	6.49
475.921	6.27
476.275	6.58
476.63	6.65
476.984	6.55
477.338	6.53
477.692	6.42
478.045	6.48
478.399	6.55
478.753	6.37
479.107	6.37
479.461	6.39
479.814	6.36
480.168	6.49
480.521	6.37
480.875	6.46
481.228	6.5
481.582	6.38
481.935	6.34
482.289	6.43
482.642	6.35
482.995	6.42
483.348	6.49
483.701	6.34
484.055	6.31
484.408	6.38
484.761	6.45
485.114	6.39
485.466	6.26
485.819	6.1
486.172	5.99
486.525	5.92
486.878	5.97
487.23	5.99
487.583	6.12
487.936	6.32
488.288	6.38
488.641	6.3
488.993	6.27
489.345	6.24
489.698	6.16
490.05	6.09
490.402	6.13
490.754	6.07
491.107	6.06
491.459	6.29
491.811	6.23
492.163	6.32
492.515	6.45
492.866	6.46
493.218	6.35
493.57	6.2
493.922	6.1
494.274	6.07
494.625	6.14
494.977	6.24
495.328	6.24
495.68	6.26
496.031	6.36
496.383	6.38
496.734	6.45
497.086	6.4
497.437	6.51
497.788	6.47
498.139	6.43
498.49	6.43
498.842	6.28
499.193	6.35
499.544	6.33
499.894	6.45
500.245	6.43
500.596	6.36
500.947	6.36
501.298	6.5
501.648	6.48
501.999	6.51
502.35	6.47
502.7	6.51
503.051	6.52
503.401	6.46
503.752	6.34
504.102	6.47
504.452	6.53
504.803	6.38
505.153	6.51
505.503	6.63
505.853	6.37
506.203	6.56
506.553	6.58
506.903	6.35
507.253	6.46
507.603	6.44
507.953	6.49
508.303	6.64
508.652	6.41
509.002	6.36
509.352	6.55
509.701	6.5
510.051	6.46
510.4	6.43
510.75	6.44
511.099	6.49
511.449	6.43
511.798	6.49
512.147	6.46
512.496	6.53
512.846	6.46
513.195	6.52
513.544	6.45
513.893	6.52
514.242	6.43
514.591	6.53
514.939	6.39
515.288	6.42
515.637	6.49
515.986	6.46
516.334	6.37
516.683	6.51
517.032	6.61
517.38	6.47
517.729	6.51
518.077	6.57
518.426	6.54
518.774	6.59
519.122	6.61
519.47	6.44
519.819	6.43
520.167	6.41
520.515	6.39
520.863	6.36
521.211	6.28
521.559	6.39
521.907	6.32
522.255	6.43
522.602	6.27
522.95	6.43
523.298	6.37
523.645	6.54
523.993	6.32
524.341	6.55
524.688	6.47
525.036	6.52
525.383	6.52
525.73	6.47
526.078	6.49
526.425	6.49
526.772	6.52
527.119	6.5
527.466	6.47
527.814	6.41
528.161	6.29
528.508	6.36
528.854	6.31
529.201	6.37
529.548	6.51
529.895	6.44
530.242	6.36
530.588	6.26
530.935	6.1
531.282	6
531.628	6.1
531.975	6.2
532.321	6.24
532.667	6.27
533.014	6.34
533.36	6.39
533.706	6.31
534.052	6.42
534.399	6.49
534.745	6.43
535.091	6.39
535.437	6.28
535.783	6.22
536.129	6.16
536.474	6.24
536.82	6.29
537.166	6.38
537.512	6.47
537.857	6.49
538.203	6.53
538.549	6.41
538.894	6.34
539.239	6.27
539.585	6.34
539.93	6.45
540.276	6.49
540.621	6.4
540.966	6.6
541.311	6.47
541.656	6.54
542.001	6.51
542.346	6.5
542.691	6.42
543.036	6.35
543.381	6.3
543.726	6.18
544.071	6.17
544.415	6.2
544.76	6.19
545.105	6.32
545.449	6.27
545.794	6.3
546.138	6.39
546.483	6.41
546.827	6.37
547.171	6.44
547.516	6.39
547.86	6.5
548.204	6.47
548.548	6.49
548.892	6.33
549.236	6.35
549.58	6.52
549.924	6.36
550.268	6.33
550.612	6.54
550.956	6.46
551.3	6.65
551.643	6.65
551.987	6.65
552.33	6.56
552.674	6.56
553.017	6.63
553.361	6.61
553.704	6.64
554.048	6.62
554.391	6.62
554.734	6.52
555.077	6.38
555.42	6.58
555.764	6.4
556.107	6.39
556.45	6.39
556.793	6.6
557.135	6.6
557.478	6.48
557.821	6.5
558.164	6.48
558.507	6.4
558.849	6.74
559.192	6.62
559.534	6.62
559.877	6.41
560.219	6.72
560.562	6.59
560.904	6.5
561.246	6.53
561.589	6.64
561.931	6.63
562.273	6.72
562.615	6.67
562.957	6.4
563.299	6.54
563.641	6.56
563.983	6.63
564.325	6.38
564.667	6.51
565.008	6.56
565.35	6.59
565.692	6.34
566.033	6.52
566.375	6.68
566.716	6.57
567.058	6.75
567.399	6.72
567.741	6.63
568.082	6.51
568.423	6.58
568.764	6.34
569.105	6.48
569.447	6.61
569.788	6.5
570.129	6.54
570.47	6.62
570.811	6.41
571.151	6.57
571.492	6.59
571.833	6.49
572.174	6.6
572.514	6.55
572.855	6.54
573.195	6.58
573.536	6.61
573.876	6.4
574.217	6.37
574.557	6.54
574.898	6.36
575.238	6.61
575.578	6.35
575.918	6.45
576.258	6.62
576.598	6.49
576.938	6.47
577.278	6.62
577.618	6.61
577.958	6.41
578.298	6.53
578.638	6.43
578.977	6.6
579.317	6.5
579.657	6.4
579.996	6.64
580.336	6.67
580.675	6.89
581.014	6.47
581.354	6.66
581.693	6.3
582.032	6.49
582.372	6.65
582.711	6.51
583.05	6.64
583.389	6.46
583.728	6.52
584.067	6.36
584.406	6.62
584.745	6.46
585.083	6.25
585.422	6.64
585.761	6.71
586.1	6.59
586.438	6.71
586.777	6.57
587.115	6.54
587.454	6.56
587.792	6.57
588.13	6.62
588.469	6.71
588.807	6.55
589.145	6.51
589.483	6.57
589.821	6.29
590.159	6.61
590.497	6.63
590.835	6.33
591.173	6.6
591.511	6.52
591.849	6.59
592.187	6.27
592.524	6.46
592.862	6.48
593.2	6.65
593.537	6.51
593.875	6.5
594.212	6.32
594.55	6.5
594.887	6.32
595.224	6.65
595.561	6.58
595.899	6.84
596.236	6.67
596.573	6.63
596.91	6.58
597.247	6.42
597.584	6.57
597.921	6.48
598.258	6.55
598.594	6.52
598.931	6.61
599.268	6.37
599.604	6.49
599.941	6.55
600.277	6.3
600.614	6.37
600.95	6.35
601.287	6.5
601.623	6.52
601.959	6.36
602.296	6.26
602.632	6.22
602.968	6.74
603.304	6.52
603.64	6.57
603.976	6.47
604.312	6.6
604.648	6.62
604.984	6.52
605.319	6.6
605.655	6.57
605.991	6.34
606.326	6.64
606.662	6.36
606.998	6.41
607.333	6.26
607.668	6.46
608.004	6.38
608.339	6.38
608.674	6.63
609.01	6.45
609.345	6.38
609.68	6.33
610.015	6.37
610.35	6.8
610.685	6.45
611.02	6.56
611.355	6.34
611.689	6.43
612.024	6.48
612.359	6.26
612.694	6.39
613.028	6.24
613.363	6.38
613.697	6.43
614.032	6.6
614.366	6.43
614.7	6.49
615.035	6.18
615.369	6.45
615.703	6.55
616.037	6.77
616.371	6.22
616.705	6.29
617.039	6.29
617.373	6.46
617.707	6.78
618.041	6.52
618.375	6.41
618.709	6.45
619.042	6.32
619.376	6.41
619.71	6.53
620.043	6.21
620.377	6.5
620.71	6.35
621.043	6.58
621.377	6.14
621.71	6.39
622.043	6.4
622.376	6.61
622.709	6.65
623.043	6.35
623.376	6.58
623.709	6.44
624.041	6.64
624.374	6.51
624.707	6.32
625.04	6.56
625.373	6.78
625.705	6.52
626.038	6.91
626.37	6.3
626.703	6.66
627.035	6.23
627.368	6.49
627.7	6.36
628.032	6.4
628.365	6.54
628.697	6.39
629.029	6.4
629.361	6.42
629.693	6.61
630.025	6.48
630.357	6.42
630.689	6.5
631.021	6.4
631.353	6.72
631.684	6.39
632.016	5.87
632.348	6.49
632.679	6.25
633.011	6.7
633.342	6.73
633.674	6.48
634.005	6.29
634.336	6.75
634.668	6.76
634.999	6.53
635.33	6.63
635.661	6.51
635.992	6.6
636.323	6.63
636.654	6.38
636.985	6.53
637.316	6.61
637.647	6.31
637.977	6.87
638.308	6.14
638.639	6.66
638.969	6.42
639.3	6.69
639.63	6.81
639.961	6.32
640.291	6.21
640.622	6.98
640.952	6.86
641.282	6.51
641.612	6.73
641.943	6.46
642.273	6.66
642.603	6.19
642.933	6.71
643.263	6.15
643.592	6.47
643.922	6.62
644.252	6.69
644.582	6.48
644.911	6.6
645.241	6.61
645.571	6.21
645.9	6.88
646.23	6.37
646.559	6.7
646.888	6.51
647.218	6.23
647.547	6.18
647.876	6.38
648.205	6.05
648.534	6.12
648.863	6.55
649.192	6.41
649.521	6.46
649.85	6.51
650.179	6.66
650.508	6.67
650.837	6.56
651.165	6.36
651.494	6.71
651.822	6.84
652.151	6.79
652.479	6.64
652.808	6.31
653.136	5.9
653.465	6.38
653.793	6.46
654.121	6.79
654.449	6.76
654.777	6.29
655.105	6.92
655.433	6.52
655.761	6.78
656.089	6.49
656.417	6.19
656.745	6.9
657.073	6.4
657.4	6.4
657.728	6.55
658.056	6.68
658.383	6.67
658.711	6.91
659.038	6.34
659.365	6.72
659.693	6.52
660.02	6.71
660.347	6.76
660.674	7
661.001	6.5
661.329	6.49
661.656	6.32
661.982	6.71
662.309	6.65
662.636	6.89
662.963	6.43
663.29	6.32
663.616	6.63
663.943	6.83
664.27	6.88
664.596	6.72
664.923	6.45
665.249	7.29
665.576	7.32
665.902	6.42
666.228	6.49
666.554	6.3
666.881	6.65
667.207	6.84
667.533	6.91
667.859	6.79
668.185	7.3
668.511	6.75
668.837	6.46
669.162	6.82
669.488	6.44
669.814	6.53
670.139	7.11
670.465	6.58
670.791	6.93
671.116	6.69
671.442	6.73
671.767	6.69
672.092	6.75
672.418	6.48
672.743	6.57
673.068	5.91
673.393	6.53
673.718	6.53
674.043	6.83
674.368	6.3
674.693	6.78
675.018	7.01
675.343	6.62
675.667	6.35
675.992	6.47
676.317	6.74
676.641	7.11
676.966	6.72
677.29	6.55
677.615	7.18
677.939	6.41
678.264	6.41
678.588	7.26
678.912	6.88
679.236	7.65
679.56	6.26
679.885	6.82
680.209	6.44
680.532	7.12
680.856	7.26
681.18	7.16
681.504	6.45
681.828	6.72
682.152	7.31
682.475	6.34
682.799	6.87
683.122	6.77
683.446	6.83
683.769	6.66
684.093	6.58
684.416	6.91
684.739	7.02
685.062	7.01
685.386	6.97
685.709	6.46
686.032	6.66
686.355	6.83
686.678	6.83
687.001	7.06
687.324	6.94
687.646	6.51
687.969	6.68
688.292	6.85
688.614	6.92
688.937	6.67
689.26	6.63
689.582	6.42
689.904	6.52
690.227	6.53
690.549	7.09
690.871	6.49
691.194	7.03
691.516	6.64
691.838	6.32
692.16	6.56
692.482	6.91
