Data from 0029_crown_Reflection__3__129.txt Node

Date: Thu Oct 20 21:55:58 CDT 2022
User: ToomeyLab
Spectrometer: FLMS14357
Trigger mode: 0
Integration Time (sec): 1.000000E-2
Scans to average: 100
Electric dark correction enabled: true
Nonlinearity correction enabled: false
Boxcar width: 0
XAxis mode: Wavelengths
Number of Pixels in Spectrum: 2048
>>>>>Begin Spectral Data<<<<<
189.047	-158.68
189.435	-158.68
189.823	-158.68
190.211	27.78
190.599	19.43
190.987	40.4
191.375	175.2
191.763	-32.53
192.151	307.65
192.538	96.27
192.926	103.73
193.314	82.71
193.702	64.86
194.089	10.44
194.477	244.7
194.864	1129.5
195.252	112.34
195.639	-18.61
196.027	10118.52
196.414	35.25
196.801	-620.38
197.189	10.48
197.576	29.36
197.963	15.04
198.351	-17.44
198.738	-37.82
199.125	12.25
199.512	17.78
199.899	-14.34
200.286	4.34
200.673	-10.7
201.06	18.38
201.447	29.42
201.833	19.12
202.22	-6.28
202.607	14.71
202.994	8.04
203.38	-68.03
203.767	2.69
204.154	-21.59
204.54	-3.64
204.927	22.37
205.313	34.48
205.699	2.26
206.086	13.35
206.472	11.65
206.858	-3.87
207.245	25.72
207.631	-19.35
208.017	-45.52
208.403	-5.93
208.789	-2.52
209.175	18.73
209.561	34.96
209.947	9.5
210.333	22.63
210.719	8.58
211.105	4.53
211.491	-29.4
211.876	14.23
212.262	11.38
212.648	-9.85
213.034	1.85
213.419	-28.67
213.805	-13.53
214.19	-11.02
214.576	-27.14
214.961	-19.2
215.346	7.24
215.732	-7.33
216.117	-30.16
216.502	-5.02
216.888	-21.38
217.273	-2.37
217.658	3.56
218.043	18.43
218.428	-3.88
218.813	4.6
219.198	3.44
219.583	9.86
219.968	25.1
220.353	-12.66
220.738	21.01
221.122	7.37
221.507	-7.92
221.892	11.77
222.276	-6.04
222.661	2.15
223.046	14.03
223.43	9.8
223.815	7.43
224.199	-3.68
224.583	-3.26
224.968	6.15
225.352	12.49
225.736	4.74
226.121	-1.96
226.505	7.78
226.889	4.15
227.273	0.07
227.657	5.8
228.041	4.69
228.425	7.29
228.809	6.06
229.193	8.66
229.577	5.64
229.961	7.11
230.344	6.41
230.728	7.21
231.112	7.63
231.495	6.44
231.879	8.24
232.263	7.87
232.646	5.76
233.03	5.17
233.413	5.12
233.797	6.38
234.18	6.01
234.563	6.6
234.946	7.08
235.33	6.49
235.713	7.12
236.096	4.65
236.479	8.3
236.862	7.57
237.245	5.79
237.628	6.17
238.011	7.13
238.394	8.39
238.777	6.55
239.16	5.02
239.543	4.42
239.925	5.91
240.308	6.09
240.691	7.4
241.073	5.89
241.456	6.34
241.838	6.52
242.221	6.31
242.603	6.24
242.986	6.49
243.368	6.51
243.75	6.71
244.133	6.36
244.515	6.19
244.897	6.34
245.279	5
245.661	7.55
246.043	6.23
246.425	6.26
246.807	7.13
247.189	6.19
247.571	6.79
247.953	6.42
248.335	6.31
248.717	6.37
249.098	6.15
249.48	6.07
249.862	6.21
250.243	6.22
250.625	6.55
251.006	6.57
251.388	5.96
251.769	6.68
252.151	5.84
252.532	6.16
252.913	5.81
253.295	6.04
253.676	6.48
254.057	5.3
254.438	5.75
254.819	6.24
255.2	5.99
255.581	6.53
255.962	5.93
256.343	6.7
256.724	5.98
257.105	5.78
257.486	6.45
257.867	5.43
258.247	6.36
258.628	6.18
259.009	5.14
259.389	5.82
259.77	5.67
260.15	5.63
260.531	5.6
260.911	5.53
261.292	5.9
261.672	5.77
262.052	5.82
262.432	5.89
262.813	5.14
263.193	6.09
263.573	5.72
263.953	6.18
264.333	6.02
264.713	5.52
265.093	5.4
265.473	5.72
265.853	6.02
266.233	5.4
266.612	5.47
266.992	5.04
267.372	6.08
267.752	5.83
268.131	6.1
268.511	5.84
268.89	5.25
269.27	5.04
269.649	4.81
270.029	5.38
270.408	5.04
270.787	5.11
271.167	5.63
271.546	5.47
271.925	5.71
272.304	5.39
272.683	5.54
273.062	5.09
273.441	5.07
273.82	5.39
274.199	5.07
274.578	4.88
274.957	5.18
275.336	5.09
275.715	4.66
276.093	5.68
276.472	5.84
276.851	5.42
277.229	4.95
277.608	5.03
277.986	5.11
278.365	4.97
278.743	4.92
279.122	5.16
279.5	5.15
279.878	5.32
280.257	5.15
280.635	4.65
281.013	4.86
281.391	5.73
281.769	5.34
282.147	4.41
282.525	4.96
282.903	5.05
283.281	4.73
283.659	4.5
284.037	4.33
284.415	4.98
284.792	4.62
285.17	5.08
285.548	4.88
285.925	4.92
286.303	4.95
286.68	5.44
287.058	5.05
287.435	4.86
287.813	4.94
288.19	4.77
288.567	5.13
288.945	5.23
289.322	4.77
289.699	4.47
290.076	4.81
290.453	4.75
290.83	4.76
291.207	5.08
291.584	4.98
291.961	4.71
292.338	4.46
292.715	4.79
293.092	4.78
293.469	4.62
293.845	4.8
294.222	4.87
294.599	5.06
294.975	4.55
295.352	4.75
295.728	4.53
296.105	4.88
296.481	4.54
296.858	4.7
297.234	4.92
297.61	4.48
297.986	4.51
298.363	4.53
298.739	4.58
299.115	4.25
299.491	4.46
299.867	4.14
300.243	4.69
300.619	4.85
300.995	4.37
301.371	4.33
301.746	4.32
302.122	5
302.498	4.4
302.874	5.03
303.249	4.66
303.625	4.63
304	4.91
304.376	4.57
304.751	4.59
305.127	4.53
305.502	4.67
305.878	4.71
306.253	4.15
306.628	4.51
307.003	4.57
307.378	4.05
307.754	4.52
308.129	4.31
308.504	4.71
308.879	4.28
309.254	4.37
309.629	4.56
310.003	4.42
310.378	4.58
310.753	4.36
311.128	4.25
311.502	4.2
311.877	4.65
312.252	4.11
312.626	4.33
313.001	4.38
313.375	4.72
313.75	4.37
314.124	4.24
314.498	4.21
314.873	4.23
315.247	4.18
315.621	4.31
315.995	3.85
316.369	4.72
316.743	4.18
317.117	4.16
317.491	4.49
317.865	4.18
318.239	4.44
318.613	5.03
318.987	4.56
319.361	4.7
319.734	3.92
320.108	4.86
320.482	4.48
320.855	4.58
321.229	4.55
321.602	3.72
321.976	4.09
322.349	4.42
322.723	5.21
323.096	4.75
323.469	4.55
323.843	4.49
324.216	4.18
324.589	4.72
324.962	4.38
325.335	4.85
325.708	4.84
326.081	4.66
326.454	4.53
326.827	4.53
327.2	4.59
327.573	4.27
327.945	4.26
328.318	4.34
328.691	4.8
329.063	4.83
329.436	4.71
329.809	4.53
330.181	4.24
330.553	4.08
330.926	4.16
331.298	4.35
331.671	4.96
332.043	4.54
332.415	4.65
332.787	4.75
333.159	4.6
333.532	4.47
333.904	4.6
334.276	4.42
334.648	4.5
335.02	4.29
335.391	4.34
335.763	4.26
336.135	4.36
336.507	4
336.879	4.68
337.25	4.52
337.622	4.27
337.993	4.17
338.365	4.5
338.736	4.79
339.108	4.34
339.479	4.7
339.851	3.99
340.222	4.16
340.593	4.82
340.964	5.31
341.336	4.65
341.707	4.08
342.078	4.72
342.449	4.08
342.82	4.38
343.191	4.4
343.562	4.75
343.933	4.39
344.303	4.27
344.674	4.68
345.045	4.61
345.416	4.16
345.786	4.31
346.157	4.33
346.527	4.47
346.898	4.8
347.268	4.39
347.639	4.66
348.009	4.87
348.38	4.7
348.75	4.41
349.12	4.5
349.49	4.98
349.861	5.14
350.231	4.71
350.601	4.8
350.971	4.67
351.341	4.86
351.711	4.42
352.081	4.27
352.45	4.83
352.82	4.39
353.19	4.78
353.56	4.81
353.929	4.35
354.299	5.26
354.669	5.06
355.038	4.89
355.408	4.41
355.777	4.74
356.147	4.82
356.516	4.78
356.885	4.64
357.254	4.99
357.624	4.78
357.993	4.45
358.362	4.74
358.731	4.74
359.1	4.57
359.469	4.64
359.838	4.74
360.207	5.15
360.576	4.47
360.945	4.96
361.314	4.74
361.682	4.76
362.051	4.74
362.42	4.66
362.788	4.83
363.157	4.71
363.525	4.8
363.894	4.79
364.262	4.93
364.631	4.6
364.999	4.7
365.367	4.95
365.735	5.02
366.104	4.68
366.472	4.65
366.84	4.89
367.208	4.65
367.576	4.9
367.944	4.97
368.312	4.96
368.68	4.9
369.048	4.26
369.416	4.99
369.783	5.11
370.151	5.41
370.519	5.16
370.886	4.83
371.254	5.11
371.621	4.85
371.989	5.07
372.356	4.73
372.724	5.37
373.091	5.11
373.458	5.03
373.826	4.91
374.193	5.03
374.56	4.66
374.927	4.73
375.294	5.08
375.661	5.39
376.028	5.11
376.395	5.29
376.762	4.91
377.129	4.78
377.496	4.79
377.863	5.05
378.229	4.99
378.596	5.06
378.963	5.11
379.329	5.33
379.696	5.05
380.062	5.08
380.429	5.24
380.795	5.07
381.161	5.55
381.528	5.03
381.894	5.32
382.26	5.13
382.626	5.21
382.993	5.26
383.359	5.05
383.725	5.36
384.091	5.3
384.457	4.92
384.823	5.15
385.188	5.3
385.554	4.66
385.92	4.97
386.286	5.07
386.651	4.7
387.017	5.26
387.383	5.2
387.748	5.31
388.114	5.39
388.479	5.17
388.845	5.37
389.21	5.31
389.575	5.31
389.94	5.42
390.306	5.38
390.671	5.07
391.036	5.22
391.401	5.08
391.766	5.35
392.131	5.53
392.496	5.1
392.861	5.02
393.226	5.14
393.591	5.53
393.956	5.39
394.32	5.31
394.685	5.55
395.05	5.07
395.414	5.4
395.779	5.25
396.143	5.41
396.508	5.42
396.872	5.47
397.236	5.43
397.601	5.62
397.965	5.38
398.329	5.36
398.694	5.22
399.058	5.15
399.422	5.63
399.786	5.34
400.15	5.29
400.514	5.44
400.878	5.48
401.242	5.46
401.605	5.69
401.969	5.59
402.333	5.49
402.697	5.65
403.06	5.3
403.424	5.39
403.787	5.68
404.151	5.33
404.514	5.34
404.878	5.51
405.241	5.62
405.604	5.78
405.968	5.56
406.331	5.33
406.694	5.54
407.057	5.52
407.42	5.52
407.783	5.37
408.146	5.59
408.509	5.51
408.872	5.47
409.235	5.28
409.598	5.51
409.961	5.27
410.323	5.78
410.686	5.44
411.049	5.46
411.411	5.48
411.774	5.4
412.136	5.5
412.499	5.53
412.861	5.43
413.223	5.58
413.586	5.45
413.948	5.58
414.31	5.47
414.672	5.51
415.035	5.44
415.397	5.5
415.759	5.85
416.121	5.63
416.483	5.58
416.845	5.58
417.206	5.35
417.568	5.87
417.93	5.49
418.292	5.66
418.653	5.58
419.015	5.63
419.377	5.49
419.738	5.5
420.1	5.55
420.461	5.53
420.822	5.49
421.184	5.44
421.545	5.6
421.906	5.48
422.267	5.46
422.629	5.36
422.99	5.48
423.351	5.4
423.712	5.39
424.073	5.53
424.434	5.51
424.795	5.53
425.155	5.54
425.516	5.58
425.877	5.42
426.238	5.54
426.598	5.56
426.959	5.57
427.32	5.54
427.68	5.52
428.041	5.62
428.401	5.62
428.761	5.58
429.122	5.56
429.482	5.4
429.842	5.53
430.202	5.76
430.563	5.75
430.923	5.85
431.283	5.65
431.643	5.74
432.003	5.64
432.363	5.71
432.722	5.97
433.082	5.6
433.442	5.62
433.802	5.63
434.161	5.77
434.521	5.62
434.881	5.58
435.24	5.6
435.6	5.66
435.959	5.8
436.319	5.57
436.678	5.57
437.037	5.62
437.396	5.75
437.756	5.76
438.115	5.7
438.474	5.64
438.833	5.69
439.192	5.57
439.551	5.71
439.91	5.75
440.269	5.73
440.628	5.66
440.987	5.7
441.345	5.71
441.704	5.73
442.063	5.69
442.421	5.57
442.78	5.67
443.138	5.67
443.497	5.65
443.855	5.74
444.214	5.72
444.572	5.8
444.93	5.69
445.288	5.62
445.647	5.81
446.005	5.66
446.363	5.68
446.721	5.67
447.079	5.61
447.437	5.69
447.795	5.58
448.153	5.6
448.51	5.59
448.868	5.53
449.226	5.61
449.584	5.58
449.941	5.72
450.299	5.64
450.656	5.66
451.014	5.7
451.371	5.81
451.729	5.71
452.086	5.86
452.443	5.63
452.801	5.79
453.158	5.75
453.515	5.73
453.872	5.71
454.229	5.6
454.586	5.84
454.943	5.61
455.3	5.68
455.657	5.77
456.014	5.78
456.371	5.68
456.727	5.71
457.084	5.75
457.441	5.76
457.797	5.86
458.154	5.82
458.51	5.76
458.867	5.82
459.223	5.98
459.58	5.75
459.936	5.79
460.292	5.68
460.648	5.58
461.005	5.66
461.361	5.7
461.717	5.65
462.073	5.8
462.429	5.72
462.785	5.78
463.141	5.86
463.496	5.89
463.852	5.88
464.208	5.86
464.564	5.71
464.919	5.81
465.275	5.85
465.631	5.75
465.986	5.97
466.342	5.76
466.697	5.76
467.052	5.72
467.408	5.81
467.763	5.82
468.118	5.98
468.473	5.89
468.829	5.89
469.184	5.83
469.539	5.77
469.894	5.76
470.249	5.92
470.603	5.81
470.958	5.83
471.313	5.89
471.668	5.66
472.023	5.8
472.377	5.8
472.732	5.88
473.086	5.93
473.441	5.75
473.795	5.79
474.15	5.57
474.504	5.66
474.859	5.89
475.213	5.89
475.567	5.94
475.921	5.59
476.275	5.74
476.63	5.87
476.984	5.92
477.338	5.81
477.692	5.85
478.045	5.83
478.399	5.9
478.753	5.62
479.107	5.81
479.461	5.78
479.814	5.8
480.168	5.87
480.521	5.83
480.875	5.87
481.228	5.84
481.582	5.8
481.935	5.78
482.289	5.63
482.642	5.65
482.995	5.79
483.348	5.92
483.701	5.72
484.055	5.67
484.408	5.62
484.761	5.58
485.114	5.51
485.466	5.48
485.819	5.49
486.172	5.5
486.525	5.56
486.878	5.54
487.23	5.62
487.583	5.6
487.936	5.66
488.288	5.61
488.641	5.6
488.993	5.57
489.345	5.61
489.698	5.58
490.05	5.56
490.402	5.65
490.754	5.65
491.107	5.73
491.459	5.72
491.811	5.62
492.163	5.72
492.515	5.56
492.866	5.66
493.218	5.59
493.57	5.61
493.922	5.56
494.274	5.61
494.625	5.65
494.977	5.76
495.328	5.71
495.68	5.85
496.031	5.79
496.383	5.79
496.734	5.85
497.086	5.69
497.437	5.9
497.788	5.87
498.139	5.77
498.49	5.85
498.842	5.74
499.193	5.73
499.544	5.82
499.894	5.82
500.245	5.84
500.596	5.78
500.947	5.8
501.298	5.91
501.648	5.79
501.999	5.85
502.35	5.82
502.7	5.88
503.051	5.86
503.401	5.97
503.752	5.75
504.102	5.77
504.452	5.92
504.803	5.79
505.153	5.9
505.503	5.99
505.853	5.8
506.203	5.88
506.553	5.91
506.903	5.74
507.253	5.83
507.603	5.87
507.953	5.93
508.303	5.95
508.652	5.81
509.002	5.72
509.352	5.93
509.701	5.82
510.051	5.83
510.4	5.78
510.75	5.74
511.099	5.78
511.449	5.83
511.798	5.81
512.147	5.86
512.496	5.89
512.846	5.87
513.195	5.85
513.544	5.83
513.893	5.89
514.242	5.87
514.591	5.94
514.939	5.92
515.288	5.93
515.637	5.9
515.986	5.89
516.334	5.87
516.683	5.92
517.032	5.89
517.38	5.88
517.729	5.9
518.077	5.91
518.426	5.85
518.774	5.83
519.122	5.8
519.47	5.75
519.819	5.71
520.167	5.77
520.515	5.76
520.863	5.78
521.211	5.83
521.559	5.79
521.907	5.75
522.255	5.81
522.602	5.73
522.95	5.81
523.298	5.73
523.645	5.86
523.993	5.82
524.341	5.98
524.688	5.85
525.036	5.86
525.383	5.89
525.73	5.78
526.078	5.77
526.425	5.9
526.772	5.81
527.119	5.7
527.466	5.8
527.814	5.78
528.161	5.72
528.508	5.77
528.854	5.71
529.201	5.68
529.548	5.71
529.895	5.61
530.242	5.6
530.588	5.58
530.935	5.58
531.282	5.58
531.628	5.62
531.975	5.75
532.321	5.74
532.667	5.79
533.014	5.8
533.36	5.73
533.706	5.7
534.052	5.76
534.399	5.74
534.745	5.68
535.091	5.67
535.437	5.74
535.783	5.64
536.129	5.62
536.474	5.74
536.82	5.8
537.166	5.71
537.512	5.8
537.857	5.75
538.203	5.79
538.549	5.71
538.894	5.82
539.239	5.72
539.585	5.82
539.93	5.88
540.276	5.92
540.621	5.73
540.966	5.8
541.311	5.81
541.656	5.83
542.001	5.69
542.346	5.68
542.691	5.62
543.036	5.58
543.381	5.65
543.726	5.6
544.071	5.62
544.415	5.68
544.76	5.63
545.105	5.78
545.449	5.75
545.794	5.79
546.138	5.83
546.483	5.78
546.827	5.78
547.171	5.64
547.516	5.86
547.86	5.71
548.204	5.74
548.548	5.76
548.892	5.74
549.236	5.72
549.58	5.83
549.924	5.77
550.268	5.79
550.612	5.84
550.956	5.96
551.3	5.81
551.643	5.86
551.987	5.92
552.33	5.79
552.674	5.78
553.017	5.77
553.361	5.91
553.704	5.88
554.048	5.82
554.391	5.77
554.734	5.86
555.077	5.85
555.42	5.87
555.764	5.67
556.107	5.81
556.45	5.73
556.793	5.83
557.135	5.86
557.478	5.8
557.821	6.03
558.164	5.87
558.507	5.79
558.849	5.99
559.192	5.91
559.534	6.05
559.877	5.79
560.219	5.91
560.562	5.77
560.904	5.78
561.246	5.88
561.589	6.01
561.931	5.75
562.273	5.99
562.615	5.86
562.957	5.73
563.299	5.84
563.641	5.67
563.983	5.92
564.325	5.8
564.667	5.67
565.008	5.84
565.35	5.83
565.692	5.85
566.033	5.74
566.375	5.86
566.716	5.9
567.058	5.78
567.399	5.89
567.741	5.76
568.082	5.74
568.423	5.94
568.764	5.75
569.105	5.79
569.447	5.76
569.788	5.73
570.129	5.75
570.47	5.72
570.811	5.62
571.151	5.87
571.492	5.7
571.833	5.74
572.174	5.73
572.514	5.64
572.855	5.77
573.195	5.67
573.536	5.74
573.876	5.67
574.217	5.69
574.557	5.75
574.898	5.82
575.238	5.79
575.578	5.71
575.918	5.69
576.258	5.63
576.598	5.69
576.938	5.77
577.278	5.8
577.618	5.85
577.958	5.77
578.298	5.83
578.638	5.62
578.977	5.91
579.317	5.88
579.657	5.76
579.996	5.96
580.336	5.84
580.675	6.12
581.014	5.71
581.354	5.79
581.693	5.53
582.032	5.71
582.372	5.72
582.711	5.6
583.05	5.75
583.389	5.69
583.728	5.75
584.067	5.87
584.406	5.77
584.745	5.58
585.083	5.59
585.422	5.89
585.761	5.79
586.1	5.73
586.438	6
586.777	5.63
587.115	5.66
587.454	5.92
587.792	5.81
588.13	5.93
588.469	6.01
588.807	5.87
589.145	5.8
589.483	5.91
589.821	5.66
590.159	5.95
590.497	5.59
590.835	5.65
591.173	5.59
591.511	5.74
591.849	5.63
592.187	5.31
592.524	5.62
592.862	5.49
593.2	5.76
593.537	5.69
593.875	5.77
594.212	5.63
594.55	5.55
594.887	5.58
595.224	5.73
595.561	5.71
595.899	5.99
596.236	5.68
596.573	5.76
596.91	5.59
597.247	5.59
597.584	5.75
597.921	5.62
598.258	5.68
598.594	5.76
598.931	5.84
599.268	5.68
599.604	5.59
599.941	5.62
600.277	5.71
600.614	5.77
600.95	5.87
601.287	5.7
601.623	5.47
601.959	5.48
602.296	5.7
602.632	5.52
602.968	5.65
603.304	5.56
603.64	5.8
603.976	5.63
604.312	5.65
604.648	5.59
604.984	5.58
605.319	5.54
605.655	5.67
605.991	5.61
606.326	5.55
606.662	5.66
606.998	5.78
607.333	5.46
607.668	5.51
608.004	5.54
608.339	5.6
608.674	5.79
609.01	5.77
609.345	5.55
609.68	5.66
610.015	5.73
610.35	5.66
610.685	5.71
611.02	5.71
611.355	5.61
611.689	5.54
612.024	5.63
612.359	5.54
612.694	5.51
613.028	5.48
613.363	5.63
613.697	5.66
614.032	5.51
614.366	5.59
614.7	5.48
615.035	5.58
615.369	5.6
615.703	5.88
616.037	5.78
616.371	5.73
616.705	5.69
617.039	5.51
617.373	5.59
617.707	5.87
618.041	5.44
618.375	5.44
618.709	5.79
619.042	5.5
619.376	5.49
619.71	5.86
620.043	5.59
620.377	5.64
620.71	5.48
621.043	5.46
621.377	5.14
621.71	5.5
622.043	5.73
622.376	5.67
622.709	5.73
623.043	5.37
623.376	5.88
623.709	5.79
624.041	5.58
624.374	5.82
624.707	5.54
625.04	5.99
625.373	6.07
625.705	5.65
626.038	5.47
626.37	5.47
626.703	5.46
627.035	5.85
627.368	5.52
627.7	5.66
628.032	5.73
628.365	5.48
628.697	5.76
629.029	5.67
629.361	5.76
629.693	5.77
630.025	5.76
630.357	5.57
630.689	5.76
631.021	5.58
631.353	5.78
631.684	5.56
632.016	5.23
632.348	5.53
632.679	5.17
633.011	5.79
633.342	5.6
633.674	5.42
634.005	5.72
634.336	5.75
634.668	5.78
634.999	5.42
635.33	5.47
635.661	5.69
635.992	5.59
636.323	5.86
636.654	5.83
636.985	5.72
637.316	5.7
637.647	5.83
637.977	5.93
638.308	5.23
638.639	5.7
638.969	5.83
639.3	5.82
639.63	5.8
639.961	5.3
640.291	5.29
640.622	5.93
640.952	5.51
641.282	5.92
641.612	5.82
641.943	5.71
642.273	5.46
642.603	5.7
642.933	5.88
643.263	5.3
643.592	5.58
643.922	5.73
644.252	5.48
644.582	5.06
644.911	5.76
645.241	5.54
645.571	5.64
645.9	5.84
646.23	5.62
646.559	5.61
646.888	5.85
647.218	5.62
647.547	5.52
647.876	5.74
648.205	5.49
648.534	5.33
648.863	5.41
649.192	5.37
649.521	5.39
649.85	5.86
650.179	5.83
650.508	6.02
650.837	4.99
651.165	5.4
651.494	5.89
651.822	5.79
652.151	6.09
652.479	5.48
652.808	5.3
653.136	5.1
653.465	5.83
653.793	5.92
654.121	5.65
654.449	5.78
654.777	5.41
655.105	6.16
655.433	5.66
655.761	5.86
656.089	5.55
656.417	5.38
656.745	5.68
657.073	5.7
657.4	5.66
657.728	5.57
658.056	5.76
658.383	5.89
658.711	6.13
659.038	5.69
659.365	5.39
659.693	5.53
660.02	5.98
660.347	5.96
660.674	5.79
661.001	5.41
661.329	5.67
661.656	5.4
661.982	5.71
662.309	5.41
662.636	5.6
662.963	5.27
663.29	5.55
663.616	5.83
663.943	5.71
664.27	6.26
664.596	5.81
664.923	5.55
665.249	6.2
665.576	5.77
665.902	5.86
666.228	5.65
666.554	5.65
666.881	5.78
667.207	5.79
667.533	5.76
667.859	5.25
668.185	5.93
668.511	5.93
668.837	5.63
669.162	5.85
669.488	5.4
669.814	5.7
670.139	6.09
670.465	5.52
670.791	5.83
671.116	5.7
671.442	6.28
671.767	5.82
672.092	5.51
672.418	5.89
672.743	5.45
673.068	5.46
673.393	5.56
673.718	5.78
674.043	5.5
674.368	5.07
674.693	6.1
675.018	5.42
675.343	5.32
675.667	5.48
675.992	5.93
676.317	6.15
676.641	5.9
676.966	5.27
677.29	5.5
677.615	6.34
677.939	5.61
678.264	5.88
678.588	5.69
678.912	5.09
679.236	6.04
679.56	5.44
679.885	5.51
680.209	6.15
680.532	5.64
680.856	6.17
681.18	5.98
681.504	5.38
681.828	5.8
682.152	6.18
682.475	5.54
682.799	6.11
683.122	5.39
683.446	5.64
683.769	5.92
684.093	5.98
684.416	5.89
684.739	5.91
685.062	5.54
685.386	6.09
685.709	5.81
686.032	6.06
686.355	5.63
686.678	5.88
687.001	6.1
687.324	5.51
687.646	5.38
687.969	5.07
688.292	5.74
688.614	5.61
688.937	5.31
689.26	5.34
689.582	5.64
689.904	5.83
690.227	4.84
690.549	6.32
690.871	5.43
691.194	5.87
691.516	5.29
691.838	5.94
692.16	5.82
