Data from 0029_forehead_Reflection__3__134.txt Node

Date: Thu Oct 20 21:57:24 CDT 2022
User: ToomeyLab
Spectrometer: FLMS14357
Trigger mode: 0
Integration Time (sec): 1.000000E-2
Scans to average: 100
Electric dark correction enabled: true
Nonlinearity correction enabled: false
Boxcar width: 0
XAxis mode: Wavelengths
Number of Pixels in Spectrum: 2048
>>>>>Begin Spectral Data<<<<<
189.047	-76.06
189.435	-76.06
189.823	-76.06
190.211	-54.44
190.599	122.53
190.987	44.58
191.375	118.7
191.763	172.19
192.151	369.55
192.538	35.5
192.926	118.64
193.314	190.87
193.702	9.91
194.089	69.23
194.477	808.8
194.864	-373.56
195.252	43.34
195.639	-20.92
196.027	588.89
196.414	74.86
196.801	116.6
197.189	49.63
197.576	131.16
197.963	-79.78
198.351	7.29
198.738	-3.41
199.125	-16.79
199.512	1.14
199.899	8.53
200.286	1.57
200.673	-1.1
201.06	15.25
201.447	5.6
201.833	-7.92
202.22	1.41
202.607	8.47
202.994	0.14
203.38	-21.04
203.767	37.09
204.154	15.8
204.54	-12.73
204.927	1.51
205.313	33.59
205.699	7.24
206.086	-11.54
206.472	-2.8
206.858	-11.04
207.245	7.7
207.631	2.51
208.017	11.87
208.403	-24.61
208.789	30.2
209.175	18.62
209.561	12.06
209.947	13.82
210.333	36.37
210.719	10.84
211.105	-3.11
211.491	-45.07
211.876	-9.29
212.262	22.34
212.648	4.95
213.034	21.55
213.419	-10.46
213.805	12
214.19	17
214.576	16.99
214.961	10.79
215.346	-1.31
215.732	9.09
216.117	-31.61
216.502	33.56
216.888	-13.37
217.273	-46.66
217.658	35.05
218.043	20.53
218.428	14.54
218.813	14.47
219.198	5.65
219.583	9.85
219.968	26.92
220.353	15.78
220.738	4.87
221.122	9.73
221.507	-7.12
221.892	2.78
222.276	10.99
222.661	15.67
223.046	0.71
223.43	-2.82
223.815	7.81
224.199	-4.58
224.583	0.06
224.968	13.05
225.352	16.03
225.736	7.35
226.121	-1.76
226.505	3.37
226.889	2.03
227.273	1.17
227.657	2.67
228.041	1.86
228.425	2.96
228.809	5.48
229.193	5.14
229.577	0.97
229.961	3.23
230.344	1.53
230.728	2.12
231.112	2.43
231.495	2.43
231.879	4.26
232.263	3.64
232.646	2.88
233.03	2.6
233.413	2.26
233.797	0.59
234.18	3.36
234.563	2.41
234.946	2.3
235.33	1.41
235.713	2.3
236.096	0.99
236.479	3.84
236.862	2.14
237.245	3.97
237.628	3.62
238.011	3.04
238.394	3.73
238.777	3.59
239.16	2.48
239.543	1.57
239.925	1.2
240.308	3.23
240.691	4.04
241.073	2.15
241.456	2.41
241.838	2.78
242.221	3.16
242.603	2.48
242.986	2.68
243.368	2.68
243.75	2.62
244.133	2.8
244.515	2.72
244.897	2.04
245.279	1.86
245.661	3.47
246.043	3.1
246.425	2.83
246.807	2.88
247.189	2.62
247.571	2.9
247.953	2.36
248.335	2.37
248.717	2.27
249.098	2.37
249.48	2.48
249.862	2.58
250.243	2.6
250.625	2.81
251.006	3.12
251.388	2.53
251.769	2.94
252.151	3.36
252.532	1.62
252.913	2.44
253.295	2.56
253.676	2.73
254.057	1.34
254.438	2.69
254.819	3.05
255.2	3.23
255.581	3.38
255.962	2.65
256.343	1.93
256.724	3.14
257.105	3.18
257.486	2.69
257.867	2.86
258.247	3.6
258.628	2.44
259.009	2.91
259.389	1.9
259.77	2.08
260.15	2.62
260.531	2.39
260.911	2.46
261.292	2.6
261.672	2.48
262.052	2.63
262.432	2.59
262.813	2.69
263.193	2.9
263.573	2.76
263.953	2.66
264.333	2.41
264.713	2.35
265.093	2.65
265.473	3.25
265.853	3.1
266.233	3.24
266.612	3.08
266.992	2.14
267.372	2.9
267.752	3.15
268.131	2.8
268.511	2.58
268.89	2.59
269.27	2.76
269.649	2.18
270.029	2.24
270.408	2.58
270.787	2.45
271.167	2.15
271.546	2.61
271.925	3.01
272.304	2.83
272.683	2.47
273.062	2.51
273.441	2.58
273.82	3.1
274.199	2.57
274.578	2.21
274.957	2.57
275.336	2.27
275.715	2.56
276.093	3.12
276.472	2.82
276.851	3.2
277.229	2.33
277.608	2.59
277.986	2.29
278.365	2.15
278.743	2.64
279.122	2.74
279.5	2.35
279.878	2.74
280.257	2.46
280.635	2.44
281.013	2.64
281.391	3.33
281.769	2.99
282.147	2.09
282.525	2.1
282.903	2.7
283.281	2.33
283.659	2.3
284.037	2.23
284.415	2.83
284.792	2.07
285.17	2.84
285.548	2.45
285.925	2.23
286.303	2.6
286.68	3.05
287.058	2.86
287.435	2.36
287.813	2.46
288.19	2.27
288.567	2.26
288.945	3.15
289.322	2.82
289.699	2.13
290.076	2.59
290.453	2.46
290.83	2.86
291.207	2.74
291.584	2.46
291.961	2.58
292.338	2.39
292.715	2.79
293.092	3.15
293.469	2.89
293.845	2.91
294.222	3.17
294.599	3.77
294.975	2.66
295.352	3.33
295.728	2.79
296.105	3.27
296.481	2.38
296.858	3.19
297.234	2.85
297.61	2.71
297.986	2.69
298.363	2.62
298.739	2.98
299.115	2.71
299.491	2.86
299.867	2.74
300.243	2.92
300.619	3.23
300.995	2.73
301.371	3.51
301.746	2.81
302.122	3.15
302.498	3.34
302.874	3.12
303.249	3.09
303.625	3.07
304	3.41
304.376	3.33
304.751	3.56
305.127	3.11
305.502	3.49
305.878	3.48
306.253	3.02
306.628	3.18
307.003	3.15
307.378	2.76
307.754	3.27
308.129	3.6
308.504	3.96
308.879	3.69
309.254	3.97
309.629	3.77
310.003	3.1
310.378	3.43
310.753	3.96
311.128	3.44
311.502	3.75
311.877	3.8
312.252	3.4
312.626	3.94
313.001	3.84
313.375	3.89
313.75	3.85
314.124	3.83
314.498	3.96
314.873	4.03
315.247	3.78
315.621	4.44
315.995	3.9
316.369	3.93
316.743	3.5
317.117	4.54
317.491	4.33
317.865	4.47
318.239	4.48
318.613	4.97
318.987	3.96
319.361	4.32
319.734	3.73
320.108	4.35
320.482	4.32
320.855	4.56
321.229	4.27
321.602	3.67
321.976	4.61
322.349	4.54
322.723	5.27
323.096	4.86
323.469	4.96
323.843	4.79
324.216	4.44
324.589	5.3
324.962	4.72
325.335	5.05
325.708	5.22
326.081	5.41
326.454	4.77
326.827	4.95
327.2	5.24
327.573	5.56
327.945	5.41
328.318	4.77
328.691	5.25
329.063	5.4
329.436	5.43
329.809	5.23
330.181	5.19
330.553	5.28
330.926	5.75
331.298	5.78
331.671	5.73
332.043	5.43
332.415	5.14
332.787	5.37
333.159	5.47
333.532	5.29
333.904	6.25
334.276	5.92
334.648	5.52
335.02	5.95
335.391	5.32
335.763	5.84
336.135	5.76
336.507	5.93
336.879	6.56
337.25	5.93
337.622	6.36
337.993	6.18
338.365	6.19
338.736	6.02
339.108	6.3
339.479	6.41
339.851	5.97
340.222	6.09
340.593	6.58
340.964	6.55
341.336	6.17
341.707	6.08
342.078	6.75
342.449	6.17
342.82	6.4
343.191	6.14
343.562	6.58
343.933	6.52
344.303	6.47
344.674	6.77
345.045	7.21
345.416	6.75
345.786	6.41
346.157	6.64
346.527	6.44
346.898	6.52
347.268	6.78
347.639	7.06
348.009	7.14
348.38	7.54
348.75	6.98
349.12	7.14
349.49	7.19
349.861	7.24
350.231	7.29
350.601	7.58
350.971	7.37
351.341	7.44
351.711	7.52
352.081	7.39
352.45	7.62
352.82	7.4
353.19	7.68
353.56	7.47
353.929	7.15
354.299	7.6
354.669	7.87
355.038	7.49
355.408	7.38
355.777	7.74
356.147	8.29
356.516	7.91
356.885	7.79
357.254	8.46
357.624	7.96
357.993	7.76
358.362	8.05
358.731	8.32
359.1	7.71
359.469	8.06
359.838	7.92
360.207	8.41
360.576	8.03
360.945	8.45
361.314	8.32
361.682	8.28
362.051	8.31
362.42	8.29
362.788	8.54
363.157	8.46
363.525	8.4
363.894	8.47
364.262	8.86
364.631	8.62
364.999	8.53
365.367	8.98
365.735	8.69
366.104	8.83
366.472	8.55
366.84	9.02
367.208	8.65
367.576	9.33
367.944	9.29
368.312	9.27
368.68	9.57
369.048	8.98
369.416	9.31
369.783	9.46
370.151	9.49
370.519	9.5
370.886	9.2
371.254	9.71
371.621	9.59
371.989	9.53
372.356	9.72
372.724	9.81
373.091	9.83
373.458	9.35
373.826	9.96
374.193	9.91
374.56	9.8
374.927	9.49
375.294	9.95
375.661	10.25
376.028	9.98
376.395	10.47
376.762	10.16
377.129	10.06
377.496	10.16
377.863	10.09
378.229	10.22
378.596	10.36
378.963	10.57
379.329	10.8
379.696	10.32
380.062	10.5
380.429	11.08
380.795	10.81
381.161	10.79
381.528	10.45
381.894	10.82
382.26	10.64
382.626	10.92
382.993	10.63
383.359	10.87
383.725	10.99
384.091	11.58
384.457	10.94
384.823	11.16
385.188	11.39
385.554	11.1
385.92	11.12
386.286	11.45
386.651	10.94
387.017	11.37
387.383	11.65
387.748	11.97
388.114	11.4
388.479	11.59
388.845	11.88
389.21	12.01
389.575	11.52
389.94	12.22
390.306	12.21
390.671	12.03
391.036	12.27
391.401	11.96
391.766	12.25
392.131	12.21
392.496	12.3
392.861	12.01
393.226	12.22
393.591	12.27
393.956	12.47
394.32	12.48
394.685	12.72
395.05	12.47
395.414	12.74
395.779	12.43
396.143	12.71
396.508	12.7
396.872	12.89
397.236	12.8
397.601	13.26
397.965	12.97
398.329	12.99
398.694	13.14
399.058	13.16
399.422	12.99
399.786	13.09
400.15	13.19
400.514	13.61
400.878	13.14
401.242	13.46
401.605	13.59
401.969	13.51
402.333	13.56
402.697	13.7
403.06	13.64
403.424	13.76
403.787	13.9
404.151	13.93
404.514	14.04
404.878	13.77
405.241	14.04
405.604	13.99
405.968	13.98
406.331	13.92
406.694	13.99
407.057	14.18
407.42	13.98
407.783	14.31
408.146	14.24
408.509	14.15
408.872	14.41
409.235	14.48
409.598	14.73
409.961	14.69
410.323	14.98
410.686	14.82
411.049	14.7
411.411	14.81
411.774	15.05
412.136	14.79
412.499	14.86
412.861	15.2
413.223	15.13
413.586	15.08
413.948	15.22
414.31	15.13
414.672	15.27
415.035	15.21
415.397	15.41
415.759	15.73
416.121	15.54
416.483	15.56
416.845	15.6
417.206	15.38
417.568	15.73
417.93	15.51
418.292	15.85
418.653	15.68
419.015	15.85
419.377	15.67
419.738	15.68
420.1	15.62
420.461	15.75
420.822	15.75
421.184	15.75
421.545	15.86
421.906	15.87
422.267	15.9
422.629	15.69
422.99	15.78
423.351	15.79
423.712	16.06
424.073	16.14
424.434	16.14
424.795	16.11
425.155	16.08
425.516	16.19
425.877	16.16
426.238	16.36
426.598	16.4
426.959	16.38
427.32	16.55
427.68	16.54
428.041	16.83
428.401	16.96
428.761	17.01
429.122	17.03
429.482	17.13
429.842	17.21
430.202	17.37
430.563	17.25
430.923	17.53
431.283	17.64
431.643	17.32
432.003	17.53
432.363	17.59
432.722	17.74
433.082	17.66
433.442	17.72
433.802	17.79
434.161	17.8
434.521	17.75
434.881	17.86
435.24	17.64
435.6	17.88
435.959	18.03
436.319	17.88
436.678	17.9
437.037	18.24
437.396	18.49
437.756	18.33
438.115	18.46
438.474	18.3
438.833	18.44
439.192	18.45
439.551	18.52
439.91	18.62
440.269	18.66
440.628	18.54
440.987	18.58
441.345	18.51
441.704	18.52
442.063	18.61
442.421	18.58
442.78	18.64
443.138	18.71
443.497	18.78
443.855	18.84
444.214	19.24
444.572	19.22
444.93	19.17
445.288	19.14
445.647	19.4
446.005	19.33
446.363	19.3
446.721	19.28
447.079	19.2
447.437	19.12
447.795	19.18
448.153	19.2
448.51	19.15
448.868	19.29
449.226	19.32
449.584	19.55
449.941	19.53
450.299	19.71
450.656	19.84
451.014	19.89
451.371	20.17
451.729	20.08
452.086	20.42
452.443	20.18
452.801	20.23
453.158	20.39
453.515	20.28
453.872	20.25
454.229	20.37
454.586	20.32
454.943	20.44
455.3	20.68
455.657	20.56
456.014	20.75
456.371	20.95
456.727	20.92
457.084	20.76
457.441	20.86
457.797	20.99
458.154	21.14
458.51	21.2
458.867	21.23
459.223	21.28
459.58	21.18
459.936	21.3
460.292	21.21
460.648	21.07
461.005	20.92
461.361	21.08
461.717	20.95
462.073	21.04
462.429	21.14
462.785	21.44
463.141	21.69
463.496	21.94
463.852	21.74
464.208	21.82
464.564	21.79
464.919	22.09
465.275	22.18
465.631	21.96
465.986	22.19
466.342	22.26
466.697	22.33
467.052	22.23
467.408	22.46
467.763	22.34
468.118	22.65
468.473	22.49
468.829	22.48
469.184	22.54
469.539	22.46
469.894	22.61
470.249	22.79
470.603	22.89
470.958	22.79
471.313	22.87
471.668	22.85
472.023	23.02
472.377	23.01
472.732	23.03
473.086	23.13
473.441	23.21
473.795	23.33
474.15	23.26
474.504	23.21
474.859	23.39
475.213	23.45
475.567	23.51
475.921	23.47
476.275	23.63
476.63	23.75
476.984	23.7
477.338	23.85
477.692	23.75
478.045	24.03
478.399	23.78
478.753	23.79
479.107	24.03
479.461	23.85
479.814	23.8
480.168	23.96
480.521	23.84
480.875	23.92
481.228	23.95
481.582	24.24
481.935	24.23
482.289	24.09
482.642	24.11
482.995	24.23
483.348	24.14
483.701	23.95
484.055	24.03
484.408	23.8
484.761	23.61
485.114	23.64
485.466	23.49
485.819	23.33
486.172	23.2
486.525	23.23
486.878	23.4
487.23	23.75
487.583	24.01
487.936	24.22
488.288	24.28
488.641	24.15
488.993	24.04
489.345	23.97
489.698	23.97
490.05	24
490.402	24.06
490.754	24.29
491.107	24.51
491.459	24.82
491.811	24.9
492.163	25.08
492.515	24.91
492.866	24.81
493.218	24.66
493.57	24.52
493.922	24.41
494.274	24.73
494.625	24.94
494.977	25.35
495.328	25.41
495.68	25.72
496.031	25.94
496.383	26.01
496.734	26.08
497.086	26.23
497.437	26.2
497.788	26.17
498.139	26.1
498.49	26.25
498.842	25.91
499.193	25.96
499.544	26.07
499.894	26.2
500.245	26.31
500.596	26.44
500.947	26.59
501.298	26.73
501.648	26.68
501.999	26.76
502.35	26.76
502.7	26.89
503.051	26.95
503.401	27.05
503.752	27.27
504.102	27.18
504.452	27.41
504.803	27.07
505.153	27.27
505.503	27.39
505.853	27.34
506.203	27.34
506.553	27.33
506.903	27.36
507.253	27.47
507.603	27.52
507.953	27.74
508.303	27.66
508.652	27.85
509.002	27.68
509.352	27.65
509.701	27.6
510.051	27.7
510.4	27.6
510.75	27.56
511.099	27.7
511.449	27.66
511.798	27.86
512.147	27.77
512.496	28.04
512.846	28.14
513.195	28.08
513.544	28.06
513.893	27.97
514.242	27.99
514.591	28.11
514.939	28.2
515.288	28.33
515.637	28.5
515.986	28.45
516.334	28.68
516.683	28.72
517.032	28.65
517.38	28.56
517.729	28.88
518.077	28.79
518.426	28.92
518.774	28.84
519.122	28.74
519.47	28.63
519.819	28.56
520.167	28.43
520.515	28.54
520.863	28.56
521.211	28.48
521.559	28.75
521.907	28.82
522.255	28.94
522.602	28.93
522.95	29.21
523.298	29.28
523.645	29.48
523.993	29.5
524.341	29.64
524.688	29.62
525.036	29.69
525.383	29.75
525.73	29.6
526.078	29.72
526.425	29.63
526.772	29.45
527.119	29.33
527.466	29.39
527.814	29.18
528.161	29.18
528.508	29.27
528.854	29.41
529.201	29.41
529.548	29.42
529.895	29.31
530.242	29.17
530.588	28.99
530.935	28.84
531.282	28.73
531.628	28.92
531.975	29.24
532.321	29.39
532.667	29.73
533.014	29.83
533.36	29.95
533.706	30.07
534.052	30.12
534.399	30.11
534.745	30.02
535.091	29.86
535.437	29.73
535.783	29.76
536.129	29.81
536.474	30.08
536.82	30.29
537.166	30.47
537.512	30.67
537.857	30.61
538.203	30.71
538.549	30.57
538.894	30.55
539.239	30.58
539.585	30.73
539.93	30.97
540.276	31.12
540.621	31.45
540.966	31.65
541.311	31.55
541.656	31.42
542.001	31.48
542.346	31.05
542.691	31.02
543.036	30.77
543.381	30.61
543.726	30.59
544.071	30.69
544.415	30.72
544.76	30.93
545.105	31.11
545.449	31.23
545.794	31.35
546.138	31.63
546.483	31.68
546.827	31.86
547.171	31.88
547.516	32.01
547.86	32.06
548.204	32.01
548.548	31.86
548.892	31.94
549.236	31.96
549.58	32.3
549.924	32.43
550.268	32.46
550.612	32.72
550.956	32.68
551.3	33
551.643	33.14
551.987	33.04
552.33	33.15
552.674	33.18
553.017	33.27
553.361	33.18
553.704	33.31
554.048	33.24
554.391	33.17
554.734	33.11
555.077	33.04
555.42	33.35
555.764	33.15
556.107	33.34
556.45	33.42
556.793	33.52
557.135	33.55
557.478	33.65
557.821	34
558.164	33.88
558.507	33.76
558.849	34.08
559.192	33.98
559.534	34.06
559.877	34.04
560.219	34.07
560.562	34.33
560.904	34.57
561.246	34.09
561.589	34.31
561.931	34.2
562.273	34.52
562.615	34.38
562.957	34.35
563.299	34.16
563.641	34.42
563.983	34.39
564.325	34.31
564.667	34.51
565.008	34.51
565.35	34.55
565.692	34.75
566.033	34.63
566.375	34.69
566.716	34.85
567.058	34.38
567.399	34.65
567.741	34.65
568.082	34.49
568.423	34.69
568.764	34.38
569.105	34.68
569.447	34.8
569.788	34.98
570.129	35.16
570.47	34.94
570.811	34.85
571.151	35.17
571.492	35.2
571.833	35.5
572.174	35.2
572.514	35.28
572.855	35.25
573.195	35.36
573.536	35.29
573.876	34.93
574.217	35.24
574.557	35.14
574.898	35.21
575.238	35.65
575.578	35.41
575.918	35.59
576.258	35.53
576.598	35.63
576.938	35.59
577.278	35.67
577.618	35.54
577.958	35.67
578.298	35.81
578.638	35.73
578.977	36.05
579.317	35.78
579.657	36.06
579.996	36.39
580.336	36.27
580.675	36.54
581.014	36.49
581.354	36.64
581.693	36.4
582.032	36.34
582.372	36.66
582.711	36.67
583.05	36.76
583.389	36.64
583.728	36.88
584.067	36.93
584.406	37.07
584.745	36.89
585.083	36.72
585.422	37.24
585.761	37.35
586.1	36.87
586.438	37.26
586.777	37.09
587.115	37.13
587.454	37.08
587.792	37.34
588.13	37.3
588.469	37.7
588.807	37.19
589.145	37.35
589.483	37.41
589.821	37.46
590.159	37.56
590.497	37.23
590.835	37.26
591.173	37.8
591.511	37.48
591.849	37.71
592.187	37.46
592.524	37.67
592.862	37.88
593.2	37.88
593.537	37.72
593.875	37.76
594.212	37.83
594.55	37.86
594.887	37.92
595.224	37.98
595.561	38.13
595.899	38.03
596.236	38.12
596.573	37.95
596.91	37.76
597.247	38.02
597.584	38.03
597.921	37.96
598.258	38.05
598.594	38.03
598.931	37.91
599.268	37.75
599.604	37.89
599.941	37.97
600.277	37.89
600.614	38.15
600.95	38.33
601.287	38.68
601.623	38.24
601.959	38.57
602.296	38.84
602.632	38.38
602.968	38.84
603.304	39.09
603.64	39.03
603.976	38.88
604.312	38.82
604.648	38.89
604.984	38.74
605.319	38.91
605.655	38.73
605.991	38.71
606.326	38.81
606.662	38.47
606.998	38.68
607.333	38.75
607.668	38.44
608.004	38.65
608.339	39.02
608.674	39.38
609.01	39.3
609.345	39.22
609.68	39.3
610.015	39.42
610.35	39.62
610.685	39.4
611.02	39.42
611.355	39.04
611.689	39.08
612.024	38.9
612.359	39.11
612.694	39.33
613.028	39.19
613.363	39.52
613.697	39.51
614.032	39.98
614.366	39.98
614.7	39.84
615.035	39.92
615.369	39.88
615.703	39.88
616.037	40.25
616.371	40.16
616.705	39.74
617.039	40.36
617.373	40.05
617.707	40.26
618.041	40.29
618.375	40.21
618.709	39.96
619.042	40.31
619.376	40.06
619.71	40.45
620.043	40.68
620.377	40.67
620.71	40.25
621.043	40.41
621.377	40.11
621.71	40.27
622.043	40.92
622.376	40.98
622.709	40.94
623.043	40.67
623.376	40.84
623.709	40.42
624.041	40.94
624.374	41.05
624.707	40.89
625.04	41.37
625.373	41.15
625.705	41.03
626.038	41.02
626.37	40.92
626.703	40.78
627.035	40.96
627.368	41.09
627.7	41.21
628.032	41.27
628.365	41.21
628.697	41.1
629.029	41.27
629.361	41.45
629.693	41.13
630.025	40.95
630.357	41.03
630.689	41.43
631.021	41.33
631.353	41.32
631.684	41.57
632.016	41.11
632.348	41.43
632.679	41.52
633.011	41.68
633.342	41.73
633.674	41.89
634.005	41.94
634.336	41.77
634.668	41.55
634.999	42.26
635.33	42.13
635.661	41.85
635.992	42.16
636.323	42.08
636.654	41.87
636.985	41.61
637.316	41.86
637.647	41.87
637.977	42.28
638.308	42.09
638.639	42.17
638.969	41.81
639.3	42.27
639.63	42.3
639.961	42.31
640.291	42.06
640.622	42.67
640.952	42.08
641.282	43.19
641.612	42.44
641.943	42.74
642.273	42.44
642.603	41.85
642.933	42.73
643.263	42.87
643.592	42.55
643.922	42.59
644.252	42.9
644.582	42.73
644.911	42.57
645.241	43.03
645.571	42.93
645.9	42.46
646.23	42.96
646.559	43.19
646.888	43.3
647.218	42.47
647.547	42.93
647.876	42.62
648.205	42.63
648.534	42.6
648.863	43
649.192	43.23
649.521	42.99
649.85	43.19
650.179	43.03
650.508	43.34
650.837	42.95
651.165	43.51
651.494	42.84
651.822	43.1
652.151	43.27
652.479	43.01
652.808	43.27
653.136	43.3
653.465	43.58
653.793	43.66
654.121	43.62
654.449	42.98
654.777	43.44
655.105	43.64
655.433	43.6
655.761	43.93
656.089	43.26
656.417	43.46
656.745	43.65
657.073	43.4
657.4	43.35
657.728	43.79
658.056	43.77
658.383	44.06
658.711	43.43
659.038	43.85
659.365	43.91
659.693	43.43
660.02	44.24
660.347	44
660.674	44.14
661.001	44.24
661.329	43.92
661.656	43.86
661.982	43.86
662.309	43.58
662.636	43.81
662.963	44.07
663.29	43.92
663.616	44.1
663.943	44.28
664.27	44.18
664.596	44.03
664.923	43.31
665.249	44.16
665.576	44.34
665.902	44.54
666.228	43.96
666.554	43.95
666.881	44.81
667.207	44.78
667.533	44.9
667.859	44.41
668.185	44.88
668.511	44.58
668.837	43.58
669.162	45.03
669.488	44.49
669.814	44.98
670.139	44.94
670.465	44.96
670.791	45.26
671.116	44.65
671.442	44.85
671.767	44.58
672.092	44.74
672.418	44.6
