Data from 0029_crown_Reflection__0__126.txt Node

Date: Thu Oct 20 21:55:24 CDT 2022
User: ToomeyLab
Spectrometer: FLMS14357
Trigger mode: 0
Integration Time (sec): 1.000000E-2
Scans to average: 100
Electric dark correction enabled: true
Nonlinearity correction enabled: false
Boxcar width: 0
XAxis mode: Wavelengths
Number of Pixels in Spectrum: 2048
>>>>>Begin Spectral Data<<<<<
189.047	-119.62
189.435	-119.62
189.823	-119.62
190.211	167.01
190.599	55.32
190.987	138.83
191.375	118.73
191.763	267.7
192.151	350.94
192.538	151.23
192.926	-3.46
193.314	138.58
193.702	-30.17
194.089	81.67
194.477	-888.49
194.864	-680.46
195.252	43.97
195.639	84.94
196.027	-9244.44
196.414	57.45
196.801	-561.51
197.189	-35.82
197.576	37.62
197.963	-95.17
198.351	16.68
198.738	-74.15
199.125	-17.21
199.512	4.83
199.899	-51.89
200.286	-4.1
200.673	-2.21
201.06	36.3
201.447	10.47
201.833	-16.88
202.22	1.26
202.607	-2.12
202.994	0.8
203.38	-14.6
203.767	14.36
204.154	-0.91
204.54	8.26
204.927	-18.66
205.313	10.87
205.699	12.65
206.086	-34.54
206.472	23.77
206.858	-16.83
207.245	-3.85
207.631	18.47
208.017	-31.04
208.403	-70.71
208.789	-30.32
209.175	14.28
209.561	13.29
209.947	-1.18
210.333	13.13
210.719	34.14
211.105	6.7
211.491	-34.87
211.876	-21.25
212.262	7.5
212.648	-9.39
213.034	18.44
213.419	-15.71
213.805	-15.28
214.19	-28.29
214.576	-45.13
214.961	7.48
215.346	-9.24
215.732	7.9
216.117	-19.03
216.502	18.33
216.888	-29.33
217.273	-0.76
217.658	6.7
218.043	13.95
218.428	-3.72
218.813	29.92
219.198	18.68
219.583	3.2
219.968	6.45
220.353	-17.71
220.738	8.96
221.122	2.9
221.507	2.36
221.892	2.07
222.276	3.47
222.661	11.91
223.046	11.55
223.43	-7.27
223.815	4.07
224.199	-1.48
224.583	0.47
224.968	10.95
225.352	11.37
225.736	1.18
226.121	-3.86
226.505	4.94
226.889	-1.79
227.273	-2.54
227.657	1.88
228.041	-0.73
228.425	6.76
228.809	7.64
229.193	4.76
229.577	2.25
229.961	4.31
230.344	3.65
230.728	4.59
231.112	4.37
231.495	4.76
231.879	5.39
232.263	3.88
232.646	5.43
233.03	4.63
233.413	2.62
233.797	3.74
234.18	1.12
234.563	4.95
234.946	4.06
235.33	2.65
235.713	3.79
236.096	4.14
236.479	5.39
236.862	3.85
237.245	4.25
237.628	2.74
238.011	4.91
238.394	5.16
238.777	4.26
239.16	3.85
239.543	3.85
239.925	5.08
240.308	3.1
240.691	5.36
241.073	3.78
241.456	5.28
241.838	4.23
242.221	3.82
242.603	4.29
242.986	3.76
243.368	4.01
243.75	4.26
244.133	4.4
244.515	4.13
244.897	3.84
245.279	3.55
245.661	5.34
246.043	4.21
246.425	4.1
246.807	4.09
247.189	4.37
247.571	4.11
247.953	3.65
248.335	3.89
248.717	3.95
249.098	4.08
249.48	4.15
249.862	3.94
250.243	3.86
250.625	4.47
251.006	4.54
251.388	3.87
251.769	4.38
252.151	3.52
252.532	3.94
252.913	3.22
253.295	3.97
253.676	3.78
254.057	3.1
254.438	3.96
254.819	4.73
255.2	3.81
255.581	3.74
255.962	5.15
256.343	3.42
256.724	3.74
257.105	4.27
257.486	3.74
257.867	3.74
258.247	3.74
258.628	3.96
259.009	3.11
259.389	3.35
259.77	3.5
260.15	3.51
260.531	3.58
260.911	3.52
261.292	3.65
261.672	3.61
262.052	3.9
262.432	3.98
262.813	3.65
263.193	4
263.573	3.64
263.953	3.46
264.333	3.09
264.713	3.26
265.093	3.89
265.473	3.27
265.853	4.59
266.233	3.55
266.612	3.93
266.992	2.81
267.372	3.94
267.752	3.81
268.131	4.01
268.511	3.6
268.89	3.57
269.27	3.17
269.649	3.06
270.029	3.2
270.408	3.37
270.787	3.24
271.167	3.01
271.546	3.02
271.925	3.27
272.304	3.7
272.683	3.71
273.062	3.13
273.441	3.34
273.82	3.64
274.199	3.16
274.578	3.03
274.957	3.77
275.336	3
275.715	3.56
276.093	3.34
276.472	3.79
276.851	3.7
277.229	3.34
277.608	2.84
277.986	3.33
278.365	2.74
278.743	3.21
279.122	3.85
279.5	3.69
279.878	3.53
280.257	3.39
280.635	3.27
281.013	3.61
281.391	3.31
281.769	3.25
282.147	2.93
282.525	3.09
282.903	3.34
283.281	2.7
283.659	3.15
284.037	2.99
284.415	3.01
284.792	3.04
285.17	3.52
285.548	2.68
285.925	3.09
286.303	2.79
286.68	3.3
287.058	2.99
287.435	3.14
287.813	2.92
288.19	3.16
288.567	3.08
288.945	3.46
289.322	3.09
289.699	2.73
290.076	2.85
290.453	2.5
290.83	3.16
291.207	3.07
291.584	2.96
291.961	2.88
292.338	3.06
292.715	2.82
293.092	3.41
293.469	2.99
293.845	3.06
294.222	3.24
294.599	3.58
294.975	2.74
295.352	3.34
295.728	3
296.105	3.16
296.481	2.58
296.858	2.82
297.234	3.04
297.61	3.03
297.986	2.64
298.363	2.82
298.739	2.81
299.115	2.97
299.491	3.02
299.867	2.67
300.243	2.89
300.619	2.97
300.995	2.8
301.371	3.03
301.746	2.9
302.122	3.1
302.498	3.01
302.874	3.13
303.249	3.2
303.625	2.9
304	3.1
304.376	2.93
304.751	3.25
305.127	2.45
305.502	2.6
305.878	3.03
306.253	2.86
306.628	2.27
307.003	2.56
307.378	2.39
307.754	2.96
308.129	2.76
308.504	2.94
308.879	2.44
309.254	2.97
309.629	2.73
310.003	2.58
310.378	2.88
310.753	3.04
311.128	2.75
311.502	2.76
311.877	3.31
312.252	2.63
312.626	2.89
313.001	2.68
313.375	3.35
313.75	2.57
314.124	2.85
314.498	2.42
314.873	2.52
315.247	2.73
315.621	2.66
315.995	2.82
316.369	2.74
316.743	2.69
317.117	2.46
317.491	3.36
317.865	2.71
318.239	2.5
318.613	3.1
318.987	2.41
319.361	2.56
319.734	2.66
320.108	2.71
320.482	2.77
320.855	3.04
321.229	2.99
321.602	2.2
321.976	2.56
322.349	2.52
322.723	2.85
323.096	2.87
323.469	2.88
323.843	3.22
324.216	2.71
324.589	2.78
324.962	2.49
325.335	2.94
325.708	2.84
326.081	2.63
326.454	2.81
326.827	2.97
327.2	3.39
327.573	2.73
327.945	2.61
328.318	2.3
328.691	2.87
329.063	3.18
329.436	2.91
329.809	3.08
330.181	2.79
330.553	2.58
330.926	2.55
331.298	2.62
331.671	2.82
332.043	2.63
332.415	2.99
332.787	3.47
333.159	3.01
333.532	3.13
333.904	3.17
334.276	2.59
334.648	2.41
335.02	3.03
335.391	2.64
335.763	3.09
336.135	2.97
336.507	2.51
336.879	3.09
337.25	2.2
337.622	3.09
337.993	2.13
338.365	3.11
338.736	2.95
339.108	2.59
339.479	3.24
339.851	2.44
340.222	2.64
340.593	2.63
340.964	3.1
341.336	3.32
341.707	2.49
342.078	2.8
342.449	3
342.82	3.05
343.191	3.13
343.562	3.11
343.933	2.86
344.303	2.85
344.674	3.13
345.045	3.22
345.416	2.97
345.786	2.82
346.157	2.62
346.527	2.33
346.898	2.69
347.268	2.64
347.639	2.87
348.009	2.92
348.38	3.36
348.75	2.77
349.12	3.13
349.49	3.02
349.861	2.89
350.231	2.96
350.601	3.1
350.971	3.49
351.341	3.1
351.711	3.01
352.081	2.95
352.45	2.82
352.82	2.65
353.19	3.14
353.56	3.17
353.929	3.22
354.299	3.3
354.669	2.78
355.038	2.72
355.408	2.49
355.777	2.88
356.147	3.4
356.516	2.75
356.885	3.16
357.254	3.18
357.624	3.13
357.993	2.84
358.362	2.85
358.731	3.2
359.1	2.67
359.469	3
359.838	2.65
360.207	3.47
360.576	2.98
360.945	3.29
361.314	3
361.682	3.08
362.051	2.73
362.42	2.91
362.788	3.09
363.157	2.89
363.525	3.06
363.894	3.03
364.262	3.31
364.631	2.9
364.999	3.16
365.367	3.17
365.735	2.91
366.104	2.76
366.472	3.02
366.84	3.38
367.208	3.18
367.576	3.05
367.944	3.25
368.312	3.25
368.68	3.42
369.048	2.81
369.416	2.95
369.783	3.27
370.151	3.53
370.519	3.18
370.886	2.99
371.254	3.13
371.621	3.22
371.989	2.92
372.356	2.73
372.724	3.32
373.091	3.2
373.458	2.97
373.826	2.93
374.193	3.39
374.56	2.97
374.927	3.18
375.294	3.02
375.661	3.58
376.028	3.22
376.395	3.45
376.762	3.23
377.129	3.02
377.496	2.89
377.863	3.14
378.229	3.06
378.596	3.07
378.963	3.32
379.329	3.23
379.696	2.93
380.062	2.95
380.429	3.54
380.795	3.27
381.161	3.46
381.528	3.26
381.894	3.13
382.26	3.04
382.626	3.23
382.993	3.07
383.359	3.12
383.725	3.38
384.091	3.29
384.457	2.88
384.823	3.23
385.188	3.04
385.554	3.07
385.92	3.35
386.286	2.9
386.651	3.03
387.017	3.04
387.383	3.21
387.748	3.35
388.114	3.46
388.479	3.39
388.845	3.29
389.21	3.42
389.575	3.16
389.94	3.52
390.306	3.33
390.671	3.25
391.036	3.15
391.401	3.01
391.766	3.44
392.131	3.38
392.496	3.12
392.861	2.95
393.226	3.2
393.591	3.4
393.956	3.34
394.32	3.32
394.685	3.52
395.05	3.36
395.414	3.38
395.779	3.09
396.143	3.29
396.508	3.34
396.872	3.51
397.236	3.47
397.601	3.47
397.965	3.61
398.329	3.41
398.694	3.26
399.058	3.05
399.422	3.59
399.786	3.28
400.15	3.23
400.514	3.59
400.878	3.32
401.242	3.36
401.605	3.37
401.969	3.45
402.333	3.35
402.697	3.43
403.06	3.31
403.424	3.43
403.787	3.64
404.151	3.34
404.514	3.32
404.878	3.35
405.241	3.33
405.604	3.49
405.968	3.4
406.331	3.32
406.694	3.38
407.057	3.52
407.42	3.39
407.783	3.42
408.146	3.43
408.509	3.42
408.872	3.26
409.235	3.21
409.598	3.37
409.961	3.5
410.323	3.75
410.686	3.49
411.049	3.23
411.411	3.35
411.774	3.29
412.136	3.39
412.499	3.37
412.861	3.4
413.223	3.36
413.586	3.21
413.948	3.54
414.31	3.25
414.672	3.36
415.035	3.43
415.397	3.28
415.759	3.44
416.121	3.45
416.483	3.36
416.845	3.52
417.206	3.36
417.568	3.56
417.93	3.5
418.292	3.49
418.653	3.4
419.015	3.4
419.377	3.37
419.738	3.46
420.1	3.41
420.461	3.29
420.822	3.28
421.184	3.32
421.545	3.36
421.906	3.29
422.267	3.33
422.629	3.29
422.99	3.4
423.351	3.35
423.712	3.25
424.073	3.45
424.434	3.31
424.795	3.34
425.155	3.31
425.516	3.28
425.877	3.33
426.238	3.5
426.598	3.36
426.959	3.4
427.32	3.45
427.68	3.41
428.041	3.5
428.401	3.42
428.761	3.43
429.122	3.4
429.482	3.39
429.842	3.6
430.202	3.49
430.563	3.47
430.923	3.64
431.283	3.48
431.643	3.48
432.003	3.45
432.363	3.53
432.722	3.64
433.082	3.53
433.442	3.46
433.802	3.46
434.161	3.51
434.521	3.45
434.881	3.35
435.24	3.46
435.6	3.44
435.959	3.56
436.319	3.54
436.678	3.45
437.037	3.51
437.396	3.54
437.756	3.52
438.115	3.46
438.474	3.5
438.833	3.51
439.192	3.5
439.551	3.4
439.91	3.41
440.269	3.5
440.628	3.38
440.987	3.5
441.345	3.53
441.704	3.48
442.063	3.51
442.421	3.32
442.78	3.39
443.138	3.44
443.497	3.43
443.855	3.44
444.214	3.38
444.572	3.61
444.93	3.33
445.288	3.46
445.647	3.47
446.005	3.35
446.363	3.46
446.721	3.46
447.079	3.44
447.437	3.42
447.795	3.38
448.153	3.41
448.51	3.46
448.868	3.46
449.226	3.45
449.584	3.44
449.941	3.58
450.299	3.53
450.656	3.49
451.014	3.5
451.371	3.55
451.729	3.38
452.086	3.66
452.443	3.46
452.801	3.67
453.158	3.44
453.515	3.59
453.872	3.4
454.229	3.51
454.586	3.47
454.943	3.49
455.3	3.52
455.657	3.52
456.014	3.53
456.371	3.53
456.727	3.46
457.084	3.25
457.441	3.43
457.797	3.45
458.154	3.54
458.51	3.37
458.867	3.54
459.223	3.64
459.58	3.42
459.936	3.63
460.292	3.4
460.648	3.44
461.005	3.36
461.361	3.43
461.717	3.47
462.073	3.64
462.429	3.58
462.785	3.57
463.141	3.66
463.496	3.69
463.852	3.6
464.208	3.59
464.564	3.58
464.919	3.7
465.275	3.62
465.631	3.42
465.986	3.62
466.342	3.51
466.697	3.48
467.052	3.59
467.408	3.69
467.763	3.56
468.118	3.55
468.473	3.56
468.829	3.57
469.184	3.6
469.539	3.6
469.894	3.65
470.249	3.75
470.603	3.53
470.958	3.59
471.313	3.46
471.668	3.59
472.023	3.52
472.377	3.56
472.732	3.58
473.086	3.6
473.441	3.62
473.795	3.71
474.15	3.56
474.504	3.36
474.859	3.65
475.213	3.72
475.567	3.82
475.921	3.54
476.275	3.67
476.63	3.8
476.984	3.58
477.338	3.48
477.692	3.65
478.045	3.61
478.399	3.65
478.753	3.44
479.107	3.5
479.461	3.66
479.814	3.6
480.168	3.74
480.521	3.52
480.875	3.69
481.228	3.52
481.582	3.58
481.935	3.58
482.289	3.42
482.642	3.34
482.995	3.55
483.348	3.63
483.701	3.5
484.055	3.5
484.408	3.39
484.761	3.3
485.114	3.23
485.466	3.22
485.819	3.32
486.172	3.42
486.525	3.47
486.878	3.52
487.23	3.52
487.583	3.51
487.936	3.43
488.288	3.42
488.641	3.33
488.993	3.35
489.345	3.4
489.698	3.37
490.05	3.43
490.402	3.52
490.754	3.49
491.107	3.52
491.459	3.58
491.811	3.47
492.163	3.49
492.515	3.41
492.866	3.34
493.218	3.39
493.57	3.39
493.922	3.47
494.274	3.53
494.625	3.54
494.977	3.56
495.328	3.58
495.68	3.65
496.031	3.64
496.383	3.52
496.734	3.49
497.086	3.51
497.437	3.54
497.788	3.53
498.139	3.49
498.49	3.63
498.842	3.44
499.193	3.6
499.544	3.66
499.894	3.57
500.245	3.59
500.596	3.59
500.947	3.6
501.298	3.63
501.648	3.57
501.999	3.63
502.35	3.64
502.7	3.68
503.051	3.61
503.401	3.52
503.752	3.63
504.102	3.6
504.452	3.55
504.803	3.49
505.153	3.47
505.503	3.73
505.853	3.5
506.203	3.66
506.553	3.56
506.903	3.51
507.253	3.68
507.603	3.58
507.953	3.57
508.303	3.73
508.652	3.55
509.002	3.52
509.352	3.58
509.701	3.57
510.051	3.56
510.4	3.53
510.75	3.5
511.099	3.62
511.449	3.59
511.798	3.61
512.147	3.59
512.496	3.72
512.846	3.6
513.195	3.58
513.544	3.59
513.893	3.53
514.242	3.52
514.591	3.75
514.939	3.61
515.288	3.64
515.637	3.62
515.986	3.65
516.334	3.56
516.683	3.67
517.032	3.51
517.38	3.58
517.729	3.48
518.077	3.6
518.426	3.53
518.774	3.58
519.122	3.45
519.47	3.46
519.819	3.55
520.167	3.45
520.515	3.47
520.863	3.53
521.211	3.56
521.559	3.55
521.907	3.51
522.255	3.49
522.602	3.6
522.95	3.61
523.298	3.64
523.645	3.63
523.993	3.49
524.341	3.69
524.688	3.54
525.036	3.65
525.383	3.67
525.73	3.46
526.078	3.5
526.425	3.61
526.772	3.46
527.119	3.36
527.466	3.48
527.814	3.55
528.161	3.53
528.508	3.5
528.854	3.47
529.201	3.48
529.548	3.31
529.895	3.26
530.242	3.34
530.588	3.34
530.935	3.46
531.282	3.45
531.628	3.48
531.975	3.53
532.321	3.54
532.667	3.57
533.014	3.55
533.36	3.47
533.706	3.42
534.052	3.43
534.399	3.46
534.745	3.37
535.091	3.38
535.437	3.47
535.783	3.46
536.129	3.4
536.474	3.57
536.82	3.49
537.166	3.53
537.512	3.48
537.857	3.44
538.203	3.41
538.549	3.36
538.894	3.49
539.239	3.56
539.585	3.64
539.93	3.58
540.276	3.63
540.621	3.52
540.966	3.52
541.311	3.45
541.656	3.52
542.001	3.4
542.346	3.33
542.691	3.29
543.036	3.3
543.381	3.4
543.726	3.43
544.071	3.46
544.415	3.47
544.76	3.42
545.105	3.47
545.449	3.47
545.794	3.49
546.138	3.63
546.483	3.5
546.827	3.5
547.171	3.53
547.516	3.47
547.86	3.45
548.204	3.54
548.548	3.54
548.892	3.45
549.236	3.56
549.58	3.59
549.924	3.62
550.268	3.6
550.612	3.58
550.956	3.52
551.3	3.66
551.643	3.51
551.987	3.66
552.33	3.56
552.674	3.5
553.017	3.64
553.361	3.58
553.704	3.63
554.048	3.48
554.391	3.47
554.734	3.53
555.077	3.43
555.42	3.57
555.764	3.52
556.107	3.54
556.45	3.56
556.793	3.6
557.135	3.75
557.478	3.66
557.821	3.4
558.164	3.63
558.507	3.47
558.849	3.58
559.192	3.6
559.534	3.61
559.877	3.7
560.219	3.67
560.562	3.61
560.904	3.67
561.246	3.5
561.589	3.7
561.931	3.43
562.273	3.44
562.615	3.67
562.957	3.31
563.299	3.59
563.641	3.52
563.983	3.62
564.325	3.45
564.667	3.51
565.008	3.63
565.35	3.73
565.692	3.57
566.033	3.4
566.375	3.42
566.716	3.53
567.058	3.59
567.399	3.57
567.741	3.51
568.082	3.53
568.423	3.58
568.764	3.33
569.105	3.55
569.447	3.51
569.788	3.5
570.129	3.53
570.47	3.5
570.811	3.25
571.151	3.58
571.492	3.3
571.833	3.56
572.174	3.58
572.514	3.48
572.855	3.56
573.195	3.49
573.536	3.45
573.876	3.36
574.217	3.52
574.557	3.5
574.898	3.4
575.238	3.68
575.578	3.41
575.918	3.38
576.258	3.48
576.598	3.59
576.938	3.42
577.278	3.52
577.618	3.69
577.958	3.67
578.298	3.62
578.638	3.53
578.977	3.55
579.317	3.52
579.657	3.35
579.996	3.7
580.336	3.72
580.675	3.8
581.014	3.66
581.354	3.5
581.693	3.59
582.032	3.56
582.372	3.58
582.711	3.29
583.05	3.78
583.389	3.54
583.728	3.56
584.067	3.66
584.406	3.67
584.745	3.63
585.083	3.54
585.422	3.69
585.761	3.64
586.1	3.68
586.438	3.67
586.777	3.46
587.115	3.48
587.454	3.55
587.792	3.47
588.13	3.62
588.469	3.64
588.807	3.52
589.145	3.47
589.483	3.66
589.821	3.33
590.159	3.57
590.497	3.5
590.835	3.28
591.173	3.57
591.511	3.52
591.849	3.44
592.187	3.26
592.524	3.47
592.862	3.54
593.2	3.7
593.537	3.52
593.875	3.86
594.212	3.37
594.55	3.29
594.887	3.4
595.224	3.64
595.561	3.44
595.899	3.77
596.236	3.5
596.573	3.63
596.91	3.37
597.247	3.59
597.584	3.59
597.921	3.4
598.258	3.52
598.594	3.4
598.931	3.62
599.268	3.44
599.604	3.42
599.941	3.68
600.277	3.6
600.614	3.39
600.95	3.8
601.287	3.59
601.623	3.52
601.959	3.39
602.296	3.33
602.632	3.18
602.968	3.67
603.304	3.36
603.64	3.7
603.976	3.53
604.312	3.42
604.648	3.49
604.984	3.3
605.319	3.53
605.655	3.4
605.991	3.35
606.326	3.6
606.662	3.42
606.998	3.66
607.333	3.43
607.668	3.53
608.004	3.44
608.339	3.61
608.674	3.58
609.01	3.61
609.345	3.42
609.68	3.53
610.015	3.47
610.35	3.38
610.685	3.36
611.02	3.39
611.355	3.19
611.689	3.48
612.024	3.44
612.359	3.4
612.694	3.6
613.028	3.54
613.363	3.3
613.697	3.51
614.032	3.79
614.366	3.36
614.7	3.27
615.035	3.45
615.369	3.4
615.703	3.47
616.037	3.65
616.371	3.23
616.705	3.38
617.039	3.48
617.373	3.22
617.707	3.21
618.041	3.06
618.375	3.44
618.709	3.5
619.042	3.41
619.376	3.38
619.71	3.55
620.043	3.29
620.377	3.31
620.71	3.25
621.043	3.51
621.377	3.16
621.71	3.17
622.043	3.22
622.376	3.56
622.709	3.57
623.043	3.37
623.376	3.9
623.709	3.33
624.041	3.3
624.374	3.73
624.707	3.12
625.04	3.65
625.373	3.75
625.705	3.35
626.038	3.46
626.37	3.27
626.703	3.47
627.035	3.47
627.368	3.18
627.7	3.57
628.032	3.69
628.365	3.3
628.697	3.4
629.029	3.48
629.361	3.4
629.693	3.6
630.025	3.59
630.357	3.44
630.689	3.42
631.021	3.52
631.353	3.63
631.684	3.54
632.016	3.07
632.348	3.62
632.679	3.25
633.011	3.52
633.342	3.38
633.674	3.49
634.005	3.67
634.336	3.53
634.668	3.48
634.999	3.62
635.33	3.68
635.661	3.73
635.992	3.42
636.323	4.07
636.654	3.55
636.985	3.23
637.316	3.46
637.647	3.61
637.977	3.72
638.308	3.23
638.639	3.74
638.969	3.29
639.3	3.43
639.63	3.35
639.961	3.14
640.291	3.23
640.622	3.62
640.952	3.61
641.282	3.5
641.612	3.65
641.943	3.5
642.273	3.63
642.603	3.28
642.933	3.71
643.263	3.62
643.592	3.39
643.922	3.38
644.252	3.67
644.582	3.59
644.911	3.58
645.241	3.62
645.571	3.74
645.9	3.83
646.23	3.38
646.559	3.37
646.888	3.56
647.218	2.79
647.547	3.28
647.876	3.67
648.205	3.51
648.534	3.32
648.863	3.38
649.192	3.68
649.521	3.44
649.85	3.72
650.179	3.51
650.508	3.68
650.837	3.3
651.165	3.25
651.494	3.63
651.822	3.65
652.151	3.44
652.479	3.3
652.808	3.62
653.136	3.39
653.465	3.55
653.793	3.63
654.121	3.82
654.449	3.66
654.777	3.13
655.105	4
655.433	3.09
655.761	3.85
656.089	3.21
656.417	3.84
656.745	3.87
657.073	3.6
657.4	3.39
657.728	3.49
658.056	3.57
658.383	3.69
658.711	3.81
659.038	3.26
659.365	3.31
659.693	3.71
660.02	3.65
660.347	3.39
660.674	3.64
661.001	3.47
661.329	3.49
661.656	3.23
661.982	3.24
662.309	3.59
662.636	3.54
662.963	3.07
663.29	3.39
663.616	3.37
663.943	3.75
664.27	3.95
664.596	3.87
664.923	3.33
665.249	3.41
665.576	3.96
665.902	3.66
666.228	3.78
666.554	3.36
666.881	3.43
667.207	3.5
667.533	3.38
667.859	3.21
668.185	4.18
668.511	3.6
668.837	3.26
669.162	4.15
669.488	3.21
669.814	3.63
670.139	3.71
670.465	3.57
670.791	4.08
671.116	3.76
671.442	3.51
671.767	3.58
672.092	3.95
672.418	3.73
672.743	3.29
673.068	2.86
673.393	3.33
673.718	3.47
674.043	3.24
674.368	3.06
674.693	3.6
675.018	3.41
675.343	3.55
675.667	3.66
675.992	3.51
676.317	3.58
676.641	3.56
676.966	3.46
677.29	3.13
677.615	3.77
677.939	3.5
678.264	3.66
678.588	3.61
678.912	3.34
679.236	4.26
679.56	3.37
679.885	3.77
680.209	3.52
680.532	3.96
680.856	3.52
681.18	3.65
681.504	3.73
681.828	3.5
682.152	4.1
682.475	3.44
682.799	4.14
683.122	3.78
683.446	3.41
683.769	3.7
684.093	3.14
684.416	3.58
684.739	3.75
685.062	3.16
685.386	3.87
685.709	3.82
686.032	3.53
686.355	2.96
686.678	3.96
687.001	2.93
687.324	2.98
687.646	3.18
687.969	3.74
688.292	4.08
688.614	3.58
688.937	3.78
689.26	3.24
689.582	3.32
689.904	4.1
690.227	3.23
690.549	4.12
690.871	3.03
691.194	3.17
691.516	3.95
691.838	3.7
692.16	3.83
692.482	4.69
692.804	3.83
