Data from 0029_chest_Reflection__1__122.txt Node

Date: Thu Oct 20 21:53:56 CDT 2022
User: ToomeyLab
Spectrometer: FLMS14357
Trigger mode: 0
Integration Time (sec): 1.000000E-2
Scans to average: 100
Electric dark correction enabled: true
Nonlinearity correction enabled: false
Boxcar width: 0
XAxis mode: Wavelengths
Number of Pixels in Spectrum: 2048
>>>>>Begin Spectral Data<<<<<
189.047	-115.94
189.435	-115.94
189.823	-115.94
190.211	-57.98
190.599	-67.27
190.987	96.93
191.375	198.72
191.763	-16.19
192.151	745.89
192.538	67.28
192.926	108.85
193.314	88.22
193.702	-109.67
194.089	54.55
194.477	17.83
194.864	-1176.63
195.252	27.73
195.639	14.37
196.027	-418.52
196.414	74.26
196.801	-348.3
197.189	14.22
197.576	120.36
197.963	-13.2
198.351	-6.61
198.738	-74.36
199.125	9.73
199.512	25.71
199.899	6.9
200.286	26.56
200.673	7.08
201.06	17.27
201.447	20.24
201.833	-53.34
202.22	-7.99
202.607	25.53
202.994	-28.02
203.38	-17.44
203.767	17.82
204.154	2.21
204.54	12.98
204.927	-29.95
205.313	45.14
205.699	-2.77
206.086	-11.34
206.472	-16.6
206.858	-49.11
207.245	31.01
207.631	-0.11
208.017	-21.93
208.403	-53.4
208.789	-13.41
209.175	3.23
209.561	-0.28
209.947	23.03
210.333	11.44
210.719	14.21
211.105	34.87
211.491	-25.45
211.876	-12.49
212.262	28.02
212.648	10.49
213.034	-5.38
213.419	4.84
213.805	2.8
214.19	-30.54
214.576	-5.69
214.961	-25.31
215.346	-17.16
215.732	0.87
216.117	-19.74
216.502	-3.87
216.888	-22.47
217.273	-7.5
217.658	41.14
218.043	15.76
218.428	-8.06
218.813	4.48
219.198	6.92
219.583	-0.43
219.968	26.39
220.353	1.01
220.738	10.31
221.122	4.03
221.507	7.08
221.892	-2.23
222.276	1.61
222.661	13.02
223.046	8.4
223.43	-4.4
223.815	3.15
224.199	3.83
224.583	-3.52
224.968	5.92
225.352	10.72
225.736	8.23
226.121	-1.43
226.505	5.09
226.889	6.29
227.273	-0.36
227.657	0.06
228.041	2.4
228.425	1.47
228.809	8.86
229.193	3.49
229.577	2.15
229.961	3.89
230.344	2.76
230.728	3.3
231.112	3.11
231.495	4.03
231.879	3.63
232.263	3.23
232.646	4.17
233.03	3.09
233.413	1.27
233.797	2.25
234.18	2.61
234.563	2.85
234.946	3.15
235.33	3.18
235.713	3.14
236.096	3
236.479	4.1
236.862	3.94
237.245	2.59
237.628	3.68
238.011	3.05
238.394	4.99
238.777	1.89
239.16	3.35
239.543	2.06
239.925	2.35
240.308	3.77
240.691	4.36
241.073	3.32
241.456	2.44
241.838	3.03
242.221	3.72
242.603	3.57
242.986	2.79
243.368	3.57
243.75	3.56
244.133	3.72
244.515	3.32
244.897	3.49
245.279	3.04
245.661	4.57
246.043	3.31
246.425	4.25
246.807	3.65
247.189	3.52
247.571	3.66
247.953	3.57
248.335	3.44
248.717	3.39
249.098	3.41
249.48	3.56
249.862	3.36
250.243	3.17
250.625	4.07
251.006	4.07
251.388	3.57
251.769	3.03
252.151	2.96
252.532	2.4
252.913	3.25
253.295	3.11
253.676	3.69
254.057	2.5
254.438	3.83
254.819	3.15
255.2	3.51
255.581	2.45
255.962	3.35
256.343	2.47
256.724	4.26
257.105	3.32
257.486	2.85
257.867	3.85
258.247	4.73
258.628	3.94
259.009	2.48
259.389	3.09
259.77	3.25
260.15	3.09
260.531	3.46
260.911	3.17
261.292	3.3
261.672	3.1
262.052	3.27
262.432	3.53
262.813	3.18
263.193	3.21
263.573	3.01
263.953	3.01
264.333	3.22
264.713	3.14
265.093	2.64
265.473	3.09
265.853	3.38
266.233	2.97
266.612	3.63
266.992	3.01
267.372	3.36
267.752	3.11
268.131	3.58
268.511	3.46
268.89	2.93
269.27	3.33
269.649	2.77
270.029	2.77
270.408	2.89
270.787	3.29
271.167	2.82
271.546	3.03
271.925	3.24
272.304	3.4
272.683	2.91
273.062	3.07
273.441	3.35
273.82	2.96
274.199	2.45
274.578	2.57
274.957	2.93
275.336	3.21
275.715	3.29
276.093	3.35
276.472	3.14
276.851	3.44
277.229	2.86
277.608	2.82
277.986	3.4
278.365	2.87
278.743	3.05
279.122	3.07
279.5	2.9
279.878	3.19
280.257	2.68
280.635	3.02
281.013	2.78
281.391	3.44
281.769	3.31
282.147	2.41
282.525	2.57
282.903	3.09
283.281	2.96
283.659	2.8
284.037	2.31
284.415	2.65
284.792	2.93
285.17	3.27
285.548	2.92
285.925	2.89
286.303	2.64
286.68	3.46
287.058	2.75
287.435	3.12
287.813	3.16
288.19	2.86
288.567	3.2
288.945	3.21
289.322	3.31
289.699	2.81
290.076	2.77
290.453	2.66
290.83	3.17
291.207	3.23
291.584	2.96
291.961	2.87
292.338	2.72
292.715	2.76
293.092	3.6
293.469	3.46
293.845	3.01
294.222	3.26
294.599	3.29
294.975	2.92
295.352	3.53
295.728	2.99
296.105	3.12
296.481	2.89
296.858	3.36
297.234	2.87
297.61	3.01
297.986	2.82
298.363	2.97
298.739	3.27
299.115	2.84
299.491	2.98
299.867	2.83
300.243	3.06
300.619	3.06
300.995	3.08
301.371	3.07
301.746	2.93
302.122	3.36
302.498	2.83
302.874	3.46
303.249	3.28
303.625	3.11
304	2.99
304.376	2.57
304.751	3.12
305.127	2.67
305.502	3.24
305.878	3.23
306.253	2.64
306.628	2.74
307.003	2.94
307.378	2.42
307.754	2.93
308.129	2.88
308.504	3.19
308.879	3.21
309.254	3.03
309.629	2.8
310.003	2.69
310.378	2.86
310.753	3.11
311.128	3.1
311.502	2.87
311.877	3.37
312.252	2.71
312.626	2.86
313.001	3.17
313.375	3.18
313.75	2.78
314.124	3.14
314.498	2.99
314.873	3.21
315.247	2.78
315.621	2.89
315.995	2.78
316.369	3.41
316.743	2.8
317.117	2.68
317.491	3.09
317.865	3.07
318.239	3.25
318.613	3.78
318.987	3.19
319.361	3.65
319.734	3.2
320.108	3.65
320.482	3.17
320.855	3.44
321.229	3.39
321.602	2.76
321.976	2.98
322.349	2.71
322.723	3.24
323.096	3.18
323.469	3.29
323.843	3.39
324.216	3.01
324.589	3.13
324.962	3.2
325.335	3.35
325.708	3.07
326.081	3.4
326.454	3.23
326.827	3.11
327.2	3.56
327.573	3.29
327.945	3.18
328.318	3
328.691	3.74
329.063	3.17
329.436	3.27
329.809	3.07
330.181	3.55
330.553	2.65
330.926	2.92
331.298	3.21
331.671	3.71
332.043	3.24
332.415	3.41
332.787	3.77
333.159	3.16
333.532	3.09
333.904	3.17
334.276	3.36
334.648	3.04
335.02	3.3
335.391	3.35
335.763	2.98
336.135	3.57
336.507	2.83
336.879	3.85
337.25	3.08
337.622	3.12
337.993	2.77
338.365	3.19
338.736	3.29
339.108	3.03
339.479	2.83
339.851	3.14
340.222	3.21
340.593	3.37
340.964	3.62
341.336	2.91
341.707	2.7
342.078	2.63
342.449	3.24
342.82	3.31
343.191	3.36
343.562	3.47
343.933	2.84
344.303	3.33
344.674	3.63
345.045	3.2
345.416	3.29
345.786	2.97
346.157	3.39
346.527	3.03
346.898	3.22
347.268	2.93
347.639	3.21
348.009	3.74
348.38	3.49
348.75	2.9
349.12	3.34
349.49	3.48
349.861	3.5
350.231	3.26
350.601	3.5
350.971	3.5
351.341	3.32
351.711	3.5
352.081	3.06
352.45	3.35
352.82	3.27
353.19	3.51
353.56	3.29
353.929	3.06
354.299	3.33
354.669	3.25
355.038	3.45
355.408	3.13
355.777	3.2
356.147	3.28
356.516	3.16
356.885	3.49
357.254	3.13
357.624	3.06
357.993	3.29
358.362	3.43
358.731	3.7
359.1	3.1
359.469	3.42
359.838	3.14
360.207	3.82
360.576	3.14
360.945	4.03
361.314	3.32
361.682	3.22
362.051	3.33
362.42	3.19
362.788	3.36
363.157	3.18
363.525	3.4
363.894	3.23
364.262	3.54
364.631	3.47
364.999	3.23
365.367	3.43
365.735	3.43
366.104	3.14
366.472	3.3
366.84	3.52
367.208	3.23
367.576	3.3
367.944	3.77
368.312	3.17
368.68	3.75
369.048	3.09
369.416	3.12
369.783	3.39
370.151	3.31
370.519	3.4
370.886	3.34
371.254	3.55
371.621	3.33
371.989	3.28
372.356	3.26
372.724	3.49
373.091	3.47
373.458	3.1
373.826	3.37
374.193	3.51
374.56	3.14
374.927	3.14
375.294	3.36
375.661	3.71
376.028	3.68
376.395	3.67
376.762	3.28
377.129	3.27
377.496	3.21
377.863	3.53
378.229	3.34
378.596	3.47
378.963	3.67
379.329	3.66
379.696	3.26
380.062	3.2
380.429	3.65
380.795	3.35
381.161	3.44
381.528	3.38
381.894	3.54
382.26	3.22
382.626	3.64
382.993	3.29
383.359	3.35
383.725	3.4
384.091	3.31
384.457	3.29
384.823	3.36
385.188	3.54
385.554	3.33
385.92	3.5
386.286	3.42
386.651	3.22
387.017	3.37
387.383	3.39
387.748	3.69
388.114	3.65
388.479	3.49
388.845	3.48
389.21	3.58
389.575	3.38
389.94	3.48
390.306	3.53
390.671	3.51
391.036	3.52
391.401	3.34
391.766	3.46
392.131	3.69
392.496	3.33
392.861	3.27
393.226	3.34
393.591	3.46
393.956	3.55
394.32	3.34
394.685	3.35
395.05	3.38
395.414	3.58
395.779	3.42
396.143	3.6
396.508	3.61
396.872	3.6
397.236	3.36
397.601	3.81
397.965	3.59
398.329	3.61
398.694	3.62
399.058	3.43
399.422	3.71
399.786	3.49
400.15	3.41
400.514	3.89
400.878	3.53
401.242	3.63
401.605	3.66
401.969	3.65
402.333	3.57
402.697	3.78
403.06	3.43
403.424	3.54
403.787	3.58
404.151	3.42
404.514	3.61
404.878	3.43
405.241	3.5
405.604	3.6
405.968	3.51
406.331	3.61
406.694	3.5
407.057	3.55
407.42	3.67
407.783	3.44
408.146	3.51
408.509	3.54
408.872	3.62
409.235	3.58
409.598	3.61
409.961	3.66
410.323	3.88
410.686	3.6
411.049	3.57
411.411	3.51
411.774	3.49
412.136	3.45
412.499	3.75
412.861	3.57
413.223	3.47
413.586	3.51
413.948	3.68
414.31	3.44
414.672	3.63
415.035	3.64
415.397	3.71
415.759	3.71
416.121	3.55
416.483	3.6
416.845	3.63
417.206	3.53
417.568	3.64
417.93	3.58
418.292	3.85
418.653	3.53
419.015	3.6
419.377	3.62
419.738	3.67
420.1	3.65
420.461	3.58
420.822	3.54
421.184	3.46
421.545	3.65
421.906	3.55
422.267	3.51
422.629	3.54
422.99	3.57
423.351	3.48
423.712	3.63
424.073	3.5
424.434	3.62
424.795	3.56
425.155	3.54
425.516	3.56
425.877	3.5
426.238	3.74
426.598	3.59
426.959	3.59
427.32	3.6
427.68	3.56
428.041	3.7
428.401	3.71
428.761	3.63
429.122	3.65
429.482	3.59
429.842	3.69
430.202	3.84
430.563	3.6
430.923	3.83
431.283	3.78
431.643	3.63
432.003	3.74
432.363	3.76
432.722	3.99
433.082	3.72
433.442	3.69
433.802	3.64
434.161	3.67
434.521	3.69
434.881	3.6
435.24	3.62
435.6	3.77
435.959	3.84
436.319	3.8
436.678	3.63
437.037	3.86
437.396	3.81
437.756	3.67
438.115	3.73
438.474	3.64
438.833	3.69
439.192	3.72
439.551	3.75
439.91	3.73
440.269	3.68
440.628	3.71
440.987	3.55
441.345	3.84
441.704	3.71
442.063	3.8
442.421	3.58
442.78	3.71
443.138	3.61
443.497	3.7
443.855	3.66
444.214	3.67
444.572	3.85
444.93	3.63
445.288	3.68
445.647	3.75
446.005	3.65
446.363	3.68
446.721	3.68
447.079	3.64
447.437	3.71
447.795	3.69
448.153	3.73
448.51	3.72
448.868	3.68
449.226	3.71
449.584	3.75
449.941	3.88
450.299	3.81
450.656	3.74
451.014	3.8
451.371	3.9
451.729	3.69
452.086	3.82
452.443	3.79
452.801	3.85
453.158	3.76
453.515	3.84
453.872	3.85
454.229	3.75
454.586	3.65
454.943	3.64
455.3	3.81
455.657	3.83
456.014	3.86
456.371	3.79
456.727	3.73
457.084	3.64
457.441	3.89
457.797	3.81
458.154	3.82
458.51	3.87
458.867	3.9
459.223	3.88
459.58	3.81
459.936	3.99
460.292	3.74
460.648	3.69
461.005	3.66
461.361	3.8
461.717	3.82
462.073	3.93
462.429	3.84
462.785	3.91
463.141	3.89
463.496	4.09
463.852	3.87
464.208	3.98
464.564	4.02
464.919	3.91
465.275	3.98
465.631	3.79
465.986	3.98
466.342	3.73
466.697	3.8
467.052	3.84
467.408	3.81
467.763	3.96
468.118	3.99
468.473	4.04
468.829	3.97
469.184	3.85
469.539	3.89
469.894	3.95
470.249	4.06
470.603	3.84
470.958	4.04
471.313	3.83
471.668	3.82
472.023	4.01
472.377	3.79
472.732	3.99
473.086	3.94
473.441	3.97
473.795	3.96
474.15	3.94
474.504	3.76
474.859	4.05
475.213	4.03
475.567	4.08
475.921	3.69
476.275	4.14
476.63	3.97
476.984	4.02
477.338	3.96
477.692	3.87
478.045	4.02
478.399	3.99
478.753	3.93
479.107	3.95
479.461	3.96
479.814	3.94
480.168	4.01
480.521	4.04
480.875	4.06
481.228	3.97
481.582	3.94
481.935	3.85
482.289	3.94
482.642	3.88
482.995	3.98
483.348	4.01
483.701	3.92
484.055	3.87
484.408	3.83
484.761	3.84
485.114	3.7
485.466	3.7
485.819	3.75
486.172	3.88
486.525	3.89
486.878	3.88
487.23	3.92
487.583	3.85
487.936	3.9
488.288	3.86
488.641	3.85
488.993	3.87
489.345	3.84
489.698	3.83
490.05	3.83
490.402	3.97
490.754	3.97
491.107	3.93
491.459	3.99
491.811	3.91
492.163	3.95
492.515	3.93
492.866	3.87
493.218	3.86
493.57	3.93
493.922	3.95
494.274	4.03
494.625	4.07
494.977	4.13
495.328	3.94
495.68	4.03
496.031	4.21
496.383	4.14
496.734	4.13
497.086	4.08
497.437	4.2
497.788	4.16
498.139	4.08
498.49	4.19
498.842	4.04
499.193	4.09
499.544	4.16
499.894	4.18
500.245	4.1
500.596	4.19
500.947	4.05
501.298	4.23
501.648	4.21
501.999	4.16
502.35	4.21
502.7	4.24
503.051	4.27
503.401	4.25
503.752	4.21
504.102	4.2
504.452	4.34
504.803	4.22
505.153	4.14
505.503	4.33
505.853	4.3
506.203	4.27
506.553	4.23
506.903	4.19
507.253	4.31
507.603	4.33
507.953	4.4
508.303	4.3
508.652	4.19
509.002	4.23
509.352	4.3
509.701	4.27
510.051	4.23
510.4	4.25
510.75	4.16
511.099	4.26
511.449	4.31
511.798	4.32
512.147	4.36
512.496	4.37
512.846	4.4
513.195	4.39
513.544	4.29
513.893	4.46
514.242	4.33
514.591	4.48
514.939	4.42
515.288	4.46
515.637	4.4
515.986	4.41
516.334	4.33
516.683	4.51
517.032	4.53
517.38	4.44
517.729	4.42
518.077	4.4
518.426	4.4
518.774	4.44
519.122	4.5
519.47	4.3
519.819	4.24
520.167	4.32
520.515	4.37
520.863	4.37
521.211	4.38
521.559	4.43
521.907	4.47
522.255	4.49
522.602	4.49
522.95	4.51
523.298	4.49
523.645	4.55
523.993	4.48
524.341	4.59
524.688	4.58
525.036	4.62
525.383	4.6
525.73	4.48
526.078	4.52
526.425	4.47
526.772	4.48
527.119	4.48
527.466	4.56
527.814	4.54
528.161	4.5
528.508	4.44
528.854	4.48
529.201	4.53
529.548	4.4
529.895	4.36
530.242	4.35
530.588	4.41
530.935	4.51
531.282	4.45
531.628	4.53
531.975	4.65
532.321	4.72
532.667	4.61
533.014	4.67
533.36	4.74
533.706	4.58
534.052	4.65
534.399	4.64
534.745	4.61
535.091	4.61
535.437	4.63
535.783	4.61
536.129	4.64
536.474	4.71
536.82	4.78
537.166	4.79
537.512	4.75
537.857	4.67
538.203	4.77
538.549	4.7
538.894	4.82
539.239	4.74
539.585	4.85
539.93	4.88
540.276	4.94
540.621	4.81
540.966	4.83
541.311	4.87
541.656	4.93
542.001	4.87
542.346	4.83
542.691	4.72
543.036	4.75
543.381	4.75
543.726	4.79
544.071	4.83
544.415	4.89
544.76	4.81
545.105	4.93
545.449	5
545.794	5.06
546.138	5.11
546.483	5.06
546.827	5.1
547.171	5.01
547.516	5.07
547.86	5.04
548.204	5.06
548.548	5.1
548.892	5.08
549.236	5.22
549.58	5.15
549.924	5.25
550.268	5.2
550.612	5.45
550.956	5.25
551.3	5.35
551.643	5.27
551.987	5.38
552.33	5.34
552.674	5.08
553.017	5.32
553.361	5.4
553.704	5.42
554.048	5.48
554.391	5.38
554.734	5.39
555.077	5.41
555.42	5.4
555.764	5.45
556.107	5.39
556.45	5.4
556.793	5.5
557.135	5.55
557.478	5.43
557.821	5.52
558.164	5.45
558.507	5.43
558.849	5.79
559.192	5.56
559.534	5.68
559.877	5.55
560.219	5.69
560.562	5.67
560.904	5.58
561.246	5.68
561.589	5.84
561.931	5.69
562.273	5.74
562.615	5.79
562.957	5.78
563.299	5.59
563.641	5.61
563.983	5.99
564.325	5.62
564.667	5.58
565.008	5.79
565.35	5.94
565.692	5.86
566.033	5.7
566.375	5.96
566.716	5.93
567.058	5.85
567.399	5.93
567.741	5.9
568.082	6
568.423	6.1
568.764	5.74
569.105	5.96
569.447	6.21
569.788	6.07
570.129	6.02
570.47	6
570.811	5.84
571.151	6.03
571.492	5.84
571.833	6.16
572.174	6.16
572.514	6.11
572.855	6.17
573.195	6.11
573.536	6.02
573.876	5.87
574.217	6.04
574.557	6.12
574.898	6.18
575.238	6.45
575.578	6.31
575.918	6.22
576.258	6.23
576.598	6.39
576.938	6.16
577.278	6.41
577.618	6.39
577.958	6.33
578.298	6.53
578.638	6.4
578.977	6.6
579.317	6.34
579.657	6.35
579.996	6.59
580.336	6.51
580.675	6.8
581.014	6.61
581.354	6.76
581.693	6.59
582.032	6.74
582.372	6.61
582.711	6.65
583.05	6.92
583.389	6.66
583.728	6.71
584.067	6.79
584.406	6.82
584.745	6.72
585.083	6.54
585.422	6.74
585.761	6.86
586.1	7.01
586.438	6.99
586.777	6.99
587.115	6.96
587.454	7.12
587.792	7
588.13	6.92
588.469	7.41
588.807	6.98
589.145	6.98
589.483	7.09
589.821	6.99
590.159	7.33
590.497	7.2
590.835	7.11
591.173	7.15
591.511	7.13
591.849	7.04
592.187	7.11
592.524	7.24
592.862	7.1
593.2	7.18
593.537	7.27
593.875	7.28
594.212	7.34
594.55	7.36
594.887	7.3
595.224	7.76
595.561	7.35
595.899	7.41
596.236	7.58
596.573	7.7
596.91	7.58
597.247	7.53
597.584	7.56
597.921	7.61
598.258	7.55
598.594	7.4
598.931	7.61
599.268	7.55
599.604	7.5
599.941	7.67
600.277	7.67
600.614	7.58
600.95	7.88
601.287	7.73
601.623	7.76
601.959	7.85
602.296	7.85
602.632	7.72
602.968	7.93
603.304	7.95
603.64	8.24
603.976	7.9
604.312	8.09
604.648	8
604.984	7.9
605.319	8.03
605.655	8.19
605.991	7.91
606.326	7.98
606.662	7.83
606.998	8.33
607.333	7.99
607.668	7.95
608.004	8.13
608.339	8.11
608.674	8.21
609.01	8.08
609.345	8.21
609.68	8.3
610.015	8.26
610.35	8.51
610.685	8.26
611.02	8.34
611.355	8.31
611.689	8.23
612.024	8.33
612.359	8.35
612.694	8.22
613.028	8.34
613.363	8.42
613.697	8.57
614.032	8.72
614.366	8.64
614.7	8.47
615.035	8.57
615.369	8.66
615.703	8.6
616.037	8.59
616.371	8.78
616.705	8.59
617.039	9.04
617.373	8.72
617.707	8.65
618.041	8.75
618.375	8.8
618.709	8.84
619.042	8.9
619.376	8.96
619.71	9.2
620.043	8.99
620.377	8.92
620.71	8.75
621.043	8.86
621.377	8.86
621.71	8.82
622.043	8.89
622.376	9.57
622.709	9.23
623.043	9.26
623.376	9.4
623.709	9.25
624.041	9.35
624.374	9.49
624.707	9.27
625.04	9.59
625.373	9.69
625.705	9.49
626.038	9.4
626.37	9.07
626.703	9.28
627.035	9.4
627.368	9.54
627.7	9.31
628.032	9.59
628.365	9.5
628.697	9.45
629.029	9.76
629.361	9.81
629.693	9.77
630.025	9.47
630.357	9.72
630.689	9.69
631.021	9.72
631.353	9.85
631.684	9.57
632.016	9.87
632.348	9.62
632.679	9.54
633.011	9.99
633.342	9.88
633.674	9.75
634.005	10.02
634.336	10.09
634.668	9.93
634.999	9.99
635.33	9.98
635.661	9.96
635.992	10.07
636.323	10.13
636.654	10.19
636.985	10.06
637.316	10.01
637.647	10.2
637.977	10.61
638.308	10.25
638.639	10.32
638.969	10.28
639.3	10.06
639.63	10.22
639.961	10.08
640.291	10.21
640.622	10.79
640.952	10.54
641.282	10.28
641.612	10.71
641.943	10.55
642.273	10.62
642.603	10.34
642.933	10.88
643.263	10.67
643.592	10.65
643.922	10.55
644.252	10.73
644.582	10.58
644.911	10.8
645.241	10.75
645.571	10.54
645.9	10.95
646.23	10.7
646.559	11.23
646.888	10.85
647.218	10.36
647.547	10.72
647.876	10.72
648.205	10.72
648.534	10.54
648.863	10.61
649.192	10.86
649.521	10.67
649.85	11.31
650.179	10.9
650.508	11.05
650.837	10.94
651.165	11.04
651.494	11.27
651.822	11.47
652.151	11.62
652.479	10.83
652.808	11.18
653.136	10.83
653.465	11.65
653.793	10.95
654.121	11.11
654.449	11.29
654.777	11.3
655.105	11.65
655.433	11.36
655.761	12
656.089	10.97
656.417	11.78
656.745	11.97
657.073	11.57
657.4	11.77
657.728	11.59
658.056	11.71
658.383	11.67
658.711	11.78
659.038	11.72
659.365	11.45
659.693	11.49
660.02	11.59
660.347	11.61
660.674	11.93
661.001	11.79
661.329	11.67
661.656	12.02
661.982	12.06
662.309	12.19
662.636	11.81
662.963	11.96
663.29	11.8
663.616	11.93
663.943	12.07
664.27	12.43
664.596	12
664.923	11.61
665.249	12.32
665.576	12.08
665.902	12.41
666.228	12
666.554	11.84
666.881	12.54
667.207	11.91
667.533	12.23
667.859	12.35
668.185	12.79
668.511	12.94
668.837	11.97
669.162	12.93
669.488	12.09
669.814	12.66
670.139	12.42
670.465	12.46
670.791	12.87
671.116	12.65
671.442	12.66
671.767	12.5
672.092	12.3
672.418	12.06
672.743	12.36
673.068	12.04
673.393	12.86
673.718	12.52
674.043	12.58
674.368	12.43
674.693	12.63
675.018	13.01
675.343	12.65
675.667	13.24
675.992	12.99
676.317	13.47
676.641	13.38
676.966	13.28
677.29	12.93
677.615	13.09
677.939	13.24
678.264	13.14
678.588	13.19
678.912	12.54
679.236	13.48
679.56	12.87
679.885	13.49
680.209	12.87
680.532	13.39
680.856	13.91
681.18	12.82
681.504	12.68
681.828	13.22
682.152	13.99
682.475	13.63
682.799	13.79
683.122	13.46
683.446	12.79
683.769	13.49
684.093	13.9
684.416	13.78
684.739	13.39
685.062	13.31
685.386	13.52
685.709	13.29
686.032	13.74
686.355	13.07
686.678	13.75
687.001	13.32
687.324	13.79
687.646	13.09
687.969	13.42
688.292	14.25
688.614	13.43
