Data from 0029_forehead_Reflection__1__132.txt Node

Date: Thu Oct 20 21:56:50 CDT 2022
User: ToomeyLab
Spectrometer: FLMS14357
Trigger mode: 0
Integration Time (sec): 1.000000E-2
Scans to average: 100
Electric dark correction enabled: true
Nonlinearity correction enabled: false
Boxcar width: 0
XAxis mode: Wavelengths
Number of Pixels in Spectrum: 2048
>>>>>Begin Spectral Data<<<<<
189.047	-42.19
189.435	-42.19
189.823	-42.19
190.211	-414.68
190.599	72.49
190.987	71.92
191.375	103.84
191.763	-457.32
192.151	724.96
192.538	-36.85
192.926	-40.89
193.314	29.4
193.702	52.11
194.089	63.23
194.477	-43.34
194.864	-1367.05
195.252	63.9
195.639	-13.24
196.027	5866.67
196.414	53.21
196.801	-521.26
197.189	-83.85
197.576	83.09
197.963	-65.72
198.351	7.41
198.738	-78.94
199.125	24.3
199.512	16.33
199.899	3.24
200.286	-1.95
200.673	-7.85
201.06	24.68
201.447	17.9
201.833	26.34
202.22	-22.04
202.607	2.51
202.994	6.41
203.38	-15.74
203.767	8.77
204.154	-7.38
204.54	18.94
204.927	21.38
205.313	19.99
205.699	24.47
206.086	-9.28
206.472	9.34
206.858	14.79
207.245	3.85
207.631	11.63
208.017	-16.54
208.403	18.05
208.789	14.76
209.175	9.67
209.561	10.44
209.947	40.12
210.333	26.27
210.719	15.21
211.105	8.77
211.491	-46.8
211.876	-2.24
212.262	2.37
212.648	14.21
213.034	32.23
213.419	-39.87
213.805	-4.44
214.19	-7.13
214.576	4.37
214.961	10.15
215.346	-22.18
215.732	-3.64
216.117	4.4
216.502	2.33
216.888	-20.66
217.273	-0.54
217.658	-0.15
218.043	10.63
218.428	-15.24
218.813	8.37
219.198	8.47
219.583	4.06
219.968	31.83
220.353	-5.18
220.738	33.86
221.122	16.01
221.507	-18.91
221.892	3.65
222.276	7.37
222.661	17.23
223.046	13.87
223.43	17.54
223.815	7.65
224.199	-6.49
224.583	5.25
224.968	7.38
225.352	15.32
225.736	2.98
226.121	-3.7
226.505	-0.43
226.889	2.94
227.273	2.5
227.657	-0.1
228.041	-0.34
228.425	3.62
228.809	3.55
229.193	0.7
229.577	1.93
229.961	2.03
230.344	2.16
230.728	2.07
231.112	2.25
231.495	2.86
231.879	2.32
232.263	4.13
232.646	2.9
233.03	1.98
233.413	-0.44
233.797	1.51
234.18	0.17
234.563	3.78
234.946	0.61
235.33	1.62
235.713	2.2
236.096	1.02
236.479	3.06
236.862	2.68
237.245	1.72
237.628	1.82
238.011	3.03
238.394	3.71
238.777	2.13
239.16	2.45
239.543	2.42
239.925	1.47
240.308	2.37
240.691	3.63
241.073	1.79
241.456	2.95
241.838	1.82
242.221	1.99
242.603	2.75
242.986	2.63
243.368	2.26
243.75	2.19
244.133	2.42
244.515	1.96
244.897	2.45
245.279	1.3
245.661	2.51
246.043	2.26
246.425	2.65
246.807	2.91
247.189	2.66
247.571	2.53
247.953	2.15
248.335	2.38
248.717	2.21
249.098	2.39
249.48	2.34
249.862	2.49
250.243	2.49
250.625	2.78
251.006	3
251.388	1.99
251.769	2.58
252.151	3.09
252.532	2.09
252.913	2.35
253.295	2.13
253.676	2.82
254.057	1.62
254.438	2.61
254.819	2.93
255.2	3.29
255.581	3
255.962	4.26
256.343	2.88
256.724	2.86
257.105	2.03
257.486	2.06
257.867	3.18
258.247	2.28
258.628	2.72
259.009	2.3
259.389	2.58
259.77	2.11
260.15	2.36
260.531	2.28
260.911	2.34
261.292	2.64
261.672	2.36
262.052	2.42
262.432	2.35
262.813	2.11
263.193	2.9
263.573	2.52
263.953	2.06
264.333	1.87
264.713	2.62
265.093	2.23
265.473	2.69
265.853	2.42
266.233	2.71
266.612	2.78
266.992	1.57
267.372	3.3
267.752	2.78
268.131	2.82
268.511	2.7
268.89	2.08
269.27	2.44
269.649	2.32
270.029	2.2
270.408	2.04
270.787	2.31
271.167	2.3
271.546	2.44
271.925	2.76
272.304	2.69
272.683	2.25
273.062	2.04
273.441	2.75
273.82	2.81
274.199	2.3
274.578	2.1
274.957	2.52
275.336	2.41
275.715	2.38
276.093	3
276.472	3.02
276.851	3.15
277.229	2.08
277.608	2.17
277.986	2.35
278.365	2.37
278.743	2.03
279.122	2.59
279.5	2.25
279.878	2.84
280.257	2.24
280.635	2.16
281.013	2.52
281.391	2.75
281.769	2.7
282.147	2.27
282.525	2.03
282.903	2.38
283.281	2.1
283.659	2.38
284.037	2.1
284.415	2.24
284.792	2.13
285.17	2.99
285.548	2.45
285.925	2.1
286.303	2.34
286.68	2.58
287.058	2.47
287.435	2.43
287.813	2.52
288.19	2.6
288.567	2.42
288.945	2.71
289.322	2.51
289.699	1.63
290.076	2.72
290.453	2.32
290.83	2.62
291.207	2.61
291.584	2.7
291.961	2.3
292.338	2.29
292.715	2.5
293.092	3.35
293.469	2.7
293.845	3.13
294.222	3.2
294.599	2.96
294.975	2.74
295.352	3.38
295.728	2.9
296.105	3.25
296.481	2.68
296.858	2.74
297.234	2.88
297.61	2.85
297.986	2.77
298.363	2.72
298.739	2.82
299.115	2.93
299.491	3.1
299.867	2.81
300.243	3.17
300.619	3.37
300.995	3.08
301.371	3.45
301.746	3.11
302.122	3.42
302.498	3.21
302.874	3.66
303.249	3.73
303.625	3.48
304	3.25
304.376	3.45
304.751	3.37
305.127	2.97
305.502	3.98
305.878	3.42
306.253	3.16
306.628	3.8
307.003	3.06
307.378	3.27
307.754	3.5
308.129	3.64
308.504	3.87
308.879	3.7
309.254	3.75
309.629	3.75
310.003	3.59
310.378	3.97
310.753	3.7
311.128	3.54
311.502	3.99
311.877	3.97
312.252	3.69
312.626	3.96
313.001	4.09
313.375	4
313.75	3.71
314.124	3.83
314.498	4.1
314.873	4.39
315.247	4.11
315.621	3.99
315.995	3.86
316.369	4.39
316.743	4.09
317.117	4.28
317.491	4.77
317.865	4.68
318.239	4.24
318.613	5.19
318.987	4.74
319.361	4.56
319.734	4.25
320.108	4.56
320.482	4.56
320.855	4.74
321.229	4.77
321.602	4.02
321.976	4.28
322.349	4.05
322.723	5.01
323.096	4.44
323.469	4.44
323.843	5.21
324.216	4.54
324.589	5.01
324.962	4.83
325.335	4.92
325.708	5.09
326.081	5
326.454	5.34
326.827	5.01
327.2	5.24
327.573	4.88
327.945	5.04
328.318	4.93
328.691	5.42
329.063	5.45
329.436	5.11
329.809	5.13
330.181	5.19
330.553	4.68
330.926	5.07
331.298	5.28
331.671	5.5
332.043	5.95
332.415	5.31
332.787	5.61
333.159	5.4
333.532	5.8
333.904	5.4
334.276	5.82
334.648	5.49
335.02	5.87
335.391	5.43
335.763	5.7
336.135	5.94
336.507	5.3
336.879	6.22
337.25	5.45
337.622	5.97
337.993	5.45
338.365	6.11
338.736	6.03
339.108	6.02
339.479	5.62
339.851	5.6
340.222	5.67
340.593	5.97
340.964	6.47
341.336	5.98
341.707	6.1
342.078	6.06
342.449	6.03
342.82	6.33
343.191	6.22
343.562	6.43
343.933	6.09
344.303	6.31
344.674	6.04
345.045	6.55
345.416	6.34
345.786	6.27
346.157	6.33
346.527	6.42
346.898	6.36
347.268	6.4
347.639	6.48
348.009	6.43
348.38	6.85
348.75	6.72
349.12	6.96
349.49	6.55
349.861	6.89
350.231	6.76
350.601	6.8
350.971	7.17
351.341	6.84
351.711	7.15
352.081	6.93
352.45	6.85
352.82	6.85
353.19	6.95
353.56	7.24
353.929	7.34
354.299	7.28
354.669	6.78
355.038	7.35
355.408	7
355.777	7.42
356.147	7.53
356.516	7.03
356.885	7.48
357.254	7.33
357.624	7.31
357.993	7.18
358.362	7.54
358.731	7.47
359.1	7.12
359.469	7.64
359.838	7.39
360.207	7.71
360.576	7.34
360.945	7.83
361.314	7.7
361.682	7.61
362.051	7.69
362.42	7.77
362.788	7.63
363.157	7.51
363.525	7.71
363.894	7.8
364.262	7.93
364.631	7.83
364.999	7.84
365.367	8.09
365.735	7.68
366.104	7.83
366.472	7.79
366.84	8.14
367.208	8.19
367.576	8.14
367.944	8.49
368.312	8.13
368.68	8.33
369.048	8.17
369.416	8.22
369.783	8.19
370.151	8.26
370.519	8.38
370.886	8.07
371.254	8.75
371.621	8.36
371.989	8.56
372.356	8.54
372.724	8.81
373.091	8.55
373.458	8.41
373.826	8.95
374.193	8.85
374.56	8.56
374.927	8.55
375.294	9.19
375.661	9.22
376.028	8.81
376.395	9.04
376.762	8.98
377.129	8.81
377.496	8.77
377.863	8.9
378.229	8.91
378.596	9.12
378.963	9.37
379.329	9.54
379.696	9.33
380.062	9.16
380.429	9.6
380.795	9.39
381.161	9.47
381.528	9.11
381.894	9.46
382.26	9.32
382.626	9.94
382.993	9.48
383.359	9.5
383.725	9.5
384.091	9.66
384.457	9.52
384.823	9.72
385.188	9.82
385.554	9.45
385.92	9.79
386.286	9.75
386.651	9.57
387.017	9.79
387.383	9.98
387.748	10.2
388.114	10.3
388.479	10.02
388.845	10.25
389.21	10.14
389.575	9.8
389.94	10.18
390.306	10.06
390.671	10.05
391.036	10.43
391.401	10.25
391.766	10.47
392.131	10.35
392.496	10.16
392.861	10.24
393.226	10.34
393.591	10.52
393.956	10.61
394.32	10.68
394.685	10.65
395.05	10.44
395.414	10.62
395.779	10.58
396.143	10.79
396.508	10.86
396.872	10.78
397.236	10.87
397.601	11.31
397.965	11.11
398.329	10.79
398.694	10.95
399.058	10.75
399.422	11.13
399.786	10.86
400.15	10.94
400.514	11.36
400.878	10.95
401.242	11.22
401.605	11.38
401.969	11.35
402.333	11.35
402.697	11.67
403.06	11.31
403.424	11.51
403.787	11.49
404.151	11.56
404.514	11.31
404.878	11.49
405.241	11.5
405.604	11.62
405.968	11.61
406.331	11.48
406.694	11.61
407.057	11.8
407.42	11.78
407.783	11.6
408.146	11.82
408.509	11.88
408.872	11.98
409.235	11.8
409.598	12.14
409.961	12.05
410.323	12.23
410.686	12.33
411.049	11.98
411.411	11.84
411.774	12.19
412.136	12.1
412.499	12.38
412.861	12.25
413.223	12.52
413.586	12.22
413.948	12.21
414.31	12.27
414.672	12.39
415.035	12.44
415.397	12.52
415.759	12.68
416.121	12.6
416.483	12.52
416.845	12.74
417.206	12.44
417.568	12.85
417.93	12.52
418.292	12.59
418.653	12.83
419.015	12.59
419.377	12.63
419.738	12.67
420.1	12.73
420.461	12.74
420.822	12.72
421.184	12.66
421.545	12.79
421.906	12.73
422.267	12.61
422.629	12.65
422.99	12.75
423.351	12.76
423.712	12.99
424.073	13.01
424.434	13.11
424.795	13.05
425.155	12.94
425.516	12.85
425.877	12.92
426.238	13.19
426.598	13.1
426.959	13.3
427.32	13.42
427.68	13.31
428.041	13.45
428.401	13.62
428.761	13.6
429.122	13.53
429.482	13.54
429.842	13.66
430.202	13.96
430.563	13.77
430.923	13.99
431.283	14.02
431.643	14.03
432.003	13.91
432.363	14.17
432.722	14.34
433.082	14.07
433.442	14.03
433.802	14.2
434.161	14.11
434.521	14.17
434.881	14.02
435.24	14.03
435.6	14.19
435.959	14.33
436.319	14.39
436.678	14.39
437.037	14.34
437.396	14.45
437.756	14.61
438.115	14.61
438.474	14.61
438.833	14.56
439.192	14.52
439.551	14.49
439.91	14.53
440.269	14.55
440.628	14.57
440.987	14.56
441.345	14.63
441.704	14.57
442.063	14.69
442.421	14.5
442.78	14.68
443.138	14.78
443.497	15.06
443.855	14.98
444.214	15.17
444.572	15.01
444.93	14.98
445.288	14.96
445.647	15.18
446.005	14.93
446.363	15.07
446.721	15.13
447.079	15.02
447.437	14.88
447.795	15
448.153	15.07
448.51	15.07
448.868	15.19
449.226	15.28
449.584	15.34
449.941	15.57
450.299	15.6
450.656	15.5
451.014	15.67
451.371	15.92
451.729	15.64
452.086	15.96
452.443	15.97
452.801	16.02
453.158	16.05
453.515	15.94
453.872	15.75
454.229	15.86
454.586	15.93
454.943	16
455.3	16.26
455.657	16.14
456.014	16.14
456.371	16.27
456.727	16.34
457.084	16.17
457.441	16.53
457.797	16.36
458.154	16.49
458.51	16.58
458.867	16.5
459.223	16.64
459.58	16.31
459.936	16.46
460.292	16.23
460.648	16.27
461.005	16.13
461.361	16.12
461.717	16.31
462.073	16.55
462.429	16.71
462.785	16.91
463.141	17.17
463.496	17.23
463.852	17.09
464.208	17.11
464.564	17.15
464.919	17.11
465.275	17.2
465.631	17.14
465.986	17.23
466.342	17.32
466.697	17.18
467.052	17.3
467.408	17.46
467.763	17.29
468.118	17.3
468.473	17.55
468.829	17.51
469.184	17.52
469.539	17.47
469.894	17.6
470.249	17.87
470.603	17.58
470.958	17.83
471.313	17.66
471.668	17.73
472.023	17.8
472.377	17.9
472.732	18.12
473.086	18.03
473.441	17.83
473.795	17.86
474.15	17.88
474.504	17.75
474.859	18.18
475.213	18
475.567	18.13
475.921	18.12
476.275	18.36
476.63	18.45
476.984	18.36
477.338	18.18
477.692	18.29
478.045	18.28
478.399	18.42
478.753	18.42
479.107	18.39
479.461	18.34
479.814	18.4
480.168	18.6
480.521	18.51
480.875	18.6
481.228	18.58
481.582	18.54
481.935	18.63
482.289	18.46
482.642	18.44
482.995	18.62
483.348	18.41
483.701	18.46
484.055	18.27
484.408	17.98
484.761	17.7
485.114	17.42
485.466	17.43
485.819	17.79
486.172	18.09
486.525	18.32
486.878	18.57
487.23	18.62
487.583	18.55
487.936	18.56
488.288	18.35
488.641	18.15
488.993	18.1
489.345	18.19
489.698	18.28
490.05	18.46
490.402	18.81
490.754	19.01
491.107	19.14
491.459	19.32
491.811	19.17
492.163	19.06
492.515	18.82
492.866	18.49
493.218	18.56
493.57	18.6
493.922	18.99
494.274	19.31
494.625	19.5
494.977	19.7
495.328	19.71
495.68	19.94
496.031	20.04
496.383	19.99
496.734	20.01
497.086	19.97
497.437	20.01
497.788	19.88
498.139	19.77
498.49	19.85
498.842	19.76
499.193	19.9
499.544	20.08
499.894	20.16
500.245	20.21
500.596	20.22
500.947	20.35
501.298	20.46
501.648	20.53
501.999	20.6
502.35	20.78
502.7	20.58
503.051	20.74
503.401	20.85
503.752	20.73
504.102	20.63
504.452	20.98
504.803	20.72
505.153	20.76
505.503	20.82
505.853	20.76
506.203	20.92
506.553	21
506.903	20.96
507.253	21.04
507.603	21.18
507.953	21.05
508.303	21.1
508.652	21.09
509.002	21.02
509.352	21.05
509.701	21.17
510.051	20.94
510.4	20.87
510.75	20.97
511.099	21.2
511.449	21.16
511.798	21.18
512.147	21.17
512.496	21.45
512.846	21.44
513.195	21.35
513.544	21.39
513.893	21.55
514.242	21.58
514.591	21.49
514.939	21.68
515.288	21.73
515.637	21.69
515.986	21.74
516.334	21.78
516.683	22.04
517.032	21.82
517.38	21.91
517.729	21.99
518.077	22.11
518.426	21.94
518.774	21.79
519.122	21.76
519.47	21.52
519.819	21.44
520.167	21.47
520.515	21.64
520.863	21.77
521.211	21.85
521.559	22.08
521.907	22.09
522.255	22.39
522.602	22.41
522.95	22.53
523.298	22.6
523.645	22.52
523.993	22.59
524.341	22.65
524.688	22.58
525.036	22.67
525.383	22.6
525.73	22.6
526.078	22.61
526.425	22.46
526.772	22.25
527.119	22.05
527.466	22.19
527.814	22.3
528.161	22.45
528.508	22.45
528.854	22.42
529.201	22.09
529.548	21.89
529.895	21.62
530.242	21.55
530.588	21.96
530.935	22.22
531.282	22.41
531.628	22.61
531.975	22.7
532.321	22.95
532.667	22.88
533.014	23.04
533.36	22.94
533.706	22.81
534.052	22.78
534.399	22.56
534.745	22.29
535.091	22.39
535.437	22.76
535.783	23.04
536.129	23.17
536.474	23.48
536.82	23.59
537.166	23.46
537.512	23.23
537.857	23.07
538.203	23.14
538.549	23.22
538.894	23.49
539.239	23.64
539.585	23.78
539.93	24
540.276	23.98
540.621	23.93
540.966	24.06
541.311	23.94
541.656	23.76
542.001	23.39
542.346	23.1
542.691	22.93
543.036	22.96
543.381	23.24
543.726	23.46
544.071	23.68
544.415	23.86
544.76	23.73
545.105	23.91
545.449	24.04
545.794	24.3
546.138	24.59
546.483	24.52
546.827	24.36
547.171	24.29
547.516	24.3
547.86	24.3
548.204	24.32
548.548	24.42
548.892	24.38
549.236	24.69
549.58	24.96
549.924	25.03
550.268	24.98
550.612	25.39
550.956	25.29
551.3	25.34
551.643	25.38
551.987	25.5
552.33	25.43
552.674	25.25
553.017	25.27
553.361	25.33
553.704	25.25
554.048	25.39
554.391	25.23
554.734	25.23
555.077	25.5
555.42	25.73
555.764	25.71
556.107	25.56
556.45	25.67
556.793	25.84
557.135	26.04
557.478	25.74
557.821	25.84
558.164	25.97
558.507	25.93
558.849	26.03
559.192	26.2
559.534	26.1
559.877	26.26
560.219	26.19
560.562	26.22
560.904	26.17
561.246	26.24
561.589	26.45
561.931	26.21
562.273	26.4
562.615	26.46
562.957	26.42
563.299	26.47
563.641	26.28
563.983	26.69
564.325	26.58
564.667	26.46
565.008	26.64
565.35	26.54
565.692	26.68
566.033	26.56
566.375	26.77
566.716	26.49
567.058	26.42
567.399	26.44
567.741	26.59
568.082	26.31
568.423	26.63
568.764	26.49
569.105	26.91
569.447	26.82
569.788	27.05
570.129	26.91
570.47	27.1
570.811	26.87
571.151	26.95
571.492	27.04
571.833	27.22
572.174	27.19
572.514	27.12
572.855	27.18
573.195	26.72
573.536	27.11
573.876	26.82
574.217	26.92
574.557	27.33
574.898	27.17
575.238	27.5
575.578	27.26
575.918	27.21
576.258	27.32
576.598	27.18
576.938	27.12
577.278	27.33
577.618	27.61
577.958	27.39
578.298	27.83
578.638	27.64
578.977	27.82
579.317	27.77
579.657	27.87
579.996	28.08
580.336	28.17
580.675	28.34
581.014	28.2
581.354	28.17
581.693	28.33
582.032	28.27
582.372	28.28
582.711	28.35
583.05	28.43
583.389	28.49
583.728	28.43
584.067	28.4
584.406	28.4
584.745	28.78
585.083	28.17
585.422	28.49
585.761	28.81
586.1	28.59
586.438	28.92
586.777	28.76
587.115	28.63
587.454	28.9
587.792	28.77
588.13	28.78
588.469	28.98
588.807	29.1
589.145	28.82
589.483	28.98
589.821	28.89
590.159	28.76
590.497	28.94
590.835	28.85
591.173	28.75
591.511	28.81
591.849	28.85
592.187	28.89
592.524	29.25
592.862	29.05
593.2	29.01
593.537	29.33
593.875	29.38
594.212	29.27
594.55	29
594.887	29.08
595.224	29.39
595.561	28.99
595.899	29.45
596.236	29.34
596.573	29.43
596.91	29.38
597.247	29.14
597.584	29.35
597.921	29.19
598.258	29.15
598.594	28.94
598.931	29.31
599.268	29.39
599.604	29.57
599.941	29.75
600.277	29.52
600.614	29.81
600.95	30.05
601.287	29.83
601.623	30.29
601.959	30.03
602.296	29.73
602.632	29.9
602.968	30.22
603.304	30.21
603.64	30.14
603.976	30.22
604.312	29.88
604.648	29.78
604.984	29.73
605.319	29.95
605.655	29.73
605.991	29.6
606.326	29.82
606.662	29.83
606.998	30.04
607.333	30.26
607.668	30.05
608.004	30.46
608.339	30.53
608.674	30.68
609.01	30.7
609.345	30.61
609.68	30.29
610.015	30.51
610.35	30.5
610.685	30.09
611.02	30.21
611.355	29.95
611.689	30.31
612.024	30.35
612.359	30.51
612.694	30.67
613.028	30.67
613.363	30.98
613.697	30.93
614.032	31.11
614.366	30.84
614.7	31.11
615.035	31.04
615.369	30.77
615.703	30.99
616.037	31.33
616.371	31.03
616.705	31.3
617.039	31.13
617.373	30.99
617.707	31.39
618.041	31.18
618.375	31.26
618.709	31.49
619.042	31.31
619.376	31.25
619.71	31.61
620.043	31.25
620.377	31.35
620.71	31.43
621.043	31.44
621.377	31.26
621.71	31.22
622.043	31.47
622.376	31.78
622.709	31.83
623.043	31.49
623.376	31.76
623.709	31.76
624.041	31.88
624.374	31.81
624.707	31.43
625.04	32.15
625.373	32.24
625.705	31.56
626.038	32.18
626.37	31.8
626.703	31.51
627.035	31.61
627.368	31.62
627.7	32.03
628.032	32.03
628.365	31.89
628.697	31.72
629.029	31.69
629.361	32.3
629.693	32.25
630.025	32.03
630.357	31.99
630.689	32.16
631.021	32.27
631.353	32.49
631.684	31.84
632.016	32.08
632.348	32.34
632.679	32.27
633.011	32.31
633.342	32.25
633.674	32.53
634.005	32.48
634.336	32.64
634.668	32.55
634.999	32.26
635.33	32.69
635.661	32.58
635.992	32.19
636.323	32.68
636.654	32.9
636.985	32.71
637.316	32.51
637.647	32.48
637.977	33.49
638.308	32.39
638.639	32.85
638.969	32.58
639.3	32.38
639.63	33.09
639.961	33.04
640.291	32.71
640.622	33
640.952	33.29
641.282	33.35
641.612	33.3
641.943	32.74
642.273	33.31
642.603	32.98
642.933	33.04
643.263	33.03
643.592	33.09
643.922	32.9
644.252	33.49
644.582	33.19
644.911	33.52
645.241	33.49
645.571	32.94
645.9	33.27
646.23	33.76
646.559	33.1
646.888	33.28
647.218	32.85
647.547	33.12
647.876	33.34
648.205	33.31
648.534	33.5
648.863	33.52
649.192	33.19
649.521	33.35
649.85	33.44
650.179	33.16
650.508	33.7
650.837	33.76
651.165	33.94
651.494	33.59
651.822	33.83
652.151	33.57
652.479	33.6
652.808	33.31
653.136	33.34
653.465	33.65
653.793	34.14
654.121	33.73
654.449	34.15
654.777	33.74
655.105	34.41
655.433	34.26
655.761	34.09
656.089	33.65
656.417	33.88
656.745	34.2
657.073	34.16
657.4	33.53
657.728	33.41
658.056	34.2
658.383	34.16
658.711	34.28
659.038	34.54
659.365	34.16
659.693	34.04
660.02	34.3
660.347	34.12
660.674	34.09
661.001	33.73
661.329	33.78
661.656	34.36
661.982	34.06
662.309	34.47
662.636	34.14
662.963	34.27
663.29	34.39
663.616	34.62
663.943	35.14
664.27	34.53
664.596	34.61
664.923	34.4
665.249	34.54
665.576	34.62
665.902	34.16
666.228	34.75
666.554	34.16
666.881	35.25
667.207	34.49
667.533	34.64
667.859	34.41
668.185	35.16
668.511	34.48
668.837	35.14
669.162	34.55
669.488	34.6
669.814	34.89
670.139	34.59
670.465	34.67
670.791	35.02
671.116	34.82
671.442	35.27
671.767	34.99
672.092	34.93
672.418	34.84
672.743	35.13
673.068	34.79
673.393	34.91
673.718	34.86
