Data from 0029_chest_Reflection__0__121.txt Node

Date: Thu Oct 20 21:53:44 CDT 2022
User: ToomeyLab
Spectrometer: FLMS14357
Trigger mode: 0
Integration Time (sec): 1.000000E-2
Scans to average: 100
Electric dark correction enabled: true
Nonlinearity correction enabled: false
Boxcar width: 0
XAxis mode: Wavelengths
Number of Pixels in Spectrum: 2048
>>>>>Begin Spectral Data<<<<<
189.047	-116.37
189.435	-116.37
189.823	-116.37
190.211	16.98
190.599	-164.05
190.987	81.48
191.375	184.97
191.763	198.3
192.151	902.74
192.538	249.09
192.926	101.35
193.314	48.53
193.702	169.49
194.089	64.74
194.477	-86.68
194.864	-232.95
195.252	73.15
195.639	135.13
196.027	948.15
196.414	26.7
196.801	-114.72
197.189	51.28
197.576	89.63
197.963	128.03
198.351	-22.11
198.738	-2.74
199.125	-27.21
199.512	-16.33
199.899	-60.81
200.286	36.5
200.673	-8.51
201.06	26.61
201.447	-10.07
201.833	39.84
202.22	-28.64
202.607	18.11
202.994	28.16
203.38	-20.1
203.767	1.2
204.154	8.55
204.54	-10.9
204.927	24.65
205.313	4.76
205.699	-15.43
206.086	-1.68
206.472	30.93
206.858	7.14
207.245	19.04
207.631	-3.76
208.017	13.54
208.403	-55.35
208.789	-12.34
209.175	8.75
209.561	3.13
209.947	-2.5
210.333	13.58
210.719	18.12
211.105	28.51
211.491	-8.22
211.876	-8.44
212.262	19.96
212.648	26.98
213.034	-4.56
213.419	-7.15
213.805	-28.75
214.19	-9.63
214.576	22.2
214.961	-3.42
215.346	-48.58
215.732	-13.67
216.117	5.12
216.502	15.51
216.888	-20.44
217.273	-3.7
217.658	2.54
218.043	28.92
218.428	1.42
218.813	13.01
219.198	-10.41
219.583	10.03
219.968	33.9
220.353	-14.15
220.738	16.19
221.122	14.99
221.507	-1.18
221.892	2.78
222.276	11.86
222.661	14.94
223.046	15.67
223.43	1.24
223.815	11.55
224.199	-3.26
224.583	-3.05
224.968	17.91
225.352	14.58
225.736	3.28
226.121	-1.58
226.505	7.02
226.889	5.56
227.273	3.04
227.657	6.34
228.041	4.65
228.425	6.93
228.809	4.89
229.193	3.47
229.577	3.2
229.961	4.25
230.344	4.63
230.728	3.46
231.112	4.56
231.495	4.34
231.879	5.5
232.263	5.99
232.646	4.27
233.03	3.69
233.413	3.59
233.797	6.6
234.18	2.45
234.563	4.63
234.946	3.69
235.33	3.88
235.713	3.95
236.096	2.55
236.479	5.01
236.862	5.09
237.245	3.27
237.628	3.62
238.011	4.56
238.394	4.99
238.777	4.06
239.16	3.52
239.543	3.89
239.925	4.87
240.308	4.37
240.691	6.67
241.073	3.01
241.456	2.97
241.838	4.58
242.221	4.26
242.603	4.56
242.986	4.29
243.368	3.97
243.75	4.86
244.133	4.24
244.515	4.04
244.897	4.36
245.279	3.5
245.661	4.9
246.043	4.66
246.425	4.83
246.807	4.43
247.189	4.56
247.571	4.28
247.953	4.03
248.335	4.38
248.717	4.22
249.098	4.11
249.48	4.39
249.862	4.27
250.243	4.13
250.625	4.67
251.006	5.27
251.388	3.84
251.769	4.71
252.151	3.98
252.532	3.99
252.913	4.24
253.295	4.25
253.676	4.46
254.057	3.21
254.438	4.04
254.819	4.08
255.2	4.1
255.581	3.93
255.962	4.6
256.343	3.63
256.724	4.64
257.105	4.16
257.486	3.91
257.867	4.46
258.247	4.6
258.628	3.73
259.009	3.66
259.389	3.89
259.77	4.18
260.15	4.3
260.531	4.21
260.911	3.78
261.292	4.11
261.672	4.01
262.052	4.11
262.432	4.21
262.813	3.64
263.193	3.98
263.573	3.81
263.953	4.2
264.333	3.96
264.713	3.71
265.093	4.2
265.473	4.12
265.853	4.37
266.233	4.36
266.612	4.36
266.992	3.61
267.372	5.05
267.752	4.38
268.131	4.44
268.511	3.94
268.89	3.84
269.27	3.85
269.649	3.51
270.029	3.9
270.408	3.81
270.787	3.65
271.167	3.97
271.546	3.9
271.925	4.29
272.304	4.06
272.683	3.65
273.062	3.46
273.441	3.87
273.82	4.38
274.199	3.48
274.578	3.61
274.957	3.42
275.336	3.66
275.715	4.13
276.093	4.79
276.472	4.46
276.851	4.6
277.229	3.48
277.608	3.82
277.986	3.98
278.365	3.53
278.743	3.29
279.122	4.43
279.5	3.48
279.878	4.09
280.257	3.55
280.635	3.59
281.013	3.88
281.391	4.2
281.769	3.78
282.147	3.65
282.525	3.57
282.903	3.77
283.281	3.85
283.659	3.66
284.037	3.57
284.415	4
284.792	3.55
285.17	3.96
285.548	3.75
285.925	3.53
286.303	3.83
286.68	4.29
287.058	3.61
287.435	3.74
287.813	3.65
288.19	3.72
288.567	3.58
288.945	3.83
289.322	3.58
289.699	3.45
290.076	3.76
290.453	3.73
290.83	3.95
291.207	4.24
291.584	3.87
291.961	3.8
292.338	3.54
292.715	4.06
293.092	4.48
293.469	3.74
293.845	3.7
294.222	4.31
294.599	4.39
294.975	4.1
295.352	4.2
295.728	3.96
296.105	4.41
296.481	4.04
296.858	3.94
297.234	4.04
297.61	4.12
297.986	3.71
298.363	4.05
298.739	4.28
299.115	4.13
299.491	4.1
299.867	4
300.243	4.13
300.619	4.62
300.995	3.66
301.371	4.11
301.746	3.96
302.122	4.52
302.498	3.69
302.874	4.29
303.249	4.51
303.625	4.23
304	4.72
304.376	4.09
304.751	4.09
305.127	3.97
305.502	4.08
305.878	4.39
306.253	3.84
306.628	4.27
307.003	4.54
307.378	3.83
307.754	3.91
308.129	3.85
308.504	4.27
308.879	4.21
309.254	4.04
309.629	4.03
310.003	4.15
310.378	4.35
310.753	4.34
311.128	4.24
311.502	4.3
311.877	4.62
312.252	3.93
312.626	4.37
313.001	4.16
313.375	4.24
313.75	4.07
314.124	4.22
314.498	4.52
314.873	4.37
315.247	3.79
315.621	4.33
315.995	4.03
316.369	4.68
316.743	4.11
317.117	3.84
317.491	4.69
317.865	4.16
318.239	4.4
318.613	5.28
318.987	4.48
319.361	4.55
319.734	4.15
320.108	4.62
320.482	4.04
320.855	4.78
321.229	4.49
321.602	3.69
321.976	4.11
322.349	4.67
322.723	4.88
323.096	4.61
323.469	4.43
323.843	4.83
324.216	4.59
324.589	4.83
324.962	4.38
325.335	4.66
325.708	4.28
326.081	4.46
326.454	4.52
326.827	4.59
327.2	4.82
327.573	4.57
327.945	4.95
328.318	4.39
328.691	4.47
329.063	4.43
329.436	4.59
329.809	4.86
330.181	4.42
330.553	4.7
330.926	4.9
331.298	4.53
331.671	4.78
332.043	4.38
332.415	4.55
332.787	4.66
333.159	4.56
333.532	4.87
333.904	4.91
334.276	5.13
334.648	4.52
335.02	4.76
335.391	4.41
335.763	4.58
336.135	4.84
336.507	4.21
336.879	5.38
337.25	4.3
337.622	4.97
337.993	4.51
338.365	5.19
338.736	4.45
339.108	4.27
339.479	4.47
339.851	4.22
340.222	4.58
340.593	4.4
340.964	5.1
341.336	4.93
341.707	4.41
342.078	4.57
342.449	4.8
342.82	4.7
343.191	4.67
343.562	4.99
343.933	4.97
344.303	4.38
344.674	4.91
345.045	4.81
345.416	4.7
345.786	4.89
346.157	4.92
346.527	4.43
346.898	4.65
347.268	4.78
347.639	4.6
348.009	4.65
348.38	5.32
348.75	4.51
349.12	4.81
349.49	4.55
349.861	5.16
350.231	4.72
350.601	4.75
350.971	4.67
351.341	5.17
351.711	4.91
352.081	4.53
352.45	4.9
352.82	4.45
353.19	4.34
353.56	4.92
353.929	4.44
354.299	5.12
354.669	4.91
355.038	4.85
355.408	4.34
355.777	4.86
356.147	4.9
356.516	4.96
356.885	4.74
357.254	4.85
357.624	4.74
357.993	4.54
358.362	5.26
358.731	4.96
359.1	4.64
359.469	4.93
359.838	4.76
360.207	5.37
360.576	4.68
360.945	5.19
361.314	5.27
361.682	5.18
362.051	4.83
362.42	4.82
362.788	4.98
363.157	4.85
363.525	4.93
363.894	4.82
364.262	4.93
364.631	4.83
364.999	4.88
365.367	4.97
365.735	4.92
366.104	4.67
366.472	4.81
366.84	5.06
367.208	4.92
367.576	4.71
367.944	5.12
368.312	5.11
368.68	5.15
369.048	4.84
369.416	5.13
369.783	5.26
370.151	5.25
370.519	5.19
370.886	5.07
371.254	5.07
371.621	5.09
371.989	5.24
372.356	4.86
372.724	5.07
373.091	4.9
373.458	5
373.826	4.92
374.193	5
374.56	4.91
374.927	4.47
375.294	5.14
375.661	5.49
376.028	4.94
376.395	5.44
376.762	5.09
377.129	4.81
377.496	4.7
377.863	5.21
378.229	4.95
378.596	5.04
378.963	5.35
379.329	5.49
379.696	5.09
380.062	5.09
380.429	5.3
380.795	5.31
381.161	5.36
381.528	5.17
381.894	5.09
382.26	5.08
382.626	5.42
382.993	4.81
383.359	5.01
383.725	5.28
384.091	5.2
384.457	4.99
384.823	5.23
385.188	5.37
385.554	4.99
385.92	4.89
386.286	5
386.651	5.05
387.017	5.08
387.383	5.08
387.748	5.41
388.114	5.38
388.479	5.31
388.845	5.52
389.21	5.38
389.575	5.12
389.94	5.5
390.306	5.47
390.671	5.07
391.036	5.47
391.401	5.03
391.766	5.43
392.131	5.1
392.496	5
392.861	5.08
393.226	5.32
393.591	5.38
393.956	5.18
394.32	5.33
394.685	5.46
395.05	5.29
395.414	5.5
395.779	5.39
396.143	5.35
396.508	5.3
396.872	5.37
397.236	5.44
397.601	5.61
397.965	5.67
398.329	5.41
398.694	5.17
399.058	5.28
399.422	5.59
399.786	5.33
400.15	5.24
400.514	5.49
400.878	5.35
401.242	5.54
401.605	5.53
401.969	5.5
402.333	5.34
402.697	5.47
403.06	5.21
403.424	5.35
403.787	5.59
404.151	5.48
404.514	5.29
404.878	5.45
405.241	5.52
405.604	5.48
405.968	5.45
406.331	5.52
406.694	5.46
407.057	5.33
407.42	5.46
407.783	5.26
408.146	5.5
408.509	5.5
408.872	5.63
409.235	5.45
409.598	5.61
409.961	5.65
410.323	5.72
410.686	5.55
411.049	5.48
411.411	5.55
411.774	5.48
412.136	5.35
412.499	5.74
412.861	5.49
413.223	5.61
413.586	5.48
413.948	5.62
414.31	5.57
414.672	5.65
415.035	5.7
415.397	5.81
415.759	5.53
416.121	5.66
416.483	5.6
416.845	5.8
417.206	5.5
417.568	5.86
417.93	5.46
418.292	5.68
418.653	5.5
419.015	5.54
419.377	5.71
419.738	5.54
420.1	5.69
420.461	5.61
420.822	5.66
421.184	5.5
421.545	5.63
421.906	5.54
422.267	5.49
422.629	5.52
422.99	5.51
423.351	5.47
423.712	5.57
424.073	5.61
424.434	5.47
424.795	5.6
425.155	5.62
425.516	5.5
425.877	5.48
426.238	5.64
426.598	5.63
426.959	5.53
427.32	5.63
427.68	5.63
428.041	5.73
428.401	5.63
428.761	5.59
429.122	5.71
429.482	5.69
429.842	5.77
430.202	5.8
430.563	5.72
430.923	5.89
431.283	5.69
431.643	5.81
432.003	5.81
432.363	5.95
432.722	6.06
433.082	5.82
433.442	5.78
433.802	5.81
434.161	5.82
434.521	5.79
434.881	5.74
435.24	5.65
435.6	5.8
435.959	5.85
436.319	5.82
436.678	5.66
437.037	6.02
437.396	5.84
437.756	5.92
438.115	5.94
438.474	5.76
438.833	5.9
439.192	5.81
439.551	5.78
439.91	5.8
440.269	5.88
440.628	5.92
440.987	5.87
441.345	5.93
441.704	5.8
442.063	5.9
442.421	5.7
442.78	5.82
443.138	5.92
443.497	5.88
443.855	5.8
444.214	5.94
444.572	5.96
444.93	5.87
445.288	6.02
445.647	6.06
446.005	5.87
446.363	5.83
446.721	5.92
447.079	5.81
447.437	5.77
447.795	5.8
448.153	5.76
448.51	5.8
448.868	5.92
449.226	5.85
449.584	5.87
449.941	5.99
450.299	5.95
450.656	6.09
451.014	5.93
451.371	6.01
451.729	5.95
452.086	6.14
452.443	6.03
452.801	6.08
453.158	6.09
453.515	6.05
453.872	5.94
454.229	5.99
454.586	6.05
454.943	6.02
455.3	5.99
455.657	6.02
456.014	6.2
456.371	6.03
456.727	6.02
457.084	6.03
457.441	6.21
457.797	6.15
458.154	6.15
458.51	6.18
458.867	6.15
459.223	6.42
459.58	6.29
459.936	6.16
460.292	6.11
460.648	6.04
461.005	6.02
461.361	5.99
461.717	6.15
462.073	6.1
462.429	6.23
462.785	6.11
463.141	6.24
463.496	6.4
463.852	6.17
464.208	6.17
464.564	6.35
464.919	6.3
465.275	6.29
465.631	6.23
465.986	6.46
466.342	6.25
466.697	6.29
467.052	6.33
467.408	6.29
467.763	6.27
468.118	6.27
468.473	6.47
468.829	6.24
469.184	6.39
469.539	6.27
469.894	6.34
470.249	6.43
470.603	6.41
470.958	6.32
471.313	6.32
471.668	6.29
472.023	6.3
472.377	6.39
472.732	6.5
473.086	6.41
473.441	6.33
473.795	6.47
474.15	6.39
474.504	6.35
474.859	6.6
475.213	6.47
475.567	6.45
475.921	6.4
476.275	6.61
476.63	6.66
476.984	6.5
477.338	6.45
477.692	6.41
478.045	6.51
478.399	6.42
478.753	6.42
479.107	6.44
479.461	6.52
479.814	6.53
480.168	6.59
480.521	6.37
480.875	6.49
481.228	6.57
481.582	6.64
481.935	6.44
482.289	6.4
482.642	6.29
482.995	6.49
483.348	6.5
483.701	6.49
484.055	6.39
484.408	6.27
484.761	6.29
485.114	6.17
485.466	6.13
485.819	6.19
486.172	6.22
486.525	6.23
486.878	6.29
487.23	6.34
487.583	6.37
487.936	6.49
488.288	6.41
488.641	6.39
488.993	6.3
489.345	6.31
489.698	6.32
490.05	6.35
490.402	6.43
490.754	6.44
491.107	6.41
491.459	6.53
491.811	6.57
492.163	6.62
492.515	6.38
492.866	6.45
493.218	6.36
493.57	6.41
493.922	6.41
494.274	6.48
494.625	6.58
494.977	6.64
495.328	6.59
495.68	6.7
496.031	6.74
496.383	6.7
496.734	6.83
497.086	6.81
497.437	6.88
497.788	6.81
498.139	6.73
498.49	6.78
498.842	6.68
499.193	6.71
499.544	6.83
499.894	6.9
500.245	6.77
500.596	6.82
500.947	6.87
501.298	6.96
501.648	6.82
501.999	6.87
502.35	6.95
502.7	6.96
503.051	6.97
503.401	6.95
503.752	6.92
504.102	6.91
504.452	6.94
504.803	6.91
505.153	6.88
505.503	6.99
505.853	6.89
506.203	6.94
506.553	6.94
506.903	6.94
507.253	7.06
507.603	7.08
507.953	7.07
508.303	7.09
508.652	7.04
509.002	7.01
509.352	7.08
509.701	7.11
510.051	7.13
510.4	6.96
510.75	6.91
511.099	6.98
511.449	7.04
511.798	7.13
512.147	7.05
512.496	7.23
512.846	7.1
513.195	7.26
513.544	7.08
513.893	7.1
514.242	7.17
514.591	7.18
514.939	7.15
515.288	7.17
515.637	7.26
515.986	7.19
516.334	7.29
516.683	7.36
517.032	7.26
517.38	7.27
517.729	7.36
518.077	7.16
518.426	7.24
518.774	7.31
519.122	7.23
519.47	7.13
519.819	7.12
520.167	7.12
520.515	7.19
520.863	7.24
521.211	7.3
521.559	7.3
521.907	7.23
522.255	7.27
522.602	7.32
522.95	7.42
523.298	7.41
523.645	7.41
523.993	7.3
524.341	7.47
524.688	7.45
525.036	7.43
525.383	7.49
525.73	7.45
526.078	7.52
526.425	7.45
526.772	7.42
527.119	7.32
527.466	7.41
527.814	7.36
528.161	7.35
528.508	7.43
528.854	7.33
529.201	7.34
529.548	7.28
529.895	7.16
530.242	7.12
530.588	7.22
530.935	7.26
531.282	7.22
531.628	7.29
531.975	7.4
532.321	7.47
532.667	7.49
533.014	7.56
533.36	7.55
533.706	7.41
534.052	7.52
534.399	7.61
534.745	7.48
535.091	7.43
535.437	7.44
535.783	7.48
536.129	7.51
536.474	7.68
536.82	7.66
537.166	7.72
537.512	7.73
537.857	7.61
538.203	7.72
538.549	7.68
538.894	7.78
539.239	7.74
539.585	7.88
539.93	7.87
540.276	7.95
540.621	7.95
540.966	7.97
541.311	8.05
541.656	7.89
542.001	7.83
542.346	7.68
542.691	7.68
543.036	7.65
543.381	7.71
543.726	7.8
544.071	7.83
544.415	7.87
544.76	7.75
545.105	7.98
545.449	7.97
545.794	8.08
546.138	8.16
546.483	8.08
546.827	8.07
547.171	8.05
547.516	8.16
547.86	8.1
548.204	8.14
548.548	8.1
548.892	8.2
549.236	8.27
549.58	8.38
549.924	8.22
550.268	8.18
550.612	8.47
550.956	8.47
551.3	8.43
551.643	8.47
551.987	8.6
552.33	8.5
552.674	8.33
553.017	8.56
553.361	8.45
553.704	8.61
554.048	8.57
554.391	8.42
554.734	8.5
555.077	8.42
555.42	8.61
555.764	8.48
556.107	8.43
556.45	8.7
556.793	8.53
557.135	8.69
557.478	8.59
557.821	8.89
558.164	8.87
558.507	8.77
558.849	8.73
559.192	8.8
559.534	8.9
559.877	8.96
560.219	8.9
560.562	8.88
560.904	8.86
561.246	8.78
561.589	9.06
561.931	8.77
562.273	8.81
562.615	8.96
562.957	8.86
563.299	8.88
563.641	8.85
563.983	8.95
564.325	9.09
564.667	9.03
565.008	9.05
565.35	9.14
565.692	9.12
566.033	8.98
566.375	9.06
566.716	9.21
567.058	9
567.399	9.14
567.741	9.02
568.082	9.1
568.423	9.11
568.764	8.98
569.105	9.22
569.447	9.02
569.788	9.29
570.129	9.18
570.47	9.33
570.811	9.09
571.151	9.3
571.492	9.25
571.833	9.2
572.174	9.46
572.514	9.38
572.855	9.34
573.195	9.54
573.536	9.32
573.876	9.27
574.217	9.34
574.557	9.36
574.898	9.34
575.238	9.62
575.578	9.4
575.918	9.51
576.258	9.52
576.598	9.55
576.938	9.45
577.278	9.66
577.618	9.89
577.958	9.75
578.298	9.83
578.638	9.64
578.977	9.78
579.317	9.67
579.657	9.73
579.996	9.9
580.336	9.98
580.675	9.99
581.014	9.85
581.354	9.91
581.693	9.9
582.032	9.99
582.372	10.01
582.711	9.76
583.05	10.06
583.389	9.81
583.728	9.92
584.067	10.11
584.406	10.25
584.745	10.09
585.083	9.93
585.422	10.3
585.761	10.38
586.1	10.28
586.438	10.41
586.777	10.32
587.115	10.34
587.454	10.5
587.792	10.42
588.13	10.4
588.469	10.71
588.807	10.35
589.145	10.29
589.483	10.47
589.821	10.29
590.159	10.57
590.497	10.64
590.835	10.17
591.173	10.56
591.511	10.57
591.849	10.48
592.187	10.19
592.524	10.66
592.862	10.61
593.2	10.53
593.537	10.41
593.875	10.69
594.212	10.58
594.55	10.66
594.887	10.57
595.224	10.82
595.561	10.64
595.899	11.04
596.236	11.05
596.573	11
596.91	10.94
597.247	10.92
597.584	10.64
597.921	10.76
598.258	10.82
598.594	10.81
598.931	10.89
599.268	10.79
599.604	10.89
599.941	10.99
600.277	10.87
600.614	11.04
600.95	11.02
601.287	10.97
601.623	11.05
601.959	11.05
602.296	11.27
602.632	10.97
602.968	11.27
603.304	11.17
603.64	11.52
603.976	11.11
604.312	11.2
604.648	11.11
604.984	11.17
605.319	11.12
605.655	11.23
605.991	11.23
606.326	11.37
606.662	11.23
606.998	11.4
607.333	11.4
607.668	11.31
608.004	11.3
608.339	11.63
608.674	11.48
609.01	11.51
609.345	11.84
609.68	11.57
610.015	11.58
610.35	11.75
610.685	11.5
611.02	11.49
611.355	11.52
611.689	11.65
612.024	11.67
612.359	11.63
612.694	11.7
613.028	11.57
613.363	11.99
613.697	11.95
614.032	12
614.366	12.37
614.7	11.8
615.035	12.09
615.369	11.81
615.703	11.9
616.037	12.05
616.371	11.9
616.705	11.91
617.039	12.29
617.373	11.92
617.707	12.28
618.041	11.96
618.375	11.86
618.709	12.16
619.042	11.94
619.376	12.5
619.71	12.23
620.043	12.15
620.377	12.28
620.71	12.23
621.043	12.34
621.377	12.24
621.71	12.31
622.043	12.32
622.376	12.77
622.709	12.58
623.043	12.5
623.376	12.85
623.709	12.69
624.041	12.62
624.374	12.68
624.707	12.59
625.04	12.83
625.373	12.98
625.705	12.66
626.038	12.98
626.37	12.66
626.703	12.86
627.035	12.78
627.368	12.75
627.7	13.04
628.032	12.79
628.365	12.6
628.697	12.82
629.029	13.06
629.361	12.94
629.693	12.94
630.025	12.87
630.357	12.89
630.689	13.14
631.021	13.01
631.353	13.46
631.684	13.05
632.016	12.77
632.348	13.26
632.679	12.95
633.011	13.67
633.342	13.37
633.674	12.99
634.005	13.29
634.336	13.07
634.668	13.33
634.999	13.47
635.33	13.4
635.661	13.24
635.992	13.1
636.323	13.48
636.654	13.4
636.985	13.58
637.316	13.42
637.647	13.58
637.977	13.86
638.308	13.5
638.639	13.64
638.969	13.7
639.3	13.72
639.63	13.66
639.961	13.76
640.291	13.53
640.622	13.95
640.952	13.93
641.282	14.19
641.612	13.97
641.943	13.75
642.273	13.83
642.603	13.64
642.933	13.92
643.263	13.91
643.592	14.02
643.922	13.97
644.252	13.96
644.582	13.96
644.911	13.95
645.241	14.15
645.571	13.97
645.9	14.14
646.23	13.89
646.559	14.56
646.888	14.31
647.218	13.49
647.547	14.12
647.876	14.22
648.205	14.15
648.534	14.14
648.863	14.54
649.192	14.33
649.521	14.14
649.85	14.64
650.179	14.05
650.508	14.39
650.837	14.59
651.165	14.6
651.494	14.51
651.822	14.41
652.151	14.74
652.479	14.21
652.808	14.64
653.136	13.92
653.465	15.08
653.793	14.79
654.121	14.72
654.449	14.59
654.777	14.45
655.105	14.89
655.433	14.82
655.761	14.72
656.089	14.62
656.417	14.85
656.745	15.32
657.073	14.6
657.4	14.68
657.728	14.93
658.056	14.92
658.383	15.07
658.711	15.02
659.038	14.91
659.365	15.07
659.693	14.98
660.02	14.98
660.347	15.38
660.674	15.07
661.001	14.76
661.329	15.19
661.656	15.07
661.982	15.28
662.309	15.3
662.636	15.57
662.963	14.9
663.29	14.57
663.616	15.38
663.943	15.47
664.27	15.44
664.596	15.27
664.923	15.01
665.249	15.35
665.576	15.67
665.902	15.3
666.228	15.67
666.554	15.83
666.881	15.68
667.207	15.71
667.533	15.63
667.859	15.52
668.185	16.1
668.511	15.62
668.837	15.35
669.162	15.39
669.488	15.68
669.814	16.1
670.139	15.94
670.465	16.08
670.791	16.56
671.116	16.28
671.442	15.78
671.767	16.14
672.092	15.98
672.418	16.1
672.743	16.36
673.068	15.19
673.393	15.81
673.718	15.64
674.043	15.54
674.368	15.9
674.693	16.2
675.018	16.33
675.343	16.18
675.667	16.29
675.992	16.08
676.317	16.23
676.641	16.02
676.966	16.28
677.29	15.89
677.615	16.79
677.939	16.3
678.264	16.45
678.588	16.6
678.912	15.95
679.236	16.91
679.56	16.17
679.885	16.43
680.209	16.06
680.532	16.83
680.856	17.02
681.18	16.86
681.504	16.02
681.828	16.7
682.152	16.78
682.475	16.33
682.799	17.24
683.122	17.14
683.446	16.5
683.769	17.06
684.093	16.62
684.416	16.72
684.739	17
685.062	16.57
685.386	16.92
685.709	16.52
