Data from 0029_chest_Reflection__3__124.txt Node

Date: Thu Oct 20 21:54:23 CDT 2022
User: ToomeyLab
Spectrometer: FLMS14357
Trigger mode: 0
Integration Time (sec): 1.000000E-2
Scans to average: 100
Electric dark correction enabled: true
Nonlinearity correction enabled: false
Boxcar width: 0
XAxis mode: Wavelengths
Number of Pixels in Spectrum: 2048
>>>>>Begin Spectral Data<<<<<
189.047	-28.34
189.435	-28.34
189.823	-28.34
190.211	-67.85
190.599	105.81
190.987	73.23
191.375	15.96
191.763	-89.39
192.151	803.75
192.538	434.47
192.926	63.67
193.314	1.92
193.702	36.27
194.089	136.2
194.477	-430.25
194.864	-716.48
195.252	64.08
195.639	65.7
196.027	14037.04
196.414	77.71
196.801	-481.26
197.189	-127.45
197.576	102.35
197.963	-138.65
198.351	25.44
198.738	-16.4
199.125	16.68
199.512	7.54
199.899	-52.68
200.286	25.59
200.673	15.27
201.06	27.13
201.447	33.37
201.833	-24.46
202.22	23.18
202.607	30.16
202.994	-48.29
203.38	-65.21
203.767	37.9
204.154	17.5
204.54	-16.63
204.927	-4.75
205.313	25.34
205.699	-7.63
206.086	-16.96
206.472	-8.6
206.858	4.1
207.245	3.34
207.631	-45.12
208.017	-31.39
208.403	-7.29
208.789	-12.86
209.175	31.34
209.561	9.79
209.947	-28.13
210.333	12.34
210.719	2.2
211.105	-12.11
211.491	-18.54
211.876	-23.7
212.262	-2.04
212.648	-18.29
213.034	-2.91
213.419	-11.36
213.805	7.16
214.19	-26.49
214.576	-56.76
214.961	-5.86
215.346	-4.04
215.732	13.68
216.117	-16.36
216.502	22.8
216.888	-33.17
217.273	-7.93
217.658	22.12
218.043	-7.78
218.428	-21.17
218.813	32.83
219.198	1.62
219.583	33.85
219.968	31.54
220.353	5.5
220.738	19.08
221.122	0.6
221.507	6.17
221.892	-3.48
222.276	-2.04
222.661	8.35
223.046	12.81
223.43	-4.7
223.815	5.45
224.199	-5.66
224.583	4.53
224.968	4.25
225.352	9.54
225.736	7.69
226.121	1.31
226.505	7.35
226.889	2.92
227.273	-0.02
227.657	7.34
228.041	1.53
228.425	2.55
228.809	2.84
229.193	6.13
229.577	3.08
229.961	4.96
230.344	4.27
230.728	4.08
231.112	4.76
231.495	4.21
231.879	5.64
232.263	5.52
232.646	5.83
233.03	3.53
233.413	3.26
233.797	4.59
234.18	6.15
234.563	3.91
234.946	5.61
235.33	4.24
235.713	3.87
236.096	3.57
236.479	5.24
236.862	3.67
237.245	4.8
237.628	4.41
238.011	4.41
238.394	5.97
238.777	5.35
239.16	4.53
239.543	1.72
239.925	4.38
240.308	4.75
240.691	5.56
241.073	3.75
241.456	4.56
241.838	4.65
242.221	4.19
242.603	4.48
242.986	4.54
243.368	4.5
243.75	4.95
244.133	4.32
244.515	4.24
244.897	4.14
245.279	3.44
245.661	4.34
246.043	4.41
246.425	4.5
246.807	4.66
247.189	4.62
247.571	4.72
247.953	4.4
248.335	4.54
248.717	4.36
249.098	4.32
249.48	4.43
249.862	4.1
250.243	4.39
250.625	4.78
251.006	4.68
251.388	4.82
251.769	4.99
252.151	4.37
252.532	3.94
252.913	4.75
253.295	4.45
253.676	4.48
254.057	3.89
254.438	3.8
254.819	3.97
255.2	4.92
255.581	4.31
255.962	3.27
256.343	3.34
256.724	3.74
257.105	3.75
257.486	3.68
257.867	4.71
258.247	4.9
258.628	4.38
259.009	3.7
259.389	3.94
259.77	3.48
260.15	4.35
260.531	4.59
260.911	3.98
261.292	4.44
261.672	4.12
262.052	4.12
262.432	4.37
262.813	4.05
263.193	4.24
263.573	4.44
263.953	4.27
264.333	3.95
264.713	4.2
265.093	4.01
265.473	4.31
265.853	4.61
266.233	3.79
266.612	4.24
266.992	3.32
267.372	4.94
267.752	4.17
268.131	4.56
268.511	4.24
268.89	3.94
269.27	4
269.649	4.07
270.029	3.76
270.408	3.48
270.787	3.95
271.167	4
271.546	4.3
271.925	4.32
272.304	4.07
272.683	3.82
273.062	3.77
273.441	3.87
273.82	4.38
274.199	3.42
274.578	3.58
274.957	3.97
275.336	4.16
275.715	4.28
276.093	4.29
276.472	4.38
276.851	4.48
277.229	4.25
277.608	3.99
277.986	3.73
278.365	3.67
278.743	3.8
279.122	4.59
279.5	4.05
279.878	4.31
280.257	3.78
280.635	3.53
281.013	3.96
281.391	4.65
281.769	4.29
282.147	3.62
282.525	3.66
282.903	3.8
283.281	3.33
283.659	3.91
284.037	3.46
284.415	3.93
284.792	3.87
285.17	4.38
285.548	3.78
285.925	3.78
286.303	3.74
286.68	4.29
287.058	4.14
287.435	3.92
287.813	3.95
288.19	3.71
288.567	3.8
288.945	3.8
289.322	4.06
289.699	3.65
290.076	3.67
290.453	3.78
290.83	3.96
291.207	4.24
291.584	3.69
291.961	3.94
292.338	3.24
292.715	3.88
293.092	4.51
293.469	4.37
293.845	3.91
294.222	4.14
294.599	4.72
294.975	3.59
295.352	4.15
295.728	3.54
296.105	4.16
296.481	3.67
296.858	4.13
297.234	4.17
297.61	3.9
297.986	3.91
298.363	3.83
298.739	3.76
299.115	3.81
299.491	3.91
299.867	3.66
300.243	3.89
300.619	3.8
300.995	3.45
301.371	3.84
301.746	4.2
302.122	4.1
302.498	4.25
302.874	4.34
303.249	4.08
303.625	3.85
304	4.13
304.376	4.02
304.751	3.93
305.127	3.65
305.502	3.75
305.878	4.36
306.253	3.72
306.628	4.4
307.003	3.96
307.378	3.81
307.754	4.14
308.129	3.57
308.504	3.63
308.879	3.93
309.254	4.07
309.629	4.09
310.003	3.7
310.378	3.83
310.753	4.39
311.128	3.88
311.502	3.91
311.877	3.92
312.252	3.79
312.626	3.85
313.001	3.8
313.375	3.96
313.75	3.76
314.124	3.97
314.498	3.8
314.873	4.15
315.247	3.64
315.621	3.75
315.995	3.76
316.369	4.23
316.743	3.89
317.117	4
317.491	4.16
317.865	3.7
318.239	3.86
318.613	4.54
318.987	4.19
319.361	4.13
319.734	3.86
320.108	4.34
320.482	4.03
320.855	4.53
321.229	4.45
321.602	3.91
321.976	4.16
322.349	4.33
322.723	3.99
323.096	3.97
323.469	3.95
323.843	4.31
324.216	4.08
324.589	4.06
324.962	4.17
325.335	4.33
325.708	4.3
326.081	4.12
326.454	3.93
326.827	3.88
327.2	4.47
327.573	4.05
327.945	4.23
328.318	3.73
328.691	4.15
329.063	4.43
329.436	4.03
329.809	4.4
330.181	4.51
330.553	3.83
330.926	4.35
331.298	3.93
331.671	4.11
332.043	4.15
332.415	3.83
332.787	4.19
333.159	4.12
333.532	4.2
333.904	4.44
334.276	4.14
334.648	4.18
335.02	4.11
335.391	3.4
335.763	3.94
336.135	4.37
336.507	3.61
336.879	4.3
337.25	3.29
337.622	3.98
337.993	3.85
338.365	4.26
338.736	3.98
339.108	3.86
339.479	4.04
339.851	3.83
340.222	3.97
340.593	3.89
340.964	3.96
341.336	3.77
341.707	3.97
342.078	4.05
342.449	3.85
342.82	4.34
343.191	4.1
343.562	4.07
343.933	3.99
344.303	3.86
344.674	4.09
345.045	4.21
345.416	4.26
345.786	4.27
346.157	4.03
346.527	3.8
346.898	3.93
347.268	3.87
347.639	4.46
348.009	4.3
348.38	4.34
348.75	3.68
349.12	4.11
349.49	4.03
349.861	4.09
350.231	4.28
350.601	4.19
350.971	3.96
351.341	3.96
351.711	3.84
352.081	3.73
352.45	3.87
352.82	3.95
353.19	3.98
353.56	4.18
353.929	3.63
354.299	4.23
354.669	4.31
355.038	4.3
355.408	3.53
355.777	4.15
356.147	4.23
356.516	4.03
356.885	3.96
357.254	4.29
357.624	4.09
357.993	3.93
358.362	4.42
358.731	4.38
359.1	3.77
359.469	4.13
359.838	4.04
360.207	4.7
360.576	4.05
360.945	4.33
361.314	4
361.682	4.21
362.051	3.99
362.42	3.91
362.788	4.14
363.157	4.07
363.525	4.14
363.894	4.08
364.262	4.09
364.631	3.81
364.999	4.06
365.367	4.28
365.735	4.07
366.104	3.79
366.472	3.93
366.84	4.32
367.208	4.08
367.576	4
367.944	4.19
368.312	4.16
368.68	4.22
369.048	3.74
369.416	4.2
369.783	4.25
370.151	4.39
370.519	4.06
370.886	3.98
371.254	4.01
371.621	3.94
371.989	4.19
372.356	3.97
372.724	4.41
373.091	4.09
373.458	3.53
373.826	3.88
374.193	4.38
374.56	3.83
374.927	4.17
375.294	4.01
375.661	4.28
376.028	4.13
376.395	4.32
376.762	3.94
377.129	3.81
377.496	3.99
377.863	4.2
378.229	3.94
378.596	4.26
378.963	4.11
379.329	4.23
379.696	4.23
380.062	3.94
380.429	4.5
380.795	4.2
381.161	4.38
381.528	4.12
381.894	4.25
382.26	3.94
382.626	4.44
382.993	4.1
383.359	4.3
383.725	4.4
384.091	4.42
384.457	3.79
384.823	4.15
385.188	4.18
385.554	3.87
385.92	4.27
386.286	4.13
386.651	3.67
387.017	4.17
387.383	3.97
387.748	4.51
388.114	4.2
388.479	4.21
388.845	4.1
389.21	4.47
389.575	3.98
389.94	4.4
390.306	4.4
390.671	4.27
391.036	4.37
391.401	3.98
391.766	4.45
392.131	4.41
392.496	4.05
392.861	4.18
393.226	4.15
393.591	4.36
393.956	4.24
394.32	4.25
394.685	4.23
395.05	4.23
395.414	4.14
395.779	4.11
396.143	4.28
396.508	4.44
396.872	4.22
397.236	4.23
397.601	4.54
397.965	4.13
398.329	4.24
398.694	4.23
399.058	4.02
399.422	4.45
399.786	4.26
400.15	4.05
400.514	4.5
400.878	4.16
401.242	4.38
401.605	4.33
401.969	4.26
402.333	4.27
402.697	4.37
403.06	4.21
403.424	4.15
403.787	4.39
404.151	4.25
404.514	4.33
404.878	4.29
405.241	4.3
405.604	4.43
405.968	4.32
406.331	4.26
406.694	4.22
407.057	4.26
407.42	4.36
407.783	4.27
408.146	4.38
408.509	4.31
408.872	4.3
409.235	4.1
409.598	4.36
409.961	4.3
410.323	4.52
410.686	4.43
411.049	4.24
411.411	4.2
411.774	4.16
412.136	4.3
412.499	4.2
412.861	4.27
413.223	4.2
413.586	4.22
413.948	4.18
414.31	4.42
414.672	4.29
415.035	4.42
415.397	4.44
415.759	4.54
416.121	4.31
416.483	4.29
416.845	4.51
417.206	4.36
417.568	4.52
417.93	4.25
418.292	4.38
418.653	4.42
419.015	4.51
419.377	4.31
419.738	4.33
420.1	4.29
420.461	4.33
420.822	4.24
421.184	4.19
421.545	4.33
421.906	4.18
422.267	4.36
422.629	4.24
422.99	4.28
423.351	4.2
423.712	4.24
424.073	4.29
424.434	4.28
424.795	4.29
425.155	4.39
425.516	4.26
425.877	4.28
426.238	4.36
426.598	4.32
426.959	4.28
427.32	4.33
427.68	4.34
428.041	4.43
428.401	4.47
428.761	4.23
429.122	4.24
429.482	4.17
429.842	4.37
430.202	4.43
430.563	4.39
430.923	4.47
431.283	4.5
431.643	4.32
432.003	4.36
432.363	4.54
432.722	4.62
433.082	4.5
433.442	4.31
433.802	4.41
434.161	4.53
434.521	4.35
434.881	4.37
435.24	4.36
435.6	4.27
435.959	4.5
436.319	4.39
436.678	4.37
437.037	4.49
437.396	4.43
437.756	4.51
438.115	4.62
438.474	4.42
438.833	4.54
439.192	4.44
439.551	4.48
439.91	4.58
440.269	4.35
440.628	4.39
440.987	4.44
441.345	4.53
441.704	4.39
442.063	4.55
442.421	4.25
442.78	4.37
443.138	4.38
443.497	4.36
443.855	4.34
444.214	4.46
444.572	4.55
444.93	4.37
445.288	4.32
445.647	4.53
446.005	4.42
446.363	4.41
446.721	4.39
447.079	4.46
447.437	4.39
447.795	4.43
448.153	4.32
448.51	4.39
448.868	4.42
449.226	4.35
449.584	4.47
449.941	4.47
450.299	4.42
450.656	4.42
451.014	4.4
451.371	4.59
451.729	4.51
452.086	4.68
452.443	4.34
452.801	4.58
453.158	4.53
453.515	4.43
453.872	4.69
454.229	4.4
454.586	4.43
454.943	4.42
455.3	4.43
455.657	4.54
456.014	4.53
456.371	4.42
456.727	4.52
457.084	4.45
457.441	4.48
457.797	4.5
458.154	4.58
458.51	4.45
458.867	4.56
459.223	4.65
459.58	4.46
459.936	4.59
460.292	4.47
460.648	4.48
461.005	4.42
461.361	4.46
461.717	4.51
462.073	4.6
462.429	4.47
462.785	4.57
463.141	4.63
463.496	4.79
463.852	4.67
464.208	4.7
464.564	4.6
464.919	4.62
465.275	4.7
465.631	4.49
465.986	4.6
466.342	4.47
466.697	4.57
467.052	4.58
467.408	4.59
467.763	4.51
468.118	4.79
468.473	4.77
468.829	4.72
469.184	4.66
469.539	4.56
469.894	4.43
470.249	4.84
470.603	4.67
470.958	4.55
471.313	4.48
471.668	4.54
472.023	4.52
472.377	4.52
472.732	4.66
473.086	4.61
473.441	4.68
473.795	4.6
474.15	4.58
474.504	4.73
474.859	4.62
475.213	4.81
475.567	4.73
475.921	4.58
476.275	4.82
476.63	4.87
476.984	4.84
477.338	4.6
477.692	4.69
478.045	4.64
478.399	4.72
478.753	4.62
479.107	4.58
479.461	4.82
479.814	4.63
480.168	4.69
480.521	4.61
480.875	4.83
481.228	4.73
481.582	4.72
481.935	4.7
482.289	4.52
482.642	4.56
482.995	4.68
483.348	4.79
483.701	4.69
484.055	4.64
484.408	4.62
484.761	4.53
485.114	4.46
485.466	4.41
485.819	4.42
486.172	4.42
486.525	4.43
486.878	4.47
487.23	4.55
487.583	4.53
487.936	4.6
488.288	4.58
488.641	4.57
488.993	4.56
489.345	4.52
489.698	4.48
490.05	4.49
490.402	4.54
490.754	4.59
491.107	4.56
491.459	4.58
491.811	4.65
492.163	4.64
492.515	4.63
492.866	4.67
493.218	4.58
493.57	4.56
493.922	4.6
494.274	4.56
494.625	4.6
494.977	4.73
495.328	4.61
495.68	4.73
496.031	4.66
496.383	4.76
496.734	4.82
497.086	4.81
497.437	4.91
497.788	4.9
498.139	4.79
498.49	4.85
498.842	4.67
499.193	4.74
499.544	4.77
499.894	4.87
500.245	4.86
500.596	4.83
500.947	4.83
501.298	4.84
501.648	4.86
501.999	4.93
502.35	4.89
502.7	5.02
503.051	5
503.401	4.94
503.752	5.01
504.102	4.91
504.452	4.98
504.803	4.88
505.153	4.93
505.503	5.04
505.853	4.9
506.203	4.84
506.553	5
506.903	4.79
507.253	4.94
507.603	4.98
507.953	5.07
508.303	4.98
508.652	4.96
509.002	4.86
509.352	4.98
509.701	5.01
510.051	4.81
510.4	4.86
510.75	4.81
511.099	4.95
511.449	4.93
511.798	4.95
512.147	4.93
512.496	5.01
512.846	5.01
513.195	5.06
513.544	4.96
513.893	5.05
514.242	4.99
514.591	5.02
514.939	5.03
515.288	5.04
515.637	5.09
515.986	5.06
516.334	5.02
516.683	5.12
517.032	5.07
517.38	5.04
517.729	5.09
518.077	5.03
518.426	5.08
518.774	5.04
519.122	5.18
519.47	5
519.819	4.96
520.167	5.02
520.515	5.06
520.863	4.98
521.211	5.02
521.559	5.06
521.907	4.97
522.255	5.1
522.602	5.13
522.95	5.17
523.298	5.17
523.645	5.1
523.993	5.2
524.341	5.23
524.688	5.2
525.036	5.14
525.383	5.21
525.73	5.23
526.078	5.17
526.425	5.19
526.772	5.17
527.119	5.08
527.466	5.18
527.814	5.16
528.161	5.14
528.508	5.11
528.854	5.22
529.201	5.13
529.548	5.11
529.895	5.03
530.242	5.08
530.588	5.06
530.935	5.05
531.282	4.99
531.628	5.08
531.975	5.18
532.321	5.13
532.667	5.18
533.014	5.33
533.36	5.21
533.706	5.24
534.052	5.29
534.399	5.31
534.745	5.2
535.091	5.19
535.437	5.28
535.783	5.25
536.129	5.17
536.474	5.39
536.82	5.33
537.166	5.47
537.512	5.35
537.857	5.39
538.203	5.45
538.549	5.34
538.894	5.43
539.239	5.42
539.585	5.36
539.93	5.49
540.276	5.55
540.621	5.39
540.966	5.47
541.311	5.63
541.656	5.57
542.001	5.46
542.346	5.44
542.691	5.44
543.036	5.32
543.381	5.41
543.726	5.35
544.071	5.43
544.415	5.44
544.76	5.42
545.105	5.55
545.449	5.56
545.794	5.59
546.138	5.62
546.483	5.59
546.827	5.59
547.171	5.53
547.516	5.68
547.86	5.64
548.204	5.74
548.548	5.61
548.892	5.63
549.236	5.71
549.58	5.79
549.924	5.74
550.268	5.68
550.612	5.83
550.956	5.88
551.3	5.91
551.643	5.98
551.987	5.92
552.33	5.88
552.674	5.97
553.017	5.91
553.361	5.9
553.704	6.07
554.048	5.88
554.391	5.97
554.734	5.91
555.077	5.85
555.42	5.99
555.764	5.91
556.107	5.97
556.45	5.88
556.793	5.99
557.135	6.21
557.478	5.9
557.821	6.18
558.164	6.16
558.507	6.12
558.849	6.31
559.192	6.24
559.534	6.13
559.877	6.14
560.219	6.16
560.562	6.14
560.904	6.32
561.246	6.12
561.589	6.23
561.931	6.13
562.273	6.32
562.615	6.38
562.957	6.21
563.299	6.26
563.641	6.2
563.983	6.37
564.325	6.28
564.667	6.26
565.008	6.26
565.35	6.42
565.692	6.3
566.033	6.15
566.375	6.47
566.716	6.45
567.058	6.51
567.399	6.54
567.741	6.46
568.082	6.41
568.423	6.44
568.764	6.43
569.105	6.34
569.447	6.51
569.788	6.43
570.129	6.57
570.47	6.49
570.811	6.37
571.151	6.61
571.492	6.5
571.833	6.63
572.174	6.69
572.514	6.6
572.855	6.77
573.195	6.74
573.536	6.63
573.876	6.61
574.217	6.62
574.557	6.8
574.898	6.66
575.238	7.01
575.578	6.75
575.918	6.88
576.258	6.79
576.598	6.77
576.938	6.84
577.278	6.85
577.618	7.11
577.958	6.85
578.298	6.95
578.638	6.94
578.977	7.16
579.317	6.88
579.657	6.87
579.996	7.21
580.336	7.04
580.675	7.42
581.014	7.07
581.354	7.1
581.693	7.19
582.032	7.15
582.372	7.12
582.711	7.07
583.05	7.27
583.389	7.03
583.728	7.36
584.067	7.25
584.406	7.32
584.745	7.17
585.083	7.11
585.422	7.4
585.761	7.17
586.1	7.46
586.438	7.65
586.777	7.49
587.115	7.43
587.454	7.69
587.792	7.5
588.13	7.72
588.469	7.73
588.807	7.52
589.145	7.47
589.483	7.48
589.821	7.53
590.159	7.68
590.497	7.61
590.835	7.35
591.173	7.64
591.511	7.64
591.849	7.71
592.187	7.47
592.524	7.62
592.862	7.74
593.2	7.88
593.537	7.76
593.875	7.86
594.212	7.87
594.55	7.65
594.887	8
595.224	7.84
595.561	7.97
595.899	8.17
596.236	8.07
596.573	8.08
596.91	7.75
597.247	8.02
597.584	8.14
597.921	7.94
598.258	8.05
598.594	8.01
598.931	8.12
599.268	8
599.604	7.86
599.941	8.17
600.277	8.01
600.614	8.13
600.95	8.2
601.287	8.04
601.623	8.03
601.959	8.14
602.296	8.29
602.632	8.2
602.968	8.53
603.304	8.24
603.64	8.62
603.976	8.56
604.312	8.56
604.648	8.71
604.984	8.2
605.319	8.36
605.655	8.55
605.991	8.25
606.326	8.41
606.662	8.57
606.998	8.53
607.333	8.51
607.668	8.57
608.004	8.25
608.339	8.52
608.674	8.96
609.01	8.83
609.345	8.84
609.68	8.71
610.015	9.01
610.35	9.09
610.685	8.89
611.02	8.8
611.355	8.72
611.689	8.81
612.024	8.77
612.359	8.71
612.694	8.7
613.028	9.07
613.363	9.14
613.697	8.98
614.032	9.2
614.366	9.14
614.7	8.93
615.035	9.03
615.369	9.3
615.703	9.24
616.037	9.21
616.371	9.29
616.705	9.03
617.039	9.26
617.373	9
617.707	9.25
618.041	9.29
618.375	9.15
618.709	9.21
619.042	9.44
619.376	9.17
619.71	9.38
620.043	9.27
620.377	9.61
620.71	9.6
621.043	9.48
621.377	9.4
621.71	9.61
622.043	9.8
622.376	9.93
622.709	10.03
623.043	9.88
623.376	9.9
623.709	9.65
624.041	9.99
624.374	9.66
624.707	9.7
625.04	10.02
625.373	10.16
625.705	10.01
626.038	9.67
626.37	9.74
626.703	9.96
627.035	9.95
627.368	9.84
627.7	9.97
628.032	10.14
628.365	9.79
628.697	10.11
629.029	10.04
629.361	10.29
629.693	10.33
630.025	10.28
630.357	10.02
630.689	10.33
631.021	10.22
631.353	10.46
631.684	10.32
632.016	9.99
632.348	10.34
632.679	10.18
633.011	10.42
633.342	10.28
633.674	10.82
634.005	10.32
634.336	10.36
634.668	10.34
634.999	10.31
635.33	10.8
635.661	10.56
635.992	10.65
636.323	10.97
636.654	10.79
636.985	10.77
637.316	10.32
637.647	10.72
637.977	10.88
638.308	10.62
638.639	10.87
638.969	10.64
639.3	10.66
639.63	10.79
639.961	11.12
640.291	10.75
640.622	11.13
640.952	10.95
641.282	11.29
641.612	11.25
641.943	11.07
642.273	11.15
642.603	10.87
642.933	11.05
643.263	11.27
643.592	11.5
643.922	11.35
644.252	11.29
644.582	10.87
644.911	11.19
645.241	11.06
645.571	11.3
645.9	11.44
646.23	11.48
646.559	11.7
646.888	11.35
647.218	11.17
647.547	11.13
647.876	11.21
648.205	11.39
648.534	11.15
648.863	11.72
649.192	11.52
649.521	11.52
649.85	11.73
650.179	11.77
650.508	11.69
650.837	11.48
651.165	11.49
651.494	12.17
651.822	12.09
652.151	11.94
652.479	11.82
652.808	11.94
653.136	11.42
653.465	11.9
653.793	12.23
654.121	12.35
654.449	11.89
654.777	11.69
655.105	12.52
655.433	12.28
655.761	12.23
656.089	11.9
656.417	12.24
656.745	12.35
657.073	12.14
657.4	12.04
657.728	12.18
658.056	12.25
658.383	12.27
658.711	12.5
659.038	12.44
659.365	12.76
659.693	12.32
660.02	12.43
660.347	12.46
660.674	12.97
661.001	12.57
661.329	12.32
661.656	12.55
661.982	12.66
662.309	12.72
662.636	12.98
662.963	12.2
663.29	12.59
663.616	12.63
663.943	13.45
664.27	13
664.596	13.04
664.923	12.54
665.249	13.25
665.576	13.21
665.902	12.83
666.228	12.72
666.554	12.71
666.881	12.91
667.207	13.35
667.533	13.64
667.859	12.92
668.185	13.88
668.511	13.17
668.837	13.49
669.162	13.37
669.488	13.8
669.814	13.46
670.139	13.42
670.465	13.55
670.791	13.96
671.116	13.4
671.442	13.29
671.767	13.64
672.092	13.77
672.418	13.77
672.743	13.31
673.068	13.4
673.393	13.32
673.718	13.55
674.043	13.64
674.368	13.51
674.693	13.39
675.018	13.61
675.343	13.4
675.667	14.14
675.992	13.74
676.317	14.19
676.641	13.53
676.966	13.22
677.29	13.73
677.615	13.98
677.939	14
678.264	14.47
678.588	14.01
678.912	14.14
679.236	14.82
679.56	13.9
679.885	14.33
680.209	14.06
680.532	14.43
680.856	14.85
681.18	14.18
681.504	14.25
681.828	14.27
682.152	14.61
682.475	14.36
682.799	14.5
683.122	14.33
683.446	14.45
683.769	14.43
684.093	14.25
684.416	14.5
684.739	14.95
685.062	14.28
685.386	14.46
685.709	14.24
686.032	14.78
686.355	14.3
686.678	15.13
687.001	14.46
687.324	15.03
687.646	14.41
687.969	14.83
688.292	15.06
