Data from 0029_forehead_Reflection__0__131.txt Node

Date: Thu Oct 20 21:56:39 CDT 2022
User: ToomeyLab
Spectrometer: FLMS14357
Trigger mode: 0
Integration Time (sec): 1.000000E-2
Scans to average: 100
Electric dark correction enabled: true
Nonlinearity correction enabled: false
Boxcar width: 0
XAxis mode: Wavelengths
Number of Pixels in Spectrum: 2048
>>>>>Begin Spectral Data<<<<<
189.047	-118.57
189.435	-118.57
189.823	-118.57
190.211	-133.92
190.599	85.01
190.987	265.04
191.375	139.29
191.763	-247.56
192.151	117.17
192.538	39.71
192.926	106.75
193.314	58.21
193.702	-40.18
194.089	90.05
194.477	-663.66
194.864	-160.92
195.252	2.52
195.639	-90.04
196.027	-6800
196.414	52.55
196.801	-397.99
197.189	17.2
197.576	51.44
197.963	-202.83
198.351	-8.11
198.738	-58.23
199.125	9.13
199.512	-6.71
199.899	-48.9
200.286	32.35
200.673	-7.88
201.06	30.89
201.447	2.92
201.833	-0.04
202.22	9.79
202.607	20.06
202.994	-9.78
203.38	-40.44
203.767	4.09
204.154	19
204.54	6.51
204.927	4.6
205.313	3.37
205.699	20.96
206.086	-4.27
206.472	5.06
206.858	0.81
207.245	11.42
207.631	12.62
208.017	-7.46
208.403	-76.12
208.789	38.07
209.175	32.96
209.561	14.41
209.947	2.47
210.333	-13.16
210.719	4.62
211.105	28.02
211.491	-36.76
211.876	-26.41
212.262	-5.31
212.648	2.14
213.034	15.32
213.419	-19.46
213.805	-40.44
214.19	-15.24
214.576	-15.44
214.961	-29.5
215.346	0.15
215.732	12.23
216.117	-17.22
216.502	1.43
216.888	-16.51
217.273	-22.98
217.658	18.93
218.043	5.54
218.428	6.27
218.813	2.25
219.198	-13.66
219.583	-5.43
219.968	33.47
220.353	-4.97
220.738	7.54
221.122	2.08
221.507	0.58
221.892	-13.62
222.276	7.6
222.661	5.89
223.046	10.09
223.43	-13.19
223.815	3.01
224.199	-16.68
224.583	-0.26
224.968	6.13
225.352	1.33
225.736	4.85
226.121	-0.13
226.505	2.44
226.889	2.9
227.273	-1.57
227.657	2.08
228.041	-2.26
228.425	3.46
228.809	0.06
229.193	2.51
229.577	-0.06
229.961	0.8
230.344	1.45
230.728	1.21
231.112	0.98
231.495	1.63
231.879	3.13
232.263	1.56
232.646	0.91
233.03	1.26
233.413	1.88
233.797	-0.91
234.18	4.09
234.563	2.36
234.946	2.7
235.33	0.93
235.713	1.9
236.096	1.08
236.479	2.12
236.862	2.18
237.245	0.58
237.628	3.64
238.011	0.87
238.394	1.71
238.777	1.46
239.16	-1.89
239.543	0.09
239.925	0.88
240.308	1.72
240.691	3.21
241.073	0.52
241.456	1.38
241.838	1.95
242.221	1.41
242.603	1.21
242.986	1.57
243.368	1.28
243.75	1.66
244.133	1.72
244.515	1.75
244.897	1.32
245.279	0.99
245.661	1.6
246.043	2.32
246.425	1.88
246.807	1.69
247.189	1.88
247.571	1.63
247.953	1.57
248.335	1.67
248.717	1.47
249.098	1.67
249.48	1.79
249.862	2.04
250.243	1.17
250.625	1.86
251.006	2
251.388	1.45
251.769	1.86
252.151	1.45
252.532	1.66
252.913	1.61
253.295	1.64
253.676	1.83
254.057	0.77
254.438	1.98
254.819	1.89
255.2	1.83
255.581	1.55
255.962	1.92
256.343	1.3
256.724	1.24
257.105	1.94
257.486	0.82
257.867	2.39
258.247	1.69
258.628	1.79
259.009	1.04
259.389	1.66
259.77	1.55
260.15	1.64
260.531	1.79
260.911	1.61
261.292	1.67
261.672	1.63
262.052	1.71
262.432	2.25
262.813	1.87
263.193	1.75
263.573	1.62
263.953	1.24
264.333	1.47
264.713	2.12
265.093	1.22
265.473	2.55
265.853	1.72
266.233	1.64
266.612	2
266.992	0.9
267.372	2.01
267.752	1.92
268.131	2.1
268.511	1.85
268.89	2.14
269.27	1.69
269.649	1.64
270.029	1.43
270.408	1.24
270.787	1.71
271.167	1.45
271.546	1.03
271.925	1.94
272.304	2.1
272.683	1.65
273.062	1.52
273.441	1.48
273.82	2.33
274.199	1.38
274.578	1.33
274.957	1.51
275.336	1.23
275.715	1.69
276.093	2.04
276.472	1.96
276.851	2.12
277.229	1.31
277.608	1.14
277.986	1.26
278.365	1.67
278.743	1.23
279.122	1.89
279.5	1.37
279.878	1.9
280.257	2.17
280.635	1.65
281.013	1.62
281.391	1.88
281.769	1.61
282.147	1.47
282.525	1.62
282.903	1.64
283.281	1.6
283.659	1.14
284.037	1.14
284.415	1.44
284.792	1.12
285.17	2.1
285.548	1.58
285.925	1.37
286.303	1.46
286.68	2.07
287.058	1.85
287.435	1.51
287.813	1.82
288.19	1.6
288.567	1.96
288.945	1.95
289.322	1.69
289.699	1.37
290.076	1.5
290.453	1.51
290.83	1.86
291.207	2.04
291.584	1.88
291.961	1.66
292.338	1.81
292.715	1.86
293.092	2.17
293.469	1.85
293.845	1.96
294.222	1.9
294.599	2.48
294.975	1.55
295.352	2.53
295.728	2.23
296.105	2.14
296.481	1.36
296.858	2.3
297.234	1.84
297.61	2.16
297.986	1.87
298.363	2
298.739	2.05
299.115	1.93
299.491	2.24
299.867	1.78
300.243	2.36
300.619	2.18
300.995	1.95
301.371	2.29
301.746	1.85
302.122	2.74
302.498	2.09
302.874	2.41
303.249	2.23
303.625	2.29
304	2.68
304.376	2.25
304.751	2.5
305.127	2.04
305.502	2.78
305.878	2.98
306.253	2.19
306.628	2.43
307.003	2.57
307.378	2.25
307.754	2.68
308.129	2.65
308.504	2.76
308.879	2.73
309.254	2.66
309.629	2.54
310.003	2.73
310.378	2.5
310.753	2.8
311.128	2.53
311.502	2.46
311.877	2.83
312.252	2.49
312.626	2.77
313.001	2.78
313.375	2.98
313.75	2.49
314.124	3.05
314.498	2.62
314.873	2.7
315.247	2.82
315.621	3.04
315.995	2.89
316.369	3.01
316.743	2.5
317.117	2.86
317.491	3.08
317.865	2.98
318.239	2.74
318.613	3.45
318.987	2.87
319.361	3.34
319.734	2.13
320.108	3.29
320.482	3.14
320.855	3.25
321.229	3.47
321.602	2.72
321.976	3.16
322.349	3
322.723	3.77
323.096	3.18
323.469	3.3
323.843	3.45
324.216	2.99
324.589	3.97
324.962	3.34
325.335	3.71
325.708	3.7
326.081	3.85
326.454	3.64
326.827	3.5
327.2	3.86
327.573	3.14
327.945	3.34
328.318	3.4
328.691	3.76
329.063	4.25
329.436	3.71
329.809	3.92
330.181	4
330.553	3.11
330.926	3.85
331.298	3.6
331.671	4.04
332.043	4.16
332.415	3.56
332.787	4.31
333.159	4.16
333.532	3.99
333.904	3.8
334.276	3.98
334.648	3.49
335.02	4.19
335.391	4.09
335.763	4.05
336.135	4
336.507	3.64
336.879	4.67
337.25	3.78
337.622	4.18
337.993	3.84
338.365	4.62
338.736	3.98
339.108	4.28
339.479	3.84
339.851	3.85
340.222	4
340.593	4.29
340.964	4.89
341.336	4.27
341.707	3.97
342.078	4.28
342.449	4.09
342.82	4.32
343.191	4.33
343.562	4.48
343.933	4.32
344.303	4.35
344.674	4.81
345.045	4.58
345.416	4.38
345.786	4.41
346.157	4.34
346.527	4.25
346.898	4.18
347.268	4.57
347.639	4.36
348.009	4.68
348.38	4.59
348.75	4.2
349.12	4.94
349.49	4.7
349.861	4.35
350.231	4.53
350.601	4.83
350.971	4.84
351.341	5.2
351.711	4.92
352.081	4.67
352.45	4.64
352.82	4.57
353.19	4.65
353.56	4.82
353.929	4.76
354.299	5.16
354.669	4.64
355.038	4.9
355.408	4.49
355.777	5.01
356.147	4.97
356.516	4.99
356.885	4.98
357.254	4.96
357.624	4.91
357.993	4.73
358.362	5.09
358.731	5.45
359.1	4.95
359.469	5.34
359.838	4.81
360.207	5.58
360.576	4.78
360.945	5.38
361.314	5.31
361.682	5.23
362.051	5.27
362.42	5.13
362.788	5.15
363.157	5.12
363.525	5.26
363.894	5.29
364.262	5.45
364.631	5.14
364.999	5.44
365.367	5.49
365.735	5.4
366.104	5.32
366.472	5.5
366.84	5.67
367.208	5.63
367.576	5.73
367.944	5.72
368.312	5.58
368.68	5.55
369.048	5.42
369.416	5.56
369.783	5.64
370.151	6.06
370.519	5.83
370.886	5.62
371.254	6.19
371.621	5.34
371.989	5.83
372.356	5.62
372.724	5.76
373.091	6.04
373.458	5.8
373.826	5.98
374.193	5.96
374.56	5.65
374.927	5.67
375.294	5.96
375.661	6.21
376.028	6.06
376.395	6.38
376.762	6.08
377.129	5.87
377.496	5.5
377.863	6.01
378.229	5.74
378.596	6.17
378.963	6
379.329	6.36
379.696	6.17
380.062	6.36
380.429	6.42
380.795	6.19
381.161	6.4
381.528	6.22
381.894	6.46
382.26	6.45
382.626	6.46
382.993	6.3
383.359	6.47
383.725	6.49
384.091	6.61
384.457	6.21
384.823	6.55
385.188	6.46
385.554	6.45
385.92	6.54
386.286	6.42
386.651	6.3
387.017	6.59
387.383	6.87
387.748	6.93
388.114	6.83
388.479	6.75
388.845	6.86
389.21	6.81
389.575	6.52
389.94	6.99
390.306	7.02
390.671	6.99
391.036	7
391.401	6.66
391.766	7.24
392.131	6.63
392.496	6.76
392.861	6.94
393.226	7.04
393.591	7.13
393.956	7.07
394.32	7.25
394.685	7.14
395.05	7.07
395.414	7.07
395.779	6.98
396.143	7.35
396.508	7.27
396.872	7.41
397.236	7.32
397.601	7.42
397.965	7.35
398.329	7.3
398.694	7.28
399.058	7.42
399.422	7.48
399.786	7.44
400.15	7.38
400.514	7.77
400.878	7.51
401.242	7.61
401.605	7.67
401.969	7.44
402.333	7.61
402.697	7.92
403.06	7.47
403.424	7.6
403.787	7.75
404.151	7.52
404.514	7.47
404.878	7.67
405.241	7.64
405.604	7.69
405.968	7.66
406.331	7.83
406.694	7.64
407.057	7.86
407.42	7.96
407.783	7.8
408.146	8.01
408.509	8.08
408.872	8
409.235	8.1
409.598	8.25
409.961	7.96
410.323	8.36
410.686	8.23
411.049	7.84
411.411	8.08
411.774	8.12
412.136	8.29
412.499	8.22
412.861	8.35
413.223	8.28
413.586	8.12
413.948	8.32
414.31	8.11
414.672	8.23
415.035	8.5
415.397	8.36
415.759	8.44
416.121	8.5
416.483	8.36
416.845	8.51
417.206	8.42
417.568	8.55
417.93	8.46
418.292	8.62
418.653	8.51
419.015	8.55
419.377	8.4
419.738	8.45
420.1	8.44
420.461	8.61
420.822	8.41
421.184	8.5
421.545	8.55
421.906	8.52
422.267	8.47
422.629	8.4
422.99	8.46
423.351	8.51
423.712	8.62
424.073	8.59
424.434	8.63
424.795	8.6
425.155	8.69
425.516	8.64
425.877	8.56
426.238	8.78
426.598	8.73
426.959	8.82
427.32	8.95
427.68	9.02
428.041	9.02
428.401	9.15
428.761	9.09
429.122	9.19
429.482	9.07
429.842	9.25
430.202	9.37
430.563	9.15
430.923	9.55
431.283	9.19
431.643	9.44
432.003	9.32
432.363	9.52
432.722	9.54
433.082	9.18
433.442	9.41
433.802	9.36
434.161	9.54
434.521	9.47
434.881	9.37
435.24	9.43
435.6	9.52
435.959	9.72
436.319	9.67
436.678	9.41
437.037	9.62
437.396	9.83
437.756	9.87
438.115	9.75
438.474	9.78
438.833	9.84
439.192	9.76
439.551	9.8
439.91	9.88
440.269	9.61
440.628	9.77
440.987	9.78
441.345	9.79
441.704	9.67
442.063	9.78
442.421	9.68
442.78	9.88
443.138	10.01
443.497	9.95
443.855	9.99
444.214	10.12
444.572	10.01
444.93	10.05
445.288	10.07
445.647	10.07
446.005	10.05
446.363	10.09
446.721	10.05
447.079	9.95
447.437	9.96
447.795	10.01
448.153	9.99
448.51	9.99
448.868	10.17
449.226	10.23
449.584	10.34
449.941	10.47
450.299	10.45
450.656	10.56
451.014	10.52
451.371	10.56
451.729	10.49
452.086	10.78
452.443	10.6
452.801	10.73
453.158	10.64
453.515	10.69
453.872	10.58
454.229	10.61
454.586	10.7
454.943	10.63
455.3	10.92
455.657	10.73
456.014	10.93
456.371	10.9
456.727	10.94
457.084	10.86
457.441	11.03
457.797	10.9
458.154	11.02
458.51	10.97
458.867	10.98
459.223	10.99
459.58	10.86
459.936	11.03
460.292	10.93
460.648	10.74
461.005	10.7
461.361	10.79
461.717	10.8
462.073	11.05
462.429	11.2
462.785	11.26
463.141	11.38
463.496	11.49
463.852	11.25
464.208	11.4
464.564	11.41
464.919	11.41
465.275	11.6
465.631	11.44
465.986	11.49
466.342	11.48
466.697	11.53
467.052	11.61
467.408	11.59
467.763	11.56
468.118	11.61
468.473	11.63
468.829	11.68
469.184	11.67
469.539	11.59
469.894	11.64
470.249	11.86
470.603	11.76
470.958	11.98
471.313	11.74
471.668	11.8
472.023	12.05
472.377	11.88
472.732	12.13
473.086	12.08
473.441	12.02
473.795	12.08
474.15	12.09
474.504	12.02
474.859	12.18
475.213	12.08
475.567	12.21
475.921	12.1
476.275	12.35
476.63	12.47
476.984	12.29
477.338	12.32
477.692	12.34
478.045	12.3
478.399	12.46
478.753	12.27
479.107	12.34
479.461	12.54
479.814	12.53
480.168	12.42
480.521	12.39
480.875	12.63
481.228	12.47
481.582	12.54
481.935	12.67
482.289	12.4
482.642	12.36
482.995	12.4
483.348	12.52
483.701	12.28
484.055	12.24
484.408	12.21
484.761	11.91
485.114	11.69
485.466	11.64
485.819	11.85
486.172	12.08
486.525	12.34
486.878	12.51
487.23	12.56
487.583	12.5
487.936	12.46
488.288	12.31
488.641	12.18
488.993	12.14
489.345	12.23
489.698	12.3
490.05	12.45
490.402	12.69
490.754	12.88
491.107	12.96
491.459	13
491.811	12.96
492.163	12.97
492.515	12.68
492.866	12.52
493.218	12.42
493.57	12.6
493.922	12.8
494.274	13.06
494.625	13.29
494.977	13.4
495.328	13.39
495.68	13.54
496.031	13.66
496.383	13.53
496.734	13.48
497.086	13.46
497.437	13.7
497.788	13.48
498.139	13.44
498.49	13.42
498.842	13.34
499.193	13.49
499.544	13.74
499.894	13.73
500.245	13.68
500.596	13.66
500.947	13.75
501.298	13.87
501.648	13.97
501.999	13.98
502.35	13.93
502.7	14.08
503.051	14.15
503.401	14.14
503.752	14.1
504.102	14.13
504.452	14.12
504.803	13.9
505.153	14.15
505.503	14.28
505.853	14.07
506.203	14.1
506.553	14.25
506.903	14.26
507.253	14.38
507.603	14.33
507.953	14.59
508.303	14.34
508.652	14.36
509.002	14.37
509.352	14.38
509.701	14.32
510.051	14.32
510.4	14.23
510.75	14.29
511.099	14.4
511.449	14.35
511.798	14.54
512.147	14.59
512.496	14.61
512.846	14.69
513.195	14.63
513.544	14.5
513.893	14.69
514.242	14.65
514.591	14.82
514.939	14.86
515.288	14.89
515.637	14.86
515.986	14.89
516.334	14.86
516.683	14.97
517.032	14.94
517.38	15.09
517.729	15.09
518.077	15.11
518.426	14.89
518.774	15.09
519.122	14.9
519.47	14.84
519.819	14.75
520.167	14.71
520.515	14.75
520.863	14.9
521.211	15.09
521.559	15.11
521.907	15.17
522.255	15.31
522.602	15.28
522.95	15.52
523.298	15.41
523.645	15.59
523.993	15.61
524.341	15.59
524.688	15.6
525.036	15.51
525.383	15.66
525.73	15.45
526.078	15.43
526.425	15.39
526.772	15.31
527.119	15.25
527.466	15.29
527.814	15.37
528.161	15.42
528.508	15.47
528.854	15.54
529.201	15.33
529.548	14.99
529.895	14.78
530.242	14.76
530.588	14.97
530.935	15.21
531.282	15.41
531.628	15.55
531.975	15.79
532.321	15.79
532.667	15.83
533.014	15.9
533.36	15.89
533.706	15.79
534.052	15.73
534.399	15.54
534.745	15.39
535.091	15.41
535.437	15.68
535.783	15.84
536.129	15.98
536.474	16.27
536.82	16.3
537.166	16.3
537.512	16.21
537.857	16.02
538.203	16.06
538.549	16.09
538.894	16.28
539.239	16.44
539.585	16.55
539.93	16.74
540.276	16.77
540.621	16.63
540.966	16.68
541.311	16.62
541.656	16.56
542.001	16.38
542.346	16.11
542.691	15.87
543.036	15.83
543.381	16.06
543.726	16.26
544.071	16.45
544.415	16.57
544.76	16.54
545.105	16.68
545.449	16.75
545.794	16.74
546.138	17.1
546.483	16.96
546.827	17.07
547.171	17.03
547.516	16.99
547.86	16.97
548.204	16.94
548.548	16.87
548.892	16.99
549.236	17.23
549.58	17.44
549.924	17.48
550.268	17.46
550.612	17.65
550.956	17.63
551.3	17.83
551.643	17.74
551.987	17.79
552.33	17.77
552.674	17.68
553.017	17.61
553.361	17.76
553.704	17.75
554.048	17.78
554.391	17.68
554.734	17.69
555.077	17.73
555.42	17.96
555.764	17.88
556.107	18
556.45	18.02
556.793	18.11
557.135	18.34
557.478	17.94
557.821	18.2
558.164	18.26
558.507	18.18
558.849	18.42
559.192	18.39
559.534	18.45
559.877	18.56
560.219	18.49
560.562	18.36
560.904	18.6
561.246	18.43
561.589	18.49
561.931	18.52
562.273	18.48
562.615	18.49
562.957	18.44
563.299	18.49
563.641	18.52
563.983	18.7
564.325	18.59
564.667	18.71
565.008	18.91
565.35	18.62
565.692	18.89
566.033	18.57
566.375	18.72
566.716	18.83
567.058	18.7
567.399	18.71
567.741	18.63
568.082	18.56
568.423	18.87
568.764	18.8
569.105	18.87
569.447	19.23
569.788	18.96
570.129	19.09
570.47	19.05
570.811	19
571.151	19.04
571.492	19
571.833	19.29
572.174	19.01
572.514	19.11
572.855	19.11
573.195	18.96
573.536	18.89
573.876	19.01
574.217	19.14
574.557	19.39
574.898	19.25
575.238	19.67
575.578	19.35
575.918	19.35
576.258	19.4
576.598	19.39
576.938	19.35
577.278	19.36
577.618	19.68
577.958	19.46
578.298	19.72
578.638	19.71
578.977	19.79
579.317	19.71
579.657	19.65
579.996	19.87
580.336	19.89
580.675	20.31
581.014	20.23
581.354	19.99
581.693	20.06
582.032	20.05
582.372	20.2
582.711	20.11
583.05	20.08
583.389	20.12
583.728	20.01
584.067	20.26
584.406	20.09
584.745	20.23
585.083	20.15
585.422	20.28
585.761	20.55
586.1	20.37
586.438	20.47
586.777	20.38
587.115	20.43
587.454	20.54
587.792	20.57
588.13	20.41
588.469	20.95
588.807	20.83
589.145	20.88
589.483	20.76
589.821	20.45
590.159	20.8
590.497	20.56
590.835	20.35
591.173	20.73
591.511	20.71
591.849	20.52
592.187	20.58
592.524	20.67
592.862	20.98
593.2	20.95
593.537	21.01
593.875	20.81
594.212	21.04
594.55	21.17
594.887	20.83
595.224	21.13
595.561	20.8
595.899	21.21
596.236	21.23
596.573	21.05
596.91	20.96
597.247	21.07
597.584	21.15
597.921	20.99
598.258	20.98
598.594	20.85
598.931	21.03
599.268	21.15
599.604	21.29
599.941	21.41
600.277	21.25
600.614	21.35
600.95	21.76
601.287	21.68
601.623	21.3
601.959	21.36
602.296	21.58
602.632	21.45
602.968	21.75
603.304	21.38
603.64	21.59
603.976	21.55
604.312	21.68
604.648	21.49
604.984	21.36
605.319	21.56
605.655	21.53
605.991	21.32
606.326	21.39
606.662	21.6
606.998	21.82
607.333	21.77
607.668	21.76
608.004	21.97
608.339	22.11
608.674	22.31
609.01	21.98
609.345	21.89
609.68	22.03
610.015	22.3
610.35	22.01
610.685	21.79
611.02	21.94
611.355	21.77
611.689	21.99
612.024	22.07
612.359	22.05
612.694	22.3
613.028	22.32
613.363	22.09
613.697	22.38
614.032	22.77
614.366	22.12
614.7	22.24
615.035	22.31
615.369	22.28
615.703	22.36
616.037	22.62
616.371	22.63
616.705	22.48
617.039	22.42
617.373	22.35
617.707	22.86
618.041	22.73
618.375	22.66
618.709	22.53
619.042	22.64
619.376	22.59
619.71	22.97
620.043	22.55
620.377	22.6
620.71	22.9
621.043	23.01
621.377	22.11
621.71	22.69
622.043	22.89
622.376	22.74
622.709	22.99
623.043	22.79
623.376	23.44
623.709	23.17
624.041	23.1
624.374	23.24
624.707	22.98
625.04	23.32
625.373	23.61
625.705	23.09
626.038	23.33
626.37	23.07
626.703	23.36
627.035	23.58
627.368	23.48
627.7	23.25
628.032	23.36
628.365	23.12
628.697	23.26
629.029	23.38
629.361	23.37
629.693	23.5
630.025	23.47
630.357	23.39
630.689	23.15
631.021	23.25
631.353	23.68
631.684	23.45
632.016	23.38
632.348	23.54
632.679	23.34
633.011	23.72
633.342	23.66
633.674	23.57
634.005	23.52
634.336	24.03
634.668	23.8
634.999	23.72
635.33	23.91
635.661	23.71
635.992	23.68
636.323	24.09
636.654	24.14
636.985	23.74
637.316	23.99
637.647	23.84
637.977	24.59
638.308	23.59
638.639	24.04
638.969	23.86
639.3	23.56
639.63	24.16
639.961	24.03
640.291	23.59
640.622	24.29
640.952	24.16
641.282	24.15
641.612	24.36
641.943	24.27
642.273	24.26
642.603	24.41
642.933	24.57
643.263	24.22
643.592	24.6
643.922	24.24
644.252	24.52
644.582	24.4
644.911	24.73
645.241	24.36
645.571	24.52
645.9	24.55
646.23	24.68
646.559	24.79
646.888	24.52
647.218	24.18
647.547	24.27
647.876	24.16
648.205	24.32
648.534	24.36
648.863	24.98
649.192	24.93
649.521	24.4
649.85	24.49
650.179	24.63
650.508	25.15
650.837	24.7
651.165	24.9
651.494	24.83
651.822	24.77
652.151	24.93
652.479	24.83
652.808	24.8
653.136	24.55
653.465	24.82
653.793	24.99
654.121	25.28
654.449	24.9
654.777	24.85
655.105	25.26
655.433	24.9
655.761	25.53
656.089	24.29
656.417	25.06
656.745	25.57
657.073	24.99
657.4	25.38
657.728	25.02
658.056	25.47
658.383	25.3
658.711	25.67
659.038	25.31
659.365	25.29
659.693	25.02
660.02	25.33
660.347	25.18
660.674	25.45
661.001	24.98
661.329	24.88
661.656	25.29
661.982	25.39
662.309	25.55
662.636	25.78
662.963	25.29
663.29	25.52
663.616	25.56
663.943	25.78
664.27	25.25
664.596	25.7
664.923	24.99
665.249	25.65
665.576	25.87
665.902	25.6
666.228	25.57
666.554	25.53
666.881	25.79
667.207	26.07
667.533	25.9
667.859	25.08
668.185	26.24
668.511	25.75
668.837	25.5
669.162	25.64
669.488	25.91
669.814	26.17
670.139	25.95
670.465	25.71
670.791	26.16
671.116	25.83
671.442	26.02
671.767	26.02
672.092	25.74
672.418	26.42
672.743	26.02
673.068	26.26
673.393	25.54
673.718	25.54
674.043	25.51
674.368	26.08
674.693	26.76
675.018	26.29
675.343	25.83
675.667	26.37
675.992	26.38
676.317	26.71
676.641	26.9
676.966	26.11
