Data from 0029_chest_Reflection__4__125.txt Node

Date: Thu Oct 20 21:54:34 CDT 2022
User: ToomeyLab
Spectrometer: FLMS14357
Trigger mode: 0
Integration Time (sec): 1.000000E-2
Scans to average: 100
Electric dark correction enabled: true
Nonlinearity correction enabled: false
Boxcar width: 0
XAxis mode: Wavelengths
Number of Pixels in Spectrum: 2048
>>>>>Begin Spectral Data<<<<<
189.047	-26.57
189.435	-26.57
189.823	-26.57
190.211	-56.39
190.599	48.97
190.987	160.09
191.375	162.9
191.763	70.26
192.151	-82.4
192.538	144.48
192.926	129.94
193.314	19.74
193.702	-22.87
194.089	99.62
194.477	-282.84
194.864	1191.19
195.252	5.89
195.639	128.13
196.027	1700
196.414	35.47
196.801	-372.96
197.189	74.76
197.576	45.37
197.963	-81.81
198.351	9.04
198.738	-51.26
199.125	24.48
199.512	27.45
199.899	-4.8
200.286	-31.17
200.673	-8.37
201.06	52.75
201.447	40.91
201.833	-26.28
202.22	4.54
202.607	48.17
202.994	14.72
203.38	-61.01
203.767	-8.73
204.154	2.37
204.54	-5.36
204.927	9.85
205.313	32.35
205.699	36.33
206.086	-10.63
206.472	15.29
206.858	-2.33
207.245	-1.63
207.631	-2.47
208.017	-5.84
208.403	-24.27
208.789	-20.89
209.175	33.29
209.561	27.37
209.947	27.66
210.333	8.96
210.719	8.77
211.105	27.05
211.491	-58.55
211.876	-20.9
212.262	29.22
212.648	9.67
213.034	29.7
213.419	-10.64
213.805	-1.86
214.19	-24.69
214.576	-32.47
214.961	-15.13
215.346	-32.27
215.732	-0.92
216.117	-29.95
216.502	-4.91
216.888	-4.57
217.273	-28.47
217.658	4.8
218.043	5.39
218.428	7.12
218.813	10.42
219.198	7.28
219.583	13.92
219.968	22.38
220.353	-29.51
220.738	14.74
221.122	6.46
221.507	0.18
221.892	-9.78
222.276	-1.3
222.661	4.88
223.046	16.22
223.43	-8.08
223.815	3.26
224.199	-12.84
224.583	-0.4
224.968	14.67
225.352	10.99
225.736	-0.95
226.121	-1.8
226.505	-1.15
226.889	2.68
227.273	0.26
227.657	-0.25
228.041	2.51
228.425	4.57
228.809	4.09
229.193	3.79
229.577	0.75
229.961	2.89
230.344	3.01
230.728	2.68
231.112	3.31
231.495	3.17
231.879	4.84
232.263	3.51
232.646	2.39
233.03	3.24
233.413	1.45
233.797	2.2
234.18	0.68
234.563	1.66
234.946	1.97
235.33	3.03
235.713	2.25
236.096	1.22
236.479	4.27
236.862	2.16
237.245	3.07
237.628	3.4
238.011	4.06
238.394	5.64
238.777	3.46
239.16	2.32
239.543	0.92
239.925	1.9
240.308	2.29
240.691	5.46
241.073	2.95
241.456	4.11
241.838	3.25
242.221	2.83
242.603	3.5
242.986	3.47
243.368	3.5
243.75	3.84
244.133	3.89
244.515	3.42
244.897	3.07
245.279	2.13
245.661	4.54
246.043	3.81
246.425	4.07
246.807	3.11
247.189	3.49
247.571	4.18
247.953	3.63
248.335	3.63
248.717	3.68
249.098	3.8
249.48	3.44
249.862	3.65
250.243	3.62
250.625	3.79
251.006	4.18
251.388	3.72
251.769	4.13
252.151	3.59
252.532	3.02
252.913	3.49
253.295	3.49
253.676	4.25
254.057	3.15
254.438	3.77
254.819	3.84
255.2	4.03
255.581	3.1
255.962	4.86
256.343	2.54
256.724	3.03
257.105	3.54
257.486	3.51
257.867	4.69
258.247	4.17
258.628	3.85
259.009	3.36
259.389	3.83
259.77	3.03
260.15	3.47
260.531	3.49
260.911	3.4
261.292	3.64
261.672	3.49
262.052	3.61
262.432	3.72
262.813	3.77
263.193	4.1
263.573	3.14
263.953	3.49
264.333	3.36
264.713	3.83
265.093	3.3
265.473	3.94
265.853	3.87
266.233	3.14
266.612	4
266.992	3.18
267.372	3.73
267.752	3.74
268.131	4.17
268.511	3.6
268.89	3.13
269.27	3.36
269.649	3.24
270.029	3.74
270.408	3.29
270.787	3.22
271.167	2.88
271.546	3.54
271.925	3.42
272.304	3.98
272.683	3.51
273.062	3.16
273.441	3.07
273.82	3.82
274.199	2.81
274.578	3.06
274.957	3.58
275.336	3.14
275.715	3.45
276.093	3.61
276.472	3.8
276.851	3.82
277.229	3.2
277.608	2.99
277.986	3.27
278.365	3.13
278.743	3.73
279.122	3.6
279.5	2.93
279.878	3.35
280.257	3.13
280.635	3.42
281.013	3.21
281.391	3.7
281.769	3.48
282.147	2.92
282.525	2.78
282.903	3.15
283.281	2.69
283.659	2.88
284.037	3.07
284.415	3.25
284.792	3.11
285.17	3.28
285.548	2.99
285.925	3.35
286.303	3.36
286.68	3.7
287.058	3.41
287.435	3.33
287.813	3.4
288.19	3.42
288.567	3.15
288.945	3.39
289.322	3.5
289.699	2.9
290.076	3.14
290.453	3.31
290.83	3.41
291.207	3.84
291.584	3.2
291.961	3.25
292.338	3.41
292.715	3.44
293.092	3.88
293.469	3.99
293.845	3.72
294.222	4.18
294.599	4.14
294.975	3.65
295.352	3.99
295.728	3.7
296.105	4.06
296.481	3.87
296.858	3.89
297.234	3.69
297.61	3.73
297.986	3.65
298.363	3.64
298.739	3.65
299.115	3.84
299.491	3.94
299.867	3.61
300.243	3.57
300.619	3.88
300.995	3.5
301.371	4.08
301.746	3.99
302.122	4.13
302.498	4.03
302.874	4.42
303.249	4.29
303.625	3.79
304	4.11
304.376	4.05
304.751	4.08
305.127	3.72
305.502	4.11
305.878	4.01
306.253	3.91
306.628	3.88
307.003	4.04
307.378	3.66
307.754	4.07
308.129	4.22
308.504	3.92
308.879	3.78
309.254	4.17
309.629	4.12
310.003	4.04
310.378	3.92
310.753	4.2
311.128	3.85
311.502	4.07
311.877	4.44
312.252	3.6
312.626	3.89
313.001	4.1
313.375	4.3
313.75	3.62
314.124	4.02
314.498	3.95
314.873	3.89
315.247	4.29
315.621	3.94
315.995	3.66
316.369	4.36
316.743	4.22
317.117	4.24
317.491	4.58
317.865	4.42
318.239	3.88
318.613	4.5
318.987	3.94
319.361	4.21
319.734	4.03
320.108	4.41
320.482	4.24
320.855	4.23
321.229	4.48
321.602	3.8
321.976	3.97
322.349	4.6
322.723	4.48
323.096	4.44
323.469	4.44
323.843	4.38
324.216	4.04
324.589	4.99
324.962	4.14
325.335	4.3
325.708	4.72
326.081	4.61
326.454	4.48
326.827	3.8
327.2	4.61
327.573	4.39
327.945	4.45
328.318	4.16
328.691	4.21
329.063	4.22
329.436	4.07
329.809	4.22
330.181	4.17
330.553	4.21
330.926	4.29
331.298	4.3
331.671	4.13
332.043	4.83
332.415	4.43
332.787	4.98
333.159	4.13
333.532	4.63
333.904	4.42
334.276	4.52
334.648	4.09
335.02	4.54
335.391	3.91
335.763	4.51
336.135	4.64
336.507	4.17
336.879	5.16
337.25	4.37
337.622	4.28
337.993	4.02
338.365	4.41
338.736	4.5
339.108	4.07
339.479	4.44
339.851	4.35
340.222	4.48
340.593	4.42
340.964	5.02
341.336	4.36
341.707	4.35
342.078	4.39
342.449	4.43
342.82	4.73
343.191	4.22
343.562	4.2
343.933	4.51
344.303	4.32
344.674	4.51
345.045	4.42
345.416	4.51
345.786	4.25
346.157	4.25
346.527	4.15
346.898	4.19
347.268	4.21
347.639	4.43
348.009	4.55
348.38	4.48
348.75	3.63
349.12	4.75
349.49	4.68
349.861	4.63
350.231	4.51
350.601	5.04
350.971	4.4
351.341	4.9
351.711	4.43
352.081	4.16
352.45	4.68
352.82	4.49
353.19	4.52
353.56	4.42
353.929	4.73
354.299	4.87
354.669	4.53
355.038	4.74
355.408	4.18
355.777	4.3
356.147	4.84
356.516	4.66
356.885	4.4
357.254	4.75
357.624	4.24
357.993	4.58
358.362	4.46
358.731	4.53
359.1	4.1
359.469	4.65
359.838	4.35
360.207	4.6
360.576	4.34
360.945	4.82
361.314	4.68
361.682	4.64
362.051	4.32
362.42	4.46
362.788	4.66
363.157	4.24
363.525	4.58
363.894	4.43
364.262	4.47
364.631	4.69
364.999	4.32
365.367	4.61
365.735	4.54
366.104	4.11
366.472	4.36
366.84	4.73
367.208	4.51
367.576	4.5
367.944	4.78
368.312	4.7
368.68	4.76
369.048	4.58
369.416	4.41
369.783	4.67
370.151	4.9
370.519	4.62
370.886	4.32
371.254	4.66
371.621	4.78
371.989	4.95
372.356	4.44
372.724	4.76
373.091	4.99
373.458	4.3
373.826	4.67
374.193	4.75
374.56	4.38
374.927	4.39
375.294	4.76
375.661	4.94
376.028	4.53
376.395	5.15
376.762	4.84
377.129	4.37
377.496	4.36
377.863	4.75
378.229	4.43
378.596	4.9
378.963	4.96
379.329	5.03
379.696	4.64
380.062	4.63
380.429	5.07
380.795	4.65
381.161	4.71
381.528	4.68
381.894	4.65
382.26	4.42
382.626	4.8
382.993	4.35
383.359	4.76
383.725	4.67
384.091	4.73
384.457	4.61
384.823	4.42
385.188	4.7
385.554	4.45
385.92	4.62
386.286	4.5
386.651	4.53
387.017	4.76
387.383	4.77
387.748	5.1
388.114	4.9
388.479	4.58
388.845	4.79
389.21	4.89
389.575	4.59
389.94	4.9
390.306	4.85
390.671	4.86
391.036	4.58
391.401	4.69
391.766	5.06
392.131	4.82
392.496	4.6
392.861	4.58
393.226	4.87
393.591	4.83
393.956	4.72
394.32	4.88
394.685	4.8
395.05	4.69
395.414	4.95
395.779	4.95
396.143	4.9
396.508	4.79
396.872	4.89
397.236	4.73
397.601	5.01
397.965	4.95
398.329	4.87
398.694	4.69
399.058	4.76
399.422	4.88
399.786	5.01
400.15	4.75
400.514	5.09
400.878	4.63
401.242	4.95
401.605	5.12
401.969	4.99
402.333	4.97
402.697	4.89
403.06	4.79
403.424	5
403.787	4.98
404.151	4.82
404.514	4.89
404.878	4.68
405.241	4.81
405.604	4.88
405.968	4.97
406.331	4.88
406.694	4.8
407.057	4.88
407.42	4.88
407.783	4.87
408.146	4.94
408.509	4.95
408.872	4.95
409.235	4.82
409.598	5.15
409.961	5.1
410.323	5.1
410.686	5.14
411.049	5.12
411.411	5.08
411.774	4.85
412.136	4.97
412.499	5.15
412.861	5.04
413.223	4.92
413.586	4.98
413.948	5.01
414.31	4.81
414.672	5.2
415.035	5.02
415.397	5.08
415.759	5.22
416.121	5.13
416.483	5.09
416.845	5.13
417.206	4.93
417.568	5.28
417.93	5.07
418.292	5.23
418.653	5.07
419.015	5.22
419.377	5.12
419.738	5.11
420.1	5.11
420.461	5.13
420.822	5.06
421.184	5.04
421.545	5.03
421.906	4.95
422.267	5.05
422.629	4.96
422.99	5
423.351	4.99
423.712	5
424.073	4.98
424.434	5.09
424.795	5
425.155	5.18
425.516	5.1
425.877	5.08
426.238	5.1
426.598	5.05
426.959	5.06
427.32	5.11
427.68	5.14
428.041	5.19
428.401	5.15
428.761	5.1
429.122	5.05
429.482	5.14
429.842	5.36
430.202	5.17
430.563	5.21
430.923	5.31
431.283	5.15
431.643	5.34
432.003	5.18
432.363	5.32
432.722	5.32
433.082	5.3
433.442	5.21
433.802	5.39
434.161	5.38
434.521	5.16
434.881	5.2
435.24	5.22
435.6	5.3
435.959	5.38
436.319	5.21
436.678	5.15
437.037	5.37
437.396	5.47
437.756	5.29
438.115	5.39
438.474	5.29
438.833	5.33
439.192	5.22
439.551	5.37
439.91	5.38
440.269	5.37
440.628	5.23
440.987	5.26
441.345	5.42
441.704	5.19
442.063	5.41
442.421	5.18
442.78	5.28
443.138	5.23
443.497	5.31
443.855	5.25
444.214	5.4
444.572	5.51
444.93	5.18
445.288	5.29
445.647	5.41
446.005	5.32
446.363	5.43
446.721	5.38
447.079	5.32
447.437	5.32
447.795	5.35
448.153	5.37
448.51	5.26
448.868	5.33
449.226	5.3
449.584	5.41
449.941	5.43
450.299	5.47
450.656	5.53
451.014	5.48
451.371	5.6
451.729	5.39
452.086	5.58
452.443	5.45
452.801	5.37
453.158	5.61
453.515	5.5
453.872	5.56
454.229	5.45
454.586	5.56
454.943	5.45
455.3	5.51
455.657	5.62
456.014	5.6
456.371	5.58
456.727	5.78
457.084	5.37
457.441	5.72
457.797	5.55
458.154	5.51
458.51	5.53
458.867	5.81
459.223	5.75
459.58	5.64
459.936	5.57
460.292	5.66
460.648	5.48
461.005	5.38
461.361	5.54
461.717	5.55
462.073	5.64
462.429	5.59
462.785	5.69
463.141	5.73
463.496	5.76
463.852	5.81
464.208	5.65
464.564	5.67
464.919	5.79
465.275	5.75
465.631	5.59
465.986	5.8
466.342	5.71
466.697	5.63
467.052	5.82
467.408	5.8
467.763	5.79
468.118	5.97
468.473	5.92
468.829	5.84
469.184	5.78
469.539	5.75
469.894	5.85
470.249	5.88
470.603	5.7
470.958	6.03
471.313	5.68
471.668	5.75
472.023	5.77
472.377	5.77
472.732	5.91
473.086	5.73
473.441	5.95
473.795	5.96
474.15	5.96
474.504	5.78
474.859	5.64
475.213	5.94
475.567	6.05
475.921	5.87
476.275	5.95
476.63	6.01
476.984	6.03
477.338	5.91
477.692	5.85
478.045	5.98
478.399	6.03
478.753	5.92
479.107	5.84
479.461	5.94
479.814	5.92
480.168	6
480.521	5.83
480.875	6.01
481.228	5.94
481.582	6.04
481.935	5.96
482.289	5.97
482.642	5.9
482.995	6.01
483.348	6
483.701	5.92
484.055	5.97
484.408	5.87
484.761	5.87
485.114	5.74
485.466	5.67
485.819	5.71
486.172	5.75
486.525	5.74
486.878	5.77
487.23	5.89
487.583	5.88
487.936	5.93
488.288	5.94
488.641	5.94
488.993	5.86
489.345	5.85
489.698	5.86
490.05	5.92
490.402	5.95
490.754	5.95
491.107	5.95
491.459	6.09
491.811	5.96
492.163	6.07
492.515	6
492.866	6.02
493.218	5.92
493.57	5.92
493.922	5.93
494.274	6.03
494.625	6.06
494.977	6.13
495.328	6.22
495.68	6.14
496.031	6.14
496.383	6.31
496.734	6.12
497.086	6.25
497.437	6.36
497.788	6.32
498.139	6.23
498.49	6.29
498.842	6.07
499.193	6.22
499.544	6.24
499.894	6.3
500.245	6.4
500.596	6.35
500.947	6.26
501.298	6.36
501.648	6.34
501.999	6.34
502.35	6.46
502.7	6.44
503.051	6.46
503.401	6.41
503.752	6.4
504.102	6.38
504.452	6.57
504.803	6.34
505.153	6.48
505.503	6.7
505.853	6.52
506.203	6.54
506.553	6.58
506.903	6.5
507.253	6.54
507.603	6.51
507.953	6.54
508.303	6.62
508.652	6.51
509.002	6.49
509.352	6.55
509.701	6.52
510.051	6.51
510.4	6.51
510.75	6.46
511.099	6.47
511.449	6.58
511.798	6.63
512.147	6.59
512.496	6.7
512.846	6.69
513.195	6.67
513.544	6.6
513.893	6.61
514.242	6.62
514.591	6.74
514.939	6.71
515.288	6.72
515.637	6.71
515.986	6.66
516.334	6.73
516.683	6.76
517.032	6.63
517.38	6.68
517.729	6.73
518.077	6.77
518.426	6.8
518.774	6.75
519.122	6.85
519.47	6.63
519.819	6.71
520.167	6.7
520.515	6.7
520.863	6.72
521.211	6.79
521.559	6.86
521.907	6.75
522.255	6.75
522.602	6.83
522.95	6.92
523.298	6.83
523.645	6.9
523.993	6.89
524.341	6.92
524.688	6.95
525.036	6.94
525.383	7.02
525.73	7
526.078	6.92
526.425	6.98
526.772	6.89
527.119	6.84
527.466	6.89
527.814	6.93
528.161	6.94
528.508	6.93
528.854	6.95
529.201	6.91
529.548	6.83
529.895	6.79
530.242	6.78
530.588	6.8
530.935	6.79
531.282	6.77
531.628	6.85
531.975	6.93
532.321	6.95
532.667	7.05
533.014	7.03
533.36	7.01
533.706	7.1
534.052	7.11
534.399	7.07
534.745	7.05
535.091	7.03
535.437	7.03
535.783	7.03
536.129	6.95
536.474	7.13
536.82	7.14
537.166	7.17
537.512	7.18
537.857	7.2
538.203	7.29
538.549	7.28
538.894	7.22
539.239	7.17
539.585	7.31
539.93	7.44
540.276	7.43
540.621	7.36
540.966	7.39
541.311	7.37
541.656	7.35
542.001	7.32
542.346	7.32
542.691	7.17
543.036	7.18
543.381	7.19
543.726	7.26
544.071	7.29
544.415	7.34
544.76	7.28
545.105	7.47
545.449	7.47
545.794	7.46
546.138	7.61
546.483	7.58
546.827	7.61
547.171	7.6
547.516	7.58
547.86	7.58
548.204	7.56
548.548	7.69
548.892	7.62
549.236	7.64
549.58	7.73
549.924	7.8
550.268	7.76
550.612	7.97
550.956	7.69
551.3	7.84
551.643	7.93
551.987	7.92
552.33	7.88
552.674	7.78
553.017	7.87
553.361	7.86
553.704	8.05
554.048	7.97
554.391	7.94
554.734	7.91
555.077	7.79
555.42	7.93
555.764	7.96
556.107	7.94
556.45	7.94
556.793	8.22
557.135	8.25
557.478	8.09
557.821	8.17
558.164	8.11
558.507	8.07
558.849	8.32
559.192	8.2
559.534	8.22
559.877	8.4
560.219	8.25
560.562	8.28
560.904	8.14
561.246	8.19
561.589	8.55
561.931	8.17
562.273	8.34
562.615	8.42
562.957	8.21
563.299	8.36
563.641	8.24
563.983	8.41
564.325	8.45
564.667	8.44
565.008	8.43
565.35	8.46
565.692	8.35
566.033	8.33
566.375	8.41
566.716	8.46
567.058	8.41
567.399	8.46
567.741	8.41
568.082	8.55
568.423	8.62
568.764	8.47
569.105	8.62
569.447	8.46
569.788	8.56
570.129	8.56
570.47	8.57
570.811	8.42
571.151	8.72
571.492	8.52
571.833	8.78
572.174	8.77
572.514	8.81
572.855	8.75
573.195	8.73
573.536	8.68
573.876	8.61
574.217	8.6
574.557	8.99
574.898	8.69
575.238	9.06
575.578	8.9
575.918	8.8
576.258	8.85
576.598	8.85
576.938	8.83
577.278	9
577.618	8.91
577.958	8.93
578.298	9.04
578.638	9.01
578.977	9.22
579.317	8.89
579.657	9.05
579.996	9.19
580.336	9.25
580.675	9.35
581.014	9.03
581.354	9.27
581.693	9.26
582.032	9.39
582.372	9.25
582.711	9.17
583.05	9.4
583.389	9.16
583.728	9.32
584.067	9.36
584.406	9.23
584.745	9.12
585.083	9.34
585.422	9.44
585.761	9.43
586.1	9.3
586.438	9.39
586.777	9.45
587.115	9.32
587.454	9.75
587.792	9.43
588.13	9.43
588.469	9.9
588.807	9.52
589.145	9.61
589.483	9.49
589.821	9.66
590.159	9.68
590.497	9.81
590.835	9.7
591.173	9.7
591.511	9.73
591.849	9.7
592.187	9.5
592.524	9.77
592.862	9.72
593.2	9.92
593.537	9.78
593.875	10.17
594.212	9.94
594.55	9.6
594.887	9.68
595.224	10.07
595.561	9.98
595.899	9.78
596.236	9.96
596.573	10.2
596.91	9.8
597.247	9.93
597.584	9.83
597.921	9.88
598.258	9.97
598.594	9.87
598.931	9.99
599.268	10.06
599.604	9.93
599.941	10.02
600.277	10
600.614	10.19
600.95	10.21
601.287	10.07
601.623	9.96
601.959	10.16
602.296	10.14
602.632	10.06
602.968	10.4
603.304	10.16
603.64	10.7
603.976	10.42
604.312	10.48
604.648	10.48
604.984	10.26
605.319	10.37
605.655	10.39
605.991	10.17
606.326	10.29
606.662	10.33
606.998	10.64
607.333	10.41
607.668	10.32
608.004	10.33
608.339	10.97
608.674	10.69
609.01	10.8
609.345	10.59
609.68	10.64
610.015	10.72
610.35	10.64
610.685	10.72
611.02	10.55
611.355	10.62
611.689	10.53
612.024	10.54
612.359	10.46
612.694	10.78
613.028	11.04
613.363	10.94
613.697	10.88
614.032	11.12
614.366	10.98
614.7	10.76
615.035	11.06
615.369	10.83
615.703	10.77
616.037	10.94
616.371	11.05
616.705	10.76
617.039	10.96
617.373	10.77
617.707	11.25
618.041	10.81
618.375	10.89
618.709	11.15
619.042	11.04
619.376	11.03
619.71	11.43
620.043	11.16
620.377	11.27
620.71	11.21
621.043	11.27
621.377	10.9
621.71	11.14
622.043	11.14
622.376	11.69
622.709	11.28
623.043	11.5
623.376	11.45
623.709	11.32
624.041	11.61
624.374	11.56
624.707	11.82
625.04	11.62
625.373	11.65
625.705	11.55
626.038	11.91
626.37	11.42
626.703	11.5
627.035	11.79
627.368	11.55
627.7	11.84
628.032	11.71
628.365	11.59
628.697	11.71
629.029	11.93
629.361	11.62
629.693	11.91
630.025	12.23
630.357	11.88
630.689	11.82
631.021	11.72
631.353	11.8
631.684	11.61
632.016	11.71
632.348	12.15
632.679	11.69
633.011	12.05
633.342	12.08
633.674	12.1
634.005	11.89
634.336	12.29
634.668	12.2
634.999	12.3
635.33	12.42
635.661	12.14
635.992	12.16
636.323	12.49
636.654	12.32
636.985	12.26
637.316	12.41
637.647	12.36
637.977	12.5
638.308	12.38
638.639	12.34
638.969	12.28
639.3	12.19
639.63	12.53
639.961	12.22
640.291	12.09
640.622	12.99
640.952	12.49
641.282	13.02
641.612	12.66
641.943	12.61
642.273	12.72
642.603	12.73
642.933	12.62
643.263	12.41
643.592	12.54
643.922	12.62
644.252	12.59
644.582	12.94
644.911	13.18
645.241	12.51
645.571	12.84
645.9	13.34
646.23	13.24
646.559	12.89
646.888	12.88
647.218	12.62
647.547	12.44
647.876	12.03
648.205	12.82
648.534	13.07
648.863	12.7
649.192	12.8
649.521	13.13
649.85	13.42
650.179	12.78
650.508	13.12
650.837	12.68
651.165	12.81
651.494	13.45
651.822	13.15
652.151	13.32
652.479	12.97
652.808	13.24
653.136	12.87
653.465	13.3
653.793	13.59
654.121	13.7
654.449	13.58
654.777	13.15
655.105	13.81
655.433	13.34
655.761	13.96
656.089	13.5
656.417	13.32
656.745	13.56
657.073	13.22
657.4	13.07
657.728	13.78
658.056	13.57
658.383	13.35
658.711	13.7
659.038	13.52
659.365	13.43
659.693	13.62
660.02	13.84
660.347	13.68
660.674	13.91
661.001	13.44
661.329	13.66
661.656	13.47
661.982	14.09
662.309	13.5
662.636	14.02
662.963	13.51
663.29	13.58
663.616	14.08
663.943	14.33
664.27	14.1
664.596	13.44
664.923	13.55
665.249	14.24
665.576	13.94
665.902	13.7
666.228	14.42
666.554	14.32
666.881	14.13
667.207	14.25
667.533	14.43
667.859	13.7
668.185	14.57
668.511	14.25
668.837	14.34
669.162	14.57
669.488	14.22
669.814	13.99
670.139	14.39
670.465	14.15
670.791	14.65
671.116	14.96
671.442	13.84
671.767	14.46
672.092	14.46
672.418	14.41
672.743	13.89
673.068	14.14
673.393	14.15
673.718	14.35
674.043	14.24
674.368	14.06
674.693	14.51
675.018	15.25
675.343	14.39
675.667	14.12
675.992	14.57
676.317	14.84
676.641	15.22
676.966	14.43
677.29	14.53
677.615	14.65
677.939	14.76
678.264	15.15
678.588	15.34
678.912	14.69
679.236	14.72
679.56	14.68
679.885	14.45
680.209	14.52
680.532	15.43
680.856	15.25
681.18	15.02
681.504	14.73
681.828	14.97
682.152	15.84
682.475	15.12
682.799	15.42
683.122	15.16
683.446	14.69
683.769	15.26
684.093	15.33
684.416	15.22
684.739	15.58
685.062	14.76
685.386	15.22
685.709	15.15
686.032	15.17
686.355	15.07
686.678	15.43
