Data from 0227_forehead_Reflection__3__13.txt Node

Date: Fri Oct 20 20:41:15 CDT 2023
User: ToomeyLab
Spectrometer: FLMS14357
Trigger mode: 0
Integration Time (sec): 1.000000E-2
Scans to average: 100
Electric dark correction enabled: true
Nonlinearity correction enabled: false
Boxcar width: 0
XAxis mode: Wavelengths
Number of Pixels in Spectrum: 2048
>>>>>Begin Spectral Data<<<<<
189.047	62.1
189.435	62.1
189.823	62.1
190.211	1188.58
190.599	-3.57
190.987	28.87
191.375	-111.08
191.763	162.66
192.151	-144.44
192.538	-186.27
192.926	-78.34
193.314	49.59
193.702	127.54
194.089	51.39
194.477	916.89
194.864	45.78
195.252	170.52
195.639	-141.1
196.027	-435.21
196.414	23.97
196.801	3.4
197.189	101.52
197.576	-467.62
197.963	35.74
198.351	60.21
198.738	25.8
199.125	42.06
199.512	41.64
199.899	-7.66
200.286	37.91
200.673	8.38
201.06	2.64
201.447	-15.8
201.833	60.12
202.22	61.4
202.607	32.58
202.994	38.22
203.38	37.98
203.767	27.57
204.154	47.61
204.54	45.01
204.927	29.26
205.313	26.4
205.699	28.2
206.086	-5.62
206.472	62.94
206.858	52.38
207.245	14.6
207.631	2.22
208.017	35.54
208.403	18.33
208.789	51
209.175	46.45
209.561	-3.42
209.947	23.95
210.333	6.56
210.719	13.91
211.105	29.92
211.491	35.63
211.876	39.23
212.262	29.94
212.648	69.95
213.034	18.11
213.419	13.08
213.805	20.39
214.19	5.53
214.576	11.67
214.961	32.87
215.346	52.45
215.732	20.92
216.117	-0.11
216.502	16.47
216.888	7.88
217.273	0.72
217.658	4.77
218.043	24.07
218.428	14.53
218.813	9.06
219.198	26.32
219.583	4.82
219.968	5.85
220.353	29.65
220.738	19.06
221.122	-0.31
221.507	18.7
221.892	8.11
222.276	12.76
222.661	18.86
223.046	24.59
223.43	11.82
223.815	16.62
224.199	15.96
224.583	4.17
224.968	-3.77
225.352	2.21
225.736	3.84
226.121	20.71
226.505	2.59
226.889	9.18
227.273	8.39
227.657	9.88
228.041	9.23
228.425	6.48
228.809	6.94
229.193	5.3
229.577	6.48
229.961	3.92
230.344	4.62
230.728	4.01
231.112	3.77
231.495	3.9
231.879	4.31
232.263	5.51
232.646	3.44
233.03	3.11
233.413	4.42
233.797	5.53
234.18	3.19
234.563	8.81
234.946	5.93
235.33	5.1
235.713	6.55
236.096	5.11
236.479	5.29
236.862	4.05
237.245	4.49
237.628	3.66
238.011	6.22
238.394	4.77
238.777	7.09
239.16	6.61
239.543	5.59
239.925	6.65
240.308	4.05
240.691	4.32
241.073	5.78
241.456	4.12
241.838	5.26
242.221	5.18
242.603	3.85
242.986	4.76
243.368	4.26
243.75	4.34
244.133	3.51
244.515	3.95
244.897	3.76
245.279	4.29
245.661	4.53
246.043	3.85
246.425	4.49
246.807	4.67
247.189	4.74
247.571	4.72
247.953	3.77
248.335	4.56
248.717	3.92
249.098	3.71
249.48	3.71
249.862	4.21
250.243	4.44
250.625	4.21
251.006	4.32
251.388	4.78
251.769	4.74
252.151	3.67
252.532	4.56
252.913	4.5
253.295	3.72
253.676	4.15
254.057	4.36
254.438	4.37
254.819	4.19
255.2	4.2
255.581	4.12
255.962	4.58
256.343	5.36
256.724	4.19
257.105	5.35
257.486	5.1
257.867	5.35
258.247	5.06
258.628	5.45
259.009	4.61
259.389	3.94
259.77	3.86
260.15	4.6
260.531	4.26
260.911	4.62
261.292	3.67
261.672	4.07
262.052	4.11
262.432	4.22
262.813	4.12
263.193	4.23
263.573	4.31
263.953	4.56
264.333	4.1
264.713	4.52
265.093	4.88
265.473	5.01
265.853	4.04
266.233	4.65
266.612	4.45
266.992	3.96
267.372	4.32
267.752	4.01
268.131	3.99
268.511	4.53
268.89	4.59
269.27	4.19
269.649	3.61
270.029	4.06
270.408	5
270.787	4.14
271.167	4.17
271.546	4.37
271.925	5.15
272.304	4.32
272.683	4.3
273.062	4.51
273.441	4.52
273.82	4.61
274.199	4.19
274.578	3.99
274.957	4.17
275.336	4.19
275.715	4.35
276.093	4.37
276.472	4.56
276.851	3.85
277.229	4.09
277.608	3.92
277.986	3.91
278.365	4.99
278.743	4.28
279.122	4.16
279.5	4.02
279.878	3.85
280.257	3.68
280.635	4.3
281.013	5
281.391	4.82
281.769	4.11
282.147	4.45
282.525	4.24
282.903	4.21
283.281	3.93
283.659	4.4
284.037	4.23
284.415	3.9
284.792	4.03
285.17	4.31
285.548	4.29
285.925	4.34
286.303	3.76
286.68	3.95
287.058	4.39
287.435	4.31
287.813	4.21
288.19	4.14
288.567	4.43
288.945	4.31
289.322	4.93
289.699	4.11
290.076	4.93
290.453	4.48
290.83	4.04
291.207	4.76
291.584	4.05
291.961	4.13
292.338	4.5
292.715	4.62
293.092	4.71
293.469	4.61
293.845	4.39
294.222	4.92
294.599	4.69
294.975	5.41
295.352	5.42
295.728	4.96
296.105	4.95
296.481	4.74
296.858	5.43
297.234	5.24
297.61	4.78
297.986	4.77
298.363	5.14
298.739	4.84
299.115	4.77
299.491	4.86
299.867	5.14
300.243	5.29
300.619	5.17
300.995	5.29
301.371	5.71
301.746	5.69
302.122	5.29
302.498	5.25
302.874	5.41
303.249	5.41
303.625	5.13
304	5.67
304.376	5.24
304.751	5.29
305.127	5.39
305.502	6.15
305.878	6.19
306.253	5.71
306.628	5.64
307.003	5.73
307.378	6.1
307.754	5.59
308.129	6.9
308.504	6.26
308.879	5.87
309.254	6.31
309.629	6.05
310.003	5.64
310.378	6.43
310.753	6.13
311.128	6.34
311.502	6.71
311.877	6.73
312.252	5.94
312.626	6.58
313.001	6.38
313.375	6.66
313.75	6.68
314.124	6.35
314.498	7.02
314.873	6.65
315.247	6.9
315.621	6.68
315.995	7
316.369	7.11
316.743	6.68
317.117	7.06
317.491	6.7
317.865	7.13
318.239	7.17
318.613	7.36
318.987	6.45
319.361	7
319.734	7.39
320.108	7.12
320.482	7.32
320.855	7.28
321.229	7.89
321.602	7.57
321.976	7.45
322.349	8.36
322.723	7.35
323.096	7.81
323.469	7.5
323.843	7.77
324.216	7.35
324.589	7.91
324.962	8.46
325.335	7.95
325.708	7.07
326.081	7.8
326.454	7.91
326.827	8.18
327.2	7.99
327.573	8.15
327.945	8.34
328.318	8.01
328.691	8.06
329.063	8.75
329.436	7.85
329.809	8.43
330.181	7.98
330.553	8.35
330.926	8.3
331.298	7.6
331.671	7.75
332.043	8.04
332.415	8.06
332.787	8.28
333.159	8.31
333.532	8.65
333.904	8.62
334.276	8.54
334.648	8.69
335.02	8.8
335.391	8.08
335.763	9.21
336.135	8.98
336.507	8.52
336.879	8.59
337.25	9.03
337.622	8.95
337.993	9.09
338.365	8.95
338.736	8.92
339.108	9.43
339.479	8.84
339.851	9
340.222	8.69
340.593	8.83
340.964	9.05
341.336	9.22
341.707	9.11
342.078	9.35
342.449	9.06
342.82	9.14
343.191	9.13
343.562	9.21
343.933	9.31
344.303	9.67
344.674	9.21
345.045	9.77
345.416	9.44
345.786	9.34
346.157	9.61
346.527	9.47
346.898	9.54
347.268	9.65
347.639	9.79
348.009	9.87
348.38	10.33
348.75	9.97
349.12	10.13
349.49	9.88
349.861	10.18
350.231	9.94
350.601	9.81
350.971	10.36
351.341	10.2
351.711	10.58
352.081	10.21
352.45	9.88
352.82	9.99
353.19	10.3
353.56	10.22
353.929	10.42
354.299	10.33
354.669	10.36
355.038	10.66
355.408	10.64
355.777	10.83
356.147	10.38
356.516	10.45
356.885	10.68
357.254	10.64
357.624	10.72
357.993	10.51
358.362	10.41
358.731	10.3
359.1	10.33
359.469	10.57
359.838	10.66
360.207	10.69
360.576	11.01
360.945	10.59
361.314	10.91
361.682	10.77
362.051	10.77
362.42	10.8
362.788	10.9
363.157	10.86
363.525	10.69
363.894	10.89
364.262	11.1
364.631	11.41
364.999	11.4
365.367	11.22
365.735	11.13
366.104	11.15
366.472	11.42
366.84	11.67
367.208	11.31
367.576	11.46
367.944	11.45
368.312	11.6
368.68	11.82
369.048	11.87
369.416	12.08
369.783	11.97
370.151	11.84
370.519	11.71
370.886	12.5
371.254	12.25
371.621	12.17
371.989	11.97
372.356	12.41
372.724	11.92
373.091	11.72
373.458	12.05
373.826	12.18
374.193	12.1
374.56	12.15
374.927	11.68
375.294	12.19
375.661	12.54
376.028	12.76
376.395	12.61
376.762	12.83
377.129	12.51
377.496	12.59
377.863	12.79
378.229	12.61
378.596	12.77
378.963	12.54
379.329	12.87
379.696	12.75
380.062	12.71
380.429	12.38
380.795	12.86
381.161	13.13
381.528	13.35
381.894	12.7
382.26	13
382.626	13.36
382.993	13.09
383.359	12.99
383.725	13.19
384.091	13.2
384.457	13.1
384.823	13.38
385.188	13.5
385.554	13.4
385.92	13.26
386.286	13.39
386.651	13.17
387.017	13.51
387.383	13.52
387.748	13.13
388.114	13.6
388.479	13.85
388.845	13.86
389.21	13.58
389.575	13.43
389.94	13.63
390.306	13.65
390.671	13.75
391.036	13.93
391.401	13.81
391.766	14.04
392.131	13.96
392.496	14.07
392.861	13.81
393.226	14.04
393.591	13.95
393.956	14.04
394.32	14.27
394.685	14.03
395.05	14.48
395.414	14.37
395.779	14.36
396.143	14.2
396.508	14.4
396.872	14.28
397.236	14.4
397.601	14.54
397.965	14.47
398.329	14.5
398.694	14.77
399.058	14.87
399.422	14.7
399.786	14.84
400.15	14.55
400.514	14.79
400.878	15.04
401.242	14.76
401.605	15.25
401.969	14.89
402.333	15.11
402.697	15.14
403.06	15.22
403.424	15.02
403.787	15.12
404.151	15.34
404.514	15.43
404.878	15.24
405.241	15.29
405.604	15.32
405.968	15.26
406.331	15.05
406.694	15.28
407.057	15.34
407.42	15.66
407.783	15.63
408.146	15.58
408.509	15.51
408.872	15.62
409.235	15.8
409.598	15.84
409.961	15.93
410.323	15.94
410.686	15.7
411.049	15.84
411.411	15.89
411.774	16.04
412.136	16.01
412.499	15.97
412.861	16.03
413.223	16.26
413.586	16.16
413.948	16.33
414.31	16.18
414.672	16.25
415.035	16.1
415.397	16.52
415.759	16.42
416.121	16.58
416.483	16.49
416.845	16.33
417.206	16.19
417.568	16.68
417.93	16.47
418.292	16.25
418.653	16.66
419.015	16.54
419.377	16.41
419.738	16.37
420.1	16.48
420.461	16.63
420.822	16.62
421.184	16.63
421.545	16.71
421.906	16.63
422.267	16.53
422.629	16.56
422.99	16.55
423.351	16.61
423.712	16.58
424.073	16.79
424.434	16.68
424.795	16.77
425.155	16.92
425.516	16.92
425.877	16.75
426.238	16.76
426.598	17.08
426.959	16.99
427.32	17.15
427.68	17.17
428.041	17.29
428.401	17.2
428.761	17.5
429.122	17.53
429.482	17.68
429.842	17.6
430.202	17.73
430.563	17.78
430.923	17.82
431.283	17.69
431.643	18.02
432.003	18.07
432.363	18.18
432.722	17.95
433.082	18.05
433.442	17.94
433.802	18.3
434.161	18.05
434.521	18.15
434.881	18.18
435.24	18.15
435.6	18.14
435.959	18.25
436.319	18.2
436.678	18.37
437.037	18.39
437.396	18.51
437.756	18.69
438.115	18.54
438.474	18.54
438.833	18.53
439.192	18.54
439.551	18.58
439.91	18.55
440.269	18.72
440.628	18.7
440.987	18.53
441.345	18.55
441.704	18.7
442.063	18.75
442.421	18.61
442.78	18.65
443.138	18.83
443.497	18.87
443.855	19
444.214	18.99
444.572	19.12
444.93	19.19
445.288	19.32
445.647	19.47
446.005	19.01
446.363	19.15
446.721	19.14
447.079	19.44
447.437	19.28
447.795	19.09
448.153	19.12
448.51	19.21
448.868	19.27
449.226	19.4
449.584	19.46
449.941	19.44
450.299	19.66
450.656	19.66
451.014	19.74
451.371	19.74
451.729	19.67
452.086	19.93
452.443	20.06
452.801	19.97
453.158	20.28
453.515	20.17
453.872	20.09
454.229	20.4
454.586	20.19
454.943	20.16
455.3	20.2
455.657	20.53
456.014	20.32
456.371	20.45
456.727	20.56
457.084	20.72
457.441	20.8
457.797	20.61
458.154	20.52
458.51	20.87
458.867	20.9
459.223	20.93
459.58	20.93
459.936	20.89
460.292	20.93
460.648	20.77
461.005	20.77
461.361	20.62
461.717	20.47
462.073	20.62
462.429	20.8
462.785	20.93
463.141	21.19
463.496	21.27
463.852	21.42
464.208	21.52
464.564	21.58
464.919	21.47
465.275	21.81
465.631	21.56
465.986	21.77
466.342	21.66
466.697	21.55
467.052	21.83
467.408	21.92
467.763	21.92
468.118	21.92
468.473	21.96
468.829	21.89
469.184	22.03
469.539	22.06
469.894	22.31
470.249	22.21
470.603	22.34
470.958	22.39
471.313	22.37
471.668	22.29
472.023	22.45
472.377	22.59
472.732	22.34
473.086	22.65
473.441	22.57
473.795	22.85
474.15	22.53
474.504	22.54
474.859	22.5
475.213	22.89
475.567	22.85
475.921	22.81
476.275	22.94
476.63	22.96
476.984	23.17
477.338	22.9
477.692	22.87
478.045	23.11
478.399	22.9
478.753	22.93
479.107	22.94
479.461	23.06
479.814	23.23
480.168	23.01
480.521	23.16
480.875	23.17
481.228	23.48
481.582	23.36
481.935	23.36
482.289	23.49
482.642	23.41
482.995	23.29
483.348	23.36
483.701	23.24
484.055	23.26
484.408	23.07
484.761	22.86
485.114	22.55
485.466	22.13
485.819	22.18
486.172	22.5
486.525	22.9
486.878	23.23
487.23	23.48
487.583	23.49
487.936	23.52
488.288	23.47
488.641	23.31
488.993	23.11
489.345	23.02
489.698	23.06
490.05	23.25
490.402	23.47
490.754	23.69
491.107	23.92
491.459	24.07
491.811	24.15
492.163	24.17
492.515	24.18
492.866	23.98
493.218	23.53
493.57	23.44
493.922	23.75
494.274	24.06
494.625	24.39
494.977	24.43
495.328	24.82
495.68	24.87
496.031	24.85
496.383	25.19
496.734	25.35
497.086	25.26
497.437	25.15
497.788	25.14
498.139	25.25
498.49	25.07
498.842	25.04
499.193	25.05
499.544	25.21
499.894	25.59
500.245	25.51
500.596	25.54
500.947	25.79
501.298	25.79
501.648	25.87
501.999	25.92
502.35	26.15
502.7	25.98
503.051	26.08
503.401	26.11
503.752	26.26
504.102	26.3
504.452	26.3
504.803	26.19
505.153	26.44
505.503	26.27
505.853	26.38
506.203	26.48
506.553	26.38
506.903	26.47
507.253	26.55
507.603	26.56
507.953	26.8
508.303	26.77
508.652	26.67
509.002	26.62
509.352	26.91
509.701	26.77
510.051	26.75
510.4	26.69
510.75	26.85
511.099	26.96
511.449	26.85
511.798	26.9
512.147	26.99
512.496	27.13
512.846	27.15
513.195	27.3
513.544	27.25
513.893	27.19
514.242	27.16
514.591	27.33
514.939	27.29
515.288	27.54
515.637	27.56
515.986	27.73
516.334	27.66
516.683	27.7
517.032	27.71
517.38	27.76
517.729	28.09
518.077	27.8
518.426	27.98
518.774	27.94
519.122	27.92
519.47	27.86
519.819	27.9
520.167	27.55
520.515	27.62
520.863	27.81
521.211	27.91
521.559	28.08
521.907	28.23
522.255	28.4
522.602	28.53
522.95	28.57
523.298	28.54
523.645	28.71
523.993	28.73
524.341	28.75
524.688	28.94
525.036	29.02
525.383	28.83
525.73	29.13
526.078	28.95
526.425	28.89
526.772	28.71
527.119	28.56
527.466	28.45
527.814	28.63
528.161	28.67
528.508	28.84
528.854	28.9
529.201	28.77
529.548	28.62
529.895	28.38
530.242	27.85
530.588	27.83
530.935	28.45
531.282	28.75
531.628	28.89
531.975	29.08
532.321	29.2
532.667	29.42
533.014	29.54
533.36	29.59
533.706	29.51
534.052	29.52
534.399	29.35
534.745	29.15
535.091	29.03
535.437	29.28
535.783	29.46
536.129	29.87
536.474	30.06
536.82	30.18
537.166	30.26
537.512	30.3
537.857	30.06
538.203	29.94
538.549	29.94
538.894	30.03
539.239	30.23
539.585	30.56
539.93	30.62
540.276	30.88
540.621	30.85
540.966	31
541.311	31.16
541.656	31.04
542.001	30.91
542.346	30.57
542.691	30.42
543.036	30.01
543.381	30.01
543.726	30.36
544.071	30.67
544.415	30.99
544.76	30.98
545.105	31.07
545.449	31.17
545.794	31.26
546.138	31.4
546.483	31.66
546.827	31.57
547.171	31.79
547.516	31.63
547.86	31.91
548.204	31.67
548.548	31.62
548.892	31.69
549.236	31.85
549.58	32.06
549.924	32.25
550.268	32.35
550.612	32.53
550.956	32.66
551.3	32.83
551.643	32.81
551.987	32.88
552.33	32.86
552.674	33.14
553.017	32.87
553.361	33.19
553.704	33.02
554.048	33.23
554.391	33.1
554.734	33.02
555.077	33.19
555.42	33.34
555.764	33.28
556.107	33.65
556.45	33.72
556.793	33.67
557.135	33.78
557.478	33.84
557.821	34.02
558.164	34.18
558.507	34.28
558.849	34.05
559.192	34.18
559.534	34.41
559.877	33.92
560.219	34.22
560.562	34.31
560.904	34.24
561.246	34.38
561.589	34.42
561.931	34.56
562.273	34.45
562.615	34.81
562.957	34.73
563.299	34.76
563.641	34.61
563.983	34.79
564.325	34.8
564.667	35.1
565.008	35
565.35	34.91
565.692	35.1
566.033	34.97
566.375	35.15
566.716	35.13
567.058	34.97
567.399	35.22
567.741	35.19
568.082	34.99
568.423	35.12
568.764	35.26
569.105	35.44
569.447	35.54
569.788	35.55
570.129	35.97
570.47	35.53
570.811	36.13
571.151	35.97
571.492	35.93
571.833	35.99
572.174	35.92
572.514	35.94
572.855	35.85
573.195	35.85
573.536	35.79
573.876	35.95
574.217	35.83
574.557	35.88
574.898	36.07
575.238	36.37
575.578	36.49
575.918	36.31
576.258	36.34
576.598	36.68
576.938	36.31
577.278	36.42
577.618	36.4
577.958	36.87
578.298	36.5
578.638	37
578.977	36.95
579.317	37.08
579.657	37.24
579.996	37.3
580.336	37.22
580.675	37.28
581.014	37.66
581.354	37.42
581.693	37.96
582.032	37.62
582.372	37.79
582.711	37.99
583.05	38.12
583.389	37.86
583.728	37.65
584.067	38.08
584.406	38.18
584.745	38.18
585.083	38.4
585.422	38.24
585.761	38.25
586.1	38.42
586.438	38.23
586.777	38.55
587.115	38.89
587.454	38.87
587.792	38.56
588.13	38.66
588.469	38.9
588.807	38.6
589.145	39.1
589.483	39.07
589.821	38.98
590.159	38.93
590.497	38.95
590.835	39.26
591.173	38.68
591.511	38.94
591.849	39.16
592.187	39.04
592.524	39
592.862	39.47
593.2	39.26
593.537	39.61
593.875	39.62
594.212	39.79
594.55	39.62
594.887	39.22
595.224	39.68
595.561	39.87
595.899	39.78
596.236	40.28
596.573	39.76
596.91	39.76
597.247	39.84
597.584	39.63
597.921	39.88
598.258	39.94
598.594	39.81
598.931	39.4
599.268	39.74
599.604	40.18
599.941	40.21
600.277	40.25
600.614	40.45
600.95	40.6
601.287	40.31
601.623	40.83
601.959	40.92
602.296	40.89
602.632	40.79
602.968	40.93
603.304	40.95
603.64	40.81
603.976	40.77
604.312	40.98
604.648	41.1
604.984	41.2
605.319	40.54
605.655	40.71
605.991	40.79
606.326	40.75
606.662	40.52
606.998	40.84
607.333	41.09
607.668	41.22
608.004	41.37
608.339	41.22
608.674	41.46
609.01	41.88
609.345	42.09
609.68	41.8
610.015	41.81
610.35	42.21
610.685	41.96
611.02	41.38
611.355	41.6
611.689	41.5
612.024	41.71
612.359	41.72
612.694	42.09
613.028	42.07
613.363	42.42
613.697	42.2
614.032	42.59
614.366	42.5
614.7	42.49
615.035	42.44
615.369	42.87
615.703	43.14
616.037	42.73
616.371	42.88
616.705	42.85
617.039	43.06
617.373	43
617.707	43.44
618.041	43.3
618.375	43.3
618.709	42.96
619.042	43.11
619.376	43.5
619.71	43.3
620.043	43.24
620.377	43.2
620.71	43.32
621.043	43.8
621.377	43.72
621.71	43.22
622.043	44.1
622.376	43.4
622.709	43.53
623.043	43.84
623.376	43.66
623.709	44.24
624.041	44.08
624.374	44.41
624.707	44.19
625.04	44.46
625.373	44.17
625.705	44.24
626.038	44.42
626.37	44.07
626.703	44.09
627.035	43.93
627.368	44.77
627.7	44.27
628.032	44.02
628.365	44.42
628.697	44.4
629.029	44.5
629.361	44.44
629.693	44.49
630.025	44.83
630.357	45.11
630.689	44.95
631.021	44.94
631.353	45.29
631.684	45.09
632.016	45.12
632.348	45.1
632.679	44.88
633.011	44.89
633.342	45.03
633.674	45.63
634.005	45.38
634.336	45.56
634.668	45.18
634.999	46.04
635.33	45.61
635.661	45.79
635.992	45.62
636.323	45.74
636.654	45.94
636.985	45.52
637.316	45.77
637.647	45.75
637.977	45.87
638.308	46.11
638.639	46.35
638.969	46.35
639.3	46.09
639.63	46.51
639.961	46.42
640.291	46.14
640.622	46.3
640.952	46.92
641.282	47.16
641.612	46.98
641.943	46.55
642.273	46.66
642.603	46.81
642.933	46.64
643.263	46.77
643.592	47.07
643.922	46.74
644.252	46.99
644.582	46.9
644.911	47.21
645.241	47.22
645.571	47.06
645.9	46.95
646.23	47.31
646.559	47.31
646.888	47.46
647.218	47.27
647.547	46.85
647.876	47.27
648.205	47.18
648.534	47.04
648.863	47.73
649.192	47.63
649.521	47.67
649.85	47.75
650.179	47.52
650.508	47.84
650.837	47.64
651.165	48.27
651.494	47.68
651.822	47.85
652.151	47.88
652.479	47.6
652.808	47.93
653.136	48.26
653.465	48.1
653.793	48.36
654.121	48.08
654.449	48.06
654.777	47.73
655.105	48.56
655.433	48.41
655.761	48.64
656.089	48.61
656.417	48.86
656.745	48.86
657.073	48.99
657.4	49.21
657.728	48.6
658.056	49.12
658.383	48.92
658.711	48.13
659.038	48.78
659.365	49.1
659.693	49.13
660.02	48.13
660.347	48.9
660.674	48.65
661.001	48.46
661.329	48.7
661.656	48.5
661.982	48.61
662.309	48.93
662.636	48.85
662.963	49.3
663.29	49.04
663.616	49.19
663.943	49.55
664.27	49.87
664.596	49.74
664.923	49.33
665.249	49.2
665.576	49.89
665.902	49.76
666.228	50.21
666.554	49.99
666.881	49.63
667.207	50.14
667.533	49.72
667.859	50.06
668.185	49.6
668.511	49.74
668.837	50.08
669.162	50.56
669.488	49.63
669.814	49.84
670.139	49.3
670.465	49.8
670.791	49.79
671.116	50.25
671.442	49.97
671.767	50.36
