Data from 0227_chest_Reflection__2__02.txt Node

Date: Fri Oct 20 20:37:45 CDT 2023
User: ToomeyLab
Spectrometer: FLMS14357
Trigger mode: 0
Integration Time (sec): 1.000000E-2
Scans to average: 100
Electric dark correction enabled: true
Nonlinearity correction enabled: false
Boxcar width: 0
XAxis mode: Wavelengths
Number of Pixels in Spectrum: 2048
>>>>>Begin Spectral Data<<<<<
189.047	280.98
189.435	280.98
189.823	280.98
190.211	-362.98
190.599	69.46
190.987	325.89
191.375	-454.08
191.763	121.01
192.151	-102.21
192.538	-623.35
192.926	308.71
193.314	136.22
193.702	50.97
194.089	100.94
194.477	298.91
194.864	149.93
195.252	-18.06
195.639	-354.13
196.027	566.5
196.414	10.75
196.801	-83.95
197.189	0.93
197.576	-746.21
197.963	-32.52
198.351	34.95
198.738	-8.12
199.125	39.86
199.512	27.29
199.899	29.49
200.286	-11.01
200.673	29.73
201.06	16.96
201.447	-8.25
201.833	29.74
202.22	-7.04
202.607	19.06
202.994	26.88
203.38	-37.06
203.767	-41.55
204.154	7.71
204.54	14.3
204.927	17.38
205.313	-16.19
205.699	33.89
206.086	15.47
206.472	10.34
206.858	40.43
207.245	-38.91
207.631	4.75
208.017	13.65
208.403	-9.95
208.789	32.19
209.175	-31.78
209.561	10.65
209.947	-9.41
210.333	21.94
210.719	28.83
211.105	9.26
211.491	27.03
211.876	6.79
212.262	-1.8
212.648	21.38
213.034	-7.22
213.419	-18.92
213.805	16.35
214.19	-19.73
214.576	5.39
214.961	22.58
215.346	29.34
215.732	9.06
216.117	-18.85
216.502	16.09
216.888	16.54
217.273	-20.07
217.658	7.05
218.043	17.66
218.428	-18.94
218.813	-5.17
219.198	13.78
219.583	-24.88
219.968	-1.13
220.353	10.13
220.738	12.52
221.122	-4.61
221.507	5.56
221.892	-5.15
222.276	-6.81
222.661	17.96
223.046	6.16
223.43	11.65
223.815	2.37
224.199	6.29
224.583	-2
224.968	-6.7
225.352	-3.75
225.736	-7.8
226.121	8.71
226.505	-0.5
226.889	3.46
227.273	1.1
227.657	8.73
228.041	0.81
228.425	3.55
228.809	3.28
229.193	1.17
229.577	3.55
229.961	1.89
230.344	2.24
230.728	1.59
231.112	3.06
231.495	2.02
231.879	2.1
232.263	2.59
232.646	2.02
233.03	0.32
233.413	1.41
233.797	1.97
234.18	2.13
234.563	2.87
234.946	2.77
235.33	1.67
235.713	2.22
236.096	2.21
236.479	1.97
236.862	1.91
237.245	0.56
237.628	2.8
238.011	2.06
238.394	0.66
238.777	3.37
239.16	1.48
239.543	3.75
239.925	3
240.308	1.77
240.691	1.98
241.073	2.77
241.456	2.86
241.838	1.34
242.221	2.76
242.603	2.81
242.986	3.3
243.368	2.72
243.75	2.16
244.133	1.62
244.515	1.63
244.897	2.41
245.279	2.1
245.661	1.75
246.043	2.06
246.425	2.31
246.807	2.75
247.189	1.67
247.571	1.87
247.953	2.1
248.335	2.36
248.717	1.81
249.098	1.99
249.48	2.08
249.862	2.27
250.243	2.23
250.625	2.22
251.006	2.6
251.388	2.28
251.769	2.74
252.151	2.39
252.532	2.19
252.913	2.15
253.295	1.27
253.676	2.58
254.057	2.15
254.438	2.02
254.819	1.88
255.2	2.47
255.581	1.74
255.962	2.6
256.343	1.49
256.724	1.76
257.105	2.27
257.486	3.07
257.867	2.2
258.247	2.82
258.628	2.06
259.009	1.73
259.389	2.3
259.77	1.95
260.15	2.45
260.531	2.94
260.911	2.32
261.292	2.15
261.672	2.01
262.052	2.15
262.432	1.94
262.813	1.97
263.193	2.14
263.573	1.87
263.953	1.71
264.333	2.24
264.713	2.17
265.093	3.13
265.473	2.12
265.853	1.8
266.233	1.93
266.612	2.04
266.992	2.28
267.372	2.44
267.752	2.27
268.131	2.35
268.511	2.25
268.89	1.92
269.27	1.88
269.649	1.68
270.029	2.05
270.408	2.21
270.787	2.39
271.167	1.57
271.546	2.68
271.925	2.6
272.304	2.26
272.683	1.96
273.062	1.98
273.441	2.27
273.82	2.04
274.199	2.08
274.578	2.67
274.957	2.36
275.336	2.23
275.715	2.45
276.093	1.77
276.472	2.15
276.851	2.44
277.229	2.16
277.608	1.54
277.986	1.55
278.365	2.97
278.743	2.21
279.122	2.02
279.5	2.07
279.878	1.6
280.257	2.08
280.635	1.84
281.013	2.63
281.391	2.89
281.769	2.09
282.147	2.19
282.525	2.34
282.903	1.91
283.281	2.21
283.659	2.06
284.037	2.01
284.415	1.67
284.792	2.05
285.17	1.9
285.548	1.97
285.925	1.79
286.303	1.86
286.68	1.79
287.058	2.41
287.435	2.24
287.813	1.84
288.19	2.02
288.567	2.11
288.945	2.24
289.322	2.24
289.699	1.47
290.076	2.66
290.453	2.35
290.83	1.81
291.207	2.54
291.584	1.76
291.961	1.49
292.338	1.67
292.715	2.03
293.092	2.12
293.469	2.52
293.845	1.86
294.222	2.32
294.599	2.43
294.975	3.14
295.352	2.03
295.728	2.29
296.105	2.23
296.481	2.06
296.858	2.05
297.234	1.98
297.61	1.63
297.986	1.82
298.363	2.03
298.739	1.8
299.115	1.97
299.491	2.23
299.867	2.17
300.243	2.48
300.619	1.99
300.995	2.13
301.371	2.38
301.746	2.16
302.122	2.41
302.498	2.27
302.874	2.07
303.249	2.02
303.625	2.28
304	2.38
304.376	1.85
304.751	1.87
305.127	1.91
305.502	2.22
305.878	2
306.253	2.6
306.628	2.81
307.003	2.3
307.378	2.43
307.754	2.33
308.129	2.1
308.504	2.48
308.879	1.94
309.254	2.48
309.629	1.99
310.003	1.7
310.378	2.52
310.753	2.3
311.128	2.72
311.502	2.69
311.877	2.2
312.252	1.9
312.626	2.37
313.001	2.41
313.375	2.47
313.75	2.2
314.124	2.22
314.498	2.28
314.873	2.05
315.247	2
315.621	2.43
315.995	2.6
316.369	2.4
316.743	2.39
317.117	2.32
317.491	1.87
317.865	2.33
318.239	2.68
318.613	2.4
318.987	2.01
319.361	2.23
319.734	2.16
320.108	2.28
320.482	2.24
320.855	2.63
321.229	3.56
321.602	2.65
321.976	2.2
322.349	2.41
322.723	2.43
323.096	2.67
323.469	2.57
323.843	2.38
324.216	2.61
324.589	2.67
324.962	2.35
325.335	2.74
325.708	2.36
326.081	2.5
326.454	3.1
326.827	2.94
327.2	2.61
327.573	3.11
327.945	2.5
328.318	2.24
328.691	2.5
329.063	2.84
329.436	2.35
329.809	2.8
330.181	3.24
330.553	2.57
330.926	2.45
331.298	2.48
331.671	2.35
332.043	2.27
332.415	2.61
332.787	3.27
333.159	2.2
333.532	2.73
333.904	2.34
334.276	2.18
334.648	2.63
335.02	3.05
335.391	2.24
335.763	2.75
336.135	2.78
336.507	2.55
336.879	2.66
337.25	2.66
337.622	2.76
337.993	3.19
338.365	2.35
338.736	2.81
339.108	2.68
339.479	2.85
339.851	2.71
340.222	2.88
340.593	2.3
340.964	2.51
341.336	2.87
341.707	2.24
342.078	2.51
342.449	2.05
342.82	2.25
343.191	2.12
343.562	3.1
343.933	2.4
344.303	2.7
344.674	2.84
345.045	2.78
345.416	3
345.786	2.85
346.157	2.58
346.527	2.42
346.898	2.37
347.268	2.61
347.639	2.73
348.009	2.35
348.38	2.77
348.75	2.89
349.12	2.51
349.49	2.59
349.861	3.11
350.231	2.62
350.601	3.17
350.971	2.75
351.341	2.78
351.711	2.95
352.081	3.12
352.45	3.07
352.82	2.59
353.19	2.89
353.56	3.11
353.929	2.77
354.299	2.55
354.669	2.66
355.038	2.75
355.408	3.09
355.777	2.73
356.147	2.59
356.516	2.53
356.885	2.84
357.254	2.77
357.624	2.61
357.993	2.89
358.362	2.85
358.731	2.35
359.1	2.3
359.469	2.54
359.838	2.64
360.207	2.78
360.576	2.94
360.945	2.57
361.314	2.8
361.682	2.64
362.051	2.71
362.42	2.76
362.788	2.94
363.157	2.94
363.525	2.71
363.894	2.71
364.262	2.56
364.631	2.97
364.999	2.77
365.367	2.71
365.735	2.53
366.104	2.72
366.472	2.71
366.84	3.02
367.208	2.7
367.576	2.63
367.944	2.99
368.312	2.64
368.68	2.83
369.048	2.62
369.416	3
369.783	2.93
370.151	2.87
370.519	2.9
370.886	2.91
371.254	2.93
371.621	2.79
371.989	2.97
372.356	3.07
372.724	3.01
373.091	2.8
373.458	2.74
373.826	2.61
374.193	2.75
374.56	2.76
374.927	2.83
375.294	3.02
375.661	2.77
376.028	3.05
376.395	2.94
376.762	2.75
377.129	2.92
377.496	2.96
377.863	3.17
378.229	3.05
378.596	3.01
378.963	3.03
379.329	2.66
379.696	2.99
380.062	3.13
380.429	2.69
380.795	2.64
381.161	2.77
381.528	3.22
381.894	2.74
382.26	2.82
382.626	3.28
382.993	2.87
383.359	3.08
383.725	2.92
384.091	2.93
384.457	2.91
384.823	2.89
385.188	3.36
385.554	3.01
385.92	3.02
386.286	3.21
386.651	2.77
387.017	3.14
387.383	2.64
387.748	3.11
388.114	2.49
388.479	2.89
388.845	3.37
389.21	2.83
389.575	2.68
389.94	2.81
390.306	3
390.671	2.95
391.036	3
391.401	3.29
391.766	3.13
392.131	3.03
392.496	3.08
392.861	2.89
393.226	2.9
393.591	2.9
393.956	3.1
394.32	3.19
394.685	2.8
395.05	3.3
395.414	3.14
395.779	2.83
396.143	2.99
396.508	2.88
396.872	3.24
397.236	3.02
397.601	2.96
397.965	2.97
398.329	2.82
398.694	3.19
399.058	2.98
399.422	3
399.786	2.95
400.15	3.02
400.514	2.81
400.878	3
401.242	3.17
401.605	3.06
401.969	3.01
402.333	3.17
402.697	3.22
403.06	3.11
403.424	2.95
403.787	3.07
404.151	3.08
404.514	3.25
404.878	3.04
405.241	3.22
405.604	2.93
405.968	3.31
406.331	2.96
406.694	3.15
407.057	2.94
407.42	3.16
407.783	3.05
408.146	3.17
408.509	3.04
408.872	3.39
409.235	3.27
409.598	3.3
409.961	3.09
410.323	3.11
410.686	3.15
411.049	3.11
411.411	2.97
411.774	3.29
412.136	2.92
412.499	3.14
412.861	3.17
413.223	3.22
413.586	3.26
413.948	3.22
414.31	3.33
414.672	2.9
415.035	3.29
415.397	3.11
415.759	3.22
416.121	3.31
416.483	3.39
416.845	3.25
417.206	3.1
417.568	3.47
417.93	3.5
418.292	3.03
418.653	3.44
419.015	3.11
419.377	3.23
419.738	3.25
420.1	3.14
420.461	3.07
420.822	3.09
421.184	3.14
421.545	3.23
421.906	3.15
422.267	3.04
422.629	3.19
422.99	3.17
423.351	3.14
423.712	3.05
424.073	3.23
424.434	3.05
424.795	3.16
425.155	3.14
425.516	3.07
425.877	3.19
426.238	3.09
426.598	3.15
426.959	3.06
427.32	3.11
427.68	3.17
428.041	3.08
428.401	3.19
428.761	3.38
429.122	3.26
429.482	3.29
429.842	3.39
430.202	3.35
430.563	3.3
430.923	3.32
431.283	3.36
431.643	3.35
432.003	3.63
432.363	3.28
432.722	3.44
433.082	3.39
433.442	3.18
433.802	3.39
434.161	3.31
434.521	3.36
434.881	3.48
435.24	3.41
435.6	3.39
435.959	3.38
436.319	3.3
436.678	3.38
437.037	3.34
437.396	3.46
437.756	3.39
438.115	3.27
438.474	3.5
438.833	3.51
439.192	3.18
439.551	3.4
439.91	3.45
440.269	3.48
440.628	3.47
440.987	3.22
441.345	3.29
441.704	3.47
442.063	3.39
442.421	3.36
442.78	3.37
443.138	3.52
443.497	3.47
443.855	3.5
444.214	3.5
444.572	3.37
444.93	3.36
445.288	3.45
445.647	3.56
446.005	3.28
446.363	3.47
446.721	3.38
447.079	3.51
447.437	3.4
447.795	3.41
448.153	3.36
448.51	3.41
448.868	3.31
449.226	3.38
449.584	3.48
449.941	3.37
450.299	3.47
450.656	3.34
451.014	3.54
451.371	3.41
451.729	3.49
452.086	3.45
452.443	3.6
452.801	3.49
453.158	3.68
453.515	3.52
453.872	3.55
454.229	3.66
454.586	3.56
454.943	3.45
455.3	3.49
455.657	3.55
456.014	3.47
456.371	3.56
456.727	3.61
457.084	3.67
457.441	3.59
457.797	3.55
458.154	3.52
458.51	3.56
458.867	3.52
459.223	3.6
459.58	3.6
459.936	3.72
460.292	3.65
460.648	3.5
461.005	3.54
461.361	3.6
461.717	3.44
462.073	3.47
462.429	3.62
462.785	3.49
463.141	3.68
463.496	3.57
463.852	3.64
464.208	3.73
464.564	3.65
464.919	3.53
465.275	3.78
465.631	3.69
465.986	3.83
466.342	3.58
466.697	3.6
467.052	3.69
467.408	3.64
467.763	3.76
468.118	3.91
468.473	3.66
468.829	3.61
469.184	3.72
469.539	3.67
469.894	3.8
470.249	3.73
470.603	3.58
470.958	3.84
471.313	3.86
471.668	3.78
472.023	3.82
472.377	3.83
472.732	3.7
473.086	3.89
473.441	3.92
473.795	3.99
474.15	3.74
474.504	3.7
474.859	3.77
475.213	3.89
475.567	3.89
475.921	3.96
476.275	3.92
476.63	4.01
476.984	3.87
477.338	3.93
477.692	3.92
478.045	3.89
478.399	3.88
478.753	3.83
479.107	3.92
479.461	3.9
479.814	4.04
480.168	4.05
480.521	3.96
480.875	3.91
481.228	3.92
481.582	4.02
481.935	3.85
482.289	3.97
482.642	3.84
482.995	3.81
483.348	4.04
483.701	3.98
484.055	3.9
484.408	3.87
484.761	3.88
485.114	3.72
485.466	3.73
485.819	3.66
486.172	3.62
486.525	3.68
486.878	3.76
487.23	3.84
487.583	3.89
487.936	3.89
488.288	3.83
488.641	3.86
488.993	3.81
489.345	3.86
489.698	3.76
490.05	3.79
490.402	3.87
490.754	3.88
491.107	3.93
491.459	4.01
491.811	4.04
492.163	4.08
492.515	4.1
492.866	4.01
493.218	3.9
493.57	3.83
493.922	3.88
494.274	4
494.625	3.98
494.977	4.01
495.328	4.12
495.68	4.2
496.031	4.12
496.383	4.16
496.734	4.22
497.086	4.17
497.437	4.16
497.788	4.19
498.139	4.36
498.49	4.17
498.842	4.14
499.193	4.2
499.544	4.25
499.894	4.28
500.245	4.2
500.596	4.26
500.947	4.21
501.298	4.33
501.648	4.23
501.999	4.39
502.35	4.35
502.7	4.41
503.051	4.45
503.401	4.4
503.752	4.43
504.102	4.45
504.452	4.35
504.803	4.38
505.153	4.54
505.503	4.37
505.853	4.48
506.203	4.35
506.553	4.4
506.903	4.51
507.253	4.45
507.603	4.48
507.953	4.44
508.303	4.46
508.652	4.48
509.002	4.5
509.352	4.57
509.701	4.64
510.051	4.36
510.4	4.44
510.75	4.48
511.099	4.51
511.449	4.51
511.798	4.56
512.147	4.47
512.496	4.54
512.846	4.54
513.195	4.55
513.544	4.64
513.893	4.45
514.242	4.53
514.591	4.63
514.939	4.67
515.288	4.64
515.637	4.68
515.986	4.71
516.334	4.69
516.683	4.69
517.032	4.57
517.38	4.62
517.729	4.72
518.077	4.74
518.426	4.68
518.774	4.59
519.122	4.73
519.47	4.74
519.819	4.7
520.167	4.69
520.515	4.72
520.863	4.72
521.211	4.62
521.559	4.91
521.907	4.86
522.255	4.78
522.602	4.93
522.95	4.77
523.298	4.79
523.645	4.8
523.993	4.86
524.341	4.88
524.688	4.92
525.036	4.98
525.383	4.84
525.73	5.12
526.078	5.05
526.425	5.01
526.772	4.83
527.119	4.9
527.466	4.91
527.814	4.92
528.161	4.91
528.508	4.86
528.854	4.88
529.201	4.89
529.548	4.96
529.895	4.95
530.242	4.84
530.588	4.82
530.935	4.8
531.282	4.91
531.628	4.97
531.975	4.92
532.321	5.06
532.667	5.04
533.014	5.12
533.36	5.21
533.706	5.15
534.052	5.24
534.399	5.03
534.745	5.07
535.091	5.08
535.437	5.16
535.783	5.1
536.129	5.21
536.474	5.22
536.82	5.29
537.166	5.26
537.512	5.41
537.857	5.38
538.203	5.3
538.549	5.43
538.894	5.28
539.239	5.4
539.585	5.42
539.93	5.47
540.276	5.64
540.621	5.64
540.966	5.6
541.311	5.63
541.656	5.61
542.001	5.63
542.346	5.53
542.691	5.48
543.036	5.44
543.381	5.42
543.726	5.39
544.071	5.45
544.415	5.55
544.76	5.52
545.105	5.62
545.449	5.66
545.794	5.67
546.138	5.73
546.483	5.74
546.827	5.75
547.171	5.88
547.516	5.75
547.86	5.85
548.204	5.81
548.548	5.78
548.892	5.81
549.236	5.87
549.58	5.88
549.924	5.89
550.268	6.07
550.612	6.05
550.956	6.21
551.3	6.11
551.643	6.02
551.987	6.17
552.33	6.17
552.674	6.17
553.017	6.19
553.361	6.32
553.704	6.25
554.048	6.35
554.391	6.29
554.734	6.34
555.077	6.25
555.42	6.28
555.764	6.35
556.107	6.58
556.45	6.36
556.793	6.34
557.135	6.3
557.478	6.52
557.821	6.73
558.164	6.62
558.507	6.65
558.849	6.64
559.192	6.51
559.534	6.75
559.877	6.58
560.219	6.85
560.562	6.76
560.904	6.53
561.246	6.87
561.589	6.76
561.931	6.87
562.273	6.97
562.615	6.87
562.957	6.76
563.299	7
563.641	7.05
563.983	6.66
564.325	6.76
564.667	7.04
565.008	6.83
565.35	6.89
565.692	6.94
566.033	7.08
566.375	7.24
566.716	7.16
567.058	7.05
567.399	7
567.741	6.98
568.082	7.2
568.423	7.15
568.764	7.14
569.105	7.28
569.447	7.1
569.788	7.17
570.129	7.3
570.47	7.39
570.811	7.37
571.151	7.16
571.492	7.41
571.833	7.6
572.174	7.6
572.514	7.57
572.855	7.46
573.195	7.51
573.536	7.4
573.876	7.39
574.217	7.49
574.557	7.52
574.898	7.53
575.238	7.62
575.578	7.74
575.918	7.58
576.258	7.69
576.598	7.86
576.938	7.81
577.278	7.77
577.618	7.66
577.958	7.79
578.298	7.88
578.638	7.85
578.977	7.86
579.317	7.97
579.657	8.04
579.996	8.08
580.336	8.13
580.675	8.07
581.014	8.11
581.354	8.08
581.693	8.22
582.032	8.17
582.372	8.27
582.711	8.26
583.05	8.57
583.389	8.58
583.728	8.45
584.067	8.38
584.406	8.33
584.745	8.41
585.083	8.36
585.422	8.44
585.761	8.5
586.1	8.72
586.438	8.34
586.777	8.86
587.115	8.78
587.454	8.66
587.792	8.57
588.13	8.81
588.469	8.82
588.807	8.47
589.145	8.96
589.483	8.79
589.821	8.69
590.159	8.73
590.497	8.91
590.835	8.99
591.173	8.98
591.511	9.07
591.849	9.01
592.187	9.05
592.524	8.8
592.862	9.18
593.2	9.24
593.537	9.26
593.875	9.19
594.212	9.52
594.55	9.42
594.887	9.45
595.224	9.22
595.561	9.41
595.899	9.38
596.236	9.45
596.573	9.42
596.91	9.53
597.247	9.63
597.584	9.36
597.921	9.58
598.258	9.72
598.594	9.45
598.931	9.57
599.268	9.55
599.604	9.66
599.941	9.58
600.277	9.95
600.614	9.93
600.95	9.81
601.287	9.85
601.623	10.02
601.959	9.77
602.296	10.01
602.632	9.85
602.968	9.87
603.304	10.21
603.64	10.25
603.976	10.14
604.312	10.51
604.648	10.42
604.984	10.1
605.319	10.18
605.655	10.17
605.991	10.14
606.326	10.16
606.662	10.14
606.998	10.05
607.333	10.43
607.668	10.19
608.004	10.3
608.339	10.32
608.674	10.68
609.01	10.55
609.345	10.81
609.68	10.8
610.015	10.68
610.35	10.93
610.685	10.81
611.02	10.77
611.355	10.62
611.689	10.64
612.024	10.98
612.359	10.83
612.694	10.99
613.028	11.05
613.363	10.93
613.697	11.17
614.032	11.19
614.366	11.22
614.7	11.23
615.035	11.22
615.369	11.45
615.703	11.07
616.037	11.24
616.371	11.45
616.705	11.53
617.039	11.41
617.373	11.5
617.707	11.97
618.041	11.76
618.375	11.57
618.709	11.57
619.042	11.48
619.376	11.78
619.71	11.76
620.043	12.03
620.377	11.66
620.71	11.73
621.043	11.81
621.377	11.8
621.71	11.96
622.043	11.88
622.376	11.49
622.709	12.16
623.043	12.05
623.376	11.77
623.709	11.93
624.041	12.05
624.374	12.25
624.707	12.2
625.04	12.23
625.373	12.59
625.705	11.89
626.038	12.69
626.37	12.41
626.703	12.35
627.035	12.22
627.368	12.6
627.7	12.4
628.032	12.44
628.365	12.63
628.697	12.71
629.029	12.73
629.361	12.68
629.693	12.82
630.025	12.77
630.357	12.96
630.689	12.78
631.021	13.19
631.353	12.6
631.684	12.93
632.016	12.88
632.348	13.15
632.679	12.89
633.011	12.96
633.342	13.03
633.674	12.97
634.005	13.56
634.336	13.49
634.668	13.03
634.999	13.46
635.33	12.99
635.661	13.75
635.992	13.49
636.323	13.68
636.654	13.56
636.985	13.52
637.316	13.72
637.647	13.69
637.977	13.57
638.308	13.3
638.639	13.79
638.969	13.68
639.3	13.53
639.63	13.83
639.961	13.86
640.291	13.74
640.622	14.02
640.952	13.83
641.282	13.99
641.612	14.05
641.943	13.97
642.273	13.82
642.603	14.36
642.933	14.45
643.263	14.39
643.592	14.18
643.922	14.43
644.252	13.49
644.582	14.34
644.911	14.26
645.241	14.82
645.571	14.8
645.9	14.82
646.23	14.63
646.559	14.5
646.888	14.51
647.218	14.72
647.547	14.58
647.876	14.56
648.205	14.86
648.534	14.76
648.863	15.04
649.192	15.18
649.521	14.8
649.85	14.97
650.179	14.85
650.508	15.16
650.837	15.51
651.165	15.35
651.494	15.63
651.822	15.25
652.151	15.55
652.479	15.14
652.808	15.21
653.136	15.05
653.465	15.89
653.793	15.49
654.121	15.47
654.449	15.52
654.777	15.6
655.105	15.77
655.433	15.74
655.761	16.03
656.089	15.97
656.417	16.05
656.745	15.77
657.073	15.67
657.4	16.46
657.728	15.94
658.056	15.77
658.383	15.96
658.711	16.02
659.038	16.62
659.365	16.11
659.693	16.37
660.02	15.98
660.347	16.32
660.674	16.05
661.001	16.03
661.329	16.33
661.656	16.27
661.982	16.38
662.309	16.24
662.636	16.49
662.963	16.38
663.29	16.08
663.616	16.73
663.943	16.32
664.27	16.8
664.596	16.78
664.923	16.55
665.249	16.82
665.576	15.99
665.902	16.93
666.228	16.71
666.554	17.4
666.881	16.6
667.207	16.9
667.533	17.33
667.859	17.01
668.185	17.07
668.511	16.87
668.837	17.25
669.162	17.6
669.488	17.53
669.814	17.13
670.139	17.29
670.465	16.91
670.791	17.51
671.116	17.69
671.442	17.39
671.767	17.79
672.092	17.75
672.418	17.12
672.743	17.56
673.068	17.75
673.393	17.72
673.718	18.26
674.043	17.57
674.368	18.33
674.693	18.24
675.018	18.06
675.343	17.79
675.667	18.72
675.992	17.77
676.317	18.13
676.641	18.28
676.966	17.75
677.29	18.75
677.615	18.06
677.939	18.95
678.264	18.24
678.588	17.89
678.912	18.5
679.236	17.92
679.56	18.67
679.885	18.79
680.209	17.83
680.532	18.44
680.856	18.52
681.18	18.58
681.504	18.81
681.828	18.96
682.152	18.36
682.475	18.79
682.799	18.6
683.122	18.7
683.446	18.97
683.769	18.63
684.093	18.8
684.416	19.3
684.739	18.59
685.062	18.26
685.386	19
685.709	18.98
686.032	18.98
686.355	19.57
686.678	18.92
