Data from 0227_crown_Reflection__0__05.txt Node

Date: Fri Oct 20 20:39:29 CDT 2023
User: ToomeyLab
Spectrometer: FLMS14357
Trigger mode: 0
Integration Time (sec): 1.000000E-2
Scans to average: 100
Electric dark correction enabled: true
Nonlinearity correction enabled: false
Boxcar width: 0
XAxis mode: Wavelengths
Number of Pixels in Spectrum: 2048
>>>>>Begin Spectral Data<<<<<
189.047	65.65
189.435	65.65
189.823	65.65
190.211	713.15
190.599	102.8
190.987	468.93
191.375	121.85
191.763	-9.02
192.151	-60.22
192.538	-191.62
192.926	51.09
193.314	127.39
193.702	107.25
194.089	127.67
194.477	497.82
194.864	63.85
195.252	75.29
195.639	-18.47
196.027	-402.09
196.414	17.24
196.801	95.46
197.189	49.54
197.576	539.12
197.963	2.9
198.351	50.3
198.738	2.44
199.125	25.03
199.512	46.8
199.899	-0.42
200.286	17.44
200.673	22.03
201.06	24.43
201.447	-25.17
201.833	20.65
202.22	55.92
202.607	53.69
202.994	35.38
203.38	11.93
203.767	23.98
204.154	32.6
204.54	60.68
204.927	21.42
205.313	13.45
205.699	18
206.086	-2.53
206.472	52.77
206.858	41.61
207.245	12.75
207.631	33.09
208.017	14.77
208.403	27.22
208.789	32.13
209.175	28.59
209.561	34.73
209.947	-0.02
210.333	22.85
210.719	17.11
211.105	10.94
211.491	37.12
211.876	-11.49
212.262	27.61
212.648	26.72
213.034	9.57
213.419	22.76
213.805	15.56
214.19	11.75
214.576	24.62
214.961	17.62
215.346	28.25
215.732	7.78
216.117	3.42
216.502	19.78
216.888	14.95
217.273	16.45
217.658	20.09
218.043	1.33
218.428	-13.77
218.813	16.05
219.198	20.92
219.583	-10.05
219.968	3.33
220.353	20.32
220.738	13.23
221.122	8.27
221.507	10.9
221.892	17.35
222.276	22.72
222.661	18.7
223.046	10.58
223.43	5.87
223.815	28.86
224.199	21.01
224.583	-1.86
224.968	6.05
225.352	7.07
225.736	10.09
226.121	8.39
226.505	-2.12
226.889	15.03
227.273	7.16
227.657	13.1
228.041	11.43
228.425	11.18
228.809	9.48
229.193	7.58
229.577	7.86
229.961	6.76
230.344	7.02
230.728	6.17
231.112	6.81
231.495	6.86
231.879	7.81
232.263	8.22
232.646	6.41
233.03	6.43
233.413	6.04
233.797	7.24
234.18	8.58
234.563	7.29
234.946	9.92
235.33	7.74
235.713	8.72
236.096	8.14
236.479	8.08
236.862	7.33
237.245	5.65
237.628	6.59
238.011	6.9
238.394	6.87
238.777	9.15
239.16	7.65
239.543	9.05
239.925	8.56
240.308	6.12
240.691	7.2
241.073	7.53
241.456	9.68
241.838	5.52
242.221	6.94
242.603	6.39
242.986	6.71
243.368	6.99
243.75	6.24
244.133	5.96
244.515	6.47
244.897	6.57
245.279	6.75
245.661	5.91
246.043	6.32
246.425	5.88
246.807	6.46
247.189	5.7
247.571	4.94
247.953	6.25
248.335	6.13
248.717	5.6
249.098	5.69
249.48	5.53
249.862	5.93
250.243	6.35
250.625	6.19
251.006	6.23
251.388	6.57
251.769	6.53
252.151	5.83
252.532	6.46
252.913	6.08
253.295	4.34
253.676	6.27
254.057	5.62
254.438	5.83
254.819	5.7
255.2	5.4
255.581	5.63
255.962	6.12
256.343	6.02
256.724	5.4
257.105	4.86
257.486	5.61
257.867	4.82
258.247	6.36
258.628	6.29
259.009	6.1
259.389	5.4
259.77	4.93
260.15	5.68
260.531	5.38
260.911	5.18
261.292	4.88
261.672	5.04
262.052	5.24
262.432	5.44
262.813	5.26
263.193	5.44
263.573	5.15
263.953	5.86
264.333	5.01
264.713	5.86
265.093	5.66
265.473	5.86
265.853	4.87
266.233	5.15
266.612	5.31
266.992	5.52
267.372	4.7
267.752	4.89
268.131	4.94
268.511	4.83
268.89	5.03
269.27	5.11
269.649	4.27
270.029	5.5
270.408	5.56
270.787	4.81
271.167	5.14
271.546	5.11
271.925	5.62
272.304	5.32
272.683	4.78
273.062	4.84
273.441	5.33
273.82	4.82
274.199	5.23
274.578	5.05
274.957	5.15
275.336	4.94
275.715	4.92
276.093	5
276.472	5.26
276.851	5.24
277.229	4.72
277.608	4.6
277.986	4.44
278.365	5.42
278.743	4.87
279.122	4.7
279.5	4.7
279.878	4.25
280.257	4.27
280.635	4.46
281.013	4.79
281.391	5.4
281.769	5.03
282.147	4.72
282.525	4.86
282.903	4.8
283.281	4.77
283.659	4.54
284.037	4.78
284.415	4.48
284.792	4.7
285.17	4.67
285.548	4.59
285.925	4.41
286.303	4.26
286.68	4.43
287.058	4.96
287.435	4.66
287.813	3.98
288.19	4.47
288.567	4.75
288.945	4.87
289.322	4.99
289.699	4.57
290.076	5
290.453	5.02
290.83	4.49
291.207	5.23
291.584	4.49
291.961	4.22
292.338	4.26
292.715	4.26
293.092	4.54
293.469	4.64
293.845	4.1
294.222	4.34
294.599	4.29
294.975	5.58
295.352	4.92
295.728	4.75
296.105	4.29
296.481	4.35
296.858	4.59
297.234	4.54
297.61	3.83
297.986	4.13
298.363	4.24
298.739	4.7
299.115	4.05
299.491	4.3
299.867	4.3
300.243	4.79
300.619	4.38
300.995	4.41
301.371	4.78
301.746	4.12
302.122	4.41
302.498	4.24
302.874	4.37
303.249	4.51
303.625	4.52
304	4.71
304.376	3.94
304.751	4.49
305.127	4.23
305.502	4.7
305.878	4.53
306.253	4.12
306.628	4.79
307.003	4.77
307.378	4.71
307.754	4.41
308.129	4.84
308.504	4.73
308.879	4.35
309.254	4.72
309.629	4.61
310.003	4.12
310.378	4.8
310.753	4.27
311.128	4.68
311.502	4.35
311.877	4.35
312.252	4.23
312.626	4.76
313.001	4.41
313.375	4.84
313.75	4.25
314.124	4.52
314.498	4.51
314.873	4.12
315.247	4.49
315.621	4.84
315.995	4.84
316.369	4.11
316.743	5.09
317.117	4.25
317.491	4.25
317.865	4.41
318.239	5.3
318.613	4.56
318.987	4.58
319.361	3.66
319.734	4.08
320.108	4.39
320.482	4.66
320.855	4.76
321.229	5.48
321.602	4.62
321.976	4.24
322.349	4.89
322.723	4.29
323.096	4.63
323.469	3.9
323.843	4.43
324.216	4.4
324.589	4.51
324.962	4.86
325.335	4.38
325.708	4.41
326.081	4.71
326.454	4.5
326.827	4.72
327.2	4.67
327.573	4.89
327.945	4.68
328.318	4.43
328.691	4.43
329.063	5.11
329.436	4.33
329.809	4.55
330.181	4.51
330.553	4.66
330.926	4.61
331.298	4.5
331.671	4.41
332.043	4
332.415	4.85
332.787	4.92
333.159	4.36
333.532	4.48
333.904	4.54
334.276	4.35
334.648	4.66
335.02	4.87
335.391	4.7
335.763	5.24
336.135	4.77
336.507	4.92
336.879	4.41
337.25	4.91
337.622	5.16
337.993	5.32
338.365	4.8
338.736	4.96
339.108	5.04
339.479	4.74
339.851	4.81
340.222	4.09
340.593	4.48
340.964	4.52
341.336	4.91
341.707	4.28
342.078	5.26
342.449	5.07
342.82	4.62
343.191	4.43
343.562	4.84
343.933	4.56
344.303	4.73
344.674	5.04
345.045	4.88
345.416	4.89
345.786	4.8
346.157	4.43
346.527	4.38
346.898	4.65
347.268	4.89
347.639	5.07
348.009	4.6
348.38	4.87
348.75	5.06
349.12	4.74
349.49	4.73
349.861	5.03
350.231	4.81
350.601	5.09
350.971	5.09
351.341	4.75
351.711	5.73
352.081	4.86
352.45	4.58
352.82	4.94
353.19	4.9
353.56	4.7
353.929	4.62
354.299	4.9
354.669	5.03
355.038	4.96
355.408	5.07
355.777	4.71
356.147	4.5
356.516	5.11
356.885	4.8
357.254	4.75
357.624	4.95
357.993	5.01
358.362	4.83
358.731	4.63
359.1	4.33
359.469	4.74
359.838	4.75
360.207	5.07
360.576	5.12
360.945	4.67
361.314	5.04
361.682	4.93
362.051	4.82
362.42	4.9
362.788	5.28
363.157	5.11
363.525	4.72
363.894	4.72
364.262	4.74
364.631	5.13
364.999	4.91
365.367	5.13
365.735	4.9
366.104	4.88
366.472	4.81
366.84	5.02
367.208	5.1
367.576	4.97
367.944	4.68
368.312	5.2
368.68	5.16
369.048	4.93
369.416	5.32
369.783	5.13
370.151	5.05
370.519	4.9
370.886	5.44
371.254	5.14
371.621	5.36
371.989	5.08
372.356	5
372.724	5.57
373.091	5.07
373.458	4.73
373.826	4.94
374.193	4.84
374.56	5.43
374.927	5.2
375.294	5.05
375.661	5.16
376.028	5.39
376.395	5.29
376.762	4.78
377.129	5.23
377.496	5.35
377.863	5.58
378.229	4.92
378.596	5.35
378.963	5.26
379.329	5.23
379.696	5.11
380.062	5.01
380.429	5.12
380.795	5.07
381.161	4.97
381.528	5.34
381.894	5.16
382.26	5.14
382.626	5.29
382.993	4.97
383.359	5.25
383.725	5.35
384.091	5.3
384.457	5.23
384.823	5.09
385.188	5.39
385.554	5.21
385.92	5.14
386.286	5.24
386.651	5.06
387.017	5.17
387.383	5.08
387.748	5.18
388.114	5.04
388.479	4.96
388.845	5.37
389.21	5.06
389.575	5.02
389.94	5.09
390.306	5.44
390.671	5.42
391.036	5.26
391.401	5.36
391.766	5.48
392.131	5.41
392.496	5.47
392.861	5.15
393.226	5.23
393.591	5.18
393.956	5.33
394.32	5.4
394.685	5.14
395.05	5.4
395.414	5.54
395.779	5.28
396.143	5.3
396.508	5.13
396.872	5.26
397.236	5.43
397.601	5.3
397.965	5.15
398.329	5.13
398.694	5.35
399.058	4.92
399.422	5.43
399.786	5.31
400.15	5.29
400.514	5.25
400.878	5.3
401.242	5.5
401.605	5.57
401.969	5.28
402.333	5.46
402.697	5.4
403.06	5.4
403.424	5.14
403.787	5.36
404.151	5.32
404.514	5.37
404.878	5.51
405.241	5.39
405.604	5.38
405.968	5.53
406.331	5.15
406.694	5.32
407.057	5.19
407.42	5.62
407.783	5.48
408.146	5.32
408.509	5.2
408.872	5.46
409.235	5.26
409.598	5.44
409.961	5.34
410.323	5.45
410.686	5.3
411.049	5.61
411.411	5.45
411.774	5.37
412.136	5.23
412.499	5.27
412.861	5.35
413.223	5.62
413.586	5.36
413.948	5.4
414.31	5.92
414.672	5.22
415.035	5.22
415.397	5.4
415.759	5.42
416.121	5.36
416.483	5.54
416.845	5.27
417.206	5.4
417.568	5.54
417.93	5.38
418.292	5.25
418.653	5.34
419.015	5.17
419.377	5.29
419.738	5.29
420.1	5.25
420.461	5.24
420.822	5.21
421.184	5.21
421.545	5.23
421.906	5.21
422.267	5.18
422.629	5.15
422.99	5.03
423.351	5.17
423.712	5.19
424.073	5.27
424.434	5.18
424.795	5.26
425.155	5.25
425.516	5.17
425.877	5.25
426.238	5.02
426.598	5.24
426.959	5.11
427.32	5.23
427.68	5.34
428.041	5.18
428.401	5.35
428.761	5.39
429.122	5.34
429.482	5.35
429.842	5.41
430.202	5.43
430.563	5.34
430.923	5.46
431.283	5.43
431.643	5.4
432.003	5.65
432.363	5.25
432.722	5.42
433.082	5.35
433.442	5.35
433.802	5.6
434.161	5.17
434.521	5.42
434.881	5.29
435.24	5.44
435.6	5.33
435.959	5.3
436.319	5.38
436.678	5.43
437.037	5.38
437.396	5.44
437.756	5.3
438.115	5.29
438.474	5.37
438.833	5.58
439.192	5.2
439.551	5.23
439.91	5.34
440.269	5.38
440.628	5.29
440.987	5.32
441.345	5.18
441.704	5.25
442.063	5.28
442.421	5.17
442.78	5.24
443.138	5.38
443.497	5.4
443.855	5.38
444.214	5.33
444.572	5.29
444.93	5.44
445.288	5.4
445.647	5.61
446.005	5.22
446.363	5.21
446.721	5.32
447.079	5.34
447.437	5.3
447.795	5.15
448.153	5.15
448.51	5.27
448.868	5.25
449.226	5.27
449.584	5.27
449.941	5.18
450.299	5.25
450.656	5.22
451.014	5.39
451.371	5.38
451.729	5.33
452.086	5.39
452.443	5.37
452.801	5.34
453.158	5.45
453.515	5.33
453.872	5.4
454.229	5.46
454.586	5.44
454.943	5.23
455.3	5.21
455.657	5.43
456.014	5.28
456.371	5.38
456.727	5.37
457.084	5.33
457.441	5.45
457.797	5.51
458.154	5.27
458.51	5.46
458.867	5.28
459.223	5.31
459.58	5.36
459.936	5.29
460.292	5.21
460.648	5.16
461.005	5.13
461.361	5.15
461.717	5.17
462.073	5.18
462.429	5.24
462.785	5.27
463.141	5.38
463.496	5.33
463.852	5.39
464.208	5.4
464.564	5.39
464.919	5.47
465.275	5.48
465.631	5.56
465.986	5.58
466.342	5.43
466.697	5.28
467.052	5.47
467.408	5.35
467.763	5.53
468.118	5.58
468.473	5.33
468.829	5.17
469.184	5.24
469.539	5.49
469.894	5.41
470.249	5.34
470.603	5.27
470.958	5.39
471.313	5.5
471.668	5.36
472.023	5.45
472.377	5.48
472.732	5.27
473.086	5.45
473.441	5.56
473.795	5.59
474.15	5.28
474.504	5.24
474.859	5.44
475.213	5.39
475.567	5.37
475.921	5.38
476.275	5.24
476.63	5.53
476.984	5.57
477.338	5.25
477.692	5.27
478.045	5.47
478.399	5.38
478.753	5.35
479.107	5.32
479.461	5.33
479.814	5.45
480.168	5.4
480.521	5.37
480.875	5.37
481.228	5.35
481.582	5.41
481.935	5.4
482.289	5.3
482.642	5.21
482.995	5.14
483.348	5.21
483.701	5.3
484.055	5.29
484.408	5.14
484.761	5.12
485.114	5.02
485.466	4.94
485.819	4.88
486.172	4.89
486.525	4.95
486.878	5.03
487.23	5.08
487.583	5.11
487.936	5.12
488.288	5.13
488.641	5.21
488.993	5.01
489.345	5
489.698	4.99
490.05	4.95
490.402	4.99
490.754	5.06
491.107	5.13
491.459	5.2
491.811	5.2
492.163	5.21
492.515	5.23
492.866	5.18
493.218	5.04
493.57	4.94
493.922	4.99
494.274	5.05
494.625	5.14
494.977	5.18
495.328	5.3
495.68	5.37
496.031	5.24
496.383	5.29
496.734	5.33
497.086	5.27
497.437	5.36
497.788	5.27
498.139	5.38
498.49	5.2
498.842	5.1
499.193	5.27
499.544	5.27
499.894	5.3
500.245	5.13
500.596	5.31
500.947	5.24
501.298	5.31
501.648	5.25
501.999	5.31
502.35	5.31
502.7	5.44
503.051	5.31
503.401	5.47
503.752	5.34
504.102	5.41
504.452	5.32
504.803	5.35
505.153	5.37
505.503	5.32
505.853	5.31
506.203	5.24
506.553	5.17
506.903	5.25
507.253	5.31
507.603	5.23
507.953	5.27
508.303	5.18
508.652	5.32
509.002	5.39
509.352	5.24
509.701	5.3
510.051	5.14
510.4	5.27
510.75	5.17
511.099	5.11
511.449	5.12
511.798	5.28
512.147	5.19
512.496	5.24
512.846	5.23
513.195	5.27
513.544	5.13
513.893	5.02
514.242	5.21
514.591	5.26
514.939	5.16
515.288	5.13
515.637	5.25
515.986	5.19
516.334	5.25
516.683	5.18
517.032	5.14
517.38	5.17
517.729	5.29
518.077	5.19
518.426	5.19
518.774	5.08
519.122	5.22
519.47	5.15
519.819	5.18
520.167	5.06
520.515	5.03
520.863	5.09
521.211	4.99
521.559	5.13
521.907	5.08
522.255	5.13
522.602	5.19
522.95	5.03
523.298	5.21
523.645	5.23
523.993	5.18
524.341	5.23
524.688	5.2
525.036	5.2
525.383	5.13
525.73	5.36
526.078	5.15
526.425	5.19
526.772	5.15
527.119	5.09
527.466	4.97
527.814	5.03
528.161	5
528.508	4.96
528.854	5.02
529.201	5.02
529.548	5
529.895	4.93
530.242	4.81
530.588	4.76
530.935	4.73
531.282	4.85
531.628	4.92
531.975	4.89
532.321	4.93
532.667	5.02
533.014	5
533.36	5.03
533.706	5.09
534.052	5.12
534.399	4.95
534.745	4.85
535.091	4.9
535.437	4.95
535.783	4.92
536.129	5
536.474	4.99
536.82	5.11
537.166	5.04
537.512	5.14
537.857	5.11
538.203	4.95
538.549	5.15
538.894	4.91
539.239	5.04
539.585	4.98
539.93	5.06
540.276	5.1
540.621	5.04
540.966	5.06
541.311	5.17
541.656	5.11
542.001	5.2
542.346	5.01
542.691	5.04
543.036	4.91
543.381	4.84
543.726	4.82
544.071	4.86
544.415	4.91
544.76	4.89
545.105	4.92
545.449	4.98
545.794	5
546.138	5.02
546.483	4.99
546.827	4.97
547.171	5.06
547.516	4.93
547.86	5.14
548.204	4.88
548.548	4.97
548.892	5.04
549.236	4.97
549.58	4.84
549.924	4.96
550.268	5.05
550.612	5.15
550.956	5.23
551.3	5.09
551.643	5.04
551.987	5.11
552.33	5.21
552.674	5.02
553.017	4.96
553.361	5.27
553.704	5.06
554.048	5.16
554.391	5.09
554.734	5.07
555.077	4.95
555.42	4.92
555.764	4.91
556.107	5.03
556.45	5.08
556.793	5.04
557.135	5.1
557.478	4.97
557.821	5.06
558.164	5.16
558.507	5.3
558.849	5.18
559.192	5.15
559.534	4.99
559.877	4.87
560.219	5.29
560.562	5
560.904	5.06
561.246	5.09
561.589	4.82
561.931	5.06
562.273	5.07
562.615	5.32
562.957	5.08
563.299	5.06
563.641	5.11
563.983	4.96
564.325	4.95
564.667	4.99
565.008	5.11
565.35	5
565.692	4.96
566.033	5.09
566.375	5
566.716	5.14
567.058	4.94
567.399	5
567.741	4.91
568.082	4.99
568.423	4.97
568.764	4.87
569.105	5.08
569.447	4.92
569.788	4.96
570.129	5.02
570.47	4.98
570.811	4.98
571.151	4.93
571.492	4.87
571.833	5.03
572.174	4.97
572.514	5
572.855	4.96
573.195	4.99
573.536	4.9
573.876	4.96
574.217	4.84
574.557	4.92
574.898	4.8
575.238	4.92
575.578	5.07
575.918	5
576.258	5.01
576.598	5.12
576.938	5
577.278	4.94
577.618	4.77
577.958	4.97
578.298	4.94
578.638	5.09
578.977	5.09
579.317	5.05
579.657	4.96
579.996	4.94
580.336	5.17
580.675	4.81
581.014	4.93
581.354	4.85
581.693	5.04
582.032	5.18
582.372	5.15
582.711	4.99
583.05	5.14
583.389	5.15
583.728	4.84
584.067	5.09
584.406	5.01
584.745	5
585.083	4.91
585.422	4.93
585.761	4.84
586.1	4.96
586.438	4.54
586.777	5.08
587.115	5.02
587.454	5.09
587.792	4.96
588.13	5.02
588.469	5.11
588.807	4.71
589.145	4.96
589.483	4.86
589.821	5.04
590.159	5
590.497	4.84
590.835	4.91
591.173	4.94
591.511	4.9
591.849	4.86
592.187	4.8
592.524	4.72
592.862	4.82
593.2	4.86
593.537	4.7
593.875	4.81
594.212	4.81
594.55	4.97
594.887	4.94
595.224	4.77
595.561	4.7
595.899	4.94
596.236	4.73
596.573	5.06
596.91	4.88
597.247	4.89
597.584	4.75
597.921	5.01
598.258	4.96
598.594	5.01
598.931	4.72
599.268	4.69
599.604	4.83
599.941	4.71
600.277	4.64
600.614	4.82
600.95	4.9
601.287	4.73
601.623	4.93
601.959	4.9
602.296	4.84
602.632	4.8
602.968	4.9
603.304	4.82
603.64	4.57
603.976	4.95
604.312	4.86
604.648	4.93
604.984	4.89
605.319	4.68
605.655	4.78
605.991	4.86
606.326	4.78
606.662	4.54
606.998	4.64
607.333	4.68
607.668	4.63
608.004	4.68
608.339	4.66
608.674	4.99
609.01	4.73
609.345	4.94
609.68	4.96
610.015	4.8
610.35	4.77
610.685	5.2
611.02	4.58
611.355	4.64
611.689	4.83
612.024	4.79
612.359	4.85
612.694	4.9
613.028	4.83
613.363	4.73
613.697	4.95
614.032	4.92
614.366	4.76
614.7	4.94
615.035	4.93
615.369	5.13
615.703	4.64
616.037	4.69
616.371	4.79
616.705	4.75
617.039	4.83
617.373	5.07
617.707	5.1
618.041	4.99
618.375	4.62
618.709	4.79
619.042	4.91
619.376	4.86
619.71	4.88
620.043	4.95
620.377	4.68
620.71	4.84
621.043	5.11
621.377	4.9
621.71	4.76
622.043	4.77
622.376	4.84
622.709	4.96
623.043	4.59
623.376	4.8
623.709	4.57
624.041	4.87
624.374	4.92
624.707	4.79
625.04	5.08
625.373	5.07
625.705	4.42
626.038	4.95
626.37	4.48
626.703	4.8
627.035	4.57
627.368	4.82
627.7	5.04
628.032	4.72
628.365	5.01
628.697	4.84
629.029	4.58
629.361	4.78
629.693	4.72
630.025	4.65
630.357	4.9
630.689	4.8
631.021	5.19
631.353	5.19
631.684	4.71
632.016	5.03
632.348	4.64
632.679	4.82
633.011	5
633.342	4.54
633.674	4.96
634.005	5.16
634.336	5.18
634.668	4.61
634.999	4.77
635.33	4.38
635.661	5.19
635.992	4.94
636.323	5.02
636.654	4.96
636.985	4.58
637.316	5.08
637.647	4.71
637.977	4.85
638.308	4.9
638.639	5.06
638.969	5.09
639.3	4.59
639.63	4.86
639.961	4.84
640.291	4.63
640.622	4.67
640.952	5.04
641.282	4.93
641.612	5.28
641.943	5.24
642.273	4.62
642.603	5.08
642.933	4.9
643.263	5.17
643.592	4.68
643.922	4.98
644.252	4.9
644.582	4.67
644.911	4.82
645.241	5.15
645.571	5.35
645.9	4.91
646.23	5.32
646.559	4.77
646.888	5.2
647.218	4.67
647.547	4.68
647.876	5.08
648.205	5
648.534	5.03
648.863	4.87
649.192	4.44
649.521	4.85
649.85	4.82
650.179	4.87
650.508	5.22
650.837	5.1
651.165	5.13
651.494	4.69
651.822	5.03
652.151	5.25
652.479	4.49
652.808	5.26
653.136	4.71
653.465	4.86
653.793	5.16
654.121	5.08
654.449	4.95
654.777	4.59
655.105	4.86
655.433	5.6
655.761	5.2
656.089	5.4
656.417	4.76
656.745	4.7
657.073	4.89
657.4	5.75
657.728	4.85
658.056	5.38
658.383	4.9
658.711	4.42
659.038	4.99
659.365	5.09
659.693	4.87
660.02	5.02
660.347	5.05
660.674	4.99
661.001	4.67
661.329	5.06
661.656	5.26
661.982	4.86
662.309	4.88
662.636	5.17
662.963	5.16
663.29	4.89
663.616	4.97
663.943	4.77
664.27	5.13
664.596	4.64
664.923	4.59
665.249	5.24
665.576	4.76
665.902	5.58
666.228	4.89
666.554	5.17
666.881	4.85
667.207	5.57
667.533	5.25
667.859	5.41
668.185	5.25
668.511	5.91
668.837	5.25
669.162	5.22
669.488	5.26
669.814	4.71
670.139	5.48
670.465	4.77
670.791	5.03
671.116	4.81
671.442	4.91
671.767	4.82
672.092	4.98
672.418	5.17
672.743	5.05
673.068	5.28
673.393	5.14
673.718	4.99
674.043	5.43
674.368	5.19
674.693	5.39
675.018	5.27
675.343	5.22
675.667	5.12
675.992	5.52
676.317	5.82
676.641	5.52
676.966	5.51
677.29	5.32
677.615	5.05
677.939	4.57
678.264	5.4
678.588	4.54
678.912	5.52
679.236	4.94
679.56	4.98
679.885	5.39
680.209	5.21
680.532	4.81
680.856	5.11
681.18	4.79
681.504	5.22
681.828	5.61
682.152	5.11
682.475	4.59
682.799	5.51
683.122	5
683.446	4.99
683.769	4.81
684.093	5.43
684.416	4.84
684.739	5.09
685.062	4.63
685.386	4.83
685.709	5.46
686.032	5.08
686.355	5.33
686.678	4.77
687.001	5.18
687.324	4.95
687.646	5.57
687.969	5.93
688.292	5.3
688.614	5.66
688.937	5.07
689.26	5.21
689.582	4.85
689.904	4.42
690.227	6.11
690.549	5.16
690.871	5.23
691.194	5.78
691.516	5.49
691.838	5.79
692.16	5.68
692.482	4.97
692.804	5.44
693.126	4.7
693.448	6.55
693.769	5.92
