Data from 0227_chest_Reflection__4__04.txt Node

Date: Fri Oct 20 20:38:08 CDT 2023
User: ToomeyLab
Spectrometer: FLMS14357
Trigger mode: 0
Integration Time (sec): 1.000000E-2
Scans to average: 100
Electric dark correction enabled: true
Nonlinearity correction enabled: false
Boxcar width: 0
XAxis mode: Wavelengths
Number of Pixels in Spectrum: 2048
>>>>>Begin Spectral Data<<<<<
189.047	-3.26
189.435	-3.26
189.823	-3.26
190.211	1251.9
190.599	62.48
190.987	185.38
191.375	-167.38
191.763	222.95
192.151	14
192.538	231.37
192.926	208.04
193.314	78.11
193.702	82.87
194.089	59.09
194.477	1028.34
194.864	208.58
195.252	64.89
195.639	-84.75
196.027	461.1
196.414	155.22
196.801	54.84
197.189	48.27
197.576	-345.03
197.963	133.03
198.351	64.69
198.738	42.74
199.125	63
199.512	27.96
199.899	40.49
200.286	-65.57
200.673	35.41
201.06	3.79
201.447	-35.84
201.833	42.56
202.22	48.98
202.607	24.65
202.994	4.36
203.38	39.84
203.767	33.51
204.154	42.65
204.54	37.49
204.927	9.24
205.313	-40.68
205.699	29.53
206.086	4.25
206.472	45.31
206.858	40.02
207.245	-17.23
207.631	13.85
208.017	8.65
208.403	16.46
208.789	47.21
209.175	-26.38
209.561	20.45
209.947	37.73
210.333	16
210.719	23.82
211.105	7.68
211.491	31.33
211.876	-7.34
212.262	25.47
212.648	24.4
213.034	-5.86
213.419	25.2
213.805	20.13
214.19	-6.3
214.576	-7.37
214.961	31.45
215.346	23.8
215.732	8.32
216.117	0.01
216.502	26.99
216.888	17.68
217.273	13.86
217.658	4.73
218.043	11.45
218.428	21.15
218.813	-4.2
219.198	3.53
219.583	13.19
219.968	-7.29
220.353	2.73
220.738	26.18
221.122	4.87
221.507	13.35
221.892	10.16
222.276	1.19
222.661	35.17
223.046	12.73
223.43	9.65
223.815	7.9
224.199	13
224.583	-5.07
224.968	3.38
225.352	3.1
225.736	11.77
226.121	15.6
226.505	4.38
226.889	8.35
227.273	2.88
227.657	9.26
228.041	10.49
228.425	9.61
228.809	5.3
229.193	5.54
229.577	7.25
229.961	2.65
230.344	3.47
230.728	3.14
231.112	3.91
231.495	3.85
231.879	5.09
232.263	6.02
232.646	2.64
233.03	4.24
233.413	4.19
233.797	3.24
234.18	5.12
234.563	5.2
234.946	5.9
235.33	5.73
235.713	5.53
236.096	5.55
236.479	5.92
236.862	4.46
237.245	4.57
237.628	5.63
238.011	4.69
238.394	4.39
238.777	6.4
239.16	4.64
239.543	5.11
239.925	6.56
240.308	5.04
240.691	4.71
241.073	5.8
241.456	3.7
241.838	4.13
242.221	5.15
242.603	4.82
242.986	4.01
243.368	4.7
243.75	3.81
244.133	3.79
244.515	3.91
244.897	4.14
245.279	3.8
245.661	3.5
246.043	3.09
246.425	4.63
246.807	4.73
247.189	3.38
247.571	3.7
247.953	4.28
248.335	4.58
248.717	3.62
249.098	3.6
249.48	3.79
249.862	4.03
250.243	4.22
250.625	4.45
251.006	4.09
251.388	3.89
251.769	4.21
252.151	3.8
252.532	3.85
252.913	4.24
253.295	4
253.676	4.27
254.057	3.77
254.438	3.71
254.819	4.15
255.2	4.1
255.581	3.7
255.962	3.76
256.343	4.21
256.724	2.5
257.105	4.69
257.486	4.7
257.867	4.93
258.247	3.64
258.628	3.95
259.009	3.46
259.389	3.72
259.77	2.94
260.15	3.55
260.531	3.58
260.911	3.97
261.292	3.69
261.672	3.8
262.052	3.88
262.432	3.75
262.813	3.93
263.193	3.81
263.573	3.74
263.953	4.22
264.333	3.89
264.713	4.57
265.093	4.28
265.473	4.36
265.853	3.67
266.233	4.51
266.612	3.34
266.992	4.28
267.372	4
267.752	4.18
268.131	4.33
268.511	3.91
268.89	4.25
269.27	4.22
269.649	3.4
270.029	3.7
270.408	4.39
270.787	3.71
271.167	4.24
271.546	3.77
271.925	4.2
272.304	4.44
272.683	4.56
273.062	3.61
273.441	3.6
273.82	3.9
274.199	4.19
274.578	3.8
274.957	3.64
275.336	4.04
275.715	3.49
276.093	3.73
276.472	4.18
276.851	4.43
277.229	3.65
277.608	3.34
277.986	3.55
278.365	4.45
278.743	3.59
279.122	3.91
279.5	3.58
279.878	3.2
280.257	3.55
280.635	4.65
281.013	3.51
281.391	4.37
281.769	3.5
282.147	3.54
282.525	3.53
282.903	3.75
283.281	3.71
283.659	3.99
284.037	3.84
284.415	3.34
284.792	3.45
285.17	4.02
285.548	3.69
285.925	3.84
286.303	3.7
286.68	3.57
287.058	3.9
287.435	3.64
287.813	3.34
288.19	3.63
288.567	3.6
288.945	4.08
289.322	4.23
289.699	3.66
290.076	4.11
290.453	4.08
290.83	3.35
291.207	4.26
291.584	3.58
291.961	3.63
292.338	3.75
292.715	3.9
293.092	3.64
293.469	3.85
293.845	4.02
294.222	3.9
294.599	3.9
294.975	4.44
295.352	4.03
295.728	4.01
296.105	4.18
296.481	3.66
296.858	3.67
297.234	3.75
297.61	3.63
297.986	3.6
298.363	3.89
298.739	3.84
299.115	3.86
299.491	3.91
299.867	4.01
300.243	4.03
300.619	4.05
300.995	3.94
301.371	4.43
301.746	3.83
302.122	4.11
302.498	3.6
302.874	3.55
303.249	3.85
303.625	4.07
304	4.22
304.376	3.89
304.751	3.83
305.127	3.53
305.502	4.39
305.878	3.92
306.253	4.33
306.628	3.81
307.003	4.4
307.378	3.84
307.754	4.18
308.129	4.71
308.504	4.11
308.879	4.14
309.254	4.37
309.629	3.79
310.003	4.11
310.378	4.39
310.753	3.8
311.128	3.75
311.502	4.04
311.877	4.36
312.252	3.86
312.626	3.95
313.001	3.79
313.375	4.22
313.75	3.83
314.124	3.6
314.498	4.07
314.873	3.69
315.247	4.39
315.621	4.01
315.995	4.05
316.369	3.89
316.743	3.95
317.117	4.12
317.491	3.57
317.865	4.66
318.239	4.67
318.613	4.01
318.987	3.82
319.361	3.56
319.734	3.03
320.108	3.83
320.482	4.39
320.855	4.37
321.229	4.25
321.602	4.5
321.976	3.97
322.349	4.84
322.723	4.09
323.096	3.88
323.469	4.05
323.843	4.14
324.216	3.87
324.589	4.13
324.962	4.51
325.335	4.25
325.708	4.17
326.081	3.88
326.454	4.15
326.827	4.66
327.2	4.32
327.573	4.5
327.945	3.79
328.318	3.85
328.691	3.8
329.063	4.09
329.436	3.74
329.809	4.68
330.181	4.24
330.553	4
330.926	3.94
331.298	4.25
331.671	4.33
332.043	3.89
332.415	4.37
332.787	4.42
333.159	3.66
333.532	4.32
333.904	3.8
334.276	3.88
334.648	3.65
335.02	3.86
335.391	3.91
335.763	4.08
336.135	4.51
336.507	4.34
336.879	3.97
337.25	4.26
337.622	4.55
337.993	4.12
338.365	4.14
338.736	4.18
339.108	4.53
339.479	4.08
339.851	4.65
340.222	4.33
340.593	4
340.964	3.99
341.336	4.22
341.707	4.52
342.078	4.6
342.449	3.99
342.82	4.39
343.191	4.02
343.562	3.89
343.933	4.24
344.303	4.13
344.674	4.3
345.045	4.49
345.416	4.36
345.786	3.8
346.157	4.31
346.527	4
346.898	4.37
347.268	4.12
347.639	4.69
348.009	3.95
348.38	4.32
348.75	4.1
349.12	4.27
349.49	3.92
349.861	4.68
350.231	3.97
350.601	4.09
350.971	4.53
351.341	4.39
351.711	4.92
352.081	4.48
352.45	4.19
352.82	4.13
353.19	4.54
353.56	4.43
353.929	4.05
354.299	4.18
354.669	4.3
355.038	4.26
355.408	4.8
355.777	4.22
356.147	3.99
356.516	3.88
356.885	4.02
357.254	4.34
357.624	4.57
357.993	4.08
358.362	4.28
358.731	3.86
359.1	4.04
359.469	4.25
359.838	4.38
360.207	4.23
360.576	4.6
360.945	3.95
361.314	4.34
361.682	4.3
362.051	4.22
362.42	4.31
362.788	4.08
363.157	4.23
363.525	3.99
363.894	4.26
364.262	4.24
364.631	4.34
364.999	4.1
365.367	4.16
365.735	4.23
366.104	4.04
366.472	3.93
366.84	4.09
367.208	4.2
367.576	4.4
367.944	4.24
368.312	4.1
368.68	4.29
369.048	4.53
369.416	4.53
369.783	4.47
370.151	4.41
370.519	4.31
370.886	4.68
371.254	4.61
371.621	4.39
371.989	4.15
372.356	4.26
372.724	4.45
373.091	4.15
373.458	4.35
373.826	4.08
374.193	4.29
374.56	4.54
374.927	4.23
375.294	4.44
375.661	4.59
376.028	4.43
376.395	4.53
376.762	4.26
377.129	4.14
377.496	4.35
377.863	4.6
378.229	4.72
378.596	4.35
378.963	4.55
379.329	4.44
379.696	4.34
380.062	4.51
380.429	4.31
380.795	4.49
381.161	4.26
381.528	4.46
381.894	4.34
382.26	4.67
382.626	4.76
382.993	4.44
383.359	4.33
383.725	4.55
384.091	4.5
384.457	4.41
384.823	4.42
385.188	4.61
385.554	4.6
385.92	4.56
386.286	4.73
386.651	4.17
387.017	4.28
387.383	4.59
387.748	4.45
388.114	4.42
388.479	4.58
388.845	4.84
389.21	4.43
389.575	4.34
389.94	4.45
390.306	4.37
390.671	4.53
391.036	4.64
391.401	4.58
391.766	4.77
392.131	4.42
392.496	4.65
392.861	4.5
393.226	4.5
393.591	4.47
393.956	4.43
394.32	4.67
394.685	4.55
395.05	4.72
395.414	4.85
395.779	4.47
396.143	4.5
396.508	4.53
396.872	4.5
397.236	4.45
397.601	4.44
397.965	4.45
398.329	4.67
398.694	4.6
399.058	4.37
399.422	4.67
399.786	4.21
400.15	4.56
400.514	4.46
400.878	4.77
401.242	4.63
401.605	4.82
401.969	4.39
402.333	4.79
402.697	4.57
403.06	4.55
403.424	4.62
403.787	4.79
404.151	4.71
404.514	4.6
404.878	4.78
405.241	4.71
405.604	4.57
405.968	4.61
406.331	4.5
406.694	4.52
407.057	4.66
407.42	4.78
407.783	4.5
408.146	4.5
408.509	4.41
408.872	4.77
409.235	4.7
409.598	4.61
409.961	4.65
410.323	4.65
410.686	4.66
411.049	4.82
411.411	4.71
411.774	4.64
412.136	4.6
412.499	4.65
412.861	4.78
413.223	4.72
413.586	4.69
413.948	4.77
414.31	4.86
414.672	4.61
415.035	4.61
415.397	4.87
415.759	4.72
416.121	4.77
416.483	4.84
416.845	4.76
417.206	4.72
417.568	4.85
417.93	4.66
418.292	4.35
418.653	4.77
419.015	4.67
419.377	4.51
419.738	4.52
420.1	4.48
420.461	4.54
420.822	4.46
421.184	4.44
421.545	4.62
421.906	4.58
422.267	4.49
422.629	4.62
422.99	4.5
423.351	4.59
423.712	4.6
424.073	4.65
424.434	4.46
424.795	4.62
425.155	4.55
425.516	4.54
425.877	4.62
426.238	4.45
426.598	4.64
426.959	4.56
427.32	4.63
427.68	4.68
428.041	4.6
428.401	4.72
428.761	4.68
429.122	4.71
429.482	4.78
429.842	4.71
430.202	4.84
430.563	4.76
430.923	4.74
431.283	4.68
431.643	4.79
432.003	5.05
432.363	4.69
432.722	4.91
433.082	4.92
433.442	4.7
433.802	4.85
434.161	4.81
434.521	4.86
434.881	4.8
435.24	4.9
435.6	4.74
435.959	4.7
436.319	4.78
436.678	4.95
437.037	4.79
437.396	4.94
437.756	4.86
438.115	4.85
438.474	4.84
438.833	4.85
439.192	4.66
439.551	4.74
439.91	4.83
440.269	5
440.628	5.12
440.987	4.84
441.345	4.77
441.704	4.82
442.063	4.88
442.421	4.87
442.78	4.75
443.138	4.85
443.497	4.92
443.855	4.95
444.214	4.91
444.572	4.93
444.93	5.07
445.288	4.9
445.647	5.07
446.005	4.78
446.363	4.88
446.721	4.85
447.079	4.96
447.437	4.87
447.795	4.88
448.153	4.86
448.51	4.82
448.868	4.77
449.226	4.84
449.584	5
449.941	4.87
450.299	4.84
450.656	4.78
451.014	4.87
451.371	4.84
451.729	4.92
452.086	5.02
452.443	5.03
452.801	4.97
453.158	5.06
453.515	5.07
453.872	5.05
454.229	5.09
454.586	5.09
454.943	5.02
455.3	4.97
455.657	5.19
456.014	4.94
456.371	5.02
456.727	5.05
457.084	5.13
457.441	5.12
457.797	5.24
458.154	4.99
458.51	4.95
458.867	5.12
459.223	5.08
459.58	5.21
459.936	4.93
460.292	5.05
460.648	5.01
461.005	4.98
461.361	4.99
461.717	4.89
462.073	5.08
462.429	5.01
462.785	5.06
463.141	5.08
463.496	5.05
463.852	5.1
464.208	5.41
464.564	5.25
464.919	5.28
465.275	5.39
465.631	5.26
465.986	5.28
466.342	5.3
466.697	5.04
467.052	5.16
467.408	5.18
467.763	5.4
468.118	5.36
468.473	5.18
468.829	5.25
469.184	5.28
469.539	5.24
469.894	5.27
470.249	5.24
470.603	5.31
470.958	5.33
471.313	5.24
471.668	5.27
472.023	5.36
472.377	5.39
472.732	5.21
473.086	5.24
473.441	5.37
473.795	5.74
474.15	5.37
474.504	5.3
474.859	5.4
475.213	5.37
475.567	5.42
475.921	5.31
476.275	5.5
476.63	5.7
476.984	5.55
477.338	5.45
477.692	5.34
478.045	5.46
478.399	5.46
478.753	5.37
479.107	5.52
479.461	5.44
479.814	5.48
480.168	5.48
480.521	5.45
480.875	5.45
481.228	5.42
481.582	5.48
481.935	5.52
482.289	5.38
482.642	5.42
482.995	5.39
483.348	5.39
483.701	5.4
484.055	5.39
484.408	5.28
484.761	5.33
485.114	5.18
485.466	5.12
485.819	4.98
486.172	5.01
486.525	5.08
486.878	5.18
487.23	5.26
487.583	5.31
487.936	5.33
488.288	5.31
488.641	5.37
488.993	5.24
489.345	5.21
489.698	5.21
490.05	5.22
490.402	5.27
490.754	5.35
491.107	5.34
491.459	5.5
491.811	5.54
492.163	5.51
492.515	5.48
492.866	5.53
493.218	5.3
493.57	5.29
493.922	5.3
494.274	5.4
494.625	5.49
494.977	5.49
495.328	5.62
495.68	5.71
496.031	5.57
496.383	5.73
496.734	5.65
497.086	5.72
497.437	5.61
497.788	5.76
498.139	5.87
498.49	5.7
498.842	5.59
499.193	5.79
499.544	5.71
499.894	5.81
500.245	5.73
500.596	5.81
500.947	5.89
501.298	5.8
501.648	5.85
501.999	5.89
502.35	5.82
502.7	5.94
503.051	5.93
503.401	5.91
503.752	5.99
504.102	5.93
504.452	5.95
504.803	5.88
505.153	6.01
505.503	5.93
505.853	6.05
506.203	5.97
506.553	5.92
506.903	6.03
507.253	5.97
507.603	6.12
507.953	6.02
508.303	5.87
508.652	6.07
509.002	6.09
509.352	6.15
509.701	6.07
510.051	5.89
510.4	6.08
510.75	6.04
511.099	5.95
511.449	6.09
511.798	6.09
512.147	6.07
512.496	6.15
512.846	6.04
513.195	6.2
513.544	6.15
513.893	5.99
514.242	6.07
514.591	6.18
514.939	6.1
515.288	6.11
515.637	6.29
515.986	6.25
516.334	6.35
516.683	6.24
517.032	6.13
517.38	6.22
517.729	6.32
518.077	6.27
518.426	6.31
518.774	6.33
519.122	6.25
519.47	6.32
519.819	6.23
520.167	6.16
520.515	6.2
520.863	6.27
521.211	6.31
521.559	6.36
521.907	6.33
522.255	6.36
522.602	6.5
522.95	6.38
523.298	6.54
523.645	6.59
523.993	6.34
524.341	6.53
524.688	6.68
525.036	6.64
525.383	6.6
525.73	6.72
526.078	6.58
526.425	6.63
526.772	6.49
527.119	6.47
527.466	6.43
527.814	6.47
528.161	6.51
528.508	6.49
528.854	6.55
529.201	6.58
529.548	6.6
529.895	6.54
530.242	6.36
530.588	6.24
530.935	6.28
531.282	6.42
531.628	6.52
531.975	6.54
532.321	6.65
532.667	6.67
533.014	6.81
533.36	6.82
533.706	6.9
534.052	6.79
534.399	6.74
534.745	6.67
535.091	6.67
535.437	6.72
535.783	6.7
536.129	6.87
536.474	6.99
536.82	7.02
537.166	7.07
537.512	7.08
537.857	7.08
538.203	6.99
538.549	7
538.894	7
539.239	7.03
539.585	7.08
539.93	7.27
540.276	7.32
540.621	7.31
540.966	7.38
541.311	7.44
541.656	7.42
542.001	7.43
542.346	7.36
542.691	7.22
543.036	7.15
543.381	7.02
543.726	7.09
544.071	7.23
544.415	7.19
544.76	7.31
545.105	7.37
545.449	7.41
545.794	7.49
546.138	7.48
546.483	7.56
546.827	7.73
547.171	7.67
547.516	7.56
547.86	7.72
548.204	7.63
548.548	7.62
548.892	7.7
549.236	7.79
549.58	7.69
549.924	7.81
550.268	7.94
550.612	7.99
550.956	8.1
551.3	8.02
551.643	8.09
551.987	8.18
552.33	8.15
552.674	8.18
553.017	8.23
553.361	8.37
553.704	8.27
554.048	8.35
554.391	8.23
554.734	8.33
555.077	8.25
555.42	8.24
555.764	8.34
556.107	8.46
556.45	8.54
556.793	8.44
557.135	8.41
557.478	8.49
557.821	8.76
558.164	8.69
558.507	8.58
558.849	8.73
559.192	8.72
559.534	8.9
559.877	8.62
560.219	8.78
560.562	9.01
560.904	8.89
561.246	8.81
561.589	8.83
561.931	9.16
562.273	9.11
562.615	9.21
562.957	9.08
563.299	9.06
563.641	9.24
563.983	9.02
564.325	8.83
564.667	9.22
565.008	9.1
565.35	9.28
565.692	9.44
566.033	9.46
566.375	9.18
566.716	9.35
567.058	9.27
567.399	9.57
567.741	9.3
568.082	9.44
568.423	9.31
568.764	9.28
569.105	9.37
569.447	9.54
569.788	9.52
570.129	9.74
570.47	9.63
570.811	9.67
571.151	9.68
571.492	9.75
571.833	9.97
572.174	10.06
572.514	9.83
572.855	9.81
573.195	9.85
573.536	9.61
573.876	9.97
574.217	9.88
574.557	9.88
574.898	9.97
575.238	9.93
575.578	10.08
575.918	10.13
576.258	10.27
576.598	10.35
576.938	10.29
577.278	10.25
577.618	10.17
577.958	10.24
578.298	10.4
578.638	10.56
578.977	10.38
579.317	10.66
579.657	10.68
579.996	10.65
580.336	10.76
580.675	10.78
581.014	10.81
581.354	10.65
581.693	10.99
582.032	11.02
582.372	10.98
582.711	11.08
583.05	11.2
583.389	11.1
583.728	11.05
584.067	11.37
584.406	11.18
584.745	11.36
585.083	11.41
585.422	11.44
585.761	11.23
586.1	11.52
586.438	11.3
586.777	11.36
587.115	11.74
587.454	11.5
587.792	11.7
588.13	11.58
588.469	11.7
588.807	11.66
589.145	11.91
589.483	11.54
589.821	11.72
590.159	11.95
590.497	11.88
590.835	12.07
591.173	11.99
591.511	11.82
591.849	11.82
592.187	12.1
592.524	11.98
592.862	12.17
593.2	12.17
593.537	12.32
593.875	12.31
594.212	12.29
594.55	12.48
594.887	12.57
595.224	12.5
595.561	12.28
595.899	12.55
596.236	12.47
596.573	12.64
596.91	12.79
597.247	12.65
597.584	12.34
597.921	12.59
598.258	12.8
598.594	12.81
598.931	12.49
599.268	12.68
599.604	12.82
599.941	12.76
600.277	12.89
600.614	13.03
600.95	13.12
601.287	13.03
601.623	13.34
601.959	13.18
602.296	13.38
602.632	13.49
602.968	13.37
603.304	13.65
603.64	13.58
603.976	13.65
604.312	13.88
604.648	13.66
604.984	13.77
605.319	13.57
605.655	13.61
605.991	13.7
606.326	13.55
606.662	13.57
606.998	13.53
607.333	13.75
607.668	13.72
608.004	13.78
608.339	13.99
608.674	14.18
609.01	14.2
609.345	14.47
609.68	14.23
610.015	14.45
610.35	14.38
610.685	14.38
611.02	14.27
611.355	13.93
611.689	14.12
612.024	14.46
612.359	14.4
612.694	14.62
613.028	14.68
613.363	14.7
613.697	14.91
614.032	14.89
614.366	14.96
614.7	15.06
615.035	14.71
615.369	15.09
615.703	14.65
616.037	15.16
616.371	15.62
616.705	15.31
617.039	15.44
617.373	15.16
617.707	15.47
618.041	15.58
618.375	15.37
618.709	15.59
619.042	15.52
619.376	15.85
619.71	15.77
620.043	15.9
620.377	15.74
620.71	15.95
621.043	16.03
621.377	15.85
621.71	15.88
622.043	15.95
622.376	16.01
622.709	16.07
623.043	16.42
623.376	15.98
623.709	16.34
624.041	16.44
624.374	16.41
624.707	16.17
625.04	16.68
625.373	16.38
625.705	16.11
626.038	16.41
626.37	16.48
626.703	16.5
627.035	16.59
627.368	16.89
627.7	16.57
628.032	16.62
628.365	16.78
628.697	16.81
629.029	16.7
629.361	16.99
629.693	16.91
630.025	17.06
630.357	17.18
630.689	17.18
631.021	17.54
631.353	17.04
631.684	17.31
632.016	17.59
632.348	17.42
632.679	17.23
633.011	17.45
633.342	17.46
633.674	17.5
634.005	17.91
634.336	18.02
634.668	17.6
634.999	17.8
635.33	17.66
635.661	17.9
635.992	17.99
636.323	18.26
636.654	17.69
636.985	17.99
637.316	18.24
637.647	18
637.977	17.99
638.308	18.26
638.639	18.38
638.969	18.37
639.3	18.36
639.63	18.53
639.961	18.48
640.291	18.58
640.622	18.44
640.952	18.64
641.282	19.03
641.612	18.7
641.943	19.3
642.273	19
642.603	19.24
642.933	19.24
643.263	19.25
643.592	19.15
643.922	19.44
644.252	19.04
644.582	18.77
644.911	19.46
645.241	19.55
645.571	19.59
645.9	19.35
646.23	19.87
646.559	19.51
646.888	19.99
647.218	19.91
647.547	19.78
647.876	19.58
648.205	20.06
648.534	19.65
648.863	20.09
649.192	19.91
649.521	20.12
649.85	19.85
650.179	20.03
650.508	20.13
650.837	20.14
651.165	20.6
651.494	19.8
651.822	20.38
652.151	20.59
652.479	20.26
652.808	20.42
653.136	20.29
653.465	20.43
653.793	20.66
654.121	20.52
654.449	20.54
654.777	20.42
655.105	20.72
655.433	21.23
655.761	21.22
656.089	21.27
656.417	21.1
656.745	21.32
657.073	21.27
657.4	21.35
657.728	21.47
658.056	21.49
658.383	21.67
658.711	20.96
659.038	21.17
659.365	21.49
659.693	21.69
660.02	21.03
660.347	21.51
660.674	21.94
661.001	21.08
661.329	21.36
661.656	21.18
661.982	21.31
662.309	21.68
662.636	21.82
662.963	22.12
663.29	22.34
663.616	22.16
663.943	21.91
664.27	22.4
664.596	21.96
664.923	21.83
665.249	22.14
665.576	22.2
665.902	22.08
666.228	22.37
666.554	22.46
666.881	22.31
667.207	22.54
667.533	22.87
667.859	22.65
668.185	22.27
668.511	22.75
668.837	22.98
669.162	22.93
669.488	23.47
669.814	23.09
670.139	22.73
670.465	22.65
670.791	22.72
671.116	23.36
671.442	23.57
671.767	23.4
672.092	23.32
672.418	22.68
672.743	22.93
673.068	23.84
673.393	22.9
673.718	23.67
674.043	23.71
674.368	23.89
674.693	23.73
675.018	23.55
675.343	23.6
675.667	23.62
675.992	24.23
676.317	23.64
676.641	24.69
676.966	24.11
677.29	24.09
677.615	24.2
677.939	23.96
678.264	25.03
678.588	24.66
678.912	25.02
679.236	24.18
679.56	24.05
679.885	24.79
680.209	24.75
680.532	23.98
680.856	24.55
681.18	24.67
681.504	24.43
681.828	24.58
682.152	24.38
682.475	24.68
682.799	24.76
683.122	25.11
683.446	25.17
683.769	25.02
684.093	25.17
684.416	25.03
684.739	24.76
685.062	24.7
685.386	25.52
685.709	25.85
686.032	25.03
