Data from 0227_chest_Reflection__3__03.txt Node

Date: Fri Oct 20 20:37:54 CDT 2023
User: ToomeyLab
Spectrometer: FLMS14357
Trigger mode: 0
Integration Time (sec): 1.000000E-2
Scans to average: 100
Electric dark correction enabled: true
Nonlinearity correction enabled: false
Boxcar width: 0
XAxis mode: Wavelengths
Number of Pixels in Spectrum: 2048
>>>>>Begin Spectral Data<<<<<
189.047	-47.13
189.435	-47.13
189.823	-47.13
190.211	766.78
190.599	26.58
190.987	115.16
191.375	-43.71
191.763	48.5
192.151	-24.99
192.538	472.01
192.926	-68.34
193.314	75.14
193.702	112.29
194.089	47.01
194.477	1227.25
194.864	89.46
195.252	287.1
195.639	-177.84
196.027	-368.1
196.414	43.11
196.801	90.03
197.189	-9.57
197.576	-395.28
197.963	-61.3
198.351	34.02
198.738	36.69
199.125	21.15
199.512	41.22
199.899	21.88
200.286	-5.73
200.673	29.06
201.06	20.62
201.447	5.23
201.833	21.18
202.22	53.03
202.607	49.05
202.994	13.85
203.38	30.09
203.767	2.15
204.154	3.32
204.54	50.91
204.927	0.69
205.313	14.11
205.699	39.61
206.086	24.93
206.472	25.78
206.858	27.2
207.245	-2.84
207.631	10.94
208.017	12.26
208.403	-15.89
208.789	15.75
209.175	-24.78
209.561	26.39
209.947	-9.17
210.333	22.04
210.719	40.49
211.105	19.95
211.491	17.62
211.876	-22.26
212.262	13.23
212.648	16.85
213.034	-13
213.419	13.92
213.805	23.29
214.19	-12
214.576	4.7
214.961	24.42
215.346	11.62
215.732	10.31
216.117	-20.64
216.502	12.21
216.888	12.67
217.273	-29.04
217.658	-15.15
218.043	0.77
218.428	1.34
218.813	7.34
219.198	5.14
219.583	-20.19
219.968	-19.69
220.353	21.48
220.738	15.47
221.122	-17.06
221.507	9.66
221.892	-6.17
222.276	15.63
222.661	25.49
223.046	15.9
223.43	6.79
223.815	5.18
224.199	7.58
224.583	-8.93
224.968	-1.18
225.352	5.01
225.736	4.53
226.121	3.4
226.505	-1.4
226.889	8.6
227.273	9.36
227.657	10.04
228.041	4.66
228.425	4.71
228.809	2.57
229.193	3.97
229.577	4.85
229.961	3.93
230.344	2.44
230.728	2.94
231.112	3.43
231.495	3.13
231.879	2.92
232.263	3.43
232.646	1.99
233.03	1.8
233.413	1.16
233.797	3.06
234.18	3.14
234.563	5.16
234.946	6.18
235.33	5.01
235.713	4.3
236.096	4.51
236.479	3.32
236.862	4.08
237.245	2.44
237.628	1.9
238.011	5.03
238.394	2.35
238.777	3.33
239.16	2.92
239.543	5.37
239.925	3.81
240.308	4.33
240.691	2.4
241.073	5
241.456	5.24
241.838	3
242.221	3.57
242.603	3.08
242.986	3.07
243.368	3.74
243.75	3.82
244.133	3.23
244.515	3.05
244.897	3.48
245.279	3.74
245.661	3.42
246.043	2.9
246.425	3.4
246.807	3.82
247.189	3.69
247.571	3.22
247.953	3.7
248.335	3.61
248.717	3.26
249.098	3.25
249.48	3.28
249.862	3.73
250.243	3.79
250.625	3.71
251.006	3.46
251.388	3.79
251.769	4.13
252.151	3.58
252.532	3.35
252.913	3.32
253.295	3.12
253.676	3.31
254.057	3.31
254.438	3.94
254.819	3.76
255.2	3.48
255.581	2.96
255.962	3.87
256.343	4.37
256.724	2.67
257.105	3.52
257.486	3.44
257.867	3.82
258.247	4.48
258.628	3.46
259.009	3.13
259.389	3.48
259.77	3.48
260.15	3.68
260.531	3.71
260.911	4.08
261.292	3.53
261.672	3.46
262.052	3.39
262.432	3.38
262.813	3.74
263.193	3.84
263.573	3.42
263.953	3.74
264.333	3.41
264.713	4.04
265.093	3.56
265.473	3.81
265.853	3.27
266.233	3.49
266.612	3.71
266.992	3.14
267.372	2.19
267.752	3.5
268.131	4.06
268.511	3.78
268.89	3.39
269.27	3.06
269.649	2.94
270.029	3.08
270.408	3.81
270.787	3.13
271.167	3.57
271.546	3.55
271.925	3.85
272.304	4.03
272.683	3.22
273.062	3.25
273.441	3.52
273.82	3.35
274.199	3.53
274.578	2.96
274.957	3.49
275.336	3.65
275.715	3.45
276.093	3.34
276.472	2.83
276.851	3.69
277.229	3.83
277.608	2.49
277.986	3.07
278.365	4.05
278.743	2.75
279.122	3.31
279.5	3.86
279.878	1.96
280.257	3.22
280.635	3.44
281.013	3.42
281.391	3.92
281.769	2.71
282.147	2.49
282.525	3.64
282.903	3.58
283.281	3.44
283.659	3.42
284.037	3.62
284.415	2.94
284.792	3.43
285.17	3.48
285.548	3.15
285.925	3.4
286.303	3.23
286.68	3.18
287.058	3.87
287.435	3.45
287.813	3.12
288.19	3.3
288.567	3.17
288.945	3.54
289.322	4.04
289.699	2.96
290.076	3.94
290.453	3.75
290.83	3.24
291.207	4
291.584	3.16
291.961	3.58
292.338	3.35
292.715	3.33
293.092	3.35
293.469	3.54
293.845	3.55
294.222	3.79
294.599	3.68
294.975	4.61
295.352	4.11
295.728	4.22
296.105	3.71
296.481	3.88
296.858	4.02
297.234	4.13
297.61	4.4
297.986	3.81
298.363	4.14
298.739	4.3
299.115	4.18
299.491	4.16
299.867	4.14
300.243	4.17
300.619	4.16
300.995	4.13
301.371	4.31
301.746	4.23
302.122	4.3
302.498	4.24
302.874	4.34
303.249	4.78
303.625	4.65
304	4.81
304.376	4.22
304.751	4.22
305.127	4.03
305.502	5.04
305.878	4.25
306.253	4.54
306.628	4.52
307.003	4.94
307.378	4.56
307.754	4.52
308.129	4.96
308.504	4.3
308.879	4.55
309.254	5.35
309.629	4.75
310.003	4.28
310.378	5.19
310.753	4.94
311.128	4.71
311.502	4.57
311.877	4.71
312.252	4.57
312.626	4.77
313.001	4.74
313.375	4.85
313.75	4.66
314.124	4.7
314.498	4.96
314.873	4.59
315.247	4.93
315.621	5.02
315.995	5.58
316.369	4.91
316.743	4.95
317.117	4.81
317.491	4.45
317.865	5.25
318.239	5.28
318.613	5.19
318.987	4.8
319.361	4.52
319.734	5.06
320.108	4.72
320.482	5.03
320.855	5.16
321.229	5.48
321.602	5.34
321.976	5.07
322.349	5.61
322.723	4.95
323.096	4.6
323.469	5.68
323.843	5.25
324.216	4.9
324.589	5.51
324.962	5.67
325.335	5.25
325.708	5.59
326.081	5.18
326.454	5.61
326.827	5.92
327.2	5.57
327.573	5.15
327.945	5.7
328.318	4.98
328.691	4.86
329.063	5.46
329.436	5.18
329.809	5.23
330.181	5.38
330.553	5.32
330.926	5.28
331.298	4.99
331.671	5.5
332.043	5.19
332.415	5.29
332.787	6.02
333.159	5.09
333.532	5.72
333.904	5.83
334.276	4.77
334.648	5.61
335.02	6.07
335.391	5.46
335.763	5.6
336.135	6.17
336.507	5.32
336.879	5.58
337.25	5.35
337.622	5.71
337.993	5.77
338.365	5.58
338.736	6.09
339.108	6.12
339.479	5.58
339.851	5.62
340.222	5.47
340.593	4.9
340.964	5.18
341.336	5.63
341.707	5.18
342.078	5.74
342.449	5.55
342.82	5.89
343.191	5.5
343.562	5.76
343.933	5.51
344.303	5.75
344.674	5.56
345.045	5.85
345.416	5.94
345.786	5.52
346.157	5.72
346.527	5.39
346.898	5.59
347.268	5.64
347.639	5.87
348.009	5.67
348.38	5.78
348.75	5.71
349.12	5.84
349.49	5.51
349.861	5.89
350.231	5.36
350.601	5.7
350.971	5.8
351.341	5.48
351.711	6.27
352.081	5.9
352.45	5.51
352.82	5.83
353.19	6.25
353.56	5.92
353.929	5.8
354.299	5.58
354.669	5.75
355.038	5.8
355.408	6.13
355.777	5.6
356.147	5.8
356.516	5.57
356.885	5.63
357.254	5.92
357.624	5.59
357.993	5.88
358.362	5.84
358.731	5.52
359.1	5.39
359.469	5.36
359.838	5.94
360.207	5.74
360.576	6.06
360.945	5.7
361.314	5.84
361.682	5.82
362.051	5.67
362.42	5.79
362.788	5.87
363.157	5.96
363.525	5.58
363.894	5.67
364.262	5.66
364.631	5.81
364.999	5.89
365.367	5.93
365.735	5.74
366.104	5.79
366.472	5.91
366.84	5.83
367.208	6.03
367.576	5.86
367.944	5.81
368.312	6.04
368.68	6.15
369.048	6.1
369.416	6.19
369.783	6.3
370.151	5.97
370.519	5.83
370.886	6.18
371.254	6.34
371.621	6.42
371.989	6.07
372.356	6.18
372.724	6.34
373.091	6.19
373.458	5.9
373.826	5.98
374.193	5.84
374.56	6.05
374.927	5.72
375.294	6.22
375.661	6.14
376.028	6.47
376.395	6.42
376.762	5.72
377.129	6.1
377.496	6.01
377.863	6.06
378.229	6.03
378.596	6.46
378.963	6.16
379.329	6.21
379.696	6.08
380.062	6.14
380.429	5.99
380.795	6.02
381.161	6.24
381.528	6.63
381.894	6.32
382.26	6.19
382.626	6.38
382.993	6.3
383.359	6.08
383.725	6.28
384.091	6.33
384.457	5.8
384.823	6.01
385.188	6.56
385.554	6.13
385.92	6.45
386.286	6.46
386.651	6.12
387.017	6.44
387.383	6.29
387.748	6.08
388.114	6.22
388.479	6.26
388.845	6.63
389.21	6.33
389.575	6.29
389.94	6.22
390.306	6.33
390.671	6.45
391.036	6.11
391.401	6.43
391.766	6.39
392.131	6.36
392.496	6.49
392.861	6.34
393.226	6.38
393.591	6.16
393.956	6.42
394.32	6.48
394.685	6.45
395.05	6.61
395.414	6.79
395.779	6.31
396.143	6.42
396.508	6.35
396.872	6.45
397.236	6.33
397.601	6.56
397.965	6.53
398.329	6.09
398.694	6.33
399.058	6.29
399.422	6.49
399.786	6.33
400.15	6.42
400.514	6.5
400.878	6.59
401.242	6.7
401.605	6.58
401.969	6.43
402.333	6.5
402.697	6.64
403.06	6.55
403.424	6.51
403.787	6.44
404.151	6.62
404.514	6.5
404.878	6.53
405.241	6.48
405.604	6.44
405.968	6.68
406.331	6.64
406.694	6.43
407.057	6.44
407.42	6.96
407.783	6.61
408.146	6.6
408.509	6.61
408.872	6.62
409.235	6.62
409.598	6.5
409.961	6.81
410.323	6.8
410.686	6.46
411.049	6.85
411.411	6.4
411.774	6.82
412.136	6.57
412.499	6.75
412.861	6.69
413.223	6.68
413.586	6.78
413.948	7.08
414.31	7.01
414.672	6.8
415.035	6.73
415.397	6.95
415.759	6.74
416.121	6.77
416.483	7.02
416.845	6.89
417.206	6.74
417.568	7.15
417.93	6.78
418.292	6.75
418.653	6.85
419.015	6.79
419.377	6.71
419.738	6.74
420.1	6.54
420.461	6.74
420.822	6.75
421.184	6.73
421.545	6.83
421.906	6.77
422.267	6.65
422.629	6.8
422.99	6.59
423.351	6.74
423.712	6.68
424.073	6.72
424.434	6.66
424.795	6.8
425.155	6.77
425.516	6.76
425.877	6.75
426.238	6.64
426.598	6.78
426.959	6.76
427.32	6.8
427.68	6.76
428.041	6.92
428.401	6.98
428.761	6.9
429.122	6.91
429.482	6.88
429.842	6.84
430.202	7.06
430.563	7.03
430.923	7.04
431.283	7.11
431.643	7.09
432.003	7.03
432.363	6.88
432.722	7.2
433.082	7.22
433.442	6.94
433.802	7.22
434.161	7.03
434.521	7.24
434.881	7.14
435.24	7.04
435.6	6.99
435.959	7.06
436.319	7.04
436.678	7.12
437.037	7.19
437.396	7.31
437.756	7.17
438.115	7.05
438.474	7.11
438.833	7.23
439.192	6.98
439.551	7.05
439.91	6.98
440.269	7.19
440.628	7.06
440.987	7.19
441.345	6.95
441.704	7.18
442.063	7.18
442.421	7.19
442.78	7.05
443.138	7.16
443.497	7.25
443.855	7.24
444.214	7.36
444.572	7.23
444.93	7.5
445.288	7.52
445.647	7.42
446.005	7.22
446.363	7.32
446.721	7.23
447.079	7.45
447.437	7.34
447.795	7.14
448.153	7.14
448.51	7.26
448.868	7.16
449.226	7.22
449.584	7.34
449.941	7.35
450.299	7.4
450.656	7.31
451.014	7.52
451.371	7.44
451.729	7.29
452.086	7.5
452.443	7.54
452.801	7.36
453.158	7.55
453.515	7.53
453.872	7.47
454.229	7.5
454.586	7.54
454.943	7.46
455.3	7.5
455.657	7.58
456.014	7.57
456.371	7.44
456.727	7.74
457.084	7.47
457.441	7.68
457.797	7.66
458.154	7.58
458.51	7.61
458.867	7.52
459.223	7.75
459.58	7.84
459.936	7.65
460.292	7.52
460.648	7.53
461.005	7.39
461.361	7.6
461.717	7.33
462.073	7.58
462.429	7.53
462.785	7.61
463.141	7.69
463.496	7.64
463.852	7.73
464.208	7.79
464.564	7.87
464.919	7.74
465.275	7.83
465.631	7.97
465.986	7.94
466.342	7.81
466.697	7.8
467.052	7.82
467.408	7.85
467.763	7.86
468.118	8.07
468.473	7.86
468.829	7.84
469.184	7.77
469.539	7.96
469.894	7.86
470.249	7.87
470.603	7.83
470.958	7.92
471.313	8.11
471.668	7.98
472.023	8.02
472.377	8.02
472.732	7.89
473.086	7.99
473.441	7.97
473.795	8.25
474.15	7.96
474.504	8.02
474.859	8.16
475.213	8.07
475.567	8.03
475.921	8.15
476.275	8.18
476.63	8.06
476.984	8.11
477.338	8.12
477.692	8.1
478.045	8.11
478.399	8.14
478.753	8.28
479.107	8.14
479.461	8.16
479.814	8.24
480.168	8.2
480.521	8.26
480.875	8.05
481.228	8.17
481.582	8.25
481.935	8.34
482.289	8.29
482.642	8.2
482.995	8.21
483.348	8.21
483.701	8.18
484.055	8.22
484.408	8.13
484.761	8.08
485.114	7.94
485.466	7.81
485.819	7.74
486.172	7.69
486.525	7.81
486.878	7.87
487.23	8.04
487.583	8.11
487.936	8.14
488.288	8.18
488.641	8.09
488.993	8.05
489.345	8.01
489.698	7.98
490.05	8
490.402	8.05
490.754	8.14
491.107	8.28
491.459	8.35
491.811	8.31
492.163	8.46
492.515	8.44
492.866	8.39
493.218	8.16
493.57	8.11
493.922	8.17
494.274	8.24
494.625	8.34
494.977	8.35
495.328	8.47
495.68	8.58
496.031	8.6
496.383	8.69
496.734	8.86
497.086	8.67
497.437	8.72
497.788	8.74
498.139	8.84
498.49	8.56
498.842	8.58
499.193	8.7
499.544	8.74
499.894	8.74
500.245	8.78
500.596	8.84
500.947	8.84
501.298	8.86
501.648	8.79
501.999	8.87
502.35	8.88
502.7	9.1
503.051	9
503.401	8.99
503.752	9.03
504.102	8.97
504.452	8.99
504.803	8.97
505.153	9.16
505.503	9.08
505.853	9.02
506.203	9.02
506.553	8.99
506.903	9.08
507.253	9.13
507.603	9.09
507.953	9.1
508.303	9.14
508.652	9.16
509.002	9.15
509.352	9.25
509.701	9.39
510.051	9.18
510.4	9.14
510.75	9.2
511.099	9.2
511.449	9.23
511.798	9.28
512.147	9.3
512.496	9.24
512.846	9.26
513.195	9.35
513.544	9.34
513.893	9.37
514.242	9.38
514.591	9.44
514.939	9.41
515.288	9.38
515.637	9.48
515.986	9.65
516.334	9.5
516.683	9.59
517.032	9.56
517.38	9.52
517.729	9.65
518.077	9.65
518.426	9.69
518.774	9.51
519.122	9.67
519.47	9.7
519.819	9.56
520.167	9.51
520.515	9.48
520.863	9.54
521.211	9.59
521.559	9.7
521.907	9.71
522.255	9.8
522.602	9.88
522.95	9.76
523.298	9.81
523.645	9.87
523.993	9.84
524.341	9.97
524.688	10.08
525.036	10.02
525.383	9.86
525.73	10.12
526.078	10.05
526.425	10.14
526.772	10
527.119	9.96
527.466	9.83
527.814	9.94
528.161	9.97
528.508	9.9
528.854	9.97
529.201	9.97
529.548	10.06
529.895	9.99
530.242	9.75
530.588	9.68
530.935	9.7
531.282	9.8
531.628	9.91
531.975	9.93
532.321	10.04
532.667	10.18
533.014	10.27
533.36	10.38
533.706	10.43
534.052	10.31
534.399	10.19
534.745	10.21
535.091	10.19
535.437	10.19
535.783	10.26
536.129	10.27
536.474	10.42
536.82	10.48
537.166	10.54
537.512	10.76
537.857	10.65
538.203	10.59
538.549	10.67
538.894	10.63
539.239	10.78
539.585	10.78
539.93	10.77
540.276	10.97
540.621	10.9
540.966	11.1
541.311	11.12
541.656	11.12
542.001	11.17
542.346	11.01
542.691	10.88
543.036	10.72
543.381	10.59
543.726	10.66
544.071	10.86
544.415	10.87
544.76	10.92
545.105	11.03
545.449	11
545.794	11.19
546.138	11.12
546.483	11.12
546.827	11.32
547.171	11.42
547.516	11.35
547.86	11.4
548.204	11.35
548.548	11.34
548.892	11.3
549.236	11.48
549.58	11.4
549.924	11.59
550.268	11.58
550.612	11.81
550.956	11.91
551.3	11.84
551.643	11.83
551.987	11.93
552.33	11.87
552.674	12.07
553.017	11.99
553.361	12.08
553.704	12.19
554.048	12.03
554.391	12.04
554.734	12.11
555.077	12.03
555.42	12.03
555.764	12.12
556.107	12.26
556.45	12.36
556.793	12.27
557.135	12.26
557.478	12.21
557.821	12.52
558.164	12.49
558.507	12.52
558.849	12.59
559.192	12.57
559.534	12.91
559.877	12.51
560.219	12.66
560.562	12.71
560.904	12.6
561.246	12.86
561.589	12.87
561.931	13.08
562.273	12.85
562.615	12.96
562.957	12.89
563.299	12.98
563.641	13.1
563.983	12.91
564.325	12.89
564.667	13.18
565.008	13.04
565.35	13.1
565.692	13.28
566.033	13
566.375	13.21
566.716	13.18
567.058	13.31
567.399	13.23
567.741	13.28
568.082	13.24
568.423	13.26
568.764	13.21
569.105	13.49
569.447	13.56
569.788	13.52
570.129	13.7
570.47	13.59
570.811	13.67
571.151	13.67
571.492	13.87
571.833	13.7
572.174	13.72
572.514	13.67
572.855	13.82
573.195	13.85
573.536	13.72
573.876	13.97
574.217	13.73
574.557	13.92
574.898	13.86
575.238	13.91
575.578	14.01
575.918	14.1
576.258	14.09
576.598	14.21
576.938	14.1
577.278	14.04
577.618	14.03
577.958	14.36
578.298	14.15
578.638	14.46
578.977	14.34
579.317	14.46
579.657	14.49
579.996	14.49
580.336	14.56
580.675	14.58
581.014	14.7
581.354	14.54
581.693	14.74
582.032	14.79
582.372	14.76
582.711	14.94
583.05	15.03
583.389	15.08
583.728	14.97
584.067	14.92
584.406	14.99
584.745	14.88
585.083	15.06
585.422	15.07
585.761	14.92
586.1	15.31
586.438	15.15
586.777	15.31
587.115	15.62
587.454	15.17
587.792	15.27
588.13	15.41
588.469	15.3
588.807	15.43
589.145	15.87
589.483	15.56
589.821	15.59
590.159	15.54
590.497	15.77
590.835	15.65
591.173	15.59
591.511	15.8
591.849	15.75
592.187	15.66
592.524	15.9
592.862	16.14
593.2	15.93
593.537	15.8
593.875	16.05
594.212	16.18
594.55	16.19
594.887	16.2
595.224	16.13
595.561	16.01
595.899	16.01
596.236	16.28
596.573	16.08
596.91	16.31
597.247	16.25
597.584	15.95
597.921	16.46
598.258	16.52
598.594	16.52
598.931	16.05
599.268	16.28
599.604	16.54
599.941	16.4
600.277	16.7
600.614	16.66
600.95	16.68
601.287	16.58
601.623	16.99
601.959	16.95
602.296	17.02
602.632	16.74
602.968	16.73
603.304	17.29
603.64	16.83
603.976	17.08
604.312	17.48
604.648	16.96
604.984	17.1
605.319	16.91
605.655	16.85
605.991	17.03
606.326	17.05
606.662	17.2
606.998	17.01
607.333	17.23
607.668	17.18
608.004	17.46
608.339	17.28
608.674	17.59
609.01	17.69
609.345	17.87
609.68	17.76
610.015	17.63
610.35	17.97
610.685	17.79
611.02	17.64
611.355	17.78
611.689	17.59
612.024	17.73
612.359	17.63
612.694	17.9
613.028	18.08
613.363	18.06
613.697	18.06
614.032	18.17
614.366	18.19
614.7	18.19
615.035	18.28
615.369	18.3
615.703	18.02
616.037	18.49
616.371	18.34
616.705	18.26
617.039	18.32
617.373	18.59
617.707	18.58
618.041	18.62
618.375	18.71
618.709	18.56
619.042	18.79
619.376	19.27
619.71	18.82
620.043	19.34
620.377	18.51
620.71	19
621.043	19.19
621.377	19.11
621.71	18.67
622.043	19.09
622.376	19.35
622.709	19.35
623.043	19.26
623.376	19.03
623.709	19.32
624.041	19.27
624.374	19.18
624.707	19.25
625.04	19.64
625.373	19.52
625.705	19.06
626.038	19.59
626.37	19.19
626.703	19.73
627.035	19.26
627.368	19.46
627.7	19.51
628.032	19.34
628.365	19.61
628.697	19.4
629.029	19.52
629.361	19.47
629.693	19.42
630.025	19.87
630.357	19.86
630.689	20.03
631.021	20.24
631.353	20.21
631.684	19.89
632.016	19.85
632.348	20.12
632.679	19.75
633.011	20.19
633.342	20.16
633.674	20.26
634.005	20.5
634.336	20.62
634.668	20.3
634.999	20.53
635.33	20.44
635.661	20.59
635.992	20.72
636.323	20.39
636.654	20.33
636.985	20.74
637.316	20.68
637.647	20.48
637.977	20.58
638.308	20.56
638.639	20.29
638.969	20.48
639.3	20.45
639.63	20.61
639.961	20.66
640.291	20.58
640.622	20.89
640.952	21.04
641.282	21.04
641.612	20.86
641.943	21.22
642.273	20.79
642.603	21.5
642.933	21.01
643.263	21.23
643.592	21.01
643.922	21.61
644.252	21.13
644.582	21.24
644.911	21.41
645.241	21.54
645.571	21.69
645.9	21.48
646.23	21.66
646.559	21.53
646.888	21.59
647.218	21.57
647.547	21.19
647.876	21.31
648.205	21.87
648.534	22.03
648.863	21.58
649.192	21.07
649.521	22.12
649.85	21.73
650.179	21.87
650.508	22.15
650.837	21.81
651.165	22.34
651.494	21.72
651.822	22.14
652.151	22.08
652.479	22.06
652.808	22.74
653.136	21.91
653.465	22.36
653.793	22.26
654.121	22.53
654.449	22.57
654.777	22.1
655.105	22.35
655.433	22.6
655.761	22.71
656.089	22.96
656.417	22.57
656.745	22.61
657.073	22.66
657.4	23.14
657.728	22.81
658.056	22.76
658.383	22.59
658.711	22.35
659.038	23.14
659.365	22.99
659.693	22.89
660.02	23.01
660.347	22.8
660.674	23.04
661.001	22.5
661.329	22.65
661.656	22.94
661.982	22.9
662.309	23.05
662.636	23.04
662.963	23.42
663.29	23.03
663.616	22.76
663.943	22.84
664.27	23.42
664.596	23.31
664.923	23.23
665.249	23.72
665.576	23.37
665.902	23.29
666.228	23.64
666.554	23.67
666.881	23.83
667.207	23.99
667.533	23.42
667.859	24.03
668.185	23.69
668.511	23.2
668.837	23.67
669.162	24.22
669.488	24.23
669.814	23.25
670.139	23.72
670.465	24.03
670.791	23.81
671.116	23.91
671.442	23.97
671.767	23.78
672.092	24.44
672.418	23.95
672.743	23.91
673.068	24.75
673.393	24.53
673.718	24.46
674.043	24.27
674.368	24.59
674.693	24.57
675.018	24.93
675.343	24.7
675.667	23.88
675.992	24.44
676.317	24.21
676.641	24.84
676.966	24.56
677.29	24.48
677.615	24.55
677.939	25.07
678.264	24.81
678.588	24.28
678.912	24.89
679.236	24.38
679.56	24.71
679.885	25.1
680.209	25.23
680.532	24.57
680.856	24.58
681.18	25.24
681.504	25.43
681.828	24.73
682.152	24.77
