Data from 0227_forehead_Reflection__0__10.txt Node

Date: Fri Oct 20 20:40:41 CDT 2023
User: ToomeyLab
Spectrometer: FLMS14357
Trigger mode: 0
Integration Time (sec): 1.000000E-2
Scans to average: 100
Electric dark correction enabled: true
Nonlinearity correction enabled: false
Boxcar width: 0
XAxis mode: Wavelengths
Number of Pixels in Spectrum: 2048
>>>>>Begin Spectral Data<<<<<
189.047	-197.52
189.435	-197.52
189.823	-197.52
190.211	1622.49
190.599	122.43
190.987	314.47
191.375	-429.53
191.763	76.31
192.151	-99.29
192.538	-85.38
192.926	60.69
193.314	65.75
193.702	259.03
194.089	134.38
194.477	509.81
194.864	62.24
195.252	233.85
195.639	-155.74
196.027	88.22
196.414	8.54
196.801	7.88
197.189	69.28
197.576	67.62
197.963	50.55
198.351	65.7
198.738	40.78
199.125	38.99
199.512	34.51
199.899	64.52
200.286	25.38
200.673	27.86
201.06	29.45
201.447	36.35
201.833	44.6
202.22	5.27
202.607	52.81
202.994	65.72
203.38	24.83
203.767	18.81
204.154	44.48
204.54	52.79
204.927	51.87
205.313	-6.23
205.699	47.69
206.086	55.93
206.472	73.94
206.858	43.69
207.245	0.75
207.631	33.03
208.017	33.47
208.403	22.2
208.789	43.09
209.175	23.69
209.561	48.31
209.947	27.23
210.333	34.5
210.719	31.98
211.105	11.33
211.491	52.6
211.876	7.74
212.262	47.42
212.648	37.61
213.034	18.57
213.419	18.33
213.805	21.54
214.19	24.39
214.576	12.74
214.961	35.2
215.346	53.81
215.732	38.42
216.117	-20.35
216.502	23.46
216.888	30.93
217.273	13.76
217.658	19.03
218.043	1.69
218.428	27.09
218.813	31.08
219.198	13.99
219.583	-6.2
219.968	-6
220.353	26.13
220.738	25.05
221.122	9.45
221.507	15.51
221.892	21.28
222.276	21.05
222.661	23.26
223.046	10.14
223.43	22.92
223.815	13.73
224.199	15.42
224.583	6.53
224.968	15.94
225.352	5.35
225.736	-2.7
226.121	10.92
226.505	15.04
226.889	9.85
227.273	9.68
227.657	12.97
228.041	7.52
228.425	5.23
228.809	8.7
229.193	4.58
229.577	7.23
229.961	4.98
230.344	5.67
230.728	3.64
231.112	4.43
231.495	4.39
231.879	5.71
232.263	5.88
232.646	3.92
233.03	3.77
233.413	3.9
233.797	5.29
234.18	7.39
234.563	7.2
234.946	4.98
235.33	5.8
235.713	5.8
236.096	6.16
236.479	6.01
236.862	5.72
237.245	4.98
237.628	5.72
238.011	6.87
238.394	4.36
238.777	6.72
239.16	4.63
239.543	7.74
239.925	7.47
240.308	5.22
240.691	4.94
241.073	5.76
241.456	5.56
241.838	5.94
242.221	5.88
242.603	5.51
242.986	5.57
243.368	4.67
243.75	4.55
244.133	3.99
244.515	4.07
244.897	4.82
245.279	4.84
245.661	4.76
246.043	4.26
246.425	5.33
246.807	4.7
247.189	4.69
247.571	4.76
247.953	4.7
248.335	4.78
248.717	4.2
249.098	4.5
249.48	4.33
249.862	4.7
250.243	4.99
250.625	5.24
251.006	4.89
251.388	4.93
251.769	5.11
252.151	4.29
252.532	4.88
252.913	5.31
253.295	3.81
253.676	4.79
254.057	4.66
254.438	5.07
254.819	5.58
255.2	4.98
255.581	5.07
255.962	5.52
256.343	6.15
256.724	4.48
257.105	5.31
257.486	5.45
257.867	5.54
258.247	6.25
258.628	5.16
259.009	4.88
259.389	4.38
259.77	4.39
260.15	5.36
260.531	4.67
260.911	4.4
261.292	4.44
261.672	4.48
262.052	4.56
262.432	4.56
262.813	4.81
263.193	5.15
263.573	4.61
263.953	5.19
264.333	5.28
264.713	5.02
265.093	5.46
265.473	5.22
265.853	5.31
266.233	4.86
266.612	5.12
266.992	5.41
267.372	5.03
267.752	4.88
268.131	5.13
268.511	4.68
268.89	5.07
269.27	4.6
269.649	4.52
270.029	4.98
270.408	5.22
270.787	4.35
271.167	4.67
271.546	5.4
271.925	5.47
272.304	4.94
272.683	4.8
273.062	4.64
273.441	4.55
273.82	4.66
274.199	5.27
274.578	4.65
274.957	4.49
275.336	5.19
275.715	4.57
276.093	4.72
276.472	5.07
276.851	4.68
277.229	4.81
277.608	4.26
277.986	4.65
278.365	5.06
278.743	4.41
279.122	4.73
279.5	4.6
279.878	4.45
280.257	5.06
280.635	4.93
281.013	4.63
281.391	5.26
281.769	4.75
282.147	4.35
282.525	4.43
282.903	4.65
283.281	4.86
283.659	5.27
284.037	4.87
284.415	4.67
284.792	4.39
285.17	4.87
285.548	4.83
285.925	4.36
286.303	4.48
286.68	4.77
287.058	5.14
287.435	4.76
287.813	4.37
288.19	4.71
288.567	4.71
288.945	4.91
289.322	5.7
289.699	4.81
290.076	5.67
290.453	5.45
290.83	4.99
291.207	5.33
291.584	4.59
291.961	5.32
292.338	5.19
292.715	4.7
293.092	5.29
293.469	5.46
293.845	4.79
294.222	5.32
294.599	5.59
294.975	6.3
295.352	5.28
295.728	5.61
296.105	5.45
296.481	6.15
296.858	5.72
297.234	5.71
297.61	5.55
297.986	5.22
298.363	5.65
298.739	5.8
299.115	5.75
299.491	5.78
299.867	5.82
300.243	5.87
300.619	5.85
300.995	6.03
301.371	6.27
301.746	5.85
302.122	6.49
302.498	5.83
302.874	6.54
303.249	6.13
303.625	6.6
304	6.84
304.376	6.52
304.751	5.93
305.127	5.79
305.502	6.55
305.878	6.16
306.253	6.58
306.628	6.52
307.003	6.47
307.378	6.64
307.754	6.8
308.129	7.13
308.504	6.81
308.879	7.08
309.254	7.27
309.629	6.32
310.003	6.11
310.378	7.68
310.753	7.38
311.128	7.28
311.502	6.94
311.877	6.96
312.252	7.14
312.626	7.27
313.001	6.89
313.375	7.35
313.75	7.15
314.124	7.26
314.498	7.37
314.873	7.33
315.247	7.54
315.621	7.56
315.995	7.88
316.369	7.21
316.743	7.38
317.117	7.67
317.491	7.17
317.865	7.81
318.239	7.79
318.613	8.15
318.987	7.91
319.361	7.71
319.734	7.71
320.108	8.09
320.482	8.05
320.855	8.1
321.229	8.93
321.602	7.93
321.976	8.27
322.349	8.94
322.723	8.49
323.096	8.38
323.469	8.52
323.843	8.28
324.216	8.62
324.589	8.67
324.962	8.91
325.335	8.78
325.708	8.38
326.081	8.55
326.454	8.45
326.827	9.02
327.2	8.98
327.573	8.81
327.945	8.79
328.318	8.42
328.691	8.8
329.063	9.54
329.436	8.65
329.809	9.35
330.181	9.12
330.553	9.03
330.926	9.26
331.298	8.88
331.671	8.68
332.043	8.67
332.415	9.05
332.787	9.81
333.159	9.39
333.532	9.54
333.904	9.05
334.276	8.91
334.648	9.32
335.02	9.49
335.391	9.44
335.763	9.8
336.135	9.44
336.507	9.99
336.879	9.35
337.25	9.79
337.622	9.42
337.993	9.68
338.365	9.37
338.736	10.05
339.108	9.85
339.479	9.34
339.851	9.92
340.222	9.65
340.593	9.51
340.964	9.8
341.336	9.83
341.707	10.11
342.078	9.89
342.449	9.86
342.82	9.58
343.191	10.01
343.562	10.15
343.933	10.09
344.303	9.95
344.674	10.39
345.045	10.16
345.416	10.09
345.786	10.19
346.157	10.49
346.527	10.45
346.898	10.09
347.268	10.39
347.639	10.47
348.009	10.37
348.38	10.44
348.75	10.65
349.12	10.49
349.49	10.67
349.861	11.06
350.231	10.37
350.601	10.56
350.971	11.19
351.341	10.95
351.711	11.14
352.081	11.02
352.45	10.89
352.82	10.76
353.19	11.1
353.56	11.36
353.929	10.95
354.299	10.97
354.669	10.61
355.038	10.87
355.408	11.21
355.777	10.77
356.147	10.98
356.516	11.14
356.885	11.18
357.254	11.2
357.624	11.53
357.993	11.32
358.362	11.58
358.731	10.99
359.1	10.97
359.469	11.01
359.838	11.44
360.207	11.46
360.576	11.6
360.945	11.5
361.314	11.71
361.682	11.46
362.051	11.51
362.42	11.26
362.788	11.92
363.157	11.77
363.525	11.49
363.894	11.55
364.262	11.87
364.631	12.09
364.999	11.99
365.367	11.87
365.735	11.87
366.104	12.01
366.472	12.02
366.84	12.34
367.208	12.06
367.576	12.31
367.944	12.28
368.312	12.54
368.68	12.23
369.048	12.19
369.416	12.72
369.783	12.88
370.151	12.5
370.519	12.52
370.886	12.49
371.254	12.56
371.621	12.97
371.989	12.63
372.356	13.08
372.724	13.26
373.091	13.09
373.458	12.77
373.826	13.07
374.193	12.78
374.56	12.98
374.927	13.09
375.294	13.17
375.661	13.3
376.028	13.63
376.395	13.48
376.762	13.11
377.129	13.25
377.496	13.44
377.863	13.77
378.229	13.83
378.596	13.52
378.963	13.15
379.329	13.95
379.696	13.58
380.062	13.51
380.429	13.65
380.795	13.7
381.161	13.65
381.528	14.27
381.894	13.76
382.26	13.93
382.626	13.86
382.993	14.08
383.359	13.81
383.725	14.03
384.091	14.13
384.457	14.17
384.823	14.3
385.188	14.06
385.554	14.23
385.92	14.14
386.286	14.26
386.651	14.07
387.017	14.2
387.383	14.37
387.748	14.36
388.114	14.24
388.479	14.66
388.845	14.8
389.21	14.32
389.575	14.3
389.94	14.73
390.306	14.56
390.671	14.53
391.036	14.85
391.401	14.83
391.766	14.82
392.131	14.86
392.496	14.92
392.861	14.83
393.226	15.01
393.591	14.88
393.956	14.9
394.32	15.17
394.685	15.03
395.05	15.26
395.414	15.19
395.779	15.09
396.143	14.92
396.508	15.22
396.872	15.34
397.236	15.34
397.601	15.32
397.965	15.13
398.329	15.38
398.694	15.4
399.058	15.47
399.422	15.78
399.786	15.7
400.15	15.63
400.514	15.34
400.878	15.88
401.242	15.82
401.605	15.62
401.969	15.79
402.333	15.93
402.697	16.02
403.06	16.12
403.424	15.9
403.787	15.85
404.151	15.99
404.514	16.1
404.878	16.16
405.241	16.21
405.604	16.25
405.968	16.24
406.331	16.15
406.694	16.27
407.057	16.27
407.42	16.55
407.783	16.23
408.146	16.35
408.509	16.37
408.872	16.62
409.235	16.42
409.598	16.6
409.961	16.88
410.323	16.85
410.686	16.6
411.049	16.76
411.411	16.83
411.774	16.68
412.136	16.75
412.499	16.83
412.861	16.91
413.223	16.97
413.586	16.97
413.948	17.27
414.31	17.2
414.672	17.05
415.035	17.25
415.397	17.33
415.759	17.32
416.121	17.21
416.483	17.5
416.845	17.27
417.206	17.25
417.568	17.53
417.93	17.43
418.292	17.25
418.653	17.34
419.015	17.43
419.377	17.25
419.738	17.2
420.1	17.12
420.461	17.15
420.822	17.4
421.184	17.51
421.545	17.45
421.906	17.64
422.267	17.3
422.629	17.3
422.99	17.31
423.351	17.39
423.712	17.41
424.073	17.67
424.434	17.66
424.795	17.73
425.155	17.75
425.516	17.61
425.877	17.64
426.238	17.56
426.598	17.8
426.959	17.84
427.32	17.96
427.68	18.04
428.041	18.28
428.401	18.28
428.761	18.23
429.122	18.41
429.482	18.52
429.842	18.51
430.202	18.56
430.563	18.71
430.923	18.83
431.283	18.69
431.643	18.9
432.003	18.9
432.363	18.79
432.722	18.94
433.082	18.91
433.442	18.82
433.802	19.04
434.161	18.89
434.521	19
434.881	19.08
435.24	19.1
435.6	19.1
435.959	19.1
436.319	19.21
436.678	19.33
437.037	19.22
437.396	19.44
437.756	19.27
438.115	19.38
438.474	19.48
438.833	19.59
439.192	19.45
439.551	19.6
439.91	19.53
440.269	19.85
440.628	19.63
440.987	19.57
441.345	19.55
441.704	19.56
442.063	19.57
442.421	19.55
442.78	19.52
443.138	19.77
443.497	19.89
443.855	19.97
444.214	20
444.572	20.02
444.93	20
445.288	20.28
445.647	20.34
446.005	19.95
446.363	20.16
446.721	20.19
447.079	20.19
447.437	20.08
447.795	19.98
448.153	19.94
448.51	20.07
448.868	20.07
449.226	20.25
449.584	20.4
449.941	20.27
450.299	20.55
450.656	20.46
451.014	20.69
451.371	20.76
451.729	20.72
452.086	20.85
452.443	21.05
452.801	20.95
453.158	21.25
453.515	21.11
453.872	21
454.229	21.12
454.586	21.22
454.943	21.17
455.3	21.18
455.657	21.43
456.014	21.42
456.371	21.55
456.727	21.63
457.084	21.58
457.441	21.65
457.797	21.85
458.154	21.74
458.51	21.76
458.867	21.75
459.223	21.83
459.58	21.85
459.936	21.74
460.292	21.75
460.648	21.72
461.005	21.78
461.361	21.65
461.717	21.42
462.073	21.51
462.429	21.71
462.785	21.94
463.141	22.27
463.496	22.16
463.852	22.28
464.208	22.43
464.564	22.65
464.919	22.51
465.275	22.93
465.631	22.85
465.986	22.72
466.342	22.56
466.697	22.64
467.052	22.63
467.408	22.82
467.763	22.95
468.118	23.04
468.473	22.92
468.829	22.73
469.184	22.96
469.539	23.17
469.894	23.22
470.249	23.35
470.603	23.26
470.958	23.32
471.313	23.52
471.668	23.35
472.023	23.31
472.377	23.48
472.732	23.41
473.086	23.65
473.441	23.61
473.795	23.65
474.15	23.56
474.504	23.57
474.859	23.76
475.213	23.85
475.567	23.84
475.921	23.94
476.275	23.91
476.63	24.24
476.984	24.13
477.338	24
477.692	23.96
478.045	24
478.399	23.85
478.753	23.95
479.107	24.22
479.461	24.22
479.814	24.3
480.168	24.29
480.521	24.2
480.875	24.26
481.228	24.41
481.582	24.64
481.935	24.45
482.289	24.47
482.642	24.3
482.995	24.37
483.348	24.29
483.701	24.3
484.055	24.29
484.408	24.12
484.761	23.9
485.114	23.46
485.466	23.07
485.819	23.11
486.172	23.37
486.525	23.81
486.878	24.27
487.23	24.44
487.583	24.57
487.936	24.41
488.288	24.45
488.641	24.34
488.993	24
489.345	24.08
489.698	24.1
490.05	24.12
490.402	24.45
490.754	24.76
491.107	24.93
491.459	25.21
491.811	25.21
492.163	25.2
492.515	25.15
492.866	25.09
493.218	24.58
493.57	24.48
493.922	24.83
494.274	25.11
494.625	25.4
494.977	25.59
495.328	25.89
495.68	25.95
496.031	25.94
496.383	26.17
496.734	26.45
497.086	26.43
497.437	26.33
497.788	26.33
498.139	26.37
498.49	26.18
498.842	26.14
499.193	26.24
499.544	26.47
499.894	26.61
500.245	26.49
500.596	26.57
500.947	26.89
501.298	27
501.648	26.9
501.999	27.13
502.35	27.19
502.7	27.1
503.051	27.42
503.401	27.35
503.752	27.41
504.102	27.36
504.452	27.29
504.803	27.45
505.153	27.6
505.503	27.62
505.853	27.45
506.203	27.38
506.553	27.52
506.903	27.66
507.253	27.7
507.603	27.94
507.953	27.87
508.303	27.98
508.652	27.95
509.002	28.06
509.352	27.96
509.701	28
510.051	27.99
510.4	28.14
510.75	28.09
511.099	28.02
511.449	28.06
511.798	28.24
512.147	28.16
512.496	28.24
512.846	28.36
513.195	28.44
513.544	28.48
513.893	28.24
514.242	28.14
514.591	28.27
514.939	28.47
515.288	28.68
515.637	28.76
515.986	28.95
516.334	28.85
516.683	29.02
517.032	28.95
517.38	29.14
517.729	29.28
518.077	29.18
518.426	29.28
518.774	29.07
519.122	29.02
519.47	29.06
519.819	28.82
520.167	28.9
520.515	28.58
520.863	28.89
521.211	29.09
521.559	29.29
521.907	29.34
522.255	29.61
522.602	29.82
522.95	29.68
523.298	29.86
523.645	29.96
523.993	29.88
524.341	30.19
524.688	30.06
525.036	30.1
525.383	30
525.73	30.13
526.078	30.04
526.425	30.13
526.772	30.1
527.119	29.88
527.466	29.61
527.814	29.57
528.161	29.88
528.508	29.97
528.854	30.09
529.201	30.05
529.548	29.77
529.895	29.39
530.242	29.05
530.588	28.96
530.935	29.47
531.282	29.89
531.628	30.24
531.975	30.31
532.321	30.5
532.667	30.69
533.014	30.76
533.36	30.83
533.706	30.68
534.052	30.72
534.399	30.56
534.745	30.38
535.091	30.16
535.437	30.28
535.783	30.59
536.129	30.94
536.474	31.23
536.82	31.51
537.166	31.4
537.512	31.56
537.857	31.41
538.203	31.31
538.549	31.1
538.894	31.23
539.239	31.58
539.585	31.66
539.93	32.08
540.276	32.14
540.621	32.27
540.966	32.31
541.311	32.4
541.656	32.21
542.001	32.16
542.346	32.02
542.691	31.57
543.036	31.22
543.381	31.18
543.726	31.47
544.071	31.99
544.415	32.35
544.76	32.28
545.105	32.36
545.449	32.44
545.794	32.54
546.138	32.66
546.483	32.87
546.827	32.94
547.171	33.18
547.516	32.95
547.86	33.02
548.204	33.19
548.548	32.93
548.892	33.02
549.236	33.24
549.58	33.31
549.924	33.58
550.268	33.75
550.612	33.85
550.956	34.19
551.3	34.3
551.643	34.09
551.987	34.49
552.33	34.52
552.674	34.36
553.017	34.48
553.361	34.68
553.704	34.38
554.048	34.4
554.391	34.5
554.734	34.38
555.077	34.4
555.42	34.77
555.764	34.87
556.107	35.16
556.45	34.97
556.793	35.22
557.135	35.18
557.478	35.33
557.821	35.49
558.164	35.49
558.507	35.42
558.849	35.51
559.192	35.4
559.534	35.67
559.877	35.18
560.219	35.77
560.562	35.58
560.904	35.68
561.246	35.84
561.589	35.92
561.931	36.12
562.273	36.11
562.615	36.34
562.957	35.85
563.299	36.19
563.641	36.32
563.983	36.22
564.325	36.28
564.667	36.58
565.008	36.63
565.35	36.36
565.692	36.49
566.033	36.61
566.375	36.71
566.716	36.89
567.058	36.44
567.399	36.68
567.741	36.49
568.082	36.5
568.423	36.6
568.764	36.67
569.105	36.87
569.447	36.91
569.788	37.27
570.129	37.45
570.47	37.18
570.811	37.43
571.151	37.13
571.492	37.22
571.833	37.45
572.174	37.54
572.514	37.3
572.855	37.38
573.195	37.36
573.536	37.4
573.876	37.43
574.217	37.37
574.557	37.52
574.898	37.55
575.238	37.59
575.578	37.8
575.918	37.81
576.258	37.92
576.598	38
576.938	37.8
577.278	37.89
577.618	37.89
577.958	38.16
578.298	38.14
578.638	38.54
578.977	38.38
579.317	38.52
579.657	38.51
579.996	38.84
580.336	38.95
580.675	38.71
581.014	39
581.354	38.82
581.693	39.02
582.032	39.59
582.372	39.36
582.711	39.51
583.05	39.53
583.389	39.59
583.728	39.65
584.067	39.78
584.406	39.94
584.745	39.66
585.083	40.11
585.422	39.62
585.761	39.77
586.1	39.89
586.438	39.55
586.777	39.99
587.115	40.36
587.454	39.93
587.792	40.31
588.13	40.3
588.469	40.13
588.807	40.02
589.145	40.41
589.483	40.53
589.821	40.54
590.159	40.41
590.497	40.76
590.835	40.67
591.173	40.33
591.511	40.35
591.849	40.68
592.187	40.66
592.524	40.64
592.862	40.73
593.2	40.93
593.537	41.03
593.875	41.11
594.212	41.13
594.55	41.29
594.887	41.22
595.224	41.48
595.561	41.16
595.899	41.16
596.236	41.18
596.573	41.54
596.91	41.64
597.247	41.27
597.584	41.52
597.921	41.48
598.258	41.66
598.594	41.35
598.931	40.93
599.268	41.26
599.604	41.81
599.941	41.75
600.277	42
600.614	42.08
600.95	42.35
601.287	42.05
601.623	42.42
601.959	42.28
602.296	42.52
602.632	42.19
602.968	42.49
603.304	42.3
603.64	42.49
603.976	42.62
604.312	42.69
604.648	42.73
604.984	42.26
605.319	42.59
605.655	42.35
605.991	42.29
606.326	42.22
606.662	42.01
606.998	42.28
607.333	42.54
607.668	42.72
608.004	42.92
608.339	43.1
608.674	43.33
609.01	43.66
609.345	43.41
609.68	43.26
610.015	43.57
610.35	43.69
610.685	43.5
611.02	43.06
611.355	43.31
611.689	42.91
612.024	43.46
612.359	43.33
612.694	43.85
613.028	43.88
613.363	44.07
613.697	44.04
614.032	44.23
614.366	44.16
614.7	44.44
615.035	44.41
615.369	44.63
615.703	44.32
616.037	44.52
616.371	44.7
616.705	44.46
617.039	44.97
617.373	44.81
617.707	44.98
618.041	44.9
618.375	45.18
618.709	44.72
619.042	44.96
619.376	45.33
619.71	44.91
620.043	45.6
620.377	45.19
620.71	45.28
621.043	45.41
621.377	45.07
621.71	45.46
622.043	45.67
622.376	45.56
622.709	45.54
623.043	45.47
623.376	45.21
623.709	45.67
624.041	45.93
624.374	46.29
624.707	45.79
625.04	45.91
625.373	45.96
625.705	45.93
626.038	45.93
626.37	46.34
626.703	45.89
627.035	45.59
627.368	46.04
627.7	46.09
628.032	45.92
628.365	46.34
628.697	46.09
629.029	45.66
629.361	46.26
629.693	46.19
630.025	46.72
630.357	46.62
630.689	46.3
631.021	46.74
631.353	46.67
631.684	46.54
632.016	46.42
632.348	47.22
632.679	46.63
633.011	46.71
633.342	47.46
633.674	47.15
634.005	47.07
634.336	47.53
634.668	47.15
634.999	47.49
635.33	47.18
635.661	47.73
635.992	47.55
636.323	47.6
636.654	47.64
636.985	47.26
637.316	47.76
637.647	47.77
637.977	47.63
638.308	47.48
638.639	47.69
638.969	48.25
639.3	47.69
639.63	48.34
639.961	47.9
640.291	47.81
640.622	48.24
640.952	48.18
641.282	48.1
641.612	48.55
641.943	48.65
642.273	48.48
642.603	48.32
642.933	48.26
643.263	48.64
643.592	48.82
643.922	48.94
644.252	49.02
644.582	48.76
644.911	48.91
645.241	49.02
645.571	49.14
645.9	49.1
646.23	49.14
646.559	49.35
646.888	49.15
647.218	49.43
647.547	49.88
647.876	49.27
648.205	49.03
648.534	49.21
648.863	49.23
649.192	49.81
649.521	49.6
649.85	49.4
650.179	49.52
650.508	49.7
650.837	49.94
651.165	49.95
651.494	50.02
651.822	49.53
652.151	49.42
652.479	49.32
652.808	49.86
653.136	49.47
653.465	49.75
653.793	49.85
654.121	49.47
654.449	50.16
654.777	49.6
655.105	50.38
655.433	50.36
655.761	50.44
656.089	50.17
656.417	50.15
656.745	50.28
657.073	50.18
657.4	51.21
657.728	50.82
658.056	50.76
658.383	50.44
658.711	50.74
659.038	50.6
659.365	50.4
659.693	51.15
660.02	50.82
660.347	50.6
660.674	50.7
661.001	50.43
661.329	50.13
661.656	50.76
661.982	50.63
662.309	50.49
662.636	51.15
662.963	51.13
663.29	51.19
663.616	51.34
663.943	51.22
664.27	51.81
664.596	51.81
664.923	51.61
665.249	51.58
665.576	51.25
665.902	51.53
666.228	52.11
666.554	51.55
666.881	51.31
667.207	51.85
667.533	52.12
667.859	51.99
668.185	52.1
668.511	52.22
668.837	51.95
669.162	52.44
669.488	52.76
669.814	51.8
670.139	52.67
670.465	51.65
670.791	51.8
