Data from 0227_crown_Reflection__4__09.txt Node

Date: Fri Oct 20 20:40:09 CDT 2023
User: ToomeyLab
Spectrometer: FLMS14357
Trigger mode: 0
Integration Time (sec): 1.000000E-2
Scans to average: 100
Electric dark correction enabled: true
Nonlinearity correction enabled: false
Boxcar width: 0
XAxis mode: Wavelengths
Number of Pixels in Spectrum: 2048
>>>>>Begin Spectral Data<<<<<
189.047	-226.33
189.435	-226.33
189.823	-226.33
190.211	463.32
190.599	54.95
190.987	142.19
191.375	59.94
191.763	57.52
192.151	-32.46
192.538	623.71
192.926	-232.89
193.314	60.39
193.702	352.12
194.089	27.17
194.477	1108.72
194.864	131.16
195.252	253.09
195.639	-204.5
196.027	140
196.414	185.44
196.801	89.47
197.189	48.43
197.576	136.76
197.963	-25.05
198.351	39.82
198.738	21.52
199.125	18.68
199.512	15.51
199.899	50.15
200.286	-42.16
200.673	22.12
201.06	-11.11
201.447	2.13
201.833	42.8
202.22	15.29
202.607	17.54
202.994	14.99
203.38	-1.31
203.767	4.47
204.154	37.9
204.54	30.93
204.927	2.45
205.313	-9.44
205.699	32.25
206.086	12.02
206.472	76.58
206.858	26.07
207.245	-28.36
207.631	22.33
208.017	22.31
208.403	31.35
208.789	72.77
209.175	38.78
209.561	32.31
209.947	1
210.333	6.75
210.719	25.86
211.105	17.78
211.491	12.24
211.876	-2.03
212.262	30.36
212.648	9.12
213.034	-1.24
213.419	8.24
213.805	4.97
214.19	-5.96
214.576	6.38
214.961	6.03
215.346	38.22
215.732	24.98
216.117	-20.06
216.502	15.45
216.888	3.7
217.273	11.1
217.658	1.6
218.043	15.19
218.428	16.85
218.813	20.98
219.198	18.97
219.583	-19.33
219.968	14.65
220.353	18.13
220.738	11.28
221.122	11.8
221.507	5.24
221.892	10.09
222.276	15.59
222.661	24.22
223.046	11.58
223.43	21.04
223.815	12.61
224.199	16.22
224.583	-2.7
224.968	6.2
225.352	4.46
225.736	-0.2
226.121	13.37
226.505	1.86
226.889	11.36
227.273	8.88
227.657	8.55
228.041	11.25
228.425	8.35
228.809	9.09
229.193	7.37
229.577	9.82
229.961	7.38
230.344	7.32
230.728	7.64
231.112	8.01
231.495	7.69
231.879	7.92
232.263	8.93
232.646	6.53
233.03	8.4
233.413	6.78
233.797	8.12
234.18	7.71
234.563	6.99
234.946	8.23
235.33	8.41
235.713	8.25
236.096	9.42
236.479	8.34
236.862	8.01
237.245	6.41
237.628	8.09
238.011	9.04
238.394	7.37
238.777	9.76
239.16	5.85
239.543	8.52
239.925	7.77
240.308	7.87
240.691	7.21
241.073	8.84
241.456	8.32
241.838	8.12
242.221	8.79
242.603	7.62
242.986	6.7
243.368	7.52
243.75	6.7
244.133	6.34
244.515	6.46
244.897	6.82
245.279	7.01
245.661	6.65
246.043	6.31
246.425	6.13
246.807	7.19
247.189	7.73
247.571	6.86
247.953	6.66
248.335	6.68
248.717	6.5
249.098	6.08
249.48	6.33
249.862	6.75
250.243	7.01
250.625	6.7
251.006	6.43
251.388	6.26
251.769	6.99
252.151	6.66
252.532	7.37
252.913	6.64
253.295	5.23
253.676	6.18
254.057	6.29
254.438	6.14
254.819	6.17
255.2	6.35
255.581	6.75
255.962	6.16
256.343	6.78
256.724	5.48
257.105	6.57
257.486	5.14
257.867	6.05
258.247	7.13
258.628	5.73
259.009	5.79
259.389	5.5
259.77	5.13
260.15	6.17
260.531	6.1
260.911	6
261.292	5.54
261.672	5.62
262.052	5.71
262.432	5.77
262.813	6.02
263.193	6.13
263.573	4.97
263.953	5.94
264.333	5.87
264.713	5.59
265.093	6.25
265.473	5.8
265.853	5.18
266.233	5.97
266.612	5.8
266.992	5.41
267.372	5.3
267.752	5.03
268.131	5.79
268.511	5.3
268.89	5.24
269.27	4.85
269.649	4.82
270.029	5.44
270.408	5.63
270.787	5.98
271.167	5
271.546	5.8
271.925	5.97
272.304	5.84
272.683	5.17
273.062	5.22
273.441	5.37
273.82	5.82
274.199	5.65
274.578	5.12
274.957	5.32
275.336	5.23
275.715	5.21
276.093	5.34
276.472	5.19
276.851	5.02
277.229	5.1
277.608	4.76
277.986	4.67
278.365	5.63
278.743	5.23
279.122	4.56
279.5	4.8
279.878	5.21
280.257	4.85
280.635	5.34
281.013	6.05
281.391	5.05
281.769	4.94
282.147	4.84
282.525	4.61
282.903	5.08
283.281	5.08
283.659	4.64
284.037	5.3
284.415	4.26
284.792	5.05
285.17	5.21
285.548	4.74
285.925	4.93
286.303	4.56
286.68	4.54
287.058	5.25
287.435	4.86
287.813	4.27
288.19	4.96
288.567	4.59
288.945	5.14
289.322	5.21
289.699	4.24
290.076	5.08
290.453	4.74
290.83	4.67
291.207	5.39
291.584	4.8
291.961	4.58
292.338	4.49
292.715	4.67
293.092	5.16
293.469	5.26
293.845	4.77
294.222	5.07
294.599	4.63
294.975	5.36
295.352	4.7
295.728	4.63
296.105	4.82
296.481	4.79
296.858	5.17
297.234	4.93
297.61	3.93
297.986	4.63
298.363	4.55
298.739	4.81
299.115	4.31
299.491	4.46
299.867	4.63
300.243	4.59
300.619	4.6
300.995	4.43
301.371	5.01
301.746	4.83
302.122	5.11
302.498	4.53
302.874	4.9
303.249	4.77
303.625	5.15
304	5.18
304.376	4.36
304.751	4.32
305.127	4.6
305.502	4.74
305.878	4.62
306.253	4.73
306.628	4.78
307.003	4.99
307.378	4.4
307.754	5
308.129	4.57
308.504	5.13
308.879	4.95
309.254	4.59
309.629	4.58
310.003	4.2
310.378	4.66
310.753	4.45
311.128	4.68
311.502	4.62
311.877	4.77
312.252	4.6
312.626	4.49
313.001	4.65
313.375	4.66
313.75	4.69
314.124	4.54
314.498	4.74
314.873	4.58
315.247	4.62
315.621	4.58
315.995	4.72
316.369	4.11
316.743	4.95
317.117	4.47
317.491	4.38
317.865	4.93
318.239	5.12
318.613	4.5
318.987	4.52
319.361	3.9
319.734	4.54
320.108	4.13
320.482	5.44
320.855	5.12
321.229	5.08
321.602	4.55
321.976	4.47
322.349	5.43
322.723	4.48
323.096	4.9
323.469	5.08
323.843	5.39
324.216	4.63
324.589	4.42
324.962	4.85
325.335	5.06
325.708	5.07
326.081	4.84
326.454	4.96
326.827	5.25
327.2	4.99
327.573	4.8
327.945	4.97
328.318	4.37
328.691	4.71
329.063	5.28
329.436	4.55
329.809	4.96
330.181	5.17
330.553	4.79
330.926	4.96
331.298	4.66
331.671	4.42
332.043	4.49
332.415	5.06
332.787	4.84
333.159	5.16
333.532	5.49
333.904	5.02
334.276	4.95
334.648	4.95
335.02	4.99
335.391	4.4
335.763	5.17
336.135	4.79
336.507	4.66
336.879	4.2
337.25	4.93
337.622	5.33
337.993	5.14
338.365	4.98
338.736	5.06
339.108	5.14
339.479	4.91
339.851	5.19
340.222	4.81
340.593	4.75
340.964	4.55
341.336	5.41
341.707	4.98
342.078	5.23
342.449	5.11
342.82	4.84
343.191	4.92
343.562	4.67
343.933	4.96
344.303	4.88
344.674	4.74
345.045	5.06
345.416	5.11
345.786	4.76
346.157	5.2
346.527	5.04
346.898	5.07
347.268	4.97
347.639	5.18
348.009	4.91
348.38	5.49
348.75	5.17
349.12	5.04
349.49	4.82
349.861	5.42
350.231	4.94
350.601	4.86
350.971	5.3
351.341	4.76
351.711	5.56
352.081	4.9
352.45	4.99
352.82	5.28
353.19	5.6
353.56	5.35
353.929	4.94
354.299	4.99
354.669	5.05
355.038	4.93
355.408	5.15
355.777	5.16
356.147	5.3
356.516	4.86
356.885	5.58
357.254	5.08
357.624	5.22
357.993	5.21
358.362	5.32
358.731	4.8
359.1	4.85
359.469	5.24
359.838	5.34
360.207	5.36
360.576	5.39
360.945	5.28
361.314	4.93
361.682	5.45
362.051	5.22
362.42	5.27
362.788	5.37
363.157	5.27
363.525	4.96
363.894	5.04
364.262	5.28
364.631	5.48
364.999	5.5
365.367	5.46
365.735	5.24
366.104	5.32
366.472	5.54
366.84	5.39
367.208	5.15
367.576	5.27
367.944	5.3
368.312	5.34
368.68	5.33
369.048	5.36
369.416	5.46
369.783	5.54
370.151	5.58
370.519	5.29
370.886	5.71
371.254	5.65
371.621	5.62
371.989	5.46
372.356	5.3
372.724	5.95
373.091	5.4
373.458	5.22
373.826	5.3
374.193	5.2
374.56	5.74
374.927	5.77
375.294	5.52
375.661	5.54
376.028	5.78
376.395	5.71
376.762	5.24
377.129	5.33
377.496	5.47
377.863	5.67
378.229	5.58
378.596	5.51
378.963	5.46
379.329	5.41
379.696	5.53
380.062	5.63
380.429	5.12
380.795	5.33
381.161	5.55
381.528	5.71
381.894	5.58
382.26	5.86
382.626	5.7
382.993	5.59
383.359	5.44
383.725	5.59
384.091	5.82
384.457	5.39
384.823	5.46
385.188	5.54
385.554	5.64
385.92	5.64
386.286	5.54
386.651	5.12
387.017	5.71
387.383	5.67
387.748	5.47
388.114	5.35
388.479	5.6
388.845	5.84
389.21	5.65
389.575	5.45
389.94	5.51
390.306	5.63
390.671	5.52
391.036	5.54
391.401	5.71
391.766	6
392.131	5.7
392.496	5.72
392.861	5.82
393.226	5.63
393.591	5.61
393.956	5.51
394.32	5.94
394.685	5.63
395.05	5.66
395.414	5.74
395.779	5.32
396.143	5.55
396.508	5.7
396.872	5.82
397.236	5.62
397.601	5.48
397.965	5.45
398.329	5.45
398.694	5.44
399.058	5.47
399.422	5.83
399.786	5.58
400.15	5.51
400.514	5.61
400.878	5.75
401.242	5.57
401.605	5.64
401.969	5.8
402.333	5.88
402.697	6.01
403.06	5.66
403.424	5.75
403.787	5.83
404.151	5.76
404.514	5.76
404.878	5.77
405.241	5.54
405.604	5.48
405.968	5.62
406.331	5.62
406.694	5.7
407.057	5.49
407.42	5.9
407.783	5.65
408.146	5.58
408.509	5.74
408.872	5.77
409.235	5.75
409.598	5.56
409.961	5.9
410.323	6.06
410.686	5.6
411.049	5.7
411.411	5.73
411.774	5.61
412.136	5.81
412.499	5.69
412.861	5.77
413.223	6.08
413.586	5.64
413.948	5.84
414.31	5.84
414.672	5.72
415.035	5.75
415.397	5.77
415.759	5.89
416.121	5.81
416.483	5.92
416.845	5.64
417.206	5.88
417.568	5.82
417.93	6.02
418.292	5.61
418.653	5.68
419.015	5.71
419.377	5.73
419.738	5.59
420.1	5.57
420.461	5.58
420.822	5.67
421.184	5.65
421.545	5.58
421.906	5.58
422.267	5.48
422.629	5.57
422.99	5.42
423.351	5.58
423.712	5.47
424.073	5.62
424.434	5.61
424.795	5.54
425.155	5.55
425.516	5.52
425.877	5.55
426.238	5.44
426.598	5.62
426.959	5.59
427.32	5.63
427.68	5.63
428.041	5.78
428.401	5.8
428.761	5.58
429.122	5.64
429.482	5.81
429.842	5.83
430.202	5.76
430.563	5.6
430.923	5.87
431.283	5.75
431.643	5.78
432.003	5.98
432.363	5.79
432.722	5.78
433.082	5.71
433.442	5.74
433.802	5.94
434.161	5.74
434.521	5.71
434.881	5.84
435.24	5.6
435.6	5.6
435.959	5.67
436.319	5.66
436.678	5.69
437.037	5.68
437.396	5.65
437.756	5.8
438.115	5.63
438.474	5.79
438.833	5.76
439.192	5.56
439.551	5.57
439.91	5.66
440.269	5.74
440.628	5.69
440.987	5.6
441.345	5.58
441.704	5.53
442.063	5.61
442.421	5.64
442.78	5.57
443.138	5.65
443.497	5.72
443.855	5.73
444.214	5.77
444.572	5.61
444.93	5.86
445.288	5.67
445.647	5.78
446.005	5.38
446.363	5.82
446.721	5.57
447.079	5.73
447.437	5.62
447.795	5.54
448.153	5.56
448.51	5.55
448.868	5.5
449.226	5.57
449.584	5.62
449.941	5.58
450.299	5.64
450.656	5.64
451.014	5.69
451.371	5.79
451.729	5.61
452.086	5.74
452.443	5.79
452.801	5.58
453.158	5.85
453.515	5.56
453.872	5.72
454.229	5.87
454.586	5.65
454.943	5.67
455.3	5.56
455.657	5.76
456.014	5.6
456.371	5.62
456.727	5.66
457.084	5.75
457.441	5.76
457.797	5.82
458.154	5.61
458.51	5.71
458.867	5.69
459.223	5.66
459.58	5.65
459.936	5.54
460.292	5.67
460.648	5.67
461.005	5.57
461.361	5.65
461.717	5.46
462.073	5.6
462.429	5.49
462.785	5.63
463.141	5.68
463.496	5.54
463.852	5.81
464.208	5.73
464.564	5.85
464.919	5.62
465.275	5.85
465.631	5.76
465.986	5.72
466.342	5.74
466.697	5.68
467.052	5.61
467.408	5.84
467.763	5.75
468.118	5.94
468.473	5.64
468.829	5.54
469.184	5.69
469.539	5.63
469.894	5.87
470.249	5.73
470.603	5.68
470.958	5.75
471.313	5.75
471.668	5.72
472.023	5.66
472.377	5.75
472.732	5.56
473.086	5.74
473.441	5.83
473.795	5.87
474.15	5.82
474.504	5.52
474.859	5.64
475.213	5.69
475.567	5.73
475.921	5.77
476.275	5.72
476.63	5.82
476.984	5.69
477.338	5.74
477.692	5.69
478.045	5.71
478.399	5.49
478.753	5.75
479.107	5.64
479.461	5.63
479.814	5.85
480.168	5.84
480.521	5.71
480.875	5.69
481.228	5.76
481.582	5.55
481.935	5.72
482.289	5.67
482.642	5.72
482.995	5.45
483.348	5.51
483.701	5.56
484.055	5.53
484.408	5.44
484.761	5.35
485.114	5.24
485.466	5.19
485.819	5.13
486.172	5.09
486.525	5.21
486.878	5.29
487.23	5.39
487.583	5.42
487.936	5.37
488.288	5.42
488.641	5.39
488.993	5.28
489.345	5.3
489.698	5.27
490.05	5.24
490.402	5.27
490.754	5.36
491.107	5.38
491.459	5.43
491.811	5.48
492.163	5.49
492.515	5.52
492.866	5.49
493.218	5.26
493.57	5.26
493.922	5.24
494.274	5.33
494.625	5.41
494.977	5.35
495.328	5.5
495.68	5.66
496.031	5.44
496.383	5.64
496.734	5.69
497.086	5.63
497.437	5.56
497.788	5.54
498.139	5.66
498.49	5.5
498.842	5.42
499.193	5.47
499.544	5.51
499.894	5.52
500.245	5.5
500.596	5.53
500.947	5.64
501.298	5.54
501.648	5.51
501.999	5.57
502.35	5.72
502.7	5.6
503.051	5.58
503.401	5.69
503.752	5.75
504.102	5.55
504.452	5.63
504.803	5.52
505.153	5.56
505.503	5.59
505.853	5.71
506.203	5.48
506.553	5.45
506.903	5.46
507.253	5.58
507.603	5.5
507.953	5.58
508.303	5.53
508.652	5.62
509.002	5.53
509.352	5.5
509.701	5.65
510.051	5.6
510.4	5.53
510.75	5.51
511.099	5.39
511.449	5.48
511.798	5.54
512.147	5.45
512.496	5.51
512.846	5.43
513.195	5.59
513.544	5.52
513.893	5.27
514.242	5.41
514.591	5.51
514.939	5.45
515.288	5.38
515.637	5.58
515.986	5.46
516.334	5.49
516.683	5.52
517.032	5.45
517.38	5.39
517.729	5.48
518.077	5.48
518.426	5.5
518.774	5.38
519.122	5.38
519.47	5.36
519.819	5.35
520.167	5.32
520.515	5.29
520.863	5.3
521.211	5.34
521.559	5.43
521.907	5.28
522.255	5.32
522.602	5.53
522.95	5.36
523.298	5.49
523.645	5.51
523.993	5.29
524.341	5.48
524.688	5.42
525.036	5.38
525.383	5.42
525.73	5.53
526.078	5.4
526.425	5.46
526.772	5.32
527.119	5.24
527.466	5.15
527.814	5.32
528.161	5.22
528.508	5.16
528.854	5.2
529.201	5.18
529.548	5.26
529.895	5.22
530.242	5.04
530.588	4.96
530.935	4.98
531.282	5.11
531.628	5.16
531.975	5.17
532.321	5.22
532.667	5.15
533.014	5.3
533.36	5.29
533.706	5.31
534.052	5.21
534.399	5.2
534.745	5.06
535.091	5.09
535.437	5.09
535.783	5.11
536.129	5.2
536.474	5.23
536.82	5.24
537.166	5.23
537.512	5.38
537.857	5.35
538.203	5.22
538.549	5.17
538.894	5.15
539.239	5.17
539.585	5.21
539.93	5.31
540.276	5.35
540.621	5.32
540.966	5.3
541.311	5.38
541.656	5.29
542.001	5.38
542.346	5.26
542.691	5.15
543.036	5.12
543.381	4.99
543.726	4.95
544.071	5.05
544.415	5.09
544.76	5.14
545.105	5.18
545.449	5.14
545.794	5.2
546.138	5.15
546.483	5.21
546.827	5.11
547.171	5.22
547.516	5.14
547.86	5.26
548.204	5.11
548.548	5.06
548.892	5.12
549.236	5.17
549.58	5.13
549.924	5.18
550.268	5.23
550.612	5.25
550.956	5.46
551.3	5.26
551.643	5.27
551.987	5.32
552.33	5.15
552.674	5.33
553.017	5.35
553.361	5.39
553.704	5.45
554.048	5.31
554.391	5.29
554.734	5.29
555.077	5.2
555.42	5.27
555.764	5.15
556.107	5.44
556.45	5.31
556.793	5.09
557.135	5.26
557.478	5.13
557.821	5.23
558.164	5.28
558.507	5.35
558.849	5.28
559.192	5.47
559.534	5.56
559.877	5.14
560.219	5.31
560.562	5.32
560.904	5.08
561.246	5.21
561.589	5.13
561.931	5.41
562.273	5.31
562.615	5.34
562.957	5.18
563.299	5.28
563.641	5.22
563.983	5.11
564.325	4.9
564.667	5.41
565.008	5.21
565.35	5.2
565.692	5.24
566.033	5.28
566.375	5.31
566.716	5.22
567.058	5.15
567.399	5.23
567.741	5.14
568.082	5.13
568.423	5.06
568.764	5.12
569.105	5.26
569.447	5.12
569.788	5.14
570.129	5.26
570.47	5.24
570.811	5.32
571.151	5.32
571.492	5.34
571.833	5.15
572.174	5.16
572.514	5.04
572.855	5.19
573.195	5.18
573.536	5.09
573.876	5.32
574.217	4.98
574.557	5.1
574.898	4.95
575.238	5.04
575.578	5
575.918	5.09
576.258	5.11
576.598	5.16
576.938	5.12
577.278	5.11
577.618	4.86
577.958	4.9
578.298	4.95
578.638	5.14
578.977	5.19
579.317	5.05
579.657	5.12
579.996	5.15
580.336	5.18
580.675	4.87
581.014	5.19
581.354	5.05
581.693	5.14
582.032	5.11
582.372	5.01
582.711	5.23
583.05	5.37
583.389	5.13
583.728	5.23
584.067	5.17
584.406	5.21
584.745	5.14
585.083	5.18
585.422	5.2
585.761	4.81
586.1	5.2
586.438	4.82
586.777	5.07
587.115	5.17
587.454	5.05
587.792	5.15
588.13	5.08
588.469	5.12
588.807	4.83
589.145	5.09
589.483	4.89
589.821	5.05
590.159	5.19
590.497	5.08
590.835	5.14
591.173	5.03
591.511	5.07
591.849	4.81
592.187	4.88
592.524	4.66
592.862	4.73
593.2	5.01
593.537	4.95
593.875	4.97
594.212	5.06
594.55	4.98
594.887	5.1
595.224	4.9
595.561	4.97
595.899	5.14
596.236	5.03
596.573	5
596.91	5.03
597.247	4.88
597.584	4.93
597.921	5.02
598.258	5.06
598.594	5.11
598.931	4.74
599.268	4.77
599.604	5.02
599.941	4.87
600.277	4.81
600.614	5.06
600.95	4.9
601.287	4.69
601.623	5.23
601.959	5.08
602.296	4.71
602.632	5.11
602.968	4.63
603.304	5.12
603.64	4.71
603.976	4.85
604.312	4.81
604.648	4.96
604.984	5.08
605.319	4.91
605.655	4.77
605.991	4.97
606.326	4.75
606.662	4.78
606.998	4.73
607.333	4.74
607.668	4.64
608.004	4.9
608.339	4.74
608.674	4.83
609.01	4.97
609.345	5.05
609.68	5.01
610.015	4.71
610.35	5.02
610.685	4.96
611.02	4.83
611.355	4.71
611.689	4.69
612.024	4.79
612.359	4.9
612.694	4.8
613.028	4.96
613.363	4.94
613.697	4.93
614.032	4.76
614.366	4.96
614.7	4.83
615.035	4.85
615.369	5.12
615.703	4.78
616.037	5.18
616.371	5.04
616.705	4.93
617.039	4.77
617.373	4.95
617.707	5.08
618.041	4.9
618.375	4.71
618.709	4.88
619.042	4.74
619.376	5.05
619.71	4.95
620.043	4.97
620.377	4.79
620.71	4.67
621.043	5.17
621.377	4.99
621.71	4.81
622.043	5.19
622.376	5.04
622.709	5.31
623.043	4.89
623.376	4.58
623.709	4.58
624.041	4.87
624.374	5.17
624.707	4.91
625.04	4.84
625.373	5
625.705	4.65
626.038	5.03
626.37	4.7
626.703	4.82
627.035	4.86
627.368	4.92
627.7	4.93
628.032	4.9
628.365	5.02
628.697	4.78
629.029	4.79
629.361	4.88
629.693	4.85
630.025	4.84
630.357	4.85
630.689	4.92
631.021	5.29
631.353	4.91
631.684	4.65
632.016	5.04
632.348	4.52
632.679	4.72
633.011	4.77
633.342	4.69
633.674	4.59
634.005	4.79
634.336	4.99
634.668	4.56
634.999	4.9
635.33	4.66
635.661	5.3
635.992	5.05
636.323	5.25
636.654	4.95
636.985	4.79
637.316	4.74
637.647	4.84
637.977	4.58
638.308	4.99
638.639	4.66
638.969	4.91
639.3	4.66
639.63	4.83
639.961	4.47
640.291	4.92
640.622	4.86
640.952	4.86
641.282	4.64
641.612	4.88
641.943	5.08
642.273	4.94
642.603	5.46
642.933	4.92
643.263	5.15
643.592	5
643.922	5.29
644.252	4.46
644.582	4.77
644.911	5.1
645.241	4.88
645.571	5.29
645.9	4.74
646.23	4.71
646.559	4.95
646.888	4.94
647.218	4.93
647.547	4.76
647.876	4.62
648.205	5.24
648.534	4.94
648.863	4.72
649.192	4.63
649.521	4.67
649.85	5.02
650.179	5.13
650.508	4.88
650.837	5
651.165	5.04
651.494	4.55
651.822	4.86
652.151	4.92
652.479	4.6
652.808	4.75
653.136	4.84
653.465	5.31
653.793	5.02
654.121	5.11
654.449	4.83
654.777	4.86
655.105	5.03
655.433	5.1
655.761	5.44
656.089	5.26
656.417	4.3
656.745	5.14
657.073	4.59
657.4	5.75
657.728	5.08
658.056	5.36
658.383	4.84
658.711	4.33
659.038	4.77
659.365	5.04
659.693	4.96
660.02	4.77
660.347	4.81
660.674	4.76
661.001	4.43
661.329	4.74
661.656	5.09
661.982	4.75
662.309	5.08
662.636	4.92
662.963	5.24
663.29	5.05
663.616	5.24
663.943	4.66
664.27	5.15
664.596	4.8
664.923	4.74
665.249	5.7
665.576	4.7
665.902	4.64
666.228	5.45
666.554	5.4
666.881	4.43
667.207	5.16
667.533	4.76
667.859	5.2
668.185	4.51
668.511	5.03
668.837	5.45
669.162	5.13
669.488	5.51
669.814	4.93
670.139	4.88
670.465	4.94
670.791	5
671.116	4.83
671.442	4.95
671.767	4.86
672.092	5.53
672.418	5.09
672.743	4.76
673.068	5.41
673.393	5.41
673.718	4.74
674.043	5.58
674.368	5.49
674.693	5.47
675.018	4.78
675.343	5.25
675.667	4.77
675.992	5.31
676.317	5.81
676.641	5.25
676.966	4.81
677.29	4.61
677.615	5.2
677.939	4.87
678.264	5.13
678.588	5.03
678.912	5.14
679.236	4.78
679.56	5.49
679.885	5.41
680.209	5.24
680.532	4.96
680.856	4.88
681.18	5.05
681.504	4.74
681.828	5.21
682.152	4.66
682.475	4.72
682.799	5.12
683.122	5.39
683.446	5.08
683.769	5.12
684.093	5.67
684.416	5.22
684.739	4.61
685.062	4.66
685.386	4.7
685.709	5.16
686.032	5.03
686.355	5.98
686.678	5.08
687.001	5.38
687.324	4.95
687.646	5.3
687.969	5.43
688.292	5.04
688.614	5.28
688.937	4.76
689.26	4.88
689.582	4.46
689.904	4.53
690.227	4.67
690.549	5.24
690.871	4.84
691.194	5.75
691.516	4.64
691.838	5.54
692.16	4.73
692.482	5.16
