Data from 0227_forehead_Reflection__2__12.txt Node

Date: Fri Oct 20 20:41:04 CDT 2023
User: ToomeyLab
Spectrometer: FLMS14357
Trigger mode: 0
Integration Time (sec): 1.000000E-2
Scans to average: 100
Electric dark correction enabled: true
Nonlinearity correction enabled: false
Boxcar width: 0
XAxis mode: Wavelengths
Number of Pixels in Spectrum: 2048
>>>>>Begin Spectral Data<<<<<
189.047	16.61
189.435	16.61
189.823	16.61
190.211	745.33
190.599	-31.39
190.987	243.26
191.375	-15.99
191.763	195.19
192.151	-178.65
192.538	449.55
192.926	289.78
193.314	76.41
193.702	200.54
194.089	93.08
194.477	908.45
194.864	28.16
195.252	83.03
195.639	96.31
196.027	-58.16
196.414	44.48
196.801	-37.05
197.189	60.81
197.576	-691.74
197.963	108.82
198.351	48.41
198.738	34.62
199.125	33.64
199.512	56.67
199.899	50.8
200.286	46.73
200.673	59.05
201.06	37.66
201.447	12.83
201.833	19.61
202.22	32.68
202.607	34.57
202.994	49.76
203.38	-40.78
203.767	27.76
204.154	36.05
204.54	45.44
204.927	56.06
205.313	13.13
205.699	60.25
206.086	33.33
206.472	54.2
206.858	46.56
207.245	-2.27
207.631	32.37
208.017	21.84
208.403	20.45
208.789	65.19
209.175	-12.33
209.561	34.27
209.947	36.29
210.333	50.25
210.719	16.4
211.105	22.06
211.491	36.47
211.876	46.71
212.262	25.09
212.648	13.5
213.034	30.54
213.419	15.02
213.805	11.82
214.19	26.23
214.576	1.57
214.961	15.08
215.346	38.56
215.732	9.07
216.117	-7.31
216.502	34.21
216.888	20.9
217.273	4.27
217.658	11.45
218.043	-2.58
218.428	18.51
218.813	9.85
219.198	31.25
219.583	1.67
219.968	17.24
220.353	35.73
220.738	30.61
221.122	24.25
221.507	15.37
221.892	17.73
222.276	12.31
222.661	18.44
223.046	11.9
223.43	11.7
223.815	16.01
224.199	18.99
224.583	3.49
224.968	9.09
225.352	15.08
225.736	13.37
226.121	14.62
226.505	13.43
226.889	8.37
227.273	9.21
227.657	8.8
228.041	7.15
228.425	7.7
228.809	8.67
229.193	5.44
229.577	6.86
229.961	6.42
230.344	4.09
230.728	3.75
231.112	5.04
231.495	4.54
231.879	6.19
232.263	6.65
232.646	3.9
233.03	5.42
233.413	5.37
233.797	4.31
234.18	6.88
234.563	6.41
234.946	6.38
235.33	6.89
235.713	7.29
236.096	7.54
236.479	5.69
236.862	5.53
237.245	4.32
237.628	5.47
238.011	6.31
238.394	4.48
238.777	7.45
239.16	5.84
239.543	6.99
239.925	7.05
240.308	6.16
240.691	5.85
241.073	6.63
241.456	4.65
241.838	6.25
242.221	5.97
242.603	5.56
242.986	4.88
243.368	5.08
243.75	4.91
244.133	4.12
244.515	4.69
244.897	4.63
245.279	5.07
245.661	5.4
246.043	4.3
246.425	5.2
246.807	5.04
247.189	5.14
247.571	5.18
247.953	4.59
248.335	4.57
248.717	4.4
249.098	4.51
249.48	4.38
249.862	4.88
250.243	5.19
250.625	5
251.006	4.89
251.388	5.21
251.769	5.42
252.151	5.5
252.532	5.13
252.913	5.61
253.295	4.43
253.676	4.87
254.057	5.19
254.438	5.22
254.819	5.21
255.2	5.34
255.581	5.77
255.962	4.95
256.343	6.98
256.724	4.46
257.105	5.17
257.486	5.91
257.867	4.94
258.247	5.81
258.628	5.65
259.009	5.06
259.389	5.6
259.77	4.97
260.15	5.79
260.531	4.83
260.911	4.95
261.292	4.68
261.672	4.49
262.052	4.66
262.432	4.82
262.813	5
263.193	5.6
263.573	5.29
263.953	5.25
264.333	5.17
264.713	5.41
265.093	5.36
265.473	4.66
265.853	4.86
266.233	5.48
266.612	4.95
266.992	5.4
267.372	4.8
267.752	4.89
268.131	5.28
268.511	5.07
268.89	4.66
269.27	4.93
269.649	4.73
270.029	4.65
270.408	5.27
270.787	5.04
271.167	4.88
271.546	5.24
271.925	5.24
272.304	5.11
272.683	4.89
273.062	5.4
273.441	5.2
273.82	4.83
274.199	5
274.578	5.24
274.957	5.01
275.336	5.24
275.715	5.18
276.093	4.56
276.472	5.04
276.851	5.11
277.229	5.11
277.608	4.66
277.986	4.73
278.365	5.06
278.743	4.92
279.122	4.91
279.5	5.19
279.878	4.39
280.257	5.36
280.635	5.54
281.013	5.42
281.391	5.27
281.769	4.48
282.147	5.07
282.525	5.12
282.903	5.06
283.281	5.07
283.659	5.36
284.037	5.57
284.415	4.56
284.792	4.54
285.17	5.33
285.548	4.8
285.925	4.66
286.303	4.91
286.68	4.88
287.058	5.33
287.435	5.27
287.813	4.35
288.19	4.94
288.567	5
288.945	5.46
289.322	5.79
289.699	5
290.076	5.57
290.453	5.54
290.83	4.68
291.207	5.84
291.584	5
291.961	5.29
292.338	4.68
292.715	5.45
293.092	5.5
293.469	5.87
293.845	5.4
294.222	5.05
294.599	4.9
294.975	6.42
295.352	5.41
295.728	6
296.105	5.5
296.481	5.61
296.858	5.97
297.234	6.17
297.61	5.46
297.986	5.87
298.363	5.94
298.739	5.77
299.115	5.77
299.491	5.86
299.867	6.04
300.243	5.99
300.619	5.83
300.995	5.84
301.371	6.79
301.746	6.52
302.122	6.19
302.498	5.79
302.874	6
303.249	6.05
303.625	6.62
304	6.92
304.376	6.47
304.751	6.34
305.127	6.45
305.502	7.35
305.878	6.72
306.253	6.55
306.628	7.11
307.003	7.07
307.378	7.21
307.754	6.63
308.129	7.24
308.504	6.98
308.879	7.5
309.254	7.32
309.629	6.71
310.003	6.8
310.378	7.71
310.753	7.63
311.128	7.72
311.502	7.32
311.877	7.49
312.252	7.14
312.626	8.03
313.001	7.66
313.375	7.81
313.75	7.75
314.124	7.79
314.498	8.02
314.873	7.84
315.247	8.04
315.621	8.27
315.995	8.64
316.369	7.96
316.743	8.72
317.117	8.62
317.491	8.23
317.865	9.32
318.239	8.9
318.613	8.6
318.987	8.61
319.361	7.98
319.734	8.34
320.108	8.61
320.482	8.71
320.855	9.05
321.229	9.38
321.602	8.8
321.976	9.17
322.349	9.57
322.723	9.27
323.096	8.64
323.469	8.87
323.843	9.03
324.216	9.47
324.589	9.21
324.962	9.56
325.335	9.81
325.708	9.2
326.081	9.41
326.454	9.82
326.827	10.01
327.2	9.92
327.573	10.03
327.945	9.44
328.318	9.29
328.691	9.52
329.063	10.14
329.436	9.67
329.809	10.2
330.181	10.32
330.553	10.51
330.926	10.24
331.298	10.13
331.671	10.22
332.043	9.56
332.415	10.17
332.787	10.34
333.159	10.15
333.532	10.68
333.904	10.6
334.276	10.65
334.648	10.84
335.02	10.7
335.391	10.34
335.763	11.09
336.135	10.75
336.507	10.75
336.879	10.49
337.25	10.68
337.622	11.28
337.993	10.74
338.365	11.01
338.736	10.85
339.108	11.3
339.479	10.42
339.851	11.34
340.222	11.06
340.593	11.05
340.964	11.15
341.336	11.56
341.707	11.2
342.078	11.52
342.449	11.47
342.82	11.44
343.191	11.16
343.562	11.68
343.933	11.48
344.303	11.32
344.674	11.75
345.045	11.95
345.416	11.96
345.786	11.56
346.157	11.97
346.527	11.75
346.898	12.06
347.268	12.12
347.639	11.95
348.009	11.81
348.38	11.93
348.75	12.37
349.12	12.33
349.49	11.96
349.861	12.39
350.231	12.27
350.601	12.62
350.971	12.66
351.341	12.7
351.711	13.05
352.081	12.6
352.45	12.62
352.82	12.83
353.19	12.88
353.56	12.58
353.929	12.54
354.299	13.12
354.669	12.98
355.038	13.35
355.408	12.93
355.777	13.12
356.147	13.09
356.516	12.84
356.885	13.38
357.254	13.3
357.624	13.55
357.993	13.03
358.362	13.41
358.731	13.02
359.1	12.98
359.469	13.27
359.838	13.54
360.207	13.38
360.576	13.75
360.945	13.74
361.314	13.6
361.682	13.88
362.051	13.79
362.42	13.47
362.788	13.88
363.157	13.72
363.525	13.66
363.894	13.63
364.262	13.59
364.631	14.11
364.999	14.27
365.367	14.27
365.735	13.85
366.104	13.98
366.472	14.39
366.84	14.25
367.208	14.6
367.576	14.35
367.944	14.86
368.312	14.5
368.68	14.55
369.048	14.82
369.416	15.08
369.783	15.01
370.151	14.58
370.519	14.69
370.886	15.12
371.254	15.19
371.621	14.96
371.989	15.04
372.356	15.11
372.724	15
373.091	15.03
373.458	14.92
373.826	15.09
374.193	15.17
374.56	15.6
374.927	15.25
375.294	15.66
375.661	15.74
376.028	15.73
376.395	15.65
376.762	15.75
377.129	15.72
377.496	15.7
377.863	16.07
378.229	16.11
378.596	16.05
378.963	15.92
379.329	16.09
379.696	16.08
380.062	15.91
380.429	15.89
380.795	16.16
381.161	16.43
381.528	16.51
381.894	16.44
382.26	16.13
382.626	16.72
382.993	16.54
383.359	16.36
383.725	16.71
384.091	16.79
384.457	16.7
384.823	17.02
385.188	17.25
385.554	16.63
385.92	16.78
386.286	17.28
386.651	16.88
387.017	17
387.383	17.13
387.748	16.97
388.114	17.08
388.479	17.07
388.845	17.61
389.21	17.2
389.575	17.27
389.94	17.31
390.306	17.57
390.671	17.56
391.036	17.42
391.401	17.78
391.766	17.68
392.131	17.96
392.496	17.82
392.861	17.77
393.226	17.71
393.591	17.66
393.956	17.94
394.32	18.17
394.685	18.1
395.05	18.34
395.414	18.43
395.779	18.24
396.143	17.98
396.508	18.36
396.872	18.03
397.236	18.37
397.601	18.49
397.965	18.47
398.329	18.36
398.694	18.4
399.058	18.35
399.422	18.71
399.786	18.68
400.15	18.72
400.514	18.84
400.878	18.98
401.242	19
401.605	19.17
401.969	18.91
402.333	19.09
402.697	19.26
403.06	19.18
403.424	19.29
403.787	19.23
404.151	19.39
404.514	19.56
404.878	19.65
405.241	19.5
405.604	19.44
405.968	19.17
406.331	19.48
406.694	19.48
407.057	19.59
407.42	19.96
407.783	19.77
408.146	19.79
408.509	19.76
408.872	20.04
409.235	19.75
409.598	19.84
409.961	20.19
410.323	20.17
410.686	20.08
411.049	20.21
411.411	20.32
411.774	20.34
412.136	20.22
412.499	20.43
412.861	20.62
413.223	20.41
413.586	20.44
413.948	20.46
414.31	20.65
414.672	20.68
415.035	20.59
415.397	20.92
415.759	20.92
416.121	20.95
416.483	21.16
416.845	20.72
417.206	20.79
417.568	21.08
417.93	21.03
418.292	20.95
418.653	20.87
419.015	20.92
419.377	21.03
419.738	20.91
420.1	20.87
420.461	21
420.822	21.05
421.184	21.26
421.545	21.03
421.906	21.18
422.267	20.93
422.629	21.16
422.99	20.9
423.351	21.09
423.712	21.31
424.073	21.37
424.434	21.4
424.795	21.37
425.155	21.64
425.516	21.45
425.877	21.34
426.238	21.26
426.598	21.58
426.959	21.59
427.32	21.79
427.68	21.96
428.041	22.25
428.401	22.11
428.761	22.31
429.122	22.28
429.482	22.35
429.842	22.46
430.202	22.69
430.563	22.62
430.923	22.9
431.283	22.6
431.643	22.93
432.003	22.86
432.363	22.81
432.722	22.72
433.082	22.96
433.442	22.74
433.802	23.02
434.161	23.06
434.521	22.97
434.881	23.1
435.24	23.03
435.6	23.08
435.959	23.13
436.319	23.3
436.678	23.35
437.037	23.6
437.396	23.55
437.756	23.48
438.115	23.58
438.474	23.55
438.833	23.75
439.192	23.56
439.551	23.85
439.91	23.7
440.269	23.77
440.628	23.74
440.987	23.89
441.345	23.78
441.704	23.8
442.063	23.76
442.421	23.72
442.78	23.84
443.138	23.98
443.497	24.06
443.855	24.16
444.214	24.21
444.572	24.36
444.93	24.61
445.288	24.56
445.647	24.64
446.005	24.16
446.363	24.54
446.721	24.28
447.079	24.51
447.437	24.58
447.795	24.5
448.153	24.51
448.51	24.55
448.868	24.53
449.226	24.71
449.584	24.81
449.941	24.89
450.299	24.94
450.656	24.99
451.014	25.15
451.371	25.48
451.729	25.34
452.086	25.47
452.443	25.63
452.801	25.54
453.158	25.72
453.515	25.63
453.872	25.56
454.229	25.53
454.586	25.73
454.943	25.71
455.3	25.76
455.657	25.79
456.014	25.86
456.371	26.05
456.727	26.07
457.084	26.09
457.441	26.23
457.797	26.26
458.154	26.4
458.51	26.13
458.867	26.44
459.223	26.52
459.58	26.55
459.936	26.66
460.292	26.4
460.648	26.51
461.005	26.32
461.361	26.31
461.717	26.12
462.073	26.26
462.429	26.47
462.785	26.66
463.141	26.86
463.496	26.93
463.852	27.1
464.208	27.11
464.564	27.1
464.919	27.29
465.275	27.63
465.631	27.65
465.986	27.53
466.342	27.48
466.697	27.35
467.052	27.64
467.408	27.61
467.763	27.84
468.118	27.85
468.473	27.75
468.829	27.67
469.184	27.82
469.539	27.9
469.894	28.2
470.249	28.1
470.603	28.02
470.958	28.15
471.313	28.35
471.668	28.24
472.023	28.28
472.377	28.2
472.732	28.28
473.086	28.4
473.441	28.59
473.795	28.47
474.15	28.52
474.504	28.69
474.859	28.61
475.213	28.69
475.567	28.76
475.921	28.73
476.275	28.98
476.63	29.05
476.984	28.95
477.338	28.97
477.692	28.93
478.045	28.97
478.399	29.02
478.753	29.11
479.107	29.23
479.461	29.33
479.814	29.26
480.168	29.25
480.521	29.28
480.875	29.16
481.228	29.37
481.582	29.4
481.935	29.46
482.289	29.61
482.642	29.51
482.995	29.38
483.348	29.28
483.701	29.47
484.055	29.18
484.408	29.08
484.761	28.83
485.114	28.48
485.466	28.14
485.819	28.23
486.172	28.69
486.525	29.07
486.878	29.28
487.23	29.5
487.583	29.64
487.936	29.65
488.288	29.6
488.641	29.41
488.993	29.08
489.345	29.16
489.698	29.23
490.05	29.39
490.402	29.66
490.754	29.86
491.107	30.07
491.459	30.31
491.811	30.4
492.163	30.43
492.515	30.16
492.866	30.1
493.218	29.54
493.57	29.49
493.922	30.03
494.274	30.28
494.625	30.67
494.977	30.87
495.328	31.18
495.68	31.16
496.031	31.27
496.383	31.56
496.734	31.66
497.086	31.72
497.437	31.58
497.788	31.54
498.139	31.83
498.49	31.33
498.842	31.35
499.193	31.52
499.544	31.74
499.894	31.87
500.245	31.89
500.596	31.88
500.947	31.92
501.298	32.21
501.648	32.36
501.999	32.41
502.35	32.47
502.7	32.62
503.051	32.82
503.401	32.56
503.752	32.67
504.102	32.74
504.452	32.68
504.803	32.77
505.153	32.96
505.503	33.06
505.853	32.94
506.203	32.76
506.553	33.02
506.903	33.19
507.253	33.12
507.603	33.35
507.953	33.21
508.303	33.26
508.652	33.32
509.002	33.38
509.352	33.45
509.701	33.42
510.051	33.26
510.4	33.4
510.75	33.27
511.099	33.39
511.449	33.7
511.798	33.44
512.147	33.48
512.496	33.8
512.846	33.54
513.195	33.81
513.544	33.76
513.893	33.8
514.242	33.84
514.591	33.82
514.939	33.88
515.288	34.11
515.637	34.14
515.986	34.38
516.334	34.33
516.683	34.32
517.032	34.33
517.38	34.52
517.729	34.82
518.077	34.62
518.426	34.85
518.774	34.58
519.122	34.46
519.47	34.61
519.819	34.44
520.167	34.3
520.515	34.24
520.863	34.53
521.211	34.67
521.559	34.86
521.907	34.87
522.255	34.96
522.602	35.18
522.95	35.27
523.298	35.37
523.645	35.52
523.993	35.38
524.341	35.59
524.688	35.58
525.036	35.48
525.383	35.64
525.73	35.85
526.078	35.62
526.425	35.81
526.772	35.59
527.119	35.34
527.466	35.25
527.814	35.34
528.161	35.57
528.508	35.54
528.854	35.69
529.201	35.52
529.548	35.45
529.895	35.07
530.242	34.54
530.588	34.69
530.935	35.39
531.282	35.76
531.628	35.71
531.975	35.8
532.321	35.99
532.667	36.19
533.014	36.5
533.36	36.37
533.706	36.42
534.052	36.32
534.399	36.21
534.745	36.14
535.091	35.92
535.437	36.09
535.783	36.37
536.129	36.65
536.474	36.74
536.82	36.92
537.166	37.09
537.512	37.16
537.857	37.1
538.203	36.96
538.549	36.77
538.894	36.96
539.239	37.26
539.585	37.44
539.93	37.69
540.276	37.8
540.621	37.9
540.966	37.98
541.311	38.2
541.656	37.83
542.001	37.93
542.346	37.55
542.691	37.21
543.036	36.89
543.381	36.93
543.726	37.32
544.071	37.66
544.415	37.89
544.76	37.88
545.105	37.94
545.449	38.14
545.794	38.39
546.138	38.33
546.483	38.4
546.827	38.61
547.171	38.69
547.516	38.59
547.86	38.81
548.204	38.79
548.548	38.64
548.892	38.54
549.236	38.78
549.58	39
549.924	39.14
550.268	39.39
550.612	39.6
550.956	39.64
551.3	39.9
551.643	40.02
551.987	40.09
552.33	39.98
552.674	40.21
553.017	40.08
553.361	40.21
553.704	40.13
554.048	40.28
554.391	40.44
554.734	40.17
555.077	40.33
555.42	40.27
555.764	40.64
556.107	40.47
556.45	41
556.793	40.77
557.135	40.9
557.478	40.87
557.821	41.13
558.164	41.27
558.507	41.26
558.849	41.29
559.192	41.34
559.534	41.46
559.877	41.11
560.219	41.39
560.562	41.57
560.904	41.37
561.246	41.72
561.589	41.4
561.931	41.62
562.273	41.91
562.615	41.87
562.957	41.77
563.299	41.79
563.641	41.84
563.983	41.85
564.325	41.98
564.667	42.29
565.008	42.2
565.35	42.12
565.692	42.26
566.033	42.13
566.375	42.48
566.716	42.35
567.058	42.26
567.399	42.45
567.741	42.38
568.082	42.29
568.423	42.15
568.764	42.45
569.105	42.6
569.447	42.58
569.788	42.77
570.129	43.19
570.47	42.89
570.811	43.13
571.151	42.97
571.492	43.13
571.833	43.13
572.174	43.37
572.514	43.15
572.855	43.37
573.195	43.03
573.536	43.01
573.876	43.32
574.217	43.11
574.557	43.29
574.898	43.33
575.238	43.2
575.578	43.54
575.918	43.74
576.258	43.86
576.598	43.76
576.938	43.77
577.278	43.8
577.618	43.58
577.958	44.01
578.298	44.14
578.638	44.13
578.977	44.1
579.317	44.35
579.657	44.46
579.996	44.58
580.336	44.79
580.675	44.24
581.014	45.05
581.354	44.54
581.693	45.03
582.032	44.88
582.372	44.99
582.711	45.23
583.05	45.12
583.389	45.14
583.728	45.46
584.067	45.29
584.406	45.28
584.745	45.18
585.083	45.71
585.422	45.36
585.761	45.72
586.1	45.75
586.438	45.2
586.777	45.83
587.115	46.08
587.454	46.27
587.792	46.07
588.13	46.34
588.469	46.16
588.807	45.91
589.145	46.37
589.483	46.28
589.821	46.3
590.159	46.27
590.497	46.63
590.835	46.33
591.173	46.25
591.511	46.57
591.849	46.28
592.187	46.44
592.524	46.27
592.862	46.71
593.2	46.59
593.537	46.86
593.875	46.77
594.212	47.13
594.55	47.32
594.887	46.8
595.224	47.03
595.561	47.02
595.899	46.96
596.236	47.13
596.573	47.32
596.91	47.07
597.247	47.01
597.584	46.97
597.921	46.72
598.258	47.21
598.594	46.97
598.931	46.36
599.268	46.8
599.604	47.63
599.941	47.5
600.277	47.73
600.614	47.6
600.95	47.85
601.287	47.75
601.623	48
601.959	48.22
602.296	48.17
602.632	48.26
602.968	48.44
603.304	48.13
603.64	47.94
603.976	47.98
604.312	48.28
604.648	47.96
604.984	48.15
605.319	48.06
605.655	48.04
605.991	48.08
606.326	48.13
606.662	47.74
606.998	47.96
607.333	48.23
607.668	48.51
608.004	48.58
608.339	48.67
608.674	48.88
609.01	49.18
609.345	49.05
609.68	49.01
610.015	49.09
610.35	49.22
610.685	49.2
611.02	48.85
611.355	48.97
611.689	48.98
612.024	49.17
612.359	49.46
612.694	49.3
613.028	49.64
613.363	49.7
613.697	49.92
614.032	49.7
614.366	50.39
614.7	49.97
615.035	50.13
615.369	50.34
615.703	50.26
616.037	49.95
616.371	50.15
616.705	50.44
617.039	50.54
617.373	50.8
617.707	50.47
618.041	50.54
618.375	50.3
618.709	50.86
619.042	50.87
619.376	50.66
619.71	50.53
620.043	51.09
620.377	50.52
620.71	50.85
621.043	51.39
621.377	51.07
621.71	50.91
622.043	51.45
622.376	50.92
622.709	51.46
623.043	51.06
623.376	51.09
623.709	51.22
624.041	51.56
624.374	51.66
624.707	51.58
625.04	51.54
625.373	51.79
625.705	51.73
626.038	51.58
626.37	52.01
626.703	51.81
627.035	51.42
627.368	51.94
627.7	51.56
628.032	51.85
628.365	51.78
628.697	51.81
629.029	51.72
629.361	51.74
629.693	51.9
630.025	52.16
630.357	52.13
630.689	52.49
631.021	52.63
631.353	51.92
631.684	52.1
632.016	52.67
632.348	52.49
632.679	51.97
633.011	52.51
633.342	52.68
633.674	52.81
634.005	53.26
634.336	53.41
634.668	52.92
634.999	53.44
635.33	52.84
635.661	53.41
635.992	52.83
636.323	53.32
636.654	53.31
636.985	53.04
637.316	53.19
637.647	53.39
637.977	53.35
638.308	53.64
638.639	53.2
638.969	53.29
639.3	53.49
639.63	53.81
639.961	53.69
640.291	53.33
640.622	53.65
640.952	54.01
641.282	54.19
641.612	54.22
641.943	53.8
642.273	53.71
642.603	54.31
642.933	54.07
643.263	54.15
643.592	54.7
643.922	54.4
644.252	54.42
644.582	54.64
644.911	54.43
645.241	55.14
645.571	54.87
645.9	54.18
646.23	55.26
646.559	54.58
646.888	54.77
647.218	55.22
647.547	54.67
647.876	54.89
648.205	54.68
648.534	55.01
648.863	54.99
649.192	54.8
649.521	55.56
649.85	54.92
650.179	55.22
650.508	54.94
650.837	55.93
651.165	55.75
651.494	55.28
651.822	54.95
652.151	55.55
652.479	55.03
652.808	55.71
653.136	55.64
653.465	56.02
653.793	55.55
654.121	55.83
654.449	55.45
654.777	55.37
655.105	55.88
655.433	56.15
655.761	56.4
656.089	56.34
656.417	56
656.745	56.24
657.073	56.38
657.4	56.7
657.728	55.97
658.056	56.21
658.383	56.22
658.711	55.97
659.038	55.85
659.365	56.43
659.693	56.34
660.02	56.73
660.347	55.83
660.674	55.97
661.001	56.19
661.329	56.66
661.656	56.21
661.982	56.47
662.309	56.62
662.636	56.25
662.963	56.87
663.29	56.76
663.616	56.78
663.943	56.85
664.27	57.1
664.596	57.22
664.923	56.82
665.249	57.25
665.576	57.52
665.902	57.27
666.228	57.42
666.554	57.22
666.881	57.17
667.207	58.21
667.533	57.14
667.859	57.66
668.185	57.46
668.511	57.06
668.837	57.64
669.162	57.96
669.488	57.81
669.814	58.08
670.139	57.81
