Data from 0227_crown_Reflection__3__08.txt Node

Date: Fri Oct 20 20:39:59 CDT 2023
User: ToomeyLab
Spectrometer: FLMS14357
Trigger mode: 0
Integration Time (sec): 1.000000E-2
Scans to average: 100
Electric dark correction enabled: true
Nonlinearity correction enabled: false
Boxcar width: 0
XAxis mode: Wavelengths
Number of Pixels in Spectrum: 2048
>>>>>Begin Spectral Data<<<<<
189.047	17.32
189.435	17.32
189.823	17.32
190.211	566.09
190.599	78.15
190.987	125.82
191.375	73.16
191.763	167.52
192.151	50.14
192.538	120.5
192.926	-158.35
193.314	75.06
193.702	388.18
194.089	143.45
194.477	517.71
194.864	70.9
195.252	-89.13
195.639	-10.48
196.027	329.33
196.414	191.84
196.801	75.25
197.189	79.3
197.576	464.76
197.963	-126.46
198.351	58.92
198.738	42.5
199.125	53.87
199.512	40.99
199.899	3.45
200.286	-17.24
200.673	25.94
201.06	-1.19
201.447	-0.33
201.833	9.52
202.22	9.07
202.607	33.9
202.994	51.46
203.38	15.4
203.767	21.82
204.154	32.03
204.54	41.15
204.927	31.95
205.313	-5.32
205.699	28.09
206.086	16.71
206.472	56.74
206.858	36.44
207.245	18.57
207.631	24.53
208.017	13.25
208.403	19.3
208.789	35.35
209.175	-24.49
209.561	23.2
209.947	7.06
210.333	42.08
210.719	28.01
211.105	35.73
211.491	33.25
211.876	38.56
212.262	72.64
212.648	43.72
213.034	4.08
213.419	17.65
213.805	9.93
214.19	-10.99
214.576	4.26
214.961	30.31
215.346	40.21
215.732	9.7
216.117	5.09
216.502	22.6
216.888	0.64
217.273	14.15
217.658	17.83
218.043	27.4
218.428	14.28
218.813	2.39
219.198	12.65
219.583	7.16
219.968	-1.76
220.353	26.49
220.738	21.17
221.122	-1.43
221.507	8.76
221.892	7.07
222.276	18.14
222.661	24.41
223.046	8.37
223.43	15.57
223.815	24.19
224.199	13.05
224.583	2.33
224.968	12.36
225.352	5.06
225.736	7.29
226.121	18.15
226.505	14.61
226.889	14.03
227.273	15.18
227.657	16.94
228.041	16.51
228.425	11.57
228.809	9.33
229.193	10.75
229.577	12.99
229.961	9.29
230.344	9.23
230.728	9.48
231.112	10.5
231.495	10.4
231.879	9.89
232.263	11.03
232.646	10.06
233.03	10.22
233.413	8.85
233.797	9.78
234.18	9.23
234.563	9.81
234.946	11.37
235.33	10.79
235.713	9.29
236.096	10.09
236.479	11.08
236.862	12.08
237.245	8.79
237.628	10.39
238.011	11.57
238.394	10.17
238.777	11.04
239.16	9.42
239.543	12.18
239.925	10.79
240.308	12.07
240.691	9.33
241.073	10.7
241.456	9.99
241.838	9.4
242.221	10.38
242.603	9.76
242.986	9.99
243.368	9.64
243.75	8.9
244.133	9.16
244.515	9.3
244.897	9.16
245.279	9.68
245.661	8.96
246.043	8.61
246.425	8.14
246.807	9.69
247.189	9.92
247.571	8.09
247.953	8.89
248.335	8.92
248.717	8.19
249.098	8.43
249.48	8.49
249.862	9.02
250.243	9.03
250.625	8.62
251.006	8.66
251.388	8.91
251.769	8.76
252.151	8.08
252.532	9.41
252.913	8.59
253.295	7.58
253.676	8.19
254.057	8.05
254.438	8.27
254.819	8.39
255.2	8.36
255.581	8.99
255.962	7.78
256.343	8.29
256.724	7.04
257.105	8.76
257.486	8.74
257.867	7.9
258.247	8.09
258.628	8.19
259.009	7.35
259.389	7.26
259.77	7.07
260.15	7.8
260.531	8.33
260.911	8
261.292	7.48
261.672	7.48
262.052	7.63
262.432	7.59
262.813	7.59
263.193	8.25
263.573	8.08
263.953	8.03
264.333	7.53
264.713	8.01
265.093	8.07
265.473	8.1
265.853	7.41
266.233	8.13
266.612	7.64
266.992	7.97
267.372	7.69
267.752	6.48
268.131	7.14
268.511	7.41
268.89	7.38
269.27	7.32
269.649	6.97
270.029	6.9
270.408	7.58
270.787	7.75
271.167	7.24
271.546	7.14
271.925	7.61
272.304	7.45
272.683	7.21
273.062	7.29
273.441	6.81
273.82	7.07
274.199	7.54
274.578	7.12
274.957	7.23
275.336	7.26
275.715	6.91
276.093	6.88
276.472	7.11
276.851	7.41
277.229	7.61
277.608	6.52
277.986	6.61
278.365	7.13
278.743	6.48
279.122	6.86
279.5	7.13
279.878	6.52
280.257	6.75
280.635	7.38
281.013	7.07
281.391	6.95
281.769	7.06
282.147	6.45
282.525	6.49
282.903	6.16
283.281	6.49
283.659	6.79
284.037	6.85
284.415	6.12
284.792	6.33
285.17	6.46
285.548	6.91
285.925	6.52
286.303	6.49
286.68	6.19
287.058	6.72
287.435	6.56
287.813	6.1
288.19	6.32
288.567	6.25
288.945	6.85
289.322	6.65
289.699	6.25
290.076	7.06
290.453	6.41
290.83	6.27
291.207	7
291.584	6.3
291.961	6.5
292.338	6.45
292.715	6.47
293.092	6.43
293.469	6.82
293.845	6.54
294.222	6.5
294.599	6.68
294.975	7.07
295.352	6.39
295.728	6.23
296.105	6.26
296.481	6.37
296.858	6.41
297.234	6.78
297.61	5.64
297.986	5.86
298.363	6.54
298.739	6.33
299.115	6.16
299.491	6.11
299.867	6.08
300.243	6.11
300.619	6.13
300.995	6.15
301.371	6.61
301.746	5.81
302.122	6.43
302.498	6.02
302.874	6.06
303.249	6.13
303.625	6.11
304	6.11
304.376	6.13
304.751	5.75
305.127	5.98
305.502	6.79
305.878	5.8
306.253	6.29
306.628	6.16
307.003	6.23
307.378	6.33
307.754	6.11
308.129	6.54
308.504	6.39
308.879	6.25
309.254	6.66
309.629	6.27
310.003	5.89
310.378	6.69
310.753	6.06
311.128	5.85
311.502	5.72
311.877	6.46
312.252	5.84
312.626	6.14
313.001	6.03
313.375	5.85
313.75	5.82
314.124	5.79
314.498	6.19
314.873	5.98
315.247	6.31
315.621	5.7
315.995	6.53
316.369	5.94
316.743	5.86
317.117	6.26
317.491	5.71
317.865	6.12
318.239	6.49
318.613	6.47
318.987	5.93
319.361	5.54
319.734	5.4
320.108	5.52
320.482	6.06
320.855	6.06
321.229	6.7
321.602	6.12
321.976	5.86
322.349	6.27
322.723	5.78
323.096	6.7
323.469	6.06
323.843	6.34
324.216	5.7
324.589	6.16
324.962	6.88
325.335	5.9
325.708	5.7
326.081	6.49
326.454	6.6
326.827	6.47
327.2	6.37
327.573	6.02
327.945	5.9
328.318	5.68
328.691	6.22
329.063	6.53
329.436	6.11
329.809	6.33
330.181	6.32
330.553	6.18
330.926	6.08
331.298	5.81
331.671	6.02
332.043	6
332.415	6.15
332.787	6.1
333.159	5.75
333.532	6.4
333.904	6.13
334.276	5.92
334.648	6.22
335.02	5.99
335.391	6.1
335.763	6.32
336.135	5.95
336.507	6.4
336.879	6.14
337.25	6.71
337.622	6.56
337.993	6.64
338.365	6.44
338.736	5.88
339.108	6.84
339.479	5.87
339.851	6.28
340.222	6.06
340.593	5.73
340.964	5.84
341.336	6.75
341.707	6.2
342.078	6.77
342.449	6.16
342.82	6.05
343.191	6.56
343.562	6.3
343.933	6.19
344.303	6.33
344.674	6.69
345.045	6.29
345.416	6.6
345.786	6.52
346.157	6.6
346.527	6.54
346.898	6.58
347.268	6.26
347.639	6.59
348.009	6.27
348.38	6.66
348.75	6.4
349.12	6.54
349.49	6.56
349.861	6.83
350.231	6.38
350.601	6.23
350.971	6.73
351.341	6.61
351.711	7.17
352.081	6.63
352.45	6.48
352.82	6.8
353.19	6.86
353.56	6.87
353.929	6.77
354.299	6.21
354.669	6.38
355.038	6.73
355.408	6.8
355.777	6.81
356.147	6.79
356.516	6.24
356.885	6.75
357.254	6.75
357.624	6.53
357.993	6.71
358.362	6.48
358.731	6.6
359.1	6.41
359.469	6.4
359.838	6.28
360.207	6.76
360.576	7.13
360.945	6.63
361.314	6.43
361.682	6.59
362.051	6.54
362.42	6.75
362.788	6.7
363.157	6.59
363.525	6.5
363.894	6.61
364.262	6.88
364.631	6.79
364.999	6.63
365.367	6.79
365.735	6.6
366.104	6.74
366.472	6.96
366.84	6.97
367.208	7.01
367.576	6.68
367.944	6.77
368.312	7.01
368.68	6.87
369.048	7.07
369.416	6.92
369.783	7.12
370.151	7.2
370.519	7.25
370.886	7
371.254	7.11
371.621	7.18
371.989	6.92
372.356	7.04
372.724	7.03
373.091	6.99
373.458	6.82
373.826	7.01
374.193	6.82
374.56	7.06
374.927	7.15
375.294	7.11
375.661	7.12
376.028	7.48
376.395	7.06
376.762	6.72
377.129	6.92
377.496	7.22
377.863	7.61
378.229	7.14
378.596	6.82
378.963	6.98
379.329	7.06
379.696	6.93
380.062	7.43
380.429	7.04
380.795	6.75
381.161	7.42
381.528	7.29
381.894	7.12
382.26	7.15
382.626	7.43
382.993	7.21
383.359	7.2
383.725	7.02
384.091	7.33
384.457	7.34
384.823	6.91
385.188	7.37
385.554	7.41
385.92	7.25
386.286	7.12
386.651	7.02
387.017	7.23
387.383	7.35
387.748	7.05
388.114	6.86
388.479	7.15
388.845	7.36
389.21	7.1
389.575	6.89
389.94	7.13
390.306	7.01
390.671	7.22
391.036	7.16
391.401	7.35
391.766	7.43
392.131	7.35
392.496	7.41
392.861	7.34
393.226	7.23
393.591	7.2
393.956	7.48
394.32	7.52
394.685	7.1
395.05	7.67
395.414	7.54
395.779	7.16
396.143	7.32
396.508	7.17
396.872	7.31
397.236	7.35
397.601	7.18
397.965	7.19
398.329	7.29
398.694	7.58
399.058	7.11
399.422	7.41
399.786	7.14
400.15	7.37
400.514	7.37
400.878	7.38
401.242	7.43
401.605	7.57
401.969	7.08
402.333	7.47
402.697	7.56
403.06	7.37
403.424	7.37
403.787	7.33
404.151	7.37
404.514	7.32
404.878	7.6
405.241	7.42
405.604	7.09
405.968	7.36
406.331	7.18
406.694	7.37
407.057	7.37
407.42	7.58
407.783	7.36
408.146	7.32
408.509	7.23
408.872	7.51
409.235	7.62
409.598	7.7
409.961	7.59
410.323	7.37
410.686	7.2
411.049	7.51
411.411	7.43
411.774	7.34
412.136	7.16
412.499	7.44
412.861	7.39
413.223	7.55
413.586	7.6
413.948	7.51
414.31	7.77
414.672	7.23
415.035	7.33
415.397	7.35
415.759	7.59
416.121	7.47
416.483	7.64
416.845	7.44
417.206	7.48
417.568	7.61
417.93	7.54
418.292	7.21
418.653	7.48
419.015	7.46
419.377	7.37
419.738	7.27
420.1	7.18
420.461	7.32
420.822	7.24
421.184	7.26
421.545	7.31
421.906	7.21
422.267	7.3
422.629	7.23
422.99	7.16
423.351	7.28
423.712	7.26
424.073	7.29
424.434	7.23
424.795	7.26
425.155	7.31
425.516	7.24
425.877	7.26
426.238	7.13
426.598	7.21
426.959	7.2
427.32	7.31
427.68	7.34
428.041	7.38
428.401	7.37
428.761	7.44
429.122	7.54
429.482	7.5
429.842	7.56
430.202	7.53
430.563	7.55
430.923	7.54
431.283	7.37
431.643	7.53
432.003	7.45
432.363	7.35
432.722	7.6
433.082	7.64
433.442	7.37
433.802	7.53
434.161	7.35
434.521	7.41
434.881	7.46
435.24	7.42
435.6	7.31
435.959	7.28
436.319	7.32
436.678	7.59
437.037	7.44
437.396	7.56
437.756	7.58
438.115	7.23
438.474	7.63
438.833	7.46
439.192	7.45
439.551	7.4
439.91	7.41
440.269	7.54
440.628	7.4
440.987	7.34
441.345	7.22
441.704	7.28
442.063	7.3
442.421	7.35
442.78	7.27
443.138	7.41
443.497	7.44
443.855	7.45
444.214	7.37
444.572	7.34
444.93	7.55
445.288	7.47
445.647	7.68
446.005	7.28
446.363	7.51
446.721	7.29
447.079	7.39
447.437	7.38
447.795	7.24
448.153	7.23
448.51	7.27
448.868	7.27
449.226	7.28
449.584	7.31
449.941	7.32
450.299	7.37
450.656	7.31
451.014	7.35
451.371	7.45
451.729	7.34
452.086	7.44
452.443	7.57
452.801	7.52
453.158	7.46
453.515	7.45
453.872	7.32
454.229	7.52
454.586	7.48
454.943	7.39
455.3	7.33
455.657	7.34
456.014	7.4
456.371	7.45
456.727	7.47
457.084	7.45
457.441	7.64
457.797	7.5
458.154	7.36
458.51	7.41
458.867	7.55
459.223	7.53
459.58	7.37
459.936	7.49
460.292	7.34
460.648	7.38
461.005	7.29
461.361	7.38
461.717	6.93
462.073	7.22
462.429	7.28
462.785	7.25
463.141	7.41
463.496	7.36
463.852	7.44
464.208	7.46
464.564	7.49
464.919	7.38
465.275	7.54
465.631	7.67
465.986	7.54
466.342	7.43
466.697	7.27
467.052	7.29
467.408	7.32
467.763	7.6
468.118	7.65
468.473	7.34
468.829	7.31
469.184	7.45
469.539	7.37
469.894	7.39
470.249	7.39
470.603	7.48
470.958	7.43
471.313	7.56
471.668	7.47
472.023	7.29
472.377	7.38
472.732	7.38
473.086	7.43
473.441	7.31
473.795	7.47
474.15	7.51
474.504	7.33
474.859	7.38
475.213	7.44
475.567	7.41
475.921	7.37
476.275	7.46
476.63	7.63
476.984	7.47
477.338	7.36
477.692	7.44
478.045	7.46
478.399	7.29
478.753	7.35
479.107	7.42
479.461	7.37
479.814	7.51
480.168	7.37
480.521	7.4
480.875	7.25
481.228	7.33
481.582	7.34
481.935	7.27
482.289	7.32
482.642	7.33
482.995	7.26
483.348	7.3
483.701	7.3
484.055	7.23
484.408	7.22
484.761	7.13
485.114	6.93
485.466	6.8
485.819	6.75
486.172	6.75
486.525	6.84
486.878	6.94
487.23	7
487.583	7.04
487.936	7.07
488.288	7.11
488.641	7.1
488.993	6.95
489.345	6.94
489.698	6.91
490.05	6.88
490.402	6.91
490.754	7.02
491.107	7
491.459	7.07
491.811	7.13
492.163	7.16
492.515	7.13
492.866	7.11
493.218	6.98
493.57	6.9
493.922	6.92
494.274	6.97
494.625	7.02
494.977	7.1
495.328	7.15
495.68	7.16
496.031	7.16
496.383	7.18
496.734	7.31
497.086	7.35
497.437	7.33
497.788	7.22
498.139	7.24
498.49	7.18
498.842	6.89
499.193	7.19
499.544	7.24
499.894	7.2
500.245	7.18
500.596	7.24
500.947	7.2
501.298	7.22
501.648	7.21
501.999	7.23
502.35	7.33
502.7	7.29
503.051	7.17
503.401	7.31
503.752	7.31
504.102	7.25
504.452	7.13
504.803	7.14
505.153	7.15
505.503	7.22
505.853	7.29
506.203	7.27
506.553	7.08
506.903	7.17
507.253	7.2
507.603	7.11
507.953	7.21
508.303	7.21
508.652	7.19
509.002	7.2
509.352	7.2
509.701	7.19
510.051	7.06
510.4	7.08
510.75	7.13
511.099	7.04
511.449	7.11
511.798	7
512.147	7.03
512.496	7.14
512.846	7.1
513.195	7.15
513.544	7.1
513.893	7.11
514.242	7.07
514.591	7.11
514.939	6.99
515.288	7.1
515.637	7.12
515.986	7.25
516.334	7.09
516.683	7.09
517.032	7.03
517.38	6.99
517.729	7.2
518.077	7.1
518.426	7.04
518.774	6.99
519.122	7.12
519.47	7
519.819	7.01
520.167	6.93
520.515	6.93
520.863	7.01
521.211	7.06
521.559	7
521.907	7.08
522.255	7.04
522.602	7.2
522.95	7.03
523.298	7.07
523.645	7.15
523.993	7.02
524.341	7.12
524.688	7.06
525.036	7.19
525.383	7.01
525.73	7.12
526.078	7.08
526.425	7.03
526.772	7.01
527.119	6.93
527.466	6.86
527.814	6.95
528.161	6.92
528.508	6.88
528.854	6.92
529.201	6.85
529.548	6.85
529.895	6.8
530.242	6.69
530.588	6.57
530.935	6.56
531.282	6.68
531.628	6.72
531.975	6.72
532.321	6.77
532.667	6.85
533.014	6.93
533.36	6.97
533.706	6.9
534.052	6.92
534.399	6.77
534.745	6.71
535.091	6.63
535.437	6.73
535.783	6.7
536.129	6.75
536.474	6.83
536.82	6.93
537.166	6.89
537.512	6.9
537.857	6.96
538.203	6.85
538.549	6.87
538.894	6.92
539.239	6.84
539.585	6.86
539.93	6.9
540.276	7.02
540.621	7.01
540.966	6.99
541.311	7.06
541.656	6.99
542.001	6.88
542.346	6.82
542.691	6.69
543.036	6.67
543.381	6.59
543.726	6.58
544.071	6.58
544.415	6.67
544.76	6.66
545.105	6.83
545.449	6.73
545.794	6.82
546.138	6.75
546.483	6.81
546.827	6.85
547.171	6.91
547.516	6.77
547.86	6.9
548.204	6.71
548.548	6.86
548.892	6.69
549.236	6.76
549.58	6.77
549.924	6.8
550.268	6.88
550.612	6.86
550.956	7.09
551.3	6.77
551.643	6.82
551.987	7.07
552.33	6.95
552.674	6.98
553.017	6.92
553.361	7.04
553.704	6.86
554.048	6.99
554.391	6.89
554.734	6.81
555.077	6.86
555.42	6.7
555.764	6.75
556.107	7.01
556.45	6.79
556.793	6.75
557.135	6.92
557.478	6.75
557.821	6.87
558.164	6.96
558.507	7.04
558.849	7.01
559.192	6.84
559.534	7.08
559.877	6.58
560.219	6.91
560.562	6.81
560.904	6.75
561.246	6.82
561.589	6.72
561.931	6.86
562.273	6.64
562.615	6.83
562.957	6.76
563.299	6.78
563.641	6.81
563.983	6.66
564.325	6.62
564.667	6.86
565.008	6.82
565.35	6.87
565.692	6.75
566.033	6.96
566.375	6.99
566.716	6.73
567.058	6.66
567.399	6.88
567.741	6.64
568.082	6.7
568.423	6.68
568.764	6.7
569.105	6.71
569.447	6.71
569.788	6.73
570.129	6.78
570.47	6.82
570.811	6.72
571.151	6.78
571.492	6.73
571.833	6.85
572.174	6.93
572.514	6.66
572.855	6.79
573.195	6.77
573.536	6.59
573.876	6.76
574.217	6.41
574.557	6.6
574.898	6.39
575.238	6.48
575.578	6.6
575.918	6.55
576.258	6.68
576.598	6.73
576.938	6.65
577.278	6.72
577.618	6.44
577.958	6.51
578.298	6.57
578.638	6.55
578.977	6.56
579.317	6.59
579.657	6.54
579.996	6.64
580.336	6.8
580.675	6.55
581.014	6.48
581.354	6.56
581.693	6.77
582.032	6.73
582.372	6.66
582.711	6.82
583.05	6.91
583.389	6.69
583.728	6.5
584.067	6.86
584.406	6.67
584.745	6.45
585.083	6.54
585.422	6.59
585.761	6.56
586.1	6.69
586.438	6.35
586.777	6.72
587.115	6.86
587.454	6.44
587.792	6.72
588.13	6.72
588.469	6.74
588.807	6.33
589.145	6.59
589.483	6.43
589.821	6.39
590.159	6.46
590.497	6.67
590.835	6.5
591.173	6.72
591.511	6.66
591.849	6.43
592.187	6.49
592.524	6.41
592.862	6.57
593.2	6.59
593.537	6.26
593.875	6.53
594.212	6.76
594.55	6.63
594.887	6.59
595.224	6.53
595.561	6.36
595.899	6.42
596.236	6.7
596.573	6.6
596.91	6.43
597.247	6.61
597.584	6.21
597.921	6.44
598.258	6.47
598.594	6.41
598.931	6.15
599.268	6.33
599.604	6.48
599.941	6.37
600.277	6.42
600.614	6.4
600.95	6.21
601.287	6.22
601.623	6.52
601.959	6.52
602.296	6.36
602.632	6.44
602.968	6.2
603.304	6.62
603.64	6.31
603.976	6.52
604.312	6.65
604.648	6.43
604.984	6.5
605.319	6.46
605.655	6.17
605.991	6.39
606.326	6.31
606.662	6.21
606.998	6.24
607.333	6.18
607.668	6.11
608.004	6.34
608.339	6.19
608.674	6.43
609.01	6.2
609.345	6.44
609.68	6.43
610.015	6.39
610.35	6.56
610.685	6.55
611.02	6.24
611.355	6.22
611.689	6.15
612.024	6.31
612.359	6.28
612.694	6.25
613.028	6.36
613.363	6.19
613.697	6.29
614.032	6.41
614.366	6.27
614.7	6.08
615.035	6.47
615.369	6.25
615.703	6.12
616.037	6.39
616.371	6.54
616.705	6.36
617.039	6.44
617.373	6.25
617.707	6.45
618.041	6.41
618.375	6.24
618.709	6.3
619.042	6.26
619.376	6.08
619.71	6.52
620.043	6.58
620.377	6.21
620.71	6.27
621.043	6.23
621.377	6.48
621.71	6.08
622.043	6.31
622.376	6.43
622.709	6.69
623.043	6.39
623.376	6.06
623.709	6.05
624.041	5.92
624.374	6.38
624.707	6.2
625.04	6.57
625.373	6.4
625.705	6.18
626.038	6.26
626.37	5.95
626.703	6.06
627.035	6.05
627.368	6.45
627.7	6.33
628.032	5.87
628.365	6.25
628.697	6.23
629.029	6.08
629.361	6.04
629.693	5.9
630.025	6.02
630.357	6.31
630.689	6.11
631.021	6.57
631.353	6.26
631.684	5.86
632.016	6.13
632.348	6.11
632.679	5.67
633.011	6.15
633.342	6.3
633.674	6.05
634.005	6.23
634.336	6.45
634.668	6.01
634.999	6.03
635.33	5.96
635.661	6.26
635.992	6.19
636.323	6.66
636.654	6.36
636.985	5.92
637.316	5.94
637.647	6.06
637.977	5.78
638.308	6.13
638.639	6.01
638.969	6.09
639.3	6.07
639.63	6.09
639.961	6.13
640.291	6.05
640.622	6.04
640.952	6.38
641.282	5.97
641.612	6.1
641.943	6.27
642.273	5.87
642.603	6.23
642.933	6.05
643.263	6.11
643.592	6.03
643.922	6.34
644.252	5.8
644.582	5.9
644.911	6.13
645.241	6.86
645.571	6.46
645.9	5.93
646.23	6.18
646.559	5.82
646.888	6.52
647.218	6.15
647.547	5.95
647.876	6.32
648.205	5.96
648.534	5.9
648.863	6.45
649.192	6.09
649.521	5.96
649.85	6.21
650.179	6.21
650.508	5.7
650.837	6.41
651.165	5.89
651.494	6
651.822	6.06
652.151	5.96
652.479	5.87
652.808	5.93
653.136	6.01
653.465	6.31
653.793	6.05
654.121	6.44
654.449	6.38
654.777	6.05
655.105	6.54
655.433	6.34
655.761	5.82
656.089	6.86
656.417	6.21
656.745	5.94
657.073	5.52
657.4	7.2
657.728	6.07
658.056	5.96
658.383	6.01
658.711	6.19
659.038	6.6
659.365	6.4
659.693	6.05
660.02	6.14
660.347	6.12
660.674	6.4
661.001	5.72
661.329	6.07
661.656	6.38
661.982	6.12
662.309	6.25
662.636	6.35
662.963	6.06
663.29	6.11
663.616	6.39
663.943	5.99
664.27	6.2
664.596	6.14
664.923	6.08
665.249	6.37
665.576	5.76
665.902	6.14
666.228	6.33
666.554	6.35
666.881	5.78
667.207	6.27
667.533	5.81
667.859	5.92
668.185	6.82
668.511	6.78
668.837	6.37
669.162	6.73
669.488	6.32
669.814	5.91
670.139	5.97
670.465	6
670.791	6.32
671.116	6.15
671.442	6.27
671.767	5.87
672.092	6.26
672.418	6.29
672.743	6.12
673.068	7.18
673.393	5.94
673.718	6.5
674.043	6.32
674.368	6.39
674.693	6.8
675.018	6.58
675.343	6.34
675.667	6.33
675.992	6.78
676.317	6.31
676.641	6.42
676.966	6.22
677.29	6.33
677.615	6.39
677.939	5.87
678.264	6.15
678.588	5.6
678.912	6.38
679.236	6.27
679.56	6.09
679.885	6.18
680.209	6.48
680.532	6.3
680.856	5.83
681.18	6.31
681.504	5.8
681.828	6.33
682.152	6.04
682.475	5.71
682.799	6.25
683.122	5.71
683.446	6.03
683.769	6.35
684.093	5.96
684.416	6.27
684.739	5.97
685.062	5.63
685.386	5.95
685.709	6.41
686.032	5.77
686.355	6.86
686.678	6.37
687.001	6.71
687.324	5.88
687.646	5.81
687.969	6.63
688.292	7.06
688.614	6.1
688.937	6.44
689.26	6.49
689.582	6.32
689.904	5.54
690.227	6.1
690.549	6.47
690.871	6.1
691.194	6.52
691.516	6.48
691.838	6.93
692.16	5.98
692.482	6.19
