Data from 0227_forehead_Reflection__1__11.txt Node

Date: Fri Oct 20 20:40:52 CDT 2023
User: ToomeyLab
Spectrometer: FLMS14357
Trigger mode: 0
Integration Time (sec): 1.000000E-2
Scans to average: 100
Electric dark correction enabled: true
Nonlinearity correction enabled: false
Boxcar width: 0
XAxis mode: Wavelengths
Number of Pixels in Spectrum: 2048
>>>>>Begin Spectral Data<<<<<
189.047	161.18
189.435	161.18
189.823	161.18
190.211	1909.69
190.599	-32.22
190.987	176.62
191.375	25.42
191.763	351.64
192.151	-89.88
192.538	165.24
192.926	79.56
193.314	93.79
193.702	88.05
194.089	130.25
194.477	126.7
194.864	-26.2
195.252	58.87
195.639	-116.12
196.027	449.69
196.414	-44.27
196.801	-32.07
197.189	44.18
197.576	-108.09
197.963	-29.94
198.351	37.42
198.738	59.99
199.125	62.98
199.512	72.74
199.899	52.81
200.286	-1.89
200.673	31.91
201.06	30.28
201.447	28.51
201.833	21.69
202.22	36.72
202.607	53.61
202.994	43.47
203.38	46.06
203.767	35.99
204.154	30.26
204.54	57.99
204.927	14.58
205.313	40.19
205.699	23.73
206.086	36.83
206.472	65.42
206.858	31.21
207.245	0.46
207.631	51.04
208.017	14.24
208.403	-2.93
208.789	23.64
209.175	5.1
209.561	41.3
209.947	-5.77
210.333	13.95
210.719	36.15
211.105	30.13
211.491	38.72
211.876	14.95
212.262	39.64
212.648	34.32
213.034	5.87
213.419	17.62
213.805	8.56
214.19	4.89
214.576	13.5
214.961	35.88
215.346	33.28
215.732	11.91
216.117	-16.03
216.502	27.85
216.888	6.89
217.273	28.62
217.658	17.81
218.043	18.97
218.428	14.48
218.813	16.65
219.198	11.17
219.583	-3.83
219.968	8.66
220.353	13.83
220.738	27.87
221.122	17.96
221.507	24.41
221.892	26.01
222.276	12.53
222.661	27.51
223.046	17.98
223.43	18.52
223.815	17.71
224.199	23.44
224.583	0.83
224.968	4.71
225.352	6.91
225.736	-0.25
226.121	12.05
226.505	4.61
226.889	4.11
227.273	7.59
227.657	14.36
228.041	6.89
228.425	4.69
228.809	6.67
229.193	6.83
229.577	4.42
229.961	4.04
230.344	3.6
230.728	3.49
231.112	4.37
231.495	3.39
231.879	3.52
232.263	4.9
232.646	2.14
233.03	3.4
233.413	3.74
233.797	4.37
234.18	4.84
234.563	4.21
234.946	6.02
235.33	6.86
235.713	4.49
236.096	5.13
236.479	4.02
236.862	5.02
237.245	2.74
237.628	3.61
238.011	5.62
238.394	4.42
238.777	5.42
239.16	4.5
239.543	7.18
239.925	5.86
240.308	4.62
240.691	5.37
241.073	5.93
241.456	4.89
241.838	5.33
242.221	5.27
242.603	5.1
242.986	4.83
243.368	4.06
243.75	2.82
244.133	3.88
244.515	3.26
244.897	3.58
245.279	3.88
245.661	3.19
246.043	3.67
246.425	3.56
246.807	4
247.189	4.6
247.571	2.87
247.953	3.79
248.335	3.55
248.717	3.28
249.098	3.33
249.48	3.39
249.862	3.84
250.243	3.73
250.625	3.75
251.006	3.81
251.388	4.04
251.769	4.2
252.151	3.87
252.532	4.72
252.913	4.36
253.295	3.65
253.676	3.68
254.057	3.76
254.438	4.05
254.819	4.03
255.2	3.51
255.581	4.15
255.962	4.45
256.343	4.38
256.724	3.21
257.105	4.41
257.486	4.2
257.867	4.45
258.247	3.25
258.628	3.78
259.009	4.05
259.389	3.56
259.77	3.07
260.15	3.85
260.531	3.47
260.911	3.88
261.292	3.55
261.672	3.53
262.052	3.5
262.432	3.43
262.813	3.66
263.193	3.83
263.573	3.48
263.953	3.34
264.333	4.35
264.713	4.03
265.093	4.43
265.473	4.16
265.853	4.01
266.233	4.73
266.612	4.41
266.992	3.88
267.372	4.73
267.752	3.76
268.131	3.98
268.511	4.04
268.89	3.88
269.27	4.17
269.649	3.22
270.029	3.46
270.408	4
270.787	3.22
271.167	3.44
271.546	3.9
271.925	4.03
272.304	4.13
272.683	3.86
273.062	3.73
273.441	3.38
273.82	3.84
274.199	3.94
274.578	3.61
274.957	3.83
275.336	3.44
275.715	3.71
276.093	3.25
276.472	3.78
276.851	3.66
277.229	4.03
277.608	3.5
277.986	3.32
278.365	3.77
278.743	3.61
279.122	3.87
279.5	3.47
279.878	3.26
280.257	4.31
280.635	4.02
281.013	4.02
281.391	4.32
281.769	3.26
282.147	3.17
282.525	3.76
282.903	3.43
283.281	3.61
283.659	4.12
284.037	3.84
284.415	3.35
284.792	3.68
285.17	3.78
285.548	3.41
285.925	3.7
286.303	3.22
286.68	3.33
287.058	4.25
287.435	4.2
287.813	3.06
288.19	3.55
288.567	3.81
288.945	4.07
289.322	4.4
289.699	3.64
290.076	4.18
290.453	3.76
290.83	3.66
291.207	4.28
291.584	3.59
291.961	4.06
292.338	3.7
292.715	3.88
293.092	3.95
293.469	3.97
293.845	3.95
294.222	3.7
294.599	3.49
294.975	4.79
295.352	4.25
295.728	4.37
296.105	4.02
296.481	4.05
296.858	4.09
297.234	4.23
297.61	3.68
297.986	3.93
298.363	4.42
298.739	4.48
299.115	4.03
299.491	4.13
299.867	4.27
300.243	4.57
300.619	4.67
300.995	4.51
301.371	4.77
301.746	4.82
302.122	4.72
302.498	4.64
302.874	4.72
303.249	4.82
303.625	4.67
304	5.38
304.376	4.39
304.751	4.56
305.127	4.47
305.502	5.45
305.878	5.48
306.253	5.3
306.628	4.85
307.003	5.06
307.378	5.09
307.754	5.33
308.129	5.42
308.504	5.55
308.879	5.6
309.254	5.25
309.629	5.16
310.003	4.92
310.378	5.52
310.753	5.29
311.128	5.62
311.502	5.23
311.877	5.73
312.252	5.5
312.626	5.82
313.001	5.86
313.375	5.9
313.75	5.76
314.124	5.42
314.498	6.41
314.873	5.8
315.247	6.29
315.621	6.33
315.995	6.59
316.369	6.05
316.743	6.24
317.117	6.41
317.491	6.18
317.865	6.71
318.239	6.6
318.613	6.62
318.987	5.94
319.361	5.72
319.734	6.33
320.108	6.07
320.482	6.43
320.855	6.73
321.229	6.95
321.602	6.92
321.976	6.4
322.349	6.88
322.723	6.79
323.096	6.74
323.469	7
323.843	7.37
324.216	7.07
324.589	7.38
324.962	7.34
325.335	7.06
325.708	7.16
326.081	7.23
326.454	6.96
326.827	7.04
327.2	7.36
327.573	7.19
327.945	7.33
328.318	7.42
328.691	7.57
329.063	7.73
329.436	7.81
329.809	7.6
330.181	8
330.553	8.12
330.926	7.52
331.298	7.18
331.671	7.81
332.043	7.56
332.415	7.82
332.787	8.08
333.159	7.85
333.532	8.16
333.904	7.82
334.276	7.42
334.648	7.97
335.02	8.15
335.391	7.88
335.763	8
336.135	7.94
336.507	7.88
336.879	8.66
337.25	8.31
337.622	8.49
337.993	8.43
338.365	8.26
338.736	8.11
339.108	8.44
339.479	8.53
339.851	8.27
340.222	8.47
340.593	8.25
340.964	8.26
341.336	8.66
341.707	8.58
342.078	8.75
342.449	8.52
342.82	8.45
343.191	8.77
343.562	8.6
343.933	8.55
344.303	8.56
344.674	9.09
345.045	8.77
345.416	9
345.786	8.68
346.157	8.74
346.527	9.21
346.898	9.21
347.268	9.24
347.639	9
348.009	8.86
348.38	9.5
348.75	9.42
349.12	9.35
349.49	9.42
349.861	9.45
350.231	9.16
350.601	9.24
350.971	9.95
351.341	9.56
351.711	10.14
352.081	9.62
352.45	9.41
352.82	9.55
353.19	9.95
353.56	9.91
353.929	9.36
354.299	9.37
354.669	9.68
355.038	9.71
355.408	10.19
355.777	9.72
356.147	9.66
356.516	10.09
356.885	9.89
357.254	10.24
357.624	10.09
357.993	9.82
358.362	9.91
358.731	9.46
359.1	9.64
359.469	10.01
359.838	9.94
360.207	10.06
360.576	10.37
360.945	10.11
361.314	10.27
361.682	10.24
362.051	10.34
362.42	10.14
362.788	10.4
363.157	10.55
363.525	10.06
363.894	10.23
364.262	10.61
364.631	10.71
364.999	10.82
365.367	10.77
365.735	10.35
366.104	10.6
366.472	10.46
366.84	10.95
367.208	11.1
367.576	11.02
367.944	10.88
368.312	10.69
368.68	11.07
369.048	11.11
369.416	11.02
369.783	11.27
370.151	11.24
370.519	11.24
370.886	11.26
371.254	11.46
371.621	11.42
371.989	11.16
372.356	11.32
372.724	11.57
373.091	11.39
373.458	11.3
373.826	11.39
374.193	11.6
374.56	11.58
374.927	11.73
375.294	11.97
375.661	11.66
376.028	11.87
376.395	11.98
376.762	11.75
377.129	11.87
377.496	11.78
377.863	11.97
378.229	12.11
378.596	12.22
378.963	11.87
379.329	12.16
379.696	12.28
380.062	12.19
380.429	12.06
380.795	12.04
381.161	12.19
381.528	12.47
381.894	12.31
382.26	12.56
382.626	12.72
382.993	12.43
383.359	12.69
383.725	12.65
384.091	12.84
384.457	12.69
384.823	12.44
385.188	12.96
385.554	12.84
385.92	12.82
386.286	13.04
386.651	12.89
387.017	13.16
387.383	12.92
387.748	13.02
388.114	12.85
388.479	13.13
388.845	13.13
389.21	13.1
389.575	12.79
389.94	13.21
390.306	13.42
390.671	13.16
391.036	13.14
391.401	13.51
391.766	13.49
392.131	13.3
392.496	13.47
392.861	13.56
393.226	13.65
393.591	13.21
393.956	13.68
394.32	14
394.685	13.54
395.05	14.06
395.414	14
395.779	13.78
396.143	13.72
396.508	13.88
396.872	14.09
397.236	14.17
397.601	14.23
397.965	13.73
398.329	14.08
398.694	13.99
399.058	14.09
399.422	14.41
399.786	14.11
400.15	14.36
400.514	14.06
400.878	14.41
401.242	14.35
401.605	14.84
401.969	14.61
402.333	14.57
402.697	14.44
403.06	14.55
403.424	14.81
403.787	14.67
404.151	14.59
404.514	14.71
404.878	14.69
405.241	14.81
405.604	14.99
405.968	14.7
406.331	14.83
406.694	14.86
407.057	14.91
407.42	15.06
407.783	15.01
408.146	15.32
408.509	15.09
408.872	15.21
409.235	15.36
409.598	15.28
409.961	15.45
410.323	15.44
410.686	15.11
411.049	15.34
411.411	15.57
411.774	15.64
412.136	15.52
412.499	15.33
412.861	15.68
413.223	15.78
413.586	15.74
413.948	15.83
414.31	15.97
414.672	15.75
415.035	16.15
415.397	16.31
415.759	15.93
416.121	15.88
416.483	16.35
416.845	16.19
417.206	15.96
417.568	16.27
417.93	15.97
418.292	15.85
418.653	16.26
419.015	16.22
419.377	16.1
419.738	16.06
420.1	16.05
420.461	16.19
420.822	16.23
421.184	16.31
421.545	16.34
421.906	16.3
422.267	16.08
422.629	16.13
422.99	16.08
423.351	16.17
423.712	16.28
424.073	16.49
424.434	16.42
424.795	16.56
425.155	16.59
425.516	16.42
425.877	16.45
426.238	16.44
426.598	16.68
426.959	16.53
427.32	16.94
427.68	16.89
428.041	17
428.401	17.08
428.761	17.13
429.122	17.26
429.482	17.21
429.842	17.29
430.202	17.63
430.563	17.47
430.923	17.43
431.283	17.48
431.643	17.68
432.003	17.8
432.363	17.41
432.722	17.68
433.082	17.9
433.442	17.79
433.802	18.03
434.161	17.78
434.521	17.92
434.881	17.9
435.24	17.77
435.6	17.9
435.959	18.08
436.319	17.96
436.678	18.06
437.037	18.19
437.396	18.24
437.756	18.47
438.115	18.43
438.474	18.27
438.833	18.5
439.192	18.38
439.551	18.24
439.91	18.35
440.269	18.46
440.628	18.53
440.987	18.43
441.345	18.42
441.704	18.45
442.063	18.41
442.421	18.46
442.78	18.47
443.138	18.51
443.497	18.69
443.855	18.77
444.214	18.79
444.572	18.9
444.93	19.04
445.288	18.95
445.647	19.24
446.005	18.71
446.363	19.1
446.721	19.07
447.079	19.19
447.437	19.08
447.795	18.97
448.153	18.98
448.51	19.12
448.868	19.03
449.226	19.23
449.584	19.25
449.941	19.3
450.299	19.31
450.656	19.45
451.014	19.61
451.371	19.69
451.729	19.69
452.086	19.76
452.443	19.91
452.801	19.95
453.158	20.08
453.515	20
453.872	20.05
454.229	20.1
454.586	20.05
454.943	20.05
455.3	20.12
455.657	20.34
456.014	20.04
456.371	20.37
456.727	20.61
457.084	20.41
457.441	20.47
457.797	20.49
458.154	20.43
458.51	20.55
458.867	20.77
459.223	20.55
459.58	20.79
459.936	20.71
460.292	20.72
460.648	20.68
461.005	20.58
461.361	20.65
461.717	20.28
462.073	20.46
462.429	20.63
462.785	20.84
463.141	21.1
463.496	21.05
463.852	21.21
464.208	21.38
464.564	21.36
464.919	21.47
465.275	21.57
465.631	21.73
465.986	21.53
466.342	21.58
466.697	21.57
467.052	21.6
467.408	21.6
467.763	21.71
468.118	21.76
468.473	21.74
468.829	21.73
469.184	22.01
469.539	21.97
469.894	22.07
470.249	22.13
470.603	22.26
470.958	22.17
471.313	22.23
471.668	22.21
472.023	22.23
472.377	22.21
472.732	22.21
473.086	22.42
473.441	22.41
473.795	22.56
474.15	22.55
474.504	22.42
474.859	22.41
475.213	22.69
475.567	22.64
475.921	22.74
476.275	22.83
476.63	22.96
476.984	22.98
477.338	22.95
477.692	22.83
478.045	23.04
478.399	22.82
478.753	22.98
479.107	22.8
479.461	23.06
479.814	23.1
480.168	23.18
480.521	23.23
480.875	23.02
481.228	23.22
481.582	23.21
481.935	23.32
482.289	23.19
482.642	23.18
482.995	23.21
483.348	23.16
483.701	23.2
484.055	23.17
484.408	23.09
484.761	22.88
485.114	22.46
485.466	22.09
485.819	22.17
486.172	22.48
486.525	22.8
486.878	23.04
487.23	23.23
487.583	23.31
487.936	23.32
488.288	23.23
488.641	23.15
488.993	22.94
489.345	23.01
489.698	23.06
490.05	23.17
490.402	23.29
490.754	23.53
491.107	23.69
491.459	23.87
491.811	23.99
492.163	24.1
492.515	24.05
492.866	23.73
493.218	23.41
493.57	23.42
493.922	23.69
494.274	23.88
494.625	24.21
494.977	24.4
495.328	24.55
495.68	24.79
496.031	24.87
496.383	25.04
496.734	25.04
497.086	25.13
497.437	25.05
497.788	25
498.139	25.14
498.49	25.02
498.842	24.67
499.193	24.98
499.544	25.24
499.894	25.27
500.245	25.24
500.596	25.31
500.947	25.48
501.298	25.51
501.648	25.59
501.999	25.64
502.35	26.01
502.7	25.99
503.051	26.05
503.401	25.96
503.752	26.02
504.102	26.13
504.452	26.19
504.803	26.14
505.153	26.11
505.503	26.06
505.853	26.17
506.203	26.26
506.553	26.25
506.903	26.47
507.253	26.64
507.603	26.52
507.953	26.53
508.303	26.53
508.652	26.57
509.002	26.74
509.352	26.7
509.701	26.67
510.051	26.55
510.4	26.7
510.75	26.71
511.099	26.52
511.449	26.66
511.798	26.75
512.147	26.73
512.496	26.95
512.846	26.9
513.195	26.94
513.544	26.86
513.893	26.87
514.242	27
514.591	27.11
514.939	27.06
515.288	27.22
515.637	27.4
515.986	27.54
516.334	27.54
516.683	27.63
517.032	27.52
517.38	27.61
517.729	27.9
518.077	27.84
518.426	27.88
518.774	27.53
519.122	27.73
519.47	27.63
519.819	27.53
520.167	27.45
520.515	27.42
520.863	27.55
521.211	27.64
521.559	27.72
521.907	28.04
522.255	28.07
522.602	28.34
522.95	28.12
523.298	28.3
523.645	28.31
523.993	28.49
524.341	28.49
524.688	28.48
525.036	28.59
525.383	28.55
525.73	28.81
526.078	28.45
526.425	28.74
526.772	28.54
527.119	28.34
527.466	28.22
527.814	28.25
528.161	28.31
528.508	28.46
528.854	28.57
529.201	28.53
529.548	28.4
529.895	28.11
530.242	27.73
530.588	27.73
530.935	28.21
531.282	28.48
531.628	28.57
531.975	28.74
532.321	28.96
532.667	29.05
533.014	29.08
533.36	29.21
533.706	29.28
534.052	29.17
534.399	29.15
534.745	28.94
535.091	28.7
535.437	29
535.783	29.26
536.129	29.46
536.474	29.63
536.82	29.86
537.166	29.94
537.512	29.96
537.857	29.8
538.203	29.8
538.549	29.66
538.894	29.81
539.239	29.98
539.585	30.21
539.93	30.28
540.276	30.45
540.621	30.71
540.966	30.75
541.311	31
541.656	30.67
542.001	30.68
542.346	30.37
542.691	30.1
543.036	29.65
543.381	29.8
543.726	30.11
544.071	30.33
544.415	30.56
544.76	30.64
545.105	30.65
545.449	30.71
545.794	31.01
546.138	31.03
546.483	31.12
546.827	31.18
547.171	31.39
547.516	31.07
547.86	31.37
548.204	31.29
548.548	31.4
548.892	31.32
549.236	31.32
549.58	31.66
549.924	31.83
550.268	32.04
550.612	32.03
550.956	32.25
551.3	32.33
551.643	32.46
551.987	32.36
552.33	32.38
552.674	32.52
553.017	32.57
553.361	32.76
553.704	32.68
554.048	32.81
554.391	32.56
554.734	32.75
555.077	32.71
555.42	32.73
555.764	32.89
556.107	33.27
556.45	33.18
556.793	33.35
557.135	33.14
557.478	33.25
557.821	33.53
558.164	33.58
558.507	33.55
558.849	33.65
559.192	33.64
559.534	33.69
559.877	33.46
560.219	33.94
560.562	33.74
560.904	33.86
561.246	33.92
561.589	33.76
561.931	34
562.273	34.1
562.615	34.51
562.957	34.02
563.299	34.32
563.641	34.23
563.983	34.26
564.325	34.12
564.667	34.46
565.008	34.37
565.35	34.4
565.692	34.6
566.033	34.64
566.375	34.79
566.716	34.63
567.058	34.52
567.399	34.6
567.741	34.34
568.082	34.41
568.423	34.57
568.764	34.6
569.105	34.99
569.447	34.82
569.788	34.94
570.129	35.07
570.47	34.86
570.811	35.29
571.151	34.98
571.492	35.24
571.833	35.19
572.174	35.14
572.514	35
572.855	35.21
573.195	35.38
573.536	35.15
573.876	35.42
574.217	35.24
574.557	35.26
574.898	35.65
575.238	35.25
575.578	35.78
575.918	35.75
576.258	35.7
576.598	35.89
576.938	36.02
577.278	35.75
577.618	35.92
577.958	36.05
578.298	35.94
578.638	36.45
578.977	36.17
579.317	36.4
579.657	36.22
579.996	36.56
580.336	36.35
580.675	36.49
581.014	36.98
581.354	36.61
581.693	36.84
582.032	37.03
582.372	36.86
582.711	37.15
583.05	37.06
583.389	37.07
583.728	37.35
584.067	37.41
584.406	37.16
584.745	37.19
585.083	37.41
585.422	37.31
585.761	37.28
586.1	37.82
586.438	36.99
586.777	37.62
587.115	38.04
587.454	37.72
587.792	37.99
588.13	37.82
588.469	37.95
588.807	38
589.145	37.92
589.483	37.97
589.821	38.24
590.159	37.74
590.497	37.8
590.835	38.02
591.173	38.05
591.511	37.85
591.849	38.01
592.187	38.25
592.524	38.26
592.862	38.31
593.2	38.14
593.537	38.62
593.875	38.55
594.212	38.32
594.55	38.62
594.887	38.42
595.224	38.78
595.561	38.92
595.899	38.71
596.236	38.66
596.573	39.03
596.91	39
597.247	38.7
597.584	38.53
597.921	39.01
598.258	38.76
598.594	38.71
598.931	38.44
599.268	38.62
599.604	39.22
599.941	39.1
600.277	39.08
600.614	39.11
600.95	39.45
601.287	39.12
601.623	39.67
601.959	39.54
602.296	39.68
602.632	39.89
602.968	39.88
603.304	40.02
603.64	39.76
603.976	39.87
604.312	39.77
604.648	39.92
604.984	39.93
605.319	39.8
605.655	39.63
605.991	39.61
606.326	39.77
606.662	39.47
606.998	39.59
607.333	40
607.668	40
608.004	40.15
608.339	40.06
608.674	40.3
609.01	40.74
609.345	40.55
609.68	40.48
610.015	40.64
610.35	40.69
610.685	40.76
611.02	40.1
611.355	40.27
611.689	40.28
612.024	40.59
612.359	40.53
612.694	40.71
613.028	40.83
613.363	41.25
613.697	41
614.032	41.35
614.366	41.08
614.7	40.81
615.035	41.3
615.369	41.37
615.703	41.26
616.037	41.53
616.371	41.38
616.705	41.55
617.039	41.62
617.373	41.71
617.707	41.82
618.041	41.87
618.375	41.51
618.709	41.89
619.042	41.89
619.376	42.05
619.71	42.14
620.043	42.17
620.377	42.43
620.71	42.32
621.043	42.25
621.377	42.54
621.71	41.99
622.043	42.33
622.376	42.09
622.709	42.77
623.043	42.29
623.376	42.57
623.709	42.74
624.041	42.77
624.374	43.03
624.707	42.61
625.04	42.55
625.373	42.54
625.705	42.59
626.038	42.7
626.37	43.13
626.703	42.4
627.035	42.33
627.368	42.78
627.7	42.89
628.032	42.65
628.365	42.55
628.697	42.77
629.029	43.07
629.361	43.21
629.693	43.01
630.025	43.3
630.357	43.49
630.689	43.48
631.021	43.81
631.353	43.39
631.684	43.2
632.016	43.3
632.348	43.53
632.679	42.96
633.011	43.15
633.342	43.63
633.674	43.66
634.005	44.02
634.336	44.31
634.668	43.66
634.999	44.07
635.33	43.72
635.661	43.88
635.992	44.34
636.323	43.95
636.654	44.45
636.985	44
637.316	44.42
637.647	43.97
637.977	44.3
638.308	44.56
638.639	44.39
638.969	44.79
639.3	44.41
639.63	44.66
639.961	44.74
640.291	44.82
640.622	44.68
640.952	45.2
641.282	44.97
641.612	44.66
641.943	44.56
642.273	44.77
642.603	45.14
642.933	45.06
643.263	44.75
643.592	44.93
643.922	45.17
644.252	45.01
644.582	44.9
644.911	45.32
645.241	45.36
645.571	45.81
645.9	45.4
646.23	45.7
646.559	45.56
646.888	45.47
647.218	45.67
647.547	45.84
647.876	45.85
648.205	45.95
648.534	45.61
648.863	45.57
649.192	45.66
649.521	45.79
649.85	45.88
650.179	46.44
650.508	45.85
650.837	46
651.165	46.22
651.494	45.96
651.822	45.7
652.151	46.38
652.479	45.77
652.808	46.02
653.136	46.54
653.465	46.06
653.793	46.5
654.121	46.38
654.449	46.54
654.777	46.36
655.105	46.97
655.433	46.42
655.761	46.93
656.089	46.8
656.417	46.86
656.745	46.86
657.073	47.13
657.4	47.02
657.728	47.21
658.056	46.75
658.383	46.88
658.711	46.53
659.038	46.34
659.365	47.28
659.693	46.8
660.02	46.75
660.347	46.75
660.674	46.48
661.001	47.07
661.329	46.41
661.656	46.98
661.982	46.77
662.309	47.26
662.636	47.38
662.963	47.35
663.29	46.84
663.616	47.37
663.943	47.49
664.27	47.58
664.596	47.19
664.923	47.19
665.249	47.42
665.576	47.32
665.902	47.04
666.228	47.38
666.554	47.78
666.881	47.38
667.207	47.46
667.533	47.75
667.859	47.36
668.185	47.96
668.511	47.66
668.837	47.67
669.162	48.07
669.488	48.14
669.814	47.44
670.139	47.71
670.465	47.51
670.791	47.69
671.116	48.69
671.442	47.65
671.767	48.06
672.092	47.94
