Data from 0227_crown_Reflection__2__07.txt Node

Date: Fri Oct 20 20:39:50 CDT 2023
User: ToomeyLab
Spectrometer: FLMS14357
Trigger mode: 0
Integration Time (sec): 1.000000E-2
Scans to average: 100
Electric dark correction enabled: true
Nonlinearity correction enabled: false
Boxcar width: 0
XAxis mode: Wavelengths
Number of Pixels in Spectrum: 2048
>>>>>Begin Spectral Data<<<<<
189.047	-161.75
189.435	-161.75
189.823	-161.75
190.211	999.65
190.599	92.44
190.987	-89.49
191.375	-137.53
191.763	81.12
192.151	0.36
192.538	78.61
192.926	90.62
193.314	144.59
193.702	257.42
194.089	64.97
194.477	843.32
194.864	92.49
195.252	405.86
195.639	-120.82
196.027	-8.96
196.414	26.88
196.801	29.51
197.189	62.41
197.576	95.95
197.963	-217.84
198.351	21.37
198.738	18.51
199.125	44.86
199.512	39.61
199.899	5.72
200.286	35.63
200.673	29.36
201.06	-8.93
201.447	-29.05
201.833	32.73
202.22	10.7
202.607	20.25
202.994	31
203.38	-18.65
203.767	-1.74
204.154	57.11
204.54	29.61
204.927	-28.48
205.313	-18.76
205.699	35.93
206.086	23.29
206.472	48.72
206.858	33.32
207.245	-21.57
207.631	-4.13
208.017	28.21
208.403	1.87
208.789	26.13
209.175	-62.59
209.561	21.26
209.947	-13.54
210.333	7.13
210.719	10.81
211.105	24.52
211.491	44.4
211.876	-7.04
212.262	37.61
212.648	31.16
213.034	26.64
213.419	25.94
213.805	-3.31
214.19	0.9
214.576	-9.22
214.961	27.34
215.346	38.56
215.732	16
216.117	-14.34
216.502	8.69
216.888	-7.01
217.273	12.21
217.658	0.65
218.043	-17.66
218.428	-1.26
218.813	12.41
219.198	-2.49
219.583	-29.63
219.968	-3.58
220.353	5.94
220.738	34.25
221.122	7.56
221.507	13.87
221.892	9.36
222.276	11.12
222.661	22.39
223.046	18.04
223.43	8.5
223.815	13.65
224.199	15.76
224.583	-4.78
224.968	2.91
225.352	5.01
225.736	3.11
226.121	8.84
226.505	1.2
226.889	12.91
227.273	13
227.657	10.4
228.041	8.95
228.425	9.8
228.809	9
229.193	5.62
229.577	10.96
229.961	6.68
230.344	7.12
230.728	7.9
231.112	9.09
231.495	8.22
231.879	8.85
232.263	8.82
232.646	7.35
233.03	6.54
233.413	6.72
233.797	7.77
234.18	9.19
234.563	8.42
234.946	8
235.33	7.64
235.713	8.26
236.096	9.4
236.479	9.34
236.862	8.14
237.245	7.39
237.628	8.08
238.011	8.05
238.394	7.76
238.777	9.34
239.16	7.88
239.543	10.22
239.925	10.05
240.308	8.27
240.691	5.86
241.073	8.25
241.456	7.8
241.838	7.71
242.221	8.64
242.603	8.54
242.986	8.12
243.368	7.67
243.75	7.13
244.133	6.91
244.515	7.11
244.897	7.07
245.279	8.14
245.661	6.92
246.043	7
246.425	6.56
246.807	6.96
247.189	6.85
247.571	6.95
247.953	7.15
248.335	6.71
248.717	6.52
249.098	6.49
249.48	6.8
249.862	7.28
250.243	7.53
250.625	7.27
251.006	7.45
251.388	7.61
251.769	7.9
252.151	7.27
252.532	7.19
252.913	6.32
253.295	6.12
253.676	6.39
254.057	6.66
254.438	6.59
254.819	6.62
255.2	6.71
255.581	6.11
255.962	7.15
256.343	7.3
256.724	5.74
257.105	7
257.486	6.85
257.867	6.59
258.247	7.06
258.628	6.36
259.009	6.66
259.389	5.81
259.77	6.18
260.15	6.35
260.531	6.15
260.911	6.66
261.292	5.61
261.672	6.22
262.052	6.16
262.432	6.12
262.813	6.18
263.193	6.73
263.573	5.99
263.953	6.84
264.333	6.32
264.713	6.49
265.093	6.38
265.473	7.23
265.853	6.37
266.233	6.36
266.612	6.42
266.992	5.54
267.372	6.54
267.752	5.18
268.131	6.11
268.511	6.54
268.89	6.03
269.27	5.51
269.649	5.3
270.029	5.78
270.408	6.07
270.787	6.18
271.167	5.64
271.546	5.99
271.925	6.31
272.304	5.88
272.683	6.18
273.062	5.34
273.441	5.92
273.82	6.36
274.199	5.86
274.578	5.81
274.957	5.88
275.336	6.18
275.715	6.2
276.093	5.21
276.472	6.12
276.851	6.01
277.229	5.92
277.608	5.84
277.986	5.29
278.365	6.28
278.743	5.64
279.122	5.6
279.5	5.6
279.878	5.09
280.257	6.01
280.635	6.02
281.013	6.06
281.391	6.44
281.769	5.87
282.147	5.16
282.525	5.89
282.903	5.75
283.281	5.79
283.659	5.84
284.037	5.8
284.415	5.44
284.792	5.26
285.17	5.85
285.548	5.27
285.925	5.36
286.303	5.4
286.68	5.57
287.058	5.83
287.435	5.66
287.813	5.25
288.19	5.47
288.567	5.59
288.945	5.92
289.322	5.98
289.699	5.3
290.076	5.75
290.453	5.64
290.83	5.66
291.207	5.94
291.584	4.77
291.961	5.36
292.338	5.12
292.715	5.5
293.092	5.63
293.469	5.52
293.845	5.17
294.222	5.36
294.599	5.59
294.975	6.09
295.352	5.78
295.728	5.52
296.105	4.92
296.481	5.34
296.858	5.56
297.234	5.82
297.61	5.19
297.986	5.1
298.363	5.52
298.739	5.23
299.115	5.21
299.491	5.5
299.867	5.68
300.243	5.18
300.619	5.3
300.995	5.25
301.371	5.34
301.746	5.25
302.122	5.42
302.498	5.15
302.874	5.4
303.249	5.03
303.625	5.32
304	5.31
304.376	5.19
304.751	5.05
305.127	5.18
305.502	5.71
305.878	5.11
306.253	5.54
306.628	5.4
307.003	5.21
307.378	5
307.754	5.54
308.129	5.78
308.504	5.76
308.879	4.79
309.254	5.7
309.629	4.97
310.003	4.75
310.378	6.02
310.753	5.15
311.128	5.6
311.502	5.12
311.877	5.25
312.252	5.13
312.626	5.52
313.001	5.47
313.375	5.05
313.75	5.34
314.124	4.89
314.498	5.09
314.873	5.08
315.247	5.44
315.621	5.48
315.995	5.63
316.369	5.23
316.743	5.29
317.117	4.94
317.491	4.95
317.865	5.6
318.239	5.45
318.613	5.4
318.987	4.96
319.361	4.95
319.734	5.21
320.108	4.88
320.482	5.24
320.855	5.51
321.229	5.35
321.602	5.21
321.976	5.32
322.349	5.48
322.723	5.2
323.096	4.94
323.469	4.97
323.843	5.49
324.216	5.34
324.589	5.19
324.962	5.71
325.335	5.65
325.708	5.27
326.081	5.29
326.454	5.33
326.827	5.87
327.2	5.66
327.573	5.58
327.945	5.37
328.318	4.84
328.691	4.84
329.063	5.5
329.436	4.51
329.809	5.39
330.181	5.55
330.553	5.53
330.926	5.49
331.298	5.18
331.671	5.12
332.043	5.33
332.415	5.55
332.787	5.76
333.159	4.75
333.532	5.3
333.904	5.36
334.276	5.08
334.648	5.91
335.02	5.57
335.391	5.19
335.763	5.59
336.135	5.61
336.507	5.43
336.879	5.41
337.25	5.54
337.622	5.56
337.993	5.49
338.365	5.51
338.736	5.18
339.108	5.63
339.479	5.12
339.851	5.45
340.222	5.38
340.593	5.24
340.964	5.48
341.336	5.59
341.707	5.42
342.078	5.3
342.449	5.47
342.82	5.38
343.191	5.2
343.562	5.47
343.933	5.52
344.303	5.67
344.674	5.51
345.045	5.57
345.416	5.88
345.786	5.44
346.157	5.55
346.527	5.36
346.898	5.67
347.268	5.54
347.639	5.64
348.009	5.13
348.38	5.13
348.75	5.41
349.12	5.9
349.49	5.28
349.861	5.84
350.231	5.3
350.601	5.63
350.971	5.97
351.341	5.34
351.711	5.99
352.081	5.36
352.45	5.29
352.82	5.95
353.19	5.83
353.56	5.91
353.929	5.47
354.299	5.42
354.669	5.97
355.038	5.88
355.408	5.86
355.777	5.57
356.147	5.51
356.516	5.62
356.885	5.73
357.254	5.54
357.624	5.86
357.993	5.53
358.362	5.83
358.731	5.01
359.1	5.26
359.469	5.68
359.838	5.38
360.207	5.53
360.576	5.82
360.945	5.63
361.314	5.62
361.682	5.66
362.051	5.69
362.42	5.33
362.788	5.76
363.157	5.58
363.525	5.55
363.894	5.63
364.262	5.5
364.631	5.93
364.999	5.74
365.367	5.43
365.735	5.45
366.104	5.68
366.472	5.62
366.84	5.69
367.208	5.84
367.576	5.73
367.944	5.7
368.312	5.92
368.68	5.87
369.048	5.63
369.416	6.06
369.783	5.86
370.151	5.82
370.519	5.8
370.886	5.84
371.254	5.79
371.621	6.12
371.989	5.93
372.356	6.14
372.724	6.2
373.091	5.97
373.458	5.64
373.826	6.02
374.193	5.58
374.56	5.6
374.927	6.09
375.294	5.73
375.661	5.79
376.028	6.12
376.395	6.33
376.762	6.18
377.129	5.95
377.496	5.76
377.863	6.41
378.229	6.14
378.596	6.01
378.963	5.98
379.329	6.03
379.696	6
380.062	5.84
380.429	5.92
380.795	5.83
381.161	5.89
381.528	6.3
381.894	5.84
382.26	5.99
382.626	6.11
382.993	5.97
383.359	5.8
383.725	6.06
384.091	5.99
384.457	6.02
384.823	5.85
385.188	6.22
385.554	6.14
385.92	6.09
386.286	6.33
386.651	5.74
387.017	6.22
387.383	5.93
387.748	5.81
388.114	5.87
388.479	5.92
388.845	6.29
389.21	5.87
389.575	5.72
389.94	6.04
390.306	5.73
390.671	5.87
391.036	6.03
391.401	6.37
391.766	6.04
392.131	5.97
392.496	6.18
392.861	5.91
393.226	5.93
393.591	5.92
393.956	6.05
394.32	6.23
394.685	6.04
395.05	6.32
395.414	6.26
395.779	6.05
396.143	5.83
396.508	5.91
396.872	6.35
397.236	6.17
397.601	6.14
397.965	6.02
398.329	5.79
398.694	6.23
399.058	5.83
399.422	6.21
399.786	6.27
400.15	6.23
400.514	5.89
400.878	6.21
401.242	6.24
401.605	6.18
401.969	6.04
402.333	6.06
402.697	6.35
403.06	6.05
403.424	6.23
403.787	6.18
404.151	6.2
404.514	6.12
404.878	6.26
405.241	6.14
405.604	5.99
405.968	6.24
406.331	6.05
406.694	6.13
407.057	6.12
407.42	6.35
407.783	6.16
408.146	6.08
408.509	6.02
408.872	6.22
409.235	6.22
409.598	6.11
409.961	6.58
410.323	6.17
410.686	5.94
411.049	6.37
411.411	6.21
411.774	6.16
412.136	6.15
412.499	6.08
412.861	6.27
413.223	6.06
413.586	6.23
413.948	6.18
414.31	6.33
414.672	6.04
415.035	6.1
415.397	6.11
415.759	6.11
416.121	6.34
416.483	6.37
416.845	6.09
417.206	6.02
417.568	6.22
417.93	6.09
418.292	6.02
418.653	6.21
419.015	6.16
419.377	6
419.738	6.03
420.1	5.93
420.461	5.96
420.822	6.08
421.184	6.14
421.545	6.06
421.906	6.04
422.267	6.01
422.629	6.06
422.99	5.94
423.351	5.96
423.712	6.03
424.073	6.05
424.434	5.93
424.795	5.98
425.155	6.02
425.516	6.07
425.877	5.96
426.238	5.89
426.598	6.05
426.959	5.94
427.32	6.04
427.68	6.14
428.041	6.09
428.401	6.2
428.761	6.16
429.122	6.27
429.482	6.08
429.842	6.31
430.202	6.17
430.563	6.13
430.923	6.26
431.283	6.07
431.643	6.33
432.003	6.28
432.363	6.16
432.722	6.13
433.082	6.22
433.442	6.11
433.802	6.22
434.161	5.98
434.521	6.15
434.881	6.15
435.24	6.08
435.6	6.03
435.959	6.09
436.319	6.1
436.678	6.08
437.037	6.18
437.396	6.21
437.756	6.21
438.115	6.16
438.474	6.37
438.833	6.25
439.192	6.22
439.551	6.03
439.91	6
440.269	6.18
440.628	6.1
440.987	6.07
441.345	6.05
441.704	6.15
442.063	6.09
442.421	5.91
442.78	5.97
443.138	6.12
443.497	6.18
443.855	6.12
444.214	6.2
444.572	6.06
444.93	6.26
445.288	6.18
445.647	6.2
446.005	6.05
446.363	6.13
446.721	6.09
447.079	6.22
447.437	6.11
447.795	5.89
448.153	5.93
448.51	5.93
448.868	6.01
449.226	6.03
449.584	6.16
449.941	6.02
450.299	6.06
450.656	5.94
451.014	6.15
451.371	6.16
451.729	6.08
452.086	6.09
452.443	6.2
452.801	6.11
453.158	6.19
453.515	6.17
453.872	6.16
454.229	6.33
454.586	6.16
454.943	6.12
455.3	6.03
455.657	6.07
456.014	6.05
456.371	6.05
456.727	6.24
457.084	6.11
457.441	6.19
457.797	6.26
458.154	6.03
458.51	6.08
458.867	6.26
459.223	6.18
459.58	6.13
459.936	6.18
460.292	6.15
460.648	5.95
461.005	5.9
461.361	6.08
461.717	5.84
462.073	6.03
462.429	6.01
462.785	6.08
463.141	6.13
463.496	6.02
463.852	6.15
464.208	6.3
464.564	6.05
464.919	6.14
465.275	6.25
465.631	6.2
465.986	6.29
466.342	6.25
466.697	6.14
467.052	6.19
467.408	6.17
467.763	6.29
468.118	6.23
468.473	6.14
468.829	6.03
469.184	6.29
469.539	6.22
469.894	6.17
470.249	6.15
470.603	6.15
470.958	6.19
471.313	6.25
471.668	6.24
472.023	6.08
472.377	6.2
472.732	6
473.086	6.25
473.441	6.14
473.795	6.31
474.15	6.24
474.504	6.08
474.859	6.06
475.213	6.26
475.567	6.24
475.921	6.1
476.275	6.22
476.63	6.25
476.984	6.17
477.338	6.02
477.692	5.99
478.045	6.33
478.399	6.11
478.753	6.16
479.107	6.27
479.461	6.22
479.814	6.31
480.168	6.29
480.521	6.11
480.875	6.23
481.228	6.21
481.582	6.16
481.935	6.15
482.289	6.15
482.642	6.03
482.995	5.99
483.348	6.12
483.701	6.02
484.055	6.02
484.408	5.95
484.761	5.93
485.114	5.77
485.466	5.66
485.819	5.62
486.172	5.59
486.525	5.7
486.878	5.78
487.23	5.84
487.583	5.89
487.936	5.92
488.288	5.92
488.641	5.87
488.993	5.78
489.345	5.78
489.698	5.75
490.05	5.72
490.402	5.78
490.754	5.85
491.107	5.92
491.459	6.02
491.811	5.97
492.163	6.04
492.515	6
492.866	6
493.218	5.82
493.57	5.7
493.922	5.79
494.274	5.81
494.625	5.9
494.977	5.92
495.328	6.07
495.68	6.1
496.031	6.07
496.383	6.06
496.734	6.21
497.086	6.08
497.437	6.06
497.788	5.94
498.139	6.25
498.49	5.99
498.842	5.95
499.193	5.99
499.544	5.97
499.894	5.93
500.245	5.84
500.596	5.98
500.947	5.95
501.298	6.03
501.648	5.98
501.999	6.15
502.35	6
502.7	6.13
503.051	6.1
503.401	6.04
503.752	6.03
504.102	6.07
504.452	6.06
504.803	5.94
505.153	6.05
505.503	6.05
505.853	6.05
506.203	6.11
506.553	5.93
506.903	5.97
507.253	5.97
507.603	6.02
507.953	6.13
508.303	5.84
508.652	5.94
509.002	5.96
509.352	5.99
509.701	5.87
510.051	5.92
510.4	5.98
510.75	5.91
511.099	5.98
511.449	6.04
511.798	5.96
512.147	5.95
512.496	6.04
512.846	5.97
513.195	6.08
513.544	5.92
513.893	5.87
514.242	5.87
514.591	5.98
514.939	5.9
515.288	6
515.637	6.17
515.986	6.04
516.334	5.93
516.683	5.94
517.032	5.89
517.38	5.83
517.729	6.02
518.077	5.91
518.426	5.97
518.774	5.75
519.122	5.9
519.47	5.97
519.819	5.87
520.167	5.81
520.515	5.73
520.863	5.94
521.211	5.79
521.559	5.97
521.907	5.83
522.255	5.87
522.602	5.97
522.95	5.8
523.298	5.99
523.645	5.94
523.993	5.87
524.341	6
524.688	5.89
525.036	6.06
525.383	5.81
525.73	6.07
526.078	5.98
526.425	5.93
526.772	5.89
527.119	5.8
527.466	5.79
527.814	5.81
528.161	5.83
528.508	5.82
528.854	5.81
529.201	5.76
529.548	5.81
529.895	5.72
530.242	5.59
530.588	5.52
530.935	5.52
531.282	5.58
531.628	5.67
531.975	5.6
532.321	5.76
532.667	5.74
533.014	5.78
533.36	5.8
533.706	5.87
534.052	5.82
534.399	5.74
534.745	5.69
535.091	5.6
535.437	5.63
535.783	5.64
536.129	5.7
536.474	5.83
536.82	5.87
537.166	5.74
537.512	5.85
537.857	5.85
538.203	5.69
538.549	5.8
538.894	5.69
539.239	5.74
539.585	5.77
539.93	5.79
540.276	5.95
540.621	5.92
540.966	5.83
541.311	5.96
541.656	5.81
542.001	5.89
542.346	5.82
542.691	5.71
543.036	5.61
543.381	5.5
543.726	5.52
544.071	5.58
544.415	5.66
544.76	5.65
545.105	5.75
545.449	5.74
545.794	5.75
546.138	5.8
546.483	5.73
546.827	5.73
547.171	5.8
547.516	5.74
547.86	5.79
548.204	5.63
548.548	5.75
548.892	5.76
549.236	5.84
549.58	5.66
549.924	5.78
550.268	5.77
550.612	5.78
550.956	5.92
551.3	5.74
551.643	5.74
551.987	5.91
552.33	5.83
552.674	5.92
553.017	5.71
553.361	6.01
553.704	5.9
554.048	5.82
554.391	5.91
554.734	5.8
555.077	5.77
555.42	5.76
555.764	5.74
556.107	6.04
556.45	5.89
556.793	5.74
557.135	5.67
557.478	5.72
557.821	5.84
558.164	5.91
558.507	5.89
558.849	5.99
559.192	5.88
559.534	5.9
559.877	5.74
560.219	5.91
560.562	5.89
560.904	5.73
561.246	5.81
561.589	5.74
561.931	5.89
562.273	5.98
562.615	5.95
562.957	5.91
563.299	5.75
563.641	5.85
563.983	5.72
564.325	5.67
564.667	5.88
565.008	5.79
565.35	5.78
565.692	5.77
566.033	5.88
566.375	5.73
566.716	5.79
567.058	5.67
567.399	5.86
567.741	5.76
568.082	5.69
568.423	5.75
568.764	5.7
569.105	5.7
569.447	5.69
569.788	5.73
570.129	5.79
570.47	5.62
570.811	5.91
571.151	5.74
571.492	5.88
571.833	5.71
572.174	5.82
572.514	5.8
572.855	5.8
573.195	5.88
573.536	5.61
573.876	5.8
574.217	5.57
574.557	5.61
574.898	5.56
575.238	5.58
575.578	5.7
575.918	5.66
576.258	5.81
576.598	5.65
576.938	5.75
577.278	5.79
577.618	5.67
577.958	5.66
578.298	5.57
578.638	5.79
578.977	5.65
579.317	5.76
579.657	5.7
579.996	5.86
580.336	5.92
580.675	5.64
581.014	5.71
581.354	5.58
581.693	5.62
582.032	5.63
582.372	5.52
582.711	5.89
583.05	5.9
583.389	5.56
583.728	5.75
584.067	5.75
584.406	5.55
584.745	5.61
585.083	5.67
585.422	5.76
585.761	5.55
586.1	5.97
586.438	5.58
586.777	5.78
587.115	5.86
587.454	5.84
587.792	5.63
588.13	5.91
588.469	5.75
588.807	5.41
589.145	5.76
589.483	5.59
589.821	5.5
590.159	5.74
590.497	5.87
590.835	5.84
591.173	5.55
591.511	5.56
591.849	5.57
592.187	5.65
592.524	5.64
592.862	5.59
593.2	5.64
593.537	5.39
593.875	5.72
594.212	5.53
594.55	5.88
594.887	5.62
595.224	5.67
595.561	5.33
595.899	5.65
596.236	5.74
596.573	5.59
596.91	5.58
597.247	5.77
597.584	5.57
597.921	5.73
598.258	5.78
598.594	5.71
598.931	5.39
599.268	5.41
599.604	5.68
599.941	5.62
600.277	5.67
600.614	5.52
600.95	5.7
601.287	5.5
601.623	5.55
601.959	5.84
602.296	5.6
602.632	5.53
602.968	5.42
603.304	5.72
603.64	5.53
603.976	5.76
604.312	5.68
604.648	5.73
604.984	5.85
605.319	5.48
605.655	5.51
605.991	5.34
606.326	5.42
606.662	5.48
606.998	5.33
607.333	5.53
607.668	5.26
608.004	5.53
608.339	5.39
608.674	5.57
609.01	5.44
609.345	5.68
609.68	5.64
610.015	5.41
610.35	5.68
610.685	5.76
611.02	5.3
611.355	5.23
611.689	5.33
612.024	5.54
612.359	5.52
612.694	5.59
613.028	5.69
613.363	5.42
613.697	5.6
614.032	5.58
614.366	5.63
614.7	5.65
615.035	5.61
615.369	5.46
615.703	5.52
616.037	5.77
616.371	5.6
616.705	5.68
617.039	5.57
617.373	5.56
617.707	6.02
618.041	5.49
618.375	5.43
618.709	5.72
619.042	5.43
619.376	5.88
619.71	5.58
620.043	5.67
620.377	5.46
620.71	5.76
621.043	5.48
621.377	5.24
621.71	5.57
622.043	5.54
622.376	5.65
622.709	5.69
623.043	5.39
623.376	5.37
623.709	5.5
624.041	5.7
624.374	5.56
624.707	5.26
625.04	5.68
625.373	5.76
625.705	5.5
626.038	5.54
626.37	5.55
626.703	5.3
627.035	5.41
627.368	5.6
627.7	5.63
628.032	5.34
628.365	5.65
628.697	5.73
629.029	5.47
629.361	5.58
629.693	5.56
630.025	5.59
630.357	5.77
630.689	5.12
631.021	5.76
631.353	5.72
631.684	5.23
632.016	5.39
632.348	5.68
632.679	5.23
633.011	5.27
633.342	5.41
633.674	5.21
634.005	5.71
634.336	6.06
634.668	5.43
634.999	5.26
635.33	5.15
635.661	5.77
635.992	5.39
636.323	5.56
636.654	5.64
636.985	5.44
637.316	5.61
637.647	5.38
637.977	5.28
638.308	5.41
638.639	5.56
638.969	5.6
639.3	5.45
639.63	5.48
639.961	5.7
640.291	5.87
640.622	5.39
640.952	5.87
641.282	5.29
641.612	5.58
641.943	5.69
642.273	5.44
642.603	5.48
642.933	5.65
643.263	5.76
643.592	5.34
643.922	6.13
644.252	5.18
644.582	5.41
644.911	5.9
645.241	5.69
645.571	5.92
645.9	5.38
646.23	5.66
646.559	5.43
646.888	5.42
647.218	5.74
647.547	5.4
647.876	5.68
648.205	5.37
648.534	5.54
648.863	6.11
649.192	5.13
649.521	5.53
649.85	5.57
650.179	5.72
650.508	5.35
650.837	5.28
651.165	5.6
651.494	5.23
651.822	5.5
652.151	5.65
652.479	5.56
652.808	5.96
653.136	5.15
653.465	5.56
653.793	5.46
654.121	5.99
654.449	5.49
654.777	5.46
655.105	5.55
655.433	5.7
655.761	5.78
656.089	5.83
656.417	5.6
656.745	5.87
657.073	5.42
657.4	6.69
657.728	5.85
658.056	5.34
658.383	5.49
658.711	5.57
659.038	5.81
659.365	5.69
659.693	5.95
660.02	5.72
660.347	5.19
660.674	5.77
661.001	5.15
661.329	5.77
661.656	5.7
661.982	5.58
662.309	5.83
662.636	5.79
662.963	5.59
663.29	5.65
663.616	5.86
663.943	5.79
664.27	6
664.596	5.56
664.923	5.57
665.249	5.33
665.576	5.64
665.902	5.7
666.228	6.1
666.554	5.65
666.881	5.28
667.207	5.74
667.533	5.83
667.859	5.78
668.185	5.89
668.511	5.84
668.837	5.72
669.162	5.99
669.488	6.13
669.814	5.6
670.139	5.43
670.465	5.59
670.791	5.78
671.116	5.55
671.442	5.66
671.767	5.8
672.092	6.07
672.418	5.64
672.743	5.95
673.068	6.2
673.393	5.51
673.718	5.81
674.043	5.74
674.368	5.85
674.693	6.06
675.018	6.11
675.343	5.39
675.667	5.72
675.992	5.71
676.317	6.18
676.641	6.39
676.966	5.71
677.29	5.92
677.615	5.84
677.939	5.18
678.264	5.98
678.588	5.42
678.912	6.09
679.236	5.18
679.56	6.02
679.885	5.82
680.209	6.06
680.532	5.92
680.856	5.36
681.18	5.44
681.504	5.83
681.828	6.08
682.152	5.91
682.475	5.9
682.799	5.76
683.122	5.88
683.446	5.98
683.769	6.1
684.093	6.05
684.416	5.99
684.739	5.45
685.062	4.84
685.386	5.32
685.709	5.77
686.032	5.56
686.355	6.51
686.678	5.57
687.001	5.5
687.324	5.62
687.646	5.59
687.969	6.3
688.292	5.54
688.614	5.6
688.937	5.14
689.26	5.54
689.582	5.55
689.904	5.32
690.227	5.97
690.549	5.83
690.871	5.7
691.194	5.9
691.516	5.97
691.838	6.75
692.16	5.4
692.482	5.62
692.804	6.06
693.126	6.02
