Data from 0072_crown_Reflection__1__260.txt Node

Date: Fri Dec 16 15:57:47 CST 2022
User: ToomeyLab
Spectrometer: FLMS14357
Trigger mode: 0
Integration Time (sec): 1.000000E-2
Scans to average: 100
Electric dark correction enabled: true
Nonlinearity correction enabled: false
Boxcar width: 0
XAxis mode: Wavelengths
Number of Pixels in Spectrum: 2048
>>>>>Begin Spectral Data<<<<<
189.047	153
189.435	153
189.823	153
190.211	-48.55
190.599	-413.23
190.987	59.91
191.375	-878.3
191.763	23.59
192.151	71.75
192.538	-29.44
192.926	-44509.09
193.314	365.46
193.702	155.37
194.089	1312.41
194.477	100.7
194.864	136.33
195.252	1750.43
195.639	103.33
196.027	-52.32
196.414	1030.04
196.801	23.62
197.189	198.56
197.576	-6.7
197.963	-100.63
198.351	46.01
198.738	-25.53
199.125	32.12
199.512	1.77
199.899	-41.08
200.286	-35.02
200.673	32.38
201.06	37.97
201.447	30.45
201.833	-8.41
202.22	3.42
202.607	21.53
202.994	-6.95
203.38	-22.36
203.767	-57.72
204.154	-68.9
204.54	27.52
204.927	-22.5
205.313	2.96
205.699	-2.41
206.086	-57.37
206.472	-31.08
206.858	8
207.245	13.92
207.631	-38.83
208.017	32.53
208.403	2.56
208.789	0.47
209.175	29.36
209.561	4.78
209.947	-26.11
210.333	-16.73
210.719	10.19
211.105	-42.64
211.491	2.44
211.876	8.05
212.262	-25.56
212.648	-35.28
213.034	-31.77
213.419	11.67
213.805	-7.31
214.19	-29.26
214.576	-9.63
214.961	-27.32
215.346	-46.41
215.732	-0.92
216.117	5.12
216.502	-3.1
216.888	-46.83
217.273	10.14
217.658	-7.52
218.043	-10.3
218.428	-0.63
218.813	6.93
219.198	-50.12
219.583	14.28
219.968	-23.61
220.353	-6.15
220.738	-3
221.122	3.06
221.507	-17.01
221.892	-10.92
222.276	2.76
222.661	-14.38
223.046	7.83
223.43	-13.9
223.815	16.89
224.199	10.53
224.583	2.32
224.968	10.19
225.352	-6.11
225.736	-0.41
226.121	-2.56
226.505	-5.09
226.889	8.5
227.273	10.29
227.657	0.97
228.041	7.87
228.425	9.84
228.809	7.74
229.193	5.79
229.577	6.29
229.961	8.12
230.344	7.26
230.728	7.14
231.112	6.25
231.495	6.56
231.879	7.1
232.263	4.17
232.646	5.51
233.03	4.07
233.413	6.46
233.797	8.92
234.18	6.6
234.563	5.43
234.946	7.52
235.33	6.84
235.713	7.11
236.096	5.54
236.479	5.7
236.862	7.96
237.245	7.37
237.628	7.05
238.011	5.47
238.394	6.8
238.777	6.26
239.16	5.65
239.543	6.17
239.925	6.62
240.308	6.31
240.691	5.5
241.073	6.3
241.456	6.25
241.838	5.12
242.221	6.43
242.603	6.95
242.986	7.34
243.368	6.26
243.75	5.88
244.133	6.29
244.515	6.53
244.897	5.91
245.279	5.62
245.661	5.94
246.043	6.1
246.425	5.96
246.807	6.52
247.189	5.72
247.571	6.34
247.953	6.36
248.335	6.19
248.717	6.23
249.098	6.38
249.48	5.8
249.862	6.15
250.243	5.74
250.625	6.32
251.006	5.99
251.388	6.73
251.769	6.39
252.151	5.69
252.532	5.88
252.913	6.4
253.295	6.01
253.676	6.46
254.057	5.76
254.438	5.46
254.819	6.49
255.2	5.28
255.581	4.59
255.962	4.6
256.343	6.9
256.724	4.83
257.105	5.67
257.486	5.28
257.867	4.42
258.247	5.69
258.628	6.14
259.009	5.82
259.389	5.86
259.77	5.43
260.15	6.45
260.531	5.62
260.911	5.67
261.292	5.68
261.672	5.62
262.052	5.46
262.432	5.35
262.813	5.86
263.193	5.29
263.573	4.93
263.953	5.71
264.333	5.32
264.713	5.54
265.093	5.42
265.473	6.26
265.853	5.44
266.233	4.75
266.612	5.45
266.992	4.5
267.372	5.43
267.752	4.94
268.131	5.52
268.511	5.53
268.89	5.79
269.27	5.14
269.649	6.03
270.029	5.38
270.408	5.36
270.787	5.49
271.167	5.29
271.546	4.74
271.925	5.22
272.304	5.92
272.683	5.15
273.062	5.35
273.441	5.6
273.82	5.41
274.199	5.71
274.578	5.18
274.957	5.7
275.336	5.02
275.715	5.37
276.093	5.66
276.472	5.64
276.851	5.21
277.229	5.94
277.608	5.08
277.986	5.29
278.365	5.25
278.743	5.34
279.122	4.83
279.5	4.93
279.878	4.64
280.257	4.46
280.635	4.45
281.013	5.44
281.391	4.72
281.769	4.88
282.147	5.05
282.525	5.14
282.903	5.23
283.281	5.34
283.659	5.29
284.037	5.39
284.415	5.04
284.792	5.21
285.17	4.65
285.548	4.55
285.925	4.94
286.303	4.75
286.68	5.29
287.058	5.12
287.435	4.84
287.813	5.02
288.19	5.69
288.567	5.16
288.945	5.34
289.322	5.14
289.699	5.07
290.076	5.25
290.453	4.65
290.83	5.43
291.207	4.79
291.584	4.42
291.961	5.23
292.338	4.88
292.715	4.92
293.092	4.83
293.469	5.31
293.845	5.14
294.222	5.07
294.599	5.16
294.975	4.8
295.352	4.52
295.728	4.86
296.105	4.65
296.481	5.16
296.858	4.98
297.234	4.81
297.61	5.11
297.986	5.08
298.363	4.76
298.739	5.08
299.115	4.59
299.491	5.06
299.867	5.13
300.243	4.61
300.619	4.79
300.995	5.2
301.371	5.26
301.746	4.45
302.122	5.02
302.498	4.97
302.874	4.96
303.249	5.04
303.625	4.91
304	4.89
304.376	4.84
304.751	4.73
305.127	5.06
305.502	5.04
305.878	4.78
306.253	4.71
306.628	4.94
307.003	5.02
307.378	4.72
307.754	4.94
308.129	4.43
308.504	4.8
308.879	4.76
309.254	5.01
309.629	4.49
310.003	5.01
310.378	5.25
310.753	4.9
311.128	4.69
311.502	4.72
311.877	4.95
312.252	4.33
312.626	4.68
313.001	4.87
313.375	4.77
313.75	4.7
314.124	5.07
314.498	4.66
314.873	4.67
315.247	4.12
315.621	5.04
315.995	5.09
316.369	4.51
316.743	5.17
317.117	4.16
317.491	4.71
317.865	4.14
318.239	5.14
318.613	5.08
318.987	4.73
319.361	4.56
319.734	5.06
320.108	4.25
320.482	4.39
320.855	4.92
321.229	4.97
321.602	4.71
321.976	4.32
322.349	3.45
322.723	4.42
323.096	4.28
323.469	4.38
323.843	4.86
324.216	4.73
324.589	4.88
324.962	4.52
325.335	5.36
325.708	4.65
326.081	4.57
326.454	5.09
326.827	4.85
327.2	5.3
327.573	4.77
327.945	4.59
328.318	4.48
328.691	4.71
329.063	4.48
329.436	4.74
329.809	4.2
330.181	4.83
330.553	5.09
330.926	4.97
331.298	4.59
331.671	4.48
332.043	4.45
332.415	5.59
332.787	5.15
333.159	4.83
333.532	4.65
333.904	4.96
334.276	5.25
334.648	4.91
335.02	5.2
335.391	5.04
335.763	4.79
336.135	5.12
336.507	5.12
336.879	4.77
337.25	4.53
337.622	5.11
337.993	4.87
338.365	5.07
338.736	4.89
339.108	4.39
339.479	5.11
339.851	5.11
340.222	5.03
340.593	4.57
340.964	4.85
341.336	4.67
341.707	4.54
342.078	4.94
342.449	4.9
342.82	5.02
343.191	4.47
343.562	4.67
343.933	4.57
344.303	4.84
344.674	5.03
345.045	4.81
345.416	4.8
345.786	4.68
346.157	4.94
346.527	4.91
346.898	4.54
347.268	4.62
347.639	4.93
348.009	5.08
348.38	4.95
348.75	4.62
349.12	4.68
349.49	4.49
349.861	5.08
350.231	5.05
350.601	4.58
350.971	4.43
351.341	5.19
351.711	5.24
352.081	4.96
352.45	4.69
352.82	4.63
353.19	4.86
353.56	4.66
353.929	5.08
354.299	4.66
354.669	5.18
355.038	4.82
355.408	5.1
355.777	4.89
356.147	5.05
356.516	4.97
356.885	4.77
357.254	5.34
357.624	5.04
357.993	4.92
358.362	4.78
358.731	4.83
359.1	5.09
359.469	4.89
359.838	4.7
360.207	5.18
360.576	5.04
360.945	4.93
361.314	5.29
361.682	4.77
362.051	4.81
362.42	5.06
362.788	5.07
363.157	4.88
363.525	4.86
363.894	4.81
364.262	4.93
364.631	5.36
364.999	4.56
365.367	5.13
365.735	4.74
366.104	4.9
366.472	5.07
366.84	4.99
367.208	4.76
367.576	5.1
367.944	5.24
368.312	4.75
368.68	5.34
369.048	5.23
369.416	4.77
369.783	4.97
370.151	5.43
370.519	5.09
370.886	4.83
371.254	4.88
371.621	4.88
371.989	5.24
372.356	5.03
372.724	4.78
373.091	5.03
373.458	5.1
373.826	5.18
374.193	5.07
374.56	5.09
374.927	5.02
375.294	5.21
375.661	5.4
376.028	5.14
376.395	4.95
376.762	5.23
377.129	5.16
377.496	5.1
377.863	4.98
378.229	5.17
378.596	5.07
378.963	5.05
379.329	4.89
379.696	5.03
380.062	5.32
380.429	4.97
380.795	4.7
381.161	4.98
381.528	4.87
381.894	5.38
382.26	4.98
382.626	5.01
382.993	4.94
383.359	5.15
383.725	5.52
384.091	5.18
384.457	5.42
384.823	5.2
385.188	5.27
385.554	5.14
385.92	5.6
386.286	5.33
386.651	4.81
387.017	5.19
387.383	5.09
387.748	5.18
388.114	5.27
388.479	5.24
388.845	5.18
389.21	5.34
389.575	5.13
389.94	5.43
390.306	5.01
390.671	5.26
391.036	5.45
391.401	5.38
391.766	5.2
392.131	5.52
392.496	5.38
392.861	5.28
393.226	5.3
393.591	5.43
393.956	5.61
394.32	5.47
394.685	5.39
395.05	5.2
395.414	5.22
395.779	5.04
396.143	5.24
396.508	5.31
396.872	5.42
397.236	4.99
397.601	5.45
397.965	5.06
398.329	5.44
398.694	5.28
399.058	5.4
399.422	5.53
399.786	5.33
400.15	5.36
400.514	5.34
400.878	5.4
401.242	5.45
401.605	5.35
401.969	5.53
402.333	5.05
402.697	5.69
403.06	5.5
403.424	5.27
403.787	5.64
404.151	5.38
404.514	5.45
404.878	5.45
405.241	5.47
405.604	5.36
405.968	5.48
406.331	5.44
406.694	5.43
407.057	5.75
407.42	5.46
407.783	5.32
408.146	5.4
408.509	5.37
408.872	5.31
409.235	5.63
409.598	5.74
409.961	5.47
410.323	5.61
410.686	5.36
411.049	5.28
411.411	5.4
411.774	5.36
412.136	5.48
412.499	5.39
412.861	5.14
413.223	5.53
413.586	5.47
413.948	5.44
414.31	5.63
414.672	5.32
415.035	5.48
415.397	5.45
415.759	5.53
416.121	5.5
416.483	5.59
416.845	5.65
417.206	5.72
417.568	5.52
417.93	5.38
418.292	5.39
418.653	5.58
419.015	5.59
419.377	5.61
419.738	5.35
420.1	5.47
420.461	5.41
420.822	5.53
421.184	5.47
421.545	5.43
421.906	5.53
422.267	5.33
422.629	5.47
422.99	5.48
423.351	5.39
423.712	5.45
424.073	5.51
424.434	5.4
424.795	5.39
425.155	5.5
425.516	5.42
425.877	5.54
426.238	5.5
426.598	5.49
426.959	5.38
427.32	5.45
427.68	5.55
428.041	5.57
428.401	5.49
428.761	5.64
429.122	5.38
429.482	5.35
429.842	5.7
430.202	5.61
430.563	5.52
430.923	5.43
431.283	5.7
431.643	5.66
432.003	5.6
432.363	5.6
432.722	5.59
433.082	5.61
433.442	5.75
433.802	5.66
434.161	5.56
434.521	5.58
434.881	5.67
435.24	5.59
435.6	5.54
435.959	5.61
436.319	5.56
436.678	5.6
437.037	5.75
437.396	5.64
437.756	5.54
438.115	5.61
438.474	5.71
438.833	5.6
439.192	5.7
439.551	5.66
439.91	5.64
440.269	5.86
440.628	5.61
440.987	5.6
441.345	5.67
441.704	5.64
442.063	5.56
442.421	5.65
442.78	5.61
443.138	5.65
443.497	5.51
443.855	5.58
444.214	5.76
444.572	5.7
444.93	5.85
445.288	5.82
445.647	5.77
446.005	5.58
446.363	5.71
446.721	5.57
447.079	5.71
447.437	5.65
447.795	5.53
448.153	5.69
448.51	5.63
448.868	5.75
449.226	5.72
449.584	5.66
449.941	5.62
450.299	5.61
450.656	5.62
451.014	5.58
451.371	5.78
451.729	5.81
452.086	5.52
452.443	5.69
452.801	5.97
453.158	5.78
453.515	5.6
453.872	5.84
454.229	5.75
454.586	5.75
454.943	5.82
455.3	5.98
455.657	5.79
456.014	5.96
456.371	5.88
456.727	5.77
457.084	5.77
457.441	5.84
457.797	5.8
458.154	5.9
458.51	5.75
458.867	5.55
459.223	5.66
459.58	5.75
459.936	5.66
460.292	5.78
460.648	5.7
461.005	5.74
461.361	5.73
461.717	5.7
462.073	5.69
462.429	5.69
462.785	5.69
463.141	5.84
463.496	5.78
463.852	6.02
464.208	5.95
464.564	5.84
464.919	5.74
465.275	5.92
465.631	5.93
465.986	5.94
466.342	5.88
466.697	5.87
467.052	5.92
467.408	5.67
467.763	5.74
468.118	5.79
468.473	6.01
468.829	5.92
469.184	6.01
469.539	5.78
469.894	5.87
470.249	5.94
470.603	5.79
470.958	6.12
471.313	5.83
471.668	6.02
472.023	5.91
472.377	5.86
472.732	5.83
473.086	5.73
473.441	5.96
473.795	5.93
474.15	5.81
474.504	5.91
474.859	5.9
475.213	5.8
475.567	5.89
475.921	5.91
476.275	5.92
476.63	5.69
476.984	5.87
477.338	6.18
477.692	5.88
478.045	5.92
478.399	5.97
478.753	5.87
479.107	5.88
479.461	5.99
479.814	5.88
480.168	5.94
480.521	5.94
480.875	5.97
481.228	5.91
481.582	5.82
481.935	5.88
482.289	5.92
482.642	5.93
482.995	5.92
483.348	5.87
483.701	5.87
484.055	5.77
484.408	5.81
484.761	5.68
485.114	5.66
485.466	5.65
485.819	5.59
486.172	5.61
486.525	5.67
486.878	5.7
487.23	5.7
487.583	5.82
487.936	5.86
488.288	5.85
488.641	5.75
488.993	5.67
489.345	5.69
489.698	5.71
490.05	5.67
490.402	5.79
490.754	5.83
491.107	5.8
491.459	5.8
491.811	5.94
492.163	5.99
492.515	5.88
492.866	5.67
493.218	5.74
493.57	5.77
493.922	5.82
494.274	5.76
494.625	5.81
494.977	5.86
495.328	5.98
495.68	6.1
496.031	6.09
496.383	5.9
496.734	6.1
497.086	5.96
497.437	5.99
497.788	5.9
498.139	6.05
498.49	6
498.842	5.96
499.193	5.99
499.544	6.08
499.894	5.98
500.245	5.99
500.596	5.96
500.947	5.92
501.298	5.96
501.648	5.99
501.999	6.06
502.35	5.97
502.7	6.06
503.051	6.08
503.401	6.07
503.752	5.9
504.102	6.06
504.452	5.95
504.803	5.87
505.153	6.06
505.503	6.03
505.853	6.06
506.203	6.01
506.553	6.04
506.903	6.06
507.253	6.13
507.603	6.07
507.953	6.19
508.303	6.09
508.652	6.1
509.002	6.12
509.352	6.06
509.701	6
510.051	6.13
510.4	6.03
510.75	6.01
511.099	6
511.449	6.01
511.798	6.17
512.147	5.99
512.496	6.1
512.846	5.97
513.195	6.04
513.544	5.99
513.893	6.01
514.242	6.09
514.591	6.15
514.939	5.98
515.288	6.14
515.637	6.18
515.986	6.11
516.334	6.11
516.683	6.14
517.032	6.06
517.38	6.08
517.729	6.14
518.077	6.21
518.426	6.11
518.774	6.12
519.122	6.07
519.47	6.05
519.819	6.03
520.167	6.05
520.515	6.12
520.863	6
521.211	5.94
521.559	6.02
521.907	6.1
522.255	6.09
522.602	6.16
522.95	6.14
523.298	6.15
523.645	6.05
523.993	6.15
524.341	6.18
524.688	6.17
525.036	6.21
525.383	6.19
525.73	6.22
526.078	6.19
526.425	6.15
526.772	5.94
527.119	6.09
527.466	6.1
527.814	6.07
528.161	6.15
528.508	6.12
528.854	6
529.201	5.94
529.548	5.94
529.895	5.92
530.242	5.88
530.588	5.88
530.935	5.88
531.282	5.89
531.628	5.93
531.975	5.96
532.321	6.01
532.667	6.04
533.014	6.08
533.36	6.05
533.706	6.04
534.052	5.99
534.399	6.02
534.745	5.96
535.091	6.01
535.437	6.04
535.783	5.98
536.129	6
536.474	6.12
536.82	6.12
537.166	6.11
537.512	6.15
537.857	6.11
538.203	6.1
538.549	6.18
538.894	5.97
539.239	6.2
539.585	6.09
539.93	6.16
540.276	6.09
540.621	6.08
540.966	6.2
541.311	6.18
541.656	6.07
542.001	6.26
542.346	6.16
542.691	5.96
543.036	6.01
543.381	5.94
543.726	6
544.071	6.01
544.415	6.03
544.76	5.95
545.105	6.05
545.449	6.12
545.794	6.05
546.138	6.26
546.483	6.15
546.827	6.15
547.171	6.14
547.516	6.14
547.86	6.1
548.204	6.05
548.548	6.2
548.892	6.17
549.236	6.27
549.58	6.05
549.924	6.25
550.268	6.35
550.612	6.19
550.956	6.21
551.3	6.15
551.643	6.3
551.987	6.18
552.33	6.22
552.674	6.33
553.017	6.25
553.361	6.16
553.704	6.01
554.048	6.4
554.391	6.18
554.734	6.27
555.077	6.25
555.42	6.16
555.764	6.29
556.107	6.25
556.45	6.32
556.793	6.38
557.135	6.48
557.478	6.35
557.821	6.25
558.164	6.25
558.507	6.12
558.849	6.09
559.192	6.37
559.534	6.19
559.877	6.47
560.219	6.61
560.562	6.36
560.904	6.26
561.246	6.41
561.589	6.33
561.931	6.46
562.273	6.19
562.615	6.33
562.957	6.54
563.299	6.43
563.641	6.32
563.983	6.39
564.325	5.99
564.667	6.47
565.008	6.27
565.35	6.42
565.692	6.55
566.033	6.47
566.375	6.23
566.716	6.4
567.058	6.44
567.399	6.34
567.741	6.42
568.082	6.34
568.423	6.22
568.764	6.29
569.105	6.39
569.447	6.35
569.788	6.3
570.129	6.19
570.47	6.34
570.811	6.47
571.151	6.26
571.492	6.5
571.833	6.31
572.174	6.48
572.514	6.24
572.855	6.32
573.195	6.34
573.536	6.28
573.876	6.43
574.217	6.41
574.557	6.37
574.898	6.25
575.238	6.25
575.578	6.57
575.918	6.39
576.258	6.38
576.598	6.33
576.938	6.45
577.278	6.39
577.618	6.2
577.958	6.38
578.298	6.51
578.638	6.21
578.977	6.48
579.317	6.46
579.657	6.33
579.996	6.44
580.336	6.11
580.675	6.41
581.014	6.37
581.354	6.48
581.693	6.47
582.032	6.33
582.372	6.44
582.711	6.48
583.05	6.44
583.389	6.3
583.728	6.5
584.067	6.42
584.406	6.52
584.745	6.41
585.083	6.51
585.422	6.44
585.761	6.62
586.1	6.57
586.438	6.46
586.777	6.26
587.115	6.64
587.454	6.55
587.792	6.3
588.13	6.49
588.469	6.47
588.807	6.56
589.145	6.71
589.483	6.27
589.821	6.43
590.159	6.29
590.497	6.37
590.835	6.55
591.173	6.63
591.511	6.61
591.849	6.57
592.187	6.49
592.524	6.33
592.862	6.45
593.2	6.47
593.537	6.41
593.875	6.41
594.212	6.6
594.55	6.39
594.887	6.62
595.224	6.6
595.561	6.5
595.899	6.5
596.236	6.5
596.573	6.27
596.91	6.54
597.247	6.41
597.584	6.58
597.921	6.42
598.258	6.53
598.594	6.32
598.931	6.39
599.268	6.27
599.604	6.7
599.941	6.56
600.277	6.66
600.614	6.41
600.95	6.77
601.287	6.62
601.623	6.61
601.959	6.23
602.296	6.7
602.632	6.61
602.968	6.58
603.304	6.41
603.64	6.57
603.976	6.67
604.312	6.67
604.648	6.61
604.984	6.61
605.319	6.48
605.655	6.75
605.991	6.66
606.326	6.47
606.662	6.45
606.998	6.65
607.333	6.42
607.668	6.56
608.004	6.5
608.339	6.39
608.674	6.7
609.01	6.81
609.345	7.05
609.68	6.39
610.015	6.5
610.35	6.42
610.685	6.77
611.02	6.84
611.355	6.73
611.689	6.27
612.024	6.66
612.359	6.49
612.694	6.84
613.028	6.82
613.363	6.69
613.697	6.76
614.032	6.5
614.366	6.7
614.7	7.05
615.035	6.58
615.369	6.67
615.703	7.03
616.037	6.6
616.371	6.64
616.705	6.68
617.039	6.88
617.373	6.76
617.707	6.99
618.041	6.85
618.375	6.58
618.709	6.88
619.042	6.49
619.376	6.54
619.71	6.82
620.043	6.54
620.377	6.76
620.71	6.52
621.043	6.62
621.377	6.96
621.71	6.8
622.043	6.89
622.376	6.64
622.709	6.73
623.043	6.59
623.376	6.8
623.709	6.94
624.041	6.88
624.374	6.6
624.707	6.65
625.04	7.46
625.373	6.82
625.705	6.85
626.038	6.77
626.37	7.02
626.703	6.63
627.035	6.45
627.368	6.69
627.7	6.92
628.032	6.67
628.365	6.71
628.697	6.83
629.029	6.84
629.361	6.43
629.693	6.98
630.025	6.81
630.357	6.55
630.689	7.06
631.021	6.92
631.353	7.06
631.684	6.72
632.016	6.69
632.348	6.8
632.679	6.75
633.011	6.87
633.342	6.89
633.674	7
634.005	6.82
634.336	6.77
634.668	6.96
634.999	6.92
635.33	7.14
635.661	7.16
635.992	6.61
636.323	6.84
636.654	6.76
636.985	6.72
637.316	6.95
637.647	6.87
637.977	6.66
638.308	6.94
638.639	6.7
638.969	6.9
639.3	7.12
639.63	6.76
639.961	7.01
640.291	7.41
640.622	7
640.952	6.94
641.282	6.59
641.612	6.98
641.943	6.93
642.273	7.1
642.603	7.07
642.933	7.09
643.263	7.24
643.592	6.95
643.922	7.43
644.252	6.78
644.582	6.57
644.911	7.09
645.241	6.8
645.571	7.02
645.9	7.22
646.23	6.86
646.559	6.92
646.888	7.18
647.218	7
647.547	7.19
647.876	6.97
648.205	6.79
648.534	6.96
648.863	7.14
649.192	6.55
649.521	7.17
649.85	7.55
650.179	6.78
650.508	6.84
650.837	7
651.165	7.28
651.494	6.95
651.822	6.99
652.151	7.64
652.479	7.76
652.808	6.84
653.136	6.98
653.465	7.14
653.793	7.15
654.121	7.42
654.449	7.09
654.777	6.73
655.105	7.36
655.433	7.35
655.761	6.86
656.089	7.08
656.417	7.02
656.745	7.85
657.073	7.5
657.4	7.07
657.728	7.22
658.056	7.42
658.383	7.43
658.711	7.05
659.038	7.78
659.365	7.1
659.693	7.15
660.02	6.83
660.347	7.19
660.674	7.18
661.001	6.73
661.329	7.33
661.656	7.25
661.982	7.66
662.309	7.68
662.636	7.1
662.963	7.37
663.29	6.88
663.616	7.34
663.943	7.36
664.27	7.4
664.596	7.33
664.923	7.43
665.249	7.27
665.576	7.06
665.902	6.99
666.228	7.28
666.554	6.55
666.881	7.31
667.207	6.77
667.533	6.98
667.859	7.43
668.185	7.57
668.511	6.72
668.837	7.11
669.162	6.93
669.488	7.51
669.814	7.85
670.139	8.19
670.465	7.61
670.791	7.34
671.116	6.68
671.442	7.59
671.767	7.69
672.092	7.42
672.418	7.4
672.743	7.31
673.068	6.95
673.393	7.53
673.718	7.59
674.043	7.11
674.368	7.88
674.693	7.92
675.018	7.61
675.343	7.86
675.667	7.38
675.992	7.62
676.317	7.75
676.641	7.33
676.966	7.77
677.29	7.05
677.615	7.37
677.939	7.31
678.264	7.51
678.588	8.13
678.912	7.12
679.236	8.02
679.56	7.09
679.885	7.59
680.209	7.25
680.532	7.26
680.856	7.72
681.18	7.29
681.504	6.84
681.828	6.88
682.152	7.57
682.475	7.62
682.799	8.05
683.122	7.4
683.446	7.16
683.769	7.51
684.093	7.27
684.416	7.49
684.739	8.02
685.062	7.63
685.386	7.74
685.709	6.93
686.032	7.45
686.355	7.38
686.678	6.92
687.001	7.4
687.324	7.27
687.646	6.76
687.969	7.88
688.292	7.59
688.614	8.01
688.937	7.37
689.26	7.43
689.582	7.04
689.904	7.6
690.227	7.73
690.549	7.65
690.871	7.41
691.194	7.7
691.516	7.09
691.838	7.81
692.16	7.73
692.482	7.61
