Data from 0072_chest_Reflection__0__254.txt Node

Date: Fri Dec 16 15:56:06 CST 2022
User: ToomeyLab
Spectrometer: FLMS14357
Trigger mode: 0
Integration Time (sec): 1.000000E-2
Scans to average: 100
Electric dark correction enabled: true
Nonlinearity correction enabled: false
Boxcar width: 0
XAxis mode: Wavelengths
Number of Pixels in Spectrum: 2048
>>>>>Begin Spectral Data<<<<<
189.047	6.85
189.435	6.85
189.823	6.85
190.211	-42.75
190.599	-316.54
190.987	-53.6
191.375	-1937.87
191.763	284.08
192.151	-9.81
192.538	137.65
192.926	-3145.45
193.314	302.2
193.702	-407.84
194.089	763.04
194.477	-54.92
194.864	-107.01
195.252	528.21
195.639	134.04
196.027	-0.15
196.414	-104.43
196.801	-105.83
197.189	199.57
197.576	-118.32
197.963	-106.52
198.351	32.85
198.738	-3.48
199.125	-13.01
199.512	5.86
199.899	-48.96
200.286	-28.45
200.673	9.72
201.06	34.93
201.447	14.94
201.833	24.76
202.22	16.17
202.607	-23.43
202.994	22.61
203.38	-41.68
203.767	-43.31
204.154	0.51
204.54	4.69
204.927	1.59
205.313	18.36
205.699	1.22
206.086	-16.35
206.472	-11.33
206.858	-21.98
207.245	14.7
207.631	-44.64
208.017	33.11
208.403	29.67
208.789	-21.26
209.175	22.62
209.561	-18.5
209.947	-4.02
210.333	-41.73
210.719	1.79
211.105	-33.48
211.491	-4.69
211.876	-5.3
212.262	-29.69
212.648	-34.65
213.034	-29.76
213.419	-13.54
213.805	-11.78
214.19	3
214.576	-26.27
214.961	-45.49
215.346	-62.39
215.732	-3.6
216.117	-8.83
216.502	-27.47
216.888	-37.31
217.273	-9.4
217.658	-11.91
218.043	1.87
218.428	-12.57
218.813	-14.77
219.198	-19.51
219.583	-13.7
219.968	-2.71
220.353	-5.71
220.738	-10.35
221.122	-0.21
221.507	-18.78
221.892	5.97
222.276	0.03
222.661	0.74
223.046	-4.69
223.43	-10.11
223.815	7.77
224.199	-2.44
224.583	-3.01
224.968	5.32
225.352	-3.13
225.736	6
226.121	1.3
226.505	3.65
226.889	11.01
227.273	2.95
227.657	3.24
228.041	3.76
228.425	5.22
228.809	7.16
229.193	0.5
229.577	4.89
229.961	3.69
230.344	4.98
230.728	3.77
231.112	4.55
231.495	2.42
231.879	3.7
232.263	4.17
232.646	3.98
233.03	1.84
233.413	3.48
233.797	4.45
234.18	2.39
234.563	1.27
234.946	4
235.33	3.62
235.713	4.24
236.096	3.06
236.479	4.3
236.862	3.6
237.245	5
237.628	3.71
238.011	5.09
238.394	6.89
238.777	4.58
239.16	1.44
239.543	2.27
239.925	3.96
240.308	5
240.691	2.83
241.073	2.56
241.456	4.33
241.838	4.11
242.221	5.37
242.603	4.32
242.986	4.98
243.368	4.43
243.75	4.29
244.133	4.59
244.515	4.54
244.897	4.41
245.279	3.9
245.661	4.2
246.043	4.59
246.425	3.09
246.807	4.39
247.189	3.69
247.571	4.25
247.953	4.49
248.335	4.34
248.717	4.26
249.098	4.47
249.48	3.83
249.862	3.91
250.243	4.19
250.625	3.88
251.006	4.19
251.388	4.3
251.769	4
252.151	4.5
252.532	3.75
252.913	4.24
253.295	4.31
253.676	4.34
254.057	3.7
254.438	3.82
254.819	4.18
255.2	3.57
255.581	3.68
255.962	4.08
256.343	4.55
256.724	4.02
257.105	4.31
257.486	3.51
257.867	2.75
258.247	4.1
258.628	4.77
259.009	4.25
259.389	4.61
259.77	4.13
260.15	4.68
260.531	4.03
260.911	4.06
261.292	3.96
261.672	4.18
262.052	4.13
262.432	4.06
262.813	4.17
263.193	3.79
263.573	3.68
263.953	3.65
264.333	4.28
264.713	4.16
265.093	3.25
265.473	5.13
265.853	4.17
266.233	4.38
266.612	3.66
266.992	3.5
267.372	3.57
267.752	3.75
268.131	3.5
268.511	4.09
268.89	4.47
269.27	4.42
269.649	4.19
270.029	4.1
270.408	3.75
270.787	3.18
271.167	3.87
271.546	3.64
271.925	3.78
272.304	3.93
272.683	4.03
273.062	4.3
273.441	4.5
273.82	4.04
274.199	4.02
274.578	4.01
274.957	4.12
275.336	3.92
275.715	4.23
276.093	4.45
276.472	3.7
276.851	4.33
277.229	4.9
277.608	3.49
277.986	4.03
278.365	3.42
278.743	4.09
279.122	3.38
279.5	3.68
279.878	3.32
280.257	4.01
280.635	3.24
281.013	4.34
281.391	4.21
281.769	3.79
282.147	3.98
282.525	3.31
282.903	3.98
283.281	3.73
283.659	3.8
284.037	3.77
284.415	3.69
284.792	4.08
285.17	3.79
285.548	3.68
285.925	3.74
286.303	3.96
286.68	3.66
287.058	3.96
287.435	3.64
287.813	3.76
288.19	4.4
288.567	3.69
288.945	3.47
289.322	3.67
289.699	3.99
290.076	4.13
290.453	3.66
290.83	3.94
291.207	3.84
291.584	3.51
291.961	3.97
292.338	3.65
292.715	3.97
293.092	3.73
293.469	4.23
293.845	3.6
294.222	4
294.599	4.17
294.975	3.76
295.352	3.74
295.728	3.95
296.105	3.73
296.481	4.23
296.858	4.04
297.234	3.75
297.61	3.86
297.986	4.12
298.363	3.53
298.739	4.02
299.115	3.84
299.491	3.62
299.867	4.1
300.243	3.8
300.619	3.82
300.995	4.03
301.371	4.18
301.746	4.15
302.122	4.06
302.498	4.03
302.874	4.06
303.249	4.21
303.625	4.11
304	3.64
304.376	4.17
304.751	4.01
305.127	3.87
305.502	4.11
305.878	3.65
306.253	3.78
306.628	4.36
307.003	4.45
307.378	3.86
307.754	4.08
308.129	3.64
308.504	3.6
308.879	4.14
309.254	4.12
309.629	3.94
310.003	4.54
310.378	4.11
310.753	4.16
311.128	3.71
311.502	3.71
311.877	3.94
312.252	3.82
312.626	3.83
313.001	4
313.375	3.84
313.75	3.93
314.124	4.23
314.498	3.81
314.873	4.08
315.247	4.07
315.621	4.48
315.995	3.73
316.369	3.78
316.743	4.55
317.117	4.07
317.491	4.16
317.865	3.94
318.239	4.5
318.613	3.51
318.987	3.93
319.361	3.55
319.734	3.9
320.108	4.01
320.482	4.08
320.855	3.96
321.229	4.54
321.602	4.25
321.976	3.64
322.349	3.62
322.723	3.2
323.096	3.68
323.469	3.57
323.843	4.04
324.216	3.5
324.589	4.52
324.962	3.88
325.335	3.88
325.708	4.66
326.081	3.98
326.454	4.03
326.827	4.51
327.2	4.38
327.573	4.09
327.945	3.92
328.318	3.7
328.691	4.39
329.063	4.45
329.436	3.75
329.809	3.73
330.181	4.14
330.553	4.26
330.926	4.08
331.298	3.53
331.671	3.64
332.043	3.87
332.415	4.16
332.787	4.41
333.159	4.29
333.532	4.18
333.904	3.95
334.276	3.91
334.648	3.83
335.02	3.91
335.391	3.84
335.763	3.26
336.135	4.26
336.507	4.07
336.879	4.09
337.25	4.43
337.622	4.07
337.993	4.67
338.365	4.34
338.736	4.08
339.108	4.05
339.479	4.08
339.851	4.32
340.222	4.23
340.593	3.84
340.964	3.97
341.336	3.64
341.707	3.96
342.078	3.77
342.449	4.29
342.82	4.03
343.191	3.96
343.562	4.11
343.933	3.82
344.303	4.31
344.674	3.86
345.045	4.63
345.416	4.06
345.786	3.85
346.157	3.97
346.527	3.82
346.898	3.99
347.268	4.04
347.639	4.04
348.009	4.08
348.38	4.04
348.75	4.19
349.12	3.92
349.49	3.96
349.861	4.41
350.231	4.42
350.601	4.29
350.971	3.8
351.341	4.32
351.711	4.22
352.081	4.42
352.45	4.38
352.82	4.67
353.19	4.26
353.56	4.4
353.929	4.28
354.299	3.89
354.669	4.14
355.038	4.01
355.408	4.28
355.777	4.18
356.147	4.5
356.516	4.67
356.885	4.27
357.254	4.16
357.624	4.46
357.993	4.17
358.362	4.11
358.731	4.29
359.1	4.36
359.469	4.27
359.838	4.17
360.207	4.15
360.576	4.1
360.945	4.31
361.314	4.26
361.682	4.16
362.051	4.26
362.42	4.81
362.788	4.32
363.157	4.19
363.525	4.07
363.894	4.01
364.262	3.92
364.631	4.91
364.999	3.94
365.367	4.71
365.735	4.12
366.104	3.93
366.472	4.31
366.84	4.47
367.208	4
367.576	4.17
367.944	4.47
368.312	4.13
368.68	4.29
369.048	4.49
369.416	4.31
369.783	4.12
370.151	4.43
370.519	4.19
370.886	4.32
371.254	4.56
371.621	4.81
371.989	4.52
372.356	4.51
372.724	4.39
373.091	4.56
373.458	4.29
373.826	3.88
374.193	4.61
374.56	4.14
374.927	4.04
375.294	4.5
375.661	4.48
376.028	4.54
376.395	4.17
376.762	4.69
377.129	4.52
377.496	4.31
377.863	4.36
378.229	4.52
378.596	4.22
378.963	4.41
379.329	4.28
379.696	4.35
380.062	4.85
380.429	4.42
380.795	4.22
381.161	4.32
381.528	3.89
381.894	4.5
382.26	4.51
382.626	4.42
382.993	4.06
383.359	4.11
383.725	4.52
384.091	4.34
384.457	4.4
384.823	4.4
385.188	4.81
385.554	4.6
385.92	4.63
386.286	4.59
386.651	4.21
387.017	4.62
387.383	4.39
387.748	4.29
388.114	4.53
388.479	4.52
388.845	4.56
389.21	4.23
389.575	4.42
389.94	4.41
390.306	4.45
390.671	4.57
391.036	4.53
391.401	4.68
391.766	4.43
392.131	4.31
392.496	4.41
392.861	4.41
393.226	4.46
393.591	4.54
393.956	4.58
394.32	4.52
394.685	4.4
395.05	4.5
395.414	4.55
395.779	4.54
396.143	4.62
396.508	4.62
396.872	4.66
397.236	4.11
397.601	4.76
397.965	4.12
398.329	4.62
398.694	4.59
399.058	4.53
399.422	4.75
399.786	4.46
400.15	4.6
400.514	4.68
400.878	4.45
401.242	4.75
401.605	4.64
401.969	4.42
402.333	4.48
402.697	4.64
403.06	4.57
403.424	4.47
403.787	4.76
404.151	4.4
404.514	4.74
404.878	4.57
405.241	4.55
405.604	4.49
405.968	4.54
406.331	4.69
406.694	4.54
407.057	5.01
407.42	4.55
407.783	4.62
408.146	4.55
408.509	4.4
408.872	4.47
409.235	4.92
409.598	4.66
409.961	4.49
410.323	4.58
410.686	4.51
411.049	4.5
411.411	4.53
411.774	4.51
412.136	4.72
412.499	4.54
412.861	4.26
413.223	4.65
413.586	4.48
413.948	4.61
414.31	4.89
414.672	4.67
415.035	4.76
415.397	4.75
415.759	4.67
416.121	4.62
416.483	4.99
416.845	4.72
417.206	4.77
417.568	4.7
417.93	4.59
418.292	4.69
418.653	4.68
419.015	4.74
419.377	4.77
419.738	4.55
420.1	4.67
420.461	4.57
420.822	4.7
421.184	4.71
421.545	4.67
421.906	4.69
422.267	4.47
422.629	4.56
422.99	4.53
423.351	4.75
423.712	4.6
424.073	4.72
424.434	4.61
424.795	4.56
425.155	4.52
425.516	4.56
425.877	4.58
426.238	4.57
426.598	4.7
426.959	4.61
427.32	4.72
427.68	4.73
428.041	4.67
428.401	4.79
428.761	4.68
429.122	4.56
429.482	4.74
429.842	4.73
430.202	4.59
430.563	4.77
430.923	4.69
431.283	4.82
431.643	4.93
432.003	4.69
432.363	4.9
432.722	4.86
433.082	4.74
433.442	4.94
433.802	4.83
434.161	4.74
434.521	4.81
434.881	4.91
435.24	4.79
435.6	4.75
435.959	4.66
436.319	4.72
436.678	4.81
437.037	4.78
437.396	4.78
437.756	4.88
438.115	4.75
438.474	4.86
438.833	5.02
439.192	4.91
439.551	4.79
439.91	4.91
440.269	5
440.628	4.86
440.987	4.76
441.345	4.83
441.704	4.76
442.063	4.68
442.421	4.82
442.78	4.88
443.138	4.78
443.497	4.8
443.855	4.8
444.214	4.89
444.572	4.83
444.93	4.99
445.288	4.99
445.647	4.96
446.005	4.72
446.363	4.94
446.721	4.73
447.079	4.78
447.437	4.76
447.795	4.87
448.153	4.78
448.51	4.78
448.868	4.91
449.226	4.93
449.584	4.77
449.941	4.88
450.299	4.89
450.656	4.97
451.014	4.9
451.371	5.04
451.729	4.98
452.086	4.99
452.443	4.99
452.801	5.1
453.158	4.89
453.515	4.87
453.872	5.09
454.229	4.83
454.586	4.9
454.943	4.85
455.3	5
455.657	4.98
456.014	4.98
456.371	4.98
456.727	4.96
457.084	4.95
457.441	5.04
457.797	5.07
458.154	4.99
458.51	5.05
458.867	4.8
459.223	5.02
459.58	4.96
459.936	4.86
460.292	5.01
460.648	4.9
461.005	4.89
461.361	4.9
461.717	5
462.073	4.96
462.429	5
462.785	5.08
463.141	5.13
463.496	5.05
463.852	5.19
464.208	5.22
464.564	5.14
464.919	4.96
465.275	5.07
465.631	5.16
465.986	5.05
466.342	5.18
466.697	5.13
467.052	5.15
467.408	5
467.763	5.01
468.118	5.11
468.473	5.24
468.829	5.19
469.184	5.25
469.539	5.09
469.894	5.16
470.249	5.2
470.603	5.12
470.958	5.21
471.313	5.16
471.668	5.14
472.023	5.32
472.377	5.07
472.732	5.2
473.086	5.14
473.441	5.28
473.795	5.4
474.15	5.23
474.504	5.24
474.859	5.1
475.213	5.12
475.567	5.15
475.921	5.24
476.275	5.2
476.63	5.12
476.984	5.16
477.338	5.37
477.692	5.24
478.045	5.18
478.399	5.28
478.753	5.14
479.107	5.19
479.461	5.22
479.814	5.17
480.168	5.25
480.521	5.07
480.875	5.34
481.228	5.22
481.582	5.14
481.935	5.24
482.289	5.14
482.642	5.2
482.995	5.16
483.348	5.17
483.701	5.23
484.055	5.09
484.408	5.13
484.761	4.94
485.114	4.87
485.466	4.93
485.819	4.92
486.172	4.97
486.525	5.05
486.878	5.09
487.23	5.18
487.583	5.17
487.936	5.16
488.288	5.05
488.641	5.07
488.993	4.97
489.345	5.01
489.698	5.1
490.05	5.09
490.402	5.17
490.754	5.28
491.107	5.2
491.459	5.32
491.811	5.43
492.163	5.27
492.515	5.2
492.866	5.04
493.218	5.09
493.57	5.14
493.922	5.19
494.274	5.19
494.625	5.35
494.977	5.31
495.328	5.36
495.68	5.55
496.031	5.54
496.383	5.39
496.734	5.43
497.086	5.41
497.437	5.55
497.788	5.38
498.139	5.47
498.49	5.43
498.842	5.44
499.193	5.44
499.544	5.57
499.894	5.37
500.245	5.45
500.596	5.52
500.947	5.46
501.298	5.46
501.648	5.56
501.999	5.61
502.35	5.56
502.7	5.65
503.051	5.73
503.401	5.58
503.752	5.47
504.102	5.51
504.452	5.74
504.803	5.49
505.153	5.7
505.503	5.55
505.853	5.54
506.203	5.6
506.553	5.53
506.903	5.54
507.253	5.65
507.603	5.53
507.953	5.72
508.303	5.65
508.652	5.62
509.002	5.73
509.352	5.63
509.701	5.67
510.051	5.77
510.4	5.58
510.75	5.7
511.099	5.74
511.449	5.64
511.798	5.73
512.147	5.57
512.496	5.66
512.846	5.66
513.195	5.71
513.544	5.73
513.893	5.58
514.242	5.79
514.591	5.78
514.939	5.7
515.288	5.77
515.637	5.85
515.986	5.67
516.334	5.93
516.683	5.78
517.032	5.68
517.38	5.93
517.729	5.8
518.077	5.78
518.426	5.73
518.774	5.81
519.122	5.76
519.47	5.74
519.819	5.68
520.167	5.75
520.515	5.73
520.863	5.73
521.211	5.75
521.559	5.75
521.907	5.77
522.255	5.86
522.602	5.84
522.95	5.88
523.298	5.8
523.645	5.84
523.993	6
524.341	5.83
524.688	5.83
525.036	6.05
525.383	6.02
525.73	5.92
526.078	5.9
526.425	5.92
526.772	5.77
527.119	5.8
527.466	5.84
527.814	5.89
528.161	5.94
528.508	5.88
528.854	5.79
529.201	5.85
529.548	5.78
529.895	5.67
530.242	5.69
530.588	5.73
530.935	5.79
531.282	5.86
531.628	5.87
531.975	5.94
532.321	6.04
532.667	6.04
533.014	6
533.36	6.03
533.706	6.09
534.052	6
534.399	5.89
534.745	5.85
535.091	5.95
535.437	5.99
535.783	6.23
536.129	6.07
536.474	6.17
536.82	6.2
537.166	6.22
537.512	6.23
537.857	6.12
538.203	6.19
538.549	6.26
538.894	6.22
539.239	6.33
539.585	6.34
539.93	6.36
540.276	6.25
540.621	6.3
540.966	6.31
541.311	6.42
541.656	6.36
542.001	6.37
542.346	6.18
542.691	6.14
543.036	6.1
543.381	6.23
543.726	6.29
544.071	6.24
544.415	6.27
544.76	6.32
545.105	6.4
545.449	6.36
545.794	6.4
546.138	6.59
546.483	6.41
546.827	6.59
547.171	6.44
547.516	6.52
547.86	6.54
548.204	6.54
548.548	6.63
548.892	6.5
549.236	6.66
549.58	6.69
549.924	6.69
550.268	6.79
550.612	6.75
550.956	6.7
551.3	6.72
551.643	6.78
551.987	6.84
552.33	6.81
552.674	7.03
553.017	7
553.361	6.82
553.704	6.84
554.048	6.88
554.391	6.89
554.734	6.92
555.077	6.75
555.42	6.98
555.764	7.1
556.107	7.12
556.45	6.94
556.793	7.07
557.135	7.26
557.478	7.18
557.821	7.08
558.164	7.06
558.507	7.03
558.849	7.09
559.192	7.3
559.534	7.11
559.877	7.25
560.219	7.16
560.562	7.48
560.904	7.09
561.246	7.24
561.589	7.26
561.931	7.51
562.273	7.34
562.615	7.47
562.957	7.35
563.299	7.32
563.641	7.52
563.983	7.55
564.325	7.13
564.667	7.49
565.008	7.41
565.35	7.62
565.692	7.64
566.033	7.51
566.375	7.29
566.716	7.53
567.058	7.53
567.399	7.58
567.741	7.6
568.082	7.45
568.423	7.56
568.764	7.64
569.105	7.6
569.447	7.53
569.788	7.57
570.129	7.73
570.47	7.83
570.811	7.86
571.151	7.98
571.492	7.87
571.833	7.75
572.174	7.66
572.514	7.72
572.855	7.96
573.195	7.86
573.536	7.79
573.876	7.81
574.217	7.88
574.557	7.95
574.898	7.79
575.238	7.86
575.578	7.98
575.918	7.74
576.258	8.1
576.598	8.06
576.938	8.3
577.278	8.16
577.618	8.07
577.958	8.21
578.298	8.34
578.638	8.1
578.977	8.23
579.317	8.28
579.657	8.2
579.996	8.19
580.336	8.35
580.675	8.38
581.014	8.33
581.354	8.55
581.693	8.38
582.032	8.29
582.372	8.49
582.711	8.42
583.05	8.78
583.389	8.42
583.728	8.61
584.067	8.48
584.406	8.51
584.745	8.65
585.083	9.05
585.422	8.73
585.761	8.66
586.1	8.95
586.438	8.73
586.777	8.67
587.115	8.78
587.454	8.57
587.792	8.97
588.13	9.04
588.469	8.63
588.807	9.05
589.145	9.09
589.483	8.86
589.821	9.03
590.159	9.19
590.497	9.02
590.835	9.12
591.173	9.26
591.511	9.25
591.849	9.22
592.187	9.27
592.524	9.01
592.862	9.25
593.2	9.24
593.537	9.21
593.875	9.37
594.212	9.13
594.55	9.3
594.887	9.45
595.224	9.38
595.561	9.25
595.899	9.39
596.236	9.5
596.573	9.33
596.91	9.59
597.247	9.32
597.584	9.69
597.921	9.66
598.258	9.5
598.594	9.36
598.931	9.53
599.268	9.55
599.604	9.67
599.941	9.78
600.277	9.82
600.614	9.85
600.95	9.92
601.287	9.82
601.623	9.89
601.959	9.82
602.296	10.26
602.632	10.05
602.968	9.86
603.304	10.05
603.64	10.02
603.976	9.97
604.312	10.23
604.648	10
604.984	9.93
605.319	10.03
605.655	10.08
605.991	10.12
606.326	10.08
606.662	10
606.998	10.19
607.333	10.05
607.668	10.21
608.004	10.09
608.339	10.62
608.674	10.39
609.01	10.58
609.345	10.68
609.68	10.21
610.015	10.63
610.35	10.38
610.685	10.51
611.02	10.49
611.355	10.65
611.689	10.42
612.024	10.77
612.359	10.8
612.694	10.8
613.028	10.96
613.363	10.6
613.697	10.61
614.032	10.86
614.366	10.55
614.7	11.22
615.035	10.82
615.369	11.18
615.703	11.26
616.037	10.59
616.371	10.85
616.705	11.08
617.039	11.36
617.373	10.86
617.707	10.89
618.041	11.19
618.375	11.11
618.709	11.18
619.042	11.23
619.376	11.27
619.71	11.54
620.043	11.55
620.377	11.22
620.71	11.51
621.043	11.2
621.377	11.58
621.71	11.69
622.043	11.75
622.376	11.49
622.709	11.67
623.043	11.5
623.376	11.86
623.709	11.68
624.041	11.7
624.374	11.53
624.707	11.97
625.04	11.86
625.373	12.18
625.705	11.99
626.038	11.63
626.37	12.1
626.703	11.66
627.035	12.03
627.368	12.03
627.7	11.92
628.032	12.13
628.365	11.86
628.697	11.72
629.029	12.41
629.361	11.97
629.693	12.13
630.025	12.35
630.357	12.4
630.689	12.6
631.021	12.3
631.353	12.19
631.684	12.68
632.016	12.23
632.348	12.48
632.679	12.24
633.011	12.78
633.342	12.62
633.674	12.58
634.005	12.81
634.336	12.89
634.668	12.95
634.999	12.41
635.33	12.4
635.661	12.85
635.992	12.49
636.323	12.8
636.654	12.57
636.985	12.66
637.316	13.14
637.647	13.18
637.977	13.21
638.308	12.62
638.639	12.85
638.969	12.9
639.3	12.94
639.63	13.06
639.961	12.97
640.291	13.63
640.622	13.37
640.952	13.35
641.282	12.67
641.612	12.99
641.943	13.63
642.273	13.49
642.603	13.5
642.933	13.47
643.263	13.64
643.592	13.49
643.922	13.81
644.252	13.48
644.582	13.43
644.911	13.51
645.241	13.29
645.571	13.66
645.9	13.96
646.23	13.82
646.559	13.76
646.888	13.57
647.218	13.82
647.547	13.96
647.876	14.43
648.205	13.81
648.534	13.91
648.863	14.29
649.192	13.85
649.521	13.65
649.85	14.37
650.179	13.96
650.508	13.92
650.837	14.22
651.165	14.09
651.494	14.4
651.822	14.09
652.151	14.95
652.479	14.71
652.808	14.08
653.136	14.34
653.465	14.64
653.793	14.96
654.121	15
654.449	14.17
654.777	14.94
655.105	14.89
655.433	15.29
655.761	14.57
656.089	15.08
656.417	14.53
656.745	15.45
657.073	15.08
657.4	14.86
657.728	14.78
658.056	15.14
658.383	15.35
658.711	14.53
659.038	15.56
659.365	14.86
659.693	15.13
660.02	15.08
660.347	14.9
660.674	14.87
661.001	14.92
661.329	15.2
661.656	15.16
661.982	15.65
662.309	15.46
662.636	15.77
662.963	15.55
663.29	15.63
663.616	15.44
663.943	15.46
664.27	15.81
664.596	15.65
664.923	15.84
665.249	15.8
665.576	15.58
665.902	15.72
666.228	15.82
666.554	15.15
666.881	16.39
667.207	15.76
667.533	16.19
667.859	16.02
668.185	16.38
668.511	15.5
668.837	15.56
669.162	16.08
669.488	16.15
669.814	16.67
670.139	16.52
670.465	16.21
670.791	16.51
671.116	16.12
671.442	16.88
671.767	16.75
672.092	16.4
672.418	16.24
672.743	16.38
673.068	16.68
673.393	15.87
673.718	16.72
674.043	16.14
674.368	17.3
674.693	16.89
675.018	17.1
675.343	16.56
675.667	16.93
675.992	16.52
676.317	16.7
676.641	17.26
676.966	17.66
677.29	17.28
677.615	16.93
677.939	16.96
678.264	16.77
678.588	17.04
678.912	17.34
679.236	16.71
679.56	16.82
679.885	17
680.209	16.79
680.532	17.1
680.856	17.52
681.18	17.15
681.504	16.97
681.828	16.93
682.152	17.53
682.475	17.6
682.799	18.06
683.122	17.9
683.446	17.77
683.769	17.27
684.093	17.12
684.416	17.51
684.739	17.81
685.062	17.75
685.386	17.61
685.709	17.63
686.032	17.66
686.355	18.16
686.678	17.61
687.001	16.78
