Data from 0072_forehead_Reflection__4__268.txt Node

Date: Fri Dec 16 16:02:17 CST 2022
User: ToomeyLab
Spectrometer: FLMS14357
Trigger mode: 0
Integration Time (sec): 1.000000E-2
Scans to average: 100
Electric dark correction enabled: true
Nonlinearity correction enabled: false
Boxcar width: 0
XAxis mode: Wavelengths
Number of Pixels in Spectrum: 2048
>>>>>Begin Spectral Data<<<<<
189.047	25.87
189.435	25.87
189.823	25.87
190.211	78.02
190.599	51.18
190.987	22.81
191.375	-106.81
191.763	115.35
192.151	-21.11
192.538	48.26
192.926	-23518.18
193.314	325.14
193.702	-83.65
194.089	86.33
194.477	88.14
194.864	-68.87
195.252	597.44
195.639	57.45
196.027	-12.01
196.414	366.95
196.801	-108.27
197.189	102.83
197.576	-260.84
197.963	-142.47
198.351	90.24
198.738	21.44
199.125	37.08
199.512	-16.9
199.899	-16.68
200.286	-16.88
200.673	96.04
201.06	54.36
201.447	55.79
201.833	24.77
202.22	26.87
202.607	21.73
202.994	39.33
203.38	-36.4
203.767	-10.78
204.154	-31.88
204.54	42.37
204.927	23.38
205.313	23.75
205.699	25.08
206.086	35.82
206.472	18.85
206.858	13.3
207.245	8.34
207.631	25.3
208.017	28.97
208.403	38.41
208.789	-5.34
209.175	50.12
209.561	10.97
209.947	6.33
210.333	22.53
210.719	8.32
211.105	-28.48
211.491	21.71
211.876	-9.09
212.262	-51.16
212.648	-30.26
213.034	-38.25
213.419	31.49
213.805	4.97
214.19	8.67
214.576	3.4
214.961	-8.4
215.346	-18.79
215.732	20.98
216.117	-13.28
216.502	-14.5
216.888	-2.81
217.273	25.33
217.658	3.05
218.043	5.03
218.428	-12.82
218.813	3.24
219.198	-19.23
219.583	7.38
219.968	-0.37
220.353	20.16
220.738	14.29
221.122	13.52
221.507	5.33
221.892	1.17
222.276	8.99
222.661	-0.72
223.046	3.79
223.43	7.84
223.815	16.18
224.199	17.94
224.583	8.3
224.968	5.53
225.352	-3.13
225.736	-3.06
226.121	2.98
226.505	9.85
226.889	7.6
227.273	7.48
227.657	4.6
228.041	6.85
228.425	8.37
228.809	10.23
229.193	4.27
229.577	6.4
229.961	6.3
230.344	5.51
230.728	6.31
231.112	5.51
231.495	4.91
231.879	5.82
232.263	5.49
232.646	5.92
233.03	5.71
233.413	7.42
233.797	7.47
234.18	4.7
234.563	3.79
234.946	5.98
235.33	6.92
235.713	5.68
236.096	5.86
236.479	5.1
236.862	5.95
237.245	7.23
237.628	5.24
238.011	5.34
238.394	7.5
238.777	6.8
239.16	3.84
239.543	3.97
239.925	6.77
240.308	5.28
240.691	5.56
241.073	6.62
241.456	6.43
241.838	5.21
242.221	6.14
242.603	6.23
242.986	7.38
243.368	6.19
243.75	6.37
244.133	6.17
244.515	6.01
244.897	5.81
245.279	5.8
245.661	6.7
246.043	6.58
246.425	5.39
246.807	6.39
247.189	5.79
247.571	6.55
247.953	6.32
248.335	6.47
248.717	6.33
249.098	6.56
249.48	6.14
249.862	6.64
250.243	6.9
250.625	6.87
251.006	6.9
251.388	7.43
251.769	5.98
252.151	6.86
252.532	6.45
252.913	6.57
253.295	6.16
253.676	6.52
254.057	6.04
254.438	6
254.819	6.2
255.2	5.83
255.581	6.78
255.962	6.68
256.343	6.88
256.724	5.52
257.105	5.4
257.486	7.13
257.867	5.19
258.247	6.86
258.628	6.27
259.009	6.03
259.389	6.47
259.77	6.46
260.15	6.84
260.531	6.15
260.911	6.4
261.292	6.1
261.672	6.08
262.052	6.22
262.432	6.02
262.813	6.58
263.193	5.64
263.573	5.76
263.953	6.03
264.333	6.68
264.713	5.82
265.093	5.61
265.473	7.01
265.853	5.98
266.233	6.35
266.612	6.92
266.992	5.92
267.372	6.27
267.752	6.13
268.131	6.46
268.511	5.79
268.89	6.91
269.27	6.45
269.649	6.06
270.029	6.27
270.408	5.84
270.787	5.96
271.167	6.07
271.546	6.12
271.925	5.83
272.304	5.65
272.683	5.46
273.062	6.35
273.441	6.51
273.82	6
274.199	6.22
274.578	5.92
274.957	6.02
275.336	5.77
275.715	6.57
276.093	5.89
276.472	6.74
276.851	6.34
277.229	6.13
277.608	5.67
277.986	5.73
278.365	5.56
278.743	5.88
279.122	5.14
279.5	5.96
279.878	5.68
280.257	6.44
280.635	5.59
281.013	6.7
281.391	5.9
281.769	6
282.147	6.24
282.525	5.87
282.903	6.13
283.281	6.06
283.659	6.38
284.037	5.91
284.415	6.36
284.792	6.2
285.17	5.53
285.548	5.99
285.925	5.76
286.303	5.97
286.68	6.09
287.058	5.99
287.435	6.09
287.813	6.19
288.19	6.01
288.567	5.71
288.945	5.81
289.322	6.22
289.699	6.1
290.076	6.6
290.453	6.33
290.83	6.34
291.207	6.31
291.584	6.35
291.961	6.38
292.338	6.42
292.715	6.03
293.092	6.36
293.469	6.81
293.845	7.12
294.222	6.48
294.599	6.53
294.975	6.56
295.352	6.33
295.728	6.54
296.105	6.58
296.481	7.27
296.858	6.73
297.234	6.29
297.61	6.5
297.986	6.78
298.363	6.57
298.739	6.78
299.115	6.27
299.491	6.93
299.867	6.84
300.243	6.73
300.619	6.87
300.995	7.27
301.371	7.65
301.746	7.03
302.122	6.73
302.498	6.79
302.874	7.04
303.249	7.47
303.625	6.78
304	6.81
304.376	6.93
304.751	7.5
305.127	7.71
305.502	7.55
305.878	7.08
306.253	6.9
306.628	7.46
307.003	7.7
307.378	7.21
307.754	7
308.129	6.8
308.504	7.3
308.879	7.61
309.254	7.56
309.629	6.96
310.003	7.75
310.378	7.35
310.753	7.11
311.128	7.2
311.502	7.04
311.877	7.18
312.252	7.19
312.626	7.38
313.001	7.64
313.375	7.54
313.75	7.89
314.124	8.33
314.498	7.53
314.873	7.68
315.247	7.44
315.621	7.72
315.995	7.72
316.369	7.69
316.743	8.09
317.117	7.7
317.491	7.83
317.865	7.55
318.239	8.72
318.613	7.39
318.987	8.27
319.361	7.51
319.734	7.94
320.108	8.15
320.482	8.12
320.855	7.75
321.229	8.28
321.602	8.03
321.976	7.93
322.349	7.57
322.723	7.27
323.096	8.28
323.469	7.75
323.843	8.09
324.216	7.89
324.589	8.71
324.962	8.15
325.335	8.59
325.708	8.45
326.081	8.61
326.454	8.43
326.827	8.69
327.2	9.01
327.573	8.3
327.945	8.62
328.318	8.39
328.691	8.93
329.063	8.15
329.436	8.31
329.809	8.26
330.181	8.68
330.553	8.85
330.926	8.42
331.298	8.28
331.671	8.34
332.043	8.86
332.415	9.03
332.787	9.42
333.159	8.62
333.532	8.76
333.904	8.5
334.276	8.75
334.648	8.55
335.02	8.66
335.391	8.91
335.763	8.87
336.135	9.02
336.507	9.18
336.879	8.77
337.25	8.93
337.622	9.03
337.993	8.93
338.365	9.3
338.736	9.19
339.108	8.75
339.479	8.89
339.851	9.31
340.222	8.9
340.593	8.62
340.964	8.79
341.336	8.35
341.707	9.16
342.078	9.17
342.449	9.5
342.82	8.86
343.191	8.99
343.562	9.56
343.933	9.21
344.303	9.25
344.674	9
345.045	9.15
345.416	9.23
345.786	8.62
346.157	9.35
346.527	9.03
346.898	9.15
347.268	9.04
347.639	9.26
348.009	9.45
348.38	9.31
348.75	9.3
349.12	9.75
349.49	9.25
349.861	9.61
350.231	9.58
350.601	9.82
350.971	9.67
351.341	9.86
351.711	9.69
352.081	9.65
352.45	9.68
352.82	9.81
353.19	9.39
353.56	9.52
353.929	10.14
354.299	9.57
354.669	10.08
355.038	9.64
355.408	10.03
355.777	9.65
356.147	10.04
356.516	10.07
356.885	9.91
357.254	9.89
357.624	10.25
357.993	10.02
358.362	10
358.731	9.98
359.1	10.16
359.469	9.99
359.838	10.04
360.207	10.19
360.576	10.21
360.945	10.29
361.314	10.26
361.682	9.94
362.051	10.35
362.42	10.46
362.788	10.05
363.157	10.02
363.525	9.98
363.894	10.01
364.262	10.59
364.631	10.99
364.999	10.22
365.367	10.63
365.735	10.33
366.104	10.36
366.472	10.67
366.84	10.81
367.208	10.36
367.576	10.48
367.944	10.61
368.312	10.23
368.68	10.78
369.048	11
369.416	10.2
369.783	10.58
370.151	10.79
370.519	10.45
370.886	10.88
371.254	10.83
371.621	10.94
371.989	10.87
372.356	10.89
372.724	11.05
373.091	10.61
373.458	11.33
373.826	10.91
374.193	11.48
374.56	10.83
374.927	10.8
375.294	11.45
375.661	11.18
376.028	11.52
376.395	11.31
376.762	11.36
377.129	11.34
377.496	11.17
377.863	11.2
378.229	11.47
378.596	11.3
378.963	11.01
379.329	11.37
379.696	11.17
380.062	11.94
380.429	11.64
380.795	11.64
381.161	11.44
381.528	11.34
381.894	11.36
382.26	11.64
382.626	11.4
382.993	11.62
383.359	11.65
383.725	12.1
384.091	11.82
384.457	11.89
384.823	11.69
385.188	11.64
385.554	11.59
385.92	11.97
386.286	12.06
386.651	11.94
387.017	12.02
387.383	11.96
387.748	11.85
388.114	12.06
388.479	12.24
388.845	12.32
389.21	12.09
389.575	12.26
389.94	12.15
390.306	12.13
390.671	12.07
391.036	12.27
391.401	12.28
391.766	12.38
392.131	12.26
392.496	12.05
392.861	12.14
393.226	12.07
393.591	12.57
393.956	12.38
394.32	12.49
394.685	12.54
395.05	12.19
395.414	12.49
395.779	12.51
396.143	12.57
396.508	12.77
396.872	12.73
397.236	12.34
397.601	12.79
397.965	12.67
398.329	12.74
398.694	12.64
399.058	13.13
399.422	13.05
399.786	12.98
400.15	13
400.514	13.04
400.878	12.91
401.242	13.01
401.605	12.89
401.969	13.03
402.333	12.97
402.697	13.21
403.06	13.33
403.424	12.92
403.787	13.06
404.151	13.05
404.514	13.18
404.878	13.26
405.241	13.03
405.604	13.44
405.968	13.09
406.331	13.22
406.694	13.3
407.057	13.52
407.42	13.51
407.783	13.31
408.146	13.38
408.509	13.38
408.872	13.28
409.235	13.51
409.598	13.87
409.961	13.82
410.323	13.74
410.686	13.7
411.049	13.51
411.411	13.59
411.774	13.62
412.136	13.8
412.499	13.8
412.861	13.63
413.223	13.8
413.586	13.98
413.948	14.02
414.31	14.07
414.672	13.54
415.035	13.85
415.397	14.06
415.759	13.84
416.121	14.01
416.483	14.27
416.845	14.21
417.206	14.08
417.568	14.09
417.93	14.1
418.292	13.98
418.653	13.96
419.015	14.32
419.377	14.16
419.738	14.15
420.1	13.99
420.461	14
420.822	14.15
421.184	14.11
421.545	14.17
421.906	14.15
422.267	14.03
422.629	14.17
422.99	14.2
423.351	14.44
423.712	14.27
424.073	14.43
424.434	14.39
424.795	14.45
425.155	14.43
425.516	14.31
425.877	14.44
426.238	14.47
426.598	14.5
426.959	14.49
427.32	14.69
427.68	14.59
428.041	14.91
428.401	14.76
428.761	14.95
429.122	14.78
429.482	14.84
429.842	14.9
430.202	15.07
430.563	15.07
430.923	15.12
431.283	15.19
431.643	15.11
432.003	15.19
432.363	15.25
432.722	15.06
433.082	15.13
433.442	15.35
433.802	15.42
434.161	15.28
434.521	15.2
434.881	15.42
435.24	15.28
435.6	15.28
435.959	15.46
436.319	15.39
436.678	15.47
437.037	15.78
437.396	15.66
437.756	15.63
438.115	15.63
438.474	15.71
438.833	15.73
439.192	15.86
439.551	15.77
439.91	15.75
440.269	15.84
440.628	15.65
440.987	15.84
441.345	15.81
441.704	15.72
442.063	15.75
442.421	15.89
442.78	15.77
443.138	15.91
443.497	15.91
443.855	16.14
444.214	16.24
444.572	16.12
444.93	16.37
445.288	16.03
445.647	16.16
446.005	16.26
446.363	16.26
446.721	16.2
447.079	16.08
447.437	16.2
447.795	16.09
448.153	16.23
448.51	16.29
448.868	16.48
449.226	16.49
449.584	16.51
449.941	16.58
450.299	16.66
450.656	16.67
451.014	16.46
451.371	16.7
451.729	16.8
452.086	16.68
452.443	16.89
452.801	17.1
453.158	16.85
453.515	16.93
453.872	17.17
454.229	16.98
454.586	16.98
454.943	17.04
455.3	17.21
455.657	17.13
456.014	17.25
456.371	17.26
456.727	17.22
457.084	17.2
457.441	17.43
457.797	17.38
458.154	17.43
458.51	17.39
458.867	17.29
459.223	17.56
459.58	17.44
459.936	17.42
460.292	17.51
460.648	17.2
461.005	17.3
461.361	17.4
461.717	17.41
462.073	17.45
462.429	17.77
462.785	17.73
463.141	17.8
463.496	17.92
463.852	17.97
464.208	18.04
464.564	18.05
464.919	18.19
465.275	18.01
465.631	18.11
465.986	18.07
466.342	18.18
466.697	18.14
467.052	18.42
467.408	18.04
467.763	18.09
468.118	18.22
468.473	18.44
468.829	18.18
469.184	18.42
469.539	18.17
469.894	18.47
470.249	18.57
470.603	18.65
470.958	18.74
471.313	18.51
471.668	18.66
472.023	18.74
472.377	18.64
472.732	18.73
473.086	18.77
473.441	18.99
473.795	19.05
474.15	18.82
474.504	18.87
474.859	19.17
475.213	19.03
475.567	18.97
475.921	19.15
476.275	19.22
476.63	19.01
476.984	19.19
477.338	19.43
477.692	19.09
478.045	19.23
478.399	19.36
478.753	19.18
479.107	19.28
479.461	19.45
479.814	19.35
480.168	19.36
480.521	19.39
480.875	19.54
481.228	19.46
481.582	19.33
481.935	19.43
482.289	19.43
482.642	19.51
482.995	19.35
483.348	19.36
483.701	19.35
484.055	19.26
484.408	19.09
484.761	18.65
485.114	18.49
485.466	18.68
485.819	18.9
486.172	19.02
486.525	19.2
486.878	19.42
487.23	19.35
487.583	19.58
487.936	19.48
488.288	19.32
488.641	19.17
488.993	19.12
489.345	19.19
489.698	19.4
490.05	19.46
490.402	19.66
490.754	19.87
491.107	20.04
491.459	20.03
491.811	20.01
492.163	19.96
492.515	19.8
492.866	19.58
493.218	19.61
493.57	19.8
493.922	19.95
494.274	20.14
494.625	20.34
494.977	20.48
495.328	20.6
495.68	20.8
496.031	20.89
496.383	20.8
496.734	20.97
497.086	20.7
497.437	20.83
497.788	20.78
498.139	20.74
498.49	20.9
498.842	20.79
499.193	21.01
499.544	21.02
499.894	21.04
500.245	21.14
500.596	21.2
500.947	21.22
501.298	21.23
501.648	21.35
501.999	21.41
502.35	21.36
502.7	21.31
503.051	21.52
503.401	21.53
503.752	21.49
504.102	21.53
504.452	21.54
504.803	21.58
505.153	21.72
505.503	21.79
505.853	21.63
506.203	21.59
506.553	21.8
506.903	21.54
507.253	21.96
507.603	21.89
507.953	21.92
508.303	22.09
508.652	22
509.002	22.02
509.352	21.83
509.701	21.92
510.051	21.96
510.4	22.05
510.75	21.96
511.099	22.07
511.449	22.03
511.798	22.12
512.147	22.12
512.496	22.22
512.846	22.3
513.195	22.35
513.544	22.3
513.893	22.31
514.242	22.32
514.591	22.53
514.939	22.37
515.288	22.62
515.637	22.72
515.986	22.65
516.334	22.79
516.683	22.76
517.032	22.71
517.38	22.88
517.729	22.89
518.077	22.89
518.426	22.81
518.774	22.77
519.122	22.52
519.47	22.72
519.819	22.41
520.167	22.63
520.515	22.67
520.863	22.75
521.211	22.77
521.559	22.98
521.907	23.07
522.255	23.13
522.602	23.16
522.95	23.36
523.298	23.31
523.645	23.24
523.993	23.36
524.341	23.35
524.688	23.37
525.036	23.47
525.383	23.46
525.73	23.51
526.078	23.29
526.425	23.2
526.772	22.98
527.119	23.11
527.466	23.2
527.814	23.26
528.161	23.29
528.508	23.42
528.854	23.23
529.201	23.23
529.548	22.91
529.895	22.65
530.242	22.87
530.588	23
530.935	23.21
531.282	23.33
531.628	23.45
531.975	23.59
532.321	23.71
532.667	23.86
533.014	23.85
533.36	23.89
533.706	23.99
534.052	23.77
534.399	23.5
534.745	23.39
535.091	23.61
535.437	23.84
535.783	24.03
536.129	24.08
536.474	24.28
536.82	24.3
537.166	24.31
537.512	24.44
537.857	24.16
538.203	24.26
538.549	24.37
538.894	24.46
539.239	24.67
539.585	24.85
539.93	24.9
540.276	24.87
540.621	25.09
540.966	25.01
541.311	24.98
541.656	24.81
542.001	24.63
542.346	24.35
542.691	24.05
543.036	24.27
543.381	24.45
543.726	24.59
544.071	24.77
544.415	24.78
544.76	24.75
545.105	24.87
545.449	25.13
545.794	25.21
546.138	25.37
546.483	25.37
546.827	25.52
547.171	25.21
547.516	25.55
547.86	25.3
548.204	25.44
548.548	25.45
548.892	25.75
549.236	25.72
549.58	25.77
549.924	26.01
550.268	25.97
550.612	26.17
550.956	25.94
551.3	26.33
551.643	26.34
551.987	26.24
552.33	26.17
552.674	26.31
553.017	26.36
553.361	26.17
553.704	26.21
554.048	26.2
554.391	26.31
554.734	26.24
555.077	26.31
555.42	26.58
555.764	26.41
556.107	26.71
556.45	26.76
556.793	27.03
557.135	27.04
557.478	26.91
557.821	26.7
558.164	26.91
558.507	26.87
558.849	26.91
559.192	27.05
559.534	26.98
559.877	27.13
560.219	27.16
560.562	27.31
560.904	27.11
561.246	27.24
561.589	27.39
561.931	27.44
562.273	27.35
562.615	27.51
562.957	27.3
563.299	27.3
563.641	27.65
563.983	27.59
564.325	27.28
564.667	27.59
565.008	27.38
565.35	27.57
565.692	27.78
566.033	27.77
566.375	27.66
566.716	27.57
567.058	27.7
567.399	27.66
567.741	27.74
568.082	27.51
568.423	27.74
568.764	27.98
569.105	27.89
569.447	27.76
569.788	28.1
570.129	28.14
570.47	28.19
570.811	28.23
571.151	28
571.492	28.49
571.833	28.22
572.174	28
572.514	28.12
572.855	28.19
573.195	27.91
573.536	28.03
573.876	28.22
574.217	28.22
574.557	28.33
574.898	28.15
575.238	28.38
575.578	28.66
575.918	28.37
576.258	28.61
576.598	28.5
576.938	28.63
577.278	28.59
577.618	28.7
577.958	28.62
578.298	28.97
578.638	28.8
578.977	29.12
579.317	29.14
579.657	29.19
579.996	29.21
580.336	29.09
580.675	29.15
581.014	29.23
581.354	29.39
581.693	29.16
582.032	29.18
582.372	29.28
582.711	28.96
583.05	29.74
583.389	29.39
583.728	29.5
584.067	29.52
584.406	29.59
584.745	29.26
585.083	29.91
585.422	29.65
585.761	29.68
586.1	29.98
586.438	29.9
586.777	29.94
587.115	29.85
587.454	29.84
587.792	29.56
588.13	30.2
588.469	29.89
588.807	30.18
589.145	30.12
589.483	29.84
589.821	30.16
590.159	30.19
590.497	30.03
590.835	30.29
591.173	30.16
591.511	30.35
591.849	30.52
592.187	30.24
592.524	30.25
592.862	30.27
593.2	30.23
593.537	30.34
593.875	30.27
594.212	30.53
594.55	30.62
594.887	30.64
595.224	30.39
595.561	30.64
595.899	30.54
596.236	30.53
596.573	30.54
596.91	30.85
597.247	30.78
597.584	30.97
597.921	30.77
598.258	30.81
598.594	30.7
598.931	30.86
599.268	30.74
599.604	31.09
599.941	31.12
600.277	31.09
600.614	31.25
600.95	31.33
601.287	31.39
601.623	31.52
601.959	31.14
602.296	31.34
602.632	31.65
602.968	31.43
603.304	31.54
603.64	31.55
603.976	31.19
604.312	31.6
604.648	31.26
604.984	31.35
605.319	31.36
605.655	31.52
605.991	31.46
606.326	31.27
606.662	31.35
606.998	31.56
607.333	31.54
607.668	31.81
608.004	31.89
608.339	31.97
608.674	32.13
609.01	31.84
609.345	32.29
609.68	31.9
610.015	32.12
610.35	31.89
610.685	31.97
611.02	32.06
611.355	31.95
611.689	31.72
612.024	32.25
612.359	32.41
612.694	32.28
613.028	32.51
613.363	32.3
613.697	32.44
614.032	32.62
614.366	32.37
614.7	32.54
615.035	32.43
615.369	32.94
615.703	32.88
616.037	32.85
616.371	32.63
616.705	32.66
617.039	32.81
617.373	32.56
617.707	32.99
618.041	32.86
618.375	32.7
618.709	33.4
619.042	33.14
619.376	33.01
619.71	32.84
620.043	32.66
620.377	33.11
620.71	33.1
621.043	32.89
621.377	32.91
621.71	33.04
622.043	32.94
622.376	32.96
622.709	33.45
623.043	33.35
623.376	33.47
623.709	33.31
624.041	33.39
624.374	33.35
624.707	33.56
625.04	33.62
625.373	33.42
625.705	33.62
626.038	33.52
626.37	33.69
626.703	33.58
627.035	33.61
627.368	33.58
627.7	33.69
628.032	33.4
628.365	33.7
628.697	33.59
629.029	33.51
629.361	34.14
629.693	34.29
630.025	33.69
630.357	34.13
630.689	34.09
631.021	34.19
631.353	33.89
631.684	34.22
632.016	33.69
632.348	34.81
632.679	34.31
633.011	34.29
633.342	34.66
633.674	34.48
634.005	34.36
634.336	33.9
634.668	34.34
634.999	34.39
635.33	34.75
635.661	34.52
635.992	34.59
636.323	34.59
636.654	34.52
636.985	34.87
637.316	34.77
637.647	34.75
637.977	34.84
638.308	34.24
638.639	34.64
638.969	34.8
639.3	34.77
639.63	34.67
639.961	34.93
640.291	35.42
640.622	35.14
640.952	34.98
641.282	35.01
641.612	34.79
641.943	35.36
642.273	35.43
642.603	35.31
642.933	35.77
643.263	35.24
643.592	35.3
643.922	35.6
644.252	35.15
644.582	34.91
644.911	35.38
645.241	34.84
645.571	35.55
645.9	35.46
646.23	35.72
646.559	35.53
646.888	35.73
647.218	35.6
647.547	35.8
647.876	36.12
648.205	35.65
648.534	35.65
648.863	35.24
649.192	35.71
649.521	35.39
649.85	35.98
650.179	35.75
650.508	36.06
650.837	36.08
651.165	35.78
651.494	35.75
651.822	36.03
652.151	36.12
652.479	36.16
652.808	35.84
653.136	36.56
653.465	36.02
653.793	36.52
654.121	36.22
654.449	36.5
654.777	36.51
655.105	36.92
655.433	37.45
655.761	36.76
656.089	36.38
656.417	36.59
656.745	36.86
657.073	37.12
657.4	36.72
657.728	36.26
658.056	36.91
658.383	36.76
658.711	36.81
659.038	36.68
659.365	36.44
659.693	36.55
660.02	36.91
660.347	36.78
660.674	36.19
661.001	36.62
661.329	36.88
661.656	36.93
661.982	37.07
662.309	37.22
662.636	37.2
662.963	37.3
663.29	37.62
663.616	37.58
663.943	37.62
664.27	37.15
664.596	37.8
664.923	37.77
665.249	37.59
665.576	36.66
665.902	37.11
666.228	37.36
666.554	37.19
666.881	37.39
667.207	37.59
667.533	37.08
667.859	37.46
668.185	37.84
668.511	37.66
668.837	37.75
669.162	37.64
669.488	37.37
669.814	38.28
670.139	38.5
670.465	38.75
670.791	38.02
671.116	37.72
671.442	38.17
