Data from 0072_crown_Reflection__2__261.txt Node

Date: Fri Dec 16 15:57:56 CST 2022
User: ToomeyLab
Spectrometer: FLMS14357
Trigger mode: 0
Integration Time (sec): 1.000000E-2
Scans to average: 100
Electric dark correction enabled: true
Nonlinearity correction enabled: false
Boxcar width: 0
XAxis mode: Wavelengths
Number of Pixels in Spectrum: 2048
>>>>>Begin Spectral Data<<<<<
189.047	69.68
189.435	69.68
189.823	69.68
190.211	-459
190.599	51.81
190.987	-64.68
191.375	-1085.53
191.763	76.48
192.151	-60.66
192.538	63.24
192.926	-21736.36
193.314	506.44
193.702	107.84
194.089	-17.97
194.477	-132.2
194.864	-23.38
195.252	-1840.17
195.639	62.6
196.027	36.24
196.414	678.83
196.801	144.72
197.189	31.91
197.576	-61.05
197.963	-191.63
198.351	12.83
198.738	-38.85
199.125	27.48
199.512	-21.67
199.899	-32.36
200.286	-22.7
200.673	20.67
201.06	44
201.447	40.89
201.833	3.34
202.22	26.76
202.607	21.93
202.994	10.5
203.38	-39.39
203.767	-10.48
204.154	-91.85
204.54	14.81
204.927	-5.55
205.313	21.67
205.699	-7.59
206.086	-3.25
206.472	-6.03
206.858	-1.6
207.245	1.95
207.631	-4.09
208.017	44.8
208.403	8.44
208.789	-8.77
209.175	29.48
209.561	-25.86
209.947	-25.65
210.333	-15.87
210.719	-32.47
211.105	-27.3
211.491	17.77
211.876	-0.85
212.262	-58.15
212.648	-34.26
213.034	43.6
213.419	22.09
213.805	-1.16
214.19	1.79
214.576	-24.76
214.961	-23.26
215.346	-48.23
215.732	-35.14
216.117	-32.44
216.502	-39.32
216.888	-29.91
217.273	3.39
217.658	12.43
218.043	-28.38
218.428	-49.93
218.813	-44.55
219.198	-35.41
219.583	13
219.968	9.9
220.353	0.74
220.738	-32.68
221.122	0.82
221.507	-6.56
221.892	15.75
222.276	-3.08
222.661	0.62
223.046	5.57
223.43	8.87
223.815	9.91
224.199	1.74
224.583	4.69
224.968	9.37
225.352	-0.75
225.736	3.06
226.121	7.49
226.505	8
226.889	7
227.273	8.85
227.657	4.14
228.041	6.2
228.425	1.53
228.809	7.74
229.193	3.15
229.577	5.04
229.961	6.74
230.344	6.46
230.728	6.09
231.112	6.67
231.495	5.49
231.879	6.46
232.263	4.45
232.646	4.33
233.03	4.09
233.413	3.79
233.797	8.85
234.18	2.9
234.563	3.73
234.946	6.65
235.33	7.13
235.713	5.52
236.096	5.98
236.479	6.1
236.862	6.9
237.245	6.02
237.628	6.28
238.011	4.6
238.394	6.25
238.777	7.09
239.16	4.71
239.543	5.8
239.925	6.45
240.308	5.86
240.691	5.17
241.073	5.82
241.456	6.39
241.838	6.21
242.221	5.75
242.603	6.17
242.986	7.22
243.368	5.91
243.75	5.85
244.133	6.07
244.515	6.29
244.897	6.13
245.279	5.4
245.661	4.66
246.043	5.65
246.425	5.92
246.807	6.04
247.189	6.26
247.571	5.93
247.953	6
248.335	6.05
248.717	6.01
249.098	5.94
249.48	5.55
249.862	5.87
250.243	5.74
250.625	5.96
251.006	5.93
251.388	6.15
251.769	5.85
252.151	6.64
252.532	6.34
252.913	6.37
253.295	5.49
253.676	5.83
254.057	5.87
254.438	5.79
254.819	5.37
255.2	5.16
255.581	5.08
255.962	4.98
256.343	7.25
256.724	6.09
257.105	6.19
257.486	6.44
257.867	3.44
258.247	6.24
258.628	5.59
259.009	5.33
259.389	5.33
259.77	4.97
260.15	6.17
260.531	5.49
260.911	5.62
261.292	5.61
261.672	5.51
262.052	5.43
262.432	5.33
262.813	5.52
263.193	5.41
263.573	5.12
263.953	5.72
264.333	5.65
264.713	5.65
265.093	5.06
265.473	5.37
265.853	4.82
266.233	4.75
266.612	5.14
266.992	4.05
267.372	5.12
267.752	4.45
268.131	5.36
268.511	5.77
268.89	5.68
269.27	5.85
269.649	5.78
270.029	5.11
270.408	4.91
270.787	4.95
271.167	5.66
271.546	4.72
271.925	5.32
272.304	5.12
272.683	5.03
273.062	5.46
273.441	5.67
273.82	5.72
274.199	5.2
274.578	5.18
274.957	5.44
275.336	5.06
275.715	5.61
276.093	5.36
276.472	5.4
276.851	5.6
277.229	5.8
277.608	4.86
277.986	5.19
278.365	4.99
278.743	4.89
279.122	4.71
279.5	4.04
279.878	5.04
280.257	5.25
280.635	4.94
281.013	5.68
281.391	5.13
281.769	4.79
282.147	5.64
282.525	5.3
282.903	5.04
283.281	5.07
283.659	5.01
284.037	4.75
284.415	5.22
284.792	5.1
285.17	4.66
285.548	5.28
285.925	5.16
286.303	5.04
286.68	5.04
287.058	5.12
287.435	4.72
287.813	4.92
288.19	5.47
288.567	5.29
288.945	5.19
289.322	4.89
289.699	4.96
290.076	5.4
290.453	4.91
290.83	5.25
291.207	4.44
291.584	4.99
291.961	5.09
292.338	5.21
292.715	4.96
293.092	4.67
293.469	5.4
293.845	5.26
294.222	4.83
294.599	5.21
294.975	5.16
295.352	4.78
295.728	5.19
296.105	4.81
296.481	5.18
296.858	5.37
297.234	5.19
297.61	5.14
297.986	4.55
298.363	4.63
298.739	5.05
299.115	4.82
299.491	4.8
299.867	5.15
300.243	4.82
300.619	4.45
300.995	4.8
301.371	4.79
301.746	4.41
302.122	4.93
302.498	5.27
302.874	4.84
303.249	4.88
303.625	4.53
304	4.03
304.376	4.94
304.751	4.75
305.127	4.52
305.502	4.67
305.878	4.52
306.253	4.6
306.628	4.95
307.003	4.84
307.378	4.38
307.754	4.76
308.129	4.41
308.504	4.77
308.879	4.93
309.254	5.09
309.629	4.65
310.003	5.31
310.378	5.25
310.753	4.95
311.128	4.88
311.502	4.73
311.877	4.85
312.252	4.65
312.626	4.43
313.001	4.75
313.375	5.09
313.75	4.29
314.124	5.23
314.498	4.76
314.873	5.13
315.247	4.45
315.621	5.1
315.995	5.14
316.369	4.9
316.743	5.25
317.117	4.85
317.491	5.38
317.865	4.28
318.239	4.7
318.613	4.14
318.987	4.8
319.361	4.42
319.734	4.99
320.108	4.45
320.482	4.74
320.855	4.62
321.229	5.5
321.602	5.31
321.976	4.59
322.349	4.22
322.723	4.02
323.096	4.23
323.469	4.38
323.843	4.63
324.216	4.44
324.589	5.13
324.962	4.55
325.335	4.49
325.708	4.58
326.081	5.2
326.454	4.43
326.827	4.68
327.2	5.18
327.573	5.06
327.945	4.71
328.318	4.82
328.691	4.94
329.063	4.27
329.436	4.28
329.809	4.55
330.181	4.55
330.553	4.76
330.926	4.35
331.298	4.89
331.671	4.56
332.043	4.21
332.415	4.92
332.787	5.19
333.159	4.64
333.532	4.68
333.904	4.44
334.276	4.67
334.648	4.52
335.02	4.36
335.391	4.53
335.763	4.24
336.135	4.46
336.507	4.57
336.879	4.85
337.25	4.8
337.622	4.29
337.993	4.82
338.365	4.62
338.736	4.87
339.108	3.98
339.479	4.68
339.851	4.68
340.222	4.67
340.593	4.59
340.964	4.82
341.336	4.38
341.707	4.81
342.078	4.43
342.449	5.69
342.82	4.89
343.191	4.42
343.562	4.36
343.933	4.83
344.303	4.89
344.674	4.96
345.045	4.78
345.416	4.52
345.786	4.14
346.157	4.55
346.527	4.24
346.898	4.78
347.268	4.64
347.639	4.69
348.009	4.84
348.38	5.04
348.75	4.57
349.12	4.72
349.49	4.58
349.861	4.95
350.231	5.23
350.601	4.94
350.971	4.91
351.341	4.65
351.711	4.81
352.081	5.12
352.45	4.97
352.82	4.97
353.19	4.77
353.56	4.81
353.929	4.59
354.299	4.61
354.669	5.23
355.038	4.78
355.408	4.75
355.777	5.01
356.147	4.77
356.516	5.26
356.885	4.75
357.254	5
357.624	4.89
357.993	4.74
358.362	4.92
358.731	5.03
359.1	4.79
359.469	4.6
359.838	4.55
360.207	4.84
360.576	4.81
360.945	4.69
361.314	5.02
361.682	4.7
362.051	4.74
362.42	5.03
362.788	5.02
363.157	4.64
363.525	4.83
363.894	4.64
364.262	4.81
364.631	5.47
364.999	4.68
365.367	5.17
365.735	4.61
366.104	4.78
366.472	5.33
366.84	5.11
367.208	4.42
367.576	5.07
367.944	5
368.312	4.63
368.68	4.91
369.048	5.2
369.416	4.95
369.783	4.82
370.151	4.96
370.519	4.99
370.886	4.72
371.254	5.26
371.621	4.8
371.989	5.24
372.356	4.8
372.724	5.01
373.091	4.85
373.458	4.67
373.826	4.78
374.193	5.37
374.56	5.02
374.927	4.76
375.294	5.17
375.661	5.04
376.028	4.64
376.395	5.01
376.762	5.25
377.129	5.33
377.496	5.04
377.863	5.1
378.229	5.11
378.596	4.96
378.963	5.04
379.329	4.98
379.696	5.1
380.062	5.16
380.429	5.05
380.795	4.94
381.161	5.26
381.528	4.49
381.894	5.06
382.26	4.84
382.626	4.9
382.993	4.75
383.359	4.81
383.725	5.1
384.091	4.98
384.457	5.43
384.823	4.77
385.188	5.27
385.554	5.26
385.92	5.46
386.286	5.28
386.651	4.93
387.017	5.12
387.383	4.92
387.748	4.81
388.114	5.31
388.479	5.17
388.845	5.18
389.21	5.14
389.575	5.16
389.94	5.2
390.306	5.15
390.671	4.99
391.036	5.06
391.401	5.54
391.766	5.44
392.131	5.28
392.496	5.08
392.861	5.09
393.226	5.04
393.591	5.2
393.956	5.23
394.32	5.18
394.685	5.24
395.05	5.05
395.414	5.18
395.779	5.12
396.143	5.17
396.508	5.14
396.872	5.08
397.236	4.91
397.601	5.26
397.965	4.92
398.329	5.31
398.694	5.03
399.058	5.12
399.422	5.21
399.786	5.3
400.15	5.23
400.514	5.23
400.878	5.12
401.242	5.3
401.605	5.01
401.969	5.33
402.333	5.26
402.697	5.45
403.06	5.31
403.424	5.17
403.787	5.35
404.151	5.1
404.514	5.23
404.878	5.33
405.241	5.32
405.604	5.17
405.968	5.24
406.331	5.29
406.694	5.27
407.057	5.4
407.42	5.2
407.783	5.27
408.146	5.14
408.509	5.13
408.872	5.18
409.235	5.36
409.598	5.35
409.961	5.26
410.323	5.28
410.686	5.22
411.049	5.28
411.411	5.39
411.774	5.27
412.136	5.25
412.499	5.08
412.861	4.94
413.223	5.25
413.586	5.14
413.948	5.38
414.31	5.49
414.672	5.31
415.035	5.37
415.397	5.37
415.759	5.31
416.121	5.4
416.483	5.49
416.845	5.31
417.206	5.38
417.568	5.14
417.93	5.23
418.292	5.21
418.653	5.26
419.015	5.34
419.377	5.27
419.738	5.24
420.1	5.22
420.461	5.15
420.822	5.25
421.184	5.3
421.545	5.31
421.906	5.2
422.267	5.13
422.629	5.28
422.99	5.12
423.351	5.28
423.712	5.25
424.073	5.28
424.434	5.21
424.795	5.19
425.155	5.17
425.516	5.21
425.877	5.16
426.238	5.14
426.598	5.27
426.959	5.07
427.32	5.29
427.68	5.45
428.041	5.49
428.401	5.2
428.761	5.11
429.122	5.24
429.482	5.29
429.842	5.42
430.202	5.4
430.563	5.34
430.923	5.28
431.283	5.37
431.643	5.34
432.003	5.52
432.363	5.36
432.722	5.34
433.082	5.44
433.442	5.43
433.802	5.4
434.161	5.45
434.521	5.48
434.881	5.53
435.24	5.35
435.6	5.36
435.959	5.5
436.319	5.27
436.678	5.31
437.037	5.38
437.396	5.4
437.756	5.38
438.115	5.42
438.474	5.44
438.833	5.54
439.192	5.5
439.551	5.5
439.91	5.47
440.269	5.39
440.628	5.47
440.987	5.33
441.345	5.32
441.704	5.48
442.063	5.3
442.421	5.39
442.78	5.34
443.138	5.23
443.497	5.2
443.855	5.23
444.214	5.4
444.572	5.24
444.93	5.48
445.288	5.47
445.647	5.36
446.005	5.32
446.363	5.49
446.721	5.27
447.079	5.4
447.437	5.34
447.795	5.23
448.153	5.25
448.51	5.3
448.868	5.34
449.226	5.27
449.584	5.35
449.941	5.54
450.299	5.4
450.656	5.49
451.014	5.43
451.371	5.57
451.729	5.4
452.086	5.29
452.443	5.36
452.801	5.52
453.158	5.53
453.515	5.36
453.872	5.53
454.229	5.31
454.586	5.38
454.943	5.3
455.3	5.75
455.657	5.39
456.014	5.58
456.371	5.42
456.727	5.47
457.084	5.37
457.441	5.37
457.797	5.6
458.154	5.49
458.51	5.52
458.867	5.51
459.223	5.44
459.58	5.35
459.936	5.43
460.292	5.55
460.648	5.44
461.005	5.47
461.361	5.33
461.717	5.42
462.073	5.25
462.429	5.45
462.785	5.43
463.141	5.55
463.496	5.32
463.852	5.6
464.208	5.61
464.564	5.53
464.919	5.59
465.275	5.35
465.631	5.51
465.986	5.3
466.342	5.56
466.697	5.42
467.052	5.49
467.408	5.65
467.763	5.42
468.118	5.63
468.473	5.66
468.829	5.51
469.184	5.64
469.539	5.43
469.894	5.45
470.249	5.66
470.603	5.37
470.958	5.69
471.313	5.51
471.668	5.67
472.023	5.78
472.377	5.48
472.732	5.41
473.086	5.45
473.441	5.64
473.795	5.7
474.15	5.49
474.504	5.57
474.859	5.63
475.213	5.78
475.567	5.51
475.921	5.68
476.275	5.46
476.63	5.63
476.984	5.52
477.338	5.76
477.692	5.3
478.045	5.45
478.399	5.66
478.753	5.47
479.107	5.57
479.461	5.61
479.814	5.54
480.168	5.58
480.521	5.61
480.875	5.65
481.228	5.63
481.582	5.43
481.935	5.52
482.289	5.49
482.642	5.58
482.995	5.58
483.348	5.56
483.701	5.54
484.055	5.52
484.408	5.47
484.761	5.34
485.114	5.28
485.466	5.28
485.819	5.2
486.172	5.29
486.525	5.31
486.878	5.36
487.23	5.47
487.583	5.45
487.936	5.48
488.288	5.39
488.641	5.46
488.993	5.34
489.345	5.3
489.698	5.4
490.05	5.35
490.402	5.45
490.754	5.42
491.107	5.42
491.459	5.52
491.811	5.56
492.163	5.57
492.515	5.58
492.866	5.46
493.218	5.39
493.57	5.41
493.922	5.36
494.274	5.51
494.625	5.44
494.977	5.54
495.328	5.59
495.68	5.59
496.031	5.6
496.383	5.49
496.734	5.74
497.086	5.55
497.437	5.74
497.788	5.54
498.139	5.67
498.49	5.69
498.842	5.61
499.193	5.5
499.544	5.75
499.894	5.68
500.245	5.61
500.596	5.6
500.947	5.52
501.298	5.61
501.648	5.58
501.999	5.73
502.35	5.64
502.7	5.69
503.051	5.79
503.401	5.66
503.752	5.65
504.102	5.58
504.452	5.55
504.803	5.45
505.153	5.81
505.503	5.64
505.853	5.51
506.203	5.72
506.553	5.69
506.903	5.66
507.253	5.68
507.603	5.65
507.953	5.66
508.303	5.7
508.652	5.76
509.002	5.77
509.352	5.72
509.701	5.62
510.051	5.61
510.4	5.71
510.75	5.71
511.099	5.68
511.449	5.64
511.798	5.78
512.147	5.54
512.496	5.72
512.846	5.65
513.195	5.64
513.544	5.66
513.893	5.51
514.242	5.75
514.591	5.62
514.939	5.64
515.288	5.66
515.637	5.8
515.986	5.66
516.334	5.8
516.683	5.69
517.032	5.6
517.38	5.72
517.729	5.81
518.077	5.75
518.426	5.71
518.774	5.64
519.122	5.6
519.47	5.7
519.819	5.65
520.167	5.65
520.515	5.58
520.863	5.63
521.211	5.59
521.559	5.57
521.907	5.62
522.255	5.65
522.602	5.72
522.95	5.73
523.298	5.67
523.645	5.69
523.993	5.81
524.341	5.77
524.688	5.65
525.036	5.77
525.383	5.81
525.73	5.72
526.078	5.77
526.425	5.79
526.772	5.55
527.119	5.53
527.466	5.59
527.814	5.55
528.161	5.67
528.508	5.6
528.854	5.52
529.201	5.58
529.548	5.54
529.895	5.44
530.242	5.45
530.588	5.42
530.935	5.42
531.282	5.44
531.628	5.49
531.975	5.53
532.321	5.56
532.667	5.54
533.014	5.62
533.36	5.63
533.706	5.64
534.052	5.53
534.399	5.53
534.745	5.48
535.091	5.48
535.437	5.55
535.783	5.57
536.129	5.56
536.474	5.71
536.82	5.59
537.166	5.7
537.512	5.74
537.857	5.65
538.203	5.65
538.549	5.68
538.894	5.53
539.239	5.78
539.585	5.71
539.93	5.74
540.276	5.63
540.621	5.57
540.966	5.64
541.311	5.71
541.656	5.68
542.001	5.67
542.346	5.59
542.691	5.52
543.036	5.49
543.381	5.58
543.726	5.52
544.071	5.53
544.415	5.52
544.76	5.56
545.105	5.67
545.449	5.61
545.794	5.54
546.138	5.77
546.483	5.73
546.827	5.69
547.171	5.7
547.516	5.77
547.86	5.57
548.204	5.64
548.548	5.73
548.892	5.68
549.236	5.69
549.58	5.66
549.924	5.72
550.268	5.82
550.612	5.85
550.956	5.71
551.3	5.82
551.643	5.84
551.987	5.88
552.33	5.72
552.674	5.96
553.017	5.77
553.361	5.73
553.704	5.66
554.048	5.93
554.391	5.75
554.734	5.83
555.077	5.73
555.42	5.73
555.764	5.87
556.107	5.78
556.45	5.74
556.793	5.95
557.135	5.99
557.478	5.97
557.821	5.56
558.164	5.76
558.507	5.72
558.849	5.72
559.192	5.76
559.534	5.65
559.877	5.83
560.219	5.95
560.562	5.8
560.904	5.87
561.246	5.88
561.589	5.89
561.931	5.95
562.273	5.79
562.615	5.83
562.957	5.77
563.299	5.79
563.641	5.78
563.983	5.78
564.325	5.53
564.667	5.69
565.008	5.71
565.35	5.92
565.692	5.93
566.033	5.92
566.375	5.78
566.716	5.86
567.058	5.76
567.399	5.86
567.741	5.82
568.082	5.78
568.423	5.84
568.764	5.83
569.105	5.84
569.447	5.81
569.788	5.78
570.129	5.79
570.47	5.95
570.811	5.83
571.151	5.84
571.492	6.03
571.833	5.92
572.174	5.85
572.514	5.73
572.855	5.94
573.195	5.72
573.536	5.83
573.876	5.73
574.217	5.83
574.557	5.81
574.898	5.66
575.238	5.89
575.578	5.87
575.918	5.66
576.258	5.79
576.598	5.85
576.938	6.02
577.278	5.76
577.618	5.77
577.958	5.85
578.298	5.98
578.638	5.92
578.977	5.82
579.317	5.97
579.657	5.77
579.996	5.86
580.336	5.77
580.675	5.9
581.014	6.02
581.354	5.94
581.693	6.04
582.032	5.85
582.372	5.77
582.711	5.71
583.05	6
583.389	5.94
583.728	5.83
584.067	5.82
584.406	6.01
584.745	5.9
585.083	6.11
585.422	5.96
585.761	6.09
586.1	6.31
586.438	5.91
586.777	6.13
587.115	5.97
587.454	5.82
587.792	5.8
588.13	6.06
588.469	6.1
588.807	6
589.145	5.88
589.483	5.74
589.821	5.99
590.159	6.08
590.497	5.79
590.835	5.84
591.173	5.94
591.511	6.12
591.849	6.06
592.187	5.88
592.524	5.91
592.862	6.05
593.2	5.88
593.537	5.91
593.875	5.82
594.212	5.85
594.55	6.09
594.887	6.09
595.224	6.15
595.561	5.94
595.899	5.9
596.236	6.08
596.573	5.96
596.91	5.94
597.247	5.69
597.584	6.1
597.921	5.85
598.258	5.99
598.594	5.82
598.931	5.8
599.268	5.87
599.604	6.11
599.941	5.89
600.277	5.88
600.614	5.96
600.95	5.9
601.287	5.84
601.623	6.07
601.959	5.81
602.296	6.08
602.632	6.22
602.968	6.09
603.304	5.93
603.64	5.93
603.976	6.11
604.312	6.1
604.648	6.08
604.984	6.06
605.319	5.99
605.655	6
605.991	6
606.326	5.73
606.662	5.79
606.998	5.98
607.333	5.99
607.668	5.85
608.004	6.04
608.339	5.67
608.674	5.79
609.01	5.8
609.345	6.18
609.68	5.68
610.015	6.03
610.35	6.05
610.685	6.2
611.02	6.16
611.355	5.96
611.689	5.75
612.024	6.13
612.359	5.84
612.694	6.15
613.028	6.25
613.363	6.13
613.697	6.12
614.032	6.15
614.366	5.86
614.7	6.5
615.035	5.93
615.369	6.03
615.703	6.62
616.037	6.02
616.371	5.83
616.705	5.93
617.039	6.3
617.373	5.94
617.707	5.72
618.041	6.01
618.375	5.71
618.709	6.11
619.042	5.76
619.376	6.07
619.71	6.14
620.043	6.02
620.377	6.02
620.71	5.95
621.043	5.84
621.377	5.88
621.71	6.07
622.043	6.36
622.376	6.16
622.709	6.54
623.043	5.92
623.376	6.35
623.709	6.31
624.041	5.73
624.374	6.11
624.707	6.17
625.04	6.13
625.373	6.07
625.705	6.09
626.038	6.21
626.37	5.96
626.703	5.98
627.035	6.09
627.368	6.46
627.7	6.31
628.032	6.23
628.365	5.86
628.697	6.04
629.029	6.36
629.361	6.05
629.693	6.22
630.025	6.19
630.357	6.05
630.689	6.35
631.021	6.14
631.353	6.38
631.684	6.08
632.016	5.65
632.348	6.28
632.679	6.04
633.011	6.21
633.342	6.18
633.674	6.09
634.005	5.67
634.336	5.92
634.668	5.99
634.999	6.21
635.33	6.23
635.661	6.42
635.992	6.31
636.323	6.24
636.654	6.1
636.985	6.04
637.316	6.11
637.647	6.32
637.977	6.1
638.308	5.96
638.639	6.01
638.969	5.94
639.3	5.71
639.63	6.04
639.961	5.7
640.291	6.5
640.622	6.51
640.952	5.85
641.282	5.82
641.612	6
641.943	6.57
642.273	6.23
642.603	6.21
642.933	5.92
643.263	6.27
643.592	6.33
643.922	6.55
644.252	6.31
644.582	6.35
644.911	6.03
645.241	5.97
645.571	5.91
645.9	6.28
646.23	5.83
646.559	6.28
646.888	6.02
647.218	6.38
647.547	6.35
647.876	6.36
648.205	5.82
648.534	6.33
648.863	6.54
649.192	6.33
649.521	6
649.85	6.39
650.179	5.85
650.508	5.91
650.837	6.03
651.165	6.03
651.494	5.9
651.822	5.97
652.151	6.72
652.479	6.71
652.808	5.87
653.136	6.2
653.465	6.63
653.793	6.72
654.121	6.49
654.449	6.58
654.777	6.51
655.105	6.65
655.433	6.29
655.761	6.19
656.089	6.83
656.417	6.48
656.745	7.27
657.073	6.56
657.4	6.02
657.728	6.34
658.056	6.31
658.383	6.49
658.711	5.61
659.038	6.74
659.365	6.12
659.693	6.3
660.02	6.55
660.347	6.47
660.674	6.45
661.001	6.06
661.329	6.11
661.656	6.2
661.982	6.32
662.309	6.28
662.636	6.49
662.963	6.53
663.29	6.12
663.616	6.55
663.943	6.58
664.27	6.38
664.596	6.48
664.923	6.85
665.249	5.98
665.576	6.3
665.902	6.19
666.228	5.83
666.554	6.32
666.881	6.89
667.207	5.8
667.533	6.43
667.859	5.75
668.185	6.83
668.511	6.17
668.837	6.02
669.162	6.54
669.488	6.59
669.814	6.95
670.139	6.96
670.465	6.81
670.791	6.42
671.116	6.12
671.442	6.19
671.767	6.33
672.092	6.8
672.418	6.71
672.743	6.42
673.068	5.51
673.393	6.58
673.718	6.5
674.043	6.13
674.368	6.14
674.693	6.43
675.018	6.26
675.343	6.93
675.667	6.67
675.992	6.22
676.317	6.18
676.641	7.61
676.966	6.63
677.29	6.37
677.615	6.49
677.939	6.17
678.264	6.51
678.588	6.95
678.912	6.87
679.236	6.88
679.56	6.36
679.885	6.77
680.209	5.87
680.532	6.76
680.856	6.72
681.18	6.27
681.504	6.3
681.828	6.21
682.152	6.47
682.475	6.43
682.799	6.85
683.122	6.5
683.446	6.34
683.769	6.67
684.093	6.62
684.416	6.56
684.739	6.83
685.062	7.29
685.386	6.31
685.709	5.87
686.032	6.84
686.355	6.43
686.678	6.53
687.001	6.48
687.324	5.7
687.646	5.99
687.969	6.58
688.292	7.06
688.614	7.23
688.937	6.09
689.26	5.81
689.582	6.43
689.904	6.83
690.227	6.82
690.549	6.46
690.871	6.45
691.194	6.75
691.516	6.35
691.838	6.58
692.16	6.18
