Data from 0072_chest_Reflection__4__258.txt Node

Date: Fri Dec 16 15:56:55 CST 2022
User: ToomeyLab
Spectrometer: FLMS14357
Trigger mode: 0
Integration Time (sec): 1.000000E-2
Scans to average: 100
Electric dark correction enabled: true
Nonlinearity correction enabled: false
Boxcar width: 0
XAxis mode: Wavelengths
Number of Pixels in Spectrum: 2048
>>>>>Begin Spectral Data<<<<<
189.047	7.15
189.435	7.15
189.823	7.15
190.211	24.61
190.599	-73.54
190.987	22.06
191.375	94.04
191.763	178.56
192.151	-19.22
192.538	24.53
192.926	-900
193.314	216.81
193.702	-1161.67
194.089	631.14
194.477	123.92
194.864	150.92
195.252	-1583.76
195.639	91.65
196.027	-65.32
196.414	180.4
196.801	-12.03
197.189	185.64
197.576	-144.4
197.963	-48.76
198.351	33.46
198.738	14.66
199.125	40.01
199.512	9.2
199.899	-47.03
200.286	-74.76
200.673	25.18
201.06	68.61
201.447	25.4
201.833	14.43
202.22	22.65
202.607	-23.72
202.994	74.33
203.38	-21.95
203.767	-4.74
204.154	-10.31
204.54	-5.51
204.927	2.16
205.313	26.13
205.699	10.74
206.086	-6.43
206.472	44.37
206.858	-11.46
207.245	-6.17
207.631	4.67
208.017	16.18
208.403	-15.01
208.789	13.09
209.175	42.56
209.561	-23.78
209.947	-5.41
210.333	-1.17
210.719	1.62
211.105	-21.6
211.491	-7.8
211.876	-3.33
212.262	13.94
212.648	-53.03
213.034	-0.11
213.419	9.85
213.805	5.2
214.19	7.31
214.576	-25.93
214.961	29.22
215.346	-39.47
215.732	-10.61
216.117	8.53
216.502	-33.26
216.888	-30.07
217.273	10.59
217.658	-6.99
218.043	9.46
218.428	7.41
218.813	6.28
219.198	-33.77
219.583	-29.08
219.968	17.05
220.353	6.64
220.738	-14.22
221.122	-2.61
221.507	-5.71
221.892	15.3
222.276	16.49
222.661	-2.8
223.046	5.39
223.43	-5.8
223.815	10.88
224.199	3.77
224.583	-0.89
224.968	2.54
225.352	-4.77
225.736	-1.55
226.121	2.39
226.505	9.1
226.889	11.43
227.273	3.42
227.657	-0.45
228.041	4.23
228.425	3.98
228.809	3.97
229.193	1.46
229.577	4.79
229.961	4.14
230.344	5.47
230.728	4.39
231.112	3.44
231.495	3.74
231.879	5.36
232.263	4.18
232.646	4.51
233.03	3
233.413	5.2
233.797	6.26
234.18	4.72
234.563	2.61
234.946	3.57
235.33	4.86
235.713	3.99
236.096	3.92
236.479	6.76
236.862	5.66
237.245	4.83
237.628	6.02
238.011	6.16
238.394	6.09
238.777	4.66
239.16	4.2
239.543	3.6
239.925	4.84
240.308	6.08
240.691	4.05
241.073	4.57
241.456	4.67
241.838	5.65
242.221	5.49
242.603	5.57
242.986	5.81
243.368	5.37
243.75	5.37
244.133	5.32
244.515	5.09
244.897	5.16
245.279	4.92
245.661	5.62
246.043	4.5
246.425	4.8
246.807	5.63
247.189	4.87
247.571	5.51
247.953	5.16
248.335	5.39
248.717	5.12
249.098	5.62
249.48	4.94
249.862	5.59
250.243	5.27
250.625	4.99
251.006	5.46
251.388	5.53
251.769	5.69
252.151	5.04
252.532	4.79
252.913	5.06
253.295	5.58
253.676	5.48
254.057	5.07
254.438	4.27
254.819	4.91
255.2	4.66
255.581	4.27
255.962	5.91
256.343	6.53
256.724	4.59
257.105	5.01
257.486	4.71
257.867	4.3
258.247	4.34
258.628	5.63
259.009	5.3
259.389	5.59
259.77	4.85
260.15	5.96
260.531	5.3
260.911	5.11
261.292	4.94
261.672	4.9
262.052	4.56
262.432	4.77
262.813	4.95
263.193	4.77
263.573	5.06
263.953	4.91
264.333	5.3
264.713	5.09
265.093	4.65
265.473	5.54
265.853	5.29
266.233	3.81
266.612	5.05
266.992	5.29
267.372	4.92
267.752	4.88
268.131	4.8
268.511	5.23
268.89	5.09
269.27	4.54
269.649	5.35
270.029	4.6
270.408	4.47
270.787	4.95
271.167	5.3
271.546	5.03
271.925	5
272.304	4.95
272.683	4.61
273.062	5.04
273.441	4.68
273.82	4.63
274.199	4.89
274.578	4.7
274.957	4.87
275.336	5.24
275.715	4.93
276.093	5.29
276.472	4.42
276.851	5.07
277.229	5.33
277.608	4.71
277.986	5.29
278.365	4.25
278.743	4.46
279.122	4.69
279.5	4.74
279.878	4.15
280.257	5.31
280.635	4.54
281.013	5.13
281.391	4.21
281.769	4.63
282.147	5.19
282.525	4.63
282.903	4.57
283.281	5.03
283.659	4.9
284.037	4.87
284.415	4.63
284.792	4.91
285.17	4.52
285.548	4.28
285.925	4.75
286.303	4.94
286.68	5.15
287.058	4.95
287.435	4.54
287.813	4.75
288.19	5.14
288.567	4.43
288.945	5.2
289.322	4.74
289.699	5.2
290.076	5.24
290.453	4.46
290.83	4.96
291.207	4.88
291.584	4.5
291.961	4.66
292.338	4.89
292.715	5.2
293.092	5.03
293.469	5.25
293.845	4.99
294.222	5.21
294.599	5.33
294.975	5.66
295.352	5.02
295.728	5.64
296.105	5.28
296.481	5.51
296.858	5.64
297.234	5.44
297.61	5.49
297.986	5.06
298.363	4.9
298.739	5.46
299.115	4.95
299.491	5.35
299.867	5.21
300.243	5.24
300.619	5.15
300.995	5.53
301.371	5.48
301.746	5.2
302.122	5.41
302.498	5.58
302.874	5.38
303.249	5.94
303.625	5.8
304	5.04
304.376	5.52
304.751	5.43
305.127	5.17
305.502	5.58
305.878	5.27
306.253	5.3
306.628	5.78
307.003	5.74
307.378	5.07
307.754	5.36
308.129	4.83
308.504	5.58
308.879	5.92
309.254	5.86
309.629	5.3
310.003	5.84
310.378	5.6
310.753	5.72
311.128	5.52
311.502	5.41
311.877	5.55
312.252	5.13
312.626	5.71
313.001	5.59
313.375	5.86
313.75	5.58
314.124	5.64
314.498	5.82
314.873	5.53
315.247	5.52
315.621	5.99
315.995	5.4
316.369	6.02
316.743	5.88
317.117	5.58
317.491	5.71
317.865	5.42
318.239	6.12
318.613	5.73
318.987	5.75
319.361	5.96
319.734	6.14
320.108	6.22
320.482	5.86
320.855	5.4
321.229	6.25
321.602	5.44
321.976	5.17
322.349	4.98
322.723	5.71
323.096	5.5
323.469	5.12
323.843	5.38
324.216	5.46
324.589	6.18
324.962	5.58
325.335	5.49
325.708	5.95
326.081	6.06
326.454	5.57
326.827	5.98
327.2	6.06
327.573	5.86
327.945	5.88
328.318	5.91
328.691	5.65
329.063	5.79
329.436	5.63
329.809	5.39
330.181	5.84
330.553	6.26
330.926	6.08
331.298	5.54
331.671	6.14
332.043	5.54
332.415	5.84
332.787	6.46
333.159	5.89
333.532	5.67
333.904	5.95
334.276	5.9
334.648	6.17
335.02	5.89
335.391	6.21
335.763	6.12
336.135	5.74
336.507	5.88
336.879	5.57
337.25	6.14
337.622	5.92
337.993	6.09
338.365	6.82
338.736	6.05
339.108	5.45
339.479	5.71
339.851	6.62
340.222	6
340.593	5.59
340.964	5.78
341.336	5.41
341.707	5.73
342.078	5.67
342.449	6.27
342.82	5.76
343.191	5.64
343.562	5.95
343.933	6.2
344.303	5.93
344.674	5.88
345.045	6.38
345.416	5.96
345.786	5.72
346.157	5.99
346.527	5.65
346.898	5.84
347.268	6.11
347.639	6.24
348.009	6.47
348.38	5.96
348.75	5.93
349.12	5.93
349.49	5.66
349.861	6.21
350.231	6.65
350.601	5.91
350.971	5.89
351.341	6.19
351.711	5.89
352.081	6.22
352.45	6.21
352.82	6.15
353.19	5.92
353.56	6.03
353.929	5.98
354.299	5.99
354.669	6.28
355.038	6.03
355.408	6.29
355.777	5.79
356.147	6.11
356.516	6.63
356.885	5.85
357.254	6.44
357.624	6.33
357.993	6.54
358.362	6.22
358.731	5.95
359.1	6.09
359.469	6.06
359.838	5.79
360.207	6.05
360.576	6.11
360.945	6.01
361.314	6.33
361.682	6.09
362.051	5.96
362.42	6.33
362.788	6.46
363.157	6.07
363.525	6.22
363.894	5.93
364.262	6
364.631	6.95
364.999	6.24
365.367	6.62
365.735	5.98
366.104	5.95
366.472	6.5
366.84	6.34
367.208	5.93
367.576	6.11
367.944	6.38
368.312	5.96
368.68	6.42
369.048	6.16
369.416	6.07
369.783	6.18
370.151	6.57
370.519	6.3
370.886	6.17
371.254	6.45
371.621	6.62
371.989	6.39
372.356	6.41
372.724	6.46
373.091	6.17
373.458	6.06
373.826	6.11
374.193	6.43
374.56	5.93
374.927	6.47
375.294	6.81
375.661	6.45
376.028	6.65
376.395	6.13
376.762	6.38
377.129	6.58
377.496	6.6
377.863	6.38
378.229	6.22
378.596	6.27
378.963	6.46
379.329	6.31
379.696	6.16
380.062	6.62
380.429	6.34
380.795	6.27
381.161	6.3
381.528	5.85
381.894	6.52
382.26	6.33
382.626	6.21
382.993	6.31
383.359	6.23
383.725	6.49
384.091	6.45
384.457	6.65
384.823	6.48
385.188	6.56
385.554	6.5
385.92	6.75
386.286	6.41
386.651	6.41
387.017	6.57
387.383	6.6
387.748	6.26
388.114	6.47
388.479	6.31
388.845	6.63
389.21	6.6
389.575	6.52
389.94	6.67
390.306	6.73
390.671	6.6
391.036	6.54
391.401	6.84
391.766	6.85
392.131	6.58
392.496	6.37
392.861	6.41
393.226	6.3
393.591	6.56
393.956	6.35
394.32	6.4
394.685	6.66
395.05	6.42
395.414	6.66
395.779	6.42
396.143	6.72
396.508	6.63
396.872	6.47
397.236	6.15
397.601	6.71
397.965	6.41
398.329	6.9
398.694	6.27
399.058	6.6
399.422	6.65
399.786	6.45
400.15	6.44
400.514	6.53
400.878	6.5
401.242	6.63
401.605	6.56
401.969	7.02
402.333	6.63
402.697	6.83
403.06	6.89
403.424	6.5
403.787	7.02
404.151	6.62
404.514	6.66
404.878	6.77
405.241	6.8
405.604	6.69
405.968	6.74
406.331	6.75
406.694	6.78
407.057	6.99
407.42	6.52
407.783	6.81
408.146	6.65
408.509	6.53
408.872	6.6
409.235	6.81
409.598	6.94
409.961	6.9
410.323	6.81
410.686	6.52
411.049	6.62
411.411	6.72
411.774	6.67
412.136	6.93
412.499	6.67
412.861	6.42
413.223	6.91
413.586	6.45
413.948	6.79
414.31	6.67
414.672	6.85
415.035	6.86
415.397	7.03
415.759	6.81
416.121	6.97
416.483	7
416.845	6.86
417.206	7.05
417.568	6.96
417.93	6.69
418.292	6.52
418.653	6.84
419.015	6.98
419.377	6.85
419.738	6.76
420.1	6.74
420.461	6.73
420.822	6.7
421.184	6.76
421.545	6.76
421.906	6.69
422.267	6.7
422.629	6.81
422.99	6.77
423.351	6.72
423.712	6.85
424.073	6.82
424.434	6.74
424.795	6.64
425.155	6.69
425.516	6.69
425.877	6.69
426.238	6.64
426.598	6.9
426.959	6.74
427.32	6.81
427.68	6.88
428.041	6.88
428.401	6.84
428.761	6.88
429.122	6.78
429.482	6.82
429.842	6.87
430.202	6.78
430.563	6.9
430.923	6.96
431.283	7
431.643	7.03
432.003	7.05
432.363	7.13
432.722	6.85
433.082	6.98
433.442	6.94
433.802	7.06
434.161	6.76
434.521	6.98
434.881	7.02
435.24	6.9
435.6	6.95
435.959	7.08
436.319	6.98
436.678	7.04
437.037	7.01
437.396	7.1
437.756	6.99
438.115	7.04
438.474	7.2
438.833	7.21
439.192	7.29
439.551	7.08
439.91	7.19
440.269	7.34
440.628	7.15
440.987	6.95
441.345	7.11
441.704	7.01
442.063	7.01
442.421	7.22
442.78	6.95
443.138	7.06
443.497	7.01
443.855	6.97
444.214	7.26
444.572	6.99
444.93	7.21
445.288	7.16
445.647	7.23
446.005	7.13
446.363	7.03
446.721	7.01
447.079	7.1
447.437	7.11
447.795	7.11
448.153	7.11
448.51	7.05
448.868	7.19
449.226	7.13
449.584	7.14
449.941	7.18
450.299	7.23
450.656	7.29
451.014	7.11
451.371	7.26
451.729	7.22
452.086	7.1
452.443	7.18
452.801	7.35
453.158	7.27
453.515	7.14
453.872	7.38
454.229	7.13
454.586	7.23
454.943	7.27
455.3	7.39
455.657	7.2
456.014	7.34
456.371	7.35
456.727	7.43
457.084	7.35
457.441	7.37
457.797	7.39
458.154	7.32
458.51	7.23
458.867	7.26
459.223	7.35
459.58	7.26
459.936	7.39
460.292	7.36
460.648	7.19
461.005	7.16
461.361	7.32
461.717	7.28
462.073	7.35
462.429	7.48
462.785	7.41
463.141	7.45
463.496	7.37
463.852	7.69
464.208	7.43
464.564	7.34
464.919	7.29
465.275	7.25
465.631	7.51
465.986	7.37
466.342	7.51
466.697	7.48
467.052	7.49
467.408	7.39
467.763	7.3
468.118	7.54
468.473	7.66
468.829	7.6
469.184	7.66
469.539	7.25
469.894	7.7
470.249	7.73
470.603	7.61
470.958	7.69
471.313	7.5
471.668	7.6
472.023	7.8
472.377	7.5
472.732	7.65
473.086	7.56
473.441	7.52
473.795	7.85
474.15	7.67
474.504	7.65
474.859	7.59
475.213	7.66
475.567	7.59
475.921	7.98
476.275	7.68
476.63	7.76
476.984	7.57
477.338	7.9
477.692	7.61
478.045	7.66
478.399	7.71
478.753	7.58
479.107	7.59
479.461	7.69
479.814	7.74
480.168	7.68
480.521	7.66
480.875	7.85
481.228	7.78
481.582	7.64
481.935	7.66
482.289	7.67
482.642	7.85
482.995	7.67
483.348	7.77
483.701	7.71
484.055	7.66
484.408	7.58
484.761	7.4
485.114	7.28
485.466	7.31
485.819	7.37
486.172	7.41
486.525	7.46
486.878	7.56
487.23	7.63
487.583	7.57
487.936	7.64
488.288	7.57
488.641	7.49
488.993	7.47
489.345	7.45
489.698	7.58
490.05	7.55
490.402	7.69
490.754	7.73
491.107	7.67
491.459	7.82
491.811	7.86
492.163	7.8
492.515	7.67
492.866	7.58
493.218	7.61
493.57	7.69
493.922	7.72
494.274	7.85
494.625	7.79
494.977	7.8
495.328	7.94
495.68	8.08
496.031	7.98
496.383	7.82
496.734	8.04
497.086	7.8
497.437	8.04
497.788	7.88
498.139	7.97
498.49	8.05
498.842	7.86
499.193	7.95
499.544	8.12
499.894	8.01
500.245	8.07
500.596	8.01
500.947	7.95
501.298	8.03
501.648	8.02
501.999	8.24
502.35	8.14
502.7	8.13
503.051	8.33
503.401	8.21
503.752	8.07
504.102	8.09
504.452	8.14
504.803	8.06
505.153	8.16
505.503	8.11
505.853	8.2
506.203	8.22
506.553	8.09
506.903	8.25
507.253	8.25
507.603	8.3
507.953	8.12
508.303	8.24
508.652	8.27
509.002	8.26
509.352	8.18
509.701	8.31
510.051	8.22
510.4	8.19
510.75	8.18
511.099	8.16
511.449	8.2
511.798	8.4
512.147	8.29
512.496	8.37
512.846	8.26
513.195	8.27
513.544	8.33
513.893	8.28
514.242	8.45
514.591	8.32
514.939	8.22
515.288	8.49
515.637	8.46
515.986	8.31
516.334	8.44
516.683	8.33
517.032	8.37
517.38	8.28
517.729	8.4
518.077	8.49
518.426	8.36
518.774	8.47
519.122	8.44
519.47	8.44
519.819	8.23
520.167	8.37
520.515	8.33
520.863	8.36
521.211	8.36
521.559	8.36
521.907	8.43
522.255	8.55
522.602	8.56
522.95	8.55
523.298	8.59
523.645	8.59
523.993	8.67
524.341	8.47
524.688	8.59
525.036	8.58
525.383	8.7
525.73	8.59
526.078	8.66
526.425	8.55
526.772	8.36
527.119	8.48
527.466	8.49
527.814	8.51
528.161	8.58
528.508	8.45
528.854	8.49
529.201	8.45
529.548	8.31
529.895	8.31
530.242	8.31
530.588	8.38
530.935	8.42
531.282	8.45
531.628	8.55
531.975	8.63
532.321	8.68
532.667	8.59
533.014	8.73
533.36	8.56
533.706	8.71
534.052	8.6
534.399	8.57
534.745	8.5
535.091	8.64
535.437	8.76
535.783	8.77
536.129	8.79
536.474	8.86
536.82	8.87
537.166	8.86
537.512	8.89
537.857	8.81
538.203	8.77
538.549	8.84
538.894	8.92
539.239	9.03
539.585	9.07
539.93	9.13
540.276	9.11
540.621	9.04
540.966	9.07
541.311	9
541.656	8.92
542.001	8.99
542.346	8.8
542.691	8.74
543.036	8.8
543.381	8.81
543.726	8.94
544.071	9.01
544.415	9.01
544.76	8.97
545.105	8.98
545.449	9.07
545.794	9.09
546.138	9.19
546.483	9.2
546.827	9.24
547.171	9.17
547.516	9.27
547.86	9.29
548.204	9.18
548.548	9.34
548.892	9.32
549.236	9.4
549.58	9.39
549.924	9.41
550.268	9.47
550.612	9.53
550.956	9.43
551.3	9.5
551.643	9.46
551.987	9.45
552.33	9.46
552.674	9.51
553.017	9.36
553.361	9.52
553.704	9.59
554.048	9.58
554.391	9.42
554.734	9.49
555.077	9.63
555.42	9.66
555.764	9.48
556.107	9.58
556.45	9.64
556.793	9.9
557.135	9.9
557.478	9.7
557.821	9.63
558.164	9.69
558.507	9.63
558.849	9.71
559.192	9.83
559.534	9.8
559.877	9.85
560.219	9.97
560.562	9.86
560.904	9.84
561.246	10.1
561.589	10
561.931	10.15
562.273	9.97
562.615	10.01
562.957	9.89
563.299	10.11
563.641	10.09
563.983	9.89
564.325	9.83
564.667	9.96
565.008	9.87
565.35	10.16
565.692	10.16
566.033	10.1
566.375	10.03
566.716	10.09
567.058	10.21
567.399	10.11
567.741	10.23
568.082	10.16
568.423	10.19
568.764	10.19
569.105	10.23
569.447	10.24
569.788	10.33
570.129	10.1
570.47	10.29
570.811	10.34
571.151	10.27
571.492	10.44
571.833	10.37
572.174	10.16
572.514	10.43
572.855	10.45
573.195	10.22
573.536	10.37
573.876	10.48
574.217	10.43
574.557	10.53
574.898	10.35
575.238	10.31
575.578	10.71
575.918	10.43
576.258	10.59
576.598	10.55
576.938	10.6
577.278	10.46
577.618	10.44
577.958	10.51
578.298	10.68
578.638	10.53
578.977	10.75
579.317	10.86
579.657	10.61
579.996	10.65
580.336	10.57
580.675	10.86
581.014	10.74
581.354	10.9
581.693	10.73
582.032	10.62
582.372	10.82
582.711	10.9
583.05	11.14
583.389	11
583.728	11.02
584.067	10.74
584.406	11.01
584.745	11.05
585.083	11.42
585.422	10.81
585.761	11.27
586.1	11.27
586.438	11.21
586.777	11.29
587.115	11.17
587.454	11.09
587.792	11.06
588.13	11.1
588.469	11
588.807	11.42
589.145	11.22
589.483	10.95
589.821	11.38
590.159	11.02
590.497	11.01
590.835	11.3
591.173	11.2
591.511	11.35
591.849	11.61
592.187	11.47
592.524	11.31
592.862	11.37
593.2	11.39
593.537	11.25
593.875	11.21
594.212	11.23
594.55	11.66
594.887	11.63
595.224	11.27
595.561	11.23
595.899	11.42
596.236	11.61
596.573	11.31
596.91	11.56
597.247	11.4
597.584	11.72
597.921	11.7
598.258	11.54
598.594	11.6
598.931	11.56
599.268	11.48
599.604	11.8
599.941	11.65
600.277	11.79
600.614	11.74
600.95	11.68
601.287	11.95
601.623	11.75
601.959	11.87
602.296	12.07
602.632	11.93
602.968	11.68
603.304	11.82
603.64	12.1
603.976	11.83
604.312	11.97
604.648	12
604.984	12.02
605.319	11.89
605.655	11.92
605.991	11.99
606.326	11.99
606.662	11.84
606.998	12.1
607.333	11.92
607.668	12.21
608.004	12.02
608.339	11.95
608.674	12.15
609.01	12.26
609.345	12.33
609.68	12.05
610.015	12.39
610.35	12.19
610.685	12.43
611.02	12.53
611.355	12.33
611.689	12.06
612.024	12.4
612.359	12.48
612.694	12.52
613.028	12.5
613.363	12.21
613.697	12.51
614.032	12.51
614.366	12.37
614.7	12.82
615.035	12.36
615.369	12.62
615.703	12.74
616.037	12.91
616.371	12.71
616.705	12.45
617.039	12.93
617.373	12.75
617.707	12.68
618.041	12.67
618.375	12.61
618.709	13.19
619.042	12.82
619.376	12.83
619.71	12.84
620.043	12.78
620.377	12.87
620.71	13.21
621.043	12.67
621.377	12.88
621.71	13
622.043	12.96
622.376	12.75
622.709	13.44
623.043	13.04
623.376	12.95
623.709	13.27
624.041	13.12
624.374	13.01
624.707	13.08
625.04	13.48
625.373	12.99
625.705	13.37
626.038	13.04
626.37	13.3
626.703	13.2
627.035	13.08
627.368	13.31
627.7	13.3
628.032	13.37
628.365	13.4
628.697	13.39
629.029	13.43
629.361	13.57
629.693	13.64
630.025	13.23
630.357	13.2
630.689	13.6
631.021	13.52
631.353	13.61
631.684	13.75
632.016	13.58
632.348	13.86
632.679	13.52
633.011	13.58
633.342	13.45
633.674	13.71
634.005	13.77
634.336	14.18
634.668	13.68
634.999	13.68
635.33	13.69
635.661	13.71
635.992	13.62
636.323	13.95
636.654	13.78
636.985	13.8
637.316	13.88
637.647	14.07
637.977	13.9
638.308	13.77
638.639	13.96
638.969	13.92
639.3	14.12
639.63	13.88
639.961	14.05
640.291	14.56
640.622	14.27
640.952	14.53
641.282	13.92
641.612	14.17
641.943	13.74
642.273	14.28
642.603	14.33
642.933	14.33
643.263	14.73
643.592	14.39
643.922	14.49
644.252	14.06
644.582	14.76
644.911	13.97
645.241	14.1
645.571	14.2
645.9	14.86
646.23	14.48
646.559	14.54
646.888	14.92
647.218	14.92
647.547	14.51
647.876	14.99
648.205	14.32
648.534	14.65
648.863	14.68
649.192	14.66
649.521	14.13
649.85	14.88
650.179	14.59
650.508	14.6
650.837	14.66
651.165	14.62
651.494	15.01
651.822	14.76
652.151	15.1
652.479	15.17
652.808	14.68
653.136	15.01
653.465	14.96
653.793	15.34
654.121	15.52
654.449	15.14
654.777	14.86
655.105	15.52
655.433	15.63
655.761	14.56
656.089	15.45
656.417	14.68
656.745	15.79
657.073	15.45
657.4	14.98
657.728	14.84
658.056	15.34
658.383	15.36
658.711	15.37
659.038	15.27
659.365	15.34
659.693	15.38
660.02	15.08
660.347	15.51
660.674	14.82
661.001	14.69
661.329	15.55
661.656	15.35
661.982	15.81
662.309	15.52
662.636	15.97
662.963	15.95
663.29	16.12
663.616	15.78
663.943	15.54
664.27	16.03
664.596	15.5
664.923	16.09
665.249	15.78
665.576	15.78
665.902	15.27
666.228	15.38
666.554	14.99
666.881	16.07
667.207	15.05
667.533	15.96
667.859	15.8
668.185	16.23
668.511	15.27
668.837	16.02
669.162	15.83
669.488	15.91
669.814	16.12
670.139	16.5
670.465	16.37
670.791	16.15
671.116	15.9
671.442	16.01
671.767	16.16
672.092	16.51
672.418	16.01
672.743	15.98
673.068	16.11
673.393	16.58
673.718	16.21
674.043	16.03
674.368	16.4
674.693	16.22
675.018	16.65
675.343	16.93
675.667	16.56
675.992	16.17
676.317	16.57
676.641	16.36
676.966	17.28
677.29	17
677.615	16.27
677.939	16.66
678.264	16.44
678.588	16.69
678.912	16.78
679.236	16.96
679.56	16.26
679.885	16.63
680.209	16.64
680.532	16.61
680.856	16.87
681.18	16.73
681.504	16.14
681.828	16.52
682.152	16.82
682.475	17.18
682.799	17.14
683.122	16.75
683.446	16.54
683.769	17.33
684.093	17.18
684.416	17.23
