Data from 0072_chest_Reflection__1__255.txt Node

Date: Fri Dec 16 15:56:19 CST 2022
User: ToomeyLab
Spectrometer: FLMS14357
Trigger mode: 0
Integration Time (sec): 1.000000E-2
Scans to average: 100
Electric dark correction enabled: true
Nonlinearity correction enabled: false
Boxcar width: 0
XAxis mode: Wavelengths
Number of Pixels in Spectrum: 2048
>>>>>Begin Spectral Data<<<<<
189.047	119.16
189.435	119.16
189.823	119.16
190.211	-82.67
190.599	-508.03
190.987	-91.54
191.375	227.23
191.763	54.82
192.151	-6.87
192.538	-54.6
192.926	-16236.36
193.314	138.68
193.702	-680.41
194.089	884.56
194.477	2.85
194.864	77.09
195.252	4165.81
195.639	124.03
196.027	-38.99
196.414	371.67
196.801	-115.28
197.189	75.47
197.576	57.59
197.963	31.04
198.351	12.34
198.738	-12.36
199.125	42.5
199.512	-8.78
199.899	-55.27
200.286	-19.95
200.673	26.31
201.06	42.4
201.447	51.29
201.833	-12.03
202.22	12.33
202.607	-30.07
202.994	-3.87
203.38	-14.18
203.767	25.99
204.154	-7.49
204.54	42.88
204.927	-3.8
205.313	35.77
205.699	8.85
206.086	-28.45
206.472	-39.67
206.858	-1.06
207.245	18.25
207.631	-38.03
208.017	1.52
208.403	10.33
208.789	-14.91
209.175	53.84
209.561	20.31
209.947	13.46
210.333	26.63
210.719	0.99
211.105	-51.02
211.491	-2.86
211.876	8.9
212.262	30.94
212.648	5.28
213.034	16.93
213.419	27.9
213.805	12.08
214.19	23.24
214.576	-18.06
214.961	31.63
215.346	-24.89
215.732	7.7
216.117	17.56
216.502	-37.8
216.888	-0.8
217.273	34.27
217.658	-8.32
218.043	13.89
218.428	-11.2
218.813	-4.95
219.198	-25.88
219.583	-3.29
219.968	-13
220.353	6.67
220.738	-14.52
221.122	1.37
221.507	7.21
221.892	0.41
222.276	6.94
222.661	4.3
223.046	16.73
223.43	-3.73
223.815	7.02
224.199	4.56
224.583	0.92
224.968	9.59
225.352	3.81
225.736	3.13
226.121	0.11
226.505	-0.99
226.889	8.94
227.273	5.03
227.657	4.08
228.041	6.43
228.425	3.82
228.809	4.31
229.193	4.07
229.577	4.1
229.961	3.97
230.344	5.27
230.728	4.22
231.112	3.53
231.495	3.8
231.879	4.46
232.263	3.4
232.646	3.37
233.03	2.48
233.413	3.99
233.797	4.61
234.18	0.96
234.563	3.54
234.946	3.13
235.33	5.22
235.713	3.88
236.096	4.59
236.479	4.28
236.862	4.42
237.245	4.44
237.628	5.57
238.011	4.63
238.394	7.44
238.777	4.8
239.16	3.18
239.543	3.53
239.925	6.33
240.308	4.7
240.691	3.35
241.073	4.72
241.456	4.01
241.838	3.78
242.221	4.75
242.603	4.46
242.986	5.21
243.368	4.37
243.75	4.71
244.133	4.37
244.515	5.23
244.897	4.64
245.279	3.89
245.661	4.42
246.043	4.61
246.425	4.41
246.807	3.62
247.189	3.87
247.571	4.58
247.953	4.16
248.335	4.8
248.717	4.46
249.098	4.93
249.48	4.05
249.862	4.72
250.243	4.9
250.625	4.28
251.006	4.62
251.388	4.93
251.769	3.97
252.151	3.76
252.532	4.67
252.913	4.8
253.295	4.38
253.676	4.88
254.057	3.7
254.438	3.79
254.819	4.7
255.2	3.9
255.581	3.7
255.962	4.22
256.343	4.01
256.724	4.44
257.105	5.22
257.486	4.66
257.867	3.42
258.247	4.72
258.628	4.18
259.009	4.85
259.389	4.5
259.77	4.09
260.15	5.11
260.531	4.55
260.911	4.26
261.292	4.32
261.672	4.23
262.052	4.19
262.432	3.97
262.813	4.46
263.193	3.78
263.573	4.23
263.953	4
264.333	3.95
264.713	3.82
265.093	3.41
265.473	4.9
265.853	4.45
266.233	3.81
266.612	4.63
266.992	3.89
267.372	3.67
267.752	3.55
268.131	4.57
268.511	4.16
268.89	4.63
269.27	4.37
269.649	4.13
270.029	4.24
270.408	4.26
270.787	3.67
271.167	4.46
271.546	3.68
271.925	4.14
272.304	4.23
272.683	4.62
273.062	4.43
273.441	4.49
273.82	4.2
274.199	4.31
274.578	3.96
274.957	4.85
275.336	4.24
275.715	4.48
276.093	4.74
276.472	3.91
276.851	3.96
277.229	4.52
277.608	3.88
277.986	4.33
278.365	4.03
278.743	3.84
279.122	3.77
279.5	3.6
279.878	3.05
280.257	4.07
280.635	3.89
281.013	4.41
281.391	4.33
281.769	4.06
282.147	4.01
282.525	4.32
282.903	4.16
283.281	3.95
283.659	4.17
284.037	3.66
284.415	4.46
284.792	3.9
285.17	4.17
285.548	4.06
285.925	3.81
286.303	3.92
286.68	4.23
287.058	4.17
287.435	3.67
287.813	4.25
288.19	4.5
288.567	3.48
288.945	3.48
289.322	3.91
289.699	3.86
290.076	4.51
290.453	3.68
290.83	4.13
291.207	3.8
291.584	3.99
291.961	4.64
292.338	4.26
292.715	4.26
293.092	3.86
293.469	4.02
293.845	4.1
294.222	4.16
294.599	4.44
294.975	4.51
295.352	4.03
295.728	4.29
296.105	4.42
296.481	4.6
296.858	4.42
297.234	4.25
297.61	4.53
297.986	4.46
298.363	3.66
298.739	4.48
299.115	4.32
299.491	4.21
299.867	4.26
300.243	4.32
300.619	4.38
300.995	4.59
301.371	4.45
301.746	4.31
302.122	4.26
302.498	4.22
302.874	4.52
303.249	4.52
303.625	3.93
304	3.97
304.376	4.32
304.751	4.5
305.127	4.36
305.502	4.52
305.878	4.32
306.253	3.98
306.628	4.83
307.003	4.32
307.378	4.64
307.754	4.72
308.129	3.99
308.504	4.71
308.879	4.41
309.254	4.43
309.629	4.28
310.003	4.89
310.378	4.64
310.753	4.72
311.128	4.77
311.502	4.34
311.877	4.86
312.252	4.21
312.626	4.21
313.001	4.55
313.375	4.4
313.75	4.17
314.124	4.59
314.498	4.55
314.873	4.62
315.247	4.53
315.621	5.08
315.995	4.42
316.369	4.61
316.743	4.89
317.117	4.53
317.491	4.5
317.865	4.39
318.239	5.27
318.613	4.15
318.987	5.17
319.361	4.04
319.734	5
320.108	4.43
320.482	4.36
320.855	4.54
321.229	4.87
321.602	4.43
321.976	4.54
322.349	3.85
322.723	4.46
323.096	4.08
323.469	3.99
323.843	4.64
324.216	4.22
324.589	5.17
324.962	4.34
325.335	4.43
325.708	4.71
326.081	4.94
326.454	4.87
326.827	4.79
327.2	5.56
327.573	4.76
327.945	4.67
328.318	4.74
328.691	4.47
329.063	4.75
329.436	4.54
329.809	4.43
330.181	4.47
330.553	5.06
330.926	4.66
331.298	4.42
331.671	4.74
332.043	4.86
332.415	5.3
332.787	5.11
333.159	4.49
333.532	4.88
333.904	4.62
334.276	4.74
334.648	5.15
335.02	4.63
335.391	5.02
335.763	4.61
336.135	4.69
336.507	4.73
336.879	4.63
337.25	5
337.622	5.23
337.993	5.24
338.365	5.14
338.736	4.87
339.108	4.58
339.479	4.65
339.851	5.49
340.222	4.53
340.593	4.92
340.964	4.79
341.336	3.93
341.707	4.81
342.078	4.1
342.449	4.94
342.82	4.64
343.191	4.62
343.562	4.58
343.933	4.39
344.303	5.12
344.674	4.51
345.045	5.4
345.416	4.72
345.786	4.6
346.157	4.97
346.527	4.26
346.898	4.82
347.268	4.96
347.639	5.05
348.009	4.92
348.38	4.73
348.75	4.87
349.12	4.81
349.49	4.47
349.861	5.18
350.231	4.93
350.601	4.81
350.971	4.93
351.341	4.85
351.711	4.85
352.081	5
352.45	4.82
352.82	4.83
353.19	4.65
353.56	4.6
353.929	4.56
354.299	4.5
354.669	5.04
355.038	4.92
355.408	5.43
355.777	4.75
356.147	5.09
356.516	5.03
356.885	4.71
357.254	5.16
357.624	4.94
357.993	4.69
358.362	4.93
358.731	4.73
359.1	5.01
359.469	4.97
359.838	4.62
360.207	4.5
360.576	5.15
360.945	4.63
361.314	5.17
361.682	4.63
362.051	4.77
362.42	5.12
362.788	5.12
363.157	4.8
363.525	4.71
363.894	4.7
364.262	4.61
364.631	5.69
364.999	4.76
365.367	5.06
365.735	4.65
366.104	4.55
366.472	4.87
366.84	5.05
367.208	4.8
367.576	4.92
367.944	5.24
368.312	4.72
368.68	5.31
369.048	5.06
369.416	5
369.783	5.21
370.151	4.99
370.519	4.96
370.886	4.97
371.254	4.9
371.621	5.07
371.989	5.02
372.356	5.35
372.724	5.12
373.091	5.06
373.458	4.94
373.826	4.84
374.193	5.25
374.56	5.04
374.927	4.86
375.294	5.11
375.661	4.99
376.028	5.03
376.395	4.97
376.762	5.27
377.129	4.99
377.496	4.9
377.863	5.14
378.229	4.82
378.596	5.17
378.963	4.85
379.329	5.23
379.696	5.33
380.062	5.42
380.429	5.12
380.795	5.04
381.161	5.06
381.528	4.73
381.894	5.51
382.26	5.02
382.626	4.82
382.993	4.92
383.359	5.17
383.725	5.46
384.091	5.31
384.457	5.35
384.823	5.39
385.188	5.27
385.554	5.2
385.92	5.12
386.286	5.36
386.651	5.21
387.017	5.25
387.383	5.37
387.748	4.98
388.114	5.49
388.479	5.23
388.845	5.33
389.21	5.24
389.575	5.55
389.94	5.21
390.306	5.22
390.671	5.22
391.036	5.37
391.401	5.68
391.766	5.44
392.131	5.17
392.496	5.33
392.861	5.1
393.226	5.19
393.591	5.25
393.956	5.41
394.32	5.22
394.685	5.27
395.05	5.06
395.414	5.26
395.779	5.27
396.143	5.51
396.508	5.35
396.872	5.36
397.236	5.14
397.601	5.38
397.965	5.14
398.329	5.56
398.694	5.06
399.058	5.3
399.422	5.43
399.786	5.34
400.15	5.09
400.514	5.35
400.878	5.52
401.242	5.36
401.605	5.25
401.969	5.35
402.333	5.39
402.697	5.29
403.06	5.49
403.424	5.25
403.787	5.54
404.151	5.19
404.514	5.3
404.878	5.49
405.241	5.4
405.604	5.3
405.968	5.26
406.331	5.54
406.694	5.48
407.057	5.56
407.42	5.43
407.783	5.36
408.146	5.37
408.509	5.35
408.872	5.16
409.235	5.44
409.598	5.58
409.961	5.37
410.323	5.19
410.686	5.48
411.049	5.44
411.411	5.38
411.774	5.2
412.136	5.61
412.499	5.56
412.861	5.28
413.223	5.52
413.586	5.39
413.948	5.51
414.31	5.55
414.672	5.52
415.035	5.53
415.397	5.39
415.759	5.37
416.121	5.63
416.483	5.52
416.845	5.59
417.206	5.5
417.568	5.49
417.93	5.44
418.292	5.67
418.653	5.46
419.015	5.47
419.377	5.31
419.738	5.26
420.1	5.47
420.461	5.29
420.822	5.43
421.184	5.43
421.545	5.41
421.906	5.38
422.267	5.22
422.629	5.3
422.99	5.37
423.351	5.59
423.712	5.42
424.073	5.4
424.434	5.28
424.795	5.37
425.155	5.4
425.516	5.34
425.877	5.43
426.238	5.31
426.598	5.5
426.959	5.35
427.32	5.48
427.68	5.62
428.041	5.56
428.401	5.54
428.761	5.62
429.122	5.32
429.482	5.48
429.842	5.66
430.202	5.65
430.563	5.68
430.923	5.53
431.283	5.72
431.643	5.57
432.003	5.79
432.363	5.7
432.722	5.59
433.082	5.74
433.442	5.61
433.802	5.69
434.161	5.54
434.521	5.55
434.881	5.63
435.24	5.61
435.6	5.56
435.959	5.72
436.319	5.64
436.678	5.82
437.037	5.66
437.396	5.63
437.756	5.68
438.115	5.84
438.474	5.64
438.833	5.68
439.192	5.81
439.551	5.65
439.91	5.64
440.269	5.85
440.628	5.72
440.987	5.64
441.345	5.7
441.704	5.8
442.063	5.58
442.421	5.67
442.78	5.56
443.138	5.64
443.497	5.59
443.855	5.68
444.214	5.75
444.572	5.79
444.93	5.9
445.288	5.67
445.647	5.74
446.005	5.73
446.363	5.79
446.721	5.61
447.079	5.74
447.437	5.72
447.795	5.6
448.153	5.71
448.51	5.76
448.868	5.82
449.226	5.75
449.584	5.71
449.941	5.93
450.299	5.85
450.656	5.83
451.014	5.87
451.371	5.87
451.729	5.87
452.086	5.65
452.443	5.82
452.801	5.85
453.158	5.71
453.515	5.8
453.872	6.05
454.229	5.73
454.586	6
454.943	5.96
455.3	6.1
455.657	5.92
456.014	6.02
456.371	5.95
456.727	5.85
457.084	6
457.441	5.92
457.797	6.02
458.154	6.03
458.51	6.07
458.867	5.9
459.223	6.04
459.58	5.92
459.936	5.77
460.292	5.93
460.648	5.79
461.005	5.91
461.361	5.8
461.717	5.95
462.073	5.95
462.429	5.97
462.785	6.05
463.141	6.06
463.496	6.14
463.852	6.25
464.208	5.93
464.564	5.88
464.919	6.02
465.275	6.15
465.631	6.05
465.986	5.98
466.342	6.27
466.697	6.24
467.052	6.18
467.408	6.04
467.763	5.91
468.118	6.18
468.473	6.3
468.829	6.16
469.184	6.22
469.539	6.1
469.894	6.27
470.249	6.3
470.603	6.3
470.958	6.25
471.313	6.13
471.668	6.35
472.023	6.29
472.377	6.15
472.732	6.41
473.086	6.15
473.441	6.28
473.795	6.48
474.15	6.37
474.504	6.24
474.859	6.27
475.213	6.39
475.567	6.27
475.921	6.43
476.275	6.32
476.63	6.29
476.984	6.31
477.338	6.52
477.692	6.12
478.045	6.3
478.399	6.46
478.753	6.12
479.107	6.35
479.461	6.42
479.814	6.23
480.168	6.29
480.521	6.25
480.875	6.36
481.228	6.32
481.582	6.26
481.935	6.43
482.289	6.37
482.642	6.43
482.995	6.3
483.348	6.3
483.701	6.37
484.055	6.17
484.408	6.13
484.761	5.98
485.114	5.89
485.466	5.93
485.819	5.97
486.172	6
486.525	6.12
486.878	6.17
487.23	6.26
487.583	6.24
487.936	6.25
488.288	6.11
488.641	6.08
488.993	6
489.345	6.12
489.698	6.17
490.05	6.16
490.402	6.27
490.754	6.28
491.107	6.36
491.459	6.41
491.811	6.48
492.163	6.4
492.515	6.29
492.866	6.13
493.218	6.15
493.57	6.27
493.922	6.3
494.274	6.36
494.625	6.48
494.977	6.53
495.328	6.58
495.68	6.81
496.031	6.66
496.383	6.61
496.734	6.73
497.086	6.53
497.437	6.71
497.788	6.57
498.139	6.57
498.49	6.53
498.842	6.51
499.193	6.63
499.544	6.63
499.894	6.68
500.245	6.72
500.596	6.55
500.947	6.64
501.298	6.56
501.648	6.7
501.999	6.87
502.35	6.68
502.7	6.76
503.051	6.8
503.401	6.77
503.752	6.9
504.102	6.8
504.452	6.71
504.803	6.57
505.153	6.85
505.503	6.66
505.853	6.78
506.203	6.92
506.553	6.87
506.903	6.81
507.253	6.88
507.603	6.8
507.953	7
508.303	6.85
508.652	6.81
509.002	6.87
509.352	6.9
509.701	6.84
510.051	6.86
510.4	6.85
510.75	6.91
511.099	6.79
511.449	6.89
511.798	6.96
512.147	6.86
512.496	6.97
512.846	6.92
513.195	7.07
513.544	6.99
513.893	6.88
514.242	7.05
514.591	7.17
514.939	7.01
515.288	7.05
515.637	7.06
515.986	7
516.334	7.07
516.683	7.02
517.032	7.07
517.38	7.1
517.729	7.05
518.077	7.13
518.426	6.94
518.774	7.06
519.122	7.03
519.47	7.08
519.819	6.98
520.167	6.97
520.515	6.95
520.863	6.93
521.211	7.04
521.559	7.05
521.907	7.21
522.255	7.26
522.602	7.26
522.95	7.29
523.298	7.35
523.645	7.39
523.993	7.3
524.341	7.3
524.688	7.36
525.036	7.43
525.383	7.4
525.73	7.32
526.078	7.33
526.425	7.29
526.772	7.08
527.119	7.11
527.466	7.21
527.814	7.17
528.161	7.24
528.508	7.31
528.854	7.12
529.201	7.15
529.548	7.07
529.895	6.93
530.242	6.95
530.588	7.07
530.935	7.08
531.282	7.26
531.628	7.22
531.975	7.31
532.321	7.38
532.667	7.34
533.014	7.43
533.36	7.43
533.706	7.44
534.052	7.3
534.399	7.29
534.745	7.23
535.091	7.3
535.437	7.39
535.783	7.46
536.129	7.47
536.474	7.65
536.82	7.56
537.166	7.53
537.512	7.59
537.857	7.6
538.203	7.57
538.549	7.71
538.894	7.71
539.239	7.74
539.585	7.84
539.93	7.77
540.276	7.72
540.621	7.84
540.966	7.81
541.311	7.86
541.656	7.75
542.001	7.81
542.346	7.65
542.691	7.53
543.036	7.56
543.381	7.62
543.726	7.66
544.071	7.7
544.415	7.75
544.76	7.64
545.105	7.8
545.449	7.8
545.794	7.96
546.138	8.14
546.483	8.06
546.827	8.1
547.171	8.1
547.516	8.08
547.86	8.07
548.204	8.07
548.548	8.14
548.892	8.07
549.236	8.14
549.58	8.24
549.924	8.2
550.268	8.46
550.612	8.34
550.956	8.35
551.3	8.4
551.643	8.52
551.987	8.39
552.33	8.32
552.674	8.53
553.017	8.69
553.361	8.4
553.704	8.37
554.048	8.52
554.391	8.52
554.734	8.49
555.077	8.53
555.42	8.52
555.764	8.65
556.107	8.61
556.45	8.51
556.793	8.93
557.135	8.84
557.478	8.78
557.821	8.59
558.164	8.88
558.507	8.66
558.849	8.93
559.192	8.93
559.534	8.76
559.877	8.92
560.219	9.1
560.562	8.94
560.904	9.02
561.246	9.23
561.589	9.11
561.931	9.28
562.273	9.07
562.615	9.01
562.957	9.11
563.299	9.24
563.641	9.28
563.983	9.13
564.325	9.18
564.667	9.1
565.008	8.97
565.35	9.2
565.692	9.37
566.033	9.2
566.375	9.09
566.716	9.34
567.058	9.48
567.399	9.48
567.741	9.34
568.082	9.34
568.423	9.28
568.764	9.37
569.105	9.35
569.447	9.47
569.788	9.56
570.129	9.48
570.47	9.65
570.811	9.55
571.151	9.52
571.492	9.77
571.833	9.67
572.174	9.43
572.514	9.76
572.855	9.65
573.195	9.53
573.536	9.56
573.876	9.54
574.217	9.7
574.557	9.86
574.898	9.74
575.238	9.76
575.578	9.97
575.918	9.71
576.258	9.9
576.598	9.85
576.938	10.07
577.278	9.97
577.618	10.01
577.958	10.1
578.298	10.06
578.638	10.11
578.977	10.3
579.317	10.14
579.657	10.3
579.996	10.09
580.336	10.17
580.675	10.4
581.014	10.14
581.354	10.16
581.693	10.36
582.032	10.41
582.372	10.46
582.711	10.47
583.05	10.66
583.389	10.66
583.728	10.71
584.067	10.72
584.406	10.79
584.745	10.62
585.083	10.98
585.422	10.77
585.761	10.89
586.1	11.05
586.438	10.82
586.777	10.75
587.115	10.78
587.454	10.96
587.792	10.85
588.13	11.26
588.469	10.93
588.807	11.03
589.145	11.18
589.483	10.85
589.821	11.22
590.159	11.11
590.497	11
590.835	11.17
591.173	11.01
591.511	11.33
591.849	11.21
592.187	11.41
592.524	10.96
592.862	11.07
593.2	11.32
593.537	11.37
593.875	11.31
594.212	11.51
594.55	11.45
594.887	11.54
595.224	11.13
595.561	11.47
595.899	11.39
596.236	11.68
596.573	11.52
596.91	11.51
597.247	11.38
597.584	11.53
597.921	11.64
598.258	11.58
598.594	11.34
598.931	11.47
599.268	11.49
599.604	11.86
599.941	11.89
600.277	11.7
600.614	12.02
600.95	12.08
601.287	12.22
601.623	12.27
601.959	11.82
602.296	12.29
602.632	12.34
602.968	12.15
603.304	11.94
603.64	12.19
603.976	12.13
604.312	12.18
604.648	12.06
604.984	12.19
605.319	12.05
605.655	12.23
605.991	12.3
606.326	12.06
606.662	12.16
606.998	12.24
607.333	12.4
607.668	12.37
608.004	12.32
608.339	12.51
608.674	12.44
609.01	12.47
609.345	13.01
609.68	12.42
610.015	12.59
610.35	12.62
610.685	12.73
611.02	12.87
611.355	12.7
611.689	12.32
612.024	12.74
612.359	13.11
612.694	13.01
613.028	13.11
613.363	12.84
613.697	12.93
614.032	12.82
614.366	13.03
614.7	13.22
615.035	12.93
615.369	13.53
615.703	13.75
616.037	13.2
616.371	12.62
616.705	13.22
617.039	13.58
617.373	13.05
617.707	13.65
618.041	13.2
618.375	13.25
618.709	13.49
619.042	13.42
619.376	13.68
619.71	13.68
620.043	13.44
620.377	13.46
620.71	13.81
621.043	13.51
621.377	13.33
621.71	13.8
622.043	13.96
622.376	13.64
622.709	13.9
623.043	13.7
623.376	13.98
623.709	14.06
624.041	14.13
624.374	13.73
624.707	13.7
625.04	14.44
625.373	13.99
625.705	14.22
626.038	14.25
626.37	14.22
626.703	13.92
627.035	14.28
627.368	13.82
627.7	13.89
628.032	13.97
628.365	13.93
628.697	14.17
629.029	14.35
629.361	14.46
629.693	14.6
630.025	14.26
630.357	14.25
630.689	14.63
631.021	14.65
631.353	14.52
631.684	14.84
632.016	14.41
632.348	14.64
632.679	14.51
633.011	14.56
633.342	14.71
633.674	14.83
634.005	14.74
634.336	14.87
634.668	14.64
634.999	15.21
635.33	15.12
635.661	14.72
635.992	14.71
636.323	14.67
636.654	15.09
636.985	15.42
637.316	14.86
637.647	15.28
637.977	14.93
638.308	14.99
638.639	15.13
638.969	15.48
639.3	14.81
639.63	15.21
639.961	15.44
640.291	15.63
640.622	15.6
640.952	15.43
641.282	15.3
641.612	15.4
641.943	15.33
642.273	15.4
642.603	15.58
642.933	15.36
643.263	15.76
643.592	16.02
643.922	16.27
644.252	15.86
644.582	15.7
644.911	15.68
645.241	15.6
645.571	15.82
645.9	16.01
646.23	16.18
646.559	16.2
646.888	15.9
647.218	16.14
647.547	16.47
647.876	16.17
648.205	15.97
648.534	15.61
648.863	16.15
649.192	16
649.521	15.99
649.85	16.46
650.179	15.98
650.508	16.53
650.837	16.1
651.165	16.41
651.494	16.31
651.822	16.5
652.151	17
652.479	16.96
652.808	16.21
653.136	16.31
653.465	16.7
653.793	16.89
654.121	16.69
654.449	16.85
654.777	16.42
655.105	16.73
655.433	16.73
655.761	16.82
656.089	17.15
656.417	16.9
656.745	17.43
657.073	16.94
657.4	17.04
657.728	17.13
658.056	17.28
658.383	17.38
658.711	16.84
659.038	17.2
659.365	16.98
659.693	17.24
660.02	17.08
660.347	17.44
660.674	17.04
661.001	16.86
661.329	17.23
661.656	17.13
661.982	17.73
662.309	17.26
662.636	17.5
662.963	17.73
663.29	17.75
663.616	17.41
663.943	17.67
664.27	17.58
664.596	17.36
664.923	17.97
665.249	17.87
665.576	17.89
665.902	17.63
666.228	17.82
666.554	17.67
666.881	18.01
667.207	17.57
667.533	18.63
667.859	17.3
668.185	18.65
668.511	17.68
668.837	17.34
669.162	18.28
669.488	18.01
669.814	18.1
670.139	18.7
670.465	18.09
670.791	17.99
671.116	17.79
671.442	18.31
671.767	18.12
672.092	18.49
672.418	18.88
672.743	18.18
673.068	18.1
673.393	17.83
673.718	18.45
674.043	17.92
674.368	18.95
674.693	18.65
675.018	18.75
675.343	18.67
675.667	18.49
675.992	18.5
676.317	18.29
676.641	19.01
676.966	19.01
677.29	18.5
677.615	19.05
677.939	18.93
678.264	19.13
678.588	18.88
678.912	18.89
679.236	19.36
679.56	19.21
679.885	19.36
680.209	18.96
680.532	19.15
680.856	19.6
681.18	18.76
681.504	19.1
681.828	19.02
682.152	18.96
682.475	19.45
682.799	19
683.122	19.32
683.446	18.81
683.769	18.96
684.093	19.32
684.416	19
684.739	19.43
685.062	19.62
685.386	19.72
685.709	19.39
