Data from 0072_forehead_Reflection__2__266.txt Node

Date: Fri Dec 16 16:01:50 CST 2022
User: ToomeyLab
Spectrometer: FLMS14357
Trigger mode: 0
Integration Time (sec): 1.000000E-2
Scans to average: 100
Electric dark correction enabled: true
Nonlinearity correction enabled: false
Boxcar width: 0
XAxis mode: Wavelengths
Number of Pixels in Spectrum: 2048
>>>>>Begin Spectral Data<<<<<
189.047	39.81
189.435	39.81
189.823	39.81
190.211	-212.95
190.599	-252.91
190.987	40.62
191.375	-697.02
191.763	84.31
192.151	65.2
192.538	50.1
192.926	14054.55
193.314	167.91
193.702	-475.3
194.089	504.81
194.477	-42.07
194.864	-16.97
195.252	1577.78
195.639	82.83
196.027	56.82
196.414	720.17
196.801	92.84
197.189	213.8
197.576	615.92
197.963	60.36
198.351	34.01
198.738	-51.47
199.125	50.56
199.512	2.42
199.899	-57.81
200.286	-61.47
200.673	37.12
201.06	54.07
201.447	32.74
201.833	2.48
202.22	27.43
202.607	-3.56
202.994	62.12
203.38	-28.6
203.767	-30.75
204.154	-28.03
204.54	21.91
204.927	-17.17
205.313	28.21
205.699	5.25
206.086	18.02
206.472	13.01
206.858	29.36
207.245	19.32
207.631	-43.82
208.017	4.8
208.403	21.95
208.789	8.94
209.175	27.21
209.561	-2.96
209.947	62.82
210.333	-1.14
210.719	-8.77
211.105	-50.6
211.491	4.32
211.876	-22.77
212.262	-3.42
212.648	-33.59
213.034	2.52
213.419	9.5
213.805	5.68
214.19	-5.07
214.576	-28.2
214.961	14.17
215.346	3.21
215.732	15.68
216.117	-26.36
216.502	-12.24
216.888	-28.03
217.273	8.11
217.658	-12.87
218.043	5.95
218.428	-31.39
218.813	5.62
219.198	4
219.583	17.14
219.968	-8.7
220.353	10.12
220.738	13.6
221.122	11.92
221.507	-11.92
221.892	-0.16
222.276	13.07
222.661	-3.65
223.046	-2.52
223.43	7.82
223.815	17.42
224.199	6.77
224.583	-1.63
224.968	16.55
225.352	2.77
225.736	5
226.121	6.88
226.505	3.3
226.889	8.79
227.273	4.97
227.657	1.66
228.041	5.01
228.425	7.16
228.809	2.58
229.193	2.62
229.577	5.39
229.961	5.31
230.344	5.01
230.728	5.52
231.112	5.57
231.495	3.13
231.879	4.01
232.263	4.22
232.646	5.02
233.03	2.56
233.413	4.27
233.797	8.13
234.18	2.52
234.563	6.49
234.946	4.03
235.33	4.73
235.713	4.13
236.096	5.65
236.479	6.45
236.862	5.95
237.245	4.75
237.628	7
238.011	4.4
238.394	6.69
238.777	5.28
239.16	2.54
239.543	5.39
239.925	4.91
240.308	6.42
240.691	6.03
241.073	4.07
241.456	4.61
241.838	5.24
242.221	5.35
242.603	5.33
242.986	6.03
243.368	5.03
243.75	4.59
244.133	5.12
244.515	4.53
244.897	4.42
245.279	4.47
245.661	4.89
246.043	5.35
246.425	4.93
246.807	4.6
247.189	4.62
247.571	5.25
247.953	4.93
248.335	5.12
248.717	4.91
249.098	4.87
249.48	4.8
249.862	5.12
250.243	5.06
250.625	4.41
251.006	5.04
251.388	5.6
251.769	3.78
252.151	5.76
252.532	4.56
252.913	4.99
253.295	4.59
253.676	5.2
254.057	4.72
254.438	4.24
254.819	4.41
255.2	5.19
255.581	5.36
255.962	4.95
256.343	5.19
256.724	5.11
257.105	4.95
257.486	5.79
257.867	3.65
258.247	4.84
258.628	5.45
259.009	4.41
259.389	5.2
259.77	4.53
260.15	5.41
260.531	5.12
260.911	4.89
261.292	4.9
261.672	4.73
262.052	4.26
262.432	4.53
262.813	4.31
263.193	4.8
263.573	4.85
263.953	4.83
264.333	4.45
264.713	4.37
265.093	4.39
265.473	5.42
265.853	4.58
266.233	4.45
266.612	4.77
266.992	4.07
267.372	4.71
267.752	4.11
268.131	4.54
268.511	5.22
268.89	4.73
269.27	5.11
269.649	5.36
270.029	4.82
270.408	5.11
270.787	4.28
271.167	4.46
271.546	3.69
271.925	4.4
272.304	4.43
272.683	4.29
273.062	4.76
273.441	5.12
273.82	4.84
274.199	4.94
274.578	4.43
274.957	4.96
275.336	4.43
275.715	5.2
276.093	4.93
276.472	4.5
276.851	4.94
277.229	4.64
277.608	4.23
277.986	4.49
278.365	4.19
278.743	4.25
279.122	3.63
279.5	4.15
279.878	4.03
280.257	4.96
280.635	3.85
281.013	5.02
281.391	4.8
281.769	4.74
282.147	5.19
282.525	4.37
282.903	5.05
283.281	4.49
283.659	4.77
284.037	5.02
284.415	4.93
284.792	4.29
285.17	4.52
285.548	4.46
285.925	4.44
286.303	4.78
286.68	4.62
287.058	4.61
287.435	4.28
287.813	4.49
288.19	4.69
288.567	4.78
288.945	4.46
289.322	4.56
289.699	4.92
290.076	4.98
290.453	4.22
290.83	4.8
291.207	4.84
291.584	4.77
291.961	4.94
292.338	5.13
292.715	4.94
293.092	5.1
293.469	5.21
293.845	5.23
294.222	4.7
294.599	5.24
294.975	5.02
295.352	4.84
295.728	5.27
296.105	5.32
296.481	5.24
296.858	4.91
297.234	5.32
297.61	5.19
297.986	4.82
298.363	4.93
298.739	5.39
299.115	4.76
299.491	5.26
299.867	4.91
300.243	5.02
300.619	5.38
300.995	5.19
301.371	5.62
301.746	5.28
302.122	6.09
302.498	5.42
302.874	5.46
303.249	5.46
303.625	5.55
304	5.24
304.376	5
304.751	5.86
305.127	5.74
305.502	5.79
305.878	5.48
306.253	5.27
306.628	6.08
307.003	5.46
307.378	5.1
307.754	5.58
308.129	5.16
308.504	5.44
308.879	5.52
309.254	6.31
309.629	5.82
310.003	6.51
310.378	5.74
310.753	5.82
311.128	5.67
311.502	5.31
311.877	5.7
312.252	5.78
312.626	5.61
313.001	5.8
313.375	5.76
313.75	6.07
314.124	6.24
314.498	6.02
314.873	5.85
315.247	5.61
315.621	5.94
315.995	6.3
316.369	5.82
316.743	6.65
317.117	6.35
317.491	5.85
317.865	5.7
318.239	5.85
318.613	6.23
318.987	6.51
319.361	6.01
319.734	6.04
320.108	6.18
320.482	6
320.855	6.59
321.229	6.99
321.602	6.13
321.976	6.23
322.349	6.34
322.723	5.69
323.096	6.06
323.469	5.79
323.843	6.75
324.216	6.12
324.589	7.34
324.962	6.65
325.335	6.56
325.708	6.62
326.081	6.97
326.454	6.72
326.827	6.8
327.2	6.89
327.573	6.89
327.945	6.37
328.318	6.8
328.691	6.84
329.063	6.64
329.436	6.59
329.809	6.68
330.181	6.89
330.553	6.83
330.926	6.82
331.298	6.73
331.671	6.56
332.043	6.64
332.415	6.95
332.787	7.07
333.159	6.42
333.532	6.32
333.904	7.15
334.276	7
334.648	7.18
335.02	6.7
335.391	7.1
335.763	7.03
336.135	7.31
336.507	7.56
336.879	6.93
337.25	6.45
337.622	7.62
337.993	7.28
338.365	7.48
338.736	7.19
339.108	7.28
339.479	6.78
339.851	7.22
340.222	7.53
340.593	7.48
340.964	7.34
341.336	6.82
341.707	6.98
342.078	7.19
342.449	7.74
342.82	7.41
343.191	7.33
343.562	7.45
343.933	7.37
344.303	7.39
344.674	7.15
345.045	8.06
345.416	7.19
345.786	7.33
346.157	7.46
346.527	7.48
346.898	7.59
347.268	7.6
347.639	7.36
348.009	7.69
348.38	7.43
348.75	7.46
349.12	7.3
349.49	7.76
349.861	8.19
350.231	7.94
350.601	7.99
350.971	7.29
351.341	8.14
351.711	8.01
352.081	7.87
352.45	8.02
352.82	7.79
353.19	7.93
353.56	7.83
353.929	8.03
354.299	8.01
354.669	8.06
355.038	7.96
355.408	8.38
355.777	7.91
356.147	8.58
356.516	8.51
356.885	7.89
357.254	8.5
357.624	8.05
357.993	8.15
358.362	8.58
358.731	8.31
359.1	8.47
359.469	8.31
359.838	8.41
360.207	8.23
360.576	8.4
360.945	8.37
361.314	8.67
361.682	8.33
362.051	8.2
362.42	8.79
362.788	8.53
363.157	8.49
363.525	8.37
363.894	8.39
364.262	8.5
364.631	9.31
364.999	8.59
365.367	8.9
365.735	8.54
366.104	8.66
366.472	9.08
366.84	8.99
367.208	8.27
367.576	8.96
367.944	9.19
368.312	8.41
368.68	9.17
369.048	9.17
369.416	8.5
369.783	8.69
370.151	9.07
370.519	9.33
370.886	8.57
371.254	9.1
371.621	9.36
371.989	9.25
372.356	9.34
372.724	9.2
373.091	9.31
373.458	8.8
373.826	9.27
374.193	9.4
374.56	9.18
374.927	9.48
375.294	9.61
375.661	9.13
376.028	9.55
376.395	9.45
376.762	9.55
377.129	9.65
377.496	9.31
377.863	9.27
378.229	9.5
378.596	9.69
378.963	9.46
379.329	9.25
379.696	9.36
380.062	9.93
380.429	9.47
380.795	9.63
381.161	9.76
381.528	9.36
381.894	9.82
382.26	9.54
382.626	9.93
382.993	9.59
383.359	9.91
383.725	10.09
384.091	9.71
384.457	9.87
384.823	10.18
385.188	10.2
385.554	10.13
385.92	10.08
386.286	10.58
386.651	10.24
387.017	10.27
387.383	10.22
387.748	9.97
388.114	10.3
388.479	10.31
388.845	10.32
389.21	10.48
389.575	10.51
389.94	10.49
390.306	10.49
390.671	10.22
391.036	10.83
391.401	10.71
391.766	10.3
392.131	10.42
392.496	10.6
392.861	10.35
393.226	10.48
393.591	10.64
393.956	10.73
394.32	10.49
394.685	10.7
395.05	10.57
395.414	10.85
395.779	10.87
396.143	10.78
396.508	10.85
396.872	10.95
397.236	10.67
397.601	11.26
397.965	10.74
398.329	11.24
398.694	10.85
399.058	11.14
399.422	11.3
399.786	11.33
400.15	11.1
400.514	11.13
400.878	11.18
401.242	11.32
401.605	11.36
401.969	11.08
402.333	11.17
402.697	11.71
403.06	11.79
403.424	11.4
403.787	11.38
404.151	11.42
404.514	11.33
404.878	11.65
405.241	11.5
405.604	11.6
405.968	11.51
406.331	11.64
406.694	11.79
407.057	11.96
407.42	11.83
407.783	11.44
408.146	11.68
408.509	11.64
408.872	11.73
409.235	11.88
409.598	11.84
409.961	11.76
410.323	12.01
410.686	12.08
411.049	11.96
411.411	11.9
411.774	11.92
412.136	12.14
412.499	12.08
412.861	11.98
413.223	12.02
413.586	12.12
413.948	12.49
414.31	12.3
414.672	12.3
415.035	12.4
415.397	12.36
415.759	12.36
416.121	12.36
416.483	12.79
416.845	12.49
417.206	12.8
417.568	12.27
417.93	12.19
418.292	12.48
418.653	12.64
419.015	12.53
419.377	12.69
419.738	12.51
420.1	12.42
420.461	12.62
420.822	12.58
421.184	12.55
421.545	12.58
421.906	12.68
422.267	12.49
422.629	12.69
422.99	12.52
423.351	12.6
423.712	12.69
424.073	12.79
424.434	12.72
424.795	12.82
425.155	12.96
425.516	12.82
425.877	12.87
426.238	12.75
426.598	13.03
426.959	12.85
427.32	13.03
427.68	13.02
428.041	13.06
428.401	13.17
428.761	13.07
429.122	13.29
429.482	13.11
429.842	13.39
430.202	13.48
430.563	13.58
430.923	13.62
431.283	13.72
431.643	13.65
432.003	13.71
432.363	13.76
432.722	13.72
433.082	13.89
433.442	14.05
433.802	13.88
434.161	13.73
434.521	13.9
434.881	14.04
435.24	14.02
435.6	13.77
435.959	13.87
436.319	14
436.678	13.96
437.037	13.97
437.396	14.22
437.756	14.15
438.115	14.36
438.474	14.35
438.833	14.28
439.192	14.4
439.551	14.27
439.91	14.46
440.269	14.45
440.628	14.53
440.987	14.34
441.345	14.34
441.704	14.37
442.063	14.35
442.421	14.5
442.78	14.39
443.138	14.37
443.497	14.33
443.855	14.45
444.214	14.74
444.572	14.77
444.93	15.03
445.288	14.88
445.647	14.92
446.005	14.7
446.363	14.86
446.721	14.85
447.079	14.96
447.437	14.86
447.795	14.86
448.153	14.95
448.51	14.72
448.868	15
449.226	14.9
449.584	14.87
449.941	15.17
450.299	15.12
450.656	15.19
451.014	15.19
451.371	15.48
451.729	15.32
452.086	15.43
452.443	15.55
452.801	15.56
453.158	15.72
453.515	15.54
453.872	15.69
454.229	15.73
454.586	15.67
454.943	15.72
455.3	15.74
455.657	15.76
456.014	15.82
456.371	16.11
456.727	15.81
457.084	15.84
457.441	15.99
457.797	16.16
458.154	16.3
458.51	16.2
458.867	16.2
459.223	16.25
459.58	16.22
459.936	16.28
460.292	16.25
460.648	16.21
461.005	16.25
461.361	16.18
461.717	16.13
462.073	15.97
462.429	16.17
462.785	16.16
463.141	16.48
463.496	16.45
463.852	16.57
464.208	16.72
464.564	16.66
464.919	16.94
465.275	16.69
465.631	16.7
465.986	16.92
466.342	17.03
466.697	16.79
467.052	17.03
467.408	16.93
467.763	16.87
468.118	17.27
468.473	17.33
468.829	17.17
469.184	17.15
469.539	17.07
469.894	17.22
470.249	17.49
470.603	17.33
470.958	17.57
471.313	17.23
471.668	17.28
472.023	17.43
472.377	17.46
472.732	17.45
473.086	17.49
473.441	17.68
473.795	17.86
474.15	17.71
474.504	17.79
474.859	17.95
475.213	17.65
475.567	17.74
475.921	17.86
476.275	17.93
476.63	18.06
476.984	18.07
477.338	18.26
477.692	18.2
478.045	17.98
478.399	18.27
478.753	18.11
479.107	18.05
479.461	18.08
479.814	18.16
480.168	18.26
480.521	18.23
480.875	18.47
481.228	18.42
481.582	18.33
481.935	18.45
482.289	18.62
482.642	18.53
482.995	18.6
483.348	18.46
483.701	18.47
484.055	18.46
484.408	18.46
484.761	18.38
485.114	18.38
485.466	18.15
485.819	17.69
486.172	17.44
486.525	17.5
486.878	17.62
487.23	17.96
487.583	18.37
487.936	18.59
488.288	18.7
488.641	18.7
488.993	18.42
489.345	18.31
489.698	18.37
490.05	18.24
490.402	18.32
490.754	18.37
491.107	18.58
491.459	18.84
491.811	19.03
492.163	19.22
492.515	19.35
492.866	19.22
493.218	19
493.57	18.65
493.922	18.45
494.274	18.73
494.625	18.84
494.977	19.02
495.328	19.49
495.68	19.73
496.031	19.77
496.383	19.76
496.734	19.91
497.086	19.87
497.437	20.04
497.788	20.11
498.139	20.08
498.49	19.94
498.842	19.98
499.193	19.96
499.544	20.02
499.894	20
500.245	20.12
500.596	20.12
500.947	20.21
501.298	20.21
501.648	20.3
501.999	20.43
502.35	20.42
502.7	20.56
503.051	20.69
503.401	20.55
503.752	20.69
504.102	20.71
504.452	20.71
504.803	20.68
505.153	20.84
505.503	20.9
505.853	20.92
506.203	20.99
506.553	20.88
506.903	20.86
507.253	21.06
507.603	20.98
507.953	21
508.303	21.03
508.652	21.39
509.002	21.25
509.352	21.2
509.701	21.12
510.051	21.44
510.4	21.21
510.75	21.13
511.099	21.13
511.449	21.24
511.798	21.29
512.147	21.24
512.496	21.31
512.846	21.37
513.195	21.5
513.544	21.46
513.893	21.43
514.242	21.44
514.591	21.49
514.939	21.35
515.288	21.64
515.637	21.75
515.986	21.74
516.334	22.12
516.683	21.81
517.032	21.92
517.38	21.97
517.729	22.06
518.077	22.12
518.426	22.21
518.774	22.25
519.122	22.13
519.47	22.12
519.819	22.07
520.167	22.09
520.515	21.84
520.863	21.77
521.211	21.78
521.559	21.93
521.907	21.95
522.255	22.23
522.602	22.26
522.95	22.34
523.298	22.42
523.645	22.69
523.993	22.64
524.341	22.72
524.688	22.75
525.036	22.64
525.383	22.9
525.73	22.81
526.078	22.84
526.425	22.82
526.772	22.81
527.119	22.66
527.466	22.47
527.814	22.4
528.161	22.28
528.508	22.54
528.854	22.6
529.201	22.69
529.548	22.72
529.895	22.82
530.242	22.6
530.588	22.14
530.935	21.8
531.282	21.75
531.628	21.89
531.975	22.22
532.321	22.46
532.667	22.52
533.014	22.91
533.36	22.99
533.706	22.97
534.052	23.15
534.399	23.23
534.745	23.12
535.091	22.86
535.437	22.63
535.783	22.61
536.129	22.78
536.474	22.93
536.82	23.17
537.166	23.4
537.512	23.68
537.857	23.67
538.203	23.69
538.549	23.46
538.894	23.3
539.239	23.44
539.585	23.56
539.93	23.7
540.276	23.82
540.621	23.94
540.966	24.16
541.311	24.26
541.656	24.15
542.001	24.39
542.346	24.21
542.691	23.98
543.036	23.81
543.381	23.48
543.726	23.25
544.071	23.19
544.415	23.59
544.76	23.64
545.105	23.87
545.449	23.87
545.794	23.96
546.138	24.22
546.483	24.32
546.827	24.53
547.171	24.51
547.516	24.63
547.86	24.6
548.204	24.59
548.548	24.71
548.892	24.64
549.236	24.58
549.58	24.52
549.924	24.65
550.268	24.87
550.612	24.94
550.956	25.12
551.3	25.27
551.643	25.09
551.987	25.4
552.33	25.26
552.674	25.34
553.017	25.42
553.361	25.57
553.704	25.77
554.048	25.66
554.391	25.5
554.734	25.42
555.077	25.25
555.42	25.39
555.764	25.62
556.107	25.66
556.45	25.49
556.793	26.13
557.135	26.03
557.478	26.14
557.821	25.84
558.164	25.92
558.507	25.9
558.849	25.99
559.192	25.87
559.534	26.14
559.877	26.06
560.219	26.25
560.562	26.35
560.904	26.3
561.246	26.58
561.589	26.38
561.931	26.59
562.273	26.4
562.615	26.82
562.957	26.56
563.299	26.55
563.641	26.51
563.983	26.38
564.325	26.29
564.667	26.64
565.008	26.53
565.35	26.72
565.692	26.83
566.033	26.81
566.375	26.69
566.716	26.95
567.058	27.09
567.399	26.84
567.741	26.98
568.082	26.85
568.423	26.72
568.764	26.72
569.105	26.58
569.447	26.4
569.788	26.84
570.129	26.88
570.47	27.25
570.811	27.24
571.151	27.06
571.492	27.37
571.833	27.24
572.174	27.1
572.514	27.37
572.855	27.46
573.195	27.28
573.536	27.47
573.876	27.24
574.217	27.12
574.557	27.23
574.898	27.25
575.238	27.36
575.578	27.62
575.918	27.33
576.258	27.61
576.598	27.48
576.938	27.74
577.278	27.7
577.618	27.35
577.958	27.59
578.298	27.85
578.638	27.83
578.977	27.9
579.317	27.85
579.657	28.07
579.996	27.99
580.336	27.84
580.675	27.98
581.014	28.15
581.354	28.11
581.693	28.46
582.032	28.33
582.372	28.4
582.711	28.27
583.05	28.48
583.389	28.27
583.728	28.29
584.067	28.52
584.406	28.41
584.745	28.6
585.083	28.82
585.422	28.66
585.761	28.55
586.1	28.93
586.438	28.79
586.777	28.77
587.115	28.8
587.454	28.65
587.792	28.61
588.13	28.96
588.469	28.98
588.807	29.09
589.145	29.33
589.483	28.97
589.821	28.92
590.159	28.98
590.497	28.94
590.835	28.83
591.173	29.11
591.511	29.55
591.849	29.46
592.187	29.21
592.524	29.15
592.862	28.94
593.2	28.95
593.537	29.21
593.875	29.19
594.212	29.28
594.55	29.6
594.887	29.48
595.224	29.31
595.561	29.51
595.899	29.55
596.236	29.41
596.573	29.58
596.91	29.49
597.247	29.48
597.584	29.61
597.921	29.97
598.258	29.95
598.594	29.95
598.931	29.65
599.268	29.29
599.604	29.52
599.941	29.47
600.277	29.6
600.614	29.77
600.95	30.05
601.287	30.04
601.623	29.91
601.959	29.86
602.296	30.11
602.632	30.15
602.968	30.33
603.304	30.41
603.64	30.23
603.976	30.47
604.312	30.47
604.648	30.61
604.984	30.47
605.319	30.5
605.655	30.5
605.991	30.65
606.326	30.58
606.662	30.14
606.998	30.2
607.333	29.89
607.668	29.96
608.004	30.24
608.339	30.43
608.674	30.45
609.01	31.08
609.345	31
609.68	30.63
610.015	31.15
610.35	30.89
610.685	31.34
611.02	31.37
611.355	31.19
611.689	30.5
612.024	30.82
612.359	30.44
612.694	30.74
613.028	31.03
613.363	30.8
613.697	30.87
614.032	31.01
614.366	30.92
614.7	31.36
615.035	31.02
615.369	30.84
615.703	31.6
616.037	31.21
616.371	31.25
616.705	31.42
617.039	31.93
617.373	31.38
617.707	31.57
618.041	31.62
618.375	31.18
618.709	31.86
619.042	31.51
619.376	31.19
619.71	31.57
620.043	31.64
620.377	31.62
620.71	31.66
621.043	31.41
621.377	31.84
621.71	31.9
622.043	31.68
622.376	31.73
622.709	32.46
623.043	31.96
623.376	32.11
623.709	32.55
624.041	31.95
624.374	31.77
624.707	31.87
625.04	32.61
625.373	32.25
625.705	32.25
626.038	32.5
626.37	32.49
626.703	32.29
627.035	32.6
627.368	32.86
627.7	32.82
628.032	33
628.365	32.27
628.697	32.76
629.029	32.58
629.361	32.35
629.693	32.57
630.025	32.49
630.357	32.3
630.689	32.7
631.021	32.71
631.353	33.28
631.684	33.11
632.016	32.4
632.348	32.92
632.679	32.74
633.011	33.15
633.342	32.98
633.674	32.99
634.005	32.81
634.336	32.93
634.668	33.37
634.999	33.28
635.33	33.51
635.661	33.46
635.992	32.96
636.323	33.12
636.654	32.97
636.985	33.36
637.316	33.29
637.647	33.46
637.977	33.47
638.308	33.05
638.639	33.52
638.969	33.23
639.3	33.36
639.63	33.22
639.961	33.18
640.291	33.98
640.622	34.01
640.952	33.67
641.282	33.73
641.612	33.82
641.943	33.93
642.273	33.78
642.603	33.82
642.933	33.92
643.263	33.71
643.592	33.85
643.922	34.38
644.252	34.3
644.582	34.03
644.911	34
645.241	34.31
645.571	34.34
645.9	33.95
646.23	33.81
646.559	34.53
646.888	34.49
647.218	34.53
647.547	34.28
647.876	34.39
648.205	34.45
648.534	34.26
648.863	34.08
649.192	34.46
649.521	34.53
649.85	34.39
650.179	34.31
650.508	34.49
650.837	34.47
651.165	34.58
651.494	33.81
651.822	34.51
652.151	34.8
652.479	34.88
652.808	34.3
653.136	34.83
653.465	34.86
653.793	34.86
654.121	34.74
654.449	34.47
654.777	34.7
655.105	35.07
655.433	34.87
655.761	34.8
656.089	35.08
656.417	35.36
656.745	35.09
657.073	35.15
657.4	35.54
657.728	34.95
658.056	35.27
658.383	35.29
658.711	35.06
659.038	35.83
659.365	35.66
659.693	35.68
660.02	35.84
660.347	36.12
660.674	35.5
661.001	35.45
661.329	35.81
661.656	35.11
661.982	35.3
662.309	35.24
662.636	34.75
662.963	35.98
663.29	35.84
663.616	35.49
663.943	35.87
664.27	35.87
664.596	35.94
664.923	36.02
665.249	35.84
665.576	36.33
665.902	35.78
666.228	35.44
666.554	34.95
666.881	35.85
667.207	35.54
667.533	36.12
667.859	36.11
668.185	36.08
668.511	36.59
668.837	35.99
669.162	36.27
669.488	36.38
669.814	36.85
670.139	36.86
670.465	36.83
670.791	36.72
671.116	35.86
671.442	36.06
671.767	36.33
672.092	36.59
672.418	36.54
672.743	36.02
673.068	36.06
673.393	36.28
