Data from 0072_forehead_Reflection__0__264.txt Node

Date: Fri Dec 16 16:01:25 CST 2022
User: ToomeyLab
Spectrometer: FLMS14357
Trigger mode: 0
Integration Time (sec): 1.000000E-2
Scans to average: 100
Electric dark correction enabled: true
Nonlinearity correction enabled: false
Boxcar width: 0
XAxis mode: Wavelengths
Number of Pixels in Spectrum: 2048
>>>>>Begin Spectral Data<<<<<
189.047	60.97
189.435	60.97
189.823	60.97
190.211	-156.84
190.599	54.49
190.987	131.98
191.375	-499.57
191.763	9.3
192.151	-67.4
192.538	87.16
192.926	-9509.09
193.314	307.72
193.702	-772.4
194.089	1152.91
194.477	60.75
194.864	90.37
195.252	-596.58
195.639	78.75
196.027	4.11
196.414	35.77
196.801	0.74
197.189	52.47
197.576	-96.13
197.963	-222.16
198.351	-15.96
198.738	3.64
199.125	33.75
199.512	4.93
199.899	-33.2
200.286	-5.89
200.673	38.45
201.06	22.83
201.447	49.14
201.833	12.17
202.22	10.97
202.607	28.21
202.994	38.95
203.38	-27.32
203.767	-18.15
204.154	-22.37
204.54	6.9
204.927	35.87
205.313	44.64
205.699	-2.96
206.086	-13.9
206.472	-23.1
206.858	-4.06
207.245	16.95
207.631	-25.51
208.017	14.13
208.403	47
208.789	-30.67
209.175	40.47
209.561	19.28
209.947	-29.05
210.333	-6.06
210.719	3.94
211.105	-21.72
211.491	-10.71
211.876	15.92
212.262	-12.8
212.648	-30.58
213.034	7.31
213.419	17.77
213.805	-7.18
214.19	-6.38
214.576	-10.36
214.961	11.94
215.346	-11.09
215.732	-10.06
216.117	16.67
216.502	-17.17
216.888	-20.22
217.273	36.31
217.658	2.77
218.043	13.58
218.428	-6.59
218.813	-11.33
219.198	-48.8
219.583	5.06
219.968	8.33
220.353	32.2
220.738	-8.88
221.122	27.47
221.507	20.37
221.892	1.02
222.276	26.69
222.661	14.72
223.046	2.03
223.43	9.49
223.815	6.04
224.199	11.84
224.583	1.92
224.968	10.79
225.352	-1.85
225.736	13.39
226.121	1.23
226.505	13.84
226.889	14.26
227.273	11.15
227.657	2.05
228.041	11.35
228.425	9.61
228.809	9.01
229.193	4.03
229.577	5.7
229.961	8.68
230.344	7.34
230.728	7.83
231.112	7.13
231.495	6.06
231.879	7.28
232.263	5.54
232.646	6.77
233.03	6.21
233.413	5.11
233.797	6.8
234.18	3.6
234.563	5.88
234.946	6.89
235.33	6.76
235.713	8.2
236.096	6.37
236.479	7.7
236.862	8.31
237.245	7.73
237.628	6.6
238.011	8.4
238.394	9.22
238.777	7.91
239.16	5.39
239.543	6.38
239.925	7.83
240.308	8.79
240.691	7.76
241.073	6.14
241.456	6.64
241.838	7.79
242.221	7.8
242.603	7.88
242.986	8.24
243.368	7.18
243.75	7.27
244.133	7.03
244.515	6.96
244.897	6.82
245.279	6.3
245.661	7.4
246.043	7.65
246.425	6.11
246.807	6.87
247.189	7.09
247.571	7.57
247.953	7.06
248.335	7.13
248.717	7.09
249.098	7.06
249.48	6.63
249.862	7.25
250.243	7.26
250.625	7.39
251.006	6.67
251.388	7.73
251.769	6.63
252.151	7.63
252.532	6.76
252.913	6.85
253.295	7.17
253.676	7.28
254.057	7.06
254.438	7.27
254.819	7.36
255.2	6.77
255.581	6.95
255.962	7.4
256.343	7.51
256.724	7.7
257.105	6.36
257.486	6.45
257.867	5.5
258.247	6.76
258.628	7.69
259.009	6.97
259.389	7.95
259.77	7.35
260.15	7.42
260.531	7.15
260.911	7.01
261.292	7
261.672	6.77
262.052	6.92
262.432	6.94
262.813	7.13
263.193	6.72
263.573	6.9
263.953	6.86
264.333	6.73
264.713	5.86
265.093	6.68
265.473	7.46
265.853	6.51
266.233	6.2
266.612	5.78
266.992	6.77
267.372	7.47
267.752	6.54
268.131	6.7
268.511	7.09
268.89	6.83
269.27	6.73
269.649	7.25
270.029	7.2
270.408	6.76
270.787	6.92
271.167	7.2
271.546	6.44
271.925	6.57
272.304	7.21
272.683	6.52
273.062	6.7
273.441	6.56
273.82	6.79
274.199	6.59
274.578	6.72
274.957	6.63
275.336	6.39
275.715	6.75
276.093	6.77
276.472	6.82
276.851	6.51
277.229	7.01
277.608	6.22
277.986	6.78
278.365	6.07
278.743	6.21
279.122	6.39
279.5	6.55
279.878	5.73
280.257	6.82
280.635	6.18
281.013	6.89
281.391	6.11
281.769	6.57
282.147	6.91
282.525	6.39
282.903	6.87
283.281	6.43
283.659	6.32
284.037	6.68
284.415	6.89
284.792	6.91
285.17	6.27
285.548	6.3
285.925	6.36
286.303	6.61
286.68	6.8
287.058	6.66
287.435	6.43
287.813	6.57
288.19	6.52
288.567	6.66
288.945	6.71
289.322	6.15
289.699	6.86
290.076	7.09
290.453	6.59
290.83	7.01
291.207	6.97
291.584	6.66
291.961	7.17
292.338	6.58
292.715	6.58
293.092	6.76
293.469	7.27
293.845	6.84
294.222	7.04
294.599	7.33
294.975	7.37
295.352	6.84
295.728	7.18
296.105	7.15
296.481	7.28
296.858	7.06
297.234	7.29
297.61	7.11
297.986	7.08
298.363	6.85
298.739	7.42
299.115	6.87
299.491	6.99
299.867	7.37
300.243	6.83
300.619	7.43
300.995	7.76
301.371	6.98
301.746	6.95
302.122	7.37
302.498	7.35
302.874	7.66
303.249	7.87
303.625	7.56
304	6.85
304.376	7.33
304.751	7.58
305.127	7.83
305.502	7.74
305.878	7.61
306.253	7.39
306.628	7.88
307.003	8.1
307.378	7.85
307.754	7.7
308.129	7.67
308.504	7.64
308.879	7.95
309.254	8.27
309.629	7.8
310.003	8.26
310.378	8.03
310.753	7.86
311.128	7.71
311.502	7.92
311.877	7.62
312.252	7.94
312.626	7.76
313.001	7.86
313.375	8.28
313.75	7.74
314.124	8.06
314.498	8.08
314.873	8.19
315.247	8.19
315.621	8.36
315.995	8.73
316.369	8.28
316.743	8.03
317.117	8.16
317.491	8.4
317.865	8.48
318.239	8.71
318.613	8.1
318.987	8.63
319.361	8.1
319.734	8.42
320.108	8.7
320.482	8.52
320.855	7.96
321.229	8.85
321.602	8.55
321.976	8.39
322.349	7.77
322.723	8.52
323.096	8.12
323.469	7.86
323.843	9.13
324.216	8.47
324.589	8.93
324.962	8.79
325.335	8.92
325.708	8.77
326.081	9.29
326.454	8.68
326.827	8.58
327.2	9.14
327.573	8.69
327.945	8.89
328.318	8.63
328.691	8.91
329.063	8.72
329.436	8.62
329.809	8.77
330.181	8.78
330.553	9.38
330.926	9.65
331.298	8.66
331.671	8.71
332.043	9.16
332.415	9.25
332.787	9.58
333.159	8.96
333.532	9.53
333.904	9.64
334.276	9.16
334.648	9.45
335.02	9.08
335.391	9.89
335.763	9.59
336.135	9.11
336.507	9.63
336.879	9.1
337.25	9.64
337.622	9.37
337.993	9.2
338.365	9.48
338.736	9.6
339.108	8.53
339.479	9.57
339.851	10.07
340.222	9.83
340.593	9.71
340.964	9.93
341.336	8.95
341.707	9.69
342.078	9.53
342.449	9.78
342.82	9.74
343.191	9.31
343.562	10.08
343.933	9.61
344.303	10.11
344.674	9.74
345.045	10.1
345.416	9.83
345.786	9.72
346.157	9.83
346.527	9.74
346.898	9.88
347.268	10.03
347.639	10.29
348.009	10.17
348.38	9.75
348.75	9.99
349.12	10.2
349.49	10.03
349.861	10.34
350.231	10.32
350.601	10.6
350.971	10.24
351.341	10.55
351.711	10.35
352.081	10.49
352.45	10.17
352.82	10.66
353.19	10.3
353.56	10.3
353.929	10.64
354.299	10.15
354.669	10.72
355.038	10.64
355.408	11.05
355.777	10.52
356.147	10.67
356.516	10.91
356.885	10.39
357.254	11.19
357.624	10.85
357.993	10.68
358.362	11.04
358.731	10.72
359.1	11.15
359.469	10.96
359.838	10.37
360.207	10.93
360.576	11.04
360.945	11.03
361.314	11.42
361.682	10.76
362.051	11.2
362.42	11.1
362.788	11.04
363.157	11.21
363.525	11.05
363.894	11.01
364.262	11.05
364.631	11.9
364.999	10.94
365.367	11.68
365.735	10.82
366.104	10.85
366.472	11.33
366.84	11.45
367.208	11.1
367.576	11.42
367.944	11.75
368.312	11.23
368.68	11.12
369.048	11.89
369.416	11.42
369.783	11.8
370.151	11.71
370.519	11.38
370.886	11.79
371.254	11.75
371.621	11.79
371.989	11.93
372.356	11.94
372.724	12.24
373.091	11.96
373.458	11.77
373.826	11.9
374.193	12.26
374.56	11.96
374.927	12.19
375.294	12.04
375.661	12.31
376.028	12.44
376.395	12.01
376.762	12.44
377.129	12.41
377.496	12.1
377.863	12.18
378.229	12.46
378.596	12.51
378.963	12.13
379.329	12.28
379.696	12.41
380.062	12.99
380.429	12.72
380.795	12.44
381.161	12.52
381.528	12.1
381.894	12.71
382.26	12.47
382.626	12.79
382.993	12.87
383.359	12.56
383.725	13.07
384.091	12.77
384.457	12.97
384.823	13.04
385.188	13.3
385.554	12.81
385.92	13.17
386.286	13.1
386.651	13.21
387.017	13.64
387.383	13.2
387.748	13.12
388.114	13.33
388.479	13.24
388.845	13.44
389.21	13.47
389.575	13.22
389.94	13.3
390.306	13.46
390.671	13.33
391.036	13.64
391.401	13.96
391.766	13.47
392.131	13.33
392.496	13.67
392.861	13.41
393.226	13.66
393.591	13.73
393.956	13.72
394.32	13.7
394.685	13.77
395.05	13.59
395.414	13.68
395.779	13.71
396.143	13.77
396.508	13.91
396.872	14.02
397.236	13.88
397.601	14.21
397.965	13.57
398.329	14.18
398.694	14.16
399.058	14.23
399.422	14.22
399.786	14.17
400.15	14.14
400.514	14.35
400.878	14.1
401.242	14.12
401.605	14.27
401.969	14.28
402.333	14.26
402.697	14.53
403.06	14.61
403.424	14.35
403.787	14.65
404.151	14.5
404.514	14.71
404.878	14.69
405.241	14.67
405.604	14.6
405.968	14.5
406.331	14.59
406.694	14.67
407.057	14.98
407.42	14.95
407.783	14.8
408.146	14.96
408.509	14.85
408.872	14.71
409.235	14.87
409.598	15.11
409.961	15.06
410.323	14.9
410.686	14.79
411.049	14.99
411.411	15.16
411.774	15.22
412.136	15.33
412.499	15.02
412.861	14.88
413.223	15.23
413.586	15.36
413.948	15.32
414.31	15.69
414.672	15.35
415.035	15.39
415.397	15.31
415.759	15.57
416.121	15.77
416.483	15.81
416.845	15.63
417.206	15.7
417.568	15.57
417.93	15.75
418.292	15.71
418.653	15.74
419.015	15.81
419.377	15.69
419.738	15.79
420.1	15.74
420.461	15.77
420.822	15.68
421.184	15.84
421.545	15.77
421.906	15.87
422.267	15.78
422.629	15.84
422.99	15.8
423.351	15.89
423.712	15.92
424.073	16.02
424.434	16.08
424.795	16.17
425.155	16.1
425.516	15.91
425.877	16.13
426.238	16.03
426.598	16.24
426.959	15.9
427.32	16.3
427.68	16.27
428.041	16.4
428.401	16.47
428.761	16.77
429.122	16.56
429.482	16.66
429.842	16.74
430.202	16.78
430.563	16.81
430.923	16.77
431.283	17.13
431.643	16.65
432.003	17.13
432.363	16.97
432.722	17.14
433.082	17.11
433.442	17.19
433.802	17.23
434.161	17.1
434.521	17.26
434.881	17.26
435.24	17.09
435.6	17.23
435.959	17.19
436.319	17.26
436.678	17.3
437.037	17.24
437.396	17.38
437.756	17.38
438.115	17.76
438.474	17.45
438.833	17.61
439.192	17.68
439.551	17.6
439.91	17.73
440.269	18.01
440.628	17.72
440.987	17.68
441.345	17.82
441.704	17.9
442.063	17.8
442.421	17.97
442.78	17.84
443.138	17.83
443.497	17.87
443.855	18.15
444.214	17.91
444.572	18.09
444.93	18.44
445.288	18.37
445.647	18.24
446.005	18.3
446.363	18.52
446.721	18.31
447.079	18.33
447.437	18.26
447.795	18.16
448.153	18.24
448.51	18.17
448.868	18.39
449.226	18.29
449.584	18.46
449.941	18.68
450.299	18.53
450.656	18.71
451.014	18.72
451.371	18.79
451.729	18.81
452.086	18.77
452.443	18.77
452.801	19.29
453.158	18.9
453.515	19.17
453.872	19.27
454.229	19.05
454.586	19.07
454.943	19.17
455.3	19.36
455.657	19.39
456.014	19.5
456.371	19.5
456.727	19.58
457.084	19.47
457.441	19.61
457.797	19.49
458.154	19.69
458.51	19.78
458.867	19.81
459.223	19.96
459.58	19.76
459.936	19.6
460.292	19.89
460.648	19.78
461.005	19.78
461.361	19.67
461.717	19.59
462.073	19.61
462.429	19.82
462.785	19.88
463.141	19.92
463.496	20
463.852	20.02
464.208	20.25
464.564	20.19
464.919	20.16
465.275	20.28
465.631	20.65
465.986	20.59
466.342	20.77
466.697	20.52
467.052	20.6
467.408	20.51
467.763	20.6
468.118	20.67
468.473	20.79
468.829	20.63
469.184	20.92
469.539	20.84
469.894	20.8
470.249	20.87
470.603	20.86
470.958	21
471.313	20.86
471.668	20.91
472.023	21.2
472.377	21.01
472.732	21.05
473.086	21.1
473.441	21.43
473.795	21.4
474.15	21.34
474.504	21.5
474.859	21.54
475.213	21.17
475.567	21.34
475.921	21.57
476.275	21.62
476.63	21.72
476.984	21.69
477.338	21.85
477.692	21.8
478.045	21.95
478.399	21.81
478.753	21.69
479.107	21.81
479.461	21.75
479.814	21.78
480.168	21.8
480.521	21.89
480.875	22.03
481.228	22.07
481.582	21.82
481.935	22.12
482.289	22.07
482.642	22.05
482.995	22.14
483.348	22
483.701	21.97
484.055	22.07
484.408	22.09
484.761	21.84
485.114	21.85
485.466	21.71
485.819	21.46
486.172	21.29
486.525	21.28
486.878	21.45
487.23	21.81
487.583	21.95
487.936	22.11
488.288	22.23
488.641	22.17
488.993	22
489.345	22.09
489.698	22.05
490.05	22
490.402	22.09
490.754	22.26
491.107	22.38
491.459	22.56
491.811	22.74
492.163	22.84
492.515	22.9
492.866	22.76
493.218	22.65
493.57	22.46
493.922	22.34
494.274	22.55
494.625	22.73
494.977	22.88
495.328	23.3
495.68	23.55
496.031	23.56
496.383	23.57
496.734	23.74
497.086	23.8
497.437	23.84
497.788	23.89
498.139	23.79
498.49	23.86
498.842	23.66
499.193	23.84
499.544	23.79
499.894	24.03
500.245	24.01
500.596	24.01
500.947	24.01
501.298	24.07
501.648	24.04
501.999	24.51
502.35	24.34
502.7	24.42
503.051	24.7
503.401	24.47
503.752	24.48
504.102	24.49
504.452	24.75
504.803	24.69
505.153	24.88
505.503	24.91
505.853	24.8
506.203	24.69
506.553	24.89
506.903	24.97
507.253	24.89
507.603	24.92
507.953	24.9
508.303	25.18
508.652	25.3
509.002	25.2
509.352	25.15
509.701	25.24
510.051	25.28
510.4	25.12
510.75	25.11
511.099	25.18
511.449	25.25
511.798	25.28
512.147	25.28
512.496	25.3
512.846	25.38
513.195	25.49
513.544	25.6
513.893	25.48
514.242	25.48
514.591	25.57
514.939	25.63
515.288	25.72
515.637	25.86
515.986	25.8
516.334	26.07
516.683	25.93
517.032	26.09
517.38	26.16
517.729	26.32
518.077	26.14
518.426	26.22
518.774	26.28
519.122	26.16
519.47	26.11
519.819	26.03
520.167	26.16
520.515	25.96
520.863	25.85
521.211	25.94
521.559	26.18
521.907	26.24
522.255	26.38
522.602	26.78
522.95	26.61
523.298	26.67
523.645	26.76
523.993	26.85
524.341	26.89
524.688	27.02
525.036	26.81
525.383	26.98
525.73	27.1
526.078	26.97
526.425	27.05
526.772	26.97
527.119	26.94
527.466	26.81
527.814	26.75
528.161	26.72
528.508	26.78
528.854	26.83
529.201	26.98
529.548	26.91
529.895	26.98
530.242	26.83
530.588	26.59
530.935	26.24
531.282	26.26
531.628	26.5
531.975	26.74
532.321	26.88
532.667	27.07
533.014	27.2
533.36	27.34
533.706	27.58
534.052	27.47
534.399	27.55
534.745	27.29
535.091	27.28
535.437	27.22
535.783	27.13
536.129	27.31
536.474	27.43
536.82	27.47
537.166	28.02
537.512	28.13
537.857	28.14
538.203	28.27
538.549	27.93
538.894	27.84
539.239	27.98
539.585	28.18
539.93	28.37
540.276	28.41
540.621	28.44
540.966	28.76
541.311	28.83
541.656	28.79
542.001	28.88
542.346	28.6
542.691	28.48
543.036	28.23
543.381	28.03
543.726	27.92
544.071	27.98
544.415	28.16
544.76	28.39
545.105	28.4
545.449	28.6
545.794	28.68
546.138	28.98
546.483	29.01
546.827	29.23
547.171	29.18
547.516	29.35
547.86	29.36
548.204	29.38
548.548	29.44
548.892	29.37
549.236	29.38
549.58	29.32
549.924	29.47
550.268	29.78
550.612	29.9
550.956	29.84
551.3	29.95
551.643	30.07
551.987	30.28
552.33	30.15
552.674	30.35
553.017	30.49
553.361	30.32
553.704	30.44
554.048	30.39
554.391	30.42
554.734	30.35
555.077	30.26
555.42	30.39
555.764	30.46
556.107	30.42
556.45	30.68
556.793	30.99
557.135	30.87
557.478	30.95
557.821	30.8
558.164	31.04
558.507	31.09
558.849	31.24
559.192	31.11
559.534	30.82
559.877	31.16
560.219	31.37
560.562	31.24
560.904	31.32
561.246	31.6
561.589	31.4
561.931	31.55
562.273	31.23
562.615	31.88
562.957	31.57
563.299	31.7
563.641	31.79
563.983	31.79
564.325	31.59
564.667	31.61
565.008	31.69
565.35	32.01
565.692	31.76
566.033	32.08
566.375	31.92
566.716	32.16
567.058	32.11
567.399	32.01
567.741	32.19
568.082	31.94
568.423	31.95
568.764	32
569.105	31.79
569.447	32.18
569.788	32.16
570.129	32.33
570.47	32.4
570.811	32.47
571.151	32.56
571.492	32.37
571.833	32.64
572.174	32.45
572.514	32.7
572.855	32.73
573.195	32.65
573.536	32.54
573.876	32.7
574.217	32.35
574.557	32.63
574.898	32.5
575.238	32.65
575.578	32.89
575.918	32.77
576.258	33.13
576.598	33.04
576.938	33
577.278	33.22
577.618	32.94
577.958	33.28
578.298	33.26
578.638	33.29
578.977	33.37
579.317	33.53
579.657	33.48
579.996	33.44
580.336	33.62
580.675	33.62
581.014	33.9
581.354	33.72
581.693	33.9
582.032	33.84
582.372	33.77
582.711	33.96
583.05	34.04
583.389	33.85
583.728	34.12
584.067	34.11
584.406	33.97
584.745	33.95
585.083	34.58
585.422	34.26
585.761	34.48
586.1	34.24
586.438	34.6
586.777	34.44
587.115	34.33
587.454	34.63
587.792	34.25
588.13	34.71
588.469	34.67
588.807	34.97
589.145	35.03
589.483	34.66
589.821	34.69
590.159	34.92
590.497	34.89
590.835	34.96
591.173	35.11
591.511	35.32
591.849	35.14
592.187	34.77
592.524	34.89
592.862	34.92
593.2	35.04
593.537	35.16
593.875	35.05
594.212	35.33
594.55	35.35
594.887	35.3
595.224	35.33
595.561	35.49
595.899	35.47
596.236	35.59
596.573	35.57
596.91	35.65
597.247	35.61
597.584	35.78
597.921	35.78
598.258	35.95
598.594	35.66
598.931	35.63
599.268	35.25
599.604	35.59
599.941	35.86
600.277	35.52
600.614	35.87
600.95	35.85
601.287	36.19
601.623	36.28
601.959	35.89
602.296	36.16
602.632	36.18
602.968	36.22
603.304	36.29
603.64	36.23
603.976	36.12
604.312	36.68
604.648	36.73
604.984	36.47
605.319	36.47
605.655	36.39
605.991	36.56
606.326	36.58
606.662	36.35
606.998	36.19
607.333	36.33
607.668	36.32
608.004	36.18
608.339	36.98
608.674	37.02
609.01	36.98
609.345	37.38
609.68	36.95
610.015	37.42
610.35	37.23
610.685	37.71
611.02	37.54
611.355	37.1
611.689	37.02
612.024	37.06
612.359	37.11
612.694	37.03
613.028	37.48
613.363	37.43
613.697	37.49
614.032	37.79
614.366	37.7
614.7	37.93
615.035	37.67
615.369	37.78
615.703	37.88
616.037	37.54
616.371	38.21
616.705	37.85
617.039	38.39
617.373	37.67
617.707	38.48
618.041	38.43
618.375	38.06
618.709	38.19
619.042	38.05
619.376	38.35
619.71	38.21
620.043	38.35
620.377	38.47
620.71	38.43
621.043	38.21
621.377	38.13
621.71	38.42
622.043	38.64
622.376	38.67
622.709	38.91
623.043	38.72
623.376	38.46
623.709	38.96
624.041	38.46
624.374	38.73
624.707	39.28
625.04	38.94
625.373	39.01
625.705	38.85
626.038	39.05
626.37	39.01
626.703	39.24
627.035	38.97
627.368	39.04
627.7	39.34
628.032	39.63
628.365	39.45
628.697	39.45
629.029	39.57
629.361	39.66
629.693	39.5
630.025	39.5
630.357	39.07
630.689	39.95
631.021	39.49
631.353	40.08
631.684	39.73
632.016	39.67
632.348	39.88
632.679	39.77
633.011	39.86
633.342	40.24
633.674	39.66
634.005	40.18
634.336	40.25
634.668	40.28
634.999	40.23
635.33	40.43
635.661	40.38
635.992	40.29
636.323	40
636.654	40.11
636.985	40.37
637.316	40.28
637.647	40.7
637.977	41.01
638.308	40.06
638.639	40.45
638.969	40.61
639.3	40.56
639.63	40.22
639.961	40.41
640.291	40.89
640.622	40.95
640.952	41.29
641.282	40.47
641.612	40.72
641.943	41.54
642.273	40.89
642.603	41.04
642.933	40.84
643.263	41.28
643.592	40.87
643.922	41.32
644.252	40.81
644.582	40.97
644.911	41.24
645.241	40.54
645.571	41.09
645.9	41.8
646.23	41.72
646.559	41.44
646.888	41.97
647.218	41.5
647.547	41.42
647.876	42.01
648.205	41.45
648.534	41.28
648.863	41.39
649.192	41.63
649.521	41.74
649.85	42.14
650.179	41.3
650.508	41.97
650.837	41.76
651.165	41.85
651.494	41.65
651.822	42.19
652.151	42.6
652.479	42.17
652.808	41.85
653.136	41.94
653.465	42.4
653.793	42.71
654.121	42.38
654.449	42
654.777	42.35
655.105	42.08
655.433	42.73
655.761	41.89
656.089	42.17
656.417	43.03
656.745	43.33
657.073	42.87
657.4	43.1
657.728	43.09
658.056	42.99
658.383	43.13
658.711	42.8
659.038	43.53
659.365	43.19
659.693	43.2
660.02	43.25
660.347	43.6
660.674	42.93
661.001	42.95
661.329	43.09
661.656	43.21
661.982	43.41
662.309	42.69
662.636	43.02
662.963	44.07
663.29	43.41
663.616	43.65
663.943	43.25
664.27	42.99
664.596	43.56
664.923	43.94
665.249	43.48
665.576	43.57
665.902	43.5
666.228	43.43
666.554	43.97
666.881	44.27
667.207	43.98
667.533	43.48
667.859	44.03
668.185	44.43
668.511	43.57
668.837	44.61
669.162	44.3
669.488	44.22
669.814	44.68
670.139	44.34
670.465	44.09
670.791	44.82
