Data from 0072_forehead_Reflection__3__267.txt Node

Date: Fri Dec 16 16:02:01 CST 2022
User: ToomeyLab
Spectrometer: FLMS14357
Trigger mode: 0
Integration Time (sec): 1.000000E-2
Scans to average: 100
Electric dark correction enabled: true
Nonlinearity correction enabled: false
Boxcar width: 0
XAxis mode: Wavelengths
Number of Pixels in Spectrum: 2048
>>>>>Begin Spectral Data<<<<<
189.047	125.09
189.435	125.09
189.823	125.09
190.211	-96.63
190.599	595.75
190.987	47.21
191.375	-126.38
191.763	-58.34
192.151	-54.31
192.538	17.82
192.926	-22772.73
193.314	260.45
193.702	-181.43
194.089	747.09
194.477	-18.85
194.864	14.79
195.252	-498.29
195.639	83.2
196.027	14.09
196.414	213.88
196.801	-289.96
197.189	188.47
197.576	-188.59
197.963	76.23
198.351	13.37
198.738	-3.96
199.125	19.95
199.512	-3.47
199.899	1.76
200.286	-38.49
200.673	25.37
201.06	54.97
201.447	43.5
201.833	-23.45
202.22	14.33
202.607	-12.5
202.994	-11.16
203.38	-38.22
203.767	-18.8
204.154	-80.7
204.54	31.55
204.927	20.01
205.313	9.02
205.699	22.56
206.086	-7.18
206.472	-1.74
206.858	-2.3
207.245	26.34
207.631	-23.26
208.017	-7.61
208.403	22.09
208.789	16.45
209.175	26.9
209.561	22.08
209.947	-7.41
210.333	-12.8
210.719	-0.28
211.105	-26.98
211.491	14.73
211.876	-22.52
212.262	-19.57
212.648	-53.12
213.034	-0.74
213.419	21
213.805	-5.96
214.19	-21.59
214.576	-16.93
214.961	15.73
215.346	-66.15
215.732	-10.04
216.117	-13.96
216.502	-13.71
216.888	-4.34
217.273	6.41
217.658	-15.93
218.043	22.18
218.428	-11.95
218.813	-2.26
219.198	-19.15
219.583	-10.35
219.968	-27.63
220.353	11.87
220.738	-18.93
221.122	-13.93
221.507	4.02
221.892	18.2
222.276	21.51
222.661	0.35
223.046	9.25
223.43	5.4
223.815	6.94
224.199	6.5
224.583	9.86
224.968	12.98
225.352	5.23
225.736	10.52
226.121	-1.14
226.505	-1.36
226.889	13.6
227.273	6.27
227.657	2.4
228.041	2.86
228.425	3.47
228.809	5.75
229.193	3.99
229.577	5.2
229.961	5.55
230.344	6.13
230.728	5.74
231.112	6.63
231.495	5.27
231.879	5.4
232.263	3.29
232.646	3.7
233.03	2.45
233.413	6.22
233.797	6.52
234.18	2.31
234.563	3.75
234.946	6.17
235.33	6.86
235.713	6.56
236.096	4.79
236.479	5.17
236.862	6.04
237.245	5.3
237.628	7.5
238.011	5.93
238.394	5.47
238.777	5.37
239.16	3.8
239.543	5.79
239.925	5.76
240.308	6.51
240.691	5.63
241.073	6.24
241.456	5.39
241.838	5.59
242.221	5.3
242.603	5.29
242.986	6.18
243.368	5.4
243.75	5.49
244.133	5.57
244.515	6.13
244.897	5.71
245.279	5.13
245.661	5.55
246.043	5.92
246.425	5.17
246.807	5.42
247.189	5.95
247.571	5.73
247.953	5.64
248.335	5.77
248.717	5.69
249.098	5.64
249.48	5.39
249.862	5.83
250.243	5.69
250.625	5.79
251.006	5.35
251.388	7.4
251.769	5.61
252.151	5.89
252.532	5.4
252.913	5.86
253.295	5.69
253.676	5.99
254.057	5.16
254.438	5.14
254.819	6.08
255.2	6.27
255.581	5.58
255.962	5.23
256.343	6.1
256.724	6.42
257.105	6.61
257.486	6.6
257.867	4.33
258.247	6.19
258.628	6.76
259.009	6.34
259.389	5.63
259.77	5.47
260.15	6.01
260.531	5.89
260.911	5.53
261.292	5.57
261.672	5.29
262.052	5.59
262.432	5.5
262.813	5.12
263.193	5.31
263.573	5.62
263.953	5.54
264.333	5.56
264.713	5.15
265.093	5.66
265.473	6.2
265.853	5.29
266.233	4.85
266.612	6
266.992	5.23
267.372	4.89
267.752	5.23
268.131	5.1
268.511	5.61
268.89	6.17
269.27	5.91
269.649	5.74
270.029	5.74
270.408	5.5
270.787	5.38
271.167	5.5
271.546	4.83
271.925	5.46
272.304	5.58
272.683	5.35
273.062	5.32
273.441	5.51
273.82	5.59
274.199	5.58
274.578	5.46
274.957	5.88
275.336	5.26
275.715	6.12
276.093	5.8
276.472	5.46
276.851	5.42
277.229	6.04
277.608	6.15
277.986	5.53
278.365	5.41
278.743	5.76
279.122	4.67
279.5	5.06
279.878	4.54
280.257	5.56
280.635	5.31
281.013	5.64
281.391	5.43
281.769	5.21
282.147	5.32
282.525	5.79
282.903	5.61
283.281	5.42
283.659	5.52
284.037	5.08
284.415	5.35
284.792	5.83
285.17	5.41
285.548	5.35
285.925	5.51
286.303	5.15
286.68	5.5
287.058	5.48
287.435	5.05
287.813	5.77
288.19	5.84
288.567	5.17
288.945	5.73
289.322	5.41
289.699	5.57
290.076	6.19
290.453	5.49
290.83	5.96
291.207	6.04
291.584	5.34
291.961	5.74
292.338	5.65
292.715	5.98
293.092	5.65
293.469	6.25
293.845	5.89
294.222	5.97
294.599	6.51
294.975	6.43
295.352	5.7
295.728	6.32
296.105	5.84
296.481	6.41
296.858	6.43
297.234	6.1
297.61	6.45
297.986	6.18
298.363	6.13
298.739	6.31
299.115	5.91
299.491	6.33
299.867	6.45
300.243	6.32
300.619	5.88
300.995	6.67
301.371	6.53
301.746	6.25
302.122	6.45
302.498	6.45
302.874	6.96
303.249	7.02
303.625	6.6
304	5.85
304.376	6.18
304.751	6.84
305.127	6.5
305.502	6.92
305.878	6.61
306.253	6.33
306.628	6.68
307.003	6.76
307.378	6.44
307.754	6.6
308.129	5.97
308.504	6.55
308.879	6.98
309.254	7.14
309.629	6.95
310.003	7.36
310.378	7.05
310.753	6.78
311.128	6.61
311.502	6.64
311.877	7.05
312.252	6.8
312.626	6.71
313.001	6.8
313.375	7.09
313.75	6.92
314.124	7.44
314.498	6.64
314.873	6.82
315.247	7.02
315.621	6.87
315.995	6.88
316.369	6.87
316.743	7.25
317.117	7.14
317.491	7.39
317.865	6.77
318.239	7.61
318.613	7.1
318.987	6.99
319.361	7.6
319.734	7.41
320.108	6.75
320.482	6.81
320.855	7.32
321.229	7.7
321.602	7.49
321.976	7.52
322.349	7.08
322.723	6.73
323.096	7.55
323.469	6.96
323.843	7.85
324.216	7.23
324.589	7.66
324.962	7.54
325.335	7.47
325.708	7.56
326.081	7.91
326.454	7.2
326.827	7.93
327.2	8.01
327.573	7.73
327.945	8.03
328.318	7.86
328.691	7.33
329.063	7.5
329.436	7.58
329.809	7.31
330.181	7.15
330.553	8.17
330.926	7.75
331.298	6.79
331.671	7.8
332.043	7.39
332.415	8.14
332.787	8.38
333.159	8.03
333.532	7.54
333.904	7.69
334.276	7.54
334.648	7.87
335.02	7.66
335.391	8.04
335.763	7.67
336.135	7.65
336.507	8
336.879	7.77
337.25	7.8
337.622	8.12
337.993	7.83
338.365	8.61
338.736	7.93
339.108	7.78
339.479	8.04
339.851	8.2
340.222	8.35
340.593	7.85
340.964	8.1
341.336	7.19
341.707	8.13
342.078	7.76
342.449	8.55
342.82	7.79
343.191	7.89
343.562	8.52
343.933	8.11
344.303	8.28
344.674	8.23
345.045	8.63
345.416	8.25
345.786	7.69
346.157	8.42
346.527	8.02
346.898	8.01
347.268	8.17
347.639	8.71
348.009	8.61
348.38	8.43
348.75	8.26
349.12	8.31
349.49	8.07
349.861	8.31
350.231	8.45
350.601	8.45
350.971	8.26
351.341	8.52
351.711	8
352.081	8.32
352.45	8.38
352.82	8.6
353.19	8.2
353.56	8.54
353.929	8.68
354.299	8.33
354.669	8.66
355.038	8.6
355.408	9.32
355.777	8.12
356.147	9.06
356.516	8.73
356.885	8.55
357.254	8.76
357.624	8.67
357.993	8.46
358.362	9.03
358.731	8.64
359.1	8.86
359.469	8.67
359.838	8.45
360.207	8.5
360.576	8.87
360.945	8.73
361.314	8.84
361.682	8.55
362.051	8.75
362.42	9
362.788	9
363.157	8.77
363.525	8.9
363.894	8.5
364.262	8.76
364.631	9.4
364.999	8.69
365.367	9.27
365.735	8.71
366.104	8.89
366.472	9.04
366.84	9.33
367.208	8.69
367.576	9.18
367.944	9.1
368.312	8.49
368.68	9.28
369.048	9.29
369.416	9.14
369.783	9.25
370.151	9.44
370.519	8.88
370.886	8.98
371.254	9.37
371.621	9
371.989	9.32
372.356	9.3
372.724	9.09
373.091	9.14
373.458	9.21
373.826	8.88
374.193	9.59
374.56	9.13
374.927	9.15
375.294	9.5
375.661	9.32
376.028	9.66
376.395	9.14
376.762	9.51
377.129	9.4
377.496	9.36
377.863	9.36
378.229	9.57
378.596	9.38
378.963	9.33
379.329	9.72
379.696	9.46
380.062	9.97
380.429	9.79
380.795	9.41
381.161	9.78
381.528	9.04
381.894	9.8
382.26	9.4
382.626	9.49
382.993	9.73
383.359	9.59
383.725	9.88
384.091	9.57
384.457	9.76
384.823	9.86
385.188	9.52
385.554	9.8
385.92	9.82
386.286	9.94
386.651	9.64
387.017	9.97
387.383	9.92
387.748	9.87
388.114	9.83
388.479	10.08
388.845	10
389.21	9.97
389.575	9.89
389.94	9.94
390.306	9.84
390.671	9.94
391.036	9.96
391.401	10.58
391.766	10.3
392.131	9.93
392.496	9.75
392.861	9.96
393.226	10.09
393.591	10.25
393.956	10.07
394.32	10.31
394.685	10.26
395.05	9.88
395.414	10.33
395.779	10.28
396.143	10.42
396.508	10.38
396.872	10.45
397.236	9.96
397.601	10.35
397.965	10.15
398.329	10.54
398.694	10.15
399.058	10.44
399.422	10.62
399.786	10.53
400.15	10.48
400.514	10.56
400.878	10.4
401.242	10.52
401.605	10.34
401.969	10.47
402.333	10.58
402.697	10.83
403.06	10.68
403.424	10.68
403.787	10.86
404.151	10.44
404.514	10.71
404.878	10.55
405.241	10.7
405.604	10.65
405.968	10.52
406.331	10.86
406.694	10.9
407.057	10.98
407.42	10.67
407.783	10.53
408.146	10.88
408.509	10.48
408.872	10.74
409.235	11.04
409.598	10.93
409.961	11.05
410.323	10.93
410.686	10.75
411.049	10.69
411.411	11.01
411.774	10.83
412.136	11.09
412.499	10.98
412.861	10.8
413.223	11.08
413.586	10.71
413.948	11.03
414.31	11.28
414.672	10.93
415.035	11.02
415.397	11.5
415.759	11.13
416.121	11.11
416.483	11.32
416.845	11.19
417.206	11.1
417.568	11.1
417.93	11
418.292	11.02
418.653	11.02
419.015	11.45
419.377	11.22
419.738	11.21
420.1	11.18
420.461	11.01
420.822	11.15
421.184	11.11
421.545	11.03
421.906	11.08
422.267	10.98
422.629	11.16
422.99	11.11
423.351	11.33
423.712	11.28
424.073	11.33
424.434	11.18
424.795	11.19
425.155	11.27
425.516	11.09
425.877	11.27
426.238	11.26
426.598	11.42
426.959	11.35
427.32	11.44
427.68	11.47
428.041	11.8
428.401	11.41
428.761	11.46
429.122	11.66
429.482	11.55
429.842	11.59
430.202	11.79
430.563	11.68
430.923	11.6
431.283	11.82
431.643	11.84
432.003	11.82
432.363	11.84
432.722	11.8
433.082	11.83
433.442	11.99
433.802	11.94
434.161	11.8
434.521	11.8
434.881	12.08
435.24	11.84
435.6	11.99
435.959	12.04
436.319	11.88
436.678	12.04
437.037	12.09
437.396	12.09
437.756	12.02
438.115	11.94
438.474	12.1
438.833	12.23
439.192	12.22
439.551	12.09
439.91	12.17
440.269	12.15
440.628	12.2
440.987	12.1
441.345	12.12
441.704	12.01
442.063	12.22
442.421	12.09
442.78	12.15
443.138	12.16
443.497	12.2
443.855	12.27
444.214	12.43
444.572	12.45
444.93	12.5
445.288	12.53
445.647	12.45
446.005	12.26
446.363	12.36
446.721	12.19
447.079	12.44
447.437	12.26
447.795	12.19
448.153	12.43
448.51	12.31
448.868	12.54
449.226	12.49
449.584	12.48
449.941	12.68
450.299	12.55
450.656	12.7
451.014	12.66
451.371	12.81
451.729	12.92
452.086	12.77
452.443	12.8
452.801	12.98
453.158	12.78
453.515	12.75
453.872	12.91
454.229	12.84
454.586	12.94
454.943	13
455.3	13.21
455.657	12.91
456.014	13.16
456.371	13.1
456.727	13.19
457.084	13.06
457.441	13.1
457.797	13.15
458.154	13.14
458.51	13.09
458.867	13.25
459.223	13.27
459.58	13.11
459.936	13.1
460.292	13.23
460.648	13.03
461.005	12.92
461.361	12.85
461.717	13.01
462.073	13.23
462.429	13.44
462.785	13.5
463.141	13.59
463.496	13.45
463.852	13.5
464.208	13.45
464.564	13.5
464.919	13.52
465.275	13.61
465.631	13.58
465.986	13.68
466.342	13.78
466.697	13.62
467.052	13.6
467.408	13.52
467.763	13.58
468.118	13.81
468.473	13.8
468.829	13.81
469.184	13.84
469.539	13.52
469.894	13.82
470.249	14.06
470.603	13.97
470.958	14.03
471.313	13.88
471.668	14.01
472.023	14.13
472.377	14.05
472.732	14.07
473.086	13.88
473.441	13.95
473.795	14.36
474.15	14.07
474.504	14.12
474.859	14.24
475.213	14.2
475.567	14.23
475.921	14.41
476.275	14.31
476.63	14.37
476.984	14.1
477.338	14.4
477.692	14.15
478.045	14.38
478.399	14.37
478.753	14.27
479.107	14.3
479.461	14.28
479.814	14.3
480.168	14.38
480.521	14.44
480.875	14.55
481.228	14.51
481.582	14.3
481.935	14.37
482.289	14.31
482.642	14.42
482.995	14.44
483.348	14.38
483.701	14.3
484.055	14.17
484.408	14.08
484.761	13.76
485.114	13.58
485.466	13.7
485.819	13.85
486.172	14.15
486.525	14.36
486.878	14.41
487.23	14.4
487.583	14.55
487.936	14.38
488.288	14.18
488.641	14.16
488.993	14.12
489.345	14.12
489.698	14.33
490.05	14.45
490.402	14.65
490.754	14.81
491.107	14.77
491.459	14.86
491.811	14.92
492.163	14.82
492.515	14.56
492.866	14.17
493.218	14.34
493.57	14.57
493.922	14.77
494.274	14.99
494.625	15.09
494.977	15.27
495.328	15.34
495.68	15.45
496.031	15.4
496.383	15.29
496.734	15.4
497.086	15.3
497.437	15.49
497.788	15.32
498.139	15.18
498.49	15.39
498.842	15.38
499.193	15.49
499.544	15.45
499.894	15.65
500.245	15.67
500.596	15.63
500.947	15.64
501.298	15.73
501.648	15.82
501.999	15.81
502.35	15.77
502.7	15.77
503.051	16
503.401	15.88
503.752	15.85
504.102	15.94
504.452	15.7
504.803	15.82
505.153	15.97
505.503	15.76
505.853	15.96
506.203	15.92
506.553	16.09
506.903	16.01
507.253	16.01
507.603	16.04
507.953	16.2
508.303	16.1
508.652	16.16
509.002	16.15
509.352	16.12
509.701	15.93
510.051	16.17
510.4	16.08
510.75	16.08
511.099	16.2
511.449	16.12
511.798	16.28
512.147	16.35
512.496	16.47
512.846	16.31
513.195	16.23
513.544	16.23
513.893	16.12
514.242	16.41
514.591	16.37
514.939	16.38
515.288	16.45
515.637	16.66
515.986	16.5
516.334	16.65
516.683	16.62
517.032	16.72
517.38	16.74
517.729	16.56
518.077	16.56
518.426	16.58
518.774	16.66
519.122	16.5
519.47	16.49
519.819	16.45
520.167	16.5
520.515	16.4
520.863	16.6
521.211	16.63
521.559	16.74
521.907	16.88
522.255	16.98
522.602	16.98
522.95	17.15
523.298	16.98
523.645	17.02
523.993	17.11
524.341	17.18
524.688	17.01
525.036	17.1
525.383	17.14
525.73	17.23
526.078	17.05
526.425	17.02
526.772	16.79
527.119	16.76
527.466	16.91
527.814	16.91
528.161	17.01
528.508	16.93
528.854	16.88
529.201	16.69
529.548	16.53
529.895	16.3
530.242	16.43
530.588	16.59
530.935	16.87
531.282	17.02
531.628	17.11
531.975	17.28
532.321	17.36
532.667	17.34
533.014	17.37
533.36	17.4
533.706	17.34
534.052	17.22
534.399	16.95
534.745	16.89
535.091	17.07
535.437	17.3
535.783	17.58
536.129	17.66
536.474	17.68
536.82	17.79
537.166	17.83
537.512	17.67
537.857	17.51
538.203	17.55
538.549	17.58
538.894	17.89
539.239	18.11
539.585	18.04
539.93	18.28
540.276	18.09
540.621	18.08
540.966	18.08
541.311	18.08
541.656	17.89
542.001	17.97
542.346	17.53
542.691	17.31
543.036	17.37
543.381	17.66
543.726	17.87
544.071	18.04
544.415	18.12
544.76	18
545.105	18.08
545.449	18.24
545.794	18.27
546.138	18.62
546.483	18.45
546.827	18.52
547.171	18.45
547.516	18.55
547.86	18.47
548.204	18.4
548.548	18.39
548.892	18.59
549.236	18.75
549.58	18.81
549.924	18.93
550.268	18.91
550.612	19.02
550.956	19.03
551.3	19.03
551.643	19.05
551.987	19.08
552.33	19.07
552.674	19.14
553.017	19.05
553.361	19.07
553.704	19
554.048	19.14
554.391	19.14
554.734	19.16
555.077	19.26
555.42	19.3
555.764	19.3
556.107	19.38
556.45	19.3
556.793	19.65
557.135	19.59
557.478	19.56
557.821	19.34
558.164	19.5
558.507	19.36
558.849	19.7
559.192	19.69
559.534	19.45
559.877	19.74
560.219	19.78
560.562	19.71
560.904	19.58
561.246	19.87
561.589	19.58
561.931	19.96
562.273	19.71
562.615	19.73
562.957	20
563.299	19.85
563.641	20.16
563.983	19.93
564.325	19.96
564.667	19.99
565.008	20
565.35	20.21
565.692	20.3
566.033	20.08
566.375	19.79
566.716	19.89
567.058	19.96
567.399	20.07
567.741	20.14
568.082	19.83
568.423	20.12
568.764	20.35
569.105	20.3
569.447	20.19
569.788	20.31
570.129	20.33
570.47	20.48
570.811	20.48
571.151	20.2
571.492	20.6
571.833	20.42
572.174	20.18
572.514	20.37
572.855	20.25
573.195	20.32
573.536	20.4
573.876	20.32
574.217	20.42
574.557	20.62
574.898	20.63
575.238	20.6
575.578	20.65
575.918	20.64
576.258	20.64
576.598	20.74
576.938	20.86
577.278	20.94
577.618	20.74
577.958	20.94
578.298	20.99
578.638	20.86
578.977	21.04
579.317	21.22
579.657	21.06
579.996	21.13
580.336	21.18
580.675	21.2
581.014	21.44
581.354	21.24
581.693	21.13
582.032	21.38
582.372	21.44
582.711	21.38
583.05	21.49
583.389	21.51
583.728	21.44
584.067	21.66
584.406	21.69
584.745	21.53
585.083	22.08
585.422	21.82
585.761	21.84
586.1	21.73
586.438	21.77
586.777	21.73
587.115	21.69
587.454	21.61
587.792	21.83
588.13	21.89
588.469	21.74
588.807	21.75
589.145	22.02
589.483	21.63
589.821	22.15
590.159	21.91
590.497	21.51
590.835	22.02
591.173	22.11
591.511	22.03
591.849	22
592.187	22.03
592.524	22.07
592.862	21.91
593.2	21.94
593.537	22.05
593.875	22.13
594.212	22.03
594.55	22.33
594.887	22.34
595.224	22.15
595.561	22.18
595.899	22.08
596.236	22.32
596.573	22.4
596.91	22.57
597.247	22.37
597.584	22.36
597.921	22.09
598.258	22.21
598.594	21.89
598.931	22.12
599.268	22.34
599.604	22.62
599.941	22.53
600.277	22.7
600.614	22.75
600.95	22.73
601.287	22.86
601.623	22.77
601.959	22.63
602.296	22.63
602.632	22.8
602.968	22.77
603.304	22.73
603.64	22.76
603.976	22.93
604.312	22.89
604.648	22.73
604.984	22.67
605.319	22.55
605.655	22.88
605.991	22.83
606.326	22.56
606.662	22.83
606.998	22.92
607.333	23.17
607.668	23.14
608.004	23.17
608.339	23.26
608.674	23.23
609.01	23.46
609.345	23.41
609.68	23.01
610.015	23.13
610.35	23.42
610.685	23.25
611.02	23.21
611.355	23.01
611.689	23.23
612.024	23.39
612.359	23.31
612.694	23.77
613.028	23.84
613.363	23.7
613.697	23.5
614.032	24.11
614.366	23.62
614.7	23.8
615.035	23.8
615.369	23.64
615.703	23.92
616.037	23.72
616.371	23.82
616.705	24.19
617.039	24.08
617.373	23.86
617.707	24.01
618.041	24.28
618.375	23.88
618.709	24.28
619.042	24.17
619.376	23.88
619.71	23.89
620.043	24.06
620.377	23.88
620.71	23.84
621.043	24.25
621.377	24.16
621.71	24.31
622.043	24.33
622.376	24.36
622.709	24.63
623.043	24.4
623.376	24.47
623.709	24.79
624.041	24.33
624.374	24.38
624.707	24.85
625.04	24.41
625.373	24.45
625.705	24.53
626.038	24.44
626.37	24.31
626.703	24.63
627.035	24.74
627.368	25.09
627.7	24.47
628.032	24.72
628.365	24.45
628.697	24.45
629.029	24.81
629.361	24.9
629.693	25.13
630.025	24.8
630.357	24.88
630.689	24.87
631.021	25.09
631.353	25.03
631.684	24.99
632.016	24.96
632.348	25.41
632.679	24.97
633.011	25.02
633.342	25.34
633.674	25.2
634.005	24.87
634.336	25.51
634.668	25.38
634.999	25.39
635.33	25.03
635.661	25.43
635.992	25.27
636.323	25.51
636.654	25.45
636.985	25.12
637.316	25.38
637.647	25.73
637.977	25.65
638.308	25.14
638.639	25.68
638.969	25.66
639.3	25.65
639.63	24.93
639.961	25.56
640.291	26.03
640.622	25.65
640.952	25.88
641.282	25.51
641.612	25.22
641.943	25.91
642.273	25.8
642.603	26.35
642.933	26.2
643.263	26.11
643.592	26.17
643.922	26.03
644.252	26.22
644.582	26.18
644.911	26.11
645.241	26.41
645.571	26.1
645.9	26.55
646.23	26.34
646.559	26.32
646.888	26.24
647.218	26.73
647.547	26.49
647.876	26.7
648.205	26.14
648.534	25.99
648.863	26.54
649.192	26.26
649.521	26.12
649.85	26.76
650.179	26.22
650.508	26.51
650.837	26.59
651.165	26.75
651.494	26.83
651.822	26.21
652.151	27.21
652.479	27.13
652.808	26.55
653.136	26.79
653.465	27.1
653.793	26.97
654.121	26.93
654.449	26.65
654.777	27.34
655.105	27.35
655.433	26.99
655.761	26.87
656.089	27.56
656.417	26.89
656.745	27.64
657.073	26.9
657.4	27.08
657.728	27
658.056	27.34
658.383	27.47
658.711	26.8
659.038	27.59
659.365	27.12
659.693	27.41
660.02	27.14
660.347	27.01
660.674	27.12
661.001	26.97
661.329	27.6
661.656	27.57
661.982	27.45
662.309	27.22
662.636	27.49
662.963	27.58
663.29	27.45
663.616	28.02
663.943	27.66
664.27	27.96
664.596	28
664.923	27.54
665.249	27.74
665.576	27.87
665.902	27.74
666.228	27.91
666.554	27.85
666.881	27.93
667.207	27.65
667.533	27.66
667.859	27.56
668.185	28.41
668.511	27.4
668.837	27.84
669.162	28.06
669.488	27.79
669.814	28.55
670.139	28.18
670.465	27.95
670.791	28.11
671.116	28.28
671.442	28.28
671.767	28.28
672.092	28.4
672.418	28.66
672.743	27.97
673.068	28.29
673.393	28.53
673.718	28.47
674.043	28.09
