Data from 0072_chest_Reflection__3__257.txt Node

Date: Fri Dec 16 15:56:42 CST 2022
User: ToomeyLab
Spectrometer: FLMS14357
Trigger mode: 0
Integration Time (sec): 1.000000E-2
Scans to average: 100
Electric dark correction enabled: true
Nonlinearity correction enabled: false
Boxcar width: 0
XAxis mode: Wavelengths
Number of Pixels in Spectrum: 2048
>>>>>Begin Spectral Data<<<<<
189.047	98.68
189.435	98.68
189.823	98.68
190.211	-133.65
190.599	-725.35
190.987	-35.01
191.375	-40
191.763	103.36
192.151	2.88
192.538	22.56
192.926	21690.91
193.314	205.11
193.702	-757.41
194.089	709.37
194.477	61.54
194.864	-73.6
195.252	1447.86
195.639	115.41
196.027	123.61
196.414	-276.68
196.801	-31.73
197.189	106.18
197.576	57.17
197.963	-37.05
198.351	4.98
198.738	17.42
199.125	36.78
199.512	-19.83
199.899	39.89
200.286	-36.23
200.673	40.26
201.06	36.96
201.447	55.22
201.833	37.63
202.22	23.46
202.607	-17.47
202.994	27.94
203.38	-25.58
203.767	-18.58
204.154	-11.15
204.54	42
204.927	18.21
205.313	13.63
205.699	9.26
206.086	-40.71
206.472	-3.83
206.858	-13.85
207.245	9.09
207.631	-19
208.017	28.06
208.403	34.94
208.789	12.78
209.175	43.1
209.561	6.1
209.947	14.82
210.333	-29.35
210.719	-3.22
211.105	-12.72
211.491	-4.54
211.876	5.58
212.262	-21.64
212.648	-4.67
213.034	2.17
213.419	16.71
213.805	18.58
214.19	-0.12
214.576	6.28
214.961	15.88
215.346	-6.23
215.732	-19.06
216.117	4.34
216.502	-52.58
216.888	-30.73
217.273	13.83
217.658	9.05
218.043	0.27
218.428	-5.53
218.813	-10.8
219.198	-42.75
219.583	9.6
219.968	0.34
220.353	13.39
220.738	-18.74
221.122	8.29
221.507	-16.37
221.892	-4.31
222.276	8.52
222.661	-5.57
223.046	9.26
223.43	-10.95
223.815	0.86
224.199	7.21
224.583	1.87
224.968	4.61
225.352	-1.23
225.736	-5.75
226.121	0.48
226.505	5.53
226.889	8.19
227.273	8.32
227.657	-0.47
228.041	0.66
228.425	3.08
228.809	3.42
229.193	1.25
229.577	5.62
229.961	5.03
230.344	5.96
230.728	5.12
231.112	4.43
231.495	4.7
231.879	5.09
232.263	5.1
232.646	4.62
233.03	1.98
233.413	3.48
233.797	7.72
234.18	4.99
234.563	3.47
234.946	4.47
235.33	5.28
235.713	4.34
236.096	4.16
236.479	4.06
236.862	4.44
237.245	4.85
237.628	5.99
238.011	4.1
238.394	5.59
238.777	4.19
239.16	2
239.543	4.41
239.925	5.38
240.308	6.24
240.691	4.84
241.073	4.22
241.456	4.81
241.838	5.17
242.221	4.91
242.603	4.57
242.986	5.93
243.368	4.83
243.75	4.67
244.133	5.37
244.515	5.22
244.897	4.33
245.279	4.73
245.661	4.99
246.043	4.8
246.425	4.04
246.807	5.03
247.189	4.74
247.571	5.16
247.953	4.82
248.335	5.07
248.717	4.91
249.098	4.86
249.48	4.5
249.862	4.87
250.243	4.83
250.625	4.94
251.006	4.63
251.388	5.02
251.769	5.25
252.151	5.18
252.532	4.69
252.913	4.56
253.295	4.46
253.676	5.02
254.057	4.65
254.438	4.1
254.819	5.42
255.2	5.01
255.581	3.96
255.962	4.11
256.343	4.93
256.724	4.93
257.105	4.86
257.486	4.5
257.867	2.95
258.247	4.65
258.628	5.33
259.009	4.44
259.389	5
259.77	4.86
260.15	5.16
260.531	4.83
260.911	4.59
261.292	4.63
261.672	4.39
262.052	4.69
262.432	4.03
262.813	4.47
263.193	4.22
263.573	4.03
263.953	4.58
264.333	4.73
264.713	4.24
265.093	4.55
265.473	5.28
265.853	5.06
266.233	3.96
266.612	4.72
266.992	4.62
267.372	3.86
267.752	4.82
268.131	4.26
268.511	4.98
268.89	4.81
269.27	4.74
269.649	4.79
270.029	4.43
270.408	4.42
270.787	4.77
271.167	4.38
271.546	4.09
271.925	4.47
272.304	4.56
272.683	4.5
273.062	4.63
273.441	4.74
273.82	4.45
274.199	4.73
274.578	4.11
274.957	4.12
275.336	4.16
275.715	5.03
276.093	5.06
276.472	4.08
276.851	5.13
277.229	4.9
277.608	4.24
277.986	4.53
278.365	4
278.743	4.77
279.122	3.93
279.5	4.64
279.878	3.88
280.257	4.46
280.635	3.78
281.013	4.97
281.391	4.28
281.769	4.13
282.147	4.42
282.525	4.34
282.903	4.42
283.281	4.34
283.659	4.55
284.037	4.25
284.415	4.11
284.792	4.44
285.17	4.35
285.548	3.98
285.925	4.08
286.303	4.27
286.68	4.6
287.058	4.72
287.435	3.9
287.813	4.62
288.19	4.59
288.567	4.08
288.945	4.23
289.322	4.25
289.699	4.29
290.076	4.87
290.453	4.61
290.83	4.37
291.207	4.35
291.584	4.36
291.961	4.62
292.338	4.29
292.715	4.3
293.092	4.44
293.469	4.59
293.845	4.46
294.222	4.61
294.599	4.78
294.975	4.66
295.352	4.1
295.728	4.41
296.105	4.57
296.481	5.11
296.858	4.67
297.234	4.46
297.61	4.78
297.986	4.52
298.363	4.12
298.739	4.71
299.115	4.01
299.491	4.32
299.867	4.83
300.243	4.19
300.619	4.7
300.995	4.47
301.371	4.83
301.746	4.4
302.122	4.47
302.498	4.66
302.874	4.7
303.249	4.59
303.625	4.77
304	4.34
304.376	4.65
304.751	4.68
305.127	4.34
305.502	4.99
305.878	4.25
306.253	4.09
306.628	4.67
307.003	4.99
307.378	4.62
307.754	4.44
308.129	4.66
308.504	4.38
308.879	4.78
309.254	4.99
309.629	4.54
310.003	4.72
310.378	4.7
310.753	4.75
311.128	4.87
311.502	4.1
311.877	4.53
312.252	4.28
312.626	4.32
313.001	4.44
313.375	4.59
313.75	4.41
314.124	5
314.498	4.4
314.873	4.39
315.247	4.15
315.621	4.83
315.995	4.68
316.369	4.95
316.743	4.92
317.117	4.7
317.491	4.72
317.865	4.18
318.239	4.89
318.613	4.65
318.987	4.63
319.361	4.43
319.734	4.86
320.108	4.78
320.482	4.5
320.855	4.58
321.229	4.83
321.602	4.53
321.976	4.4
322.349	3.61
322.723	3.89
323.096	3.96
323.469	3.71
323.843	5.17
324.216	4.31
324.589	5.09
324.962	4.09
325.335	4.65
325.708	4.7
326.081	4.61
326.454	4.47
326.827	4.59
327.2	5.17
327.573	4.49
327.945	4.66
328.318	4.85
328.691	4.49
329.063	4.85
329.436	4.38
329.809	4.33
330.181	4.56
330.553	4.71
330.926	4.45
331.298	3.92
331.671	4.19
332.043	4.55
332.415	4.91
332.787	5.08
333.159	4.69
333.532	4.7
333.904	4.61
334.276	4.38
334.648	4.36
335.02	4.13
335.391	5.21
335.763	4.5
336.135	4.95
336.507	4.69
336.879	5.1
337.25	4.92
337.622	4.61
337.993	4.55
338.365	4.99
338.736	4.66
339.108	4.88
339.479	4.47
339.851	4.91
340.222	4.99
340.593	4.37
340.964	4.86
341.336	4.5
341.707	4.66
342.078	4.99
342.449	4.71
342.82	4.52
343.191	4.53
343.562	4.58
343.933	4.75
344.303	4.96
344.674	4.97
345.045	4.92
345.416	4.53
345.786	4.38
346.157	4.62
346.527	4.56
346.898	5.09
347.268	4.65
347.639	4.79
348.009	5.26
348.38	4.69
348.75	4.6
349.12	4.43
349.49	4.42
349.861	4.63
350.231	4.66
350.601	4.58
350.971	4.46
351.341	4.63
351.711	4.77
352.081	4.96
352.45	4.96
352.82	4.98
353.19	4.62
353.56	4.84
353.929	4.82
354.299	4.58
354.669	4.71
355.038	4.48
355.408	5.32
355.777	4.58
356.147	5.28
356.516	5.17
356.885	4.6
357.254	5.13
357.624	5.12
357.993	4.74
358.362	4.91
358.731	4.84
359.1	5.02
359.469	4.73
359.838	4.69
360.207	4.7
360.576	4.91
360.945	4.66
361.314	4.59
361.682	4.84
362.051	4.53
362.42	4.89
362.788	4.78
363.157	4.73
363.525	4.77
363.894	4.45
364.262	4.86
364.631	5.62
364.999	4.45
365.367	5.09
365.735	4.54
366.104	4.84
366.472	4.81
366.84	4.88
367.208	4.53
367.576	5.11
367.944	4.93
368.312	4.46
368.68	4.81
369.048	4.79
369.416	4.8
369.783	5.17
370.151	4.99
370.519	4.94
370.886	4.74
371.254	4.94
371.621	4.6
371.989	4.75
372.356	4.89
372.724	5.11
373.091	4.61
373.458	4.9
373.826	4.73
374.193	5.06
374.56	4.57
374.927	4.67
375.294	4.91
375.661	4.64
376.028	5.13
376.395	5.01
376.762	5.22
377.129	5.19
377.496	4.94
377.863	4.81
378.229	4.98
378.596	4.99
378.963	4.81
379.329	4.92
379.696	4.93
380.062	5
380.429	5.01
380.795	4.7
381.161	4.78
381.528	4.78
381.894	5.3
382.26	4.84
382.626	4.64
382.993	4.86
383.359	4.74
383.725	4.73
384.091	4.71
384.457	5.07
384.823	4.76
385.188	5.31
385.554	4.7
385.92	5.1
386.286	5.04
386.651	5.2
387.017	5.03
387.383	5
387.748	4.88
388.114	4.99
388.479	5.12
388.845	5.08
389.21	5.52
389.575	5.22
389.94	5.01
390.306	5.12
390.671	4.81
391.036	4.95
391.401	5.36
391.766	5.1
392.131	5.06
392.496	4.96
392.861	4.91
393.226	4.97
393.591	5.1
393.956	5.09
394.32	4.81
394.685	5.27
395.05	5.09
395.414	5.07
395.779	5.05
396.143	4.98
396.508	5.16
396.872	5.34
397.236	4.69
397.601	5.11
397.965	4.96
398.329	5.06
398.694	5.11
399.058	5.01
399.422	5.05
399.786	5.19
400.15	5.27
400.514	5.11
400.878	5.05
401.242	5.38
401.605	5.13
401.969	5.08
402.333	5.33
402.697	5.19
403.06	5.31
403.424	5
403.787	5.27
404.151	5.04
404.514	5.11
404.878	5.16
405.241	5.3
405.604	5.3
405.968	5.11
406.331	5.27
406.694	5.14
407.057	5.25
407.42	4.94
407.783	5.07
408.146	5.15
408.509	5.05
408.872	5.3
409.235	5.12
409.598	5.36
409.961	5.15
410.323	5.32
410.686	5.17
411.049	5.05
411.411	5.31
411.774	5.17
412.136	5.26
412.499	5.22
412.861	4.96
413.223	5.06
413.586	5.16
413.948	5.37
414.31	5.3
414.672	4.94
415.035	5.35
415.397	5.54
415.759	4.99
416.121	5.23
416.483	5.49
416.845	5.21
417.206	5.15
417.568	5.11
417.93	5.13
418.292	5.05
418.653	5.46
419.015	5.24
419.377	5.26
419.738	4.98
420.1	5.22
420.461	4.97
420.822	5.22
421.184	5.1
421.545	5.17
421.906	5.14
422.267	4.96
422.629	5.2
422.99	5.14
423.351	5.17
423.712	5.15
424.073	5.17
424.434	5.19
424.795	5.1
425.155	5.13
425.516	5.11
425.877	5.24
426.238	5.07
426.598	5.3
426.959	5.06
427.32	5.32
427.68	5.36
428.041	5.38
428.401	5.3
428.761	5.26
429.122	5.17
429.482	5.24
429.842	5.42
430.202	5.28
430.563	5.27
430.923	5.35
431.283	5.38
431.643	5.35
432.003	5.34
432.363	5.38
432.722	5.2
433.082	5.41
433.442	5.39
433.802	5.47
434.161	5.3
434.521	5.31
434.881	5.47
435.24	5.28
435.6	5.35
435.959	5.43
436.319	5.29
436.678	5.33
437.037	5.52
437.396	5.48
437.756	5.31
438.115	5.49
438.474	5.59
438.833	5.38
439.192	5.51
439.551	5.31
439.91	5.4
440.269	5.68
440.628	5.39
440.987	5.31
441.345	5.37
441.704	5.47
442.063	5.3
442.421	5.44
442.78	5.46
443.138	5.33
443.497	5.27
443.855	5.27
444.214	5.59
444.572	5.42
444.93	5.63
445.288	5.59
445.647	5.42
446.005	5.5
446.363	5.39
446.721	5.33
447.079	5.44
447.437	5.46
447.795	5.4
448.153	5.36
448.51	5.37
448.868	5.47
449.226	5.47
449.584	5.39
449.941	5.56
450.299	5.4
450.656	5.53
451.014	5.65
451.371	5.53
451.729	5.46
452.086	5.47
452.443	5.44
452.801	5.63
453.158	5.41
453.515	5.5
453.872	5.6
454.229	5.39
454.586	5.43
454.943	5.51
455.3	5.6
455.657	5.58
456.014	5.69
456.371	5.54
456.727	5.49
457.084	5.65
457.441	5.54
457.797	5.57
458.154	5.62
458.51	5.45
458.867	5.51
459.223	5.67
459.58	5.51
459.936	5.57
460.292	5.63
460.648	5.51
461.005	5.48
461.361	5.56
461.717	5.46
462.073	5.54
462.429	5.53
462.785	5.66
463.141	5.62
463.496	5.61
463.852	5.77
464.208	5.67
464.564	5.64
464.919	5.67
465.275	5.73
465.631	5.67
465.986	5.65
466.342	5.8
466.697	5.71
467.052	5.73
467.408	5.67
467.763	5.52
468.118	5.86
468.473	5.92
468.829	5.62
469.184	5.83
469.539	5.47
469.894	5.73
470.249	5.7
470.603	5.85
470.958	5.9
471.313	5.64
471.668	5.85
472.023	5.93
472.377	5.72
472.732	5.64
473.086	5.68
473.441	5.97
473.795	5.91
474.15	5.84
474.504	5.74
474.859	5.81
475.213	5.75
475.567	5.8
475.921	5.91
476.275	5.82
476.63	5.9
476.984	5.87
477.338	5.87
477.692	5.84
478.045	5.78
478.399	5.95
478.753	5.69
479.107	5.82
479.461	5.93
479.814	5.73
480.168	5.85
480.521	5.86
480.875	5.94
481.228	5.83
481.582	5.76
481.935	5.93
482.289	5.97
482.642	5.9
482.995	5.85
483.348	5.85
483.701	5.81
484.055	5.84
484.408	5.73
484.761	5.57
485.114	5.52
485.466	5.51
485.819	5.58
486.172	5.64
486.525	5.68
486.878	5.74
487.23	5.72
487.583	5.75
487.936	5.82
488.288	5.72
488.641	5.67
488.993	5.63
489.345	5.63
489.698	5.76
490.05	5.74
490.402	5.87
490.754	5.95
491.107	5.89
491.459	5.89
491.811	5.93
492.163	5.88
492.515	5.87
492.866	5.69
493.218	5.76
493.57	5.79
493.922	5.85
494.274	6
494.625	5.93
494.977	6
495.328	6.05
495.68	6.16
496.031	5.98
496.383	6.08
496.734	6.21
497.086	5.94
497.437	6.23
497.788	6.14
498.139	6.04
498.49	6.19
498.842	6.05
499.193	6.12
499.544	6.23
499.894	6.15
500.245	6.06
500.596	6.15
500.947	6.12
501.298	6.07
501.648	6.26
501.999	6.38
502.35	6.33
502.7	6.23
503.051	6.23
503.401	6.23
503.752	6.2
504.102	6.25
504.452	6.23
504.803	6.06
505.153	6.19
505.503	6.16
505.853	6.15
506.203	6.34
506.553	6.25
506.903	6.29
507.253	6.23
507.603	6.21
507.953	6.43
508.303	6.33
508.652	6.29
509.002	6.33
509.352	6.29
509.701	6.35
510.051	6.3
510.4	6.23
510.75	6.32
511.099	6.26
511.449	6.42
511.798	6.4
512.147	6.4
512.496	6.45
512.846	6.28
513.195	6.4
513.544	6.35
513.893	6.2
514.242	6.44
514.591	6.39
514.939	6.4
515.288	6.43
515.637	6.6
515.986	6.45
516.334	6.5
516.683	6.47
517.032	6.45
517.38	6.52
517.729	6.53
518.077	6.51
518.426	6.41
518.774	6.6
519.122	6.45
519.47	6.57
519.819	6.47
520.167	6.52
520.515	6.43
520.863	6.46
521.211	6.47
521.559	6.54
521.907	6.57
522.255	6.6
522.602	6.59
522.95	6.63
523.298	6.68
523.645	6.62
523.993	6.82
524.341	6.65
524.688	6.62
525.036	6.71
525.383	6.71
525.73	6.68
526.078	6.72
526.425	6.67
526.772	6.56
527.119	6.55
527.466	6.59
527.814	6.62
528.161	6.71
528.508	6.65
528.854	6.59
529.201	6.62
529.548	6.5
529.895	6.42
530.242	6.42
530.588	6.54
530.935	6.57
531.282	6.6
531.628	6.58
531.975	6.73
532.321	6.74
532.667	6.75
533.014	6.73
533.36	6.82
533.706	6.75
534.052	6.76
534.399	6.73
534.745	6.63
535.091	6.65
535.437	6.73
535.783	6.88
536.129	6.8
536.474	6.9
536.82	7.02
537.166	7.01
537.512	6.95
537.857	6.9
538.203	6.91
538.549	6.99
538.894	6.99
539.239	7.09
539.585	7.14
539.93	7.12
540.276	7.13
540.621	7.12
540.966	7.13
541.311	7.13
541.656	7.14
542.001	7.1
542.346	7.06
542.691	6.9
543.036	6.9
543.381	6.98
543.726	7.05
544.071	7.13
544.415	7.09
544.76	7.08
545.105	7.18
545.449	7.27
545.794	7.28
546.138	7.33
546.483	7.33
546.827	7.38
547.171	7.22
547.516	7.42
547.86	7.25
548.204	7.28
548.548	7.47
548.892	7.46
549.236	7.53
549.58	7.5
549.924	7.54
550.268	7.59
550.612	7.76
550.956	7.52
551.3	7.64
551.643	7.64
551.987	7.72
552.33	7.67
552.674	7.76
553.017	7.74
553.361	7.6
553.704	7.53
554.048	7.76
554.391	7.74
554.734	7.71
555.077	7.88
555.42	7.84
555.764	7.96
556.107	7.9
556.45	7.81
556.793	8.02
557.135	7.99
557.478	8
557.821	7.88
558.164	8.05
558.507	7.82
558.849	8.09
559.192	8.08
559.534	7.86
559.877	8.22
560.219	8.15
560.562	8.15
560.904	8.16
561.246	8.24
561.589	8.08
561.931	8.28
562.273	8.17
562.615	8.43
562.957	8.3
563.299	8.26
563.641	8.31
563.983	8.23
564.325	8.19
564.667	8.37
565.008	8.37
565.35	8.59
565.692	8.42
566.033	8.6
566.375	8.35
566.716	8.47
567.058	8.61
567.399	8.43
567.741	8.58
568.082	8.38
568.423	8.61
568.764	8.48
569.105	8.3
569.447	8.4
569.788	8.51
570.129	8.54
570.47	8.79
570.811	8.67
571.151	8.82
571.492	8.81
571.833	8.67
572.174	8.73
572.514	8.72
572.855	8.96
573.195	8.64
573.536	8.81
573.876	8.81
574.217	8.85
574.557	8.91
574.898	8.73
575.238	8.84
575.578	9.06
575.918	8.88
576.258	8.99
576.598	9.07
576.938	9.04
577.278	9.08
577.618	9.09
577.958	9.14
578.298	9.24
578.638	9.14
578.977	9.46
579.317	9.25
579.657	9.19
579.996	9.11
580.336	9.24
580.675	9.34
581.014	9.07
581.354	9.38
581.693	9.41
582.032	9.28
582.372	9.49
582.711	9.49
583.05	9.58
583.389	9.62
583.728	9.49
584.067	9.52
584.406	9.67
584.745	9.46
585.083	9.81
585.422	9.78
585.761	9.95
586.1	9.71
586.438	9.88
586.777	9.84
587.115	9.7
587.454	9.77
587.792	9.65
588.13	9.96
588.469	9.88
588.807	10.4
589.145	10.06
589.483	9.53
589.821	10.06
590.159	9.92
590.497	9.71
590.835	9.95
591.173	9.94
591.511	9.96
591.849	10.22
592.187	10.02
592.524	10.03
592.862	10.16
593.2	10.1
593.537	10.12
593.875	10.27
594.212	10.35
594.55	10.31
594.887	10.43
595.224	10.39
595.561	10.55
595.899	10.43
596.236	10.62
596.573	10.2
596.91	10.45
597.247	10.44
597.584	10.56
597.921	10.37
598.258	10.34
598.594	10.17
598.931	10.46
599.268	10.46
599.604	10.75
599.941	10.72
600.277	10.65
600.614	10.66
600.95	10.71
601.287	10.86
601.623	10.87
601.959	10.8
602.296	10.84
602.632	11.27
602.968	11
603.304	10.98
603.64	11
603.976	11.08
604.312	11.03
604.648	11.12
604.984	11.17
605.319	10.96
605.655	11.05
605.991	10.98
606.326	11.14
606.662	11.02
606.998	11.13
607.333	11.05
607.668	11.22
608.004	11.25
608.339	11.43
608.674	11.42
609.01	11.55
609.345	11.61
609.68	11.28
610.015	11.5
610.35	11.64
610.685	11.51
611.02	11.53
611.355	11.57
611.689	11.27
612.024	11.71
612.359	11.81
612.694	11.9
613.028	12.03
613.363	11.78
613.697	12.12
614.032	11.9
614.366	11.71
614.7	12.33
615.035	12.07
615.369	12.27
615.703	12.23
616.037	12.18
616.371	12.13
616.705	12.02
617.039	12.52
617.373	12.24
617.707	12.07
618.041	12.2
618.375	12.39
618.709	12.46
619.042	12.34
619.376	12.13
619.71	12.34
620.043	12.4
620.377	12.41
620.71	12.46
621.043	12.16
621.377	12.72
621.71	12.67
622.043	12.66
622.376	12.17
622.709	12.67
623.043	12.44
623.376	12.74
623.709	12.79
624.041	12.67
624.374	12.82
624.707	12.75
625.04	12.95
625.373	12.79
625.705	12.98
626.038	12.9
626.37	12.82
626.703	12.81
627.035	13.05
627.368	12.98
627.7	13.08
628.032	13.06
628.365	13.07
628.697	12.96
629.029	13.32
629.361	13.12
629.693	13.32
630.025	13.08
630.357	13.17
630.689	13.68
631.021	13.41
631.353	13.35
631.684	13.53
632.016	13.42
632.348	13.43
632.679	13.19
633.011	13.3
633.342	13.45
633.674	13.67
634.005	13.7
634.336	13.97
634.668	13.72
634.999	13.86
635.33	13.74
635.661	13.92
635.992	13.89
636.323	13.72
636.654	14
636.985	13.93
637.316	13.79
637.647	14.29
637.977	14.03
638.308	14.11
638.639	13.82
638.969	14.06
639.3	14.46
639.63	13.92
639.961	14.07
640.291	14.89
640.622	14.23
640.952	14.8
641.282	13.98
641.612	14.01
641.943	14.68
642.273	14.6
642.603	14.73
642.933	14.37
643.263	14.45
643.592	14.72
643.922	14.96
644.252	14.76
644.582	14.6
644.911	14.87
645.241	14.37
645.571	14.54
645.9	15.15
646.23	14.89
646.559	14.73
646.888	14.6
647.218	14.69
647.547	14.52
647.876	15.5
648.205	14.84
648.534	14.93
648.863	15.69
649.192	14.9
649.521	14.93
649.85	15.87
650.179	14.79
650.508	15.05
650.837	15.68
651.165	15.58
651.494	15.19
651.822	15.02
652.151	15.56
652.479	15.18
652.808	15.05
653.136	15.18
653.465	15.42
653.793	15.45
654.121	15.72
654.449	15.46
654.777	15.48
655.105	15.89
655.433	16.18
655.761	15.38
656.089	16.14
656.417	15.67
656.745	16.63
657.073	16.16
657.4	15.95
657.728	15.8
658.056	16.15
658.383	16.18
658.711	15.56
659.038	15.99
659.365	16.22
659.693	15.74
660.02	15.93
660.347	16.45
660.674	15.92
661.001	15.84
661.329	16.24
661.656	16.28
661.982	16.53
662.309	16.42
662.636	16.22
662.963	17.06
663.29	16.37
663.616	16.57
663.943	16.89
664.27	16.96
664.596	16.51
664.923	17
665.249	16.65
665.576	16.57
665.902	16.29
666.228	16.41
666.554	16.59
666.881	16.6
667.207	17.09
667.533	16.73
667.859	17.07
668.185	17.06
668.511	16.64
668.837	16.76
669.162	16.93
669.488	17.23
669.814	17.74
670.139	17.86
670.465	17.44
670.791	17.29
671.116	17.42
671.442	17.66
671.767	17.5
672.092	17.46
672.418	17.44
672.743	16.95
673.068	17.32
673.393	17.58
673.718	17.06
674.043	17.08
674.368	18.09
674.693	17.35
675.018	17.79
675.343	17.63
675.667	17.41
675.992	17.34
676.317	18.06
676.641	17.99
676.966	18.1
677.29	17.31
677.615	18.04
677.939	17.99
678.264	17.72
678.588	17.86
678.912	18.54
679.236	17.99
679.56	17.19
679.885	18.34
680.209	17.71
680.532	17.97
680.856	18.32
681.18	18.05
681.504	18.16
681.828	17.75
682.152	18.35
682.475	18.2
682.799	18.7
683.122	18.16
683.446	18.54
683.769	18.42
684.093	18.81
684.416	17.97
684.739	18.54
685.062	19.15
685.386	18.52
685.709	18.5
686.032	19.58
