Data from 0072_crown_Reflection__4__263.txt Node

Date: Fri Dec 16 15:58:15 CST 2022
User: ToomeyLab
Spectrometer: FLMS14357
Trigger mode: 0
Integration Time (sec): 1.000000E-2
Scans to average: 100
Electric dark correction enabled: true
Nonlinearity correction enabled: false
Boxcar width: 0
XAxis mode: Wavelengths
Number of Pixels in Spectrum: 2048
>>>>>Begin Spectral Data<<<<<
189.047	74.4
189.435	74.4
189.823	74.4
190.211	-185.7
190.599	-20.47
190.987	49.98
191.375	-1491.91
191.763	150.09
192.151	-33.94
192.538	60.23
192.926	127.27
193.314	73.68
193.702	-818.06
194.089	52.15
194.477	38.62
194.864	-10.67
195.252	-394.87
195.639	113.52
196.027	-38.79
196.414	20.31
196.801	-112.32
197.189	187.8
197.576	582.83
197.963	1.96
198.351	-9.63
198.738	-46.69
199.125	47.66
199.512	6.52
199.899	-46.88
200.286	-34.48
200.673	38.55
201.06	25.66
201.447	23.38
201.833	19.12
202.22	12.79
202.607	5.95
202.994	3.33
203.38	-39.94
203.767	-20.58
204.154	-87.03
204.54	-23.82
204.927	15.38
205.313	44.34
205.699	3.3
206.086	-17.5
206.472	-44.47
206.858	0.83
207.245	-0.08
207.631	-31.52
208.017	24.98
208.403	12.95
208.789	-16.67
209.175	32.93
209.561	-22.11
209.947	-30.41
210.333	-17.11
210.719	-33.65
211.105	-37.48
211.491	-9.15
211.876	-9.71
212.262	-26.75
212.648	4.53
213.034	6.45
213.419	-2.29
213.805	-15.06
214.19	-8.91
214.576	-34.33
214.961	-1.04
215.346	-16.98
215.732	19.19
216.117	-17.2
216.502	-14.91
216.888	-31.58
217.273	11.7
217.658	15.31
218.043	11.94
218.428	9.16
218.813	3.96
219.198	-28.79
219.583	5.21
219.968	-3.71
220.353	3.79
220.738	5.5
221.122	13.73
221.507	3.27
221.892	16.42
222.276	4.44
222.661	1.84
223.046	15.31
223.43	-2.8
223.815	0.08
224.199	11.66
224.583	6.07
224.968	3.89
225.352	-0.73
225.736	6.08
226.121	8.06
226.505	6.76
226.889	4.25
227.273	3.53
227.657	4.22
228.041	2.15
228.425	9.38
228.809	6.6
229.193	3.54
229.577	5.98
229.961	6.7
230.344	6.78
230.728	6.84
231.112	6.9
231.495	5.94
231.879	7.22
232.263	5.21
232.646	5.6
233.03	3.88
233.413	6.07
233.797	9.55
234.18	3.49
234.563	4.87
234.946	6.2
235.33	5.95
235.713	6.89
236.096	6.07
236.479	6.76
236.862	5.91
237.245	6.85
237.628	6.02
238.011	6.87
238.394	7.77
238.777	4.37
239.16	4.83
239.543	3.96
239.925	6.73
240.308	7.04
240.691	6.07
241.073	6.48
241.456	4.79
241.838	6
242.221	5.83
242.603	6.18
242.986	7.06
243.368	6.23
243.75	6.17
244.133	6.37
244.515	6.27
244.897	5.46
245.279	6.18
245.661	5.75
246.043	5.79
246.425	5.43
246.807	6.33
247.189	6.11
247.571	6.21
247.953	6.2
248.335	6.35
248.717	6.05
249.098	6.03
249.48	6.16
249.862	6
250.243	6
250.625	6.31
251.006	6.43
251.388	5.7
251.769	6.26
252.151	5.85
252.532	5.57
252.913	6.33
253.295	5.96
253.676	6.29
254.057	5.53
254.438	5.72
254.819	5.96
255.2	4.79
255.581	5.57
255.962	5.77
256.343	5.8
256.724	5.11
257.105	5.29
257.486	6.15
257.867	3.68
258.247	5.28
258.628	5.99
259.009	5.53
259.389	5.49
259.77	5.72
260.15	6.42
260.531	5.97
260.911	5.71
261.292	5.72
261.672	5.68
262.052	5.4
262.432	5.45
262.813	5.45
263.193	5.25
263.573	5.41
263.953	5.44
264.333	5.22
264.713	5.74
265.093	5.54
265.473	5.48
265.853	5.78
266.233	4.83
266.612	5.64
266.992	5.21
267.372	5.57
267.752	5.43
268.131	5.36
268.511	5.3
268.89	5.8
269.27	5.94
269.649	5.61
270.029	5.21
270.408	5.12
270.787	5.09
271.167	5.6
271.546	4.94
271.925	5.15
272.304	5.58
272.683	5.47
273.062	5.58
273.441	5.89
273.82	5.49
274.199	5.82
274.578	5.26
274.957	5.01
275.336	5.32
275.715	5.32
276.093	6.18
276.472	5.72
276.851	5.76
277.229	5.8
277.608	5.19
277.986	5.54
278.365	4.83
278.743	5.48
279.122	5.11
279.5	4.93
279.878	4.39
280.257	5.6
280.635	5.01
281.013	5.11
281.391	5.05
281.769	5.05
282.147	5.41
282.525	4.93
282.903	5.54
283.281	5.06
283.659	5.38
284.037	5.06
284.415	5.46
284.792	5.48
285.17	4.77
285.548	5.05
285.925	5.16
286.303	5.02
286.68	5.32
287.058	4.85
287.435	4.7
287.813	5.21
288.19	5.33
288.567	4.78
288.945	4.99
289.322	4.87
289.699	5.29
290.076	5.48
290.453	4.85
290.83	5.13
291.207	4.89
291.584	4.8
291.961	5.15
292.338	4.87
292.715	5.25
293.092	4.99
293.469	5.4
293.845	4.8
294.222	4.96
294.599	5.25
294.975	5.09
295.352	4.61
295.728	5.01
296.105	4.34
296.481	5.24
296.858	4.83
297.234	4.89
297.61	4.76
297.986	5.02
298.363	4.15
298.739	5.08
299.115	4.43
299.491	4.93
299.867	5.02
300.243	4.27
300.619	4.91
300.995	4.74
301.371	4.84
301.746	4.68
302.122	4.82
302.498	5.15
302.874	5.25
303.249	4.93
303.625	5.26
304	4.44
304.376	4.71
304.751	4.67
305.127	4.89
305.502	5.08
305.878	4.72
306.253	4.56
306.628	4.94
307.003	4.76
307.378	4.78
307.754	4.99
308.129	4.35
308.504	5
308.879	4.76
309.254	5.29
309.629	4.93
310.003	4.87
310.378	4.95
310.753	5.05
311.128	4.7
311.502	4.43
311.877	4.97
312.252	4.29
312.626	4.75
313.001	4.67
313.375	4.96
313.75	4.7
314.124	5.24
314.498	4.67
314.873	4.52
315.247	4.32
315.621	4.81
315.995	4.96
316.369	4.41
316.743	4.91
317.117	4.51
317.491	5.06
317.865	4.13
318.239	5.1
318.613	4.67
318.987	4.91
319.361	4.54
319.734	4.83
320.108	4.78
320.482	4.06
320.855	4.51
321.229	4.7
321.602	4.89
321.976	4.37
322.349	3.74
322.723	4.27
323.096	4.21
323.469	4.17
323.843	4.94
324.216	4.82
324.589	4.73
324.962	4.88
325.335	4.52
325.708	4.49
326.081	4.92
326.454	4.6
326.827	5.04
327.2	5.04
327.573	4.79
327.945	4.68
328.318	4.93
328.691	4.48
329.063	4.42
329.436	4.38
329.809	4.09
330.181	4.58
330.553	4.72
330.926	4.31
331.298	4.55
331.671	5.14
332.043	4.65
332.415	4.98
332.787	4.52
333.159	4.51
333.532	4.69
333.904	4.71
334.276	4.44
334.648	4.54
335.02	4.76
335.391	4.52
335.763	4.32
336.135	4.53
336.507	4.52
336.879	4.67
337.25	4.39
337.622	4.68
337.993	4.91
338.365	4.97
338.736	4.69
339.108	4.21
339.479	4.43
339.851	4.8
340.222	4.64
340.593	4.43
340.964	4.68
341.336	4.42
341.707	4.56
342.078	4.3
342.449	4.91
342.82	4.6
343.191	4.44
343.562	4.67
343.933	4.78
344.303	4.69
344.674	4.35
345.045	5.19
345.416	4.78
345.786	4.14
346.157	4.65
346.527	4.61
346.898	4.74
347.268	4.5
347.639	4.59
348.009	4.89
348.38	4.49
348.75	4.77
349.12	4.99
349.49	4.3
349.861	4.72
350.231	4.98
350.601	4.7
350.971	4.55
351.341	4.73
351.711	4.58
352.081	4.67
352.45	4.66
352.82	4.78
353.19	4.59
353.56	4.9
353.929	5.03
354.299	4.28
354.669	4.93
355.038	4.86
355.408	4.75
355.777	4.97
356.147	5.12
356.516	5.04
356.885	4.66
357.254	5.39
357.624	4.98
357.993	4.52
358.362	5.14
358.731	4.73
359.1	4.76
359.469	4.75
359.838	4.89
360.207	4.78
360.576	4.8
360.945	4.86
361.314	5.01
361.682	4.61
362.051	4.72
362.42	4.81
362.788	4.8
363.157	4.73
363.525	4.69
363.894	4.55
364.262	4.64
364.631	5.55
364.999	4.69
365.367	4.98
365.735	4.6
366.104	4.77
366.472	5.05
366.84	4.84
367.208	4.65
367.576	5.19
367.944	5.34
368.312	4.63
368.68	5.02
369.048	4.86
369.416	4.79
369.783	5.05
370.151	4.66
370.519	4.81
370.886	4.69
371.254	4.83
371.621	4.82
371.989	4.66
372.356	5.12
372.724	5.01
373.091	5.08
373.458	4.93
373.826	4.85
374.193	5.09
374.56	4.73
374.927	4.86
375.294	5.08
375.661	4.99
376.028	4.93
376.395	5.07
376.762	5.1
377.129	5.32
377.496	4.99
377.863	4.97
378.229	4.7
378.596	4.72
378.963	4.81
379.329	4.71
379.696	5.2
380.062	5.34
380.429	4.95
380.795	4.9
381.161	5.07
381.528	4.68
381.894	5.01
382.26	4.94
382.626	4.85
382.993	4.55
383.359	5.1
383.725	5.35
384.091	4.99
384.457	5.17
384.823	5.13
385.188	5.02
385.554	5.16
385.92	5.14
386.286	5.27
386.651	5.09
387.017	5.24
387.383	5.17
387.748	5.02
388.114	5.19
388.479	5.13
388.845	5.09
389.21	5
389.575	5.18
389.94	5.1
390.306	4.99
390.671	5.2
391.036	5.06
391.401	5.28
391.766	5.14
392.131	5.34
392.496	5
392.861	4.96
393.226	5.24
393.591	5.25
393.956	5.42
394.32	5.26
394.685	5.45
395.05	5.06
395.414	5.32
395.779	5.15
396.143	5.24
396.508	5.32
396.872	5.26
397.236	5.06
397.601	5.32
397.965	5.04
398.329	5.3
398.694	4.99
399.058	5.55
399.422	5.19
399.786	5.22
400.15	5.17
400.514	5.05
400.878	5.16
401.242	5.31
401.605	5.2
401.969	5.4
402.333	5.2
402.697	5.41
403.06	5.3
403.424	5.18
403.787	5.49
404.151	5.08
404.514	5.07
404.878	5.33
405.241	5.39
405.604	5.33
405.968	5.16
406.331	5.36
406.694	5.26
407.057	5.47
407.42	5.28
407.783	5.3
408.146	5.25
408.509	5.09
408.872	5.11
409.235	5.46
409.598	5.35
409.961	5.38
410.323	5.2
410.686	5.12
411.049	5.15
411.411	5.2
411.774	5.21
412.136	5.36
412.499	5.34
412.861	5.13
413.223	5.36
413.586	5.25
413.948	5.31
414.31	5.58
414.672	5.13
415.035	5.22
415.397	5.3
415.759	5.35
416.121	5.26
416.483	5.34
416.845	5.51
417.206	5.55
417.568	5.19
417.93	5.23
418.292	5.41
418.653	5.46
419.015	5.42
419.377	5.56
419.738	5.32
420.1	5.31
420.461	5.27
420.822	5.31
421.184	5.35
421.545	5.31
421.906	5.38
422.267	5.19
422.629	5.37
422.99	5.26
423.351	5.35
423.712	5.3
424.073	5.43
424.434	5.35
424.795	5.29
425.155	5.22
425.516	5.36
425.877	5.35
426.238	5.31
426.598	5.35
426.959	5.33
427.32	5.45
427.68	5.44
428.041	5.36
428.401	5.23
428.761	5.36
429.122	5.29
429.482	5.4
429.842	5.47
430.202	5.53
430.563	5.41
430.923	5.33
431.283	5.5
431.643	5.53
432.003	5.42
432.363	5.67
432.722	5.29
433.082	5.49
433.442	5.67
433.802	5.5
434.161	5.43
434.521	5.51
434.881	5.58
435.24	5.46
435.6	5.53
435.959	5.49
436.319	5.47
436.678	5.53
437.037	5.56
437.396	5.66
437.756	5.44
438.115	5.61
438.474	5.5
438.833	5.5
439.192	5.68
439.551	5.58
439.91	5.45
440.269	5.59
440.628	5.47
440.987	5.47
441.345	5.49
441.704	5.65
442.063	5.52
442.421	5.54
442.78	5.54
443.138	5.46
443.497	5.49
443.855	5.57
444.214	5.48
444.572	5.5
444.93	5.65
445.288	5.73
445.647	5.64
446.005	5.4
446.363	5.64
446.721	5.46
447.079	5.67
447.437	5.61
447.795	5.49
448.153	5.5
448.51	5.5
448.868	5.65
449.226	5.55
449.584	5.57
449.941	5.63
450.299	5.57
450.656	5.6
451.014	5.57
451.371	5.66
451.729	5.66
452.086	5.6
452.443	5.67
452.801	5.73
453.158	5.65
453.515	5.52
453.872	5.77
454.229	5.62
454.586	5.6
454.943	5.47
455.3	5.81
455.657	5.57
456.014	5.71
456.371	5.76
456.727	5.79
457.084	5.58
457.441	5.56
457.797	5.58
458.154	5.72
458.51	5.58
458.867	5.67
459.223	5.81
459.58	5.64
459.936	5.76
460.292	5.75
460.648	5.58
461.005	5.69
461.361	5.6
461.717	5.65
462.073	5.71
462.429	5.74
462.785	5.72
463.141	5.83
463.496	5.6
463.852	5.97
464.208	5.9
464.564	5.6
464.919	5.67
465.275	5.74
465.631	5.69
465.986	5.72
466.342	5.75
466.697	5.69
467.052	5.82
467.408	5.81
467.763	5.69
468.118	5.88
468.473	6.01
468.829	5.74
469.184	5.92
469.539	5.77
469.894	5.77
470.249	5.85
470.603	5.77
470.958	5.9
471.313	5.8
471.668	5.87
472.023	5.98
472.377	5.79
472.732	5.88
473.086	5.71
473.441	5.88
473.795	6.06
474.15	5.66
474.504	5.83
474.859	5.92
475.213	5.78
475.567	5.88
475.921	5.85
476.275	5.84
476.63	5.8
476.984	5.83
477.338	5.96
477.692	5.84
478.045	5.67
478.399	5.89
478.753	5.61
479.107	5.86
479.461	5.91
479.814	5.92
480.168	5.82
480.521	5.93
480.875	5.99
481.228	5.84
481.582	5.78
481.935	5.92
482.289	5.73
482.642	5.91
482.995	5.87
483.348	5.83
483.701	5.82
484.055	5.79
484.408	5.75
484.761	5.64
485.114	5.57
485.466	5.55
485.819	5.56
486.172	5.53
486.525	5.61
486.878	5.63
487.23	5.71
487.583	5.75
487.936	5.78
488.288	5.75
488.641	5.68
488.993	5.58
489.345	5.56
489.698	5.63
490.05	5.63
490.402	5.69
490.754	5.81
491.107	5.75
491.459	5.81
491.811	5.85
492.163	5.87
492.515	5.82
492.866	5.66
493.218	5.63
493.57	5.7
493.922	5.68
494.274	5.79
494.625	5.77
494.977	5.79
495.328	5.84
495.68	5.99
496.031	6.04
496.383	5.79
496.734	5.96
497.086	5.79
497.437	6.02
497.788	5.81
498.139	5.95
498.49	5.93
498.842	5.88
499.193	5.86
499.544	6.04
499.894	5.92
500.245	5.91
500.596	5.86
500.947	5.85
501.298	5.9
501.648	6
501.999	6.16
502.35	5.95
502.7	5.88
503.051	6.09
503.401	6
503.752	5.87
504.102	5.84
504.452	6.03
504.803	5.98
505.153	5.94
505.503	6.01
505.853	5.96
506.203	5.98
506.553	5.93
506.903	6
507.253	6
507.603	5.88
507.953	5.99
508.303	6.02
508.652	5.92
509.002	5.96
509.352	5.96
509.701	6
510.051	6.04
510.4	5.97
510.75	6.01
511.099	5.93
511.449	5.93
511.798	6.09
512.147	5.92
512.496	6.01
512.846	5.87
513.195	5.98
513.544	5.99
513.893	5.91
514.242	5.96
514.591	6.02
514.939	5.81
515.288	6.04
515.637	6
515.986	5.96
516.334	6.1
516.683	6.03
517.032	5.88
517.38	5.96
517.729	5.99
518.077	6.1
518.426	5.89
518.774	6.02
519.122	6.01
519.47	5.99
519.819	5.97
520.167	5.95
520.515	5.86
520.863	5.89
521.211	5.92
521.559	6.01
521.907	5.96
522.255	6.12
522.602	6.11
522.95	6.15
523.298	6.06
523.645	5.97
523.993	6.03
524.341	5.94
524.688	6.06
525.036	6.08
525.383	6.13
525.73	5.97
526.078	6.09
526.425	6.08
526.772	5.82
527.119	5.84
527.466	5.85
527.814	5.88
528.161	5.96
528.508	5.89
528.854	5.87
529.201	5.85
529.548	5.71
529.895	5.71
530.242	5.73
530.588	5.76
530.935	5.74
531.282	5.79
531.628	5.81
531.975	5.87
532.321	5.86
532.667	5.84
533.014	5.93
533.36	5.87
533.706	5.97
534.052	5.87
534.399	5.81
534.745	5.79
535.091	5.84
535.437	5.82
535.783	5.85
536.129	5.9
536.474	5.96
536.82	5.93
537.166	5.98
537.512	6.01
537.857	5.92
538.203	5.94
538.549	5.96
538.894	5.9
539.239	5.99
539.585	5.95
539.93	5.97
540.276	5.83
540.621	6.02
540.966	5.92
541.311	5.93
541.656	5.89
542.001	6.04
542.346	5.79
542.691	5.81
543.036	5.78
543.381	5.84
543.726	5.84
544.071	5.86
544.415	5.85
544.76	5.73
545.105	5.91
545.449	5.91
545.794	5.86
546.138	5.99
546.483	5.92
546.827	5.93
547.171	5.91
547.516	6.01
547.86	5.93
548.204	5.86
548.548	6.08
548.892	6.04
549.236	6.01
549.58	5.9
549.924	6.04
550.268	6.12
550.612	5.93
550.956	5.87
551.3	6.02
551.643	6.03
551.987	6
552.33	6.01
552.674	6.12
553.017	6.07
553.361	6.04
553.704	5.96
554.048	6.11
554.391	5.99
554.734	5.97
555.077	6.03
555.42	6.21
555.764	5.95
556.107	6.15
556.45	6
556.793	6.08
557.135	6.02
557.478	6.15
557.821	5.97
558.164	6.06
558.507	5.93
558.849	6.09
559.192	6.26
559.534	5.92
559.877	5.98
560.219	6.23
560.562	6.14
560.904	5.96
561.246	6.26
561.589	6.21
561.931	6.1
562.273	5.94
562.615	6.09
562.957	6.1
563.299	5.97
563.641	6.15
563.983	6.08
564.325	5.98
564.667	6.06
565.008	5.98
565.35	6.08
565.692	6.17
566.033	6.17
566.375	6.04
566.716	6.04
567.058	6.16
567.399	6.16
567.741	6.19
568.082	5.96
568.423	6.07
568.764	6.04
569.105	6.2
569.447	6.03
569.788	6.11
570.129	6.01
570.47	6.11
570.811	6.05
571.151	6.23
571.492	6.19
571.833	6.21
572.174	6.09
572.514	6.08
572.855	6.21
573.195	6
573.536	5.94
573.876	5.95
574.217	6.07
574.557	6.04
574.898	5.87
575.238	6.01
575.578	6.15
575.918	6.03
576.258	6.27
576.598	6.05
576.938	6.24
577.278	6.2
577.618	5.93
577.958	6.16
578.298	6.07
578.638	6.12
578.977	6.02
579.317	5.97
579.657	6.06
579.996	6.03
580.336	5.93
580.675	6.17
581.014	5.84
581.354	6.21
581.693	5.9
582.032	6
582.372	5.89
582.711	6.08
583.05	6.21
583.389	6.15
583.728	6.2
584.067	6.13
584.406	6.37
584.745	6.14
585.083	6.13
585.422	6.08
585.761	6.2
586.1	6.29
586.438	6.06
586.777	6.09
587.115	6.14
587.454	6.12
587.792	5.85
588.13	6.26
588.469	6.21
588.807	6.4
589.145	6.21
589.483	6
589.821	6.18
590.159	5.96
590.497	5.78
590.835	6.13
591.173	6.08
591.511	6.07
591.849	6.3
592.187	6.19
592.524	6.08
592.862	6.13
593.2	5.99
593.537	6.24
593.875	6.14
594.212	6.04
594.55	6.19
594.887	6.22
595.224	6.02
595.561	6
595.899	6.01
596.236	5.98
596.573	5.93
596.91	5.99
597.247	6.05
597.584	6.14
597.921	6.09
598.258	6.08
598.594	5.9
598.931	6.01
599.268	6.13
599.604	6.33
599.941	5.94
600.277	5.99
600.614	6.02
600.95	6.24
601.287	6.01
601.623	6.24
601.959	5.97
602.296	5.79
602.632	6.4
602.968	6.06
603.304	6.15
603.64	5.91
603.976	6
604.312	6.43
604.648	6.14
604.984	6.14
605.319	6.09
605.655	6.25
605.991	6.05
606.326	5.92
606.662	6.02
606.998	5.96
607.333	6.04
607.668	6.02
608.004	5.98
608.339	6.22
608.674	5.91
609.01	6.28
609.345	6.22
609.68	5.96
610.015	6.01
610.35	6.14
610.685	6.07
611.02	6.08
611.355	6.24
611.689	6.03
612.024	6.07
612.359	6.22
612.694	6.37
613.028	6.41
613.363	5.93
613.697	6.29
614.032	6.32
614.366	5.9
614.7	6.12
615.035	5.86
615.369	5.92
615.703	6.5
616.037	6.25
616.371	5.98
616.705	5.99
617.039	6.23
617.373	6.04
617.707	6.08
618.041	6.4
618.375	5.71
618.709	6.15
619.042	6.27
619.376	6.02
619.71	6.14
620.043	5.88
620.377	5.7
620.71	6.09
621.043	5.89
621.377	5.94
621.71	6.12
622.043	6.38
622.376	6.04
622.709	6.39
623.043	6.12
623.376	5.96
623.709	6.2
624.041	5.97
624.374	6.02
624.707	6.1
625.04	6.64
625.373	6.14
625.705	6.07
626.038	5.97
626.37	6.4
626.703	6.21
627.035	6.27
627.368	6.18
627.7	6.39
628.032	6.14
628.365	6
628.697	6.12
629.029	6.57
629.361	5.99
629.693	6.41
630.025	6
630.357	5.99
630.689	6.11
631.021	5.99
631.353	6.17
631.684	6.32
632.016	5.87
632.348	6.28
632.679	6.19
633.011	6.22
633.342	6.14
633.674	5.91
634.005	6.14
634.336	6.23
634.668	5.94
634.999	6.03
635.33	6
635.661	6.41
635.992	5.89
636.323	6.07
636.654	6.04
636.985	6.02
637.316	6.12
637.647	6.38
637.977	6.2
638.308	6.07
638.639	5.83
638.969	6.02
639.3	6.08
639.63	5.84
639.961	6.41
640.291	6.45
640.622	6.25
640.952	5.7
641.282	5.78
641.612	5.97
641.943	6.52
642.273	6.45
642.603	6.28
642.933	6.26
643.263	6.39
643.592	6.38
643.922	6.47
644.252	6.23
644.582	5.83
644.911	6.17
645.241	6.08
645.571	6.23
645.9	6.53
646.23	5.94
646.559	6.05
646.888	5.82
647.218	6.22
647.547	6.1
647.876	6.46
648.205	6.12
648.534	6.21
648.863	6.57
649.192	6.21
649.521	5.97
649.85	6.72
650.179	6.19
650.508	6.15
650.837	6.23
651.165	6.26
651.494	6.2
651.822	6.34
652.151	6.46
652.479	6.56
652.808	5.89
653.136	6.04
653.465	6.1
653.793	6.37
654.121	6.48
654.449	6.33
654.777	5.98
655.105	6.19
655.433	6.56
655.761	5.88
656.089	6.63
656.417	6.21
656.745	6.85
657.073	6.64
657.4	6.26
657.728	6.14
658.056	6.45
658.383	6.5
658.711	6.2
659.038	6.17
659.365	6.16
659.693	6.28
660.02	6.24
660.347	6.54
660.674	5.82
661.001	6.27
661.329	6.12
661.656	6.14
661.982	6.06
662.309	6.18
662.636	6.02
662.963	6.29
663.29	6.09
663.616	6.31
663.943	6.29
664.27	5.99
664.596	6.13
664.923	6.43
665.249	6.42
665.576	5.99
665.902	6.15
666.228	6.08
666.554	5.83
666.881	6.55
667.207	5.81
667.533	6.87
667.859	6.26
668.185	6.36
668.511	5.94
668.837	5.74
669.162	6.3
669.488	5.9
669.814	6.86
670.139	6.57
670.465	6.73
670.791	6.59
671.116	6.02
671.442	6.16
671.767	6.8
672.092	6.91
672.418	5.84
672.743	6.23
673.068	6.07
673.393	6.22
673.718	6.15
674.043	6.25
674.368	6.55
674.693	6.23
675.018	6.12
675.343	6.88
675.667	6.24
675.992	6.57
676.317	6.42
676.641	6.17
676.966	6.4
677.29	6.8
677.615	6.59
677.939	6.22
678.264	6
678.588	6.37
678.912	6.45
679.236	6.47
679.56	5.9
679.885	6.63
680.209	5.9
680.532	6.46
680.856	6.61
681.18	6.18
681.504	6.24
681.828	5.87
682.152	6.09
682.475	6.4
682.799	6.85
683.122	5.68
683.446	6.57
683.769	6.44
684.093	6.44
684.416	6.34
684.739	6.44
685.062	6.31
685.386	6.59
685.709	6.39
686.032	6.47
686.355	6.6
686.678	6.23
687.001	5.38
687.324	6.31
687.646	6.12
687.969	6.48
688.292	7.22
688.614	6.79
688.937	6.33
689.26	6.22
689.582	6.77
689.904	6.55
690.227	6.11
690.549	7.09
690.871	6.89
691.194	6.93
691.516	6.08
691.838	6.37
692.16	6.46
692.482	6.76
692.804	5.97
693.126	6
693.448	5.6
