Data from 0193_chest_Reflection__3__394.txt Node

Date: Fri Dec 15 20:20:35 CST 2023
User: ToomeyLab
Spectrometer: FLMS14357
Trigger mode: 0
Integration Time (sec): 1.000000E-2
Scans to average: 100
Electric dark correction enabled: true
Nonlinearity correction enabled: false
Boxcar width: 0
XAxis mode: Wavelengths
Number of Pixels in Spectrum: 2048
>>>>>Begin Spectral Data<<<<<
189.047	-683.94
189.435	-683.94
189.823	-683.94
190.211	-74.59
190.599	2126.21
190.987	58.13
191.375	-167.15
191.763	-3.99
192.151	230.56
192.538	67.28
192.926	-98.74
193.314	130.05
193.702	-525.48
194.089	799.27
194.477	4.92
194.864	41.88
195.252	92.78
195.639	53.48
196.027	-153.67
196.414	6.98
196.801	187.58
197.189	645.36
197.576	-635.97
197.963	500.77
198.351	-60.91
198.738	1.88
199.125	-16.4
199.512	-119.48
199.899	29.18
200.286	25.91
200.673	68.95
201.06	-13.67
201.447	-38.41
201.833	-40.85
202.22	5.8
202.607	15.69
202.994	76.8
203.38	-9.11
203.767	26.02
204.154	41.41
204.54	-4.2
204.927	-73.33
205.313	-33.02
205.699	36.76
206.086	47.52
206.472	-8.67
206.858	-0.26
207.245	-36.39
207.631	21.22
208.017	3.81
208.403	-20.2
208.789	-22.77
209.175	35.42
209.561	-58.2
209.947	10.61
210.333	-70.52
210.719	25.3
211.105	10.91
211.491	-11.54
211.876	13.53
212.262	53.35
212.648	17.32
213.034	10.9
213.419	-68.44
213.805	3.91
214.19	-38.32
214.576	-17.57
214.961	-52.47
215.346	-91.51
215.732	-36.69
216.117	17.36
216.502	-28.41
216.888	15.19
217.273	11.13
217.658	-12.23
218.043	-15.76
218.428	-51.1
218.813	-41.6
219.198	-26.01
219.583	-19.04
219.968	-19.23
220.353	-4.32
220.738	9.22
221.122	-0.34
221.507	-32.23
221.892	-6.41
222.276	-31.16
222.661	-14.52
223.046	-2.53
223.43	2.31
223.815	19.94
224.199	-9.32
224.583	-2.1
224.968	-9.75
225.352	8.15
225.736	-8.66
226.121	-18.92
226.505	6.39
226.889	6.45
227.273	0.17
227.657	8.29
228.041	-4.34
228.425	4.27
228.809	4.22
229.193	4.34
229.577	0.43
229.961	2.44
230.344	2.58
230.728	2.61
231.112	3.31
231.495	3.39
231.879	3.23
232.263	4.04
232.646	1.73
233.03	4.2
233.413	2.19
233.797	2.11
234.18	2.16
234.563	2.92
234.946	1.29
235.33	2.88
235.713	4.37
236.096	3.05
236.479	3.42
236.862	0.34
237.245	1.75
237.628	1.11
238.011	3.43
238.394	3.74
238.777	3.88
239.16	2.61
239.543	2.88
239.925	6.36
240.308	1.83
240.691	4.13
241.073	2.97
241.456	1.68
241.838	2.45
242.221	1.22
242.603	3.06
242.986	3
243.368	3.16
243.75	3.42
244.133	3.03
244.515	3.17
244.897	3.32
245.279	3.18
245.661	2.78
246.043	1.46
246.425	2.11
246.807	4.64
247.189	2.09
247.571	3.61
247.953	3.11
248.335	2.88
248.717	3.1
249.098	2.93
249.48	3.07
249.862	2.96
250.243	3.09
250.625	2.7
251.006	3.27
251.388	2.26
251.769	2.61
252.151	3.96
252.532	2.46
252.913	2.09
253.295	1.8
253.676	2.91
254.057	3.1
254.438	2.42
254.819	2.22
255.2	2.85
255.581	3.13
255.962	1.62
256.343	2.51
256.724	3.52
257.105	3.21
257.486	2.55
257.867	3.03
258.247	1.48
258.628	2.49
259.009	2.57
259.389	1.98
259.77	2.67
260.15	2.32
260.531	1.77
260.911	3.36
261.292	3.02
261.672	3.21
262.052	3.03
262.432	2.9
262.813	2.69
263.193	2.23
263.573	2.76
263.953	2.94
264.333	3.32
264.713	2.65
265.093	2.16
265.473	2.7
265.853	2.31
266.233	2.71
266.612	1.66
266.992	1.69
267.372	2.56
267.752	2.15
268.131	2.69
268.511	3.03
268.89	2.63
269.27	2.98
269.649	2.5
270.029	2.29
270.408	3.45
270.787	3.17
271.167	3.45
271.546	2.92
271.925	1.94
272.304	2.38
272.683	2.77
273.062	1.6
273.441	2.86
273.82	2.22
274.199	3.26
274.578	2.58
274.957	2.63
275.336	2.6
275.715	2.28
276.093	2.64
276.472	3.47
276.851	2.33
277.229	2.41
277.608	2.58
277.986	3.39
278.365	2.98
278.743	2.48
279.122	2.84
279.5	2.19
279.878	2.93
280.257	2.8
280.635	1.67
281.013	2.31
281.391	2.89
281.769	2.66
282.147	3
282.525	3.27
282.903	2.03
283.281	3.09
283.659	3.19
284.037	2.33
284.415	3.04
284.792	3.06
285.17	2.47
285.548	2.42
285.925	2.57
286.303	2.49
286.68	2.99
287.058	2.5
287.435	2.6
287.813	3.06
288.19	2.4
288.567	2.41
288.945	3.25
289.322	3.07
289.699	2.55
290.076	2.95
290.453	3.03
290.83	2.39
291.207	2.32
291.584	2.89
291.961	2.73
292.338	2.81
292.715	3.3
293.092	2.94
293.469	3.32
293.845	3.21
294.222	2.31
294.599	2.73
294.975	2.5
295.352	2.76
295.728	2.68
296.105	2.68
296.481	3.15
296.858	3
297.234	2.52
297.61	2.19
297.986	2.92
298.363	3.11
298.739	2.79
299.115	2.47
299.491	2.54
299.867	2.8
300.243	2.9
300.619	2
300.995	2.75
301.371	3.21
301.746	2.76
302.122	3.64
302.498	2.74
302.874	3.12
303.249	3.15
303.625	3.02
304	3.26
304.376	2.88
304.751	2.49
305.127	3.24
305.502	2.39
305.878	2.1
306.253	2.93
306.628	2.98
307.003	3.05
307.378	3.34
307.754	2.88
308.129	3.07
308.504	3.12
308.879	2.22
309.254	3.46
309.629	3
310.003	2.25
310.378	3.26
310.753	3.09
311.128	3
311.502	2.57
311.877	3.59
312.252	2.81
312.626	2.76
313.001	2.67
313.375	3.05
313.75	2.61
314.124	3.25
314.498	3.08
314.873	2.92
315.247	2.61
315.621	2.85
315.995	3.05
316.369	3.13
316.743	2.74
317.117	3.16
317.491	2.69
317.865	2.88
318.239	2.89
318.613	2.99
318.987	2.97
319.361	2.1
319.734	3.37
320.108	2.87
320.482	3.07
320.855	3.06
321.229	2.84
321.602	2.36
321.976	2.9
322.349	2.68
322.723	2.19
323.096	3.05
323.469	1.61
323.843	2.71
324.216	3.46
324.589	2.8
324.962	2.83
325.335	3.05
325.708	3.02
326.081	2.58
326.454	2.74
326.827	2.61
327.2	2.75
327.573	3.3
327.945	2.7
328.318	2.5
328.691	2.49
329.063	2.62
329.436	2.38
329.809	3.16
330.181	2.36
330.553	2.38
330.926	2.86
331.298	3.55
331.671	2.5
332.043	3.42
332.415	3.32
332.787	2.54
333.159	3.26
333.532	3.32
333.904	3.01
334.276	3.14
334.648	3.15
335.02	3.03
335.391	2.91
335.763	2.85
336.135	2.93
336.507	2.95
336.879	3.21
337.25	2.53
337.622	3.09
337.993	2.45
338.365	2.9
338.736	3.1
339.108	3
339.479	2.42
339.851	3.09
340.222	2.57
340.593	3.1
340.964	2.42
341.336	3.55
341.707	2.45
342.078	3.12
342.449	3.22
342.82	2.55
343.191	3.16
343.562	3.53
343.933	2.69
344.303	2.84
344.674	2.49
345.045	2.78
345.416	3.18
345.786	2.49
346.157	3.56
346.527	2.6
346.898	2.26
347.268	3.44
347.639	2.96
348.009	2.77
348.38	2.93
348.75	2.7
349.12	2.75
349.49	3.27
349.861	3.15
350.231	2.82
350.601	3.13
350.971	3.28
351.341	3.17
351.711	2.73
352.081	3.11
352.45	2.53
352.82	3.53
353.19	2.77
353.56	2.54
353.929	3.12
354.299	2.7
354.669	2.19
355.038	3.31
355.408	3.03
355.777	2.89
356.147	2.82
356.516	3.21
356.885	3.03
357.254	3
357.624	3.01
357.993	3.22
358.362	3.21
358.731	2.88
359.1	3.05
359.469	3.13
359.838	2.87
360.207	2.87
360.576	2.99
360.945	3.04
361.314	3.43
361.682	2.65
362.051	3.06
362.42	2.92
362.788	2.86
363.157	3.11
363.525	3.4
363.894	3.19
364.262	3.38
364.631	2.87
364.999	2.93
365.367	2.68
365.735	3.67
366.104	3.19
366.472	3.23
366.84	3.23
367.208	2.66
367.576	3.66
367.944	3.09
368.312	2.95
368.68	2.89
369.048	3.12
369.416	2.97
369.783	2.84
370.151	3.29
370.519	3.48
370.886	3.11
371.254	2.91
371.621	3.25
371.989	3.04
372.356	2.91
372.724	3.16
373.091	2.9
373.458	3.21
373.826	2.89
374.193	2.92
374.56	3.32
374.927	3.25
375.294	2.67
375.661	3.05
376.028	3.17
376.395	2.95
376.762	2.81
377.129	3.29
377.496	3.09
377.863	3.11
378.229	2.37
378.596	3.28
378.963	2.93
379.329	2.63
379.696	2.84
380.062	3.24
380.429	2.97
380.795	2.92
381.161	3.32
381.528	3.18
381.894	3.07
382.26	3.06
382.626	3.18
382.993	2.7
383.359	3.41
383.725	2.95
384.091	3.16
384.457	3.52
384.823	3.2
385.188	3.2
385.554	3.11
385.92	3.35
386.286	3.59
386.651	3.41
387.017	3.55
387.383	3.18
387.748	3.05
388.114	3.08
388.479	3.03
388.845	3.24
389.21	3.32
389.575	2.92
389.94	2.94
390.306	3.26
390.671	3.5
391.036	3.03
391.401	2.82
391.766	3
392.131	2.94
392.496	3.14
392.861	3.06
393.226	3.5
393.591	3.21
393.956	3.09
394.32	3.42
394.685	2.92
395.05	3.33
395.414	3.06
395.779	3.11
396.143	3.41
396.508	3.31
396.872	3.44
397.236	3.36
397.601	2.96
397.965	3.27
398.329	3.41
398.694	3.31
399.058	3.45
399.422	3.2
399.786	3.57
400.15	3.42
400.514	3.08
400.878	3.25
401.242	3.49
401.605	3.36
401.969	3.49
402.333	3.32
402.697	3.22
403.06	3.36
403.424	3.31
403.787	3.34
404.151	3.43
404.514	3.17
404.878	3.34
405.241	3.41
405.604	3.38
405.968	3.22
406.331	3.27
406.694	3.47
407.057	3.42
407.42	3.49
407.783	3.16
408.146	3.46
408.509	3.1
408.872	3.09
409.235	3.53
409.598	3.63
409.961	3.42
410.323	3.3
410.686	3.44
411.049	3.25
411.411	3.36
411.774	3.39
412.136	3.4
412.499	3.21
412.861	3.41
413.223	3.3
413.586	3.19
413.948	3.56
414.31	3.36
414.672	3.31
415.035	3.37
415.397	3.59
415.759	3.25
416.121	3.65
416.483	3.33
416.845	3.29
417.206	3.39
417.568	3.77
417.93	3.15
418.292	3.18
418.653	3.55
419.015	3.41
419.377	3.29
419.738	3.41
420.1	3.38
420.461	3.41
420.822	3.53
421.184	3.37
421.545	3.46
421.906	3.4
422.267	3.41
422.629	3.46
422.99	3.3
423.351	3.29
423.712	3.32
424.073	3.35
424.434	3.38
424.795	3.35
425.155	3.43
425.516	3.37
425.877	3.35
426.238	3.42
426.598	3.57
426.959	3.28
427.32	3.3
427.68	3.32
428.041	3.37
428.401	3.5
428.761	3.3
429.122	3.49
429.482	3.18
429.842	3.63
430.202	3.42
430.563	3.65
430.923	3.47
431.283	3.46
431.643	3.52
432.003	3.46
432.363	3.56
432.722	3.41
433.082	3.51
433.442	3.52
433.802	3.26
434.161	3.63
434.521	3.68
434.881	3.64
435.24	3.35
435.6	3.43
435.959	3.41
436.319	3.51
436.678	3.49
437.037	3.56
437.396	3.53
437.756	3.48
438.115	3.61
438.474	3.71
438.833	3.35
439.192	3.5
439.551	3.7
439.91	3.34
440.269	3.52
440.628	3.38
440.987	3.59
441.345	3.48
441.704	3.55
442.063	3.47
442.421	3.53
442.78	3.43
443.138	3.41
443.497	3.52
443.855	3.41
444.214	3.59
444.572	3.59
444.93	3.51
445.288	3.46
445.647	3.64
446.005	3.66
446.363	3.61
446.721	3.52
447.079	3.45
447.437	3.54
447.795	3.76
448.153	3.42
448.51	3.56
448.868	3.55
449.226	3.6
449.584	3.51
449.941	3.58
450.299	3.53
450.656	3.66
451.014	3.62
451.371	3.52
451.729	3.56
452.086	3.72
452.443	3.6
452.801	3.79
453.158	3.68
453.515	3.62
453.872	3.68
454.229	3.53
454.586	3.56
454.943	3.65
455.3	3.81
455.657	3.61
456.014	3.61
456.371	3.73
456.727	3.81
457.084	3.9
457.441	3.69
457.797	3.68
458.154	3.79
458.51	3.78
458.867	3.74
459.223	3.66
459.58	3.81
459.936	3.7
460.292	3.81
460.648	3.81
461.005	3.63
461.361	3.68
461.717	3.71
462.073	3.62
462.429	3.52
462.785	3.61
463.141	3.73
463.496	3.85
463.852	3.82
464.208	3.86
464.564	3.7
464.919	3.72
465.275	3.78
465.631	4.14
465.986	3.63
466.342	3.68
466.697	3.64
467.052	3.79
467.408	3.72
467.763	3.71
468.118	3.62
468.473	3.85
468.829	3.83
469.184	3.74
469.539	3.76
469.894	3.61
470.249	3.96
470.603	3.83
470.958	3.91
471.313	3.87
471.668	3.92
472.023	3.96
472.377	3.9
472.732	3.96
473.086	3.71
473.441	3.72
473.795	4.07
474.15	3.82
474.504	3.77
474.859	4.01
475.213	3.71
475.567	3.73
475.921	3.81
476.275	3.76
476.63	3.8
476.984	3.96
477.338	3.93
477.692	3.76
478.045	3.92
478.399	3.8
478.753	3.83
479.107	4.03
479.461	3.73
479.814	3.9
480.168	3.89
480.521	3.89
480.875	3.75
481.228	3.72
481.582	3.91
481.935	3.92
482.289	3.89
482.642	3.91
482.995	3.9
483.348	3.83
483.701	3.85
484.055	3.89
484.408	3.93
484.761	3.81
485.114	3.74
485.466	3.67
485.819	3.67
486.172	3.7
486.525	3.69
486.878	3.76
487.23	3.72
487.583	3.81
487.936	3.88
488.288	3.81
488.641	3.84
488.993	3.82
489.345	3.75
489.698	3.8
490.05	3.78
490.402	3.81
490.754	3.81
491.107	3.92
491.459	3.96
491.811	3.9
492.163	3.93
492.515	3.82
492.866	3.97
493.218	3.94
493.57	3.83
493.922	3.84
494.274	3.89
494.625	3.98
494.977	3.95
495.328	4.05
495.68	4.04
496.031	4.09
496.383	3.92
496.734	4.01
497.086	4.07
497.437	4.06
497.788	4.13
498.139	4.02
498.49	4.06
498.842	3.9
499.193	3.99
499.544	4.16
499.894	3.95
500.245	4.11
500.596	3.97
500.947	4.23
501.298	3.94
501.648	4.12
501.999	4.22
502.35	4.04
502.7	4.06
503.051	4
503.401	4.14
503.752	4.27
504.102	4.11
504.452	4.22
504.803	4.18
505.153	4.18
505.503	4.2
505.853	4.27
506.203	4.25
506.553	4.14
506.903	4.2
507.253	4.11
507.603	4.11
507.953	4.27
508.303	4.31
508.652	4.16
509.002	4.2
509.352	4.25
509.701	4.2
510.051	4.17
510.4	4.23
510.75	4.22
511.099	4.17
511.449	4.22
511.798	4.24
512.147	4.36
512.496	4.28
512.846	4.23
513.195	4.27
513.544	4.22
513.893	4.32
514.242	4.37
514.591	4.41
514.939	4.29
515.288	4.26
515.637	4.41
515.986	4.4
516.334	4.34
516.683	4.44
517.032	4.4
517.38	4.43
517.729	4.46
518.077	4.25
518.426	4.39
518.774	4.54
519.122	4.4
519.47	4.4
519.819	4.18
520.167	4.33
520.515	4.4
520.863	4.46
521.211	4.5
521.559	4.47
521.907	4.37
522.255	4.35
522.602	4.59
522.95	4.44
523.298	4.44
523.645	4.55
523.993	4.53
524.341	4.49
524.688	4.48
525.036	4.47
525.383	4.67
525.73	4.66
526.078	4.62
526.425	4.54
526.772	4.5
527.119	4.62
527.466	4.56
527.814	4.55
528.161	4.49
528.508	4.53
528.854	4.59
529.201	4.53
529.548	4.52
529.895	4.51
530.242	4.4
530.588	4.4
530.935	4.44
531.282	4.47
531.628	4.53
531.975	4.56
532.321	4.64
532.667	4.66
533.014	4.68
533.36	4.72
533.706	4.74
534.052	4.7
534.399	4.59
534.745	4.56
535.091	4.69
535.437	4.65
535.783	4.72
536.129	4.7
536.474	4.76
536.82	4.81
537.166	4.81
537.512	4.83
537.857	4.86
538.203	4.88
538.549	4.85
538.894	4.77
539.239	4.91
539.585	4.84
539.93	4.77
540.276	5.12
540.621	4.91
540.966	4.99
541.311	4.97
541.656	4.85
542.001	4.93
542.346	4.96
542.691	4.93
543.036	4.91
543.381	4.76
543.726	4.87
544.071	4.98
544.415	5.01
544.76	4.94
545.105	5
545.449	5.03
545.794	5.14
546.138	5.22
546.483	5.15
546.827	5.19
547.171	5.13
547.516	5.4
547.86	5.22
548.204	5.05
548.548	5.11
548.892	5.26
549.236	5.11
549.58	5.17
549.924	5.35
550.268	5.34
550.612	5.29
550.956	5.52
551.3	5.44
551.643	5.6
551.987	5.35
552.33	5.32
552.674	5.5
553.017	5.41
553.361	5.36
553.704	5.54
554.048	5.3
554.391	5.52
554.734	5.42
555.077	5.7
555.42	5.52
555.764	5.42
556.107	5.45
556.45	5.66
556.793	5.57
557.135	5.68
557.478	5.84
557.821	5.63
558.164	5.7
558.507	5.67
558.849	5.58
559.192	5.98
559.534	5.77
559.877	5.66
560.219	5.75
560.562	6.1
560.904	5.74
561.246	5.85
561.589	5.76
561.931	5.93
562.273	5.79
562.615	5.98
562.957	5.89
563.299	5.72
563.641	5.89
563.983	6.09
564.325	5.85
564.667	5.85
565.008	6.07
565.35	6.05
565.692	6
566.033	6.21
566.375	6.25
566.716	6.23
567.058	5.96
567.399	6.19
567.741	5.93
568.082	6.14
568.423	6.07
568.764	6.22
569.105	6.38
569.447	6.33
569.788	6.31
570.129	6.37
570.47	6.14
570.811	6.31
571.151	6.5
571.492	6.37
571.833	6.38
572.174	6.33
572.514	6.62
572.855	6.64
573.195	6.49
573.536	6.5
573.876	6.36
574.217	6.47
574.557	6.63
574.898	6.57
575.238	6.7
575.578	6.64
575.918	6.69
576.258	6.61
576.598	6.84
576.938	6.83
577.278	6.74
577.618	6.76
577.958	6.64
578.298	6.72
578.638	6.73
578.977	6.8
579.317	6.76
579.657	6.98
579.996	6.86
580.336	7.12
580.675	6.89
581.014	7.01
581.354	7.1
581.693	7.08
582.032	7.11
582.372	6.9
582.711	7.21
583.05	6.86
583.389	7.33
583.728	6.95
584.067	7.49
584.406	7.31
584.745	7.39
585.083	7.56
585.422	7.47
585.761	7.39
586.1	7.42
586.438	7.5
586.777	7.58
587.115	7.64
587.454	7.22
587.792	7.35
588.13	7.73
588.469	7.46
588.807	7.59
589.145	7.29
589.483	7.7
589.821	7.37
590.159	7.78
590.497	7.95
590.835	8
591.173	7.78
591.511	7.72
591.849	7.83
592.187	7.9
592.524	7.84
592.862	7.72
593.2	8.03
593.537	8.02
593.875	7.94
594.212	8.06
594.55	8.12
594.887	8.24
595.224	8.02
595.561	8.08
595.899	8.23
596.236	8.11
596.573	8.12
596.91	7.54
597.247	8.01
597.584	8.44
597.921	8.12
598.258	8.11
598.594	8.19
598.931	8.12
599.268	8.25
599.604	8.21
599.941	8.45
600.277	8.43
600.614	8.31
600.95	8.27
601.287	8.59
601.623	8.55
601.959	8.58
602.296	8.4
602.632	8.62
602.968	8.52
603.304	8.77
603.64	8.39
603.976	8.86
604.312	8.6
604.648	8.5
604.984	8.96
605.319	8.84
605.655	8.78
605.991	9.01
606.326	9.03
606.662	8.77
606.998	8.49
607.333	8.92
607.668	9.12
608.004	9.26
608.339	9.16
608.674	9.03
609.01	8.82
609.345	8.79
609.68	9.23
610.015	8.96
610.35	9.06
610.685	9.12
611.02	9.11
611.355	9.08
611.689	9.34
612.024	9.44
612.359	9.1
612.694	9.31
613.028	9.28
613.363	9.43
613.697	9.37
614.032	9.25
614.366	9.43
614.7	9.88
615.035	9.69
615.369	9.52
615.703	10.15
616.037	9.79
616.371	9.36
616.705	9.5
617.039	9.74
617.373	9.46
617.707	9.76
618.041	9.88
618.375	9.98
618.709	9.83
619.042	10.01
619.376	10.11
619.71	10.16
620.043	10.13
620.377	9.89
620.71	10.29
621.043	10.18
621.377	10.11
621.71	10.21
622.043	9.71
622.376	10.03
622.709	10.07
623.043	10.51
623.376	10.1
623.709	10.1
624.041	10.78
624.374	10.16
624.707	10.4
625.04	10.56
625.373	10.13
625.705	10.27
626.038	10.71
626.37	10.64
626.703	10.3
627.035	10.36
627.368	10.97
627.7	10.78
628.032	10.65
628.365	10.83
628.697	10.81
629.029	10.55
629.361	10.67
629.693	10.81
630.025	10.85
630.357	11.2
630.689	11
631.021	10.77
631.353	11.16
631.684	10.97
632.016	11.03
632.348	11.32
632.679	11.13
633.011	11.4
633.342	11.8
633.674	11.67
634.005	11.81
634.336	11.77
634.668	12.04
634.999	11.32
635.33	11.72
635.661	11.54
635.992	11.22
636.323	11.29
636.654	11.71
636.985	11.74
637.316	11.94
637.647	11.44
637.977	11.96
638.308	11.98
638.639	11.13
638.969	12.07
639.3	11.75
639.63	11.23
639.961	11.6
640.291	12.17
640.622	12.17
640.952	11.64
641.282	12.28
641.612	12.22
641.943	12.1
642.273	12.26
642.603	11.95
642.933	12.57
643.263	12.7
643.592	11.98
643.922	12.05
644.252	12.01
644.582	12.26
644.911	12.66
645.241	12.36
645.571	12.2
645.9	12.08
646.23	12.67
646.559	12.54
646.888	12.24
647.218	12.69
647.547	12.59
647.876	13.12
648.205	12.69
648.534	12.41
648.863	12.22
649.192	13.27
649.521	12.96
649.85	12.67
650.179	12.53
650.508	12.47
650.837	12.61
651.165	12.88
651.494	13.39
651.822	13.04
652.151	12.88
652.479	13.19
652.808	13.3
653.136	13.29
653.465	12.68
653.793	13.22
654.121	12.62
654.449	13.04
654.777	13.48
655.105	13.43
655.433	13.08
655.761	13.32
656.089	13.75
656.417	13.22
656.745	13.06
657.073	13.72
657.4	14.19
657.728	13.27
658.056	13.3
658.383	13.48
658.711	13.33
659.038	13.73
659.365	13.58
659.693	13.73
660.02	13.63
660.347	13.62
660.674	13.81
661.001	13.89
661.329	13.23
661.656	13.7
661.982	14.02
662.309	13.97
662.636	13.36
662.963	14.57
663.29	14.29
663.616	14.15
663.943	13.98
664.27	14.67
664.596	14.46
664.923	14.23
665.249	14.12
665.576	14.08
665.902	15.37
666.228	14.41
666.554	14.38
666.881	14.44
667.207	15.15
667.533	13.84
667.859	14.32
668.185	14.87
668.511	14.49
668.837	13.94
669.162	14.72
669.488	14.23
669.814	14.51
670.139	14.53
670.465	14.72
670.791	14.72
671.116	15.57
671.442	14.7
671.767	15.17
672.092	14.96
672.418	14.49
672.743	15.68
673.068	14.59
673.393	15.23
673.718	14.99
674.043	15.23
674.368	15.48
674.693	15.65
675.018	14.93
675.343	15.66
675.667	14.95
675.992	15.51
676.317	15.87
676.641	15.49
676.966	15.88
677.29	14.79
677.615	15.47
677.939	15.61
678.264	16.18
678.588	15.85
678.912	16.14
679.236	16.17
679.56	15.18
679.885	15.51
680.209	14.91
680.532	15.78
680.856	16.06
681.18	15.18
681.504	16.12
681.828	16.44
682.152	15.87
682.475	16.34
682.799	16.52
683.122	15.87
683.446	16.1
683.769	16.19
684.093	15.3
684.416	17.07
684.739	15.98
685.062	15.94
685.386	17.04
685.709	15.77
686.032	16.21
686.355	16.74
686.678	15.66
687.001	16.41
687.324	16.44
