Data from 0193_forehead_Reflection__3__406.txt Node

Date: Fri Dec 15 20:23:30 CST 2023
User: ToomeyLab
Spectrometer: FLMS14357
Trigger mode: 0
Integration Time (sec): 1.000000E-2
Scans to average: 100
Electric dark correction enabled: true
Nonlinearity correction enabled: false
Boxcar width: 0
XAxis mode: Wavelengths
Number of Pixels in Spectrum: 2048
>>>>>Begin Spectral Data<<<<<
189.047	80.53
189.435	80.53
189.823	80.53
190.211	45.07
190.599	820.39
190.987	141.79
191.375	-55.46
191.763	-187.82
192.151	121.97
192.538	132.12
192.926	-776.75
193.314	188.31
193.702	-829
194.089	145.82
194.477	-16.69
194.864	-39.62
195.252	89.12
195.639	79.22
196.027	174.64
196.414	78.12
196.801	325.41
197.189	339.4
197.576	-153.95
197.963	49.77
198.351	-7.67
198.738	-12.15
199.125	61.73
199.512	0.42
199.899	41.43
200.286	9.12
200.673	28.8
201.06	26.86
201.447	29.11
201.833	46.88
202.22	47.2
202.607	47.71
202.994	40.38
203.38	48.61
203.767	31.32
204.154	13.57
204.54	36.75
204.927	-64.73
205.313	7.01
205.699	30.96
206.086	25.91
206.472	30.88
206.858	25.68
207.245	-12.04
207.631	26.64
208.017	3.81
208.403	20.98
208.789	21.07
209.175	33.41
209.561	15.39
209.947	1.49
210.333	-0.23
210.719	4.09
211.105	24.91
211.491	-117.32
211.876	20.85
212.262	74.96
212.648	14.71
213.034	30.91
213.419	-19.82
213.805	-9.99
214.19	-34.51
214.576	27.82
214.961	0.9
215.346	-9.05
215.732	9.05
216.117	-2.29
216.502	20.26
216.888	41.24
217.273	39.3
217.658	31.36
218.043	44.21
218.428	-76.18
218.813	6.93
219.198	-5.95
219.583	13.72
219.968	-1.05
220.353	21.35
220.738	9.43
221.122	6.57
221.507	4.63
221.892	-0.75
222.276	-29.08
222.661	-11.7
223.046	14.29
223.43	25.78
223.815	9.19
224.199	8.08
224.583	-0.37
224.968	13.85
225.352	9.61
225.736	-0.37
226.121	-0.05
226.505	5.92
226.889	16.09
227.273	-0.97
227.657	11.6
228.041	-0.79
228.425	-0.11
228.809	5.21
229.193	6.61
229.577	0.89
229.961	3.79
230.344	3.08
230.728	2.03
231.112	3.07
231.495	3.38
231.879	1.7
232.263	2.92
232.646	2.36
233.03	3.07
233.413	1.07
233.797	2.5
234.18	1.16
234.563	5.02
234.946	2.79
235.33	3.26
235.713	3.65
236.096	2.92
236.479	3.89
236.862	2.41
237.245	3.83
237.628	1.17
238.011	4.15
238.394	4.96
238.777	4.81
239.16	2.91
239.543	4.7
239.925	3.46
240.308	0.51
240.691	5.4
241.073	4.64
241.456	2.54
241.838	2.53
242.221	2.07
242.603	4.92
242.986	3.11
243.368	3.74
243.75	4.07
244.133	3.2
244.515	3.27
244.897	3.36
245.279	3.19
245.661	3.49
246.043	2.34
246.425	3.34
246.807	4.7
247.189	3.86
247.571	3.85
247.953	3.38
248.335	3.1
248.717	3.58
249.098	3.29
249.48	3.72
249.862	3.74
250.243	3.39
250.625	3.24
251.006	3.46
251.388	3.03
251.769	3.39
252.151	4.37
252.532	3.47
252.913	2.99
253.295	2.55
253.676	3.16
254.057	3.62
254.438	3.16
254.819	3.02
255.2	3.08
255.581	2.71
255.962	2.83
256.343	4.59
256.724	2.46
257.105	3.15
257.486	2.82
257.867	3.4
258.247	5.23
258.628	3.39
259.009	3.07
259.389	3.5
259.77	2.43
260.15	3.13
260.531	2.96
260.911	3.65
261.292	3.41
261.672	3.47
262.052	3.43
262.432	3.87
262.813	3.77
263.193	3.54
263.573	3.54
263.953	3.87
264.333	3.69
264.713	3.72
265.093	2.86
265.473	4.54
265.853	2.51
266.233	4.27
266.612	1.25
266.992	2.33
267.372	3.68
267.752	3.22
268.131	3.49
268.511	3.32
268.89	3.72
269.27	3.09
269.649	2.75
270.029	3.39
270.408	4.57
270.787	4.1
271.167	3.47
271.546	4.15
271.925	2.45
272.304	3.12
272.683	3.35
273.062	3.22
273.441	3.23
273.82	3.16
274.199	3.56
274.578	3.25
274.957	3.72
275.336	3.06
275.715	2.9
276.093	2.88
276.472	3.5
276.851	3.34
277.229	3.54
277.608	2.49
277.986	3.21
278.365	3.29
278.743	2.85
279.122	3.17
279.5	2.79
279.878	3.12
280.257	2.89
280.635	3.03
281.013	3.02
281.391	3.44
281.769	3.25
282.147	3.43
282.525	3.94
282.903	3.17
283.281	3.84
283.659	3.4
284.037	3.44
284.415	3.94
284.792	3.6
285.17	2.7
285.548	3.28
285.925	3.44
286.303	3.26
286.68	3.37
287.058	3.36
287.435	3.34
287.813	3.29
288.19	3.44
288.567	3.39
288.945	3.68
289.322	3.34
289.699	3.23
290.076	2.91
290.453	3.57
290.83	3.07
291.207	3.31
291.584	3.9
291.961	4.17
292.338	3.73
292.715	3.81
293.092	3.42
293.469	3.91
293.845	4.4
294.222	3.47
294.599	4.04
294.975	3.37
295.352	4.28
295.728	3.82
296.105	4.05
296.481	4.32
296.858	4.06
297.234	4.66
297.61	4.13
297.986	4.15
298.363	4.39
298.739	4.5
299.115	4.18
299.491	4.06
299.867	4.59
300.243	4.05
300.619	4.09
300.995	4.49
301.371	4.67
301.746	4.43
302.122	4.5
302.498	4.54
302.874	4.91
303.249	4.33
303.625	4.4
304	5.18
304.376	4.83
304.751	3.87
305.127	5.19
305.502	4.24
305.878	4.01
306.253	4.68
306.628	5.61
307.003	5.11
307.378	5.78
307.754	5.35
308.129	4.64
308.504	5.02
308.879	4.91
309.254	5.56
309.629	6.1
310.003	5.51
310.378	5.64
310.753	5.44
311.128	5.34
311.502	5.25
311.877	5.82
312.252	4.98
312.626	5.27
313.001	5.24
313.375	6.17
313.75	5.09
314.124	5.46
314.498	5.82
314.873	6.2
315.247	5.58
315.621	5.67
315.995	5.48
316.369	5.55
316.743	5.64
317.117	5.7
317.491	5.81
317.865	6.03
318.239	6.19
318.613	6.71
318.987	6.08
319.361	5.77
319.734	7.06
320.108	6.93
320.482	5.42
320.855	6.85
321.229	6.28
321.602	6.38
321.976	6.56
322.349	6.18
322.723	7.1
323.096	6.49
323.469	6.18
323.843	6.62
324.216	6.86
324.589	6.92
324.962	7.07
325.335	6.26
325.708	6.35
326.081	6.65
326.454	6.94
326.827	6.64
327.2	6.68
327.573	7.01
327.945	7.19
328.318	6.67
328.691	6.1
329.063	6.74
329.436	6.97
329.809	7.12
330.181	7.28
330.553	7.62
330.926	7.64
331.298	7.81
331.671	7.56
332.043	7.92
332.415	7.78
332.787	7.44
333.159	8.62
333.532	7.77
333.904	7.59
334.276	7.33
334.648	7.34
335.02	7.72
335.391	7.56
335.763	6.91
336.135	7.52
336.507	8.51
336.879	7.24
337.25	7.55
337.622	8.23
337.993	8.16
338.365	8.67
338.736	7.97
339.108	7.66
339.479	7.55
339.851	7.59
340.222	7.73
340.593	8.23
340.964	7.41
341.336	8.08
341.707	7.63
342.078	7.93
342.449	8.38
342.82	7.88
343.191	8.08
343.562	8.05
343.933	8.68
344.303	8.18
344.674	8.38
345.045	8.15
345.416	8.7
345.786	7.97
346.157	8.28
346.527	8.13
346.898	7.55
347.268	8.48
347.639	8.33
348.009	8.53
348.38	8.19
348.75	8.55
349.12	8.31
349.49	8.83
349.861	8.95
350.231	8.77
350.601	8.94
350.971	8.88
351.341	8.89
351.711	8.72
352.081	8.64
352.45	8.71
352.82	8.5
353.19	9.21
353.56	8.54
353.929	8.58
354.299	8.64
354.669	8.74
355.038	9.12
355.408	8.16
355.777	8.73
356.147	8.77
356.516	8.57
356.885	9.32
357.254	9.1
357.624	9.27
357.993	9.22
358.362	9.02
358.731	8.83
359.1	9.26
359.469	9.21
359.838	8.99
360.207	9.07
360.576	9.18
360.945	9.32
361.314	9.37
361.682	9.07
362.051	9.67
362.42	9.29
362.788	9.25
363.157	9.5
363.525	9.46
363.894	9.25
364.262	9.32
364.631	9.47
364.999	9.35
365.367	9.08
365.735	10.35
366.104	9.96
366.472	9.75
366.84	9.39
367.208	9.68
367.576	10.08
367.944	9.96
368.312	9.59
368.68	9.41
369.048	9.9
369.416	9.62
369.783	9.36
370.151	9.96
370.519	10.05
370.886	9.68
371.254	9.64
371.621	9.91
371.989	9.67
372.356	9.75
372.724	9.95
373.091	9.87
373.458	9.64
373.826	10.28
374.193	9.68
374.56	10.05
374.927	10.62
375.294	10.46
375.661	10.26
376.028	10.07
376.395	10.35
376.762	10.16
377.129	9.78
377.496	10.2
377.863	10.2
378.229	9.71
378.596	10.27
378.963	10.14
379.329	9.95
379.696	10.63
380.062	10.33
380.429	10.35
380.795	10.44
381.161	10.63
381.528	10.78
381.894	10.36
382.26	10.15
382.626	10.49
382.993	10.02
383.359	10.76
383.725	10.3
384.091	10.82
384.457	10.95
384.823	10.38
385.188	10.81
385.554	10.73
385.92	10.7
386.286	11
386.651	10.92
387.017	11.11
387.383	10.89
387.748	10.66
388.114	10.98
388.479	10.85
388.845	11.15
389.21	10.98
389.575	10.86
389.94	10.86
390.306	10.98
390.671	11.23
391.036	10.93
391.401	10.75
391.766	10.91
392.131	10.77
392.496	11.22
392.861	11
393.226	11.29
393.591	11.01
393.956	10.81
394.32	11.06
394.685	10.71
395.05	10.86
395.414	11.4
395.779	10.82
396.143	11.21
396.508	11.28
396.872	11.55
397.236	11.42
397.601	11.18
397.965	11.25
398.329	11.46
398.694	11.53
399.058	11.52
399.422	10.85
399.786	11.6
400.15	11.45
400.514	11.46
400.878	11.3
401.242	11.82
401.605	11.5
401.969	11.63
402.333	11.74
402.697	11.65
403.06	11.77
403.424	11.74
403.787	11.55
404.151	11.55
404.514	11.85
404.878	11.72
405.241	11.93
405.604	11.71
405.968	11.8
406.331	11.85
406.694	11.88
407.057	11.78
407.42	11.84
407.783	11.72
408.146	11.89
408.509	11.79
408.872	11.4
409.235	12.05
409.598	12.27
409.961	12.13
410.323	12.15
410.686	12.24
411.049	11.97
411.411	11.97
411.774	12.23
412.136	12.27
412.499	12.22
412.861	12.24
413.223	12.12
413.586	12.13
413.948	12.28
414.31	12.3
414.672	12.04
415.035	11.98
415.397	12.25
415.759	12.23
416.121	12.24
416.483	12.44
416.845	12.29
417.206	12.33
417.568	12.47
417.93	12.38
418.292	12.17
418.653	12.16
419.015	12.21
419.377	12.27
419.738	12.39
420.1	12.29
420.461	12.37
420.822	12.28
421.184	12.28
421.545	12.37
421.906	12.18
422.267	12.15
422.629	12.27
422.99	12.38
423.351	12.26
423.712	12.35
424.073	12.46
424.434	12.42
424.795	12.41
425.155	12.46
425.516	12.48
425.877	12.54
426.238	12.45
426.598	12.53
426.959	12.5
427.32	12.6
427.68	12.64
428.041	12.7
428.401	12.82
428.761	12.73
429.122	12.86
429.482	12.73
429.842	13.01
430.202	12.93
430.563	12.85
430.923	13.13
431.283	13.07
431.643	13.07
432.003	12.98
432.363	13.19
432.722	12.92
433.082	13.22
433.442	12.97
433.802	13.04
434.161	13.14
434.521	13.24
434.881	13.25
435.24	13.04
435.6	13.04
435.959	13.17
436.319	12.88
436.678	12.98
437.037	13.18
437.396	13.29
437.756	13.36
438.115	13.52
438.474	13.33
438.833	13.12
439.192	13.25
439.551	13.48
439.91	13.44
440.269	13.24
440.628	13.28
440.987	13.35
441.345	13.32
441.704	13.44
442.063	13.41
442.421	13.34
442.78	13.42
443.138	13.29
443.497	13.36
443.855	13.39
444.214	13.53
444.572	13.53
444.93	13.56
445.288	13.57
445.647	13.68
446.005	13.58
446.363	13.57
446.721	13.85
447.079	13.55
447.437	13.57
447.795	13.57
448.153	13.51
448.51	13.49
448.868	13.67
449.226	13.6
449.584	13.84
449.941	13.95
450.299	13.82
450.656	13.85
451.014	13.92
451.371	13.93
451.729	13.86
452.086	14.01
452.443	14.07
452.801	14.22
453.158	14.13
453.515	13.96
453.872	14.15
454.229	14.04
454.586	14.03
454.943	14.19
455.3	14.38
455.657	14.17
456.014	14.09
456.371	14.27
456.727	14.39
457.084	14.46
457.441	14.41
457.797	14.22
458.154	14.64
458.51	14.58
458.867	14.65
459.223	14.59
459.58	14.5
459.936	14.34
460.292	14.49
460.648	14.34
461.005	14.3
461.361	14.29
461.717	14.15
462.073	14.21
462.429	14.24
462.785	14.38
463.141	14.44
463.496	14.66
463.852	14.56
464.208	14.74
464.564	14.81
464.919	14.71
465.275	14.71
465.631	14.82
465.986	14.65
466.342	14.77
466.697	14.75
467.052	14.9
467.408	14.83
467.763	14.78
468.118	14.69
468.473	14.85
468.829	14.65
469.184	14.74
469.539	14.86
469.894	14.77
470.249	14.84
470.603	15.12
470.958	14.98
471.313	15.06
471.668	15.18
472.023	15.11
472.377	14.9
472.732	14.99
473.086	14.89
473.441	15.04
473.795	15.2
474.15	15.41
474.504	15.25
474.859	15.11
475.213	15.25
475.567	15.19
475.921	15.21
476.275	15.14
476.63	15.47
476.984	15.65
477.338	15.54
477.692	15.32
478.045	15.27
478.399	15.44
478.753	15.4
479.107	15.32
479.461	15.36
479.814	15.35
480.168	15.19
480.521	15.47
480.875	15.4
481.228	15.4
481.582	15.44
481.935	15.51
482.289	15.52
482.642	15.46
482.995	15.45
483.348	15.33
483.701	15.36
484.055	15.55
484.408	15.5
484.761	15.38
485.114	15.11
485.466	14.82
485.819	14.74
486.172	14.75
486.525	14.84
486.878	15.01
487.23	15.16
487.583	15.32
487.936	15.4
488.288	15.4
488.641	15.28
488.993	15.26
489.345	15.09
489.698	15.06
490.05	15.12
490.402	15.3
490.754	15.34
491.107	15.51
491.459	15.62
491.811	15.69
492.163	15.76
492.515	15.76
492.866	15.76
493.218	15.61
493.57	15.42
493.922	15.48
494.274	15.7
494.625	15.76
494.977	15.84
495.328	16.01
495.68	15.95
496.031	16.21
496.383	16.14
496.734	16.47
497.086	16.36
497.437	16.3
497.788	16.29
498.139	16.3
498.49	16.32
498.842	16.09
499.193	16.16
499.544	16.42
499.894	16.34
500.245	16.28
500.596	16.24
500.947	16.48
501.298	16.39
501.648	16.53
501.999	16.57
502.35	16.52
502.7	16.59
503.051	16.52
503.401	16.59
503.752	16.71
504.102	16.74
504.452	16.7
504.803	16.73
505.153	16.88
505.503	16.7
505.853	16.69
506.203	16.61
506.553	16.72
506.903	16.89
507.253	16.64
507.603	16.86
507.953	16.95
508.303	17
508.652	16.78
509.002	16.9
509.352	16.89
509.701	16.76
510.051	16.77
510.4	16.94
510.75	17.01
511.099	16.9
511.449	16.91
511.798	16.92
512.147	17
512.496	16.93
512.846	16.98
513.195	16.9
513.544	17.06
513.893	17.04
514.242	16.98
514.591	17.31
514.939	17.13
515.288	16.98
515.637	17.17
515.986	17.25
516.334	17.25
516.683	17.24
517.032	17.35
517.38	17.33
517.729	17.39
518.077	17.32
518.426	17.41
518.774	17.41
519.122	17.32
519.47	17.41
519.819	17.36
520.167	17.28
520.515	17.13
520.863	17.15
521.211	17.29
521.559	17.26
521.907	17.31
522.255	17.31
522.602	17.44
522.95	17.53
523.298	17.54
523.645	17.67
523.993	17.55
524.341	17.72
524.688	17.73
525.036	17.71
525.383	17.73
525.73	17.9
526.078	17.76
526.425	17.54
526.772	17.83
527.119	17.56
527.466	17.46
527.814	17.51
528.161	17.57
528.508	17.47
528.854	17.55
529.201	17.53
529.548	17.39
529.895	17.35
530.242	17.12
530.588	17.02
530.935	17.08
531.282	17.2
531.628	17.26
531.975	17.33
532.321	17.52
532.667	17.76
533.014	17.93
533.36	17.85
533.706	17.9
534.052	17.93
534.399	17.74
534.745	17.68
535.091	17.64
535.437	17.53
535.783	17.73
536.129	17.91
536.474	17.85
536.82	18.07
537.166	18.19
537.512	18.07
537.857	18.2
538.203	18.14
538.549	18.04
538.894	17.98
539.239	18.13
539.585	18.29
539.93	18.23
540.276	18.47
540.621	18.38
540.966	18.55
541.311	18.51
541.656	18.51
542.001	18.34
542.346	18.48
542.691	18.26
543.036	17.97
543.381	17.86
543.726	17.98
544.071	18.1
544.415	18.25
544.76	18.27
545.105	18.26
545.449	18.35
545.794	18.5
546.138	18.61
546.483	18.55
546.827	18.76
547.171	18.7
547.516	18.79
547.86	18.77
548.204	18.87
548.548	18.8
548.892	18.77
549.236	18.77
549.58	18.85
549.924	18.89
550.268	19.04
550.612	19.11
550.956	19.23
551.3	19.24
551.643	19.21
551.987	19.55
552.33	19.1
552.674	19.18
553.017	19.17
553.361	19.16
553.704	19.48
554.048	19.23
554.391	19.22
554.734	19.05
555.077	19.34
555.42	19.29
555.764	19.27
556.107	19.51
556.45	19.35
556.793	19.33
557.135	19.52
557.478	19.67
557.821	19.61
558.164	19.38
558.507	19.16
558.849	19.39
559.192	19.67
559.534	19.77
559.877	19.98
560.219	19.52
560.562	19.89
560.904	19.71
561.246	19.91
561.589	19.71
561.931	19.59
562.273	19.78
562.615	19.74
562.957	19.88
563.299	19.62
563.641	19.73
563.983	19.9
564.325	19.8
564.667	19.88
565.008	19.88
565.35	20.01
565.692	19.97
566.033	19.92
566.375	20.09
566.716	20.36
567.058	20
567.399	19.7
567.741	20.02
568.082	19.98
568.423	19.99
568.764	19.99
569.105	20.12
569.447	20.3
569.788	20.18
570.129	20.2
570.47	20.12
570.811	20.27
571.151	20.26
571.492	20.23
571.833	20.09
572.174	20.19
572.514	20.31
572.855	20.44
573.195	20.15
573.536	20.27
573.876	20.09
574.217	20.24
574.557	20.23
574.898	20.61
575.238	20.46
575.578	20.33
575.918	20.56
576.258	20.47
576.598	20.68
576.938	20.48
577.278	20.51
577.618	20.45
577.958	20.6
578.298	20.64
578.638	20.85
578.977	20.86
579.317	20.85
579.657	20.74
579.996	20.78
580.336	20.8
580.675	20.97
581.014	20.86
581.354	21.04
581.693	21.06
582.032	20.67
582.372	20.96
582.711	20.78
583.05	20.72
583.389	20.84
583.728	20.88
584.067	21.25
584.406	21.11
584.745	21.06
585.083	21.23
585.422	21.02
585.761	21.47
586.1	21.29
586.438	21.25
586.777	21.48
587.115	21.1
587.454	21.28
587.792	21.03
588.13	21.62
588.469	21.17
588.807	21.48
589.145	21.17
589.483	21.45
589.821	21.34
590.159	21.3
590.497	21.64
590.835	21.74
591.173	21.46
591.511	21.55
591.849	21.53
592.187	21.41
592.524	21.4
592.862	21.6
593.2	21.83
593.537	21.71
593.875	21.47
594.212	21.6
594.55	21.77
594.887	21.9
595.224	21.59
595.561	21.62
595.899	22.04
596.236	21.74
596.573	21.73
596.91	21.72
597.247	21.77
597.584	21.84
597.921	21.76
598.258	21.56
598.594	21.77
598.931	21.8
599.268	21.51
599.604	21.86
599.941	21.93
600.277	21.83
600.614	21.72
600.95	21.76
601.287	22.2
601.623	21.85
601.959	21.85
602.296	21.82
602.632	22.24
602.968	22.05
603.304	22.03
603.64	21.95
603.976	22.19
604.312	22.05
604.648	21.95
604.984	22.29
605.319	22.16
605.655	22.22
605.991	22.25
606.326	22.04
606.662	21.97
606.998	21.76
607.333	22.18
607.668	22.21
608.004	22.49
608.339	22.5
608.674	22.63
609.01	22.31
609.345	22.34
609.68	22.46
610.015	22.39
610.35	22.13
610.685	22.6
611.02	22.3
611.355	22.46
611.689	22.2
612.024	22.59
612.359	22.48
612.694	22.56
613.028	22.28
613.363	22.88
613.697	22.61
614.032	22.83
614.366	22.75
614.7	22.82
615.035	22.77
615.369	22.54
615.703	22.97
616.037	22.66
616.371	22.98
616.705	23.09
617.039	22.84
617.373	23.09
617.707	22.86
618.041	22.84
618.375	23.44
618.709	23.16
619.042	22.96
619.376	23.35
619.71	23.02
620.043	23.57
620.377	22.98
620.71	22.87
621.043	22.95
621.377	23.07
621.71	23.28
622.043	22.96
622.376	23.02
622.709	22.77
623.043	23.34
623.376	23.01
623.709	23.01
624.041	23.17
624.374	23.1
624.707	22.89
625.04	23.92
625.373	23.22
625.705	23.5
626.038	23.65
626.37	22.8
626.703	22.93
627.035	23.39
627.368	23.9
627.7	23.06
628.032	23.33
628.365	23.25
628.697	23.52
629.029	22.97
629.361	23.15
629.693	23.64
630.025	23.36
630.357	23.54
630.689	23.48
631.021	23.67
631.353	23.86
631.684	23.71
632.016	23.49
632.348	24.23
632.679	23.99
633.011	24.09
633.342	23.85
633.674	23.72
634.005	24.47
634.336	23.94
634.668	24.32
634.999	23.82
635.33	23.85
635.661	23.68
635.992	23.93
636.323	23.97
636.654	24.01
636.985	24.2
637.316	24.15
637.647	24.37
637.977	23.97
638.308	24.51
638.639	23.73
638.969	23.94
639.3	23.88
639.63	24.02
639.961	24.16
640.291	23.86
640.622	24.36
640.952	23.96
641.282	24.44
641.612	24.71
641.943	24.16
642.273	24.71
642.603	24.74
642.933	24.55
643.263	24.5
643.592	23.73
643.922	24.55
644.252	24.85
644.582	24.87
644.911	24.33
645.241	24.54
645.571	24.89
645.9	24.44
646.23	24.76
646.559	24.91
646.888	24.47
647.218	24.49
647.547	25.02
647.876	24.47
648.205	24.71
648.534	24.76
648.863	24.42
649.192	25.06
649.521	24.76
649.85	24.96
650.179	25.05
650.508	24.61
650.837	25.06
651.165	24.59
651.494	24.68
651.822	24.65
652.151	25.15
652.479	25.41
652.808	24.81
653.136	24.34
653.465	24.79
653.793	24.72
654.121	24.66
654.449	25.19
654.777	25.11
655.105	24.98
655.433	24.72
655.761	25.03
656.089	25.71
656.417	25.1
656.745	24.74
657.073	25.04
657.4	25.56
657.728	25.52
658.056	25.61
658.383	24.98
658.711	24.91
659.038	25.69
659.365	25.12
659.693	25.62
660.02	25.49
660.347	25.55
660.674	25.35
661.001	25.32
661.329	24.69
661.656	25.43
661.982	25.64
662.309	24.97
662.636	25.14
662.963	25.88
663.29	25.77
663.616	25.93
663.943	25.06
664.27	25.52
664.596	25.9
664.923	25.17
665.249	25.35
665.576	25.91
665.902	26.46
666.228	25.11
666.554	25.93
666.881	25.76
667.207	25.57
667.533	26.14
667.859	25.84
668.185	25.97
668.511	25.25
668.837	25.71
669.162	25.45
669.488	25.64
669.814	26.16
670.139	26.6
670.465	26.15
670.791	26.1
671.116	26.21
671.442	25.25
671.767	25.89
