Data from 0193_forehead_Reflection__2__405.txt Node

Date: Fri Dec 15 20:23:21 CST 2023
User: ToomeyLab
Spectrometer: FLMS14357
Trigger mode: 0
Integration Time (sec): 1.000000E-2
Scans to average: 100
Electric dark correction enabled: true
Nonlinearity correction enabled: false
Boxcar width: 0
XAxis mode: Wavelengths
Number of Pixels in Spectrum: 2048
>>>>>Begin Spectral Data<<<<<
189.047	-14.29
189.435	-14.29
189.823	-14.29
190.211	130.8
190.599	-901.94
190.987	46.97
191.375	181.89
191.763	-64.56
192.151	349.86
192.538	169.37
192.926	-43.87
193.314	24.22
193.702	441.65
194.089	-87.15
194.477	23.39
194.864	10.09
195.252	92.56
195.639	58.65
196.027	141.79
196.414	-81.24
196.801	107.34
197.189	33.1
197.576	-132.32
197.963	-776.43
198.351	-68.18
198.738	1.31
199.125	85.59
199.512	34.6
199.899	29.74
200.286	29.55
200.673	17.75
201.06	-1.01
201.447	-38.06
201.833	50.84
202.22	25.22
202.607	58.07
202.994	-26.46
203.38	98.81
203.767	45.15
204.154	35.09
204.54	52.7
204.927	5.49
205.313	-59.89
205.699	58.35
206.086	18.03
206.472	63.47
206.858	12.16
207.245	-25.08
207.631	40.25
208.017	12.91
208.403	27.58
208.789	31.19
209.175	0.1
209.561	-42.09
209.947	-10.36
210.333	-14.62
210.719	33.4
211.105	3.07
211.491	-85.31
211.876	12.32
212.262	54.36
212.648	10.65
213.034	31.3
213.419	-31.75
213.805	-16.31
214.19	-26.13
214.576	-22.71
214.961	-33
215.346	-116.68
215.732	-10.44
216.117	34.41
216.502	-31.85
216.888	9.55
217.273	21.49
217.658	-10.91
218.043	2.17
218.428	-78.76
218.813	-11.43
219.198	0.4
219.583	-3.81
219.968	11.39
220.353	-30.19
220.738	10.24
221.122	22.46
221.507	-1.35
221.892	-24.96
222.276	-14.95
222.661	2.57
223.046	11.82
223.43	12.64
223.815	4.57
224.199	2.35
224.583	-4.05
224.968	-0.75
225.352	16.81
225.736	1.43
226.121	-2.88
226.505	11.42
226.889	3.86
227.273	-2.15
227.657	9.08
228.041	2.09
228.425	1.92
228.809	3.85
229.193	2.9
229.577	3.18
229.961	3.2
230.344	2.72
230.728	2.46
231.112	2.66
231.495	3.29
231.879	2.59
232.263	5.1
232.646	4.08
233.03	3.03
233.413	1.26
233.797	1.97
234.18	4.61
234.563	2.26
234.946	3.02
235.33	6.3
235.713	2.93
236.096	2.62
236.479	4.82
236.862	2.16
237.245	4.43
237.628	2.32
238.011	3.9
238.394	4.85
238.777	3.07
239.16	2.8
239.543	3.04
239.925	4.3
240.308	3.28
240.691	4.66
241.073	4.04
241.456	4.64
241.838	3.07
242.221	1.95
242.603	4.04
242.986	3.73
243.368	3.44
243.75	3.69
244.133	2.92
244.515	3.4
244.897	3.21
245.279	3.13
245.661	3.22
246.043	2.32
246.425	2.81
246.807	5.17
247.189	4.97
247.571	3.49
247.953	3.54
248.335	3.29
248.717	3.43
249.098	3.5
249.48	3.44
249.862	3.38
250.243	3.24
250.625	3.72
251.006	3.83
251.388	2.72
251.769	3.05
252.151	3.24
252.532	4.2
252.913	2.58
253.295	2.94
253.676	3.47
254.057	3.77
254.438	3.65
254.819	2.79
255.2	3.33
255.581	4.22
255.962	2.12
256.343	3.76
256.724	3.6
257.105	2.71
257.486	3.44
257.867	4.9
258.247	3.21
258.628	3.72
259.009	3.55
259.389	3.44
259.77	3.76
260.15	3.13
260.531	2.88
260.911	4.28
261.292	3.34
261.672	3.32
262.052	3.41
262.432	3.56
262.813	3.55
263.193	3.5
263.573	3.77
263.953	3.24
264.333	3.86
264.713	3.62
265.093	3.46
265.473	3.28
265.853	2.89
266.233	4.16
266.612	2.16
266.992	1.61
267.372	3
267.752	3.01
268.131	3.55
268.511	4.14
268.89	3.28
269.27	3.09
269.649	2.83
270.029	3.27
270.408	4
270.787	3.48
271.167	3.75
271.546	3.11
271.925	2.98
272.304	2.85
272.683	3.61
273.062	3.25
273.441	3.63
273.82	3.04
274.199	3.13
274.578	3.21
274.957	3.22
275.336	2.9
275.715	3.54
276.093	3.81
276.472	2.59
276.851	2.86
277.229	3.27
277.608	2.93
277.986	3.18
278.365	3.11
278.743	2.9
279.122	2.9
279.5	3.29
279.878	3.25
280.257	2.99
280.635	2.87
281.013	3.39
281.391	3.19
281.769	3.49
282.147	3.56
282.525	3.93
282.903	3.07
283.281	3.62
283.659	3.18
284.037	3.72
284.415	3.59
284.792	3.39
285.17	2.62
285.548	3.08
285.925	3.93
286.303	3.57
286.68	3.19
287.058	3.42
287.435	3.01
287.813	3.51
288.19	3.37
288.567	3.62
288.945	4.2
289.322	3.6
289.699	3.59
290.076	3.23
290.453	3.01
290.83	3.74
291.207	3.21
291.584	4.02
291.961	4.15
292.338	3.71
292.715	3.58
293.092	3.35
293.469	4.02
293.845	3.75
294.222	3.29
294.599	4.19
294.975	3.43
295.352	4.25
295.728	3.62
296.105	3.76
296.481	3.9
296.858	3.87
297.234	3.67
297.61	3.95
297.986	3.88
298.363	4.27
298.739	3.95
299.115	4.07
299.491	3.96
299.867	4.47
300.243	4.33
300.619	4.19
300.995	4.19
301.371	4.59
301.746	4.49
302.122	4.66
302.498	4.64
302.874	4.82
303.249	4.97
303.625	4.44
304	4.81
304.376	4.67
304.751	4
305.127	5.21
305.502	4.23
305.878	4.3
306.253	4.6
306.628	5.33
307.003	4.3
307.378	5.51
307.754	5.07
308.129	4.87
308.504	5.43
308.879	5.57
309.254	5.76
309.629	5.37
310.003	4.87
310.378	5.58
310.753	5.2
311.128	5.55
311.502	5.67
311.877	5.6
312.252	5.34
312.626	5.54
313.001	5.31
313.375	5.67
313.75	5.21
314.124	5.83
314.498	5.08
314.873	5.73
315.247	5.27
315.621	5.97
315.995	5.36
316.369	6.14
316.743	5.74
317.117	6.11
317.491	5.77
317.865	5.76
318.239	5.87
318.613	6.42
318.987	6.27
319.361	5.31
319.734	6.4
320.108	5.76
320.482	5.9
320.855	6.47
321.229	6.5
321.602	6.66
321.976	6.86
322.349	6.53
322.723	6.56
323.096	7.21
323.469	6.59
323.843	6.59
324.216	7.11
324.589	7.05
324.962	6.92
325.335	6.87
325.708	6.53
326.081	6.91
326.454	7.15
326.827	6.68
327.2	6.87
327.573	7.17
327.945	7.4
328.318	7.13
328.691	6.6
329.063	7.23
329.436	6.99
329.809	7.57
330.181	6.65
330.553	6.79
330.926	7.77
331.298	7.49
331.671	7.12
332.043	7.91
332.415	7.85
332.787	7.36
333.159	8.13
333.532	7.41
333.904	7.78
334.276	7.69
334.648	7.16
335.02	7.63
335.391	7.48
335.763	7.24
336.135	7.84
336.507	8.21
336.879	7.59
337.25	7.17
337.622	7.37
337.993	8.16
338.365	8.23
338.736	7.99
339.108	8.16
339.479	7.62
339.851	7.58
340.222	8.21
340.593	8.2
340.964	7.66
341.336	8.88
341.707	7.69
342.078	8.34
342.449	8.96
342.82	7.88
343.191	8.32
343.562	8.63
343.933	8.8
344.303	8.41
344.674	8.55
345.045	8.44
345.416	8.85
345.786	8.39
346.157	8.93
346.527	8.32
346.898	7.83
347.268	8.75
347.639	8.21
348.009	8.46
348.38	8.09
348.75	8.14
349.12	8.24
349.49	9.04
349.861	8.81
350.231	8.8
350.601	9.03
350.971	8.91
351.341	8.84
351.711	8.96
352.081	8.95
352.45	8.36
352.82	9.18
353.19	8.73
353.56	9.06
353.929	9.12
354.299	8.9
354.669	8.87
355.038	9.25
355.408	8.77
355.777	9.39
356.147	9.02
356.516	9.25
356.885	8.92
357.254	9.16
357.624	9.39
357.993	9.3
358.362	8.93
358.731	9.14
359.1	9.28
359.469	9.44
359.838	9.65
360.207	9.35
360.576	9.19
360.945	9.75
361.314	9.82
361.682	9.29
362.051	9.18
362.42	9.67
362.788	9.51
363.157	9.75
363.525	9.78
363.894	9.7
364.262	9.68
364.631	9.6
364.999	9.82
365.367	9.46
365.735	10.09
366.104	9.76
366.472	9.95
366.84	9.93
367.208	9.79
367.576	10.14
367.944	10.31
368.312	9.98
368.68	9.7
369.048	10.45
369.416	9.91
369.783	10.05
370.151	9.98
370.519	10.68
370.886	10.44
371.254	9.85
371.621	10.47
371.989	10.33
372.356	10.04
372.724	10.04
373.091	10.36
373.458	9.98
373.826	10.09
374.193	10.19
374.56	10.82
374.927	10.6
375.294	10.28
375.661	10.19
376.028	10
376.395	10.05
376.762	10.68
377.129	10.46
377.496	10.48
377.863	10.51
378.229	10.27
378.596	10.69
378.963	10.77
379.329	10.52
379.696	10.9
380.062	10.7
380.429	10.67
380.795	10.69
381.161	10.92
381.528	10.95
381.894	10.82
382.26	10.42
382.626	11.04
382.993	10.91
383.359	11.09
383.725	10.72
384.091	11.36
384.457	11.33
384.823	11.14
385.188	11.2
385.554	10.51
385.92	11.2
386.286	11.24
386.651	11.22
387.017	11.33
387.383	11.33
387.748	10.88
388.114	11.39
388.479	11.57
388.845	11.66
389.21	11.51
389.575	11.39
389.94	11.34
390.306	11.49
390.671	11.67
391.036	11.27
391.401	11.29
391.766	11.42
392.131	11.31
392.496	11.57
392.861	11.64
393.226	11.9
393.591	11.72
393.956	11.45
394.32	11.78
394.685	11.63
395.05	11.44
395.414	11.8
395.779	11.57
396.143	11.68
396.508	11.78
396.872	11.9
397.236	11.8
397.601	11.83
397.965	12.04
398.329	12.17
398.694	12.2
399.058	11.9
399.422	11.94
399.786	11.79
400.15	12.24
400.514	12.06
400.878	12.05
401.242	12.26
401.605	12.12
401.969	12.04
402.333	12.12
402.697	12.38
403.06	12.14
403.424	12.35
403.787	12.24
404.151	12.29
404.514	12.54
404.878	12.24
405.241	12.43
405.604	12.39
405.968	12.25
406.331	12.25
406.694	12.46
407.057	12.41
407.42	12.38
407.783	12.32
408.146	12.53
408.509	12.46
408.872	12.3
409.235	12.64
409.598	13.08
409.961	12.49
410.323	12.97
410.686	12.79
411.049	12.68
411.411	12.92
411.774	12.76
412.136	12.58
412.499	12.75
412.861	12.87
413.223	12.88
413.586	12.85
413.948	12.86
414.31	13.01
414.672	12.91
415.035	12.75
415.397	13.01
415.759	12.79
416.121	13.09
416.483	13.14
416.845	13.2
417.206	12.82
417.568	13.03
417.93	12.85
418.292	12.95
418.653	12.95
419.015	13.14
419.377	13.07
419.738	13.11
420.1	13.06
420.461	13.08
420.822	13.03
421.184	12.98
421.545	12.98
421.906	12.9
422.267	13.01
422.629	12.94
422.99	12.98
423.351	13.15
423.712	13.04
424.073	13.24
424.434	13.09
424.795	13.23
425.155	13.13
425.516	13.05
425.877	13.1
426.238	13.09
426.598	13.27
426.959	13.26
427.32	13.34
427.68	13.31
428.041	13.42
428.401	13.53
428.761	13.42
429.122	13.64
429.482	13.73
429.842	13.96
430.202	13.88
430.563	13.64
430.923	13.58
431.283	13.82
431.643	13.83
432.003	13.87
432.363	13.77
432.722	13.86
433.082	13.9
433.442	13.77
433.802	13.86
434.161	14.09
434.521	14.05
434.881	13.9
435.24	13.69
435.6	13.86
435.959	13.76
436.319	13.89
436.678	13.85
437.037	13.96
437.396	14.1
437.756	14.07
438.115	14.04
438.474	14.36
438.833	13.95
439.192	14.17
439.551	14.3
439.91	14.16
440.269	14.23
440.628	14.03
440.987	14.36
441.345	14.04
441.704	14.39
442.063	14.16
442.421	14.3
442.78	14.16
443.138	14.11
443.497	14.27
443.855	14.31
444.214	14.33
444.572	14.52
444.93	14.74
445.288	14.54
445.647	14.63
446.005	14.59
446.363	14.57
446.721	14.52
447.079	14.38
447.437	14.52
447.795	14.5
448.153	14.29
448.51	14.39
448.868	14.51
449.226	14.54
449.584	14.73
449.941	14.8
450.299	14.74
450.656	14.77
451.014	14.74
451.371	14.86
451.729	14.91
452.086	15.07
452.443	15.23
452.801	15.05
453.158	15.17
453.515	14.84
453.872	14.92
454.229	14.95
454.586	14.91
454.943	15.12
455.3	15.33
455.657	15.25
456.014	15.09
456.371	15.21
456.727	15.31
457.084	15.4
457.441	15.38
457.797	15.39
458.154	15.39
458.51	15.45
458.867	15.52
459.223	15.46
459.58	15.33
459.936	15.47
460.292	15.49
460.648	15.4
461.005	15.18
461.361	15.38
461.717	15.13
462.073	15.06
462.429	15.42
462.785	15.46
463.141	15.56
463.496	15.57
463.852	15.83
464.208	15.69
464.564	15.86
464.919	15.81
465.275	15.84
465.631	16.01
465.986	15.9
466.342	15.94
466.697	15.99
467.052	16.05
467.408	15.98
467.763	15.91
468.118	15.93
468.473	15.99
468.829	16
469.184	15.87
469.539	16.16
469.894	15.78
470.249	16.11
470.603	16.26
470.958	16.28
471.313	16.3
471.668	16.37
472.023	16.32
472.377	16.28
472.732	16.33
473.086	16.24
473.441	16.14
473.795	16.32
474.15	16.41
474.504	16.33
474.859	16.24
475.213	16.31
475.567	16.48
475.921	16.46
476.275	16.56
476.63	16.43
476.984	16.53
477.338	16.81
477.692	16.43
478.045	16.43
478.399	16.45
478.753	16.54
479.107	16.64
479.461	16.54
479.814	16.55
480.168	16.59
480.521	16.69
480.875	16.77
481.228	16.71
481.582	16.63
481.935	16.79
482.289	16.75
482.642	16.79
482.995	16.84
483.348	16.66
483.701	16.65
484.055	16.74
484.408	16.78
484.761	16.43
485.114	16.27
485.466	15.94
485.819	15.85
486.172	15.97
486.525	16.12
486.878	16.3
487.23	16.5
487.583	16.64
487.936	16.68
488.288	16.7
488.641	16.68
488.993	16.48
489.345	16.32
489.698	16.4
490.05	16.44
490.402	16.56
490.754	16.7
491.107	16.95
491.459	17.02
491.811	17.08
492.163	17.08
492.515	17.1
492.866	16.91
493.218	16.83
493.57	16.65
493.922	16.73
494.274	17.01
494.625	17.15
494.977	17.2
495.328	17.48
495.68	17.54
496.031	17.62
496.383	17.66
496.734	17.72
497.086	17.85
497.437	17.76
497.788	17.79
498.139	17.62
498.49	17.64
498.842	17.44
499.193	17.56
499.544	17.74
499.894	17.72
500.245	17.88
500.596	17.9
500.947	17.91
501.298	17.91
501.648	17.84
501.999	18.1
502.35	17.95
502.7	18.07
503.051	18.21
503.401	18.09
503.752	18.06
504.102	18.12
504.452	18.16
504.803	18.19
505.153	18.18
505.503	18.22
505.853	18.32
506.203	18.18
506.553	18.06
506.903	18.23
507.253	18.11
507.603	18.33
507.953	18.46
508.303	18.43
508.652	18.37
509.002	18.58
509.352	18.44
509.701	18.31
510.051	18.37
510.4	18.5
510.75	18.29
511.099	18.62
511.449	18.39
511.798	18.47
512.147	18.65
512.496	18.59
512.846	18.65
513.195	18.57
513.544	18.64
513.893	18.7
514.242	18.71
514.591	18.78
514.939	18.67
515.288	18.77
515.637	18.83
515.986	18.8
516.334	18.77
516.683	19.07
517.032	18.99
517.38	19.11
517.729	19.08
518.077	19.02
518.426	19.23
518.774	19.12
519.122	19
519.47	18.98
519.819	18.82
520.167	18.96
520.515	18.8
520.863	18.85
521.211	18.91
521.559	19.04
521.907	19.01
522.255	19.13
522.602	19.24
522.95	19.22
523.298	19.36
523.645	19.35
523.993	19.33
524.341	19.43
524.688	19.45
525.036	19.34
525.383	19.43
525.73	19.71
526.078	19.36
526.425	19.4
526.772	19.39
527.119	19.4
527.466	19.27
527.814	19.31
528.161	19.3
528.508	19.36
528.854	19.42
529.201	19.39
529.548	19.26
529.895	19.2
530.242	18.76
530.588	18.64
530.935	18.8
531.282	18.98
531.628	19.14
531.975	19.34
532.321	19.49
532.667	19.72
533.014	19.71
533.36	19.77
533.706	19.77
534.052	19.77
534.399	19.61
534.745	19.5
535.091	19.39
535.437	19.47
535.783	19.6
536.129	19.72
536.474	19.8
536.82	20.08
537.166	20.13
537.512	20.13
537.857	20.03
538.203	20.17
538.549	19.88
538.894	19.89
539.239	20.11
539.585	20.29
539.93	20.26
540.276	20.68
540.621	20.55
540.966	20.59
541.311	20.58
541.656	20.35
542.001	20.42
542.346	20.29
542.691	20.14
543.036	19.96
543.381	19.7
543.726	19.83
544.071	20.15
544.415	20.28
544.76	20.32
545.105	20.37
545.449	20.34
545.794	20.51
546.138	20.68
546.483	20.7
546.827	20.8
547.171	20.67
547.516	20.89
547.86	20.87
548.204	20.91
548.548	20.84
548.892	20.81
549.236	20.86
549.58	21.06
549.924	21.1
550.268	21.16
550.612	21.4
550.956	21.39
551.3	21.13
551.643	21.46
551.987	21.54
552.33	21.56
552.674	21.63
553.017	21.42
553.361	21.45
553.704	21.62
554.048	21.27
554.391	21.5
554.734	21.52
555.077	21.58
555.42	21.6
555.764	21.67
556.107	21.51
556.45	21.57
556.793	21.67
557.135	21.68
557.478	21.86
557.821	21.95
558.164	21.67
558.507	22.06
558.849	21.93
559.192	22.03
559.534	21.75
559.877	22.14
560.219	22.08
560.562	22.42
560.904	22.1
561.246	22.27
561.589	21.99
561.931	22.28
562.273	22.04
562.615	22.28
562.957	22.07
563.299	22.05
563.641	22.11
563.983	22.18
564.325	22.39
564.667	22.16
565.008	22.31
565.35	22.32
565.692	22.22
566.033	22.42
566.375	22.59
566.716	22.48
567.058	22.23
567.399	22.33
567.741	22.22
568.082	22.35
568.423	22.16
568.764	22.32
569.105	22.56
569.447	22.96
569.788	22.56
570.129	22.76
570.47	22.81
570.811	22.71
571.151	23.04
571.492	23.03
571.833	22.74
572.174	22.47
572.514	22.91
572.855	22.83
573.195	22.84
573.536	22.78
573.876	22.68
574.217	22.7
574.557	22.79
574.898	22.91
575.238	22.96
575.578	22.86
575.918	23.4
576.258	23.02
576.598	23.24
576.938	23.06
577.278	23.17
577.618	23.16
577.958	23.17
578.298	23.26
578.638	23.29
578.977	23.26
579.317	23.45
579.657	23.13
579.996	23.68
580.336	23.43
580.675	23.4
581.014	23.37
581.354	23.76
581.693	23.67
582.032	23.62
582.372	23.47
582.711	23.6
583.05	23.22
583.389	23.61
583.728	23.63
584.067	23.76
584.406	24.02
584.745	23.77
585.083	23.97
585.422	23.98
585.761	23.89
586.1	24.28
586.438	23.83
586.777	24.09
587.115	23.86
587.454	23.93
587.792	23.86
588.13	24.36
588.469	24.1
588.807	24.14
589.145	24.39
589.483	24.14
589.821	24.08
590.159	24.01
590.497	24.36
590.835	24.58
591.173	24.11
591.511	24.39
591.849	24.17
592.187	24.44
592.524	24.3
592.862	24.13
593.2	24.27
593.537	24.38
593.875	24.16
594.212	24.25
594.55	24.06
594.887	24.73
595.224	24.42
595.561	24.69
595.899	24.68
596.236	24.7
596.573	24.65
596.91	24.28
597.247	24.54
597.584	24.92
597.921	24.61
598.258	24.87
598.594	24.71
598.931	24.5
599.268	24.42
599.604	24.67
599.941	24.76
600.277	25.13
600.614	24.84
600.95	24.55
601.287	24.95
601.623	24.97
601.959	24.87
602.296	25.22
602.632	24.83
602.968	25.16
603.304	24.77
603.64	24.86
603.976	25.51
604.312	25
604.648	25.05
604.984	25.14
605.319	25.19
605.655	24.91
605.991	25.32
606.326	25.2
606.662	24.93
606.998	24.89
607.333	25.17
607.668	25.07
608.004	25.53
608.339	25.45
608.674	25.37
609.01	25.29
609.345	25.49
609.68	25.71
610.015	25.26
610.35	25.41
610.685	25.52
611.02	25.43
611.355	25.62
611.689	25.83
612.024	25.52
612.359	25.41
612.694	25.49
613.028	25.63
613.363	25.98
613.697	25.97
614.032	25.88
614.366	25.66
614.7	26.01
615.035	25.96
615.369	26.04
615.703	26.08
616.037	26
616.371	25.84
616.705	26.05
617.039	26
617.373	26.08
617.707	26.07
618.041	26.07
618.375	26.38
618.709	26.1
619.042	26.39
619.376	26.25
619.71	26.32
620.043	26.31
620.377	26.41
620.71	26.4
621.043	26.13
621.377	26.39
621.71	26.32
622.043	26.12
622.376	26.4
622.709	26.25
623.043	25.86
623.376	26.78
623.709	26.59
624.041	26.97
624.374	26.4
624.707	26.48
625.04	26.68
625.373	26.01
625.705	27.04
626.038	26.34
626.37	27.04
626.703	26.29
627.035	26.97
627.368	27.23
627.7	26.93
628.032	26.49
628.365	26.73
628.697	26.77
629.029	26.54
629.361	26.77
629.693	26.77
630.025	26.58
630.357	27.13
630.689	27.13
631.021	27.1
631.353	27.21
631.684	27.14
632.016	27.11
632.348	27.41
632.679	27.26
633.011	27.48
633.342	27.6
633.674	27.02
634.005	27.29
634.336	27.29
634.668	28.03
634.999	27.29
635.33	27.05
635.661	27.04
635.992	27.19
636.323	27.32
636.654	27.6
636.985	27.28
637.316	27.47
637.647	27.95
637.977	27.48
638.308	27.49
638.639	27.5
638.969	27.73
639.3	27.59
639.63	27.9
639.961	27.52
640.291	27.51
640.622	27.9
640.952	27.56
641.282	28.49
641.612	27.22
641.943	27.51
642.273	27.38
642.603	27.86
642.933	27.82
643.263	28.25
643.592	27.63
643.922	27.93
644.252	28.25
644.582	28.01
644.911	27.65
645.241	28.32
645.571	28.18
645.9	28.44
646.23	28.66
646.559	28.22
646.888	27.65
647.218	28.7
647.547	28.69
647.876	28.07
648.205	28.27
648.534	28.12
648.863	28.26
649.192	28.59
649.521	27.87
649.85	28.3
650.179	28.14
650.508	28.27
650.837	28.22
651.165	28.36
651.494	28.51
651.822	28.33
652.151	28.2
652.479	28.59
652.808	28.18
653.136	28.82
653.465	28.25
653.793	28.59
654.121	28.31
654.449	28.86
654.777	28.78
655.105	28.91
655.433	28.82
655.761	28.34
656.089	28.7
656.417	28.9
656.745	28.91
657.073	28.82
657.4	29.05
657.728	28.55
658.056	28.68
658.383	28.91
658.711	29.27
659.038	28.88
659.365	29.15
659.693	29.03
660.02	29.22
660.347	29.09
660.674	29.13
661.001	28.77
661.329	28.89
661.656	28.89
661.982	29.37
662.309	28.86
662.636	29.01
662.963	28.98
663.29	29.7
663.616	29.58
663.943	29.06
664.27	29.28
664.596	29.3
664.923	29.4
665.249	29.42
665.576	29.06
665.902	30.05
666.228	29.8
666.554	29.96
666.881	30.23
667.207	29.43
667.533	29.76
667.859	30.12
668.185	29.7
668.511	28.99
668.837	29.05
669.162	30.02
669.488	29.64
669.814	29.81
670.139	30.37
670.465	30.29
670.791	30.69
671.116	30.42
671.442	30.08
671.767	29.81
