Data from 0193_chest_Reflection__4__395.txt Node

Date: Fri Dec 15 20:20:44 CST 2023
User: ToomeyLab
Spectrometer: FLMS14357
Trigger mode: 0
Integration Time (sec): 1.000000E-2
Scans to average: 100
Electric dark correction enabled: true
Nonlinearity correction enabled: false
Boxcar width: 0
XAxis mode: Wavelengths
Number of Pixels in Spectrum: 2048
>>>>>Begin Spectral Data<<<<<
189.047	35.52
189.435	35.52
189.823	35.52
190.211	-48.37
190.599	521.36
190.987	150.18
191.375	-152.19
191.763	38.82
192.151	147.56
192.538	55.16
192.926	154.75
193.314	243.22
193.702	-673.64
194.089	-617.82
194.477	7.1
194.864	57.16
195.252	88.76
195.639	144.92
196.027	155.56
196.414	146.58
196.801	196.97
197.189	361.86
197.576	-127.22
197.963	94.76
198.351	-84.15
198.738	-30.89
199.125	63.75
199.512	-118.61
199.899	6.64
200.286	16.6
200.673	-25.94
201.06	1.06
201.447	10.04
201.833	10.31
202.22	14.14
202.607	36.58
202.994	38.75
203.38	4.66
203.767	66.21
204.154	40.73
204.54	30.67
204.927	-48.73
205.313	-37.9
205.699	13.45
206.086	29.46
206.472	-2.84
206.858	-30.47
207.245	-45.1
207.631	-32.29
208.017	8.53
208.403	17.24
208.789	10.75
209.175	3.07
209.561	-20.03
209.947	5.32
210.333	15.91
210.719	39.97
211.105	-2.55
211.491	-56.23
211.876	25.09
212.262	-7.72
212.648	-5.72
213.034	4.84
213.419	-99.22
213.805	-52.45
214.19	-34.84
214.576	-2.94
214.961	-30.48
215.346	-129.09
215.732	-51.38
216.117	-22.2
216.502	15.36
216.888	-9.42
217.273	34.02
217.658	-29.48
218.043	7.62
218.428	-87.74
218.813	-22.56
219.198	-40.74
219.583	1.44
219.968	7.5
220.353	-23.14
220.738	18.78
221.122	7.94
221.507	-34.35
221.892	-25.97
222.276	-21.58
222.661	-4.59
223.046	12.39
223.43	16.11
223.815	6.39
224.199	-13.72
224.583	-2.56
224.968	9.63
225.352	9.87
225.736	-6.32
226.121	-12.85
226.505	4.95
226.889	7.31
227.273	0.19
227.657	8.16
228.041	-2.47
228.425	-1.7
228.809	6.91
229.193	1.59
229.577	6.2
229.961	6.29
230.344	4.32
230.728	3.76
231.112	4.6
231.495	3.94
231.879	4.44
232.263	5.1
232.646	5.05
233.03	3.45
233.413	3.24
233.797	4.03
234.18	0.59
234.563	2.52
234.946	2.66
235.33	5.5
235.713	6.4
236.096	4.15
236.479	6.77
236.862	2.29
237.245	4.49
237.628	1.39
238.011	2.41
238.394	4.33
238.777	3.8
239.16	2.55
239.543	4.89
239.925	3.52
240.308	4.29
240.691	4.19
241.073	4.25
241.456	4.69
241.838	4.43
242.221	3.49
242.603	4
242.986	5.1
243.368	4.83
243.75	5.09
244.133	4.3
244.515	4.4
244.897	4.33
245.279	4.28
245.661	4.83
246.043	2.46
246.425	2.98
246.807	4.51
247.189	4.71
247.571	4.33
247.953	4.39
248.335	4.26
248.717	4.29
249.098	3.86
249.48	4.16
249.862	4.05
250.243	4.08
250.625	3.52
251.006	4.62
251.388	3.01
251.769	4.99
252.151	3.5
252.532	3.62
252.913	3.71
253.295	3.95
253.676	3.86
254.057	3.87
254.438	3.93
254.819	3.78
255.2	3.22
255.581	3.77
255.962	2.05
256.343	3.29
256.724	3.08
257.105	3.92
257.486	3.17
257.867	3.68
258.247	5.06
258.628	4.09
259.009	3.01
259.389	3.82
259.77	3.49
260.15	4.16
260.531	2.97
260.911	4.14
261.292	3.7
261.672	4.02
262.052	3.99
262.432	4.36
262.813	3.83
263.193	3.05
263.573	3.98
263.953	4.31
264.333	4.13
264.713	3.73
265.093	2.73
265.473	4.33
265.853	2.66
266.233	3.81
266.612	2.08
266.992	2.49
267.372	4.06
267.752	3.53
268.131	3.97
268.511	4.31
268.89	4.13
269.27	3.35
269.649	3.28
270.029	3.37
270.408	4.55
270.787	4.25
271.167	4.18
271.546	3.6
271.925	3
272.304	2.91
272.683	4.08
273.062	3.62
273.441	4.08
273.82	3.04
274.199	3.9
274.578	4.02
274.957	3.7
275.336	3.31
275.715	3.25
276.093	3.52
276.472	3.48
276.851	3.22
277.229	3.08
277.608	3.01
277.986	3.22
278.365	3.23
278.743	3.65
279.122	3.2
279.5	3.59
279.878	3.71
280.257	3.48
280.635	2.69
281.013	3.92
281.391	3.51
281.769	3.83
282.147	3.62
282.525	3.73
282.903	3.15
283.281	4.42
283.659	3.54
284.037	3.77
284.415	4.06
284.792	3.91
285.17	3.29
285.548	3.28
285.925	3.66
286.303	3.72
286.68	3.65
287.058	3.54
287.435	3.44
287.813	3.79
288.19	3.52
288.567	3.89
288.945	3.96
289.322	3.94
289.699	3.43
290.076	3.92
290.453	3.31
290.83	3.43
291.207	3.05
291.584	3.83
291.961	3.87
292.338	3.34
292.715	4.12
293.092	3.49
293.469	3.95
293.845	4.07
294.222	3.3
294.599	3.52
294.975	3.22
295.352	3.47
295.728	3.39
296.105	3.85
296.481	3.12
296.858	3.49
297.234	3.8
297.61	3.33
297.986	3.47
298.363	3.85
298.739	3.85
299.115	3.68
299.491	3.69
299.867	3.72
300.243	4.15
300.619	3.42
300.995	3.79
301.371	4.21
301.746	3.31
302.122	3.52
302.498	3.6
302.874	3.51
303.249	3.47
303.625	3.4
304	3.55
304.376	4.17
304.751	3.31
305.127	3.96
305.502	2.54
305.878	2.91
306.253	3.39
306.628	4.1
307.003	3.06
307.378	3.91
307.754	3.54
308.129	2.97
308.504	3.5
308.879	3.5
309.254	4.07
309.629	4.35
310.003	4.12
310.378	4.01
310.753	3.77
311.128	3.46
311.502	3.18
311.877	4.19
312.252	3.47
312.626	3.15
313.001	3.71
313.375	3.9
313.75	3.54
314.124	3.51
314.498	3.35
314.873	3.18
315.247	3.61
315.621	3.47
315.995	3.25
316.369	3.19
316.743	3.23
317.117	3.65
317.491	2.81
317.865	3.12
318.239	3.42
318.613	3.66
318.987	3.78
319.361	3.13
319.734	3.38
320.108	3.85
320.482	3.56
320.855	3.52
321.229	3.61
321.602	3.76
321.976	4.1
322.349	2.97
322.723	3.29
323.096	3.8
323.469	3.43
323.843	2.96
324.216	4.27
324.589	3.69
324.962	3.64
325.335	3.6
325.708	3.5
326.081	3.38
326.454	3.15
326.827	3.71
327.2	3.42
327.573	4.36
327.945	3.41
328.318	3.36
328.691	3.24
329.063	3.48
329.436	3.27
329.809	3.6
330.181	3.64
330.553	3.36
330.926	3.92
331.298	4.04
331.671	3.26
332.043	3.92
332.415	3.7
332.787	2.71
333.159	4.35
333.532	3.77
333.904	3.61
334.276	3.53
334.648	3.95
335.02	3.67
335.391	3.81
335.763	3.78
336.135	3.89
336.507	3.68
336.879	3.57
337.25	3.79
337.622	3.81
337.993	3.88
338.365	3.04
338.736	3.72
339.108	4.36
339.479	3.5
339.851	3.69
340.222	4.07
340.593	3.6
340.964	3.35
341.336	3.84
341.707	3.57
342.078	3.67
342.449	4.03
342.82	3.98
343.191	3.63
343.562	3.91
343.933	3.77
344.303	3.29
344.674	3.69
345.045	3.65
345.416	3.88
345.786	3.06
346.157	3.61
346.527	3.22
346.898	3.08
347.268	3.83
347.639	3.65
348.009	3.97
348.38	3.65
348.75	3.57
349.12	3.69
349.49	4.31
349.861	3.84
350.231	3.39
350.601	3.91
350.971	3.74
351.341	3.9
351.711	3.61
352.081	3.8
352.45	3.4
352.82	3.72
353.19	3.78
353.56	3.71
353.929	4.08
354.299	3.71
354.669	3.11
355.038	3.93
355.408	3.49
355.777	3.77
356.147	3.17
356.516	3.54
356.885	3.71
357.254	3.51
357.624	3.98
357.993	4.14
358.362	3.22
358.731	3.62
359.1	3.65
359.469	3.91
359.838	3.9
360.207	3.65
360.576	3.35
360.945	3.6
361.314	4.54
361.682	3.59
362.051	3.61
362.42	4.04
362.788	3.54
363.157	3.95
363.525	4.02
363.894	3.81
364.262	3.61
364.631	3.77
364.999	3.72
365.367	3.57
365.735	4.39
366.104	3.77
366.472	4.05
366.84	3.68
367.208	3.59
367.576	3.87
367.944	4.16
368.312	3.62
368.68	3.33
369.048	4.09
369.416	4.01
369.783	3.68
370.151	3.36
370.519	4.04
370.886	4.15
371.254	3.82
371.621	3.83
371.989	4.09
372.356	3.23
372.724	3.82
373.091	3.44
373.458	3.84
373.826	3.82
374.193	3.6
374.56	3.88
374.927	3.96
375.294	3.97
375.661	3.53
376.028	3.77
376.395	3.99
376.762	4.04
377.129	3.68
377.496	3.42
377.863	3.82
378.229	3.77
378.596	4.09
378.963	3.73
379.329	3.72
379.696	3.62
380.062	3.81
380.429	3.72
380.795	3.68
381.161	3.72
381.528	4.34
381.894	3.72
382.26	3.54
382.626	3.76
382.993	3.55
383.359	4.1
383.725	3.66
384.091	3.85
384.457	4.09
384.823	3.59
385.188	3.9
385.554	3.72
385.92	4.01
386.286	3.85
386.651	4.1
387.017	3.9
387.383	3.9
387.748	3.93
388.114	4.15
388.479	3.85
388.845	4.2
389.21	4.15
389.575	4.1
389.94	3.95
390.306	4
390.671	4.12
391.036	3.57
391.401	3.4
391.766	3.76
392.131	3.9
392.496	4.18
392.861	3.9
393.226	4.04
393.591	4.22
393.956	4
394.32	4.03
394.685	3.8
395.05	3.9
395.414	3.87
395.779	3.62
396.143	4.02
396.508	3.93
396.872	4.11
397.236	4.02
397.601	3.57
397.965	3.66
398.329	3.73
398.694	4.11
399.058	3.99
399.422	3.7
399.786	4.14
400.15	4.01
400.514	3.99
400.878	4.07
401.242	4.42
401.605	4.19
401.969	4.11
402.333	4.07
402.697	4.09
403.06	3.81
403.424	3.99
403.787	3.88
404.151	4.11
404.514	4.13
404.878	4.01
405.241	4.21
405.604	4.15
405.968	4.13
406.331	4.01
406.694	4.17
407.057	4.09
407.42	4.12
407.783	3.79
408.146	3.91
408.509	4.17
408.872	4.02
409.235	4.11
409.598	4.37
409.961	3.78
410.323	4.13
410.686	4.2
411.049	4.08
411.411	4.23
411.774	4.02
412.136	3.91
412.499	4.16
412.861	4.05
413.223	4.06
413.586	4.3
413.948	4.24
414.31	4.22
414.672	4.13
415.035	4.04
415.397	4.3
415.759	3.91
416.121	4.45
416.483	4.07
416.845	4
417.206	4.08
417.568	4.19
417.93	3.94
418.292	4.19
418.653	4.22
419.015	4.08
419.377	4.31
419.738	4.2
420.1	4.26
420.461	4.2
420.822	4.22
421.184	4.1
421.545	4.13
421.906	4.14
422.267	4.19
422.629	4.17
422.99	4.15
423.351	4.09
423.712	4.12
424.073	4.08
424.434	4.02
424.795	4.07
425.155	4.02
425.516	4.05
425.877	4.22
426.238	4.06
426.598	4.19
426.959	4.18
427.32	4.22
427.68	4.1
428.041	3.98
428.401	4.29
428.761	4.05
429.122	4.09
429.482	4.03
429.842	4.4
430.202	4.24
430.563	4.07
430.923	4.23
431.283	4.27
431.643	4.16
432.003	4.07
432.363	4.48
432.722	4.3
433.082	4.25
433.442	4.22
433.802	4.18
434.161	4.15
434.521	4.57
434.881	4.35
435.24	4.35
435.6	4.32
435.959	4.08
436.319	4.19
436.678	4.32
437.037	4.22
437.396	4.43
437.756	4.52
438.115	4.28
438.474	4.41
438.833	4.07
439.192	4.45
439.551	4.46
439.91	4.33
440.269	4.37
440.628	4.32
440.987	4.26
441.345	4.1
441.704	4.24
442.063	4.26
442.421	4.24
442.78	4.35
443.138	4.27
443.497	4.12
443.855	4.22
444.214	4.22
444.572	4.34
444.93	4.38
445.288	4.29
445.647	4.51
446.005	4.26
446.363	4.34
446.721	4.45
447.079	4.28
447.437	4.37
447.795	4.33
448.153	4.24
448.51	4.37
448.868	4.26
449.226	4.24
449.584	4.33
449.941	4.38
450.299	4.42
450.656	4.44
451.014	4.46
451.371	4.18
451.729	4.43
452.086	4.59
452.443	4.37
452.801	4.52
453.158	4.4
453.515	4.26
453.872	4.56
454.229	4.25
454.586	4.3
454.943	4.33
455.3	4.42
455.657	4.3
456.014	4.33
456.371	4.41
456.727	4.48
457.084	4.63
457.441	4.22
457.797	4.51
458.154	4.83
458.51	4.7
458.867	4.36
459.223	4.47
459.58	4.51
459.936	4.61
460.292	4.43
460.648	4.45
461.005	4.48
461.361	4.55
461.717	4.44
462.073	4.37
462.429	4.44
462.785	4.3
463.141	4.44
463.496	4.51
463.852	4.38
464.208	4.45
464.564	4.72
464.919	4.56
465.275	4.42
465.631	4.59
465.986	4.42
466.342	4.62
466.697	4.45
467.052	4.46
467.408	4.63
467.763	4.5
468.118	4.48
468.473	4.36
468.829	4.37
469.184	4.46
469.539	4.46
469.894	4.24
470.249	4.63
470.603	4.56
470.958	4.66
471.313	4.63
471.668	4.61
472.023	4.49
472.377	4.43
472.732	4.5
473.086	4.52
473.441	4.47
473.795	4.65
474.15	4.58
474.504	4.54
474.859	4.78
475.213	4.47
475.567	4.61
475.921	4.45
476.275	4.67
476.63	4.77
476.984	4.64
477.338	4.79
477.692	4.64
478.045	4.59
478.399	4.71
478.753	4.73
479.107	4.62
479.461	4.67
479.814	4.63
480.168	4.64
480.521	4.71
480.875	4.59
481.228	4.67
481.582	4.66
481.935	4.73
482.289	4.73
482.642	4.6
482.995	4.54
483.348	4.61
483.701	4.56
484.055	4.68
484.408	4.61
484.761	4.56
485.114	4.57
485.466	4.42
485.819	4.38
486.172	4.37
486.525	4.41
486.878	4.42
487.23	4.47
487.583	4.52
487.936	4.55
488.288	4.59
488.641	4.64
488.993	4.57
489.345	4.48
489.698	4.53
490.05	4.5
490.402	4.5
490.754	4.51
491.107	4.58
491.459	4.65
491.811	4.66
492.163	4.65
492.515	4.65
492.866	4.67
493.218	4.64
493.57	4.57
493.922	4.53
494.274	4.61
494.625	4.69
494.977	4.65
495.328	4.76
495.68	4.67
496.031	4.77
496.383	4.77
496.734	4.96
497.086	4.92
497.437	4.78
497.788	4.85
498.139	4.68
498.49	4.8
498.842	4.75
499.193	4.88
499.544	4.81
499.894	4.84
500.245	4.83
500.596	4.77
500.947	4.81
501.298	4.83
501.648	4.91
501.999	4.96
502.35	4.88
502.7	4.99
503.051	4.73
503.401	4.76
503.752	4.98
504.102	4.87
504.452	5.02
504.803	4.95
505.153	4.83
505.503	4.9
505.853	4.85
506.203	4.83
506.553	4.89
506.903	4.83
507.253	4.86
507.603	4.8
507.953	4.99
508.303	5
508.652	4.82
509.002	5.04
509.352	5.07
509.701	4.78
510.051	4.78
510.4	4.92
510.75	5.04
511.099	4.93
511.449	4.91
511.798	4.92
512.147	4.92
512.496	4.89
512.846	4.99
513.195	4.99
513.544	5.01
513.893	5.03
514.242	4.99
514.591	5.15
514.939	5.03
515.288	4.84
515.637	5.06
515.986	5.13
516.334	5.11
516.683	5.11
517.032	5.13
517.38	5.18
517.729	5.24
518.077	4.9
518.426	5.18
518.774	5.03
519.122	5.12
519.47	5.07
519.819	5.01
520.167	5.11
520.515	5.12
520.863	5.13
521.211	5.11
521.559	5.21
521.907	5.07
522.255	5.21
522.602	5.12
522.95	5.13
523.298	5.26
523.645	5.29
523.993	5.16
524.341	5.34
524.688	5.27
525.036	5.14
525.383	5.27
525.73	5.39
526.078	5.31
526.425	5.19
526.772	5.41
527.119	5.23
527.466	5.19
527.814	5.32
528.161	5.21
528.508	5.26
528.854	5.24
529.201	5.24
529.548	5.24
529.895	5.23
530.242	5.19
530.588	5.12
530.935	5.16
531.282	5.15
531.628	5.16
531.975	5.22
532.321	5.29
532.667	5.38
533.014	5.43
533.36	5.39
533.706	5.41
534.052	5.47
534.399	5.38
534.745	5.38
535.091	5.38
535.437	5.34
535.783	5.46
536.129	5.44
536.474	5.35
536.82	5.45
537.166	5.55
537.512	5.51
537.857	5.55
538.203	5.6
538.549	5.56
538.894	5.49
539.239	5.57
539.585	5.63
539.93	5.57
540.276	5.72
540.621	5.7
540.966	5.84
541.311	5.72
541.656	5.56
542.001	5.65
542.346	5.75
542.691	5.7
543.036	5.59
543.381	5.5
543.726	5.54
544.071	5.58
544.415	5.68
544.76	5.67
545.105	5.68
545.449	5.79
545.794	5.82
546.138	5.84
546.483	5.74
546.827	5.89
547.171	5.93
547.516	6.02
547.86	5.98
548.204	5.93
548.548	5.85
548.892	5.95
549.236	5.96
549.58	5.97
549.924	6.14
550.268	6.06
550.612	6.11
550.956	6.28
551.3	6.08
551.643	6.15
551.987	6.21
552.33	6.23
552.674	6.2
553.017	6.15
553.361	6.16
553.704	6.22
554.048	5.97
554.391	6.12
554.734	6.25
555.077	6.28
555.42	6.27
555.764	6.17
556.107	6.13
556.45	6.18
556.793	6.16
557.135	6.33
557.478	6.5
557.821	6.41
558.164	6.25
558.507	6.64
558.849	6.51
559.192	6.6
559.534	6.43
559.877	6.5
560.219	6.55
560.562	6.57
560.904	6.53
561.246	6.6
561.589	6.53
561.931	6.6
562.273	6.59
562.615	6.74
562.957	6.59
563.299	6.44
563.641	6.59
563.983	6.88
564.325	6.52
564.667	6.49
565.008	6.8
565.35	6.68
565.692	6.67
566.033	6.91
566.375	6.96
566.716	7.02
567.058	6.82
567.399	6.79
567.741	6.7
568.082	6.74
568.423	6.81
568.764	6.81
569.105	7.03
569.447	7.04
569.788	7
570.129	7
570.47	7.16
570.811	7.23
571.151	7.17
571.492	7.27
571.833	7.19
572.174	7.06
572.514	7.12
572.855	7.16
573.195	7.02
573.536	7.19
573.876	7.01
574.217	7.14
574.557	7.32
574.898	7.47
575.238	7.38
575.578	7.33
575.918	7.56
576.258	7.33
576.598	7.46
576.938	7.31
577.278	7.33
577.618	7.43
577.958	7.53
578.298	7.7
578.638	7.44
578.977	7.49
579.317	7.39
579.657	7.65
579.996	7.4
580.336	7.82
580.675	7.68
581.014	7.59
581.354	7.86
581.693	7.9
582.032	7.58
582.372	7.74
582.711	7.82
583.05	7.83
583.389	7.86
583.728	7.7
584.067	8.07
584.406	8.15
584.745	7.94
585.083	8.03
585.422	8.14
585.761	8.33
586.1	8.18
586.438	8.23
586.777	8.36
587.115	8.3
587.454	8.18
587.792	8.02
588.13	8.37
588.469	8.31
588.807	8.12
589.145	8.15
589.483	8.41
589.821	8.32
590.159	8.34
590.497	8.64
590.835	8.56
591.173	8.19
591.511	8.86
591.849	8.56
592.187	8.74
592.524	8.44
592.862	8.43
593.2	8.51
593.537	8.48
593.875	8.27
594.212	8.91
594.55	9
594.887	8.74
595.224	8.53
595.561	8.84
595.899	8.75
596.236	8.92
596.573	8.96
596.91	8.47
597.247	8.7
597.584	9.17
597.921	9.07
598.258	8.74
598.594	8.96
598.931	8.75
599.268	9.01
599.604	8.97
599.941	9.03
600.277	9.02
600.614	9.02
600.95	8.99
601.287	9.31
601.623	9.22
601.959	9.27
602.296	9.43
602.632	9.14
602.968	9.27
603.304	9.23
603.64	9.32
603.976	9.57
604.312	9.46
604.648	9.55
604.984	9.39
605.319	9.51
605.655	9.63
605.991	9.82
606.326	9.43
606.662	9.59
606.998	9.38
607.333	9.61
607.668	9.63
608.004	9.95
608.339	9.89
608.674	9.9
609.01	9.46
609.345	9.64
609.68	10.16
610.015	9.59
610.35	9.74
610.685	9.76
611.02	9.81
611.355	10.23
611.689	10.11
612.024	10.22
612.359	10.03
612.694	10.21
613.028	10.28
613.363	10.45
613.697	10.52
614.032	10.52
614.366	10.04
614.7	10.71
615.035	10.59
615.369	10.48
615.703	10.77
616.037	10.59
616.371	10.08
616.705	10.21
617.039	10.53
617.373	10.43
617.707	10.17
618.041	10.49
618.375	10.82
618.709	10.88
619.042	10.75
619.376	10.73
619.71	10.59
620.043	10.93
620.377	10.58
620.71	11.1
621.043	10.88
621.377	11.17
621.71	10.87
622.043	10.66
622.376	11.02
622.709	11.16
623.043	11.21
623.376	11.24
623.709	11.18
624.041	11.65
624.374	11.14
624.707	11.12
625.04	11.57
625.373	10.77
625.705	11.43
626.038	11.09
626.37	11.46
626.703	11.38
627.035	11.44
627.368	11.71
627.7	11.61
628.032	11.08
628.365	11.86
628.697	11.85
629.029	11.51
629.361	11.66
629.693	11.76
630.025	11.39
630.357	12.1
630.689	11.66
631.021	11.7
631.353	12.13
631.684	11.64
632.016	11.73
632.348	12.19
632.679	12.13
633.011	12.47
633.342	12.15
633.674	11.96
634.005	12.31
634.336	11.97
634.668	12.85
634.999	11.76
635.33	12.46
635.661	12.41
635.992	11.84
636.323	12.82
636.654	12.63
636.985	12.45
637.316	12.4
637.647	12.33
637.977	12.37
638.308	12.41
638.639	12.2
638.969	12.38
639.3	12.61
639.63	12.56
639.961	12.58
640.291	12.47
640.622	12.94
640.952	12.57
641.282	13.34
641.612	12.99
641.943	12.6
642.273	12.66
642.603	13.48
642.933	13.12
643.263	12.94
643.592	13.14
643.922	13.02
644.252	13.21
644.582	13.08
644.911	12.85
645.241	13.08
645.571	13.14
645.9	13.18
646.23	13.47
646.559	13.54
646.888	13.47
647.218	13.42
647.547	13.77
647.876	13.3
648.205	13.34
648.534	13.54
648.863	13.27
649.192	14
649.521	13.72
649.85	13.69
650.179	13.65
650.508	13.71
650.837	13.42
651.165	13.59
651.494	13.47
651.822	13.94
652.151	13.66
652.479	14.18
652.808	13.58
653.136	14.26
653.465	13.2
653.793	13.72
654.121	13.93
654.449	14.22
654.777	14.57
655.105	14.44
655.433	13.69
655.761	13.79
656.089	14.13
656.417	14.58
656.745	14.09
657.073	14.19
657.4	14.63
657.728	14.5
658.056	14.59
658.383	14.43
658.711	14.84
659.038	14.64
659.365	14.25
659.693	15.14
660.02	14.99
660.347	14.88
660.674	14.42
661.001	14.72
661.329	14.2
661.656	14.74
661.982	14.99
662.309	14.81
662.636	14.4
662.963	14.82
663.29	14.71
663.616	15.23
663.943	14.62
664.27	14.7
664.596	14.96
664.923	14.66
665.249	15.67
665.576	14.98
665.902	15.75
666.228	15.13
666.554	15.69
666.881	14.86
667.207	15.46
667.533	15.5
667.859	15.39
668.185	15.61
668.511	15
668.837	15.1
669.162	15.2
669.488	15.29
669.814	15.72
670.139	16.08
670.465	16.24
670.791	15.79
671.116	16.07
671.442	15.43
671.767	15.78
672.092	16.41
672.418	16.3
672.743	16.23
673.068	16.01
673.393	16.04
673.718	15.87
674.043	16.09
674.368	16.19
674.693	17.53
675.018	16.2
675.343	16.28
675.667	16.11
675.992	16.63
676.317	16.82
676.641	16.95
676.966	16.46
677.29	16.13
677.615	16.62
677.939	16.94
678.264	17.37
678.588	16.59
678.912	17.39
679.236	17.45
679.56	15.74
679.885	16.97
680.209	16.24
680.532	16.88
680.856	17.74
681.18	16.72
681.504	17.17
681.828	17.14
682.152	16.94
682.475	17.01
682.799	17
683.122	17.23
683.446	17.16
683.769	17.05
684.093	17.03
684.416	17.92
684.739	17.08
685.062	17.6
685.386	16.7
685.709	16.73
686.032	17.13
686.355	17.8
686.678	17.71
