Data from 0193_forehead_Reflection__0__403.txt Node

Date: Fri Dec 15 20:22:59 CST 2023
User: ToomeyLab
Spectrometer: FLMS14357
Trigger mode: 0
Integration Time (sec): 1.000000E-2
Scans to average: 100
Electric dark correction enabled: true
Nonlinearity correction enabled: false
Boxcar width: 0
XAxis mode: Wavelengths
Number of Pixels in Spectrum: 2048
>>>>>Begin Spectral Data<<<<<
189.047	-487.48
189.435	-487.48
189.823	-487.48
190.211	102.09
190.599	-186.41
190.987	128
191.375	602.92
191.763	70.39
192.151	-65.71
192.538	99.61
192.926	207.1
193.314	200.52
193.702	-433.04
194.089	-32.97
194.477	74.48
194.864	126.79
195.252	100.29
195.639	45.11
196.027	67.83
196.414	117.75
196.801	439.24
197.189	604.81
197.576	-316.89
197.963	648.38
198.351	-46.6
198.738	-4.38
199.125	56.38
199.512	48.08
199.899	-16.27
200.286	-19.16
200.673	44.3
201.06	13.1
201.447	25.37
201.833	28.65
202.22	26.18
202.607	36.76
202.994	23.02
203.38	-12.11
203.767	35.04
204.154	44.91
204.54	41.66
204.927	14.85
205.313	-7.42
205.699	13.62
206.086	39.8
206.472	54.65
206.858	21.85
207.245	-4.24
207.631	25.89
208.017	21.81
208.403	19.91
208.789	30.61
209.175	12.93
209.561	20.96
209.947	24.02
210.333	-60.62
210.719	26.79
211.105	19.12
211.491	31.7
211.876	15.62
212.262	57.86
212.648	1.25
213.034	30.73
213.419	-124.6
213.805	-8.3
214.19	-21.13
214.576	8.28
214.961	-10.92
215.346	-94.77
215.732	29.27
216.117	-4.77
216.502	11.54
216.888	28.49
217.273	21.26
217.658	28.1
218.043	3.83
218.428	-65.19
218.813	-32.83
219.198	-34.75
219.583	9.19
219.968	15.36
220.353	-12.94
220.738	25.65
221.122	11.27
221.507	-5.63
221.892	-10.83
222.276	-0.75
222.661	9.96
223.046	10.86
223.43	6.27
223.815	11.39
224.199	-2.22
224.583	8.32
224.968	-2.67
225.352	15.36
225.736	-0.64
226.121	-10.65
226.505	6.28
226.889	13.5
227.273	8.45
227.657	7.45
228.041	4.71
228.425	0.63
228.809	7.56
229.193	6.57
229.577	1.09
229.961	2.61
230.344	2.8
230.728	2.47
231.112	3.55
231.495	3.06
231.879	2.2
232.263	3.04
232.646	2.24
233.03	2.36
233.413	2.27
233.797	1.89
234.18	6.44
234.563	4.98
234.946	3.29
235.33	3.87
235.713	3.33
236.096	3.24
236.479	3.82
236.862	1.11
237.245	3.97
237.628	1.58
238.011	5.02
238.394	5.13
238.777	3.77
239.16	2.97
239.543	5.52
239.925	5.59
240.308	4.88
240.691	3.79
241.073	4.62
241.456	3.29
241.838	3.23
242.221	1.94
242.603	3.75
242.986	3.63
243.368	3.96
243.75	3.71
244.133	3.2
244.515	3.76
244.897	3.76
245.279	3.81
245.661	3.66
246.043	2.92
246.425	3.52
246.807	5.61
247.189	4.78
247.571	4.39
247.953	3.22
248.335	3.64
248.717	3.89
249.098	3.96
249.48	3.78
249.862	3.59
250.243	4.2
250.625	3.76
251.006	4.36
251.388	3.35
251.769	4.06
252.151	4.36
252.532	3.24
252.913	3.5
253.295	3.71
253.676	4.26
254.057	3.56
254.438	3.44
254.819	3.62
255.2	3.96
255.581	4.28
255.962	2.29
256.343	2.53
256.724	3.02
257.105	3.87
257.486	2.21
257.867	4.72
258.247	3.56
258.628	4.22
259.009	4.58
259.389	4.52
259.77	3.88
260.15	3.66
260.531	3.24
260.911	4.28
261.292	3.98
261.672	3.83
262.052	3.76
262.432	4.03
262.813	4.01
263.193	3.74
263.573	3.77
263.953	4.13
264.333	4.78
264.713	3.76
265.093	3.76
265.473	4.58
265.853	3.18
266.233	3.99
266.612	3.64
266.992	3.39
267.372	4.67
267.752	3.75
268.131	3.65
268.511	4.32
268.89	3.87
269.27	3.55
269.649	3.28
270.029	3.51
270.408	4.95
270.787	4.19
271.167	4.25
271.546	4.05
271.925	3.19
272.304	3.73
272.683	4
273.062	3.78
273.441	3.71
273.82	3.6
274.199	3.91
274.578	3.51
274.957	3.3
275.336	3.65
275.715	3.36
276.093	3.33
276.472	4.43
276.851	3.5
277.229	2.96
277.608	3.45
277.986	4.26
278.365	3.7
278.743	3.13
279.122	3.6
279.5	3.85
279.878	4.13
280.257	3.9
280.635	3.99
281.013	3.93
281.391	3.78
281.769	4.69
282.147	4.14
282.525	4.72
282.903	3.3
283.281	3.49
283.659	3.88
284.037	3.47
284.415	3.64
284.792	4.19
285.17	3.4
285.548	3.53
285.925	3.91
286.303	4.07
286.68	3.74
287.058	3.87
287.435	3.58
287.813	3.86
288.19	3.66
288.567	3.95
288.945	4.32
289.322	3.47
289.699	3.76
290.076	3.56
290.453	3.49
290.83	3.75
291.207	3.7
291.584	4.06
291.961	4.88
292.338	3.84
292.715	4.57
293.092	4.12
293.469	4.58
293.845	4.42
294.222	4.51
294.599	5
294.975	4.44
295.352	4.44
295.728	3.96
296.105	4.47
296.481	4.35
296.858	4.73
297.234	4.61
297.61	4.39
297.986	4.34
298.363	5.08
298.739	4.72
299.115	4.69
299.491	4.75
299.867	4.78
300.243	4.87
300.619	4.56
300.995	5.07
301.371	5.39
301.746	4.66
302.122	5.32
302.498	5.23
302.874	5.39
303.249	5.45
303.625	5.18
304	5.52
304.376	5.19
304.751	4.8
305.127	6.13
305.502	4.98
305.878	5.03
306.253	5.63
306.628	5.96
307.003	5.3
307.378	5.72
307.754	5.59
308.129	5.25
308.504	6.04
308.879	4.9
309.254	6.59
309.629	6.04
310.003	5.72
310.378	6.55
310.753	6.12
311.128	6.4
311.502	6.51
311.877	6.15
312.252	5.61
312.626	5.95
313.001	6.2
313.375	6.75
313.75	5.75
314.124	6.55
314.498	6.14
314.873	6.15
315.247	6.32
315.621	6.55
315.995	6.24
316.369	6.93
316.743	6.4
317.117	6.71
317.491	6.55
317.865	6.56
318.239	6.55
318.613	7
318.987	7.45
319.361	6.63
319.734	7.79
320.108	6.53
320.482	6.65
320.855	7.41
321.229	6.52
321.602	6.51
321.976	7.35
322.349	7.26
322.723	7.99
323.096	8.04
323.469	7
323.843	7.64
324.216	7.8
324.589	7.31
324.962	7.26
325.335	7.05
325.708	6.86
326.081	7
326.454	7.53
326.827	7.81
327.2	8.01
327.573	8.36
327.945	7.59
328.318	8.11
328.691	7.54
329.063	7.69
329.436	8
329.809	8.36
330.181	7.95
330.553	7.93
330.926	8.09
331.298	8.36
331.671	8.36
332.043	8.59
332.415	8.41
332.787	8.2
333.159	8.86
333.532	8.29
333.904	7.97
334.276	8.2
334.648	8.73
335.02	8.3
335.391	8.03
335.763	8
336.135	8.35
336.507	8.86
336.879	8.45
337.25	7.59
337.622	8.43
337.993	8.36
338.365	8.53
338.736	8.99
339.108	9.07
339.479	8.05
339.851	8.85
340.222	8.48
340.593	8.69
340.964	8.55
341.336	9.74
341.707	8.72
342.078	9.25
342.449	9.32
342.82	8.87
343.191	9.33
343.562	9.08
343.933	8.79
344.303	9.4
344.674	9.45
345.045	9.3
345.416	9.59
345.786	8.78
346.157	9.77
346.527	8.56
346.898	8.65
347.268	9.02
347.639	9.29
348.009	9.3
348.38	9.46
348.75	9.5
349.12	9.21
349.49	9.82
349.861	8.87
350.231	9.08
350.601	10.01
350.971	9.84
351.341	9.74
351.711	9.17
352.081	9.76
352.45	9.88
352.82	9.55
353.19	10.09
353.56	9.17
353.929	10.12
354.299	9.51
354.669	9.61
355.038	10.35
355.408	9.79
355.777	10.1
356.147	9.48
356.516	9.64
356.885	10.37
357.254	9.74
357.624	10.11
357.993	10.18
358.362	9.62
358.731	9.8
359.1	10.03
359.469	10.19
359.838	10.25
360.207	9.94
360.576	10.12
360.945	10.01
361.314	10.43
361.682	10.08
362.051	9.74
362.42	10.57
362.788	10.17
363.157	10.32
363.525	10.55
363.894	10.31
364.262	10.46
364.631	10.15
364.999	10.54
365.367	10.32
365.735	11.47
366.104	10.91
366.472	10.72
366.84	10.4
367.208	10.66
367.576	10.92
367.944	10.93
368.312	10.71
368.68	10.42
369.048	10.99
369.416	10.69
369.783	10.88
370.151	10.97
370.519	11.51
370.886	11.28
371.254	11.24
371.621	11.08
371.989	11.08
372.356	11.1
372.724	11.34
373.091	10.65
373.458	10.95
373.826	11.05
374.193	10.97
374.56	11.31
374.927	11.77
375.294	11.51
375.661	11.36
376.028	11.44
376.395	11.21
376.762	11.7
377.129	11.41
377.496	11.44
377.863	11.44
378.229	11.41
378.596	11.95
378.963	11.52
379.329	11.16
379.696	11.73
380.062	12.12
380.429	11.51
380.795	11.91
381.161	11.81
381.528	12.1
381.894	12.09
382.26	11.5
382.626	11.85
382.993	11.69
383.359	12.47
383.725	11.79
384.091	11.97
384.457	12.34
384.823	11.81
385.188	12.05
385.554	12.31
385.92	12.4
386.286	12.29
386.651	12.33
387.017	12.49
387.383	12.37
387.748	12.31
388.114	12.43
388.479	12.27
388.845	12.47
389.21	12.57
389.575	12.42
389.94	12.6
390.306	12.51
390.671	12.6
391.036	12.37
391.401	12.28
391.766	12.66
392.131	12.81
392.496	12.66
392.861	12.67
393.226	12.98
393.591	12.81
393.956	12.65
394.32	12.72
394.685	12.74
395.05	12.82
395.414	12.88
395.779	12.4
396.143	12.89
396.508	12.91
396.872	13.18
397.236	13.3
397.601	13.03
397.965	13.32
398.329	13.26
398.694	13.41
399.058	13.3
399.422	13.25
399.786	13.65
400.15	13.57
400.514	13.46
400.878	13.23
401.242	13.45
401.605	13.69
401.969	13.48
402.333	13.59
402.697	13.61
403.06	13.49
403.424	13.43
403.787	13.69
404.151	14.03
404.514	13.58
404.878	13.51
405.241	13.92
405.604	13.74
405.968	13.79
406.331	13.55
406.694	13.96
407.057	13.85
407.42	14
407.783	13.68
408.146	13.98
408.509	14.02
408.872	13.76
409.235	13.94
409.598	14.28
409.961	13.91
410.323	14.3
410.686	13.91
411.049	13.78
411.411	13.84
411.774	14.23
412.136	14.29
412.499	14.01
412.861	14.4
413.223	14.35
413.586	14.26
413.948	14.32
414.31	14.53
414.672	14.51
415.035	14.46
415.397	14.8
415.759	14.31
416.121	14.65
416.483	14.54
416.845	14.51
417.206	14.32
417.568	14.57
417.93	14.31
418.292	14.52
418.653	14.49
419.015	14.65
419.377	14.69
419.738	14.7
420.1	14.68
420.461	14.74
420.822	14.61
421.184	14.7
421.545	14.7
421.906	14.54
422.267	14.61
422.629	14.61
422.99	14.53
423.351	14.61
423.712	14.83
424.073	14.88
424.434	14.79
424.795	14.99
425.155	14.88
425.516	14.71
425.877	14.83
426.238	14.87
426.598	14.82
426.959	15.04
427.32	15.05
427.68	15.02
428.041	15.25
428.401	15.26
428.761	15.4
429.122	15.37
429.482	15.43
429.842	15.55
430.202	15.56
430.563	15.32
430.923	15.73
431.283	15.67
431.643	15.59
432.003	15.42
432.363	15.78
432.722	15.73
433.082	15.79
433.442	15.81
433.802	15.57
434.161	15.66
434.521	15.84
434.881	15.81
435.24	15.57
435.6	15.88
435.959	15.72
436.319	15.87
436.678	15.92
437.037	15.89
437.396	16.06
437.756	16.04
438.115	16.02
438.474	16.27
438.833	15.87
439.192	16.14
439.551	16.35
439.91	16.15
440.269	16.22
440.628	16.24
440.987	15.86
441.345	15.91
441.704	16.18
442.063	16.17
442.421	16.14
442.78	16.03
443.138	16.19
443.497	16.5
443.855	16.45
444.214	16.44
444.572	16.59
444.93	16.79
445.288	16.63
445.647	16.84
446.005	16.42
446.363	16.61
446.721	16.59
447.079	16.48
447.437	16.32
447.795	16.59
448.153	16.44
448.51	16.54
448.868	16.67
449.226	16.63
449.584	16.79
449.941	16.99
450.299	16.99
450.656	16.98
451.014	16.99
451.371	17.09
451.729	16.73
452.086	17.3
452.443	17
452.801	17.32
453.158	17.32
453.515	17.16
453.872	17.47
454.229	17.14
454.586	17.24
454.943	17.36
455.3	17.57
455.657	17.45
456.014	17.4
456.371	17.53
456.727	17.52
457.084	17.75
457.441	17.42
457.797	17.83
458.154	17.92
458.51	18.07
458.867	17.79
459.223	18.11
459.58	17.62
459.936	17.83
460.292	17.83
460.648	17.63
461.005	17.55
461.361	17.7
461.717	17.47
462.073	17.51
462.429	17.71
462.785	17.96
463.141	18.01
463.496	18.08
463.852	18.22
464.208	18.19
464.564	18.4
464.919	18.44
465.275	18.32
465.631	18.58
465.986	18.35
466.342	18.32
466.697	18.17
467.052	18.52
467.408	18.53
467.763	18.46
468.118	18.74
468.473	18.43
468.829	18.71
469.184	18.43
469.539	18.72
469.894	18.6
470.249	18.75
470.603	18.97
470.958	18.88
471.313	18.77
471.668	18.98
472.023	18.88
472.377	18.74
472.732	19.13
473.086	19
473.441	18.75
473.795	19.11
474.15	19.2
474.504	19.18
474.859	19.27
475.213	18.98
475.567	19.04
475.921	19.26
476.275	19.12
476.63	19.26
476.984	19.46
477.338	19.45
477.692	19.21
478.045	19.34
478.399	19.18
478.753	19.4
479.107	19.28
479.461	19.49
479.814	19.41
480.168	19.48
480.521	19.43
480.875	19.64
481.228	19.59
481.582	19.29
481.935	19.74
482.289	19.69
482.642	19.62
482.995	19.54
483.348	19.35
483.701	19.61
484.055	19.51
484.408	19.48
484.761	19.27
485.114	18.87
485.466	18.43
485.819	18.49
486.172	18.68
486.525	19.04
486.878	19.31
487.23	19.48
487.583	19.64
487.936	19.74
488.288	19.51
488.641	19.42
488.993	19.22
489.345	19.1
489.698	19.2
490.05	19.31
490.402	19.57
490.754	19.69
491.107	19.89
491.459	20.18
491.811	20.29
492.163	20.29
492.515	20.14
492.866	19.93
493.218	19.58
493.57	19.42
493.922	19.65
494.274	20.02
494.625	20.4
494.977	20.47
495.328	20.71
495.68	20.73
496.031	20.76
496.383	20.76
496.734	21.01
497.086	20.9
497.437	21.04
497.788	20.87
498.139	20.85
498.49	20.78
498.842	20.55
499.193	20.7
499.544	20.96
499.894	20.99
500.245	21.02
500.596	21.19
500.947	21.16
501.298	21.18
501.648	21.39
501.999	21.28
502.35	21.33
502.7	21.33
503.051	21.35
503.401	21.44
503.752	21.62
504.102	21.55
504.452	21.52
504.803	21.52
505.153	21.54
505.503	21.5
505.853	21.61
506.203	21.69
506.553	21.6
506.903	21.83
507.253	21.79
507.603	21.79
507.953	22.06
508.303	22.03
508.652	21.68
509.002	21.89
509.352	22.15
509.701	21.74
510.051	22.03
510.4	21.92
510.75	22.02
511.099	22.12
511.449	21.93
511.798	22.04
512.147	22.15
512.496	21.95
512.846	22.23
513.195	22.32
513.544	22.1
513.893	22.08
514.242	22.06
514.591	22.44
514.939	22.34
515.288	22.34
515.637	22.48
515.986	22.57
516.334	22.72
516.683	22.81
517.032	22.58
517.38	22.84
517.729	22.73
518.077	22.8
518.426	22.78
518.774	22.62
519.122	22.79
519.47	22.62
519.819	22.39
520.167	22.47
520.515	22.37
520.863	22.44
521.211	22.69
521.559	22.87
521.907	22.92
522.255	22.91
522.602	23.04
522.95	23.16
523.298	23.23
523.645	23.34
523.993	23.3
524.341	23.2
524.688	23.37
525.036	23.25
525.383	23.48
525.73	23.45
526.078	23.28
526.425	23.22
526.772	23.39
527.119	23.06
527.466	23
527.814	22.97
528.161	22.97
528.508	23.18
528.854	23.29
529.201	23.22
529.548	23.1
529.895	22.86
530.242	22.47
530.588	22.3
530.935	22.67
531.282	22.94
531.628	23.23
531.975	23.4
532.321	23.49
532.667	23.7
533.014	23.81
533.36	23.84
533.706	23.72
534.052	23.84
534.399	23.44
534.745	23.28
535.091	23.17
535.437	23.2
535.783	23.57
536.129	23.77
536.474	23.99
536.82	24.25
537.166	24.22
537.512	24.24
537.857	24.18
538.203	24.05
538.549	23.7
538.894	23.9
539.239	24.32
539.585	24.42
539.93	24.59
540.276	24.74
540.621	24.86
540.966	24.73
541.311	24.53
541.656	24.69
542.001	24.62
542.346	24.54
542.691	24.19
543.036	23.9
543.381	23.66
543.726	23.98
544.071	24.25
544.415	24.51
544.76	24.51
545.105	24.63
545.449	24.67
545.794	24.87
546.138	25
546.483	25.09
546.827	25.12
547.171	25.18
547.516	25.31
547.86	25.25
548.204	25.14
548.548	25.04
548.892	25.08
549.236	25.04
549.58	25.28
549.924	25.4
550.268	25.58
550.612	25.76
550.956	25.83
551.3	25.84
551.643	26.13
551.987	26.16
552.33	25.88
552.674	25.85
553.017	25.9
553.361	25.86
553.704	26.14
554.048	25.76
554.391	26.05
554.734	25.77
555.077	25.94
555.42	26.1
555.764	26.31
556.107	26.21
556.45	26.08
556.793	26.55
557.135	26.52
557.478	26.31
557.821	26.63
558.164	26.39
558.507	26.52
558.849	26.58
559.192	26.65
559.534	26.71
559.877	26.81
560.219	26.47
560.562	27.13
560.904	26.83
561.246	26.98
561.589	26.81
561.931	26.94
562.273	26.75
562.615	26.99
562.957	27.16
563.299	26.69
563.641	26.96
563.983	26.98
564.325	27.13
564.667	26.97
565.008	27.19
565.35	26.79
565.692	27.1
566.033	27.26
566.375	27.23
566.716	27.5
567.058	26.88
567.399	27.21
567.741	27.08
568.082	27.03
568.423	27.2
568.764	27.22
569.105	27.22
569.447	27.54
569.788	27.38
570.129	27.49
570.47	27.67
570.811	27.63
571.151	27.74
571.492	27.72
571.833	27.49
572.174	27.8
572.514	27.71
572.855	27.58
573.195	27.61
573.536	27.79
573.876	27.35
574.217	27.63
574.557	27.73
574.898	27.71
575.238	28.14
575.578	28.06
575.918	28.02
576.258	28.19
576.598	28.11
576.938	28.12
577.278	27.94
577.618	27.93
577.958	28.08
578.298	28.29
578.638	28.35
578.977	28.48
579.317	28.27
579.657	28.28
579.996	28.27
580.336	28.62
580.675	28.59
581.014	28.39
581.354	28.5
581.693	28.56
582.032	28.74
582.372	28.9
582.711	28.8
583.05	28.79
583.389	28.73
583.728	28.74
584.067	29.08
584.406	28.84
584.745	28.74
585.083	29.09
585.422	28.9
585.761	29.24
586.1	29.08
586.438	29.02
586.777	29.4
587.115	29.41
587.454	28.94
587.792	29.06
588.13	29.2
588.469	29.59
588.807	29.41
589.145	29.48
589.483	29.37
589.821	29.28
590.159	29.32
590.497	29.54
590.835	29.42
591.173	29.64
591.511	29.44
591.849	29.76
592.187	29.7
592.524	29.41
592.862	29.52
593.2	29.57
593.537	29.51
593.875	29.82
594.212	29.83
594.55	29.47
594.887	29.87
595.224	29.57
595.561	29.94
595.899	29.85
596.236	29.86
596.573	30.08
596.91	29.93
597.247	29.93
597.584	30.32
597.921	29.7
598.258	29.92
598.594	29.75
598.931	29.86
599.268	29.6
599.604	30.07
599.941	30.07
600.277	30.21
600.614	30.39
600.95	30.01
601.287	30.51
601.623	29.96
601.959	30.26
602.296	30.49
602.632	30.41
602.968	30.33
603.304	30.58
603.64	30.21
603.976	30.48
604.312	30.27
604.648	30.82
604.984	30.59
605.319	30.43
605.655	30.52
605.991	30.54
606.326	30.47
606.662	30.46
606.998	30.33
607.333	30.58
607.668	30.74
608.004	31.24
608.339	31.22
608.674	31.14
609.01	30.99
609.345	30.74
609.68	31.08
610.015	31.06
610.35	31
610.685	30.84
611.02	30.54
611.355	30.9
611.689	30.96
612.024	30.92
612.359	31.05
612.694	31.09
613.028	31.43
613.363	31.41
613.697	31.55
614.032	31.43
614.366	31.26
614.7	31.67
615.035	31.72
615.369	31.63
615.703	31.52
616.037	31.59
616.371	31.28
616.705	31.74
617.039	31.65
617.373	31.53
617.707	31.8
618.041	31.83
618.375	32.03
618.709	31.84
619.042	32.26
619.376	31.68
619.71	32.12
620.043	31.71
620.377	31.92
620.71	32.18
621.043	31.88
621.377	31.84
621.71	32.4
622.043	31.89
622.376	31.93
622.709	31.61
623.043	31.99
623.376	32.18
623.709	31.98
624.041	32.73
624.374	32.15
624.707	32.34
625.04	32.51
625.373	31.95
625.705	32.49
626.038	32.5
626.37	32.54
626.703	32.22
627.035	32.26
627.368	32.34
627.7	32.41
628.032	32.05
628.365	31.99
628.697	32.48
629.029	32.14
629.361	32.04
629.693	32.83
630.025	32.64
630.357	32.55
630.689	32.53
631.021	32.54
631.353	32.69
631.684	32.2
632.016	32.69
632.348	32.56
632.679	32.8
633.011	33.15
633.342	33.19
633.674	32.78
634.005	33.15
634.336	33.03
634.668	33.73
634.999	32.98
635.33	33.51
635.661	32.79
635.992	32.49
636.323	33.14
636.654	32.94
636.985	33.17
637.316	33.28
637.647	33.05
637.977	33.22
638.308	33.45
638.639	33.35
638.969	33.47
639.3	33.36
639.63	33.23
639.961	33.21
640.291	33.31
640.622	33.39
640.952	33.6
641.282	33.49
641.612	33.32
641.943	33.3
642.273	33.39
642.603	34.06
642.933	33.82
643.263	33.89
643.592	33.11
643.922	34.19
644.252	33.95
644.582	34.19
644.911	32.95
645.241	34.16
645.571	33.74
645.9	34.05
646.23	33.68
646.559	34.39
646.888	33.86
647.218	33.71
647.547	34.42
647.876	33.98
648.205	33.5
648.534	33.95
648.863	33.84
649.192	34.65
649.521	34.06
649.85	33.88
650.179	34.32
650.508	33.99
650.837	33.86
651.165	34.14
651.494	34.23
651.822	33.88
652.151	33.72
652.479	34.49
652.808	33.94
653.136	34.85
653.465	33.86
653.793	34.29
654.121	34.56
654.449	35.21
654.777	34.72
655.105	34.97
655.433	34.16
655.761	34.85
656.089	34.77
656.417	34.47
656.745	34.62
657.073	34.52
657.4	35.03
657.728	34.63
658.056	34.24
658.383	34.22
658.711	34.8
659.038	34.64
659.365	35.28
659.693	35.09
660.02	34.69
660.347	34.88
660.674	34.96
661.001	34.3
661.329	34.09
661.656	34.97
661.982	35.01
662.309	34.79
662.636	34.44
662.963	34.92
663.29	35.46
663.616	35.35
663.943	34.63
664.27	35.47
664.596	35.37
664.923	35.1
665.249	35.49
665.576	34.98
665.902	35.77
666.228	34.69
666.554	35.48
666.881	35.35
667.207	35.8
667.533	35.91
667.859	36.01
668.185	35.44
668.511	35.94
668.837	34.53
669.162	35.51
669.488	35.55
669.814	35.53
670.139	35.79
670.465	35.6
670.791	35.27
671.116	35.69
