Data from 0193_crown_Reflection__1__399.txt Node

Date: Fri Dec 15 20:22:05 CST 2023
User: ToomeyLab
Spectrometer: FLMS14357
Trigger mode: 0
Integration Time (sec): 1.000000E-2
Scans to average: 100
Electric dark correction enabled: true
Nonlinearity correction enabled: false
Boxcar width: 0
XAxis mode: Wavelengths
Number of Pixels in Spectrum: 2048
>>>>>Begin Spectral Data<<<<<
189.047	311.63
189.435	311.63
189.823	311.63
190.211	43.45
190.599	684.47
190.987	94.46
191.375	-210.69
191.763	45.01
192.151	79.56
192.538	132.19
192.926	-20.27
193.314	33.14
193.702	-382.6
194.089	432.36
194.477	32.64
194.864	29.92
195.252	49.32
195.639	73.33
196.027	320.89
196.414	-47.59
196.801	329.64
197.189	579.04
197.576	-178.74
197.963	71.34
198.351	-50.7
198.738	-21.47
199.125	43.33
199.512	0.55
199.899	-0.66
200.286	41.84
200.673	40.16
201.06	-9.21
201.447	-11.82
201.833	60.9
202.22	41.89
202.607	6.11
202.994	79.35
203.38	60.78
203.767	43.19
204.154	22.62
204.54	30.96
204.927	-14.84
205.313	10.02
205.699	24.36
206.086	52.85
206.472	80.24
206.858	9.82
207.245	-16.23
207.631	43.38
208.017	34.74
208.403	-40.9
208.789	27.67
209.175	22.52
209.561	-12.06
209.947	4.15
210.333	-110.37
210.719	26.21
211.105	-3.29
211.491	-19.62
211.876	2.2
212.262	19.96
212.648	-2.6
213.034	25.67
213.419	-0.24
213.805	-13.27
214.19	-48.86
214.576	-3.63
214.961	26.83
215.346	-52.76
215.732	-31.45
216.117	25.9
216.502	22.16
216.888	-7.72
217.273	25.43
217.658	-21.4
218.043	-26.82
218.428	-73.35
218.813	-54.95
219.198	-3.9
219.583	11.14
219.968	-3.76
220.353	0.68
220.738	30.81
221.122	-13.49
221.507	4.78
221.892	-23.14
222.276	-35.4
222.661	-14.77
223.046	7.15
223.43	5.55
223.815	17.48
224.199	-5.35
224.583	13.91
224.968	9.7
225.352	22.41
225.736	-1.07
226.121	-7.73
226.505	0.75
226.889	8.53
227.273	0.4
227.657	8.17
228.041	7.73
228.425	11.03
228.809	13.43
229.193	2.76
229.577	4.58
229.961	9.05
230.344	8.8
230.728	8.03
231.112	8.69
231.495	7.81
231.879	7.27
232.263	9.1
232.646	7.41
233.03	8.89
233.413	7.52
233.797	8.31
234.18	7.19
234.563	8.44
234.946	9.37
235.33	9.87
235.713	10.11
236.096	7.69
236.479	8.18
236.862	5.64
237.245	9.65
237.628	5.83
238.011	8.19
238.394	8.87
238.777	5.38
239.16	5.21
239.543	6.37
239.925	10.97
240.308	6.76
240.691	7.97
241.073	7.31
241.456	8.75
241.838	6.86
242.221	6.54
242.603	7.97
242.986	7.71
243.368	8.39
243.75	8.5
244.133	7.61
244.515	7.71
244.897	8.05
245.279	7.87
245.661	6.85
246.043	5.84
246.425	7.06
246.807	8.62
247.189	7.69
247.571	7.52
247.953	7.61
248.335	7.84
248.717	7.55
249.098	7.31
249.48	7.36
249.862	7.21
250.243	7.19
250.625	7.37
251.006	6.92
251.388	6.15
251.769	7.75
252.151	7.9
252.532	7.21
252.913	6.37
253.295	5.9
253.676	7.18
254.057	7.56
254.438	7.07
254.819	6.94
255.2	7.34
255.581	7.41
255.962	6.87
256.343	6.8
256.724	6.66
257.105	6.74
257.486	7.03
257.867	6.9
258.247	6.88
258.628	6.15
259.009	6.49
259.389	6.78
259.77	6.63
260.15	6.46
260.531	6.61
260.911	7.27
261.292	7.02
261.672	6.97
262.052	6.76
262.432	6.8
262.813	6.2
263.193	6.27
263.573	6.65
263.953	7.1
264.333	7.24
264.713	6.74
265.093	6.32
265.473	6.75
265.853	6.28
266.233	6.38
266.612	5.21
266.992	4.8
267.372	7.42
267.752	6.65
268.131	6.09
268.511	7.16
268.89	7.22
269.27	6.06
269.649	5.98
270.029	6.51
270.408	7.16
270.787	6.35
271.167	7.23
271.546	7.16
271.925	5.65
272.304	6.01
272.683	6.69
273.062	6.74
273.441	5.83
273.82	5.71
274.199	6.41
274.578	6.51
274.957	6.48
275.336	5.95
275.715	6.16
276.093	6.16
276.472	6.49
276.851	5.45
277.229	5.87
277.608	5.47
277.986	6.19
278.365	5.76
278.743	5.89
279.122	6.16
279.5	6.35
279.878	6.69
280.257	6.29
280.635	5.11
281.013	6.03
281.391	6.86
281.769	6.09
282.147	6.34
282.525	7.02
282.903	6.5
283.281	6.08
283.659	6.26
284.037	6.17
284.415	6.05
284.792	6.32
285.17	5.06
285.548	5.68
285.925	6.06
286.303	6.06
286.68	5.5
287.058	5.94
287.435	5.97
287.813	5.86
288.19	5.77
288.567	5.38
288.945	6.16
289.322	5.86
289.699	5.54
290.076	5.14
290.453	5.92
290.83	5.48
291.207	5.12
291.584	5.92
291.961	5.72
292.338	5.91
292.715	5.87
293.092	5.68
293.469	5.84
293.845	6.22
294.222	5.12
294.599	5.13
294.975	4.96
295.352	5.69
295.728	5.35
296.105	5.44
296.481	5.34
296.858	5.89
297.234	5.38
297.61	5.26
297.986	5.51
298.363	5.63
298.739	5.78
299.115	5.32
299.491	5.25
299.867	5.17
300.243	5.48
300.619	4.8
300.995	5.34
301.371	5.06
301.746	4.65
302.122	5.82
302.498	5.34
302.874	5.98
303.249	5.38
303.625	5.28
304	5.32
304.376	5.38
304.751	5.03
305.127	5.76
305.502	4.94
305.878	4.62
306.253	4.94
306.628	5.69
307.003	5.2
307.378	5.78
307.754	5.15
308.129	4.12
308.504	5.11
308.879	4.89
309.254	5.9
309.629	5.84
310.003	5.34
310.378	5.85
310.753	5.69
311.128	5.6
311.502	4.73
311.877	5.59
312.252	4.93
312.626	5.36
313.001	5.31
313.375	5.43
313.75	4.61
314.124	5.31
314.498	5.3
314.873	4.59
315.247	4.58
315.621	4.83
315.995	4.8
316.369	4.79
316.743	4.73
317.117	5.77
317.491	4.89
317.865	5
318.239	4.78
318.613	5
318.987	4.67
319.361	4.77
319.734	5.76
320.108	4.96
320.482	4.89
320.855	6.03
321.229	4.89
321.602	5.12
321.976	5.35
322.349	5.12
322.723	4.72
323.096	5.92
323.469	4.2
323.843	4.49
324.216	5.26
324.589	4.35
324.962	5.3
325.335	4.44
325.708	4.56
326.081	5.1
326.454	5.17
326.827	4.74
327.2	4.92
327.573	5.28
327.945	5.33
328.318	4.63
328.691	4.53
329.063	4.83
329.436	4.68
329.809	5.53
330.181	5.29
330.553	4.98
330.926	5.2
331.298	5.16
331.671	5.35
332.043	5.28
332.415	4.97
332.787	5.42
333.159	5.69
333.532	5.13
333.904	5.2
334.276	4.81
334.648	5.31
335.02	5.43
335.391	4.69
335.763	4.86
336.135	4.68
336.507	5.42
336.879	4.98
337.25	4.59
337.622	4.67
337.993	4.95
338.365	5.16
338.736	5.11
339.108	5.02
339.479	4.98
339.851	5.38
340.222	5.15
340.593	5.08
340.964	4.97
341.336	5.62
341.707	4.74
342.078	5.68
342.449	5.76
342.82	5
343.191	5.12
343.562	5.39
343.933	4.69
344.303	5.31
344.674	4.97
345.045	5.35
345.416	5.41
345.786	4.59
346.157	4.78
346.527	4.83
346.898	4.76
347.268	5.12
347.639	5.33
348.009	5.18
348.38	5.3
348.75	5.12
349.12	5.19
349.49	5.72
349.861	5.21
350.231	4.96
350.601	5.37
350.971	5.33
351.341	5.18
351.711	5.42
352.081	5.4
352.45	5.27
352.82	5.33
353.19	5.17
353.56	5.2
353.929	4.84
354.299	5.06
354.669	4.85
355.038	5.71
355.408	5.33
355.777	5.33
356.147	4.95
356.516	5.59
356.885	5.18
357.254	4.94
357.624	5.32
357.993	5.38
358.362	4.94
358.731	4.97
359.1	5.42
359.469	5.38
359.838	5.67
360.207	5.13
360.576	5.33
360.945	5.17
361.314	5.55
361.682	5.11
362.051	5.47
362.42	5.64
362.788	5.18
363.157	5.34
363.525	5.71
363.894	5.63
364.262	5.32
364.631	5.13
364.999	5.7
365.367	5.08
365.735	5.84
366.104	5.85
366.472	5.78
366.84	5.36
367.208	5.41
367.576	5.97
367.944	5.59
368.312	5.11
368.68	4.99
369.048	5.87
369.416	5.54
369.783	5.55
370.151	5.59
370.519	5.81
370.886	5.7
371.254	5.55
371.621	5.67
371.989	5.83
372.356	5.06
372.724	5.76
373.091	5.53
373.458	5.87
373.826	5.44
374.193	5.62
374.56	5.57
374.927	6.15
375.294	5.59
375.661	5.48
376.028	5.7
376.395	5.21
376.762	5.76
377.129	5.79
377.496	5.69
377.863	5.73
378.229	5.09
378.596	5.63
378.963	5.64
379.329	5.46
379.696	5.88
380.062	5.8
380.429	5.42
380.795	5.33
381.161	5.62
381.528	5.86
381.894	5.85
382.26	5.56
382.626	5.95
382.993	5.32
383.359	5.87
383.725	5.62
384.091	5.57
384.457	6.17
384.823	5.82
385.188	5.75
385.554	5.53
385.92	5.93
386.286	6.16
386.651	5.87
387.017	6.12
387.383	5.7
387.748	5.69
388.114	6.29
388.479	5.81
388.845	6.46
389.21	5.76
389.575	5.89
389.94	5.86
390.306	5.99
390.671	5.87
391.036	5.55
391.401	5.47
391.766	5.9
392.131	5.99
392.496	5.89
392.861	5.72
393.226	6.2
393.591	6
393.956	5.84
394.32	5.97
394.685	5.58
395.05	5.73
395.414	5.8
395.779	5.85
396.143	5.98
396.508	5.8
396.872	6.24
397.236	6.17
397.601	5.65
397.965	6.28
398.329	6.14
398.694	6.08
399.058	5.93
399.422	5.88
399.786	6.29
400.15	6.05
400.514	5.77
400.878	6.17
401.242	6.18
401.605	5.89
401.969	5.99
402.333	5.95
402.697	6.05
403.06	6.04
403.424	6.09
403.787	5.9
404.151	6.12
404.514	6.04
404.878	6.09
405.241	6.28
405.604	6.05
405.968	6.23
406.331	6.08
406.694	6.26
407.057	6.22
407.42	6.26
407.783	6.06
408.146	6.36
408.509	6.25
408.872	6.08
409.235	6.14
409.598	6.38
409.961	6.26
410.323	6.24
410.686	6.01
411.049	6.29
411.411	6.17
411.774	6.16
412.136	6.13
412.499	6.21
412.861	6.26
413.223	6.22
413.586	6.27
413.948	6.14
414.31	6.35
414.672	6.33
415.035	6.19
415.397	6.57
415.759	6.08
416.121	6.31
416.483	6.09
416.845	6.31
417.206	6.3
417.568	6.4
417.93	6.19
418.292	6.38
418.653	6.15
419.015	6.51
419.377	6.18
419.738	6.67
420.1	6.23
420.461	6.29
420.822	6.3
421.184	6.22
421.545	6.27
421.906	6.27
422.267	6.2
422.629	6.27
422.99	6.14
423.351	6.1
423.712	6.25
424.073	6.2
424.434	6.16
424.795	6.24
425.155	6.27
425.516	6.23
425.877	6.3
426.238	6.25
426.598	6.32
426.959	6.29
427.32	6.16
427.68	6.15
428.041	6.25
428.401	6.23
428.761	6.22
429.122	6.31
429.482	6.22
429.842	6.4
430.202	6.41
430.563	6.44
430.923	6.43
431.283	6.58
431.643	6.44
432.003	6.4
432.363	6.52
432.722	6.26
433.082	6.68
433.442	6.38
433.802	6.46
434.161	6.33
434.521	6.51
434.881	6.43
435.24	6.37
435.6	6.43
435.959	6.45
436.319	6.43
436.678	6.29
437.037	6.33
437.396	6.42
437.756	6.62
438.115	6.54
438.474	6.39
438.833	6.31
439.192	6.34
439.551	6.6
439.91	6.45
440.269	6.31
440.628	6.37
440.987	6.55
441.345	6.46
441.704	6.49
442.063	6.41
442.421	6.29
442.78	6.44
443.138	6.37
443.497	6.35
443.855	6.29
444.214	6.38
444.572	6.42
444.93	6.44
445.288	6.57
445.647	6.61
446.005	6.49
446.363	6.46
446.721	6.53
447.079	6.45
447.437	6.44
447.795	6.5
448.153	6.32
448.51	6.35
448.868	6.46
449.226	6.4
449.584	6.43
449.941	6.47
450.299	6.57
450.656	6.44
451.014	6.47
451.371	6.28
451.729	6.4
452.086	6.65
452.443	6.49
452.801	6.66
453.158	6.45
453.515	6.46
453.872	6.62
454.229	6.49
454.586	6.46
454.943	6.57
455.3	6.56
455.657	6.64
456.014	6.41
456.371	6.65
456.727	6.43
457.084	6.64
457.441	6.45
457.797	6.61
458.154	6.78
458.51	6.55
458.867	6.93
459.223	6.74
459.58	6.62
459.936	6.65
460.292	6.6
460.648	6.49
461.005	6.58
461.361	6.74
461.717	6.72
462.073	6.51
462.429	6.48
462.785	6.41
463.141	6.45
463.496	6.55
463.852	6.53
464.208	6.62
464.564	6.65
464.919	6.61
465.275	6.52
465.631	6.61
465.986	6.55
466.342	6.66
466.697	6.61
467.052	6.71
467.408	6.61
467.763	6.55
468.118	6.62
468.473	6.61
468.829	6.78
469.184	6.57
469.539	6.72
469.894	6.58
470.249	6.89
470.603	6.73
470.958	6.85
471.313	6.86
471.668	6.74
472.023	6.75
472.377	6.57
472.732	6.6
473.086	6.59
473.441	6.66
473.795	6.71
474.15	6.83
474.504	6.68
474.859	6.7
475.213	6.46
475.567	6.59
475.921	6.63
476.275	6.79
476.63	6.82
476.984	6.84
477.338	6.79
477.692	6.71
478.045	6.6
478.399	6.96
478.753	6.78
479.107	6.68
479.461	6.65
479.814	6.68
480.168	6.68
480.521	6.69
480.875	6.66
481.228	6.65
481.582	6.69
481.935	6.73
482.289	6.73
482.642	6.79
482.995	6.7
483.348	6.62
483.701	6.64
484.055	6.75
484.408	6.77
484.761	6.62
485.114	6.66
485.466	6.54
485.819	6.46
486.172	6.36
486.525	6.23
486.878	6.2
487.23	6.23
487.583	6.35
487.936	6.46
488.288	6.46
488.641	6.59
488.993	6.51
489.345	6.49
489.698	6.47
490.05	6.39
490.402	6.41
490.754	6.32
491.107	6.41
491.459	6.44
491.811	6.45
492.163	6.6
492.515	6.52
492.866	6.67
493.218	6.69
493.57	6.58
493.922	6.46
494.274	6.46
494.625	6.38
494.977	6.5
495.328	6.53
495.68	6.61
496.031	6.59
496.383	6.55
496.734	6.85
497.086	6.7
497.437	6.78
497.788	6.85
498.139	6.86
498.49	6.89
498.842	6.69
499.193	6.54
499.544	6.68
499.894	6.65
500.245	6.64
500.596	6.7
500.947	6.77
501.298	6.47
501.648	6.75
501.999	6.86
502.35	6.63
502.7	6.61
503.051	6.58
503.401	6.63
503.752	6.69
504.102	6.74
504.452	6.65
504.803	6.76
505.153	6.74
505.503	6.76
505.853	6.8
506.203	6.75
506.553	6.69
506.903	6.69
507.253	6.68
507.603	6.64
507.953	6.91
508.303	6.76
508.652	6.66
509.002	6.84
509.352	6.81
509.701	6.69
510.051	6.79
510.4	6.62
510.75	6.79
511.099	6.74
511.449	6.7
511.798	6.67
512.147	6.63
512.496	6.6
512.846	6.7
513.195	6.64
513.544	6.63
513.893	6.76
514.242	6.63
514.591	6.88
514.939	6.66
515.288	6.63
515.637	6.87
515.986	6.72
516.334	6.76
516.683	6.84
517.032	6.81
517.38	6.84
517.729	6.74
518.077	6.62
518.426	6.72
518.774	6.69
519.122	6.67
519.47	6.71
519.819	6.51
520.167	6.62
520.515	6.66
520.863	6.62
521.211	6.61
521.559	6.64
521.907	6.49
522.255	6.54
522.602	6.6
522.95	6.58
523.298	6.68
523.645	6.67
523.993	6.59
524.341	6.77
524.688	6.72
525.036	6.6
525.383	6.68
525.73	6.58
526.078	6.58
526.425	6.45
526.772	6.73
527.119	6.66
527.466	6.6
527.814	6.61
528.161	6.54
528.508	6.61
528.854	6.43
529.201	6.49
529.548	6.5
529.895	6.6
530.242	6.51
530.588	6.49
530.935	6.34
531.282	6.29
531.628	6.21
531.975	6.31
532.321	6.4
532.667	6.5
533.014	6.56
533.36	6.46
533.706	6.55
534.052	6.51
534.399	6.46
534.745	6.42
535.091	6.54
535.437	6.51
535.783	6.45
536.129	6.39
536.474	6.38
536.82	6.37
537.166	6.46
537.512	6.54
537.857	6.56
538.203	6.61
538.549	6.55
538.894	6.46
539.239	6.57
539.585	6.4
539.93	6.3
540.276	6.68
540.621	6.58
540.966	6.64
541.311	6.43
541.656	6.59
542.001	6.61
542.346	6.73
542.691	6.59
543.036	6.53
543.381	6.34
543.726	6.31
544.071	6.34
544.415	6.32
544.76	6.33
545.105	6.4
545.449	6.44
545.794	6.43
546.138	6.38
546.483	6.46
546.827	6.5
547.171	6.32
547.516	6.56
547.86	6.37
548.204	6.58
548.548	6.48
548.892	6.52
549.236	6.35
549.58	6.38
549.924	6.51
550.268	6.55
550.612	6.57
550.956	6.56
551.3	6.56
551.643	6.68
551.987	6.68
552.33	6.63
552.674	6.62
553.017	6.64
553.361	6.4
553.704	6.63
554.048	6.58
554.391	6.66
554.734	6.54
555.077	6.6
555.42	6.49
555.764	6.58
556.107	6.37
556.45	6.22
556.793	6.44
557.135	6.47
557.478	6.67
557.821	6.6
558.164	6.36
558.507	6.55
558.849	6.41
559.192	6.64
559.534	6.5
559.877	6.67
560.219	6.3
560.562	6.54
560.904	6.45
561.246	6.51
561.589	6.46
561.931	6.4
562.273	6.32
562.615	6.48
562.957	6.58
563.299	6.44
563.641	6.71
563.983	6.42
564.325	6.32
564.667	6.49
565.008	6.41
565.35	6.45
565.692	5.97
566.033	6.35
566.375	6.31
566.716	6.64
567.058	6.4
567.399	6.31
567.741	6.15
568.082	6.45
568.423	6.37
568.764	6.35
569.105	6.39
569.447	6.5
569.788	6.27
570.129	6.37
570.47	6.3
570.811	6.53
571.151	6.42
571.492	6.39
571.833	6.58
572.174	6.19
572.514	6.44
572.855	6.24
573.195	6.32
573.536	6.33
573.876	6.28
574.217	6.32
574.557	6.51
574.898	6.3
575.238	6.3
575.578	6.21
575.918	6.31
576.258	6.34
576.598	6.34
576.938	6.24
577.278	6.23
577.618	6.22
577.958	6.1
578.298	6.29
578.638	6.27
578.977	6.2
579.317	6.31
579.657	6.04
579.996	6.29
580.336	6.24
580.675	6.23
581.014	6.28
581.354	6.35
581.693	6.32
582.032	6.02
582.372	6.3
582.711	6.29
583.05	6.15
583.389	5.99
583.728	5.93
584.067	6.37
584.406	6.39
584.745	6.17
585.083	6.51
585.422	6.34
585.761	6.34
586.1	6.32
586.438	6.06
586.777	6.22
587.115	6.66
587.454	6.25
587.792	6.07
588.13	6.32
588.469	6.38
588.807	6.23
589.145	6.18
589.483	6.12
589.821	6.36
590.159	6.17
590.497	6.48
590.835	6.65
591.173	6.27
591.511	6.44
591.849	6.1
592.187	6.5
592.524	6.29
592.862	6.05
593.2	6.2
593.537	6.33
593.875	6.3
594.212	6.01
594.55	6.12
594.887	6.03
595.224	6.31
595.561	6.24
595.899	6.35
596.236	6.19
596.573	6.27
596.91	5.73
597.247	5.87
597.584	6.14
597.921	6.1
598.258	5.95
598.594	6.15
598.931	6.19
599.268	6.02
599.604	6.1
599.941	6.11
600.277	5.97
600.614	5.72
600.95	5.85
601.287	6.31
601.623	5.98
601.959	6.18
602.296	6.08
602.632	6.39
602.968	6.27
603.304	6.12
603.64	6.18
603.976	6.41
604.312	6.11
604.648	6.1
604.984	6.38
605.319	6.2
605.655	5.89
605.991	6.1
606.326	6.11
606.662	6
606.998	5.98
607.333	6.02
607.668	6.23
608.004	6.03
608.339	6.18
608.674	5.96
609.01	6.12
609.345	5.93
609.68	6.15
610.015	6.12
610.35	6
610.685	5.85
611.02	6.24
611.355	6.2
611.689	5.9
612.024	6.25
612.359	6.05
612.694	5.97
613.028	5.96
613.363	6.21
613.697	6.09
614.032	6.16
614.366	6.1
614.7	6.27
615.035	6.22
615.369	6.11
615.703	6.04
616.037	5.79
616.371	5.87
616.705	5.94
617.039	6.35
617.373	6.18
617.707	6.08
618.041	6.03
618.375	6.56
618.709	6
619.042	6.04
619.376	6.31
619.71	6.2
620.043	6.09
620.377	6.05
620.71	6.21
621.043	5.96
621.377	5.64
621.71	6
622.043	5.78
622.376	5.94
622.709	6.06
623.043	6.21
623.376	6.2
623.709	6.01
624.041	6.41
624.374	6.23
624.707	6.45
625.04	6.27
625.373	5.62
625.705	6.25
626.038	5.59
626.37	5.87
626.703	5.92
627.035	6.06
627.368	6.49
627.7	6.22
628.032	5.84
628.365	5.98
628.697	6.29
629.029	5.74
629.361	5.83
629.693	6.11
630.025	5.96
630.357	5.82
630.689	6.01
631.021	5.85
631.353	5.98
631.684	5.88
632.016	5.87
632.348	6.18
632.679	5.63
633.011	6.25
633.342	5.95
633.674	5.89
634.005	6.27
634.336	5.63
634.668	6.77
634.999	5.64
635.33	6.24
635.661	5.95
635.992	5.93
636.323	6.19
636.654	6.24
636.985	6.11
637.316	6.02
637.647	5.94
637.977	5.83
638.308	5.8
638.639	5.24
638.969	5.76
639.3	6.06
639.63	5.62
639.961	5.99
640.291	5.87
640.622	6.21
640.952	5.83
641.282	5.91
641.612	6.18
641.943	5.99
642.273	5.78
642.603	6.1
642.933	6
643.263	6.17
643.592	5.68
643.922	5.7
644.252	5.99
644.582	6.31
644.911	4.78
645.241	5.92
645.571	5.55
645.9	5.76
646.23	5.86
646.559	6.12
646.888	5.61
647.218	5.63
647.547	6.37
647.876	5.46
648.205	5.62
648.534	5.96
648.863	5.79
649.192	5.89
649.521	5.84
649.85	5.74
650.179	6.16
650.508	5.41
650.837	5.11
651.165	5.67
651.494	6.1
651.822	5.91
652.151	5.32
652.479	5.91
652.808	5.63
653.136	6.05
653.465	5.75
653.793	5.95
654.121	5.72
654.449	5.84
654.777	5.83
655.105	6.08
655.433	5.44
655.761	5.83
656.089	6.11
656.417	6.13
656.745	5.59
657.073	5.52
657.4	6.5
657.728	5.76
658.056	5.53
658.383	5.7
658.711	6.04
659.038	5.87
659.365	6.22
659.693	6.09
660.02	5.59
660.347	5.83
660.674	6.19
661.001	6.09
661.329	5.14
661.656	6.11
661.982	6.31
662.309	5.71
662.636	5.5
662.963	6.07
663.29	6.23
663.616	6.29
663.943	5.92
664.27	5.89
664.596	6.19
664.923	6.16
665.249	6.07
665.576	5.7
665.902	6.2
666.228	5.97
666.554	6.3
666.881	5.19
667.207	5.77
667.533	5.55
667.859	6.03
668.185	6.73
668.511	5.42
668.837	5.28
669.162	5.3
669.488	5.18
669.814	6.33
670.139	6.1
670.465	5.84
670.791	6.52
671.116	6.72
671.442	5.83
671.767	6.12
672.092	6.15
672.418	6.07
672.743	6.13
673.068	5.78
673.393	5.54
673.718	5.84
674.043	6
674.368	6.24
674.693	6.82
675.018	5.76
675.343	5.5
675.667	6.28
675.992	6.22
676.317	6.08
676.641	6.26
676.966	5.91
677.29	5.4
677.615	6.46
677.939	6.22
678.264	6.16
678.588	6.2
678.912	6.38
679.236	6.15
679.56	5.14
679.885	6.3
680.209	5.69
680.532	5.93
680.856	6.22
681.18	6.15
681.504	6.23
681.828	6.54
682.152	5.92
682.475	6.16
682.799	6.49
683.122	5.9
683.446	5.33
683.769	6.87
684.093	5.56
684.416	6.87
684.739	5.95
685.062	5.94
685.386	6.48
685.709	5.75
686.032	5.82
686.355	6.26
686.678	5.64
687.001	6.64
687.324	6.74
687.646	5.66
687.969	5.02
688.292	5.73
688.614	5.56
688.937	6.92
689.26	6.41
689.582	6.15
689.904	5.7
690.227	5.84
690.549	5.83
690.871	7.1
691.194	6.02
691.516	5.65
691.838	5.76
692.16	5.54
692.482	4.89
