Data from 0193_crown_Reflection__4__402.txt Node

Date: Fri Dec 15 20:22:31 CST 2023
User: ToomeyLab
Spectrometer: FLMS14357
Trigger mode: 0
Integration Time (sec): 1.000000E-2
Scans to average: 100
Electric dark correction enabled: true
Nonlinearity correction enabled: false
Boxcar width: 0
XAxis mode: Wavelengths
Number of Pixels in Spectrum: 2048
>>>>>Begin Spectral Data<<<<<
189.047	437.29
189.435	437.29
189.823	437.29
190.211	-94.94
190.599	1696.12
190.987	60.06
191.375	6.86
191.763	165.66
192.151	243.27
192.538	137.69
192.926	509.16
193.314	93.35
193.702	-79.26
194.089	-434.79
194.477	40.77
194.864	-36.55
195.252	46.03
195.639	73.81
196.027	114.84
196.414	125.97
196.801	329.5
197.189	-278.92
197.576	-915.31
197.963	-333.28
198.351	-46.54
198.738	12.45
199.125	95.6
199.512	-115.19
199.899	14.4
200.286	27.58
200.673	-17.95
201.06	-12.42
201.447	-8.37
201.833	0.03
202.22	1.54
202.607	9.12
202.994	23.7
203.38	30.96
203.767	22.36
204.154	19.32
204.54	52.38
204.927	-41.16
205.313	-29.44
205.699	31.13
206.086	25.19
206.472	12.92
206.858	-9.66
207.245	-40.75
207.631	12.84
208.017	1.98
208.403	-40.2
208.789	39.45
209.175	-12.01
209.561	-9.02
209.947	21.01
210.333	-8.85
210.719	11.36
211.105	23.59
211.491	-12.57
211.876	29.07
212.262	-1.8
212.648	12.83
213.034	-0.17
213.419	-7.75
213.805	32.03
214.19	-13.03
214.576	18.08
214.961	-76.84
215.346	-162.79
215.732	-54.64
216.117	-1.57
216.502	-19.8
216.888	14.87
217.273	42.07
217.658	-38.32
218.043	27.78
218.428	-60.7
218.813	-53.5
219.198	-44.15
219.583	4.29
219.968	10.1
220.353	-33.53
220.738	24.93
221.122	8.65
221.507	-26.31
221.892	-33.31
222.276	-13.35
222.661	12.9
223.046	8.45
223.43	7.66
223.815	20.83
224.199	-6.34
224.583	13.05
224.968	7.13
225.352	9.32
225.736	-0.35
226.121	-8.09
226.505	2.01
226.889	6.99
227.273	-3.08
227.657	10.74
228.041	3.67
228.425	1.08
228.809	6.97
229.193	5.99
229.577	6.08
229.961	7.9
230.344	6.49
230.728	7.39
231.112	6.99
231.495	7.18
231.879	6.13
232.263	6.99
232.646	7.49
233.03	6.71
233.413	7.11
233.797	8.35
234.18	5.06
234.563	4.78
234.946	2.9
235.33	8.35
235.713	7.48
236.096	6.22
236.479	7.73
236.862	6.54
237.245	7.11
237.628	8.47
238.011	8.02
238.394	8.75
238.777	5.68
239.16	5.01
239.543	7.85
239.925	6.06
240.308	6.68
240.691	9.14
241.073	7.87
241.456	6.5
241.838	6.62
242.221	5.69
242.603	7.2
242.986	6.61
243.368	6.91
243.75	7.56
244.133	6.35
244.515	7.05
244.897	7.03
245.279	7.68
245.661	6.39
246.043	5.52
246.425	5.47
246.807	8.09
247.189	7.37
247.571	6.97
247.953	7.26
248.335	7.3
248.717	7.04
249.098	6.94
249.48	6.89
249.862	7.06
250.243	7.02
250.625	6.76
251.006	7.08
251.388	5.02
251.769	6.93
252.151	6.52
252.532	5.6
252.913	6.1
253.295	6.03
253.676	6.84
254.057	6.89
254.438	6.99
254.819	6.56
255.2	6.55
255.581	7.15
255.962	5.95
256.343	5.66
256.724	6.17
257.105	7.15
257.486	6.14
257.867	7.07
258.247	5.96
258.628	6.16
259.009	5.79
259.389	7.62
259.77	5.86
260.15	5.99
260.531	6.08
260.911	6.89
261.292	6.7
261.672	6.81
262.052	6.49
262.432	6.53
262.813	6.44
263.193	6.18
263.573	6.07
263.953	6.1
264.333	6.16
264.713	6.58
265.093	5.61
265.473	6.07
265.853	5.62
266.233	5.78
266.612	4.66
266.992	4.57
267.372	6.64
267.752	6.19
268.131	6.03
268.511	6.83
268.89	6.47
269.27	5.94
269.649	5.27
270.029	5.61
270.408	6.76
270.787	5.91
271.167	6.43
271.546	6.82
271.925	5.62
272.304	6.06
272.683	6.34
273.062	6.07
273.441	6.28
273.82	5.05
274.199	6.19
274.578	6.55
274.957	5.85
275.336	6.44
275.715	5.36
276.093	5.57
276.472	6.22
276.851	5.86
277.229	5.45
277.608	4.87
277.986	5.87
278.365	6.21
278.743	4.88
279.122	5.73
279.5	5.68
279.878	6
280.257	5.05
280.635	5.93
281.013	5.41
281.391	6.22
281.769	5.75
282.147	6.09
282.525	6.31
282.903	5.53
283.281	6.49
283.659	5.9
284.037	5.99
284.415	5.72
284.792	6.38
285.17	5.59
285.548	5.83
285.925	6.39
286.303	5.71
286.68	5.82
287.058	5.24
287.435	5.93
287.813	5.64
288.19	5.63
288.567	5.5
288.945	5.93
289.322	5.78
289.699	5.54
290.076	5.11
290.453	5.67
290.83	5.01
291.207	5.19
291.584	5.71
291.961	5.61
292.338	5.66
292.715	5.59
293.092	5.73
293.469	5.18
293.845	5.86
294.222	5.25
294.599	5.07
294.975	5.9
295.352	5.95
295.728	5.51
296.105	5.08
296.481	5.54
296.858	5.28
297.234	5.11
297.61	5.67
297.986	5.65
298.363	5.75
298.739	5.92
299.115	5.44
299.491	5.23
299.867	5.26
300.243	5.61
300.619	5.31
300.995	5.32
301.371	5.62
301.746	4.71
302.122	5.95
302.498	5.34
302.874	5.41
303.249	5.41
303.625	5.29
304	5.65
304.376	5.28
304.751	4.82
305.127	5.93
305.502	4.7
305.878	4.81
306.253	4.81
306.628	5.79
307.003	5.04
307.378	6.05
307.754	5.09
308.129	4.67
308.504	4.5
308.879	5.67
309.254	5.76
309.629	5.17
310.003	5.47
310.378	6.05
310.753	5.54
311.128	5.44
311.502	5.8
311.877	5.71
312.252	4.75
312.626	5.26
313.001	4.96
313.375	5.1
313.75	4.87
314.124	5.4
314.498	5.19
314.873	5.21
315.247	4.76
315.621	4.64
315.995	4.67
316.369	5.18
316.743	5.24
317.117	5.31
317.491	5.29
317.865	5.35
318.239	4.86
318.613	4.85
318.987	5.61
319.361	4.73
319.734	5.04
320.108	4.82
320.482	5.52
320.855	5.31
321.229	4.9
321.602	4.79
321.976	5.69
322.349	4.85
322.723	5.27
323.096	5.55
323.469	4.43
323.843	4.46
324.216	5.38
324.589	4.37
324.962	4.92
325.335	5.46
325.708	4.64
326.081	4.96
326.454	5.32
326.827	4.75
327.2	5.14
327.573	5.47
327.945	5.24
328.318	5.18
328.691	4.47
329.063	5.09
329.436	4.67
329.809	5.36
330.181	4.68
330.553	4.43
330.926	5.29
331.298	5.61
331.671	5.34
332.043	5.3
332.415	5.48
332.787	4.68
333.159	5.79
333.532	5.3
333.904	4.97
334.276	5.45
334.648	4.95
335.02	5.3
335.391	4.9
335.763	4.77
336.135	5.13
336.507	5.38
336.879	4.84
337.25	5.19
337.622	4.91
337.993	5.01
338.365	5.35
338.736	5.59
339.108	5.07
339.479	4.92
339.851	4.92
340.222	5.32
340.593	5.21
340.964	5.44
341.336	5.87
341.707	4.72
342.078	5.36
342.449	4.97
342.82	5.11
343.191	5.07
343.562	5.61
343.933	5.39
344.303	5.32
344.674	4.97
345.045	5.39
345.416	5.32
345.786	5.09
346.157	5.07
346.527	4.5
346.898	4.92
347.268	5.45
347.639	4.76
348.009	5.18
348.38	4.94
348.75	5.19
349.12	4.85
349.49	5.98
349.861	5.49
350.231	4.52
350.601	5.06
350.971	5.08
351.341	5.17
351.711	5.29
352.081	5.6
352.45	5.05
352.82	5.34
353.19	4.94
353.56	4.27
353.929	4.98
354.299	5.12
354.669	5.06
355.038	5.53
355.408	4.82
355.777	5.23
356.147	5.37
356.516	5.37
356.885	5.39
357.254	5
357.624	5.68
357.993	5.19
358.362	5.1
358.731	4.91
359.1	5.34
359.469	5.47
359.838	5.57
360.207	5.43
360.576	5.01
360.945	5.19
361.314	5.62
361.682	5.12
362.051	5.05
362.42	5.52
362.788	5.21
363.157	5.53
363.525	5.49
363.894	5.56
364.262	5.39
364.631	5.24
364.999	5.41
365.367	5.11
365.735	5.73
366.104	5.48
366.472	5.36
366.84	5.27
367.208	5.26
367.576	5.6
367.944	5.6
368.312	5.27
368.68	5.03
369.048	5.73
369.416	5.23
369.783	5.25
370.151	5.69
370.519	5.64
370.886	6.04
371.254	5.17
371.621	5.52
371.989	5.61
372.356	5.22
372.724	5.27
373.091	5.25
373.458	5.38
373.826	5.57
374.193	5.53
374.56	5.72
374.927	5.8
375.294	5.78
375.661	5.54
376.028	5.72
376.395	5.58
376.762	5.64
377.129	5.63
377.496	5.51
377.863	5.79
378.229	5.13
378.596	5.68
378.963	5.52
379.329	5.47
379.696	5.7
380.062	5.83
380.429	5.55
380.795	5.52
381.161	5.35
381.528	5.85
381.894	6.01
382.26	5.67
382.626	5.52
382.993	5.51
383.359	5.83
383.725	5.38
384.091	5.84
384.457	5.76
384.823	5.69
385.188	6.02
385.554	5.93
385.92	5.85
386.286	5.83
386.651	5.85
387.017	5.95
387.383	5.76
387.748	5.63
388.114	5.6
388.479	5.77
388.845	6.03
389.21	5.79
389.575	5.93
389.94	5.8
390.306	5.82
390.671	5.92
391.036	5.36
391.401	5.53
391.766	5.52
392.131	5.79
392.496	6.18
392.861	5.84
393.226	6.18
393.591	6.1
393.956	5.71
394.32	5.99
394.685	5.73
395.05	5.69
395.414	5.87
395.779	5.47
396.143	6.13
396.508	5.92
396.872	6.09
397.236	6.01
397.601	6.02
397.965	5.92
398.329	5.83
398.694	5.98
399.058	5.88
399.422	5.91
399.786	6.48
400.15	6.15
400.514	6.07
400.878	5.9
401.242	6.21
401.605	6.25
401.969	6.11
402.333	5.82
402.697	6.16
403.06	6.03
403.424	6.02
403.787	6.01
404.151	6.27
404.514	6.11
404.878	6.08
405.241	6.3
405.604	5.9
405.968	6.12
406.331	6.13
406.694	6.29
407.057	6.01
407.42	6.18
407.783	6
408.146	6.25
408.509	6.03
408.872	6.07
409.235	6.17
409.598	6.41
409.961	6.13
410.323	6.52
410.686	6.52
411.049	6.17
411.411	6.06
411.774	6.2
412.136	6.22
412.499	5.95
412.861	6.2
413.223	6.03
413.586	6.32
413.948	6.43
414.31	6.1
414.672	6.22
415.035	5.96
415.397	6.36
415.759	5.91
416.121	6.39
416.483	6.09
416.845	6.21
417.206	6.18
417.568	6.32
417.93	6.24
418.292	6.23
418.653	6.2
419.015	6.37
419.377	6.29
419.738	6.45
420.1	6.15
420.461	6.29
420.822	6.35
421.184	6.17
421.545	6.31
421.906	6.12
422.267	6.29
422.629	6.34
422.99	6.28
423.351	6.11
423.712	6.21
424.073	6.38
424.434	6.12
424.795	6.33
425.155	6.31
425.516	6.24
425.877	6.25
426.238	6.19
426.598	6.38
426.959	6.28
427.32	6.26
427.68	6.17
428.041	6.2
428.401	6.4
428.761	6.38
429.122	6.33
429.482	6.34
429.842	6.58
430.202	6.29
430.563	6.45
430.923	6.25
431.283	6.54
431.643	6.35
432.003	6.3
432.363	6.4
432.722	6.38
433.082	6.4
433.442	6.49
433.802	6.35
434.161	6.47
434.521	6.47
434.881	6.5
435.24	6.31
435.6	6.4
435.959	6.31
436.319	6.51
436.678	6.36
437.037	6.52
437.396	6.47
437.756	6.58
438.115	6.44
438.474	6.59
438.833	6.3
439.192	6.57
439.551	6.72
439.91	6.44
440.269	6.57
440.628	6.31
440.987	6.48
441.345	6.47
441.704	6.57
442.063	6.41
442.421	6.52
442.78	6.32
443.138	6.41
443.497	6.62
443.855	6.49
444.214	6.51
444.572	6.74
444.93	6.59
445.288	6.57
445.647	6.66
446.005	6.48
446.363	6.66
446.721	6.65
447.079	6.48
447.437	6.53
447.795	6.75
448.153	6.46
448.51	6.6
448.868	6.51
449.226	6.61
449.584	6.61
449.941	6.62
450.299	6.52
450.656	6.72
451.014	6.69
451.371	6.55
451.729	6.71
452.086	6.75
452.443	6.39
452.801	6.84
453.158	6.89
453.515	6.8
453.872	6.74
454.229	6.61
454.586	6.76
454.943	6.76
455.3	6.87
455.657	6.58
456.014	6.75
456.371	6.74
456.727	6.73
457.084	6.94
457.441	6.71
457.797	6.73
458.154	6.83
458.51	6.67
458.867	6.93
459.223	6.78
459.58	6.9
459.936	6.73
460.292	6.83
460.648	6.65
461.005	6.89
461.361	6.91
461.717	6.75
462.073	6.67
462.429	6.64
462.785	6.78
463.141	6.69
463.496	6.71
463.852	6.94
464.208	6.83
464.564	6.94
464.919	6.98
465.275	6.93
465.631	6.91
465.986	6.79
466.342	6.93
466.697	6.7
467.052	6.96
467.408	6.91
467.763	6.9
468.118	7.01
468.473	6.78
468.829	6.98
469.184	6.73
469.539	6.9
469.894	6.78
470.249	7.06
470.603	6.94
470.958	7.2
471.313	7.1
471.668	7.04
472.023	6.88
472.377	6.92
472.732	6.85
473.086	6.92
473.441	7.01
473.795	6.93
474.15	6.96
474.504	7.05
474.859	7.2
475.213	6.87
475.567	6.94
475.921	6.81
476.275	7.01
476.63	7.09
476.984	7.07
477.338	7.17
477.692	7.08
478.045	6.92
478.399	7.17
478.753	7
479.107	6.91
479.461	6.99
479.814	7.07
480.168	6.95
480.521	7.02
480.875	6.86
481.228	6.99
481.582	6.92
481.935	6.92
482.289	7.12
482.642	7.02
482.995	6.97
483.348	6.91
483.701	7.05
484.055	7.06
484.408	7.05
484.761	6.93
485.114	6.88
485.466	6.78
485.819	6.69
486.172	6.65
486.525	6.65
486.878	6.68
487.23	6.77
487.583	6.85
487.936	6.89
488.288	6.96
488.641	6.97
488.993	6.83
489.345	6.74
489.698	6.76
490.05	6.72
490.402	6.8
490.754	6.81
491.107	6.92
491.459	6.96
491.811	6.93
492.163	6.98
492.515	7
492.866	7.06
493.218	6.96
493.57	6.91
493.922	6.87
494.274	6.97
494.625	6.96
494.977	7.04
495.328	7.01
495.68	7.16
496.031	7.18
496.383	7.11
496.734	7.18
497.086	7.18
497.437	7.19
497.788	7.15
498.139	7.22
498.49	7.28
498.842	7.11
499.193	7.15
499.544	7.09
499.894	7.05
500.245	7.18
500.596	7.1
500.947	7.21
501.298	7.09
501.648	7.21
501.999	7.33
502.35	7.16
502.7	7.15
503.051	7.02
503.401	7.15
503.752	7.35
504.102	7.21
504.452	7.33
504.803	7.36
505.153	7.23
505.503	7.23
505.853	7.28
506.203	7.17
506.553	7.21
506.903	7.26
507.253	7.33
507.603	7.2
507.953	7.33
508.303	7.36
508.652	7.25
509.002	7.27
509.352	7.32
509.701	7.19
510.051	7.27
510.4	7.25
510.75	7.33
511.099	7.23
511.449	7.23
511.798	7.33
512.147	7.18
512.496	7.15
512.846	7.27
513.195	7.3
513.544	7.21
513.893	7.28
514.242	7.26
514.591	7.35
514.939	7.25
515.288	7.19
515.637	7.36
515.986	7.4
516.334	7.32
516.683	7.35
517.032	7.33
517.38	7.31
517.729	7.33
518.077	7.08
518.426	7.31
518.774	7.47
519.122	7.23
519.47	7.25
519.819	7.12
520.167	7.25
520.515	7.23
520.863	7.18
521.211	7.25
521.559	7.36
521.907	7.26
522.255	7.29
522.602	7.26
522.95	7.35
523.298	7.33
523.645	7.31
523.993	7.31
524.341	7.45
524.688	7.27
525.036	7.41
525.383	7.43
525.73	7.46
526.078	7.22
526.425	7.2
526.772	7.41
527.119	7.32
527.466	7.19
527.814	7.23
528.161	7.3
528.508	7.33
528.854	7.22
529.201	7.15
529.548	7.13
529.895	7.15
530.242	7.05
530.588	7.01
530.935	7.05
531.282	7.01
531.628	7.06
531.975	7.14
532.321	7.15
532.667	7.28
533.014	7.26
533.36	7.27
533.706	7.2
534.052	7.25
534.399	7.14
534.745	7.32
535.091	7.16
535.437	7.17
535.783	7.19
536.129	7.15
536.474	7.09
536.82	7.18
537.166	7.37
537.512	7.34
537.857	7.29
538.203	7.34
538.549	7.26
538.894	7.22
539.239	7.19
539.585	7.28
539.93	7.23
540.276	7.34
540.621	7.38
540.966	7.27
541.311	7.2
541.656	7.4
542.001	7.38
542.346	7.38
542.691	7.23
543.036	7.16
543.381	7.06
543.726	7.08
544.071	7.16
544.415	7.12
544.76	7.15
545.105	7.24
545.449	7.29
545.794	7.26
546.138	7.23
546.483	7.38
546.827	7.36
547.171	7.33
547.516	7.44
547.86	7.25
548.204	7.22
548.548	7.31
548.892	7.36
549.236	7.19
549.58	7.26
549.924	7.27
550.268	7.4
550.612	7.41
550.956	7.57
551.3	7.37
551.643	7.63
551.987	7.48
552.33	7.4
552.674	7.3
553.017	7.35
553.361	7.48
553.704	7.52
554.048	7.17
554.391	7.35
554.734	7.3
555.077	7.38
555.42	7.21
555.764	7.29
556.107	7.28
556.45	7.18
556.793	7.27
557.135	7.39
557.478	7.67
557.821	7.39
558.164	7.16
558.507	7.4
558.849	7.34
559.192	7.58
559.534	7.22
559.877	7.51
560.219	7.55
560.562	7.64
560.904	7.49
561.246	7.51
561.589	7.48
561.931	7.49
562.273	7.3
562.615	7.52
562.957	7.59
563.299	7.33
563.641	7.37
563.983	7.21
564.325	7.2
564.667	7.34
565.008	7.34
565.35	7.35
565.692	7.3
566.033	7.28
566.375	7.45
566.716	7.45
567.058	7.43
567.399	7.32
567.741	7.29
568.082	7.48
568.423	7.21
568.764	7.3
569.105	7.47
569.447	7.43
569.788	7.23
570.129	7.49
570.47	7.34
570.811	7.4
571.151	7.43
571.492	7.49
571.833	7.33
572.174	7.27
572.514	7.44
572.855	7.43
573.195	7.37
573.536	7.38
573.876	7.36
574.217	7.26
574.557	7.25
574.898	7.44
575.238	7.4
575.578	7.26
575.918	7.64
576.258	7.38
576.598	7.48
576.938	7.2
577.278	7.39
577.618	7.3
577.958	7.35
578.298	7.46
578.638	7.5
578.977	7.27
579.317	7.19
579.657	7.43
579.996	7.28
580.336	7.42
580.675	7.36
581.014	7.42
581.354	7.48
581.693	7.47
582.032	7.38
582.372	7.23
582.711	7.61
583.05	7.46
583.389	7.56
583.728	7.3
584.067	7.43
584.406	7.43
584.745	7.34
585.083	7.58
585.422	7.39
585.761	7.57
586.1	7.36
586.438	7.22
586.777	7.44
587.115	7.64
587.454	7.32
587.792	7.33
588.13	7.51
588.469	7.11
588.807	7.28
589.145	7.37
589.483	7.23
589.821	7.39
590.159	7.45
590.497	7.7
590.835	7.75
591.173	7.43
591.511	7.55
591.849	7.43
592.187	7.41
592.524	7.26
592.862	7.53
593.2	7.41
593.537	7.36
593.875	7.34
594.212	7.12
594.55	7.23
594.887	7.66
595.224	7.25
595.561	7.33
595.899	7.36
596.236	7.13
596.573	7.61
596.91	7
597.247	7.21
597.584	7.68
597.921	7.19
598.258	7.14
598.594	7.36
598.931	7.31
599.268	7.28
599.604	7.23
599.941	7.38
600.277	7.38
600.614	7.18
600.95	7.25
601.287	7.37
601.623	7.28
601.959	7.23
602.296	7.45
602.632	7.48
602.968	7.48
603.304	7.39
603.64	7.2
603.976	7.69
604.312	7.17
604.648	7.06
604.984	7.35
605.319	7.26
605.655	7.39
605.991	7.2
606.326	7.25
606.662	7.35
606.998	7.23
607.333	7.26
607.668	7.39
608.004	7.36
608.339	7.62
608.674	7.34
609.01	7.34
609.345	7.11
609.68	7.61
610.015	7.14
610.35	7.12
610.685	7.3
611.02	7.49
611.355	7.41
611.689	7.37
612.024	7.3
612.359	7.38
612.694	7.21
613.028	7.37
613.363	7.46
613.697	7.51
614.032	7.33
614.366	7.16
614.7	7.22
615.035	7.54
615.369	7.25
615.703	7.4
616.037	7.29
616.371	7
616.705	7.25
617.039	7.2
617.373	7.14
617.707	7.14
618.041	7.4
618.375	7.4
618.709	7.71
619.042	7.11
619.376	7.13
619.71	7.51
620.043	7.28
620.377	7.29
620.71	7.27
621.043	7.46
621.377	7.28
621.71	7.46
622.043	7.35
622.376	7.33
622.709	7.26
623.043	7.29
623.376	7.51
623.709	7.36
624.041	7.71
624.374	7.26
624.707	7.16
625.04	7.39
625.373	6.64
625.705	7.82
626.038	7.52
626.37	7.16
626.703	7.1
627.035	7.48
627.368	8.07
627.7	7.57
628.032	7.08
628.365	7.64
628.697	7.52
629.029	7.43
629.361	7.36
629.693	7.52
630.025	7.34
630.357	7.45
630.689	7.38
631.021	7.42
631.353	7.29
631.684	6.92
632.016	7.16
632.348	7.61
632.679	7.61
633.011	7.64
633.342	7.94
633.674	7.18
634.005	7.82
634.336	7.29
634.668	8.04
634.999	7.38
635.33	7.26
635.661	7.56
635.992	7.34
636.323	7.47
636.654	7.53
636.985	7.47
637.316	7.21
637.647	7.4
637.977	7.58
638.308	7.5
638.639	7.33
638.969	7.09
639.3	7.09
639.63	7.18
639.961	7.44
640.291	7.42
640.622	7.61
640.952	7.29
641.282	7.7
641.612	7.79
641.943	7.36
642.273	7.59
642.603	7.61
642.933	7.82
643.263	7.58
643.592	7.29
643.922	7.12
644.252	7.5
644.582	7.09
644.911	6.91
645.241	7.31
645.571	7.84
645.9	6.82
646.23	7.25
646.559	8.46
646.888	7.52
647.218	7.03
647.547	7.57
647.876	7.31
648.205	7.56
648.534	7.28
648.863	7.31
649.192	7.61
649.521	7.62
649.85	7.66
650.179	7.45
650.508	7.15
650.837	7.21
651.165	7.11
651.494	7.66
651.822	7.38
652.151	7.19
652.479	7.24
652.808	6.91
653.136	7.35
653.465	6.65
653.793	7.29
654.121	6.73
654.449	7.96
654.777	7.58
655.105	8.12
655.433	7.36
655.761	7.79
656.089	7.13
656.417	8.06
656.745	7.24
657.073	7.05
657.4	7.81
657.728	7.5
658.056	7.15
658.383	7.4
658.711	7.5
659.038	7.8
659.365	7.59
659.693	7.48
660.02	6.92
660.347	7.46
660.674	7.76
661.001	7.53
661.329	6.88
661.656	7.52
661.982	7.68
662.309	7.83
662.636	7.11
662.963	8.18
663.29	7.95
663.616	8
663.943	6.97
664.27	7.41
664.596	8.13
664.923	7.74
665.249	7.43
665.576	8.16
665.902	8.57
666.228	7.85
666.554	7.8
666.881	7.17
667.207	7.59
667.533	7.43
667.859	7.6
668.185	7.51
668.511	7.47
668.837	6.5
669.162	7.4
669.488	7.57
669.814	7.81
670.139	7.59
670.465	8.4
670.791	7.84
671.116	8.18
671.442	7.67
671.767	7.58
672.092	8.01
672.418	7.36
672.743	7.93
673.068	7.33
673.393	8.25
673.718	7.34
674.043	7.66
674.368	7.67
674.693	8.79
675.018	7.94
675.343	7.47
675.667	7.48
675.992	8.04
676.317	7.85
676.641	7.71
676.966	8.33
677.29	7.03
677.615	7.69
677.939	8
678.264	8.26
678.588	8.09
678.912	7.99
679.236	8.05
679.56	6.62
679.885	8.03
680.209	7.07
680.532	7.45
680.856	8.25
681.18	7.63
681.504	7.35
681.828	8.29
682.152	7.39
682.475	8.19
682.799	8.17
683.122	8.28
683.446	8.03
683.769	8.44
684.093	7.4
684.416	8.21
684.739	8.57
685.062	7.29
685.386	8.22
685.709	7.69
686.032	7.3
686.355	7.77
686.678	7.5
687.001	7.58
687.324	8.78
687.646	7.38
687.969	8.05
688.292	8.22
688.614	7.81
688.937	8.53
689.26	7.38
689.582	8.21
689.904	8.04
690.227	8.06
690.549	7.74
690.871	8.28
691.194	7.96
691.516	7.47
691.838	8.05
