Data from 0193_crown_Reflection__3__401.txt Node

Date: Fri Dec 15 20:22:22 CST 2023
User: ToomeyLab
Spectrometer: FLMS14357
Trigger mode: 0
Integration Time (sec): 1.000000E-2
Scans to average: 100
Electric dark correction enabled: true
Nonlinearity correction enabled: false
Boxcar width: 0
XAxis mode: Wavelengths
Number of Pixels in Spectrum: 2048
>>>>>Begin Spectral Data<<<<<
189.047	89.89
189.435	89.89
189.823	89.89
190.211	-27.91
190.599	-2136.89
190.987	92.84
191.375	272.78
191.763	277.92
192.151	72.49
192.538	130.1
192.926	125.66
193.314	25.85
193.702	-906.68
194.089	-309.21
194.477	-11.6
194.864	-55.23
195.252	128.74
195.639	58.07
196.027	58.82
196.414	118.93
196.801	25.48
197.189	455.56
197.576	-428.8
197.963	-245.15
198.351	-82.92
198.738	-15.57
199.125	11.91
199.512	67.43
199.899	38.05
200.286	17.21
200.673	-29.66
201.06	-37.49
201.447	-30.43
201.833	23.18
202.22	18.32
202.607	47.53
202.994	16.31
203.38	8.31
203.767	-2.17
204.154	14.14
204.54	43.68
204.927	-71.04
205.313	-74.81
205.699	28.63
206.086	22.31
206.472	-22.55
206.858	-6.65
207.245	-56.95
207.631	67.76
208.017	16.07
208.403	-39.34
208.789	-1.43
209.175	26.57
209.561	-21.72
209.947	-21.2
210.333	-48.29
210.719	16.4
211.105	13.71
211.491	-70.02
211.876	22.39
212.262	-55.13
212.648	33.82
213.034	24.55
213.419	-11.33
213.805	-50.66
214.19	-61.42
214.576	-2.7
214.961	-62.06
215.346	-137.83
215.732	-14.73
216.117	-13.01
216.502	-45.12
216.888	-4.04
217.273	11.88
217.658	-20.43
218.043	-9.69
218.428	-16.26
218.813	-30.26
219.198	-38.19
219.583	9.04
219.968	-3.54
220.353	-18.07
220.738	21.03
221.122	-15.84
221.507	-20.28
221.892	-46.33
222.276	-37.96
222.661	-15.94
223.046	16.42
223.43	1.62
223.815	4.32
224.199	-17.6
224.583	-0.62
224.968	1.28
225.352	19.48
225.736	1.01
226.121	-18.53
226.505	2.8
226.889	8.04
227.273	0.1
227.657	8.26
228.041	0.76
228.425	-0.78
228.809	9.45
229.193	5.34
229.577	4.45
229.961	7.19
230.344	5.38
230.728	6.09
231.112	5.73
231.495	6.35
231.879	4.99
232.263	6.14
232.646	6.63
233.03	5.97
233.413	5.42
233.797	6.6
234.18	8.52
234.563	5.08
234.946	6.22
235.33	4.61
235.713	5.27
236.096	6.78
236.479	6.91
236.862	4.83
237.245	6.18
237.628	5.59
238.011	7.76
238.394	5.98
238.777	3.59
239.16	4
239.543	6.53
239.925	5.73
240.308	5.81
240.691	8.22
241.073	7.46
241.456	3.46
241.838	4.34
242.221	5.63
242.603	6.79
242.986	5.97
243.368	6.03
243.75	6.69
244.133	5.76
244.515	6.4
244.897	6.52
245.279	6.11
245.661	6.17
246.043	4.71
246.425	4.55
246.807	7.05
247.189	5.91
247.571	6.92
247.953	6.74
248.335	6.14
248.717	6.48
249.098	5.96
249.48	6.28
249.862	6.17
250.243	6.09
250.625	5.54
251.006	6.31
251.388	5.07
251.769	5.85
252.151	6.53
252.532	6.08
252.913	5.55
253.295	5.6
253.676	5.85
254.057	6.12
254.438	6.05
254.819	6.08
255.2	4.22
255.581	4.2
255.962	4.39
256.343	5.31
256.724	5.17
257.105	6.02
257.486	5.66
257.867	5.37
258.247	5.82
258.628	5.52
259.009	6.13
259.389	5.88
259.77	5.33
260.15	5.09
260.531	5.03
260.911	5.58
261.292	5.79
261.672	5.96
262.052	6.11
262.432	5.73
262.813	5.71
263.193	5.35
263.573	5.61
263.953	5.53
264.333	5.9
264.713	5.64
265.093	4.23
265.473	5.05
265.853	4.12
266.233	5.37
266.612	3.54
266.992	3.76
267.372	6.18
267.752	4.94
268.131	5.88
268.511	5.33
268.89	5.52
269.27	5.21
269.649	4.79
270.029	5.47
270.408	6.37
270.787	5.76
271.167	5.16
271.546	5.84
271.925	3.93
272.304	5.33
272.683	5.58
273.062	5.04
273.441	5.33
273.82	4.81
274.199	5.8
274.578	5.53
274.957	5.13
275.336	5.45
275.715	4.56
276.093	4.99
276.472	5.09
276.851	4.71
277.229	4.52
277.608	4.35
277.986	4.77
278.365	5.32
278.743	4.34
279.122	5.82
279.5	5.09
279.878	5.86
280.257	5.36
280.635	4.18
281.013	4.33
281.391	5.29
281.769	5.11
282.147	5.25
282.525	5.58
282.903	4.91
283.281	4.89
283.659	5.46
284.037	5.47
284.415	4.75
284.792	5.22
285.17	4.35
285.548	4.7
285.925	5.02
286.303	5.32
286.68	5.33
287.058	4.89
287.435	4.85
287.813	4.79
288.19	4.81
288.567	4.23
288.945	5.35
289.322	4.71
289.699	4.97
290.076	4.88
290.453	4.75
290.83	4.48
291.207	4.53
291.584	5.1
291.961	4.74
292.338	4.78
292.715	5.16
293.092	4.48
293.469	4.84
293.845	4.55
294.222	4.32
294.599	4.63
294.975	4.61
295.352	4.81
295.728	4.41
296.105	4.48
296.481	5.28
296.858	4.78
297.234	4.43
297.61	4.72
297.986	3.93
298.363	5.04
298.739	4.56
299.115	4.65
299.491	4.62
299.867	4.56
300.243	4.57
300.619	4.54
300.995	4.77
301.371	4.9
301.746	4.34
302.122	4.58
302.498	4.12
302.874	4.45
303.249	4.42
303.625	4.38
304	4.93
304.376	4.99
304.751	4.05
305.127	5.37
305.502	4.49
305.878	3.85
306.253	4.3
306.628	4.76
307.003	4.86
307.378	4.42
307.754	4.68
308.129	3.61
308.504	4.58
308.879	4.53
309.254	4.93
309.629	4.55
310.003	4.4
310.378	4.4
310.753	4.76
311.128	4.61
311.502	4.51
311.877	4.66
312.252	4.11
312.626	4.29
313.001	4.41
313.375	4.81
313.75	3.96
314.124	4.62
314.498	4.38
314.873	4.07
315.247	3.97
315.621	4.2
315.995	3.73
316.369	3.92
316.743	4.42
317.117	4.12
317.491	4.2
317.865	4.13
318.239	4.23
318.613	4.4
318.987	4.25
319.361	3.76
319.734	4.46
320.108	4.61
320.482	3.8
320.855	4.58
321.229	4.25
321.602	4.28
321.976	4.28
322.349	3.61
322.723	3.85
323.096	4.17
323.469	4.19
323.843	3.6
324.216	5
324.589	4.18
324.962	4.23
325.335	4.33
325.708	4.18
326.081	3.79
326.454	4.08
326.827	4.01
327.2	4.3
327.573	4.67
327.945	3.9
328.318	3.86
328.691	3.89
329.063	4.25
329.436	4.18
329.809	4.22
330.181	4.04
330.553	4.05
330.926	4.19
331.298	4.25
331.671	4.19
332.043	4.56
332.415	4.53
332.787	4.1
333.159	4.85
333.532	4.33
333.904	4.28
334.276	4.32
334.648	4.23
335.02	4.3
335.391	4.12
335.763	4.18
336.135	3.79
336.507	4.13
336.879	4.93
337.25	3.6
337.622	4.49
337.993	4.62
338.365	4.53
338.736	4.67
339.108	3.97
339.479	4.07
339.851	4.28
340.222	4.06
340.593	4.35
340.964	4.32
341.336	4.99
341.707	3.93
342.078	4
342.449	4.71
342.82	4.02
343.191	5.06
343.562	4.2
343.933	4.21
344.303	4.06
344.674	4.65
345.045	4.39
345.416	4.53
345.786	4.04
346.157	4.51
346.527	4.13
346.898	4.06
347.268	4.75
347.639	3.69
348.009	4.35
348.38	4.08
348.75	4.57
349.12	4.49
349.49	4.73
349.861	4.54
350.231	4.23
350.601	4.66
350.971	4.66
351.341	4.38
351.711	4.33
352.081	4.43
352.45	4.23
352.82	4.37
353.19	4.69
353.56	4.37
353.929	4.53
354.299	3.99
354.669	4.05
355.038	4.65
355.408	4.44
355.777	4.56
356.147	3.92
356.516	4.69
356.885	4.64
357.254	4.41
357.624	4.93
357.993	4.5
358.362	4.31
358.731	4.32
359.1	4.73
359.469	4.66
359.838	4.67
360.207	4.42
360.576	4.21
360.945	4.44
361.314	5.19
361.682	4.52
362.051	4.35
362.42	4.85
362.788	4.82
363.157	4.53
363.525	4.89
363.894	4.66
364.262	4.63
364.631	4.62
364.999	4.84
365.367	4.54
365.735	5.07
366.104	5.06
366.472	4.83
366.84	4.16
367.208	4.52
367.576	4.75
367.944	4.89
368.312	4.72
368.68	3.91
369.048	4.89
369.416	4.78
369.783	4.65
370.151	5.08
370.519	5.26
370.886	4.74
371.254	4.43
371.621	4.93
371.989	4.89
372.356	4.28
372.724	4.51
373.091	4.45
373.458	4.78
373.826	4.57
374.193	4.46
374.56	4.78
374.927	4.74
375.294	4.68
375.661	4.44
376.028	4.24
376.395	4.8
376.762	5.15
377.129	5.16
377.496	4.73
377.863	4.65
378.229	4.3
378.596	4.8
378.963	4.71
379.329	4.75
379.696	5.05
380.062	4.66
380.429	4.87
380.795	4.46
381.161	4.9
381.528	5.09
381.894	5.13
382.26	4.88
382.626	4.9
382.993	4.47
383.359	5.09
383.725	4.95
384.091	4.89
384.457	5.12
384.823	4.82
385.188	5.18
385.554	4.76
385.92	5.12
386.286	4.98
386.651	5.34
387.017	5.13
387.383	4.86
387.748	4.77
388.114	5.26
388.479	4.91
388.845	5.45
389.21	5
389.575	5.18
389.94	5.11
390.306	4.99
390.671	5.07
391.036	4.73
391.401	4.74
391.766	4.92
392.131	5.1
392.496	5.23
392.861	4.8
393.226	5.25
393.591	5.39
393.956	4.88
394.32	5.12
394.685	4.88
395.05	4.73
395.414	5.29
395.779	4.94
396.143	5.41
396.508	5.29
396.872	5.15
397.236	5.07
397.601	5.18
397.965	5.15
398.329	5.2
398.694	5.13
399.058	5.19
399.422	4.82
399.786	5.26
400.15	5.4
400.514	5.18
400.878	5.15
401.242	5.46
401.605	5.37
401.969	5.32
402.333	5.38
402.697	5.36
403.06	4.99
403.424	5.27
403.787	5.08
404.151	5.52
404.514	5.28
404.878	5.13
405.241	5.38
405.604	5.37
405.968	5.32
406.331	5.12
406.694	5.35
407.057	5.34
407.42	5.37
407.783	5.21
408.146	5.28
408.509	5.32
408.872	5.36
409.235	5.02
409.598	5.7
409.961	5.29
410.323	5.43
410.686	5.21
411.049	5.37
411.411	5.02
411.774	5.49
412.136	5.21
412.499	5.25
412.861	5.34
413.223	5.2
413.586	5.42
413.948	5.33
414.31	5.28
414.672	5.08
415.035	4.96
415.397	5.53
415.759	5.06
416.121	5.59
416.483	5.46
416.845	5.44
417.206	5.49
417.568	5.62
417.93	5.43
418.292	5.47
418.653	5.58
419.015	5.56
419.377	5.48
419.738	5.51
420.1	5.4
420.461	5.35
420.822	5.35
421.184	5.36
421.545	5.45
421.906	5.37
422.267	5.53
422.629	5.39
422.99	5.43
423.351	5.42
423.712	5.46
424.073	5.51
424.434	5.34
424.795	5.43
425.155	5.46
425.516	5.27
425.877	5.47
426.238	5.3
426.598	5.48
426.959	5.51
427.32	5.43
427.68	5.4
428.041	5.52
428.401	5.61
428.761	5.55
429.122	5.53
429.482	5.22
429.842	5.58
430.202	5.6
430.563	5.42
430.923	5.52
431.283	5.78
431.643	5.5
432.003	5.49
432.363	5.43
432.722	5.48
433.082	5.64
433.442	5.67
433.802	5.4
434.161	5.54
434.521	5.88
434.881	5.59
435.24	5.52
435.6	5.67
435.959	5.42
436.319	5.52
436.678	5.66
437.037	5.55
437.396	5.67
437.756	5.58
438.115	5.67
438.474	5.74
438.833	5.46
439.192	5.49
439.551	5.78
439.91	5.81
440.269	5.71
440.628	5.56
440.987	5.6
441.345	5.43
441.704	5.78
442.063	5.62
442.421	5.62
442.78	5.58
443.138	5.61
443.497	5.66
443.855	5.44
444.214	5.69
444.572	5.77
444.93	5.68
445.288	5.61
445.647	5.77
446.005	5.52
446.363	5.75
446.721	5.69
447.079	5.58
447.437	5.71
447.795	5.59
448.153	5.61
448.51	5.65
448.868	5.57
449.226	5.53
449.584	5.69
449.941	5.62
450.299	5.69
450.656	5.6
451.014	5.58
451.371	5.65
451.729	5.54
452.086	5.87
452.443	5.66
452.801	5.85
453.158	5.73
453.515	5.76
453.872	5.84
454.229	5.82
454.586	5.66
454.943	5.69
455.3	5.75
455.657	5.69
456.014	5.65
456.371	5.76
456.727	5.62
457.084	6.01
457.441	5.77
457.797	5.82
458.154	5.86
458.51	5.92
458.867	5.82
459.223	5.85
459.58	5.82
459.936	5.74
460.292	5.89
460.648	5.77
461.005	5.74
461.361	5.8
461.717	5.82
462.073	5.68
462.429	5.61
462.785	5.67
463.141	5.76
463.496	5.87
463.852	5.99
464.208	5.82
464.564	5.99
464.919	5.88
465.275	5.82
465.631	5.92
465.986	5.81
466.342	5.89
466.697	5.57
467.052	5.88
467.408	5.87
467.763	5.86
468.118	5.87
468.473	5.75
468.829	6.04
469.184	5.96
469.539	5.89
469.894	5.62
470.249	5.99
470.603	5.99
470.958	6.06
471.313	5.93
471.668	5.95
472.023	5.92
472.377	5.95
472.732	5.86
473.086	5.88
473.441	5.66
473.795	6.02
474.15	5.97
474.504	5.83
474.859	5.96
475.213	5.69
475.567	5.88
475.921	5.76
476.275	6.1
476.63	6.03
476.984	5.87
477.338	5.89
477.692	5.86
478.045	5.78
478.399	5.93
478.753	5.98
479.107	5.82
479.461	5.98
479.814	5.99
480.168	5.91
480.521	5.91
480.875	5.97
481.228	5.94
481.582	6.04
481.935	5.82
482.289	5.92
482.642	5.95
482.995	5.8
483.348	5.93
483.701	5.84
484.055	5.97
484.408	6.01
484.761	5.89
485.114	5.81
485.466	5.75
485.819	5.66
486.172	5.63
486.525	5.64
486.878	5.67
487.23	5.67
487.583	5.82
487.936	5.88
488.288	5.87
488.641	5.85
488.993	5.75
489.345	5.68
489.698	5.75
490.05	5.66
490.402	5.75
490.754	5.74
491.107	5.87
491.459	5.85
491.811	5.89
492.163	5.93
492.515	5.92
492.866	5.88
493.218	5.87
493.57	5.76
493.922	5.66
494.274	5.76
494.625	5.87
494.977	5.84
495.328	5.91
495.68	5.97
496.031	6.03
496.383	6.01
496.734	6.12
497.086	6.04
497.437	6.08
497.788	5.95
498.139	5.92
498.49	6.03
498.842	5.89
499.193	5.96
499.544	6.1
499.894	6.02
500.245	5.91
500.596	5.93
500.947	6.08
501.298	5.94
501.648	6.07
501.999	6.05
502.35	6.02
502.7	5.91
503.051	5.81
503.401	5.98
503.752	6.06
504.102	5.83
504.452	6.05
504.803	5.95
505.153	6.12
505.503	6.04
505.853	6.13
506.203	5.93
506.553	5.94
506.903	6.01
507.253	5.96
507.603	5.86
507.953	6.05
508.303	6.19
508.652	5.81
509.002	6.16
509.352	6.02
509.701	5.87
510.051	5.95
510.4	5.94
510.75	5.94
511.099	6.09
511.449	6.09
511.798	5.95
512.147	6.07
512.496	6.01
512.846	5.96
513.195	5.98
513.544	5.98
513.893	6.03
514.242	5.9
514.591	6.05
514.939	5.93
515.288	5.97
515.637	6.04
515.986	6.08
516.334	5.92
516.683	6.13
517.032	6.07
517.38	6.01
517.729	6.23
518.077	5.9
518.426	6.06
518.774	6.12
519.122	5.97
519.47	5.96
519.819	5.88
520.167	5.91
520.515	5.91
520.863	5.97
521.211	5.96
521.559	5.93
521.907	5.93
522.255	5.84
522.602	5.98
522.95	6.06
523.298	6.09
523.645	5.97
523.993	6.01
524.341	6.06
524.688	6.11
525.036	5.92
525.383	5.96
525.73	6.19
526.078	6.02
526.425	6.03
526.772	6.06
527.119	6
527.466	6.02
527.814	5.9
528.161	5.96
528.508	5.97
528.854	5.93
529.201	5.84
529.548	5.91
529.895	5.8
530.242	5.78
530.588	5.72
530.935	5.79
531.282	5.78
531.628	5.75
531.975	5.82
532.321	5.89
532.667	5.94
533.014	5.94
533.36	5.94
533.706	5.98
534.052	5.89
534.399	5.9
534.745	5.97
535.091	5.9
535.437	5.82
535.783	5.86
536.129	5.91
536.474	5.9
536.82	5.93
537.166	5.99
537.512	6
537.857	5.87
538.203	5.98
538.549	5.94
538.894	5.88
539.239	5.82
539.585	5.91
539.93	5.88
540.276	5.96
540.621	6.07
540.966	5.88
541.311	6.05
541.656	5.98
542.001	5.84
542.346	6.05
542.691	5.85
543.036	5.87
543.381	5.7
543.726	5.72
544.071	5.84
544.415	5.85
544.76	5.85
545.105	5.89
545.449	5.87
545.794	6
546.138	5.82
546.483	5.98
546.827	6
547.171	5.91
547.516	6.04
547.86	5.91
548.204	5.81
548.548	5.93
548.892	5.93
549.236	5.94
549.58	5.85
549.924	5.99
550.268	5.97
550.612	6.14
550.956	5.94
551.3	5.88
551.643	6.23
551.987	6.22
552.33	5.97
552.674	6.13
553.017	5.81
553.361	6.12
553.704	6.21
554.048	5.78
554.391	5.96
554.734	5.9
555.077	5.93
555.42	5.69
555.764	5.8
556.107	5.86
556.45	5.76
556.793	5.99
557.135	6.02
557.478	6.07
557.821	6.04
558.164	5.84
558.507	5.99
558.849	5.89
559.192	5.86
559.534	5.86
559.877	6.05
560.219	5.9
560.562	6.27
560.904	5.97
561.246	5.96
561.589	6.02
561.931	5.9
562.273	5.83
562.615	5.75
562.957	6.04
563.299	5.82
563.641	5.86
563.983	5.97
564.325	5.73
564.667	5.87
565.008	5.8
565.35	6.02
565.692	5.87
566.033	5.83
566.375	6.18
566.716	6.05
567.058	5.83
567.399	5.68
567.741	6.06
568.082	5.8
568.423	5.79
568.764	5.85
569.105	5.74
569.447	6.07
569.788	5.88
570.129	6.03
570.47	5.83
570.811	6.09
571.151	6.03
571.492	6.19
571.833	5.95
572.174	5.92
572.514	5.97
572.855	5.85
573.195	5.83
573.536	5.96
573.876	5.8
574.217	5.83
574.557	5.89
574.898	5.87
575.238	6
575.578	5.83
575.918	6.01
576.258	5.94
576.598	6.1
576.938	5.81
577.278	5.99
577.618	5.85
577.958	5.82
578.298	5.82
578.638	5.82
578.977	5.91
579.317	5.62
579.657	5.88
579.996	5.86
580.336	5.89
580.675	5.76
581.014	5.98
581.354	5.82
581.693	6.02
582.032	5.7
582.372	5.54
582.711	5.8
583.05	5.54
583.389	5.87
583.728	5.89
584.067	6.1
584.406	6.11
584.745	5.8
585.083	5.83
585.422	5.93
585.761	5.96
586.1	5.71
586.438	5.93
586.777	5.98
587.115	5.94
587.454	5.8
587.792	5.67
588.13	5.94
588.469	5.81
588.807	5.61
589.145	5.56
589.483	5.85
589.821	5.69
590.159	5.74
590.497	6.04
590.835	6.12
591.173	5.71
591.511	5.9
591.849	5.92
592.187	5.99
592.524	5.88
592.862	5.8
593.2	5.9
593.537	5.92
593.875	5.68
594.212	5.83
594.55	5.61
594.887	6.09
595.224	5.72
595.561	5.84
595.899	5.8
596.236	5.57
596.573	5.85
596.91	5.65
597.247	5.76
597.584	5.92
597.921	5.8
598.258	5.73
598.594	5.91
598.931	5.65
599.268	5.86
599.604	5.78
599.941	5.72
600.277	5.84
600.614	5.72
600.95	5.63
601.287	5.98
601.623	5.8
601.959	5.62
602.296	6.15
602.632	5.74
602.968	5.9
603.304	5.85
603.64	5.74
603.976	5.81
604.312	5.94
604.648	5.93
604.984	5.79
605.319	5.59
605.655	5.82
605.991	5.88
606.326	5.99
606.662	5.96
606.998	5.64
607.333	5.86
607.668	5.92
608.004	5.95
608.339	5.85
608.674	5.95
609.01	5.79
609.345	5.62
609.68	5.66
610.015	5.76
610.35	5.76
610.685	5.71
611.02	5.7
611.355	5.8
611.689	5.68
612.024	5.84
612.359	5.69
612.694	5.75
613.028	5.81
613.363	5.76
613.697	5.96
614.032	5.62
614.366	5.74
614.7	5.82
615.035	5.5
615.369	5.59
615.703	5.67
616.037	5.86
616.371	5.69
616.705	5.52
617.039	5.65
617.373	5.55
617.707	5.43
618.041	5.69
618.375	5.5
618.709	5.56
619.042	5.53
619.376	5.81
619.71	5.8
620.043	5.86
620.377	5.59
620.71	5.98
621.043	5.68
621.377	5.62
621.71	5.69
622.043	5.6
622.376	5.41
622.709	5.73
623.043	5.73
623.376	5.31
623.709	6.05
624.041	6.3
624.374	5.81
624.707	5.71
625.04	6.05
625.373	5.24
625.705	5.69
626.038	5.34
626.37	5.65
626.703	5.4
627.035	5.51
627.368	6.41
627.7	5.68
628.032	5.45
628.365	5.99
628.697	5.84
629.029	5.66
629.361	5.92
629.693	5.82
630.025	5.84
630.357	5.82
630.689	5.68
631.021	5.57
631.353	5.75
631.684	5.69
632.016	5.48
632.348	6.19
632.679	5.82
633.011	5.66
633.342	6.39
633.674	5.72
634.005	6.21
634.336	5.46
634.668	6.3
634.999	5.16
635.33	5.89
635.661	6.07
635.992	5.55
636.323	5.95
636.654	6.02
636.985	5.83
637.316	5.65
637.647	5.57
637.977	5.58
638.308	5.68
638.639	5.59
638.969	5.59
639.3	5.43
639.63	5.35
639.961	5.75
640.291	5.41
640.622	6.03
640.952	5.62
641.282	6
641.612	5.83
641.943	5.86
642.273	5.66
642.603	5.95
642.933	5.73
643.263	5.59
643.592	5.33
643.922	5.6
644.252	5.78
644.582	5.37
644.911	5.46
645.241	5.93
645.571	5.53
645.9	5.25
646.23	5.48
646.559	5.7
646.888	5.36
647.218	5.58
647.547	6.15
647.876	5.56
648.205	5.47
648.534	5.3
648.863	5.28
649.192	5.79
649.521	5.77
649.85	5.45
650.179	5.55
650.508	5.64
650.837	5.41
651.165	5.29
651.494	5.83
651.822	6.03
652.151	5.29
652.479	5.67
652.808	5.67
653.136	5.39
653.465	5.19
653.793	5.66
654.121	5.66
654.449	5.97
654.777	5.81
655.105	5.63
655.433	5.14
655.761	5.61
656.089	5.6
656.417	6.09
656.745	5.34
657.073	5.81
657.4	6.23
657.728	5.35
658.056	5.36
658.383	5.59
658.711	5.72
659.038	5.74
659.365	5.81
659.693	5.5
660.02	5.97
660.347	5.27
660.674	5.46
661.001	5.7
661.329	5.21
661.656	5.92
661.982	5.85
662.309	5.55
662.636	5.41
662.963	5.97
663.29	5.9
663.616	6.25
663.943	5.82
664.27	5.64
664.596	5.95
664.923	5.56
665.249	6.09
665.576	5.56
665.902	5.77
666.228	5.81
666.554	6.19
666.881	5.47
667.207	5.44
667.533	5.84
667.859	5.42
668.185	5.59
668.511	5.56
668.837	4.77
669.162	5.9
669.488	5.69
669.814	6.05
670.139	5.34
670.465	5.81
670.791	6.11
671.116	6.24
671.442	5.8
671.767	6.06
672.092	6.17
672.418	5.32
672.743	6.21
673.068	5.82
673.393	5.78
673.718	5.71
674.043	6.13
674.368	5.27
674.693	6.15
675.018	6.02
675.343	6.02
675.667	5.83
675.992	6.01
676.317	5.93
676.641	5.8
676.966	5.8
677.29	5.51
677.615	5.72
677.939	6.18
678.264	6.4
678.588	6.07
678.912	5.75
679.236	6
679.56	4.52
679.885	6.53
680.209	5.79
680.532	5.96
680.856	6.79
681.18	6
681.504	5.75
681.828	6.01
682.152	5.69
682.475	5.66
682.799	6.2
683.122	5.8
683.446	5.62
683.769	6.14
684.093	5.33
684.416	6.16
684.739	5.14
685.062	5.43
685.386	5.76
685.709	5.31
686.032	6.33
686.355	6.52
686.678	5.83
687.001	6.13
687.324	6.02
687.646	5.55
687.969	6
688.292	5.77
688.614	5.18
688.937	6.5
689.26	5.69
689.582	6.02
689.904	5.43
690.227	6.08
690.549	5.81
690.871	7.02
691.194	5.75
691.516	5.28
