Data from 0193_chest_Reflection__6__397.txt Node

Date: Fri Dec 15 20:21:05 CST 2023
User: ToomeyLab
Spectrometer: FLMS14357
Trigger mode: 0
Integration Time (sec): 1.000000E-2
Scans to average: 100
Electric dark correction enabled: true
Nonlinearity correction enabled: false
Boxcar width: 0
XAxis mode: Wavelengths
Number of Pixels in Spectrum: 2048
>>>>>Begin Spectral Data<<<<<
189.047	111.63
189.435	111.63
189.823	111.63
190.211	-80.27
190.599	872.82
190.987	161.2
191.375	-320.7
191.763	-63.1
192.151	360.94
192.538	133.86
192.926	-38.83
193.314	139.99
193.702	-402.64
194.089	-335.88
194.477	-0.18
194.864	33.35
195.252	160.39
195.639	82
196.027	60.33
196.414	182.31
196.801	170.29
197.189	743.76
197.576	-551.76
197.963	541.91
198.351	-80.15
198.738	-13.71
199.125	-1
199.512	-100.71
199.899	-0.54
200.286	-48.7
200.673	-50.25
201.06	-25.19
201.447	-9.22
201.833	13.28
202.22	-30.45
202.607	-16.68
202.994	-29.5
203.38	-34.99
203.767	-26.38
204.154	-4.4
204.54	-6.84
204.927	-2.83
205.313	-21.47
205.699	8.7
206.086	39.65
206.472	41.07
206.858	15.79
207.245	-11.97
207.631	30.19
208.017	-13.21
208.403	-39.65
208.789	-0.37
209.175	15.73
209.561	-42.22
209.947	1.82
210.333	-24.45
210.719	13.13
211.105	18.92
211.491	-95.62
211.876	6.86
212.262	15.99
212.648	2.4
213.034	-2.57
213.419	-8.28
213.805	-21.71
214.19	-5.99
214.576	-18.91
214.961	8.35
215.346	-59.63
215.732	-39.84
216.117	4.34
216.502	18.27
216.888	-8.23
217.273	13.75
217.658	-0.37
218.043	6.54
218.428	-61.81
218.813	-60.81
219.198	-75.81
219.583	9.39
219.968	-13.27
220.353	-28.06
220.738	21.95
221.122	-16.11
221.507	-9.41
221.892	-45.62
222.276	-18.11
222.661	-15.96
223.046	9.42
223.43	-2.3
223.815	-7.31
224.199	-16.09
224.583	-8.67
224.968	-3.46
225.352	8.74
225.736	4.75
226.121	-16.11
226.505	1.36
226.889	2.54
227.273	-0.16
227.657	6.88
228.041	1.78
228.425	-0.07
228.809	1.85
229.193	0.83
229.577	-0.17
229.961	3.09
230.344	1.37
230.728	2.13
231.112	1.87
231.495	2.08
231.879	1.57
232.263	3.86
232.646	2.23
233.03	1.67
233.413	0.72
233.797	1.5
234.18	0.79
234.563	2.45
234.946	1.04
235.33	4.58
235.713	2.33
236.096	0.81
236.479	3.29
236.862	0.94
237.245	2.93
237.628	2.44
238.011	4.71
238.394	3.88
238.777	2.09
239.16	0
239.543	2.06
239.925	2.78
240.308	2.52
240.691	3.73
241.073	3.7
241.456	2.35
241.838	0.37
242.221	1.16
242.603	3.18
242.986	2.92
243.368	3.06
243.75	2.85
244.133	2.34
244.515	2.97
244.897	2.94
245.279	2.63
245.661	2.39
246.043	1.95
246.425	2
246.807	3.39
247.189	3.18
247.571	2.84
247.953	2.77
248.335	2.89
248.717	3.06
249.098	2.6
249.48	2.93
249.862	2.92
250.243	2.5
250.625	2.44
251.006	3.34
251.388	1.25
251.769	2
252.151	2.69
252.532	2.82
252.913	0.97
253.295	2
253.676	3.15
254.057	3.02
254.438	2.67
254.819	2.13
255.2	1.7
255.581	1.67
255.962	2.32
256.343	2.88
256.724	1.85
257.105	2.18
257.486	1.82
257.867	3.32
258.247	2.49
258.628	1.59
259.009	2.96
259.389	2.68
259.77	2.16
260.15	2.08
260.531	1.72
260.911	3.34
261.292	2.8
261.672	2.75
262.052	2.69
262.432	2.97
262.813	2.82
263.193	2.27
263.573	2.24
263.953	2.12
264.333	3.08
264.713	2.75
265.093	2.29
265.473	2.56
265.853	1.41
266.233	2.55
266.612	1.62
266.992	1.26
267.372	2.67
267.752	2.12
268.131	2.36
268.511	3.36
268.89	2.82
269.27	2.27
269.649	2.23
270.029	2.1
270.408	3.27
270.787	2.72
271.167	2.47
271.546	3.08
271.925	2.14
272.304	2.68
272.683	2.94
273.062	2.31
273.441	2.42
273.82	1.75
274.199	2.5
274.578	2.71
274.957	2.54
275.336	2.73
275.715	2.6
276.093	2.19
276.472	2.64
276.851	2.21
277.229	1.52
277.608	2.37
277.986	2.51
278.365	2.97
278.743	1.74
279.122	2.66
279.5	2.92
279.878	2.63
280.257	2.68
280.635	1.65
281.013	2.7
281.391	2.5
281.769	2.15
282.147	2.58
282.525	3.41
282.903	2.16
283.281	2.75
283.659	2.31
284.037	2.37
284.415	2.93
284.792	3.06
285.17	1.8
285.548	1.88
285.925	2.75
286.303	2.53
286.68	2.32
287.058	2.72
287.435	2.42
287.813	2.56
288.19	2.44
288.567	2.27
288.945	3.02
289.322	2.61
289.699	2.83
290.076	2.86
290.453	2.49
290.83	2.03
291.207	2.47
291.584	2.84
291.961	2.66
292.338	2.35
292.715	3.15
293.092	2.64
293.469	2.75
293.845	2.84
294.222	2.18
294.599	2.65
294.975	2.69
295.352	3.02
295.728	2.5
296.105	3.01
296.481	3.09
296.858	2.62
297.234	2.57
297.61	3.16
297.986	2.83
298.363	3.35
298.739	3.22
299.115	2.78
299.491	2.66
299.867	3.09
300.243	3.08
300.619	2.73
300.995	2.69
301.371	3.16
301.746	2.63
302.122	3.76
302.498	3.03
302.874	3.02
303.249	2.66
303.625	3.51
304	3.57
304.376	3.22
304.751	2.24
305.127	3.9
305.502	1.98
305.878	2.84
306.253	2.83
306.628	3.75
307.003	3.14
307.378	3.48
307.754	3.58
308.129	2.54
308.504	3.19
308.879	2.91
309.254	4.24
309.629	2.74
310.003	3.9
310.378	3.65
310.753	3.73
311.128	3.18
311.502	3.59
311.877	3.57
312.252	3.11
312.626	3.65
313.001	3.1
313.375	3.74
313.75	2.96
314.124	3.59
314.498	3.22
314.873	3.19
315.247	2.84
315.621	3.15
315.995	2.73
316.369	3.58
316.743	3.51
317.117	3.53
317.491	3.43
317.865	3.06
318.239	3.54
318.613	4.14
318.987	3.62
319.361	3.42
319.734	4.03
320.108	3.39
320.482	2.85
320.855	3.82
321.229	3.89
321.602	3.57
321.976	3.02
322.349	3.41
322.723	3.92
323.096	3.68
323.469	2.9
323.843	3.78
324.216	4.26
324.589	3.48
324.962	3.77
325.335	3.29
325.708	3.55
326.081	3.56
326.454	3.91
326.827	3.37
327.2	3.4
327.573	3.37
327.945	3.39
328.318	3.47
328.691	2.76
329.063	3.81
329.436	3.37
329.809	4
330.181	3.35
330.553	3.75
330.926	3.47
331.298	4.04
331.671	3.31
332.043	3.64
332.415	4.11
332.787	4.03
333.159	4.21
333.532	3.52
333.904	3.93
334.276	3.98
334.648	3.95
335.02	3.76
335.391	3.96
335.763	3.7
336.135	3.68
336.507	4.25
336.879	3.82
337.25	3.57
337.622	3.47
337.993	3.25
338.365	4.01
338.736	3.73
339.108	3.9
339.479	3.41
339.851	3.54
340.222	3.51
340.593	3.66
340.964	3.75
341.336	4.85
341.707	3.38
342.078	4.27
342.449	3.98
342.82	3.41
343.191	3.88
343.562	4.08
343.933	4.38
344.303	3.86
344.674	3.57
345.045	3.89
345.416	4.04
345.786	3.18
346.157	3.89
346.527	3.48
346.898	3.47
347.268	3.77
347.639	3.8
348.009	3.94
348.38	3.42
348.75	3.79
349.12	3.67
349.49	3.99
349.861	3.62
350.231	3.72
350.601	3.98
350.971	4.03
351.341	3.78
351.711	3.93
352.081	3.84
352.45	3.47
352.82	3.95
353.19	3.55
353.56	3.58
353.929	4.45
354.299	4.06
354.669	3.58
355.038	4.58
355.408	3.79
355.777	3.9
356.147	3.94
356.516	3.69
356.885	3.9
357.254	3.89
357.624	4.24
357.993	3.98
358.362	3.33
358.731	3.92
359.1	3.62
359.469	4.17
359.838	4.07
360.207	3.79
360.576	3.68
360.945	3.84
361.314	4.36
361.682	3.7
362.051	3.55
362.42	4.33
362.788	4.07
363.157	4.16
363.525	4.33
363.894	4.07
364.262	3.97
364.631	4.13
364.999	3.97
365.367	3.73
365.735	4.47
366.104	4.1
366.472	4.27
366.84	3.64
367.208	3.91
367.576	3.99
367.944	4.08
368.312	3.79
368.68	3.85
369.048	4.01
369.416	4.22
369.783	3.99
370.151	4.02
370.519	4.18
370.886	4.18
371.254	4.08
371.621	4.64
371.989	3.83
372.356	3.71
372.724	4.34
373.091	4.03
373.458	3.91
373.826	4.03
374.193	4.1
374.56	4.49
374.927	3.72
375.294	4.14
375.661	3.95
376.028	3.61
376.395	3.71
376.762	4.18
377.129	4.05
377.496	4.27
377.863	4
378.229	4.03
378.596	4.04
378.963	4.26
379.329	4.07
379.696	4.25
380.062	4.37
380.429	4.21
380.795	3.92
381.161	4.25
381.528	4.51
381.894	4.13
382.26	4.06
382.626	4.47
382.993	3.78
383.359	4.59
383.725	3.97
384.091	4.26
384.457	4.23
384.823	3.97
385.188	4.41
385.554	3.98
385.92	4.39
386.286	4.39
386.651	4.38
387.017	4.33
387.383	4.43
387.748	4.1
388.114	4.46
388.479	4.29
388.845	4.55
389.21	4.56
389.575	4.32
389.94	4.42
390.306	4.19
390.671	4.58
391.036	4.09
391.401	3.94
391.766	4.55
392.131	4.17
392.496	4.44
392.861	3.88
393.226	4.33
393.591	4.37
393.956	4.11
394.32	4.44
394.685	4.06
395.05	4.26
395.414	4.48
395.779	4.13
396.143	4.24
396.508	4.32
396.872	4.52
397.236	4.57
397.601	4.43
397.965	4.34
398.329	4.33
398.694	4.4
399.058	4.53
399.422	4.41
399.786	4.48
400.15	4.41
400.514	4.23
400.878	4.84
401.242	4.52
401.605	4.39
401.969	4.42
402.333	4.61
402.697	4.38
403.06	4.39
403.424	4.65
403.787	4.46
404.151	4.58
404.514	4.34
404.878	4.13
405.241	4.59
405.604	4.39
405.968	4.4
406.331	4.52
406.694	4.77
407.057	4.56
407.42	4.47
407.783	4.4
408.146	4.69
408.509	4.4
408.872	4.49
409.235	4.3
409.598	4.75
409.961	4.64
410.323	4.63
410.686	4.42
411.049	4.48
411.411	4.71
411.774	4.55
412.136	4.71
412.499	4.38
412.861	4.56
413.223	4.42
413.586	4.71
413.948	4.53
414.31	4.74
414.672	4.53
415.035	4.33
415.397	4.68
415.759	4.65
416.121	4.62
416.483	4.76
416.845	4.57
417.206	4.64
417.568	4.52
417.93	4.24
418.292	4.72
418.653	4.68
419.015	4.7
419.377	4.5
419.738	4.85
420.1	4.63
420.461	4.7
420.822	4.79
421.184	4.54
421.545	4.67
421.906	4.55
422.267	4.7
422.629	4.62
422.99	4.62
423.351	4.64
423.712	4.68
424.073	4.62
424.434	4.7
424.795	4.54
425.155	4.7
425.516	4.64
425.877	4.6
426.238	4.57
426.598	4.72
426.959	4.76
427.32	4.76
427.68	4.6
428.041	4.74
428.401	4.81
428.761	4.73
429.122	4.84
429.482	4.75
429.842	4.81
430.202	4.71
430.563	4.74
430.923	4.75
431.283	5.07
431.643	4.81
432.003	4.81
432.363	4.69
432.722	4.91
433.082	4.98
433.442	4.92
433.802	4.58
434.161	4.77
434.521	5.13
434.881	4.99
435.24	4.61
435.6	4.92
435.959	4.87
436.319	4.95
436.678	4.74
437.037	5
437.396	5.01
437.756	4.92
438.115	4.95
438.474	5.08
438.833	4.82
439.192	4.89
439.551	4.99
439.91	4.83
440.269	4.98
440.628	4.95
440.987	4.92
441.345	4.86
441.704	5.04
442.063	4.93
442.421	4.98
442.78	4.85
443.138	4.93
443.497	4.85
443.855	4.94
444.214	5.06
444.572	5.18
444.93	5.11
445.288	5.04
445.647	5.08
446.005	4.83
446.363	5.13
446.721	5.14
447.079	4.96
447.437	4.95
447.795	5.08
448.153	5.04
448.51	4.93
448.868	5.04
449.226	5.03
449.584	4.93
449.941	5.08
450.299	5
450.656	5.12
451.014	5.1
451.371	4.98
451.729	5.07
452.086	5.32
452.443	5.07
452.801	5.33
453.158	5.13
453.515	5.15
453.872	5.28
454.229	5.09
454.586	5.18
454.943	5.18
455.3	5.15
455.657	5.13
456.014	5.21
456.371	5.3
456.727	5.09
457.084	5.47
457.441	5.33
457.797	5.27
458.154	5.46
458.51	5.34
458.867	5.27
459.223	5.22
459.58	5.29
459.936	5.54
460.292	5.36
460.648	5.29
461.005	5.22
461.361	5.26
461.717	5.22
462.073	5.16
462.429	5.32
462.785	5.32
463.141	5.34
463.496	5.31
463.852	5.46
464.208	5.3
464.564	5.43
464.919	5.37
465.275	5.43
465.631	5.58
465.986	5.51
466.342	5.25
466.697	5.39
467.052	5.29
467.408	5.43
467.763	5.37
468.118	5.44
468.473	5.48
468.829	5.48
469.184	5.39
469.539	5.41
469.894	5.41
470.249	5.62
470.603	5.55
470.958	5.38
471.313	5.65
471.668	5.64
472.023	5.48
472.377	5.49
472.732	5.44
473.086	5.42
473.441	5.41
473.795	5.66
474.15	5.53
474.504	5.57
474.859	5.49
475.213	5.53
475.567	5.53
475.921	5.46
476.275	5.71
476.63	5.71
476.984	5.65
477.338	5.88
477.692	5.46
478.045	5.57
478.399	5.48
478.753	5.78
479.107	5.7
479.461	5.66
479.814	5.72
480.168	5.72
480.521	5.66
480.875	5.54
481.228	5.7
481.582	5.66
481.935	5.68
482.289	5.72
482.642	5.66
482.995	5.62
483.348	5.61
483.701	5.67
484.055	5.71
484.408	5.72
484.761	5.44
485.114	5.51
485.466	5.4
485.819	5.39
486.172	5.41
486.525	5.47
486.878	5.5
487.23	5.6
487.583	5.61
487.936	5.69
488.288	5.7
488.641	5.64
488.993	5.59
489.345	5.51
489.698	5.51
490.05	5.55
490.402	5.68
490.754	5.64
491.107	5.74
491.459	5.8
491.811	5.84
492.163	5.84
492.515	5.7
492.866	5.86
493.218	5.74
493.57	5.67
493.922	5.63
494.274	5.82
494.625	5.87
494.977	5.93
495.328	5.96
495.68	5.91
496.031	6.1
496.383	5.94
496.734	6.04
497.086	6.12
497.437	6.05
497.788	6.08
498.139	5.97
498.49	6.15
498.842	5.88
499.193	6.07
499.544	5.96
499.894	6.13
500.245	6.1
500.596	6.11
500.947	6.24
501.298	5.98
501.648	6.17
501.999	6.24
502.35	6.06
502.7	6.11
503.051	6.15
503.401	6.15
503.752	6.43
504.102	6.18
504.452	6.27
504.803	6.22
505.153	6.24
505.503	6.23
505.853	6.21
506.203	6.13
506.553	6.26
506.903	6.29
507.253	6.33
507.603	6.11
507.953	6.45
508.303	6.38
508.652	6.27
509.002	6.49
509.352	6.37
509.701	6.27
510.051	6.31
510.4	6.34
510.75	6.37
511.099	6.32
511.449	6.26
511.798	6.29
512.147	6.34
512.496	6.17
512.846	6.51
513.195	6.35
513.544	6.26
513.893	6.49
514.242	6.37
514.591	6.54
514.939	6.46
515.288	6.31
515.637	6.51
515.986	6.65
516.334	6.51
516.683	6.46
517.032	6.61
517.38	6.59
517.729	6.62
518.077	6.51
518.426	6.7
518.774	6.66
519.122	6.47
519.47	6.57
519.819	6.51
520.167	6.5
520.515	6.54
520.863	6.6
521.211	6.53
521.559	6.7
521.907	6.52
522.255	6.63
522.602	6.62
522.95	6.64
523.298	6.75
523.645	6.73
523.993	6.74
524.341	6.8
524.688	6.77
525.036	6.68
525.383	6.76
525.73	6.94
526.078	6.91
526.425	6.72
526.772	6.83
527.119	6.73
527.466	6.72
527.814	6.71
528.161	6.7
528.508	6.77
528.854	6.7
529.201	6.69
529.548	6.65
529.895	6.74
530.242	6.5
530.588	6.52
530.935	6.6
531.282	6.72
531.628	6.7
531.975	6.77
532.321	6.82
532.667	6.96
533.014	6.88
533.36	7
533.706	6.9
534.052	6.94
534.399	6.87
534.745	6.78
535.091	6.83
535.437	6.92
535.783	6.98
536.129	6.96
536.474	7.11
536.82	7.09
537.166	7.2
537.512	7.26
537.857	7.22
538.203	7.17
538.549	7.08
538.894	7.1
539.239	7.21
539.585	7.18
539.93	7.05
540.276	7.32
540.621	7.32
540.966	7.31
541.311	7.41
541.656	7.3
542.001	7.23
542.346	7.41
542.691	7.18
543.036	7.13
543.381	7.11
543.726	7.12
544.071	7.2
544.415	7.32
544.76	7.22
545.105	7.38
545.449	7.39
545.794	7.45
546.138	7.43
546.483	7.48
546.827	7.49
547.171	7.44
547.516	7.7
547.86	7.55
548.204	7.48
548.548	7.51
548.892	7.66
549.236	7.58
549.58	7.49
549.924	7.7
550.268	7.72
550.612	7.83
550.956	7.87
551.3	7.77
551.643	8.07
551.987	7.99
552.33	7.71
552.674	7.95
553.017	7.82
553.361	7.78
553.704	8.07
554.048	7.76
554.391	7.91
554.734	7.89
555.077	7.88
555.42	7.87
555.764	7.92
556.107	7.9
556.45	7.76
556.793	8.09
557.135	8.04
557.478	8.07
557.821	8.22
558.164	7.88
558.507	8.22
558.849	8.11
559.192	8.3
559.534	8.24
559.877	8.13
560.219	8.13
560.562	8.6
560.904	8.29
561.246	8.25
561.589	8.29
561.931	8.3
562.273	8.16
562.615	8.32
562.957	8.35
563.299	8.15
563.641	8.39
563.983	8.44
564.325	8.3
564.667	8.48
565.008	8.23
565.35	8.34
565.692	8.15
566.033	8.66
566.375	8.49
566.716	8.52
567.058	8.5
567.399	8.48
567.741	8.54
568.082	8.45
568.423	8.4
568.764	8.5
569.105	8.59
569.447	8.73
569.788	8.74
570.129	8.9
570.47	8.8
570.811	8.71
571.151	8.69
571.492	8.75
571.833	8.9
572.174	8.91
572.514	8.79
572.855	8.72
573.195	8.92
573.536	8.81
573.876	8.57
574.217	8.74
574.557	8.95
574.898	9.13
575.238	8.99
575.578	8.88
575.918	9.37
576.258	9.26
576.598	9.05
576.938	9.02
577.278	9.02
577.618	9.03
577.958	9
578.298	9.21
578.638	8.99
578.977	9.24
579.317	9.16
579.657	9.32
579.996	9.39
580.336	9.32
580.675	9.22
581.014	9.15
581.354	9.46
581.693	9.35
582.032	9.31
582.372	9.26
582.711	9.16
583.05	9.24
583.389	9.29
583.728	9.25
584.067	9.56
584.406	9.57
584.745	9.66
585.083	9.58
585.422	9.52
585.761	9.81
586.1	9.56
586.438	9.42
586.777	10
587.115	9.64
587.454	9.7
587.792	9.49
588.13	9.81
588.469	9.73
588.807	9.7
589.145	9.75
589.483	9.9
589.821	9.76
590.159	9.89
590.497	9.97
590.835	10.1
591.173	10.1
591.511	9.96
591.849	9.91
592.187	10.12
592.524	9.88
592.862	10.37
593.2	10.13
593.537	10.03
593.875	10.2
594.212	9.84
594.55	10.18
594.887	10.5
595.224	10.16
595.561	10.29
595.899	10.29
596.236	10.36
596.573	10.62
596.91	9.94
597.247	10.24
597.584	10.55
597.921	10.36
598.258	10.13
598.594	10.18
598.931	10.31
599.268	10.21
599.604	10.45
599.941	10.54
600.277	10.53
600.614	10.41
600.95	10.38
601.287	10.8
601.623	10.41
601.959	10.39
602.296	10.72
602.632	10.69
602.968	10.82
603.304	10.67
603.64	10.85
603.976	10.56
604.312	10.51
604.648	10.45
604.984	10.94
605.319	10.79
605.655	10.74
605.991	11.04
606.326	10.84
606.662	10.85
606.998	10.71
607.333	10.9
607.668	10.96
608.004	10.74
608.339	10.98
608.674	11.11
609.01	10.86
609.345	10.93
609.68	11.07
610.015	10.89
610.35	11.24
610.685	11.05
611.02	11.09
611.355	11.39
611.689	10.98
612.024	11.28
612.359	11.19
612.694	11.25
613.028	11.11
613.363	11.32
613.697	11.38
614.032	11.55
614.366	11.5
614.7	11.56
615.035	11.39
615.369	11.5
615.703	11.47
616.037	11.79
616.371	11.4
616.705	11.39
617.039	11.84
617.373	11.22
617.707	11.82
618.041	11.52
618.375	12.13
618.709	11.9
619.042	11.8
619.376	11.71
619.71	11.71
620.043	12.03
620.377	11.88
620.71	11.78
621.043	11.85
621.377	11.76
621.71	11.69
622.043	11.68
622.376	11.82
622.709	12.25
623.043	11.94
623.376	12.17
623.709	12.4
624.041	12.75
624.374	12.32
624.707	11.82
625.04	12.18
625.373	11.81
625.705	12.41
626.038	12.22
626.37	12.31
626.703	12
627.035	12.24
627.368	12.55
627.7	12.07
628.032	12.15
628.365	12.76
628.697	12.44
629.029	12.64
629.361	12.47
629.693	12.46
630.025	12.24
630.357	12.88
630.689	12.8
631.021	12.61
631.353	12.62
631.684	12.6
632.016	12.61
632.348	12.87
632.679	12.71
633.011	12.91
633.342	12.93
633.674	13.01
634.005	13.23
634.336	12.55
634.668	13.55
634.999	12.79
635.33	13.12
635.661	12.7
635.992	13.06
636.323	13.27
636.654	13.28
636.985	13.31
637.316	12.94
637.647	12.64
637.977	13.43
638.308	13.39
638.639	12.93
638.969	13.35
639.3	13.15
639.63	13.41
639.961	12.81
640.291	13.42
640.622	13.67
640.952	13.34
641.282	13.25
641.612	13.11
641.943	12.94
642.273	13.28
642.603	13.87
642.933	13.37
643.263	13.51
643.592	13.45
643.922	13.23
644.252	13.19
644.582	13.73
644.911	12.86
645.241	13.72
645.571	13.4
645.9	13.26
646.23	13.26
646.559	14.12
646.888	13.44
647.218	13.75
647.547	13.69
647.876	13.66
648.205	13.87
648.534	13.64
648.863	13.38
649.192	13.87
649.521	13.93
649.85	13.49
650.179	13.92
650.508	13.69
650.837	13.67
651.165	14.16
651.494	13.85
651.822	13.42
652.151	13.84
652.479	14.16
652.808	13.73
653.136	14.22
653.465	13.58
653.793	13.94
654.121	13.93
654.449	14.04
654.777	14.8
655.105	14.24
655.433	13.87
655.761	14.07
656.089	14.42
656.417	14.7
656.745	14.3
657.073	13.82
657.4	14.86
657.728	14.59
658.056	14.53
658.383	14.27
658.711	14.78
659.038	14.9
659.365	15.06
659.693	14.65
660.02	14.87
660.347	14.45
660.674	14.75
661.001	15.02
661.329	14.6
661.656	15.08
661.982	14.99
662.309	14.89
662.636	14.32
662.963	15.13
663.29	15.34
663.616	15.43
663.943	14.6
664.27	15.16
664.596	15.14
664.923	15.19
665.249	14.93
665.576	15.23
665.902	15.69
666.228	15.62
666.554	15.48
666.881	14.71
667.207	14.77
667.533	15.49
667.859	15.32
668.185	15.68
668.511	14.97
668.837	14.69
669.162	15.2
669.488	15.08
669.814	15.75
670.139	15.5
670.465	15.7
670.791	15.84
671.116	15.98
671.442	15.31
671.767	15.51
672.092	15.86
672.418	16.28
672.743	15.78
673.068	15.3
673.393	15.3
673.718	15.66
674.043	15.84
674.368	15.52
674.693	16.54
675.018	16.21
675.343	15.76
675.667	15.85
675.992	16.06
676.317	16.15
676.641	15.6
676.966	15.76
677.29	15.2
677.615	16.54
677.939	15.69
678.264	16.83
678.588	15.81
678.912	16.19
679.236	16.53
679.56	16.13
679.885	17.18
680.209	15.58
680.532	16.27
680.856	16.4
681.18	16.11
681.504	16.56
681.828	17.11
682.152	16.74
682.475	16.11
682.799	16.49
683.122	16.53
683.446	16.72
683.769	17.02
684.093	16.96
684.416	16.68
684.739	16.68
685.062	16.31
685.386	17.33
