Data from 0193_chest_Reflection__5__396.txt Node

Date: Fri Dec 15 20:20:56 CST 2023
User: ToomeyLab
Spectrometer: FLMS14357
Trigger mode: 0
Integration Time (sec): 1.000000E-2
Scans to average: 100
Electric dark correction enabled: true
Nonlinearity correction enabled: false
Boxcar width: 0
XAxis mode: Wavelengths
Number of Pixels in Spectrum: 2048
>>>>>Begin Spectral Data<<<<<
189.047	-647.03
189.435	-647.03
189.823	-647.03
190.211	38.8
190.599	-1069.9
190.987	144.17
191.375	-448.37
191.763	-91.81
192.151	154.54
192.538	75.29
192.926	-117.53
193.314	246.75
193.702	-424.96
194.089	428.36
194.477	92.28
194.864	-41.88
195.252	91.5
195.639	102.56
196.027	146.4
196.414	90.45
196.801	309.24
197.189	139.06
197.576	-818.23
197.963	744.22
198.351	-99.19
198.738	14.77
199.125	23.45
199.512	-88.34
199.899	14.05
200.286	19.93
200.673	26.79
201.06	-1.65
201.447	13.05
201.833	39.24
202.22	31.14
202.607	41.64
202.994	-22.36
203.38	24.9
203.767	-19.11
204.154	-2.67
204.54	-4.76
204.927	-125.02
205.313	-49.47
205.699	37.15
206.086	13.97
206.472	21.18
206.858	-8.43
207.245	-5.8
207.631	12.7
208.017	8.39
208.403	3.31
208.789	-4.21
209.175	35.67
209.561	-18.42
209.947	-21.79
210.333	-7.87
210.719	-23.38
211.105	40.65
211.491	-94.79
211.876	9.9
212.262	7.67
212.648	0.01
213.034	33.62
213.419	-78.52
213.805	-13.11
214.19	-51.93
214.576	0.64
214.961	-90.38
215.346	-111.23
215.732	-51.79
216.117	-21.34
216.502	-42.88
216.888	-14.06
217.273	-22.27
217.658	-11.02
218.043	26.63
218.428	-99.15
218.813	-78.67
219.198	-39.58
219.583	17.46
219.968	11.79
220.353	-25.58
220.738	22.24
221.122	-19.16
221.507	-14.81
221.892	-22.07
222.276	-18.2
222.661	-7.89
223.046	27.74
223.43	11.77
223.815	9.16
224.199	-14
224.583	-1.09
224.968	10.96
225.352	1.73
225.736	-4.5
226.121	-18.95
226.505	-2.57
226.889	7.94
227.273	-2.82
227.657	3.97
228.041	-0.61
228.425	0.96
228.809	6.59
229.193	6.15
229.577	0.15
229.961	2.85
230.344	1.3
230.728	1.56
231.112	2.44
231.495	2.65
231.879	1.69
232.263	2.97
232.646	3.22
233.03	2.41
233.413	1.87
233.797	2.53
234.18	0.55
234.563	3.7
234.946	2.7
235.33	1.45
235.713	3.2
236.096	2.32
236.479	3.11
236.862	1.07
237.245	4.15
237.628	3.61
238.011	2.59
238.394	2.88
238.777	3.33
239.16	0.31
239.543	1.4
239.925	4.91
240.308	1.65
240.691	3.44
241.073	4.84
241.456	2.14
241.838	3.1
242.221	1.07
242.603	2.06
242.986	3.08
243.368	3.28
243.75	2.96
244.133	2.41
244.515	2.89
244.897	2.33
245.279	2.59
245.661	2.18
246.043	1.05
246.425	1.68
246.807	2.21
247.189	2.7
247.571	3.11
247.953	2.59
248.335	3.03
248.717	2.99
249.098	2.5
249.48	2.66
249.862	2.73
250.243	2.2
250.625	2.68
251.006	2.64
251.388	1.86
251.769	1.86
252.151	2.94
252.532	2.06
252.913	2.9
253.295	2.19
253.676	1.85
254.057	2.78
254.438	2.58
254.819	2.65
255.2	2.34
255.581	1.85
255.962	2.13
256.343	1.45
256.724	1.09
257.105	2.17
257.486	1.55
257.867	1.76
258.247	0.93
258.628	1.99
259.009	2.24
259.389	2.78
259.77	1.67
260.15	2
260.531	2.55
260.911	2.76
261.292	2.52
261.672	2.63
262.052	2.62
262.432	2.85
262.813	2.61
263.193	2.92
263.573	2.42
263.953	1.85
264.333	2.4
264.713	2.29
265.093	1.79
265.473	2.02
265.853	1.54
266.233	1.91
266.612	1.21
266.992	0.39
267.372	2.5
267.752	1.97
268.131	2.44
268.511	2.93
268.89	2.26
269.27	1.46
269.649	1.86
270.029	2.17
270.408	3.11
270.787	2.41
271.167	2.38
271.546	2.69
271.925	1.23
272.304	1.7
272.683	2.3
273.062	1.9
273.441	2.26
273.82	2.07
274.199	2.54
274.578	2.22
274.957	2.25
275.336	2.81
275.715	2.05
276.093	2.22
276.472	1.97
276.851	1.52
277.229	2.16
277.608	1.81
277.986	1.83
278.365	2.61
278.743	1.57
279.122	2.28
279.5	2.14
279.878	2.49
280.257	2.39
280.635	1.54
281.013	1.99
281.391	2.63
281.769	2.08
282.147	3.08
282.525	3.11
282.903	2.18
283.281	2.2
283.659	2.55
284.037	2.14
284.415	2.53
284.792	2.64
285.17	1.65
285.548	1.75
285.925	2
286.303	2.95
286.68	2.11
287.058	2.3
287.435	2.64
287.813	2.48
288.19	2.57
288.567	1.78
288.945	2.49
289.322	2.25
289.699	2.12
290.076	1.76
290.453	2.47
290.83	2.4
291.207	1.89
291.584	2.54
291.961	2.79
292.338	2.48
292.715	2.82
293.092	2.38
293.469	2.75
293.845	2.83
294.222	2.16
294.599	2.25
294.975	2.4
295.352	2.09
295.728	2.03
296.105	2.34
296.481	3.01
296.858	2.73
297.234	2.63
297.61	2.67
297.986	2.92
298.363	3.06
298.739	2.79
299.115	2.55
299.491	2.84
299.867	2.77
300.243	2.71
300.619	2.66
300.995	2.48
301.371	2.87
301.746	2.58
302.122	2.78
302.498	2.78
302.874	2.86
303.249	2.7
303.625	2.95
304	2.73
304.376	2.92
304.751	2.08
305.127	3.49
305.502	2.54
305.878	2.11
306.253	2.83
306.628	2.98
307.003	2.78
307.378	3.08
307.754	2.77
308.129	1.78
308.504	3.18
308.879	2.84
309.254	3.61
309.629	3.52
310.003	3.16
310.378	3.22
310.753	3.43
311.128	2.88
311.502	3
311.877	3.68
312.252	2.71
312.626	3.34
313.001	2.85
313.375	3.42
313.75	2.57
314.124	3.04
314.498	2.69
314.873	2.86
315.247	2.94
315.621	3.29
315.995	2.9
316.369	3.16
316.743	2.57
317.117	3
317.491	3.01
317.865	2.7
318.239	3.28
318.613	3.5
318.987	3.49
319.361	2.38
319.734	2.99
320.108	3.49
320.482	2.86
320.855	3.47
321.229	3.36
321.602	2.88
321.976	3.02
322.349	2.87
322.723	2.69
323.096	3.22
323.469	2.72
323.843	3.15
324.216	3.63
324.589	3.08
324.962	3.15
325.335	2.93
325.708	2.71
326.081	3.5
326.454	2.95
326.827	3.35
327.2	3.21
327.573	3.63
327.945	2.99
328.318	3.13
328.691	2.7
329.063	3.2
329.436	2.76
329.809	3.8
330.181	2.55
330.553	3.06
330.926	3.53
331.298	3.62
331.671	3.41
332.043	3.82
332.415	3.64
332.787	3.22
333.159	3.76
333.532	3.81
333.904	3.29
334.276	3.52
334.648	3.33
335.02	3.94
335.391	3.42
335.763	3.33
336.135	3.04
336.507	3.49
336.879	3.58
337.25	3.13
337.622	3.08
337.993	3.59
338.365	3.47
338.736	3.67
339.108	3.54
339.479	3.08
339.851	3.91
340.222	3.55
340.593	3.62
340.964	3.85
341.336	4.38
341.707	3.13
342.078	4.05
342.449	3.9
342.82	3.43
343.191	3.77
343.562	3.58
343.933	3.41
344.303	3.76
344.674	3.75
345.045	3.35
345.416	3.75
345.786	3.7
346.157	3.74
346.527	3.1
346.898	3.05
347.268	3.83
347.639	3.52
348.009	3.64
348.38	3.59
348.75	3.38
349.12	3.51
349.49	4.27
349.861	3.56
350.231	3.31
350.601	3.58
350.971	3.95
351.341	4.09
351.711	3.82
352.081	3.8
352.45	3.35
352.82	3.62
353.19	3.66
353.56	3.82
353.929	3.57
354.299	3.19
354.669	3.5
355.038	3.59
355.408	3.76
355.777	3.73
356.147	3.47
356.516	3.92
356.885	3.75
357.254	3.27
357.624	3.89
357.993	3.45
358.362	3.65
358.731	3.35
359.1	4
359.469	3.92
359.838	3.48
360.207	3.74
360.576	3.63
360.945	3.92
361.314	4.17
361.682	3.62
362.051	3.27
362.42	3.94
362.788	3.55
363.157	3.77
363.525	4.09
363.894	3.69
364.262	3.93
364.631	3.66
364.999	4.15
365.367	3.37
365.735	4.76
366.104	3.96
366.472	3.76
366.84	3.69
367.208	3.93
367.576	4.22
367.944	4.07
368.312	3.63
368.68	3.55
369.048	3.85
369.416	3.79
369.783	3.71
370.151	3.87
370.519	4.41
370.886	4
371.254	3.6
371.621	3.63
371.989	4.04
372.356	3.41
372.724	3.93
373.091	3.61
373.458	3.87
373.826	3.87
374.193	3.57
374.56	3.97
374.927	3.72
375.294	4.1
375.661	3.48
376.028	3.47
376.395	3.41
376.762	4.03
377.129	3.87
377.496	3.84
377.863	4.15
378.229	3.57
378.596	3.98
378.963	4.19
379.329	3.59
379.696	3.93
380.062	3.91
380.429	3.98
380.795	3.76
381.161	3.92
381.528	4.03
381.894	4.15
382.26	3.72
382.626	4.03
382.993	3.42
383.359	4.57
383.725	3.57
384.091	3.86
384.457	4.41
384.823	3.82
385.188	3.79
385.554	4.09
385.92	4.12
386.286	4.5
386.651	4.15
387.017	4.28
387.383	3.86
387.748	3.96
388.114	4.24
388.479	3.9
388.845	4.3
389.21	4.21
389.575	4.46
389.94	4.11
390.306	4.12
390.671	4.64
391.036	3.82
391.401	3.89
391.766	3.98
392.131	4.29
392.496	3.88
392.861	3.82
393.226	4.2
393.591	4.24
393.956	4.08
394.32	4.17
394.685	3.55
395.05	3.99
395.414	4.04
395.779	3.88
396.143	4.04
396.508	4.24
396.872	4.17
397.236	4.4
397.601	4.02
397.965	4.19
398.329	4.18
398.694	4.14
399.058	4.08
399.422	4.05
399.786	4.42
400.15	4.14
400.514	4.24
400.878	4.38
401.242	4.43
401.605	4.11
401.969	4.11
402.333	4.36
402.697	4.17
403.06	4.52
403.424	4.25
403.787	4.05
404.151	4.63
404.514	4.19
404.878	4.39
405.241	4.45
405.604	4.24
405.968	4.5
406.331	4.1
406.694	4.65
407.057	4.4
407.42	4.43
407.783	4.33
408.146	4.39
408.509	4.32
408.872	4.27
409.235	4.23
409.598	4.68
409.961	4.22
410.323	4.55
410.686	4.39
411.049	4.26
411.411	4.36
411.774	4.46
412.136	4.42
412.499	4.24
412.861	4.35
413.223	4.52
413.586	4.46
413.948	4.31
414.31	4.39
414.672	4.45
415.035	4.24
415.397	4.82
415.759	4.28
416.121	4.64
416.483	4.13
416.845	4.29
417.206	4.1
417.568	4.73
417.93	4.34
418.292	4.23
418.653	4.49
419.015	4.33
419.377	4.37
419.738	4.42
420.1	4.18
420.461	4.49
420.822	4.53
421.184	4.47
421.545	4.46
421.906	4.39
422.267	4.31
422.629	4.37
422.99	4.35
423.351	4.24
423.712	4.47
424.073	4.53
424.434	4.31
424.795	4.51
425.155	4.5
425.516	4.34
425.877	4.54
426.238	4.39
426.598	4.5
426.959	4.49
427.32	4.38
427.68	4.48
428.041	4.48
428.401	4.57
428.761	4.5
429.122	4.63
429.482	4.48
429.842	4.78
430.202	4.66
430.563	4.67
430.923	4.38
431.283	4.7
431.643	4.52
432.003	4.66
432.363	4.54
432.722	4.62
433.082	4.8
433.442	4.61
433.802	4.35
434.161	4.64
434.521	4.75
434.881	4.65
435.24	4.49
435.6	4.68
435.959	4.58
436.319	4.53
436.678	4.6
437.037	4.58
437.396	4.78
437.756	4.86
438.115	4.68
438.474	4.84
438.833	4.68
439.192	4.67
439.551	4.83
439.91	4.83
440.269	4.81
440.628	4.65
440.987	4.69
441.345	4.58
441.704	4.72
442.063	4.62
442.421	4.69
442.78	4.63
443.138	4.77
443.497	4.66
443.855	4.74
444.214	4.75
444.572	4.89
444.93	4.76
445.288	4.76
445.647	4.83
446.005	4.68
446.363	4.83
446.721	4.94
447.079	4.71
447.437	4.71
447.795	4.83
448.153	4.72
448.51	4.7
448.868	4.84
449.226	4.71
449.584	4.88
449.941	4.93
450.299	4.89
450.656	4.93
451.014	4.93
451.371	4.71
451.729	4.83
452.086	5.09
452.443	4.83
452.801	5.05
453.158	5.02
453.515	4.91
453.872	5.14
454.229	4.8
454.586	4.7
454.943	4.81
455.3	4.93
455.657	4.82
456.014	4.9
456.371	4.8
456.727	5
457.084	5.15
457.441	4.91
457.797	4.89
458.154	5.15
458.51	5
458.867	5.18
459.223	5.08
459.58	5.17
459.936	5.14
460.292	5.02
460.648	5.06
461.005	4.89
461.361	5
461.717	5.02
462.073	4.85
462.429	4.94
462.785	5
463.141	5.02
463.496	5.08
463.852	5.09
464.208	5.13
464.564	5.26
464.919	5.16
465.275	5.1
465.631	5.22
465.986	5.05
466.342	5.02
466.697	5.16
467.052	5.16
467.408	5.22
467.763	5.13
468.118	5.2
468.473	5.3
468.829	5.18
469.184	5.22
469.539	5.17
469.894	5.06
470.249	5.31
470.603	5.35
470.958	5.25
471.313	5.46
471.668	5.41
472.023	5.31
472.377	5.19
472.732	5.49
473.086	5.13
473.441	5.15
473.795	5.39
474.15	5.2
474.504	5.29
474.859	5.38
475.213	5.23
475.567	5.27
475.921	5.32
476.275	5.34
476.63	5.48
476.984	5.3
477.338	5.45
477.692	5.17
478.045	5.33
478.399	5.35
478.753	5.4
479.107	5.51
479.461	5.39
479.814	5.33
480.168	5.38
480.521	5.39
480.875	5.35
481.228	5.45
481.582	5.5
481.935	5.38
482.289	5.42
482.642	5.39
482.995	5.41
483.348	5.28
483.701	5.41
484.055	5.44
484.408	5.44
484.761	5.28
485.114	5.22
485.466	4.99
485.819	5.01
486.172	5.06
486.525	5.12
486.878	5.23
487.23	5.27
487.583	5.36
487.936	5.43
488.288	5.36
488.641	5.36
488.993	5.25
489.345	5.25
489.698	5.26
490.05	5.23
490.402	5.34
490.754	5.4
491.107	5.49
491.459	5.53
491.811	5.61
492.163	5.5
492.515	5.62
492.866	5.53
493.218	5.43
493.57	5.26
493.922	5.33
494.274	5.54
494.625	5.57
494.977	5.68
495.328	5.63
495.68	5.7
496.031	5.73
496.383	5.69
496.734	5.74
497.086	5.7
497.437	5.91
497.788	5.76
498.139	5.65
498.49	5.81
498.842	5.57
499.193	5.71
499.544	5.77
499.894	5.78
500.245	5.78
500.596	5.69
500.947	5.81
501.298	5.85
501.648	5.82
501.999	6.03
502.35	5.85
502.7	5.72
503.051	5.8
503.401	5.92
503.752	6.01
504.102	5.86
504.452	6.1
504.803	5.92
505.153	5.85
505.503	5.9
505.853	5.9
506.203	5.97
506.553	5.93
506.903	5.89
507.253	5.92
507.603	5.86
507.953	5.92
508.303	6.16
508.652	5.83
509.002	6.02
509.352	6.12
509.701	5.95
510.051	6.06
510.4	5.97
510.75	5.93
511.099	5.89
511.449	6.02
511.798	6.08
512.147	5.84
512.496	6.02
512.846	6.04
513.195	5.97
513.544	6.08
513.893	6.09
514.242	5.95
514.591	6.1
514.939	6.09
515.288	6.07
515.637	6.15
515.986	6.14
516.334	6.21
516.683	6.25
517.032	6.17
517.38	6.26
517.729	6.31
518.077	6.18
518.426	6.34
518.774	6.22
519.122	6.2
519.47	6.26
519.819	5.96
520.167	6.06
520.515	6.1
520.863	6.09
521.211	6.27
521.559	6.26
521.907	6.07
522.255	6.25
522.602	6.34
522.95	6.32
523.298	6.34
523.645	6.34
523.993	6.31
524.341	6.55
524.688	6.36
525.036	6.32
525.383	6.53
525.73	6.5
526.078	6.44
526.425	6.28
526.772	6.44
527.119	6.24
527.466	6.31
527.814	6.36
528.161	6.32
528.508	6.41
528.854	6.38
529.201	6.24
529.548	6.31
529.895	6.27
530.242	6.07
530.588	6.07
530.935	6.17
531.282	6.21
531.628	6.24
531.975	6.37
532.321	6.44
532.667	6.41
533.014	6.65
533.36	6.52
533.706	6.5
534.052	6.47
534.399	6.48
534.745	6.31
535.091	6.38
535.437	6.37
535.783	6.5
536.129	6.54
536.474	6.59
536.82	6.69
537.166	6.69
537.512	6.76
537.857	6.82
538.203	6.64
538.549	6.63
538.894	6.59
539.239	6.75
539.585	6.66
539.93	6.7
540.276	6.88
540.621	6.92
540.966	6.92
541.311	6.83
541.656	6.75
542.001	6.8
542.346	6.82
542.691	6.66
543.036	6.54
543.381	6.52
543.726	6.65
544.071	6.67
544.415	6.86
544.76	6.87
545.105	6.83
545.449	6.85
545.794	6.97
546.138	7.01
546.483	7.03
546.827	7.05
547.171	7
547.516	7.15
547.86	7.01
548.204	6.93
548.548	7.02
548.892	7.1
549.236	7.09
549.58	7.01
549.924	7.22
550.268	7.3
550.612	7.53
550.956	7.36
551.3	7.31
551.643	7.55
551.987	7.55
552.33	7.31
552.674	7.58
553.017	7.44
553.361	7.21
553.704	7.68
554.048	7.48
554.391	7.46
554.734	7.45
555.077	7.49
555.42	7.33
555.764	7.48
556.107	7.55
556.45	7.36
556.793	7.69
557.135	7.63
557.478	7.54
557.821	7.64
558.164	7.65
558.507	7.63
558.849	7.71
559.192	7.76
559.534	7.69
559.877	7.85
560.219	7.57
560.562	7.99
560.904	7.94
561.246	7.6
561.589	7.75
561.931	7.65
562.273	7.77
562.615	7.9
562.957	7.92
563.299	7.78
563.641	7.71
563.983	7.9
564.325	7.8
564.667	7.94
565.008	7.87
565.35	7.98
565.692	7.88
566.033	8
566.375	8.05
566.716	8.22
567.058	8.03
567.399	7.79
567.741	7.97
568.082	7.94
568.423	7.97
568.764	8.1
569.105	8.29
569.447	8.26
569.788	7.99
570.129	8.19
570.47	8
570.811	8.22
571.151	8.28
571.492	8.19
571.833	8.14
572.174	8.21
572.514	8.53
572.855	8.35
573.195	8.12
573.536	8.14
573.876	8.22
574.217	8.24
574.557	8.29
574.898	8.36
575.238	8.4
575.578	8.3
575.918	8.62
576.258	8.6
576.598	8.61
576.938	8.3
577.278	8.46
577.618	8.5
577.958	8.62
578.298	8.66
578.638	8.62
578.977	8.76
579.317	8.69
579.657	8.8
579.996	8.64
580.336	8.81
580.675	8.66
581.014	8.77
581.354	8.8
581.693	8.91
582.032	8.8
582.372	8.9
582.711	8.87
583.05	8.65
583.389	8.78
583.728	8.54
584.067	9.28
584.406	9.12
584.745	9.17
585.083	9
585.422	9.32
585.761	9.27
586.1	9.08
586.438	9.21
586.777	9.27
587.115	9.2
587.454	9.32
587.792	9.02
588.13	9.35
588.469	9.42
588.807	9.15
589.145	9.35
589.483	9.42
589.821	9.33
590.159	9.27
590.497	9.55
590.835	9.49
591.173	9.34
591.511	9.6
591.849	9.23
592.187	9.43
592.524	9.43
592.862	9.48
593.2	9.54
593.537	9.72
593.875	9.46
594.212	9.34
594.55	9.62
594.887	9.7
595.224	9.71
595.561	9.67
595.899	9.68
596.236	9.75
596.573	9.67
596.91	9.46
597.247	9.72
597.584	9.84
597.921	9.79
598.258	9.49
598.594	9.95
598.931	9.72
599.268	9.62
599.604	9.71
599.941	9.92
600.277	9.83
600.614	10.08
600.95	9.92
601.287	10.23
601.623	10.03
601.959	10.09
602.296	10.28
602.632	9.98
602.968	10.23
603.304	10.24
603.64	10.22
603.976	10.19
604.312	10.03
604.648	9.93
604.984	10.51
605.319	10.16
605.655	10.22
605.991	10.55
606.326	10.22
606.662	10.14
606.998	9.85
607.333	10.4
607.668	10.34
608.004	10.59
608.339	10.67
608.674	10.61
609.01	10.32
609.345	10.3
609.68	10.79
610.015	10.45
610.35	10.65
610.685	10.63
611.02	10.57
611.355	10.65
611.689	10.7
612.024	10.68
612.359	10.59
612.694	10.93
613.028	10.6
613.363	10.91
613.697	11.05
614.032	10.99
614.366	11.05
614.7	11.13
615.035	11.1
615.369	10.87
615.703	11.14
616.037	11.11
616.371	10.77
616.705	10.8
617.039	11.28
617.373	11.3
617.707	11.02
618.041	11.18
618.375	11.32
618.709	10.94
619.042	10.8
619.376	11.6
619.71	11.5
620.043	11.18
620.377	11.39
620.71	11.33
621.043	11.2
621.377	11.3
621.71	11.78
622.043	10.69
622.376	11.33
622.709	11.42
623.043	11.6
623.376	11.98
623.709	11.59
624.041	11.87
624.374	11.96
624.707	11.44
625.04	11.59
625.373	11.12
625.705	11.63
626.038	12.08
626.37	11.52
626.703	11.38
627.035	11.83
627.368	12.53
627.7	11.65
628.032	11.45
628.365	12.08
628.697	11.72
629.029	11.77
629.361	11.8
629.693	11.99
630.025	11.85
630.357	12.33
630.689	12.22
631.021	12.25
631.353	11.99
631.684	11.94
632.016	11.78
632.348	12.22
632.679	12.23
633.011	12.19
633.342	12.49
633.674	12.39
634.005	12.44
634.336	12.21
634.668	12.91
634.999	12.28
635.33	12.81
635.661	12.35
635.992	12.54
636.323	12.33
636.654	12.61
636.985	12.7
637.316	12.53
637.647	12.18
637.977	12.87
638.308	12.75
638.639	12.22
638.969	12.26
639.3	12.82
639.63	12.4
639.961	12.85
640.291	12.77
640.622	12.82
640.952	12.86
641.282	12.7
641.612	12.74
641.943	13.16
642.273	13.02
642.603	13.37
642.933	12.96
643.263	13.08
643.592	12.86
643.922	13.12
644.252	12.84
644.582	12.92
644.911	12.46
645.241	13.32
645.571	13.06
645.9	13.12
646.23	13.27
646.559	13.8
646.888	13.14
647.218	13.18
647.547	13.91
647.876	12.82
648.205	13.18
648.534	13.02
648.863	13.22
649.192	13.67
649.521	13.33
649.85	13.32
650.179	14.07
650.508	13.15
650.837	13.31
651.165	13.33
651.494	14.09
651.822	13.22
652.151	13.31
652.479	13.83
652.808	13.8
653.136	14.1
653.465	13.29
653.793	13.16
654.121	13.45
654.449	13.64
654.777	13.87
655.105	14.02
655.433	13.42
655.761	13.41
656.089	13.7
656.417	14.22
656.745	13.83
657.073	14.19
657.4	14.28
657.728	13.49
658.056	14.07
658.383	14.13
658.711	14.63
659.038	14.17
659.365	14.66
659.693	14.05
660.02	14.42
660.347	14.29
660.674	14.26
661.001	14.47
661.329	13.51
661.656	14.22
661.982	14.57
662.309	14.67
662.636	14.04
662.963	14.76
663.29	14.67
663.616	14.7
663.943	14.3
664.27	14.54
664.596	14.64
664.923	15.03
665.249	14.84
665.576	14.72
665.902	15.44
666.228	15.12
666.554	14.39
666.881	14.43
667.207	15.24
667.533	15.63
667.859	15.16
668.185	15.17
668.511	14.47
668.837	14.64
669.162	15.01
669.488	14.61
669.814	15.21
670.139	15.4
670.465	15.49
670.791	15.25
671.116	15.71
671.442	14.57
671.767	14.95
672.092	15.34
672.418	15.84
672.743	15.54
673.068	15.36
673.393	14.98
673.718	15.23
674.043	14.9
674.368	15.23
674.693	15.89
675.018	15.31
675.343	15.2
675.667	14.56
675.992	15.25
676.317	15.69
676.641	15.57
676.966	15.93
677.29	16.09
677.615	16.43
677.939	15.82
678.264	15.81
678.588	16.57
678.912	15.77
679.236	17.08
679.56	16.07
679.885	16.15
680.209	15.82
680.532	15.9
680.856	16.44
681.18	16.14
681.504	16.29
681.828	16.04
682.152	15.74
682.475	16.18
682.799	16.27
683.122	16.51
683.446	15.83
683.769	15.75
684.093	15.87
684.416	16.85
684.739	16.72
685.062	16.51
685.386	16.49
685.709	16.53
686.032	16.02
686.355	16.71
