Data from 0193_crown_Reflection__2__400.txt Node

Date: Fri Dec 15 20:22:14 CST 2023
User: ToomeyLab
Spectrometer: FLMS14357
Trigger mode: 0
Integration Time (sec): 1.000000E-2
Scans to average: 100
Electric dark correction enabled: true
Nonlinearity correction enabled: false
Boxcar width: 0
XAxis mode: Wavelengths
Number of Pixels in Spectrum: 2048
>>>>>Begin Spectral Data<<<<<
189.047	75.22
189.435	75.22
189.823	75.22
190.211	48.81
190.599	-2995.15
190.987	141.96
191.375	107.65
191.763	30.75
192.151	10.98
192.538	99.38
192.926	-112.14
193.314	69.11
193.702	-329.53
194.089	-250.55
194.477	109.84
194.864	-37.99
195.252	81.91
195.639	76.82
196.027	292.88
196.414	155.99
196.801	111.57
197.189	468.84
197.576	-530.38
197.963	-385.05
198.351	-16.74
198.738	-5.09
199.125	46.06
199.512	-59.35
199.899	27.66
200.286	38.22
200.673	45.96
201.06	-7.31
201.447	5.69
201.833	20.09
202.22	12.11
202.607	19.09
202.994	17.17
203.38	-12.29
203.767	29.64
204.154	31.81
204.54	26.78
204.927	-19.36
205.313	-41.49
205.699	12.92
206.086	33.92
206.472	-39.71
206.858	-0.97
207.245	-10.38
207.631	11.29
208.017	0.33
208.403	-17
208.789	34.35
209.175	11.5
209.561	-51.44
209.947	-20.27
210.333	-41.43
210.719	17.39
211.105	-6.7
211.491	-25.2
211.876	2.34
212.262	7.68
212.648	-0.55
213.034	4.61
213.419	-51.98
213.805	2.44
214.19	-16.11
214.576	19.08
214.961	-67.11
215.346	-70.72
215.732	17.53
216.117	38.87
216.502	-28.57
216.888	-11.27
217.273	15.55
217.658	-23.22
218.043	-6.4
218.428	-51.6
218.813	-21.02
219.198	-51.7
219.583	-6.2
219.968	-23.82
220.353	-19.53
220.738	14.69
221.122	-3.44
221.507	-16.39
221.892	-15.82
222.276	-18.86
222.661	-9.69
223.046	10.92
223.43	10.39
223.815	11.31
224.199	-8.56
224.583	-9.99
224.968	2.4
225.352	7.02
225.736	-3.38
226.121	-8.88
226.505	-0.46
226.889	15.54
227.273	-3.27
227.657	8.95
228.041	1.82
228.425	-1.6
228.809	7.55
229.193	5.24
229.577	2.42
229.961	2.5
230.344	4.39
230.728	3.95
231.112	5.64
231.495	5.88
231.879	3.72
232.263	6.53
232.646	3.3
233.03	3.27
233.413	4.86
233.797	6.78
234.18	5.36
234.563	4.97
234.946	4.54
235.33	4.66
235.713	7.14
236.096	5.53
236.479	7.03
236.862	3.42
237.245	6.89
237.628	4.57
238.011	5.76
238.394	5.77
238.777	5.19
239.16	4.02
239.543	6.47
239.925	6.86
240.308	4.89
240.691	5.17
241.073	3.7
241.456	4.93
241.838	4.87
242.221	4.48
242.603	4.89
242.986	4.78
243.368	4.87
243.75	5.71
244.133	4.77
244.515	5.1
244.897	5.14
245.279	5.03
245.661	4.79
246.043	3.82
246.425	3.08
246.807	5.96
247.189	5.88
247.571	5.53
247.953	5.16
248.335	5.35
248.717	4.95
249.098	4.9
249.48	4.97
249.862	4.65
250.243	4.85
250.625	5.13
251.006	5.17
251.388	3.85
251.769	4.66
252.151	5.87
252.532	4.89
252.913	4.36
253.295	4.9
253.676	4.95
254.057	4.47
254.438	4.52
254.819	4.24
255.2	3.86
255.581	4.62
255.962	3.74
256.343	4.38
256.724	4.15
257.105	3.78
257.486	4.56
257.867	4.79
258.247	4.44
258.628	3.77
259.009	5.83
259.389	5.25
259.77	4.64
260.15	3.83
260.531	3.61
260.911	4.92
261.292	4.65
261.672	4.66
262.052	4.65
262.432	4.89
262.813	4.59
263.193	5.19
263.573	4.14
263.953	4
264.333	4.97
264.713	5.48
265.093	4.62
265.473	4.33
265.853	3.02
266.233	3.8
266.612	2.69
266.992	3.39
267.372	5.65
267.752	3.93
268.131	4.45
268.511	4.43
268.89	4.56
269.27	4.49
269.649	4.5
270.029	4.05
270.408	4.88
270.787	4.65
271.167	4.54
271.546	4.53
271.925	4.07
272.304	4.27
272.683	5
273.062	4.05
273.441	4.87
273.82	3.82
274.199	4.71
274.578	4.67
274.957	4.11
275.336	4.18
275.715	4.1
276.093	4.29
276.472	5.05
276.851	3.75
277.229	4.2
277.608	4.04
277.986	3.98
278.365	4.15
278.743	4.06
279.122	4.43
279.5	4.63
279.878	4.29
280.257	4.1
280.635	3.56
281.013	4.13
281.391	4.25
281.769	3.95
282.147	4.91
282.525	4.51
282.903	4.24
283.281	4.91
283.659	4.57
284.037	4.48
284.415	4.24
284.792	4.08
285.17	3.36
285.548	3.99
285.925	4.31
286.303	3.98
286.68	3.9
287.058	3.76
287.435	4.09
287.813	4.17
288.19	4.16
288.567	4.05
288.945	4.47
289.322	3.89
289.699	4.92
290.076	3.83
290.453	4.07
290.83	3.91
291.207	3.46
291.584	4.03
291.961	4.27
292.338	3.86
292.715	4.48
293.092	3.98
293.469	3.98
293.845	4.93
294.222	3.53
294.599	3.97
294.975	4.03
295.352	3.79
295.728	3.65
296.105	3.86
296.481	4.45
296.858	3.69
297.234	3.55
297.61	3.79
297.986	3.82
298.363	4.29
298.739	4.07
299.115	3.86
299.491	3.55
299.867	3.75
300.243	4.02
300.619	3.75
300.995	3.86
301.371	3.88
301.746	3.43
302.122	4.06
302.498	3.7
302.874	3.96
303.249	3.91
303.625	3.6
304	4.38
304.376	3.7
304.751	3.88
305.127	4.55
305.502	3.9
305.878	3.06
306.253	3.98
306.628	4.11
307.003	3.56
307.378	4.14
307.754	3.99
308.129	2.81
308.504	3.84
308.879	3.79
309.254	4.18
309.629	4.14
310.003	3.55
310.378	4.19
310.753	4.12
311.128	3.98
311.502	3.89
311.877	4.4
312.252	3.68
312.626	3.67
313.001	3.65
313.375	4.04
313.75	3.35
314.124	3.5
314.498	3.85
314.873	3.62
315.247	3.73
315.621	3.76
315.995	3.22
316.369	3.9
316.743	3.74
317.117	3.58
317.491	3.62
317.865	3.83
318.239	4.02
318.613	3.59
318.987	3.68
319.361	3.51
319.734	4.16
320.108	3.68
320.482	3.36
320.855	3.82
321.229	3.68
321.602	3.61
321.976	3.15
322.349	2.95
322.723	3.79
323.096	4.05
323.469	2.63
323.843	2.98
324.216	4.24
324.589	2.92
324.962	3.33
325.335	3.66
325.708	3.41
326.081	3.58
326.454	3.74
326.827	3.45
327.2	4.07
327.573	3.64
327.945	3.42
328.318	3.53
328.691	3.29
329.063	3.08
329.436	3.48
329.809	4.2
330.181	3.59
330.553	3.25
330.926	3.78
331.298	3.72
331.671	3.1
332.043	3.93
332.415	3.18
332.787	3.75
333.159	4.25
333.532	3.94
333.904	3.07
334.276	3.22
334.648	3.8
335.02	3.6
335.391	3.1
335.763	3.7
336.135	4.01
336.507	3.53
336.879	3.73
337.25	3.3
337.622	3.98
337.993	3.81
338.365	3.76
338.736	3.58
339.108	3.49
339.479	3.68
339.851	3.59
340.222	3.36
340.593	4.16
340.964	3.63
341.336	4.14
341.707	3.18
342.078	4.19
342.449	4.1
342.82	3.68
343.191	4.43
343.562	3.46
343.933	3.69
344.303	3.71
344.674	3.3
345.045	3.45
345.416	4.03
345.786	3.27
346.157	4.03
346.527	2.51
346.898	3.51
347.268	3.57
347.639	3.82
348.009	3.92
348.38	3.65
348.75	3.54
349.12	3.47
349.49	3.59
349.861	3.7
350.231	3.65
350.601	3.93
350.971	4.03
351.341	3.72
351.711	3.76
352.081	3.56
352.45	3.45
352.82	3.65
353.19	3.95
353.56	3.55
353.929	4.12
354.299	3.59
354.669	3.63
355.038	4.35
355.408	3.43
355.777	3.63
356.147	3.6
356.516	3.83
356.885	3.8
357.254	3.47
357.624	3.86
357.993	3.73
358.362	3.24
358.731	3.38
359.1	3.62
359.469	3.67
359.838	3.9
360.207	3.4
360.576	3.79
360.945	3.69
361.314	4.19
361.682	3.62
362.051	3.75
362.42	4.11
362.788	3.69
363.157	3.81
363.525	3.8
363.894	3.94
364.262	3.81
364.631	3.81
364.999	4.02
365.367	3.39
365.735	4.52
366.104	3.96
366.472	3.62
366.84	3.54
367.208	3.6
367.576	3.71
367.944	3.97
368.312	3.71
368.68	3.55
369.048	3.94
369.416	3.71
369.783	3.57
370.151	4.02
370.519	3.86
370.886	4.08
371.254	3.72
371.621	4.24
371.989	4.32
372.356	3.49
372.724	3.9
373.091	3.38
373.458	3.89
373.826	3.76
374.193	3.43
374.56	3.99
374.927	3.88
375.294	3.52
375.661	3.86
376.028	3.92
376.395	3.61
376.762	3.82
377.129	3.67
377.496	3.84
377.863	4.17
378.229	3.58
378.596	3.94
378.963	3.83
379.329	3.71
379.696	4.24
380.062	4.15
380.429	3.83
380.795	3.4
381.161	4.14
381.528	4.11
381.894	3.88
382.26	3.76
382.626	4.27
382.993	3.84
383.359	4.24
383.725	3.8
384.091	3.81
384.457	3.96
384.823	3.99
385.188	4.04
385.554	3.91
385.92	4.3
386.286	4.28
386.651	4.14
387.017	4.22
387.383	3.93
387.748	3.99
388.114	4.57
388.479	3.8
388.845	4.28
389.21	4.54
389.575	4.06
389.94	4.26
390.306	3.98
390.671	4.24
391.036	3.5
391.401	3.89
391.766	3.91
392.131	3.87
392.496	4.19
392.861	4.15
393.226	4.43
393.591	4.37
393.956	4
394.32	4.22
394.685	3.85
395.05	3.95
395.414	4
395.779	3.76
396.143	3.98
396.508	4.09
396.872	4.36
397.236	4.23
397.601	4.04
397.965	4.17
398.329	4.28
398.694	4.38
399.058	4.24
399.422	4.07
399.786	4.5
400.15	4.25
400.514	4.24
400.878	4.32
401.242	4.35
401.605	4.27
401.969	4.45
402.333	4.23
402.697	4.34
403.06	4.37
403.424	4.34
403.787	4.31
404.151	4.65
404.514	4.38
404.878	4.24
405.241	4.43
405.604	4.09
405.968	4.52
406.331	4.32
406.694	4.59
407.057	4.27
407.42	4.58
407.783	4.17
408.146	4.26
408.509	4.25
408.872	4.37
409.235	4.36
409.598	4.49
409.961	4.09
410.323	4.52
410.686	4.39
411.049	3.82
411.411	4.23
411.774	4.31
412.136	4.6
412.499	4.39
412.861	4.4
413.223	4.43
413.586	4.42
413.948	4.49
414.31	4.08
414.672	4.26
415.035	4.32
415.397	4.62
415.759	4.15
416.121	4.46
416.483	4.4
416.845	4.21
417.206	4.42
417.568	4.65
417.93	4.28
418.292	4.41
418.653	4.44
419.015	4.52
419.377	4.53
419.738	4.59
420.1	4.41
420.461	4.53
420.822	4.6
421.184	4.34
421.545	4.4
421.906	4.29
422.267	4.38
422.629	4.39
422.99	4.43
423.351	4.33
423.712	4.35
424.073	4.41
424.434	4.43
424.795	4.43
425.155	4.44
425.516	4.37
425.877	4.46
426.238	4.3
426.598	4.56
426.959	4.43
427.32	4.39
427.68	4.47
428.041	4.49
428.401	4.61
428.761	4.53
429.122	4.44
429.482	4.46
429.842	4.71
430.202	4.62
430.563	4.58
430.923	4.41
431.283	4.72
431.643	4.56
432.003	4.66
432.363	4.57
432.722	4.61
433.082	4.49
433.442	4.54
433.802	4.25
434.161	4.62
434.521	4.76
434.881	4.52
435.24	4.63
435.6	4.66
435.959	4.46
436.319	4.51
436.678	4.68
437.037	4.62
437.396	4.71
437.756	4.63
438.115	4.69
438.474	4.7
438.833	4.58
439.192	4.73
439.551	4.87
439.91	4.72
440.269	4.66
440.628	4.46
440.987	4.73
441.345	4.68
441.704	4.76
442.063	4.61
442.421	4.71
442.78	4.61
443.138	4.67
443.497	4.65
443.855	4.71
444.214	4.46
444.572	4.65
444.93	4.66
445.288	4.76
445.647	4.89
446.005	4.56
446.363	4.77
446.721	4.82
447.079	4.63
447.437	4.61
447.795	4.81
448.153	4.54
448.51	4.64
448.868	4.74
449.226	4.73
449.584	4.63
449.941	4.78
450.299	4.82
450.656	4.72
451.014	4.71
451.371	4.66
451.729	4.8
452.086	4.87
452.443	4.86
452.801	4.84
453.158	4.78
453.515	4.61
453.872	4.72
454.229	4.8
454.586	4.8
454.943	4.73
455.3	4.96
455.657	4.76
456.014	4.95
456.371	4.8
456.727	4.68
457.084	4.95
457.441	4.64
457.797	4.9
458.154	4.96
458.51	4.93
458.867	4.98
459.223	4.96
459.58	4.84
459.936	5.01
460.292	4.97
460.648	4.75
461.005	4.71
461.361	4.91
461.717	4.85
462.073	4.75
462.429	4.94
462.785	4.84
463.141	4.89
463.496	4.94
463.852	4.93
464.208	4.87
464.564	5.18
464.919	5.09
465.275	5.02
465.631	5.06
465.986	4.95
466.342	5.03
466.697	4.67
467.052	4.88
467.408	5.08
467.763	5.08
468.118	4.98
468.473	4.95
468.829	5.14
469.184	4.98
469.539	5.02
469.894	4.79
470.249	5.01
470.603	5.14
470.958	5.14
471.313	5.15
471.668	5.08
472.023	5.01
472.377	4.86
472.732	5.07
473.086	4.89
473.441	5.01
473.795	5.34
474.15	5.07
474.504	5.02
474.859	5.17
475.213	4.92
475.567	4.98
475.921	4.98
476.275	5.05
476.63	4.88
476.984	5.22
477.338	5.21
477.692	4.94
478.045	4.98
478.399	5.17
478.753	5.23
479.107	4.99
479.461	4.92
479.814	5.11
480.168	5.25
480.521	5.18
480.875	5.05
481.228	5.05
481.582	5.1
481.935	5.07
482.289	5.1
482.642	5.04
482.995	4.91
483.348	5.04
483.701	5.03
484.055	5.07
484.408	5.07
484.761	5.07
485.114	5.01
485.466	4.87
485.819	4.8
486.172	4.81
486.525	4.85
486.878	4.89
487.23	4.94
487.583	5.03
487.936	5.01
488.288	5.02
488.641	5.01
488.993	4.97
489.345	4.85
489.698	4.95
490.05	4.88
490.402	4.97
490.754	5.1
491.107	5.07
491.459	5.11
491.811	5.13
492.163	5.18
492.515	5.03
492.866	5.08
493.218	5.09
493.57	4.99
493.922	4.95
494.274	5.13
494.625	5.16
494.977	5.09
495.328	5.16
495.68	5.18
496.031	5.52
496.383	5.24
496.734	5.45
497.086	5.26
497.437	5.37
497.788	5.26
498.139	5.23
498.49	5.33
498.842	5.22
499.193	5.15
499.544	5.31
499.894	5.22
500.245	5.27
500.596	5.21
500.947	5.33
501.298	5.15
501.648	5.35
501.999	5.34
502.35	5.27
502.7	5.25
503.051	5.12
503.401	5.31
503.752	5.34
504.102	5.28
504.452	5.29
504.803	5.19
505.153	5.31
505.503	5.33
505.853	5.38
506.203	5.35
506.553	5.35
506.903	5.17
507.253	5.14
507.603	5.24
507.953	5.31
508.303	5.49
508.652	5.14
509.002	5.44
509.352	5.37
509.701	5.27
510.051	5.29
510.4	5.31
510.75	5.31
511.099	5.41
511.449	5.21
511.798	5.35
512.147	5.39
512.496	5.29
512.846	5.39
513.195	5.39
513.544	5.34
513.893	5.5
514.242	5.26
514.591	5.55
514.939	5.36
515.288	5.34
515.637	5.5
515.986	5.41
516.334	5.43
516.683	5.51
517.032	5.46
517.38	5.55
517.729	5.36
518.077	5.18
518.426	5.41
518.774	5.46
519.122	5.39
519.47	5.41
519.819	5.25
520.167	5.31
520.515	5.35
520.863	5.39
521.211	5.43
521.559	5.38
521.907	5.22
522.255	5.31
522.602	5.48
522.95	5.55
523.298	5.42
523.645	5.42
523.993	5.31
524.341	5.57
524.688	5.58
525.036	5.52
525.383	5.51
525.73	5.65
526.078	5.4
526.425	5.45
526.772	5.46
527.119	5.43
527.466	5.43
527.814	5.47
528.161	5.35
528.508	5.41
528.854	5.4
529.201	5.36
529.548	5.37
529.895	5.35
530.242	5.33
530.588	5.19
530.935	5.24
531.282	5.27
531.628	5.28
531.975	5.4
532.321	5.35
532.667	5.46
533.014	5.5
533.36	5.5
533.706	5.5
534.052	5.48
534.399	5.45
534.745	5.41
535.091	5.35
535.437	5.39
535.783	5.41
536.129	5.4
536.474	5.43
536.82	5.57
537.166	5.52
537.512	5.47
537.857	5.48
538.203	5.55
538.549	5.49
538.894	5.36
539.239	5.47
539.585	5.45
539.93	5.41
540.276	5.73
540.621	5.65
540.966	5.61
541.311	5.55
541.656	5.45
542.001	5.52
542.346	5.53
542.691	5.39
543.036	5.49
543.381	5.32
543.726	5.37
544.071	5.47
544.415	5.47
544.76	5.42
545.105	5.43
545.449	5.46
545.794	5.65
546.138	5.42
546.483	5.55
546.827	5.67
547.171	5.53
547.516	5.72
547.86	5.56
548.204	5.51
548.548	5.62
548.892	5.58
549.236	5.57
549.58	5.59
549.924	5.82
550.268	5.66
550.612	5.65
550.956	5.75
551.3	5.64
551.643	5.92
551.987	5.97
552.33	5.59
552.674	5.71
553.017	5.68
553.361	5.51
553.704	5.77
554.048	5.7
554.391	5.56
554.734	5.69
555.077	5.67
555.42	5.63
555.764	5.77
556.107	5.55
556.45	5.57
556.793	5.67
557.135	5.69
557.478	5.86
557.821	5.83
558.164	5.61
558.507	5.75
558.849	5.54
559.192	5.88
559.534	5.78
559.877	5.8
560.219	5.47
560.562	5.9
560.904	5.68
561.246	5.75
561.589	5.78
561.931	5.66
562.273	5.58
562.615	5.96
562.957	5.73
563.299	5.52
563.641	5.72
563.983	5.77
564.325	5.59
564.667	5.77
565.008	5.61
565.35	5.7
565.692	5.63
566.033	5.61
566.375	5.89
566.716	5.8
567.058	5.63
567.399	5.6
567.741	5.55
568.082	5.59
568.423	5.55
568.764	5.67
569.105	5.94
569.447	5.85
569.788	5.76
570.129	5.88
570.47	5.68
570.811	5.78
571.151	5.8
571.492	5.79
571.833	5.74
572.174	5.67
572.514	5.96
572.855	5.88
573.195	5.76
573.536	5.87
573.876	5.55
574.217	5.77
574.557	5.84
574.898	5.88
575.238	5.71
575.578	5.75
575.918	6.13
576.258	5.87
576.598	5.9
576.938	5.77
577.278	5.79
577.618	5.74
577.958	5.71
578.298	5.91
578.638	5.79
578.977	5.77
579.317	5.68
579.657	5.9
579.996	5.76
580.336	5.89
580.675	5.54
581.014	5.72
581.354	5.81
581.693	5.78
582.032	5.85
582.372	5.68
582.711	5.74
583.05	5.63
583.389	5.89
583.728	5.55
584.067	5.89
584.406	5.93
584.745	5.8
585.083	5.82
585.422	6.03
585.761	5.89
586.1	5.9
586.438	5.64
586.777	5.92
587.115	5.88
587.454	5.74
587.792	5.64
588.13	5.93
588.469	5.81
588.807	5.89
589.145	5.89
589.483	5.8
589.821	5.62
590.159	6
590.497	6.1
590.835	6.31
591.173	5.83
591.511	5.98
591.849	5.85
592.187	5.96
592.524	6.01
592.862	5.85
593.2	5.86
593.537	5.79
593.875	5.72
594.212	5.64
594.55	5.83
594.887	6.25
595.224	5.99
595.561	6.08
595.899	5.76
596.236	5.93
596.573	5.93
596.91	5.56
597.247	5.65
597.584	6.04
597.921	5.78
598.258	5.91
598.594	5.86
598.931	5.72
599.268	5.8
599.604	5.83
599.941	5.84
600.277	5.78
600.614	5.54
600.95	5.62
601.287	5.84
601.623	5.82
601.959	5.86
602.296	6.01
602.632	5.87
602.968	5.98
603.304	5.75
603.64	5.9
603.976	6.01
604.312	5.89
604.648	5.73
604.984	6.04
605.319	5.85
605.655	5.59
605.991	6.11
606.326	5.97
606.662	5.75
606.998	5.77
607.333	5.99
607.668	5.73
608.004	5.94
608.339	6.25
608.674	5.98
609.01	5.87
609.345	5.53
609.68	5.87
610.015	5.87
610.35	6.04
610.685	5.91
611.02	5.92
611.355	6.02
611.689	6.03
612.024	5.82
612.359	5.82
612.694	5.86
613.028	5.83
613.363	6.3
613.697	5.8
614.032	5.98
614.366	6.12
614.7	6.26
615.035	5.61
615.369	5.7
615.703	5.95
616.037	5.85
616.371	5.82
616.705	5.71
617.039	5.96
617.373	5.94
617.707	5.9
618.041	6.1
618.375	6.08
618.709	6.08
619.042	5.8
619.376	6.18
619.71	6.5
620.043	5.93
620.377	5.75
620.71	6.07
621.043	5.69
621.377	5.97
621.71	6.23
622.043	5.76
622.376	5.3
622.709	6.42
623.043	6.26
623.376	6.2
623.709	5.71
624.041	6.52
624.374	5.86
624.707	5.68
625.04	5.99
625.373	5.69
625.705	5.76
626.038	5.81
626.37	5.96
626.703	5.73
627.035	6.14
627.368	6.66
627.7	6.2
628.032	5.77
628.365	6.31
628.697	5.95
629.029	5.95
629.361	5.82
629.693	6.07
630.025	6.09
630.357	6.19
630.689	5.85
631.021	6
631.353	5.96
631.684	5.94
632.016	6.26
632.348	6.19
632.679	5.86
633.011	6.18
633.342	6.18
633.674	6.08
634.005	6.43
634.336	5.93
634.668	6.4
634.999	5.86
635.33	6.46
635.661	6.47
635.992	5.93
636.323	6.14
636.654	6.11
636.985	5.84
637.316	6.26
637.647	6.03
637.977	6.46
638.308	6.41
638.639	5.67
638.969	5.8
639.3	5.96
639.63	5.74
639.961	6.07
640.291	6.17
640.622	5.95
640.952	5.81
641.282	6.05
641.612	6.45
641.943	5.55
642.273	6.17
642.603	5.89
642.933	6.61
643.263	5.97
643.592	5.77
643.922	5.69
644.252	6.13
644.582	6.14
644.911	5.94
645.241	5.53
645.571	5.98
645.9	5.32
646.23	6.15
646.559	6.08
646.888	5.8
647.218	5.83
647.547	6.39
647.876	5.93
648.205	6.17
648.534	5.75
648.863	5.9
649.192	6.36
649.521	5.79
649.85	5.67
650.179	6.42
650.508	5.83
650.837	5.99
651.165	5.52
651.494	6.52
651.822	6.29
652.151	5.79
652.479	6.1
652.808	5.88
653.136	6.21
653.465	5.32
653.793	5.53
654.121	5.96
654.449	6.5
654.777	6.18
655.105	5.88
655.433	5.71
655.761	5.61
656.089	6.33
656.417	6.21
656.745	5.67
657.073	6.05
657.4	6.76
657.728	6.22
658.056	6.32
658.383	6.36
658.711	6.31
659.038	5.87
659.365	6.55
659.693	5.81
660.02	6.19
660.347	6.43
660.674	6.06
661.001	6.13
661.329	5.77
661.656	6.17
661.982	6.41
662.309	6.13
662.636	6.16
662.963	6.6
663.29	6.3
663.616	6.16
663.943	5.7
664.27	6.16
664.596	6.52
664.923	6.1
665.249	6.61
665.576	6.42
665.902	6.75
666.228	6.37
666.554	6.2
666.881	5.89
667.207	5.76
667.533	6.57
667.859	6.14
668.185	6.27
668.511	6.07
668.837	5.8
669.162	6.68
669.488	5.82
669.814	6.47
670.139	6.69
670.465	6.14
670.791	6.02
671.116	6.46
671.442	6.13
671.767	6.61
672.092	6.56
672.418	6.67
672.743	6.5
673.068	6.04
673.393	5.84
673.718	6.6
674.043	5.92
674.368	6.26
674.693	7.27
675.018	6.5
675.343	6.33
675.667	6.4
675.992	6.59
676.317	6.66
676.641	6.8
676.966	6.64
677.29	6.16
677.615	6.8
677.939	6.31
678.264	6.86
678.588	6.14
678.912	6.16
679.236	7.01
679.56	5.63
679.885	6.42
680.209	5.66
680.532	6.43
680.856	6.87
681.18	6.32
681.504	6.44
681.828	6.92
682.152	6.3
682.475	7.25
682.799	6.53
683.122	6.86
683.446	6.08
683.769	7.12
684.093	6.42
684.416	6.46
684.739	6.28
685.062	6.66
685.386	7.29
685.709	6.32
686.032	6.39
686.355	6.99
686.678	6.38
687.001	6
687.324	6.88
687.646	6.12
687.969	6.47
688.292	6.12
688.614	6.03
688.937	7
689.26	6.02
689.582	7.48
689.904	6.19
690.227	6.59
690.549	6.95
690.871	7.59
691.194	6.5
691.516	6.27
691.838	7.35
