Data from 22-4_chest_Reflection__4__200.txt Node

Date: Thu Dec 15 18:02:57 CST 2022
User: ToomeyLab
Spectrometer: FLMS14357
Trigger mode: 0
Integration Time (sec): 1.000000E-2
Scans to average: 100
Electric dark correction enabled: true
Nonlinearity correction enabled: false
Boxcar width: 0
XAxis mode: Wavelengths
Number of Pixels in Spectrum: 2048
>>>>>Begin Spectral Data<<<<<
189.047	-115.62
189.435	-115.62
189.823	-115.62
190.211	55.41
190.599	811.66
190.987	133.93
191.375	18.03
191.763	27.59
192.151	200.9
192.538	45.43
192.926	111.1
193.314	119.68
193.702	-925.95
194.089	39.3
194.477	72.17
194.864	296.12
195.252	-51.8
195.639	107.09
196.027	433.23
196.414	-143.85
196.801	10.66
197.189	-27.61
197.576	61.2
197.963	-553.69
198.351	21.94
198.738	-63.6
199.125	-38
199.512	14.01
199.899	-64.15
200.286	31.48
200.673	57.83
201.06	15.8
201.447	35.9
201.833	23.87
202.22	-52.52
202.607	-5.76
202.994	8.53
203.38	21.04
203.767	-19.36
204.154	33.71
204.54	21.2
204.927	10.89
205.313	0.77
205.699	-21.7
206.086	24.6
206.472	45.17
206.858	9.84
207.245	11.63
207.631	-0.56
208.017	54.56
208.403	-34.01
208.789	21.71
209.175	13.86
209.561	-58.16
209.947	1.57
210.333	-16.9
210.719	3.59
211.105	40.94
211.491	2.14
211.876	-8.56
212.262	15.46
212.648	-17.88
213.034	-3.57
213.419	-8.22
213.805	36.68
214.19	-11.57
214.576	-11.98
214.961	48.31
215.346	-4.58
215.732	22.45
216.117	-10.72
216.502	-8.71
216.888	2.68
217.273	-12.24
217.658	-20.23
218.043	-37.79
218.428	-19.54
218.813	-5.89
219.198	-6.87
219.583	-14.83
219.968	-11.62
220.353	-21
220.738	-1.73
221.122	-3.01
221.507	-12.65
221.892	-30.32
222.276	-15.19
222.661	-11.69
223.046	-10.77
223.43	9.78
223.815	4.81
224.199	8.65
224.583	-7.41
224.968	-6.29
225.352	-5.06
225.736	9.09
226.121	4.48
226.505	-2.86
226.889	-2.1
227.273	-2.96
227.657	3.34
228.041	0.43
228.425	-1.01
228.809	2.65
229.193	3.42
229.577	2.41
229.961	1.83
230.344	3.64
230.728	3.98
231.112	3.58
231.495	2.55
231.879	1.17
232.263	2.6
232.646	3.57
233.03	3.66
233.413	2.96
233.797	4.47
234.18	2.32
234.563	2.3
234.946	1.52
235.33	1.93
235.713	3.64
236.096	4.15
236.479	2.5
236.862	1.66
237.245	3.12
237.628	2.79
238.011	3.26
238.394	1.83
238.777	4.85
239.16	4.51
239.543	4.01
239.925	3.29
240.308	2.11
240.691	1.98
241.073	2.71
241.456	3.8
241.838	3.54
242.221	3.12
242.603	2.83
242.986	3.17
243.368	3.31
243.75	3.75
244.133	3.07
244.515	2.91
244.897	3.01
245.279	3.16
245.661	2.71
246.043	1.7
246.425	3.6
246.807	3.65
247.189	3.4
247.571	3.06
247.953	3.11
248.335	2.9
248.717	3.3
249.098	3.04
249.48	3.22
249.862	3.35
250.243	3.13
250.625	3.48
251.006	4.09
251.388	3.1
251.769	2.39
252.151	3.03
252.532	2.76
252.913	3.18
253.295	2.83
253.676	2.72
254.057	3.2
254.438	2.83
254.819	2.43
255.2	3.47
255.581	3.7
255.962	3.16
256.343	3.14
256.724	2.95
257.105	3.17
257.486	2.5
257.867	2.54
258.247	3.24
258.628	3.19
259.009	2.1
259.389	1.95
259.77	2.39
260.15	3.14
260.531	2.9
260.911	2.99
261.292	2.99
261.672	2.97
262.052	2.65
262.432	2.76
262.813	2.68
263.193	2.76
263.573	2.95
263.953	2.63
264.333	3.11
264.713	2.79
265.093	2.4
265.473	2.3
265.853	3.28
266.233	2.36
266.612	2.48
266.992	2.34
267.372	3.32
267.752	2.91
268.131	2.88
268.511	2.92
268.89	3.73
269.27	1.84
269.649	2.85
270.029	2.96
270.408	2.8
270.787	3.32
271.167	2.89
271.546	3.3
271.925	2.66
272.304	2.59
272.683	2.84
273.062	2.69
273.441	2.57
273.82	2.79
274.199	2.54
274.578	2.84
274.957	2.88
275.336	3.21
275.715	2.92
276.093	2.23
276.472	2.16
276.851	3.17
277.229	2.61
277.608	2.94
277.986	2.48
278.365	3.44
278.743	2.77
279.122	2.72
279.5	3.17
279.878	2.09
280.257	2.39
280.635	2.85
281.013	2.4
281.391	2.58
281.769	3.25
282.147	2.18
282.525	2.78
282.903	2.71
283.281	2.36
283.659	3.06
284.037	2.35
284.415	2.65
284.792	2.94
285.17	2.66
285.548	2.75
285.925	2.38
286.303	3.58
286.68	2.75
287.058	2.52
287.435	2.64
287.813	2.81
288.19	2.43
288.567	2.55
288.945	2.26
289.322	2.83
289.699	2.73
290.076	2.89
290.453	2.56
290.83	3
291.207	2.68
291.584	3.25
291.961	3.12
292.338	2.44
292.715	2.59
293.092	3.3
293.469	2.82
293.845	2.95
294.222	3.1
294.599	2.28
294.975	2.58
295.352	3.28
295.728	2.8
296.105	2.6
296.481	2.92
296.858	2.72
297.234	2.83
297.61	3.01
297.986	3.24
298.363	3.07
298.739	2.84
299.115	2.92
299.491	3.15
299.867	2.41
300.243	2.96
300.619	2.5
300.995	2.86
301.371	3.5
301.746	2.8
302.122	2.16
302.498	2.61
302.874	2.93
303.249	2.64
303.625	2.86
304	3.17
304.376	3
304.751	3.22
305.127	3.03
305.502	3.08
305.878	2.96
306.253	2.93
306.628	3.01
307.003	2.52
307.378	2.39
307.754	3.06
308.129	2.77
308.504	3.11
308.879	2.88
309.254	2.93
309.629	3.07
310.003	2.93
310.378	3.19
310.753	3.16
311.128	2.59
311.502	3.42
311.877	3.07
312.252	3.09
312.626	3.22
313.001	3.06
313.375	3.24
313.75	3.08
314.124	3.16
314.498	3.65
314.873	2.76
315.247	3.13
315.621	2.97
315.995	2.86
316.369	2.38
316.743	2.84
317.117	2.78
317.491	2.86
317.865	2.26
318.239	3.23
318.613	3.12
318.987	2.58
319.361	2.67
319.734	2.66
320.108	3.25
320.482	3.42
320.855	2.61
321.229	2.97
321.602	3.23
321.976	2.44
322.349	3.19
322.723	2.86
323.096	2.91
323.469	2.75
323.843	2.12
324.216	3.05
324.589	2.87
324.962	3.05
325.335	2.49
325.708	2.7
326.081	2.71
326.454	3.3
326.827	3.03
327.2	2.44
327.573	3.09
327.945	3.09
328.318	2.67
328.691	2.94
329.063	2.15
329.436	2.61
329.809	2.98
330.181	3.71
330.553	2.93
330.926	3.18
331.298	2.74
331.671	3.16
332.043	2.88
332.415	2.93
332.787	3.14
333.159	2.32
333.532	3.38
333.904	3.2
334.276	2.97
334.648	2.81
335.02	2.95
335.391	2.86
335.763	3.14
336.135	3.38
336.507	2.8
336.879	3.37
337.25	3.14
337.622	3.13
337.993	2.94
338.365	2.99
338.736	3.15
339.108	3.25
339.479	2.76
339.851	3.05
340.222	3.19
340.593	2.86
340.964	3
341.336	2.72
341.707	2.71
342.078	2.85
342.449	2.63
342.82	3.17
343.191	2.84
343.562	2.91
343.933	2.87
344.303	3.39
344.674	2.86
345.045	3.09
345.416	3.37
345.786	3.13
346.157	3.15
346.527	3.03
346.898	2.38
347.268	2.76
347.639	2.92
348.009	2.85
348.38	2.79
348.75	3.29
349.12	3.2
349.49	3.01
349.861	3
350.231	2.91
350.601	3.31
350.971	3.01
351.341	3.19
351.711	3.21
352.081	2.89
352.45	2.77
352.82	2.58
353.19	2.51
353.56	2.61
353.929	2.76
354.299	2.96
354.669	3.29
355.038	2.83
355.408	3.1
355.777	3.39
356.147	3.11
356.516	3.07
356.885	2.76
357.254	2.69
357.624	2.64
357.993	3.26
358.362	3.15
358.731	3.41
359.1	3.01
359.469	3.12
359.838	3.06
360.207	2.92
360.576	2.9
360.945	3.33
361.314	3
361.682	3.03
362.051	3.05
362.42	3.18
362.788	3.04
363.157	2.86
363.525	3.13
363.894	2.93
364.262	3.38
364.631	3.23
364.999	2.98
365.367	2.95
365.735	2.69
366.104	2.88
366.472	2.71
366.84	3.12
367.208	3.47
367.576	3.1
367.944	2.87
368.312	2.87
368.68	3.21
369.048	3
369.416	2.81
369.783	3.17
370.151	3.16
370.519	3.6
370.886	3.25
371.254	3.46
371.621	3.17
371.989	3.4
372.356	3.18
372.724	3
373.091	2.87
373.458	2.86
373.826	3.1
374.193	3.38
374.56	3.33
374.927	3.09
375.294	3.26
375.661	3.37
376.028	3.16
376.395	3.27
376.762	2.78
377.129	3.13
377.496	3.16
377.863	2.93
378.229	3.57
378.596	3.3
378.963	3.41
379.329	3.24
379.696	3.08
380.062	3.16
380.429	2.84
380.795	3.4
381.161	2.91
381.528	2.94
381.894	3.25
382.26	3.07
382.626	3
382.993	3.56
383.359	3
383.725	3.05
384.091	3.28
384.457	2.97
384.823	3.4
385.188	2.98
385.554	3.22
385.92	3.22
386.286	3.49
386.651	3.06
387.017	3.38
387.383	3.13
387.748	3.27
388.114	3.43
388.479	3.06
388.845	3.27
389.21	3.6
389.575	3.43
389.94	3.34
390.306	3.23
390.671	3.2
391.036	3.07
391.401	3.03
391.766	2.8
392.131	3.45
392.496	3.18
392.861	3.14
393.226	3.17
393.591	3.35
393.956	3.17
394.32	3.21
394.685	3.22
395.05	3.29
395.414	3.14
395.779	3.26
396.143	2.99
396.508	2.97
396.872	3.18
397.236	3.64
397.601	3.37
397.965	3.25
398.329	3.29
398.694	3.17
399.058	3.47
399.422	3.07
399.786	2.9
400.15	3.14
400.514	3.18
400.878	3.07
401.242	3.36
401.605	3.12
401.969	3.17
402.333	3.2
402.697	3.57
403.06	3.31
403.424	3.16
403.787	3.09
404.151	3.34
404.514	3.4
404.878	3.32
405.241	3.29
405.604	3.12
405.968	3.31
406.331	3.31
406.694	3.28
407.057	3.1
407.42	3.26
407.783	3.31
408.146	3.31
408.509	3.3
408.872	3.24
409.235	3.19
409.598	3.4
409.961	3.16
410.323	3.32
410.686	3.09
411.049	3.48
411.411	3.32
411.774	3.19
412.136	3.12
412.499	3.51
412.861	2.84
413.223	3.25
413.586	3.33
413.948	3.57
414.31	3.25
414.672	3.34
415.035	3.38
415.397	3.14
415.759	2.99
416.121	3.39
416.483	3.28
416.845	3.38
417.206	3.3
417.568	3.2
417.93	3.27
418.292	3.24
418.653	3.11
419.015	3.17
419.377	3.05
419.738	3.35
420.1	3.27
420.461	3.2
420.822	3.21
421.184	3.27
421.545	3.31
421.906	3.28
422.267	3.16
422.629	3.25
422.99	3.21
423.351	3.2
423.712	3.2
424.073	3.3
424.434	3.32
424.795	3.25
425.155	3.18
425.516	3.23
425.877	3.28
426.238	3.19
426.598	3.24
426.959	3.25
427.32	3.33
427.68	3.25
428.041	3.35
428.401	3.3
428.761	3.38
429.122	3.37
429.482	3.33
429.842	3.38
430.202	3.5
430.563	3.42
430.923	3.41
431.283	3.39
431.643	3.46
432.003	3.42
432.363	3.47
432.722	3.34
433.082	3.22
433.442	3.47
433.802	3.39
434.161	3.23
434.521	3.22
434.881	3.36
435.24	3.32
435.6	3.45
435.959	3.29
436.319	3.38
436.678	3.39
437.037	3.47
437.396	3.48
437.756	3.45
438.115	3.3
438.474	3.46
438.833	3.39
439.192	3.36
439.551	3.2
439.91	3.38
440.269	3.37
440.628	3.32
440.987	3.37
441.345	3.29
441.704	3.31
442.063	3.38
442.421	3.46
442.78	3.31
443.138	3.33
443.497	3.35
443.855	3.48
444.214	3.23
444.572	3.56
444.93	3.42
445.288	3.43
445.647	3.19
446.005	3.39
446.363	3.4
446.721	3.41
447.079	3.38
447.437	3.41
447.795	3.35
448.153	3.28
448.51	3.44
448.868	3.36
449.226	3.37
449.584	3.35
449.941	3.47
450.299	3.43
450.656	3.35
451.014	3.49
451.371	3.51
451.729	3.53
452.086	3.42
452.443	3.54
452.801	3.49
453.158	3.59
453.515	3.48
453.872	3.4
454.229	3.4
454.586	3.35
454.943	3.5
455.3	3.45
455.657	3.35
456.014	3.51
456.371	3.58
456.727	3.57
457.084	3.6
457.441	3.65
457.797	3.51
458.154	3.49
458.51	3.47
458.867	3.5
459.223	3.34
459.58	3.47
459.936	3.54
460.292	3.4
460.648	3.35
461.005	3.48
461.361	3.44
461.717	3.38
462.073	3.45
462.429	3.55
462.785	3.48
463.141	3.56
463.496	3.62
463.852	3.69
464.208	3.59
464.564	3.53
464.919	3.52
465.275	3.58
465.631	3.67
465.986	3.6
466.342	3.36
466.697	3.32
467.052	3.69
467.408	3.59
467.763	3.5
468.118	3.59
468.473	3.53
468.829	3.4
469.184	3.64
469.539	3.33
469.894	3.64
470.249	3.42
470.603	3.72
470.958	3.72
471.313	3.73
471.668	3.52
472.023	3.71
472.377	3.45
472.732	3.74
473.086	3.53
473.441	3.5
473.795	3.79
474.15	3.58
474.504	3.58
474.859	3.46
475.213	3.69
475.567	3.57
475.921	3.64
476.275	3.56
476.63	3.73
476.984	3.65
477.338	3.62
477.692	3.65
478.045	3.61
478.399	3.6
478.753	3.47
479.107	3.69
479.461	3.52
479.814	3.69
480.168	3.59
480.521	3.66
480.875	3.7
481.228	3.69
481.582	3.61
481.935	3.67
482.289	3.54
482.642	3.74
482.995	3.58
483.348	3.65
483.701	3.65
484.055	3.57
484.408	3.6
484.761	3.48
485.114	3.43
485.466	3.44
485.819	3.41
486.172	3.46
486.525	3.53
486.878	3.56
487.23	3.5
487.583	3.62
487.936	3.62
488.288	3.54
488.641	3.51
488.993	3.53
489.345	3.47
489.698	3.51
490.05	3.52
490.402	3.58
490.754	3.6
491.107	3.57
491.459	3.68
491.811	3.58
492.163	3.6
492.515	3.51
492.866	3.54
493.218	3.54
493.57	3.58
493.922	3.6
494.274	3.68
494.625	3.73
494.977	3.67
495.328	3.78
495.68	3.69
496.031	3.74
496.383	3.73
496.734	3.75
497.086	3.8
497.437	3.91
497.788	3.89
498.139	3.85
498.49	3.8
498.842	3.86
499.193	3.71
499.544	3.72
499.894	3.72
500.245	3.8
500.596	3.82
500.947	3.83
501.298	3.77
501.648	3.84
501.999	3.84
502.35	3.68
502.7	3.99
503.051	3.77
503.401	3.94
503.752	3.77
504.102	3.77
504.452	3.9
504.803	3.81
505.153	3.89
505.503	3.87
505.853	3.87
506.203	3.83
506.553	3.82
506.903	3.91
507.253	3.89
507.603	3.95
507.953	3.9
508.303	3.86
508.652	3.77
509.002	3.99
509.352	3.93
509.701	3.85
510.051	4.09
510.4	3.95
510.75	3.79
511.099	3.81
511.449	4
511.798	3.91
512.147	3.92
512.496	3.86
512.846	3.88
513.195	3.93
513.544	4.01
513.893	4.02
514.242	3.89
514.591	3.95
514.939	4.04
515.288	4.07
515.637	3.95
515.986	3.96
516.334	4.03
516.683	4.01
517.032	3.94
517.38	3.87
517.729	3.9
518.077	3.98
518.426	4.11
518.774	3.92
519.122	4.08
519.47	4
519.819	4.06
520.167	3.97
520.515	4.03
520.863	3.95
521.211	3.94
521.559	4.01
521.907	4.12
522.255	3.98
522.602	4.08
522.95	4.21
523.298	4.09
523.645	4.12
523.993	4.07
524.341	4.21
524.688	4.05
525.036	4.05
525.383	4.21
525.73	4.04
526.078	4.13
526.425	4.12
526.772	4.07
527.119	4.18
527.466	4.21
527.814	4.17
528.161	4.15
528.508	4.17
528.854	4.15
529.201	4.05
529.548	4.1
529.895	3.99
530.242	3.96
530.588	4.01
530.935	4.04
531.282	4.05
531.628	4.1
531.975	4.09
532.321	4.18
532.667	4.19
533.014	4.17
533.36	4.29
533.706	4.34
534.052	4.26
534.399	4.21
534.745	4.11
535.091	4.13
535.437	4.18
535.783	4.16
536.129	4.21
536.474	4.32
536.82	4.33
537.166	4.25
537.512	4.29
537.857	4.29
538.203	4.33
538.549	4.38
538.894	4.32
539.239	4.35
539.585	4.42
539.93	4.44
540.276	4.45
540.621	4.59
540.966	4.47
541.311	4.5
541.656	4.39
542.001	4.41
542.346	4.4
542.691	4.29
543.036	4.34
543.381	4.3
543.726	4.36
544.071	4.35
544.415	4.46
544.76	4.44
545.105	4.45
545.449	4.49
545.794	4.43
546.138	4.54
546.483	4.56
546.827	4.58
547.171	4.59
547.516	4.69
547.86	4.56
548.204	4.59
548.548	4.44
548.892	4.64
549.236	4.65
549.58	4.6
549.924	4.78
550.268	4.87
550.612	4.83
550.956	4.95
551.3	4.84
551.643	4.82
551.987	5
552.33	4.96
552.674	4.89
553.017	4.94
553.361	4.83
553.704	5.01
554.048	4.81
554.391	4.96
554.734	4.81
555.077	4.89
555.42	4.85
555.764	5
556.107	5.04
556.45	5.07
556.793	4.99
557.135	4.92
557.478	4.92
557.821	4.95
558.164	5.12
558.507	5
558.849	5.18
559.192	5.05
559.534	5
559.877	5.03
560.219	5.12
560.562	5.14
560.904	5.39
561.246	5.07
561.589	5.23
561.931	5.2
562.273	5.11
562.615	5.11
562.957	5.17
563.299	5.28
563.641	5.19
563.983	5.04
564.325	5.34
564.667	5.3
565.008	5.2
565.35	5.29
565.692	5.17
566.033	5.32
566.375	5.29
566.716	5.25
567.058	5.33
567.399	5.39
567.741	5.32
568.082	5.43
568.423	5.28
568.764	5.39
569.105	5.48
569.447	5.41
569.788	5.35
570.129	5.53
570.47	5.37
570.811	5.44
571.151	5.39
571.492	5.52
571.833	5.48
572.174	5.69
572.514	5.54
572.855	5.77
573.195	5.65
573.536	5.73
573.876	5.57
574.217	5.51
574.557	5.7
574.898	5.54
575.238	5.79
575.578	5.71
575.918	5.72
576.258	5.89
576.598	5.87
576.938	5.69
577.278	5.7
577.618	5.72
577.958	5.82
578.298	5.84
578.638	5.94
578.977	5.92
579.317	6.06
579.657	5.64
579.996	5.97
580.336	6.03
580.675	5.83
581.014	5.97
581.354	5.97
581.693	6.14
582.032	6.3
582.372	6.04
582.711	6.01
583.05	6.06
583.389	6.3
583.728	6.21
584.067	6.05
584.406	6.41
584.745	5.98
585.083	6.19
585.422	6.35
585.761	6.43
586.1	6.44
586.438	6.09
586.777	6.26
587.115	6.25
587.454	6.2
587.792	6.31
588.13	6.4
588.469	6.5
588.807	6.67
589.145	6.42
589.483	6.32
589.821	6.64
590.159	6.6
590.497	6.44
590.835	6.64
591.173	6.69
591.511	6.57
591.849	6.57
592.187	6.42
592.524	6.75
592.862	6.78
593.2	6.81
593.537	6.72
593.875	6.71
594.212	6.66
594.55	6.81
594.887	6.83
595.224	6.98
595.561	6.89
595.899	6.74
596.236	6.94
596.573	6.73
596.91	6.69
597.247	7.21
597.584	6.97
597.921	6.81
598.258	7.2
598.594	6.94
598.931	6.82
599.268	6.95
599.604	7.16
599.941	6.99
600.277	7.06
600.614	6.89
600.95	7.1
601.287	6.94
601.623	7
601.959	7.45
602.296	7.2
602.632	7.22
602.968	7.35
603.304	7.09
603.64	7.29
603.976	7.07
604.312	7.33
604.648	7.42
604.984	7.39
605.319	7.38
605.655	7.37
605.991	7.43
606.326	7.42
606.662	7.3
606.998	7.5
607.333	7.37
607.668	7.39
608.004	7.65
608.339	7.45
608.674	7.77
609.01	7.84
609.345	7.6
609.68	7.6
610.015	7.75
610.35	7.64
610.685	7.37
611.02	7.67
611.355	7.73
611.689	7.74
612.024	7.94
612.359	7.95
612.694	7.94
613.028	8.22
613.363	8
613.697	8.19
614.032	7.86
614.366	8.01
614.7	8.11
615.035	7.85
615.369	8.42
615.703	8.12
616.037	7.92
616.371	8.02
616.705	8.14
617.039	8.34
617.373	8.6
617.707	8.03
618.041	7.99
618.375	8.05
618.709	8.29
619.042	8.27
619.376	8.16
619.71	8.42
620.043	8.78
620.377	8.26
620.71	8.39
621.043	9.06
621.377	8.65
621.71	8.84
622.043	8.68
622.376	8.58
622.709	9.14
623.043	8.76
623.376	8.76
623.709	8.83
624.041	8.59
624.374	8.92
624.707	8.98
625.04	8.83
625.373	8.75
625.705	9.23
626.038	8.86
626.37	8.78
626.703	8.85
627.035	8.73
627.368	9.08
627.7	9.13
628.032	8.98
628.365	9.25
628.697	9.34
629.029	8.82
629.361	9.5
629.693	9.43
630.025	9.43
630.357	9.43
630.689	9.14
631.021	9.39
631.353	9.35
631.684	9.28
632.016	8.91
632.348	9.36
632.679	9.52
633.011	9.49
633.342	9.29
633.674	9.12
634.005	9.52
634.336	9.64
634.668	9.64
634.999	9.49
635.33	9.64
635.661	9.55
635.992	9.6
636.323	9.45
636.654	9.55
636.985	9.82
637.316	9.71
637.647	9.6
637.977	9.77
638.308	9.85
638.639	10.02
638.969	9.83
639.3	10.1
639.63	9.87
639.961	9.99
640.291	9.63
640.622	10.19
640.952	10.44
641.282	9.86
641.612	9.57
641.943	9.96
642.273	10.28
642.603	10.26
642.933	10.34
643.263	10.74
643.592	10.59
643.922	10.81
644.252	10.48
644.582	10.59
644.911	10.36
645.241	10.17
645.571	10.57
645.9	10.69
646.23	10.7
646.559	10.3
646.888	11.17
647.218	10.34
647.547	10.55
647.876	10.64
648.205	10.61
648.534	10.91
648.863	10.78
649.192	10.68
649.521	10.67
649.85	11.05
650.179	10.89
650.508	11.08
650.837	11.03
651.165	10.92
651.494	10.81
651.822	11.25
652.151	10.72
652.479	11.24
652.808	11.09
653.136	10.76
653.465	11.1
653.793	11.12
654.121	11.23
654.449	11.57
654.777	10.61
655.105	10.87
655.433	11.4
655.761	11.38
656.089	11.2
656.417	11.44
656.745	11.22
657.073	11.16
657.4	11.36
657.728	11.19
658.056	11.69
658.383	11.26
658.711	11.23
659.038	12.17
659.365	11.69
659.693	11.67
660.02	11.06
660.347	11.47
660.674	11.43
661.001	11.6
661.329	11.67
661.656	11.53
661.982	11.57
662.309	11.99
662.636	11.77
662.963	11.94
663.29	11.92
663.616	11.9
663.943	12.01
664.27	11.99
664.596	11.65
664.923	12.09
665.249	12.29
665.576	11.95
665.902	11.9
666.228	12.2
666.554	12.59
666.881	11.93
667.207	12.02
667.533	12.87
667.859	12.02
668.185	11.99
668.511	12.5
668.837	12.35
669.162	12.97
669.488	11.72
669.814	12.15
670.139	11.93
670.465	12.9
670.791	12.38
671.116	12.36
671.442	12.24
671.767	12.47
672.092	12.3
672.418	12.61
672.743	12.52
673.068	12.51
673.393	13.09
673.718	12.07
674.043	13.17
674.368	12.52
674.693	13.59
675.018	13.27
675.343	12.66
675.667	12.79
675.992	13.12
676.317	12.15
676.641	13.13
676.966	12.81
677.29	12.99
677.615	13.17
677.939	13.25
678.264	13.41
678.588	13.01
678.912	13.43
679.236	13.59
679.56	12.9
679.885	13.28
680.209	14.03
680.532	13.36
680.856	13.64
681.18	13.91
681.504	13.28
681.828	13.35
682.152	13.4
682.475	13.38
682.799	13.18
683.122	13.44
683.446	13.17
683.769	14.02
684.093	13.81
684.416	13.8
684.739	13.47
685.062	13.74
685.386	13.72
685.709	14.49
686.032	14.16
686.355	14.01
686.678	14.05
687.001	13.93
687.324	14.71
687.646	13.82
687.969	14.18
688.292	14.05
688.614	15.16
688.937	14.36
689.26	14.08
689.582	14.32
