Data from 22-4_chest_Reflection__1__197.txt Node

Date: Thu Dec 15 18:02:11 CST 2022
User: ToomeyLab
Spectrometer: FLMS14357
Trigger mode: 0
Integration Time (sec): 1.000000E-2
Scans to average: 100
Electric dark correction enabled: true
Nonlinearity correction enabled: false
Boxcar width: 0
XAxis mode: Wavelengths
Number of Pixels in Spectrum: 2048
>>>>>Begin Spectral Data<<<<<
189.047	-77.61
189.435	-77.61
189.823	-77.61
190.211	-81.62
190.599	884.36
190.987	-122.92
191.375	-26.41
191.763	139.5
192.151	345.5
192.538	266.43
192.926	58.16
193.314	-8.06
193.702	520.23
194.089	141.05
194.477	36.58
194.864	189.73
195.252	166.88
195.639	10.4
196.027	298.65
196.414	-37.7
196.801	68.76
197.189	15.32
197.576	74.9
197.963	-1205.46
198.351	1.87
198.738	-17.95
199.125	-76.52
199.512	40.98
199.899	-32.78
200.286	-36.15
200.673	48.8
201.06	-7.29
201.447	-2.86
201.833	-54.57
202.22	-25.59
202.607	-29.97
202.994	-4.71
203.38	7.57
203.767	-25.03
204.154	32.25
204.54	9.93
204.927	8.5
205.313	15.64
205.699	39.85
206.086	4.73
206.472	15.62
206.858	19.08
207.245	-4.97
207.631	17.03
208.017	35.44
208.403	-72.92
208.789	9.39
209.175	-31.82
209.561	-83.39
209.947	-44.01
210.333	13.33
210.719	-2.01
211.105	37.27
211.491	43.93
211.876	-28.64
212.262	2.59
212.648	5.59
213.034	-8.6
213.419	-14.86
213.805	-33.23
214.19	16.82
214.576	-31.71
214.961	37.97
215.346	-21.37
215.732	-17.07
216.117	-6.02
216.502	17.54
216.888	3.99
217.273	-7.29
217.658	-41.93
218.043	-33.99
218.428	-21.08
218.813	1.99
219.198	-36.67
219.583	8.41
219.968	-11.27
220.353	-45.03
220.738	-2.82
221.122	-12.26
221.507	-27.53
221.892	-25.92
222.276	-22.5
222.661	-36.23
223.046	-22.23
223.43	14.9
223.815	-10.47
224.199	-13.09
224.583	-3.28
224.968	-14.1
225.352	-6.27
225.736	-4.67
226.121	3.85
226.505	4.38
226.889	-2.5
227.273	-6.02
227.657	5.43
228.041	0
228.425	-3.22
228.809	-4.52
229.193	0.26
229.577	2.4
229.961	0.2
230.344	0.62
230.728	1.9
231.112	2.17
231.495	0.21
231.879	1.46
232.263	3.86
232.646	0.12
233.03	2.45
233.413	-0.26
233.797	-0.52
234.18	1.72
234.563	-0.24
234.946	-0.94
235.33	-0.18
235.713	-0.76
236.096	2.28
236.479	1.57
236.862	1.29
237.245	-0.77
237.628	0.72
238.011	0.9
238.394	0.38
238.777	1.27
239.16	2.16
239.543	2.11
239.925	-0.05
240.308	0.04
240.691	0.8
241.073	1.46
241.456	0.05
241.838	0.97
242.221	0.94
242.603	2.49
242.986	1.86
243.368	1.76
243.75	2.16
244.133	2.13
244.515	1.73
244.897	1.6
245.279	1.49
245.661	1.25
246.043	1.36
246.425	1.13
246.807	2.08
247.189	0.87
247.571	1.49
247.953	1.55
248.335	1.46
248.717	1.86
249.098	1.33
249.48	1.37
249.862	1.82
250.243	1.41
250.625	1.35
251.006	2.5
251.388	1.36
251.769	0.89
252.151	1.69
252.532	1.09
252.913	1.21
253.295	1.59
253.676	1.64
254.057	1.78
254.438	1.29
254.819	1.1
255.2	2.09
255.581	1.92
255.962	3.02
256.343	1.01
256.724	1.77
257.105	0.95
257.486	0.26
257.867	0.2
258.247	0.6
258.628	1.6
259.009	1.57
259.389	1.17
259.77	1.22
260.15	2.07
260.531	1.47
260.911	1.66
261.292	1.48
261.672	1.49
262.052	1.42
262.432	1.27
262.813	1.43
263.193	1.19
263.573	1.8
263.953	0.93
264.333	1.63
264.713	0.7
265.093	1.37
265.473	0.85
265.853	1.87
266.233	1.16
266.612	0.66
266.992	0.78
267.372	2.01
267.752	1.87
268.131	1.44
268.511	1.56
268.89	2.05
269.27	1.02
269.649	1.1
270.029	1.64
270.408	1.66
270.787	1.8
271.167	1.53
271.546	1.89
271.925	1.61
272.304	1.46
272.683	1.12
273.062	1.55
273.441	0.92
273.82	1.81
274.199	1.44
274.578	1.55
274.957	1.79
275.336	1.81
275.715	1.62
276.093	1.02
276.472	0.95
276.851	1.29
277.229	1.48
277.608	1.56
277.986	1.52
278.365	2.16
278.743	1.8
279.122	1.07
279.5	1.69
279.878	0.87
280.257	1.57
280.635	1.69
281.013	1.05
281.391	1.07
281.769	1.73
282.147	1.72
282.525	0.97
282.903	0.99
283.281	1.89
283.659	1.77
284.037	1.49
284.415	1.53
284.792	1.43
285.17	1.24
285.548	1.36
285.925	1.59
286.303	2.31
286.68	1.69
287.058	1.7
287.435	1.56
287.813	1.48
288.19	1.27
288.567	2.01
288.945	1.13
289.322	1.51
289.699	2.11
290.076	1.39
290.453	1.2
290.83	1.77
291.207	1.66
291.584	1.51
291.961	1.46
292.338	1.35
292.715	1.5
293.092	2.03
293.469	1.37
293.845	1.28
294.222	2.08
294.599	1.07
294.975	0.85
295.352	1.58
295.728	1.42
296.105	1.55
296.481	1.8
296.858	1.47
297.234	1.58
297.61	1.32
297.986	1.95
298.363	1.84
298.739	1.7
299.115	1.75
299.491	1.89
299.867	1.27
300.243	1.39
300.619	1
300.995	1.68
301.371	1.97
301.746	1.64
302.122	1.74
302.498	1.79
302.874	1.89
303.249	1.71
303.625	1.07
304	1.74
304.376	2.09
304.751	1.66
305.127	1.92
305.502	2.06
305.878	1.85
306.253	1.59
306.628	1.81
307.003	1.76
307.378	1.79
307.754	1.87
308.129	1.81
308.504	2.15
308.879	1.77
309.254	2.13
309.629	1.85
310.003	1.6
310.378	2.14
310.753	1.75
311.128	1.66
311.502	1.87
311.877	1.65
312.252	1.83
312.626	2.37
313.001	2.17
313.375	2.05
313.75	2.08
314.124	1.71
314.498	2.61
314.873	1.64
315.247	2.14
315.621	1.36
315.995	1.85
316.369	1.34
316.743	1.81
317.117	1.56
317.491	2.17
317.865	1.67
318.239	2.33
318.613	1.79
318.987	1.94
319.361	1.93
319.734	2.02
320.108	2.34
320.482	2.18
320.855	1.82
321.229	1.98
321.602	2.47
321.976	1.37
322.349	2.59
322.723	2.36
323.096	1.66
323.469	2.04
323.843	1.79
324.216	1.89
324.589	2.26
324.962	1.66
325.335	1.58
325.708	1.85
326.081	2.14
326.454	2.5
326.827	2.06
327.2	1.77
327.573	2.16
327.945	1.8
328.318	1.9
328.691	1.81
329.063	1.74
329.436	1.56
329.809	2.26
330.181	3.03
330.553	2.15
330.926	2.34
331.298	2.04
331.671	2.49
332.043	2.25
332.415	1.95
332.787	2.05
333.159	1.98
333.532	2.45
333.904	2.21
334.276	2.15
334.648	2.02
335.02	2.06
335.391	1.78
335.763	2.23
336.135	2.05
336.507	2.14
336.879	2.18
337.25	2.28
337.622	1.8
337.993	2.06
338.365	2.02
338.736	2.4
339.108	2.35
339.479	2.23
339.851	2.37
340.222	2.45
340.593	1.83
340.964	2.4
341.336	1.77
341.707	1.87
342.078	1.88
342.449	2.18
342.82	2.16
343.191	2.35
343.562	2.08
343.933	2
344.303	2.13
344.674	2.46
345.045	2.08
345.416	2.61
345.786	2.08
346.157	2.53
346.527	2.03
346.898	1.68
347.268	1.9
347.639	1.98
348.009	2.23
348.38	1.91
348.75	1.98
349.12	2.33
349.49	2.14
349.861	2.14
350.231	1.97
350.601	2.38
350.971	1.85
351.341	2.41
351.711	1.94
352.081	1.67
352.45	1.59
352.82	1.44
353.19	1.6
353.56	2.06
353.929	2.08
354.299	2.39
354.669	2.22
355.038	2.27
355.408	1.98
355.777	2.34
356.147	2.36
356.516	1.96
356.885	2.29
357.254	1.97
357.624	1.71
357.993	2.14
358.362	2.33
358.731	2.4
359.1	2.21
359.469	2.13
359.838	1.93
360.207	2.53
360.576	2.39
360.945	2.62
361.314	1.95
361.682	1.78
362.051	2.27
362.42	2.29
362.788	2.43
363.157	2.32
363.525	2.38
363.894	2.1
364.262	2.37
364.631	2.47
364.999	2.19
365.367	2.04
365.735	1.89
366.104	2.13
366.472	2.22
366.84	2.03
367.208	2.26
367.576	2.18
367.944	2.37
368.312	1.9
368.68	2.53
369.048	2.19
369.416	1.93
369.783	2.21
370.151	2.47
370.519	2.72
370.886	2.18
371.254	2.57
371.621	2.44
371.989	2.48
372.356	2.3
372.724	2.43
373.091	2
373.458	2.06
373.826	2.35
374.193	2.39
374.56	2.15
374.927	1.91
375.294	2.52
375.661	2.47
376.028	2.09
376.395	2.43
376.762	1.98
377.129	2.29
377.496	2.41
377.863	2.26
378.229	2.59
378.596	2.54
378.963	2.34
379.329	2.34
379.696	2.31
380.062	2.42
380.429	2.15
380.795	2.56
381.161	2
381.528	1.91
381.894	2.05
382.26	2.43
382.626	2.11
382.993	2.69
383.359	2.11
383.725	2.08
384.091	2.32
384.457	2.09
384.823	2.58
385.188	2.22
385.554	2.2
385.92	2.47
386.286	2.26
386.651	2.28
387.017	2.54
387.383	2.02
387.748	2.49
388.114	2.57
388.479	2.46
388.845	2.17
389.21	2.65
389.575	2.56
389.94	2.4
390.306	2.52
390.671	2.49
391.036	2.57
391.401	2.46
391.766	2.18
392.131	2.57
392.496	2.54
392.861	2.34
393.226	2.13
393.591	2.49
393.956	2.4
394.32	2.5
394.685	2.37
395.05	2.33
395.414	2.4
395.779	2.52
396.143	2.17
396.508	2.3
396.872	2.41
397.236	2.75
397.601	2.5
397.965	2.3
398.329	2.68
398.694	2.37
399.058	2.45
399.422	2.55
399.786	2.18
400.15	2.39
400.514	2.52
400.878	2.51
401.242	2.58
401.605	2.46
401.969	2.44
402.333	2.2
402.697	2.8
403.06	2.35
403.424	2.49
403.787	2.56
404.151	2.54
404.514	2.64
404.878	2.39
405.241	2.63
405.604	2.41
405.968	2.66
406.331	2.51
406.694	2.59
407.057	2.47
407.42	2.38
407.783	2.46
408.146	2.53
408.509	2.57
408.872	2.49
409.235	2.56
409.598	2.44
409.961	2.53
410.323	2.39
410.686	2.29
411.049	2.48
411.411	2.33
411.774	2.44
412.136	2.45
412.499	2.62
412.861	2.11
413.223	2.45
413.586	2.46
413.948	2.62
414.31	2.25
414.672	2.28
415.035	2.63
415.397	2.44
415.759	2.25
416.121	2.45
416.483	2.4
416.845	2.42
417.206	2.5
417.568	2.39
417.93	2.51
418.292	2.45
418.653	2.34
419.015	2.54
419.377	2.46
419.738	2.54
420.1	2.46
420.461	2.4
420.822	2.46
421.184	2.47
421.545	2.51
421.906	2.58
422.267	2.46
422.629	2.38
422.99	2.4
423.351	2.47
423.712	2.54
424.073	2.5
424.434	2.56
424.795	2.31
425.155	2.4
425.516	2.44
425.877	2.5
426.238	2.44
426.598	2.48
426.959	2.55
427.32	2.41
427.68	2.53
428.041	2.54
428.401	2.42
428.761	2.69
429.122	2.68
429.482	2.52
429.842	2.49
430.202	2.68
430.563	2.48
430.923	2.46
431.283	2.56
431.643	2.74
432.003	2.55
432.363	2.68
432.722	2.61
433.082	2.49
433.442	2.64
433.802	2.61
434.161	2.55
434.521	2.56
434.881	2.53
435.24	2.5
435.6	2.68
435.959	2.68
436.319	2.59
436.678	2.67
437.037	2.7
437.396	2.66
437.756	2.47
438.115	2.58
438.474	2.69
438.833	2.57
439.192	2.63
439.551	2.5
439.91	2.62
440.269	2.53
440.628	2.52
440.987	2.66
441.345	2.63
441.704	2.59
442.063	2.65
442.421	2.6
442.78	2.56
443.138	2.7
443.497	2.56
443.855	2.71
444.214	2.54
444.572	2.83
444.93	2.6
445.288	2.62
445.647	2.63
446.005	2.55
446.363	2.56
446.721	2.61
447.079	2.56
447.437	2.67
447.795	2.67
448.153	2.58
448.51	2.7
448.868	2.54
449.226	2.67
449.584	2.61
449.941	2.7
450.299	2.62
450.656	2.62
451.014	2.66
451.371	2.66
451.729	2.63
452.086	2.73
452.443	2.77
452.801	2.6
453.158	2.88
453.515	2.54
453.872	2.68
454.229	2.5
454.586	2.6
454.943	2.73
455.3	2.69
455.657	2.64
456.014	2.74
456.371	2.76
456.727	2.81
457.084	2.78
457.441	2.81
457.797	2.84
458.154	2.77
458.51	2.73
458.867	2.69
459.223	2.61
459.58	2.76
459.936	2.63
460.292	2.61
460.648	2.68
461.005	2.68
461.361	2.7
461.717	2.66
462.073	2.85
462.429	2.79
462.785	2.94
463.141	2.75
463.496	2.92
463.852	2.94
464.208	2.74
464.564	2.72
464.919	2.79
465.275	2.79
465.631	2.94
465.986	2.9
466.342	2.67
466.697	2.82
467.052	2.96
467.408	2.9
467.763	2.85
468.118	2.72
468.473	2.83
468.829	2.72
469.184	2.81
469.539	2.61
469.894	2.92
470.249	2.98
470.603	2.91
470.958	2.99
471.313	2.9
471.668	2.97
472.023	2.97
472.377	2.83
472.732	2.88
473.086	2.72
473.441	2.81
473.795	2.96
474.15	2.83
474.504	2.68
474.859	2.72
475.213	3.01
475.567	2.91
475.921	2.89
476.275	2.95
476.63	2.98
476.984	2.69
477.338	3.01
477.692	2.82
478.045	2.85
478.399	2.84
478.753	2.86
479.107	2.93
479.461	2.9
479.814	2.87
480.168	2.96
480.521	2.88
480.875	2.87
481.228	2.94
481.582	2.87
481.935	2.98
482.289	2.9
482.642	3.06
482.995	2.9
483.348	2.86
483.701	2.84
484.055	2.85
484.408	2.91
484.761	2.78
485.114	2.72
485.466	2.68
485.819	2.68
486.172	2.8
486.525	2.84
486.878	2.88
487.23	2.83
487.583	2.91
487.936	2.79
488.288	2.81
488.641	2.8
488.993	2.79
489.345	2.76
489.698	2.76
490.05	2.85
490.402	2.86
490.754	2.81
491.107	2.84
491.459	2.98
491.811	3
492.163	2.93
492.515	2.83
492.866	2.81
493.218	2.81
493.57	2.87
493.922	2.85
494.274	3.02
494.625	3.05
494.977	3
495.328	3.04
495.68	3
496.031	3.01
496.383	2.9
496.734	2.99
497.086	3.13
497.437	3.14
497.788	3.16
498.139	3.06
498.49	3.05
498.842	3.1
499.193	2.92
499.544	3.01
499.894	3.07
500.245	3.09
500.596	3.14
500.947	3.1
501.298	3.09
501.648	3.09
501.999	3.14
502.35	3.11
502.7	3.15
503.051	3.05
503.401	3.15
503.752	3.08
504.102	2.99
504.452	2.99
504.803	2.98
505.153	3.18
505.503	3.17
505.853	3.15
506.203	3.16
506.553	3
506.903	3.12
507.253	3.22
507.603	3.17
507.953	3.19
508.303	3.03
508.652	2.97
509.002	3.1
509.352	3.2
509.701	3.07
510.051	3.26
510.4	3.16
510.75	3
511.099	3
511.449	3.2
511.798	3.12
512.147	3.28
512.496	3.15
512.846	3.19
513.195	3.17
513.544	3.23
513.893	3.24
514.242	3.21
514.591	3.25
514.939	3.27
515.288	3.3
515.637	3.22
515.986	3.23
516.334	3.2
516.683	3.34
517.032	3.15
517.38	3.21
517.729	3.2
518.077	3.17
518.426	3.26
518.774	3.18
519.122	3.17
519.47	3.18
519.819	3.22
520.167	3.15
520.515	3.15
520.863	3.24
521.211	3.25
521.559	3.22
521.907	3.32
522.255	3.23
522.602	3.32
522.95	3.24
523.298	3.3
523.645	3.34
523.993	3.26
524.341	3.4
524.688	3.31
525.036	3.39
525.383	3.4
525.73	3.24
526.078	3.37
526.425	3.21
526.772	3.24
527.119	3.32
527.466	3.32
527.814	3.28
528.161	3.43
528.508	3.39
528.854	3.33
529.201	3.23
529.548	3.33
529.895	3.15
530.242	3.15
530.588	3.17
530.935	3.2
531.282	3.26
531.628	3.34
531.975	3.31
532.321	3.34
532.667	3.39
533.014	3.46
533.36	3.43
533.706	3.45
534.052	3.48
534.399	3.32
534.745	3.32
535.091	3.3
535.437	3.35
535.783	3.44
536.129	3.43
536.474	3.46
536.82	3.55
537.166	3.38
537.512	3.47
537.857	3.54
538.203	3.45
538.549	3.45
538.894	3.48
539.239	3.52
539.585	3.61
539.93	3.62
540.276	3.53
540.621	3.59
540.966	3.56
541.311	3.6
541.656	3.53
542.001	3.54
542.346	3.5
542.691	3.37
543.036	3.4
543.381	3.39
543.726	3.48
544.071	3.58
544.415	3.61
544.76	3.57
545.105	3.59
545.449	3.63
545.794	3.63
546.138	3.71
546.483	3.69
546.827	3.65
547.171	3.71
547.516	3.74
547.86	3.72
548.204	3.8
548.548	3.72
548.892	3.74
549.236	3.67
549.58	3.79
549.924	3.85
550.268	3.86
550.612	3.87
550.956	3.95
551.3	4.08
551.643	3.83
551.987	4.1
552.33	3.94
552.674	3.91
553.017	3.99
553.361	3.92
553.704	3.89
554.048	3.8
554.391	4.07
554.734	3.81
555.077	4
555.42	3.98
555.764	3.87
556.107	4.06
556.45	4.19
556.793	4.1
557.135	4.11
557.478	4.07
557.821	3.97
558.164	4.1
558.507	4.05
558.849	4.2
559.192	4.15
559.534	4.03
559.877	4.09
560.219	4.03
560.562	3.99
560.904	4.02
561.246	4.02
561.589	4.36
561.931	3.99
562.273	4.17
562.615	4.1
562.957	4.04
563.299	4.1
563.641	4.2
563.983	4.05
564.325	4.14
564.667	4.21
565.008	3.99
565.35	4.14
565.692	4.13
566.033	4.25
566.375	4.24
566.716	4.23
567.058	4.14
567.399	4.27
567.741	4.25
568.082	4.27
568.423	4.18
568.764	4.39
569.105	4.3
569.447	4.25
569.788	4.25
570.129	4.35
570.47	4.41
570.811	4.34
571.151	4.41
571.492	4.39
571.833	4.52
572.174	4.61
572.514	4.47
572.855	4.47
573.195	4.33
573.536	4.52
573.876	4.47
574.217	4.35
574.557	4.49
574.898	4.48
575.238	4.78
575.578	4.61
575.918	4.65
576.258	4.72
576.598	4.61
576.938	4.5
577.278	4.58
577.618	4.57
577.958	4.73
578.298	4.75
578.638	4.65
578.977	4.67
579.317	4.9
579.657	4.75
579.996	5.08
580.336	4.93
580.675	4.66
581.014	4.9
581.354	4.64
581.693	4.94
582.032	4.94
582.372	4.79
582.711	4.93
583.05	5
583.389	5.02
583.728	4.89
584.067	4.91
584.406	4.99
584.745	4.58
585.083	4.77
585.422	5.03
585.761	5.04
586.1	5.03
586.438	4.95
586.777	5.08
587.115	5
587.454	4.82
587.792	5.04
588.13	4.95
588.469	4.97
588.807	5.25
589.145	5.15
589.483	4.74
589.821	4.95
590.159	5.1
590.497	5.26
590.835	5.37
591.173	5.33
591.511	5.51
591.849	5.17
592.187	5.11
592.524	5.37
592.862	5.26
593.2	5.3
593.537	5.31
593.875	5.36
594.212	5.54
594.55	5.25
594.887	5.52
595.224	5.55
595.561	5.31
595.899	5.46
596.236	5.52
596.573	5.27
596.91	5.39
597.247	5.44
597.584	5.65
597.921	5.54
598.258	5.63
598.594	5.52
598.931	5.26
599.268	5.53
599.604	5.62
599.941	5.55
600.277	5.71
600.614	5.7
600.95	5.44
601.287	5.5
601.623	5.55
601.959	6.12
602.296	5.8
602.632	5.68
602.968	5.67
603.304	5.58
603.64	5.76
603.976	5.49
604.312	5.69
604.648	5.72
604.984	5.76
605.319	5.65
605.655	5.95
605.991	5.8
606.326	5.75
606.662	5.56
606.998	5.93
607.333	5.76
607.668	6.02
608.004	5.93
608.339	5.91
608.674	6.09
609.01	6.26
609.345	6.04
609.68	5.7
610.015	6.14
610.35	6.09
610.685	5.73
611.02	5.96
611.355	6.07
611.689	6.01
612.024	6.12
612.359	6.3
612.694	6.28
613.028	6.1
613.363	6.28
613.697	6.06
614.032	6.15
614.366	6.39
614.7	6.31
615.035	6.25
615.369	6.47
615.703	6.38
616.037	6.35
616.371	6.11
616.705	6.39
617.039	6.46
617.373	6.54
617.707	6.37
618.041	6.24
618.375	6.15
618.709	6.64
619.042	6.46
619.376	6.4
619.71	6.3
620.043	6.69
620.377	6.78
620.71	6.29
621.043	6.62
621.377	6.62
621.71	7.04
622.043	6.79
622.376	6.62
622.709	6.89
623.043	6.37
623.376	6.72
623.709	6.95
624.041	6.87
624.374	6.85
624.707	6.97
625.04	6.78
625.373	6.94
625.705	7.08
626.038	6.82
626.37	6.96
626.703	6.8
627.035	7.04
627.368	7.16
627.7	6.99
628.032	6.76
628.365	7.43
628.697	7.15
629.029	6.96
629.361	7.22
629.693	6.97
630.025	7.25
630.357	7.2
630.689	7
631.021	7.15
631.353	7.22
631.684	7.11
632.016	6.75
632.348	7.15
632.679	7.42
633.011	7.22
633.342	7.36
633.674	7.11
634.005	7.29
634.336	7.6
634.668	7.17
634.999	7.54
635.33	7.44
635.661	7.31
635.992	7.7
636.323	7.46
636.654	7.45
636.985	7.28
637.316	7.35
637.647	7.98
637.977	7.66
638.308	7.96
638.639	7.49
638.969	7.41
639.3	7.55
639.63	7.29
639.961	7.64
640.291	7.58
640.622	7.87
640.952	7.95
641.282	7.75
641.612	7.6
641.943	7.59
642.273	7.95
642.603	7.95
642.933	8.28
643.263	8.05
643.592	8.1
643.922	8.03
644.252	7.91
644.582	7.91
644.911	7.95
645.241	7.68
645.571	7.74
645.9	7.79
646.23	8.19
646.559	7.85
646.888	8.38
647.218	8.55
647.547	7.98
647.876	7.78
648.205	8.25
648.534	8.54
648.863	7.99
649.192	8.7
649.521	8.43
649.85	8.24
650.179	8.29
650.508	8.45
650.837	8.65
651.165	8.4
651.494	8.37
651.822	8.36
652.151	8.4
652.479	8.71
652.808	8.23
653.136	8.29
653.465	8.38
653.793	8.54
654.121	8.31
654.449	8.26
654.777	8.49
655.105	8.35
655.433	8.71
655.761	8.87
656.089	8.78
656.417	8.75
656.745	8.86
657.073	8.53
657.4	8.69
657.728	8.56
658.056	8.95
658.383	8.45
658.711	8.93
659.038	9.14
659.365	8.72
659.693	8.56
660.02	8.54
660.347	8.76
660.674	8.62
661.001	8.84
661.329	8.63
661.656	8.7
661.982	9.13
662.309	8.96
662.636	8.72
662.963	9.09
663.29	9.19
663.616	9.11
663.943	9.11
664.27	8.75
664.596	8.96
664.923	9.23
665.249	9.31
665.576	8.99
665.902	9.1
666.228	9.82
666.554	9.56
666.881	8.88
667.207	9.46
667.533	9.42
667.859	9.04
668.185	9.47
668.511	9.79
668.837	9.43
669.162	9.85
669.488	9.08
669.814	9.41
670.139	8.74
670.465	9.92
670.791	8.95
671.116	9.28
671.442	9.15
671.767	9.41
672.092	9.66
672.418	9.55
672.743	9.15
673.068	9.59
673.393	9.58
673.718	9.1
674.043	9.58
674.368	9.19
674.693	10.21
675.018	9.95
675.343	9.91
675.667	9.66
675.992	10.02
676.317	9.75
676.641	10.3
676.966	10.07
677.29	10.25
677.615	10.45
677.939	10.57
678.264	9.74
678.588	10.14
678.912	10.31
679.236	10.31
679.56	10.01
679.885	10.24
680.209	10.22
680.532	10.23
680.856	9.85
681.18	10.4
681.504	10.22
681.828	9.77
682.152	9.88
682.475	10.63
682.799	10.32
683.122	10.72
683.446	10.31
683.769	10.83
684.093	10.7
684.416	10.81
684.739	10.01
685.062	10.46
685.386	10.71
685.709	10.55
686.032	10.46
686.355	10.69
686.678	11.26
687.001	10.2
687.324	10.48
687.646	11.14
687.969	11.03
688.292	10.23
688.614	10.86
688.937	11.17
689.26	10.66
689.582	11.16
689.904	11.03
690.227	11.48
690.549	10.95
690.871	10.08
691.194	10.85
691.516	11
