Data from 22-4_chest_Reflection__2__198.txt Node

Date: Thu Dec 15 18:02:31 CST 2022
User: ToomeyLab
Spectrometer: FLMS14357
Trigger mode: 0
Integration Time (sec): 1.000000E-2
Scans to average: 100
Electric dark correction enabled: true
Nonlinearity correction enabled: false
Boxcar width: 0
XAxis mode: Wavelengths
Number of Pixels in Spectrum: 2048
>>>>>Begin Spectral Data<<<<<
189.047	-13.92
189.435	-13.92
189.823	-13.92
190.211	50.75
190.599	-5.83
190.987	-29.77
191.375	-11.04
191.763	77.15
192.151	137.39
192.538	-81.63
192.926	71.42
193.314	224.54
193.702	-68.32
194.089	-90.06
194.477	176.09
194.864	278.5
195.252	45.46
195.639	103.68
196.027	631.08
196.414	1389.57
196.801	148.12
197.189	99.48
197.576	-39.33
197.963	4.28
198.351	-7.54
198.738	-14.83
199.125	-65.71
199.512	-3.52
199.899	-14.36
200.286	-64.7
200.673	43.95
201.06	-13.91
201.447	10.3
201.833	-42.21
202.22	-15.28
202.607	-53.14
202.994	-21.14
203.38	-1.56
203.767	35
204.154	24.73
204.54	23.39
204.927	44.78
205.313	15.84
205.699	19.73
206.086	46.7
206.472	49.95
206.858	2.72
207.245	2.66
207.631	-14.74
208.017	2.76
208.403	-11.97
208.789	-41.11
209.175	-28.22
209.561	-110.86
209.947	1.63
210.333	-13.46
210.719	31.31
211.105	14.69
211.491	41.48
211.876	-32.46
212.262	-22.11
212.648	-10.18
213.034	-36.25
213.419	-5.34
213.805	-28.17
214.19	-14.44
214.576	-33.59
214.961	-6.49
215.346	-31.08
215.732	-11.41
216.117	9.1
216.502	-40.48
216.888	1.57
217.273	-28.6
217.658	0.1
218.043	-16.17
218.428	-16.06
218.813	13.8
219.198	-51.42
219.583	-31.44
219.968	6.81
220.353	-57.14
220.738	-3.05
221.122	-14.38
221.507	-4.68
221.892	-48.81
222.276	-55.11
222.661	-5.8
223.046	-7.47
223.43	11.26
223.815	-1.53
224.199	-1.76
224.583	-4.73
224.968	-5.72
225.352	-1.82
225.736	6.01
226.121	-9.58
226.505	-5.1
226.889	0.14
227.273	-4.12
227.657	5.14
228.041	4.07
228.425	-2.48
228.809	2.81
229.193	2.73
229.577	2.57
229.961	3.35
230.344	4.48
230.728	4.98
231.112	5.2
231.495	2.25
231.879	4.88
232.263	3.39
232.646	2.11
233.03	4.67
233.413	3.83
233.797	1.81
234.18	3.16
234.563	3.97
234.946	3.17
235.33	4.17
235.713	5.2
236.096	4.88
236.479	5.08
236.862	2.81
237.245	3.01
237.628	5.18
238.011	3.65
238.394	4.3
238.777	3.04
239.16	5.75
239.543	4.78
239.925	3.07
240.308	3.27
240.691	3.15
241.073	2.6
241.456	4.89
241.838	3.19
242.221	4.14
242.603	4.08
242.986	3.9
243.368	4.23
243.75	3.78
244.133	4.42
244.515	3.91
244.897	3.81
245.279	3.45
245.661	3.96
246.043	3.82
246.425	3.27
246.807	3.44
247.189	3.54
247.571	3.73
247.953	3.72
248.335	4.23
248.717	4.33
249.098	4.14
249.48	4.17
249.862	4.28
250.243	4.24
250.625	4.13
251.006	4.41
251.388	3.81
251.769	3.15
252.151	3.77
252.532	3.28
252.913	3.37
253.295	3.41
253.676	4.18
254.057	4.02
254.438	3.86
254.819	3.9
255.2	4.96
255.581	3.96
255.962	5.21
256.343	4.75
256.724	4.67
257.105	3.57
257.486	1.91
257.867	3.15
258.247	4.28
258.628	4.05
259.009	3.85
259.389	3.08
259.77	4.15
260.15	4.55
260.531	4.21
260.911	3.73
261.292	3.93
261.672	4.11
262.052	4.21
262.432	3.6
262.813	3.66
263.193	3.95
263.573	4.15
263.953	3.66
264.333	3.95
264.713	4.64
265.093	3.32
265.473	3.35
265.853	3.94
266.233	3.46
266.612	3.46
266.992	3.44
267.372	3.94
267.752	4.18
268.131	3.95
268.511	3.81
268.89	4.06
269.27	2.79
269.649	3.93
270.029	3.49
270.408	3.24
270.787	3.61
271.167	3.92
271.546	4.4
271.925	4.05
272.304	3.55
272.683	3.93
273.062	3.89
273.441	3.63
273.82	3.77
274.199	3.78
274.578	3.84
274.957	3.85
275.336	4.28
275.715	3.81
276.093	3.13
276.472	2.99
276.851	3.64
277.229	3.79
277.608	3.4
277.986	3.49
278.365	3.97
278.743	3.52
279.122	3.29
279.5	3.59
279.878	3.55
280.257	3.1
280.635	4.07
281.013	2.72
281.391	3.61
281.769	4.36
282.147	3.45
282.525	3.77
282.903	3.31
283.281	3.93
283.659	4.11
284.037	3.74
284.415	3.7
284.792	3.59
285.17	3.71
285.548	3.23
285.925	3.17
286.303	4.03
286.68	4.08
287.058	3.6
287.435	3.58
287.813	3.98
288.19	3.28
288.567	3.92
288.945	3.73
289.322	3.9
289.699	3.75
290.076	4.04
290.453	3.33
290.83	4.03
291.207	3.69
291.584	3.89
291.961	4.07
292.338	3.83
292.715	3.65
293.092	3.84
293.469	3.77
293.845	4.11
294.222	4.5
294.599	3.62
294.975	3.26
295.352	3.77
295.728	3.56
296.105	3.76
296.481	3.76
296.858	3.63
297.234	3.68
297.61	3.79
297.986	4.19
298.363	4.33
298.739	4.19
299.115	4.18
299.491	4.21
299.867	3.83
300.243	3.57
300.619	3.31
300.995	4.19
301.371	4.02
301.746	4.3
302.122	3.52
302.498	3.48
302.874	4.08
303.249	3.98
303.625	3.6
304	4.46
304.376	4.13
304.751	4.26
305.127	3.73
305.502	4.04
305.878	3.73
306.253	4.1
306.628	3.84
307.003	3.54
307.378	3.81
307.754	4.15
308.129	3.79
308.504	4.43
308.879	4.36
309.254	4.3
309.629	3.8
310.003	3.59
310.378	3.92
310.753	4.6
311.128	3.74
311.502	4.21
311.877	4.19
312.252	3.86
312.626	4.58
313.001	4.05
313.375	4.33
313.75	3.93
314.124	4.54
314.498	4.15
314.873	3.92
315.247	3.85
315.621	3.94
315.995	3.85
316.369	3.59
316.743	3.93
317.117	3.44
317.491	4.57
317.865	4.05
318.239	4.96
318.613	3.81
318.987	3.27
319.361	4.38
319.734	4.26
320.108	3.81
320.482	4.57
320.855	3.61
321.229	4.21
321.602	4.32
321.976	4.11
322.349	4.68
322.723	3.87
323.096	4.11
323.469	3.83
323.843	3.36
324.216	3.75
324.589	4.26
324.962	3.95
325.335	3.56
325.708	3.58
326.081	4.02
326.454	4.26
326.827	4.19
327.2	3.95
327.573	4.49
327.945	4.06
328.318	4.03
328.691	3.89
329.063	3.72
329.436	4.01
329.809	4.35
330.181	4.68
330.553	4.5
330.926	4.55
331.298	4.2
331.671	4.36
332.043	3.7
332.415	3.78
332.787	4.1
333.159	3.71
333.532	4.06
333.904	4.22
334.276	4.15
334.648	4.19
335.02	3.93
335.391	3.57
335.763	4.24
336.135	4.37
336.507	4.19
336.879	4.06
337.25	4.35
337.622	4.3
337.993	3.99
338.365	4.3
338.736	4.24
339.108	4.08
339.479	4.25
339.851	4.22
340.222	4.16
340.593	3.76
340.964	4.03
341.336	4.1
341.707	4
342.078	3.94
342.449	4.09
342.82	4.23
343.191	3.91
343.562	4.16
343.933	4.32
344.303	4.3
344.674	3.92
345.045	4.23
345.416	4.06
345.786	3.7
346.157	4.44
346.527	4.15
346.898	3.89
347.268	4.24
347.639	4.1
348.009	4.35
348.38	4.02
348.75	4.33
349.12	4.37
349.49	4.25
349.861	4.32
350.231	4.24
350.601	3.92
350.971	3.91
351.341	4.57
351.711	4.14
352.081	3.93
352.45	3.74
352.82	3.69
353.19	3.6
353.56	4.1
353.929	4.18
354.299	4.36
354.669	4.19
355.038	4.41
355.408	4.32
355.777	4.25
356.147	4.45
356.516	3.97
356.885	4.01
357.254	3.99
357.624	3.85
357.993	4.36
358.362	4.43
358.731	4.69
359.1	4.09
359.469	4.31
359.838	4.23
360.207	4.26
360.576	4.17
360.945	4.3
361.314	4.15
361.682	4.36
362.051	4.46
362.42	4.32
362.788	4.36
363.157	4.24
363.525	4.28
363.894	4.17
364.262	4.29
364.631	4.31
364.999	4.13
365.367	4.25
365.735	3.98
366.104	3.8
366.472	4.3
366.84	4.12
367.208	4.59
367.576	4.33
367.944	4.39
368.312	4.19
368.68	4.71
369.048	4.18
369.416	4.29
369.783	4.18
370.151	4.58
370.519	4.51
370.886	4.38
371.254	4.5
371.621	4.43
371.989	4.57
372.356	4.35
372.724	4.31
373.091	4.1
373.458	4.13
373.826	4.56
374.193	4.28
374.56	4.57
374.927	4.2
375.294	4.8
375.661	4.63
376.028	4.2
376.395	4.67
376.762	4.03
377.129	4.39
377.496	4.28
377.863	4.34
378.229	4.37
378.596	4.47
378.963	4.31
379.329	4.64
379.696	4.03
380.062	4.41
380.429	4.31
380.795	4.38
381.161	4.18
381.528	4.11
381.894	4.2
382.26	4.53
382.626	4.52
382.993	4.57
383.359	4.4
383.725	4.11
384.091	4.51
384.457	4.18
384.823	4.6
385.188	4.45
385.554	4.39
385.92	4.6
386.286	4.33
386.651	4.31
387.017	4.59
387.383	4.31
387.748	4.6
388.114	4.43
388.479	4.47
388.845	4.43
389.21	4.55
389.575	4.71
389.94	4.48
390.306	4.29
390.671	4.51
391.036	4.41
391.401	4.48
391.766	4.57
392.131	4.67
392.496	4.5
392.861	4.26
393.226	4.37
393.591	4.39
393.956	4.44
394.32	4.62
394.685	4.74
395.05	4.67
395.414	4.51
395.779	4.6
396.143	4.47
396.508	4.52
396.872	4.62
397.236	4.69
397.601	4.63
397.965	4.53
398.329	4.5
398.694	4.35
399.058	4.66
399.422	4.41
399.786	4.53
400.15	4.5
400.514	4.61
400.878	4.54
401.242	4.53
401.605	4.63
401.969	4.49
402.333	4.65
402.697	4.83
403.06	4.51
403.424	4.74
403.787	4.71
404.151	4.66
404.514	4.43
404.878	4.44
405.241	4.55
405.604	4.52
405.968	4.73
406.331	4.65
406.694	4.75
407.057	4.47
407.42	4.91
407.783	4.79
408.146	4.49
408.509	4.8
408.872	4.85
409.235	4.69
409.598	4.54
409.961	4.65
410.323	4.51
410.686	4.57
411.049	4.52
411.411	4.67
411.774	4.65
412.136	4.62
412.499	4.88
412.861	4.35
413.223	4.61
413.586	4.83
413.948	4.9
414.31	4.72
414.672	4.48
415.035	4.72
415.397	4.58
415.759	4.59
416.121	4.89
416.483	4.55
416.845	4.69
417.206	4.76
417.568	4.59
417.93	4.56
418.292	4.6
418.653	4.49
419.015	4.63
419.377	4.59
419.738	4.67
420.1	4.63
420.461	4.73
420.822	4.63
421.184	4.73
421.545	4.71
421.906	4.71
422.267	4.62
422.629	4.65
422.99	4.65
423.351	4.6
423.712	4.6
424.073	4.69
424.434	4.71
424.795	4.54
425.155	4.55
425.516	4.7
425.877	4.61
426.238	4.7
426.598	4.68
426.959	4.67
427.32	4.7
427.68	4.69
428.041	4.76
428.401	4.65
428.761	4.84
429.122	4.67
429.482	4.78
429.842	4.55
430.202	4.74
430.563	4.7
430.923	4.81
431.283	4.86
431.643	4.87
432.003	4.86
432.363	4.97
432.722	4.76
433.082	4.67
433.442	4.87
433.802	4.83
434.161	4.78
434.521	4.75
434.881	4.7
435.24	4.66
435.6	4.84
435.959	4.8
436.319	4.85
436.678	4.92
437.037	4.9
437.396	4.86
437.756	4.67
438.115	4.76
438.474	4.75
438.833	4.91
439.192	4.82
439.551	4.8
439.91	4.83
440.269	4.73
440.628	4.84
440.987	4.84
441.345	4.84
441.704	4.87
442.063	4.82
442.421	4.89
442.78	4.83
443.138	4.92
443.497	4.83
443.855	5.04
444.214	4.82
444.572	5
444.93	4.85
445.288	4.87
445.647	4.87
446.005	4.79
446.363	4.87
446.721	4.89
447.079	4.79
447.437	4.97
447.795	4.85
448.153	4.8
448.51	4.88
448.868	4.81
449.226	4.87
449.584	4.78
449.941	4.87
450.299	4.97
450.656	4.88
451.014	4.93
451.371	4.96
451.729	5.03
452.086	4.94
452.443	4.97
452.801	4.98
453.158	5.05
453.515	4.92
453.872	5.05
454.229	4.84
454.586	4.8
454.943	5.02
455.3	5.06
455.657	4.9
456.014	5.01
456.371	5.03
456.727	5.13
457.084	5.1
457.441	5.11
457.797	5.1
458.154	4.9
458.51	5.04
458.867	4.85
459.223	4.88
459.58	5.06
459.936	4.93
460.292	4.91
460.648	4.96
461.005	4.97
461.361	5.01
461.717	4.85
462.073	5.03
462.429	5.07
462.785	5.03
463.141	4.91
463.496	5.18
463.852	5.17
464.208	5.21
464.564	5.05
464.919	5.03
465.275	5.02
465.631	5.23
465.986	5.19
466.342	5.06
466.697	5.15
467.052	5.25
467.408	5.22
467.763	5.22
468.118	5.06
468.473	5.14
468.829	5.09
469.184	5.31
469.539	5.06
469.894	5.11
470.249	5.08
470.603	5.3
470.958	5.27
471.313	5.29
471.668	5.25
472.023	5.16
472.377	5.15
472.732	5.17
473.086	5.07
473.441	5.04
473.795	5.4
474.15	5.11
474.504	5.08
474.859	5.05
475.213	5.27
475.567	5.35
475.921	5.21
476.275	5.27
476.63	5.25
476.984	5.08
477.338	5.21
477.692	5.25
478.045	5.18
478.399	5.25
478.753	5.23
479.107	5.27
479.461	5.22
479.814	5.24
480.168	5.34
480.521	5.37
480.875	5.26
481.228	5.41
481.582	5.3
481.935	5.49
482.289	5.24
482.642	5.31
482.995	5.18
483.348	5.13
483.701	5.26
484.055	5.2
484.408	5.21
484.761	5.05
485.114	5.02
485.466	4.99
485.819	4.97
486.172	5.01
486.525	5.05
486.878	5.09
487.23	5.13
487.583	5.17
487.936	5.12
488.288	5.17
488.641	5.11
488.993	5.08
489.345	5.07
489.698	5.09
490.05	5.11
490.402	5.17
490.754	5.25
491.107	5.14
491.459	5.35
491.811	5.28
492.163	5.16
492.515	5.21
492.866	5.16
493.218	5.14
493.57	5.15
493.922	5.19
494.274	5.33
494.625	5.28
494.977	5.29
495.328	5.46
495.68	5.41
496.031	5.33
496.383	5.34
496.734	5.37
497.086	5.48
497.437	5.41
497.788	5.55
498.139	5.38
498.49	5.45
498.842	5.52
499.193	5.31
499.544	5.49
499.894	5.44
500.245	5.48
500.596	5.54
500.947	5.37
501.298	5.52
501.648	5.63
501.999	5.53
502.35	5.42
502.7	5.66
503.051	5.54
503.401	5.67
503.752	5.43
504.102	5.5
504.452	5.55
504.803	5.56
505.153	5.65
505.503	5.66
505.853	5.69
506.203	5.66
506.553	5.51
506.903	5.64
507.253	5.61
507.603	5.7
507.953	5.61
508.303	5.73
508.652	5.47
509.002	5.72
509.352	5.65
509.701	5.55
510.051	5.7
510.4	5.77
510.75	5.64
511.099	5.5
511.449	5.72
511.798	5.54
512.147	5.55
512.496	5.74
512.846	5.63
513.195	5.65
513.544	5.76
513.893	5.7
514.242	5.77
514.591	5.62
514.939	5.79
515.288	5.8
515.637	5.82
515.986	5.7
516.334	5.71
516.683	5.75
517.032	5.72
517.38	5.77
517.729	5.75
518.077	5.81
518.426	5.78
518.774	5.77
519.122	5.84
519.47	5.7
519.819	5.78
520.167	5.76
520.515	5.83
520.863	5.76
521.211	5.71
521.559	5.83
521.907	5.91
522.255	5.75
522.602	5.97
522.95	6.02
523.298	5.94
523.645	5.93
523.993	5.9
524.341	5.99
524.688	5.89
525.036	5.99
525.383	6.05
525.73	5.88
526.078	5.94
526.425	5.94
526.772	5.87
527.119	5.9
527.466	6.01
527.814	5.92
528.161	5.93
528.508	5.99
528.854	5.98
529.201	5.92
529.548	5.89
529.895	5.79
530.242	5.8
530.588	5.8
530.935	5.87
531.282	5.84
531.628	5.92
531.975	5.95
532.321	6
532.667	6.09
533.014	6.09
533.36	6.17
533.706	6.1
534.052	6.14
534.399	6.07
534.745	5.93
535.091	5.94
535.437	6.01
535.783	6.09
536.129	6.08
536.474	6.13
536.82	6.2
537.166	6.12
537.512	6.23
537.857	6.18
538.203	6.23
538.549	6.16
538.894	6.24
539.239	6.29
539.585	6.31
539.93	6.35
540.276	6.25
540.621	6.38
540.966	6.41
541.311	6.47
541.656	6.28
542.001	6.38
542.346	6.23
542.691	6.25
543.036	6.26
543.381	6.29
543.726	6.33
544.071	6.31
544.415	6.34
544.76	6.35
545.105	6.41
545.449	6.43
545.794	6.45
546.138	6.47
546.483	6.57
546.827	6.47
547.171	6.62
547.516	6.63
547.86	6.56
548.204	6.6
548.548	6.54
548.892	6.63
549.236	6.62
549.58	6.64
549.924	6.85
550.268	6.82
550.612	6.78
550.956	6.98
551.3	6.98
551.643	6.79
551.987	6.96
552.33	6.99
552.674	6.97
553.017	7.09
553.361	7.03
553.704	6.8
554.048	6.77
554.391	7.07
554.734	6.93
555.077	6.98
555.42	6.87
555.764	6.93
556.107	7.19
556.45	7.2
556.793	7.17
557.135	6.97
557.478	7.14
557.821	7.05
558.164	7.2
558.507	7.16
558.849	7.31
559.192	7.26
559.534	7.32
559.877	7.17
560.219	7.29
560.562	7.16
560.904	7.37
561.246	7.33
561.589	7.49
561.931	7.19
562.273	7.3
562.615	7.44
562.957	7.34
563.299	7.47
563.641	7.47
563.983	7.29
564.325	7.5
564.667	7.43
565.008	7.29
565.35	7.25
565.692	7.43
566.033	7.39
566.375	7.38
566.716	7.48
567.058	7.55
567.399	7.54
567.741	7.54
568.082	7.58
568.423	7.56
568.764	7.55
569.105	7.75
569.447	7.53
569.788	7.66
570.129	7.8
570.47	7.66
570.811	7.67
571.151	7.73
571.492	7.86
571.833	7.73
572.174	7.92
572.514	7.78
572.855	7.98
573.195	7.74
573.536	7.91
573.876	7.85
574.217	7.88
574.557	7.86
574.898	7.77
575.238	8.02
575.578	8.1
575.918	7.97
576.258	8.23
576.598	7.86
576.938	8.04
577.278	8.08
577.618	8.08
577.958	8.27
578.298	8.24
578.638	8.01
578.977	8.14
579.317	8.38
579.657	8.14
579.996	8.4
580.336	8.4
580.675	8.37
581.014	8.4
581.354	8.24
581.693	8.52
582.032	8.71
582.372	8.41
582.711	8.54
583.05	8.53
583.389	8.45
583.728	8.72
584.067	8.32
584.406	8.71
584.745	8.59
585.083	8.54
585.422	8.87
585.761	8.85
586.1	8.76
586.438	8.62
586.777	8.68
587.115	8.93
587.454	8.5
587.792	8.54
588.13	8.78
588.469	8.86
588.807	8.88
589.145	9.17
589.483	8.89
589.821	9.31
590.159	8.93
590.497	8.9
590.835	9.05
591.173	9.28
591.511	9.37
591.849	9
592.187	8.96
592.524	9.11
592.862	9.25
593.2	9.13
593.537	9.06
593.875	9.27
594.212	9.26
594.55	9.34
594.887	9.28
595.224	9.54
595.561	9.28
595.899	9.57
596.236	9.52
596.573	9.46
596.91	9.25
597.247	9.53
597.584	9.72
597.921	9.42
598.258	9.72
598.594	9.46
598.931	9.38
599.268	9.53
599.604	9.63
599.941	9.59
600.277	9.67
600.614	9.74
600.95	9.54
601.287	9.56
601.623	9.69
601.959	10.01
602.296	9.84
602.632	9.67
602.968	9.92
603.304	10
603.64	9.95
603.976	9.76
604.312	10.01
604.648	10.07
604.984	10.21
605.319	10.09
605.655	10.08
605.991	9.95
606.326	9.98
606.662	9.94
606.998	10.14
607.333	10.09
607.668	10.03
608.004	10.31
608.339	10.27
608.674	10.41
609.01	10.38
609.345	10.35
609.68	10.25
610.015	10.49
610.35	10.43
610.685	10.22
611.02	10.35
611.355	10.44
611.689	10.46
612.024	10.57
612.359	10.61
612.694	10.75
613.028	10.39
613.363	10.63
613.697	10.44
614.032	10.67
614.366	10.8
614.7	10.9
615.035	10.93
615.369	10.96
615.703	10.83
616.037	11.08
616.371	10.94
616.705	10.93
617.039	10.99
617.373	11.04
617.707	10.93
618.041	10.62
618.375	10.8
618.709	11.3
619.042	10.82
619.376	11.06
619.71	11.26
620.043	11.56
620.377	11.17
620.71	10.98
621.043	11.36
621.377	11.39
621.71	11.39
622.043	11.46
622.376	11.5
622.709	11.53
623.043	11.11
623.376	11.85
623.709	11.66
624.041	11.8
624.374	11.95
624.707	11.75
625.04	11.59
625.373	11.86
625.705	11.57
626.038	11.42
626.37	11.73
626.703	11.79
627.035	11.56
627.368	11.82
627.7	11.81
628.032	11.75
628.365	12.02
628.697	12.14
629.029	11.83
629.361	11.97
629.693	12.06
630.025	12.17
630.357	12.17
630.689	12.12
631.021	12.32
631.353	12.29
631.684	12.13
632.016	11.85
632.348	12.06
632.679	12.35
633.011	12.07
633.342	12.61
633.674	12.07
634.005	12.82
634.336	12.4
634.668	12.36
634.999	12.52
635.33	12.53
635.661	12.34
635.992	12.69
636.323	12.48
636.654	12.7
636.985	12.6
637.316	12.96
637.647	12.79
637.977	12.54
638.308	12.98
638.639	12.61
638.969	12.82
639.3	12.91
639.63	13.1
639.961	13.2
640.291	12.57
640.622	13.16
640.952	13.06
641.282	12.7
641.612	12.62
641.943	12.9
642.273	12.83
642.603	13.24
642.933	13.17
643.263	13.56
643.592	13.52
643.922	13.4
644.252	13.24
644.582	13.5
644.911	13.25
645.241	13.63
645.571	13.17
645.9	13.75
646.23	13.14
646.559	13.45
646.888	13.5
647.218	13.25
647.547	13.79
647.876	13.48
648.205	13.13
648.534	13.46
648.863	13.51
649.192	13.71
649.521	13.77
649.85	13.94
650.179	13.84
650.508	13.56
650.837	14.04
651.165	14.15
651.494	13.85
651.822	14.35
652.151	13.8
652.479	14.42
652.808	13.61
653.136	13.58
653.465	13.91
653.793	14.13
654.121	14.15
654.449	14.05
654.777	13.8
655.105	13.95
655.433	14.39
655.761	14.3
656.089	14.34
656.417	14.27
656.745	14.46
657.073	14.62
657.4	14.15
657.728	14.52
658.056	14.64
658.383	14.8
658.711	14.82
659.038	14.65
659.365	15.14
659.693	14.99
660.02	14.82
660.347	14.6
660.674	14.71
661.001	14.9
661.329	14.74
661.656	14.51
661.982	14.67
662.309	14.51
662.636	15.02
662.963	14.78
663.29	15.24
663.616	15.33
663.943	15.11
664.27	15.23
664.596	14.95
664.923	15.15
665.249	15.83
665.576	14.78
665.902	14.48
666.228	15.34
666.554	15.58
666.881	15
667.207	15.32
667.533	15.17
667.859	14.96
668.185	15.37
668.511	15.82
668.837	15.55
669.162	15.43
669.488	15.31
669.814	15.41
670.139	15.57
670.465	16
670.791	15.07
671.116	15.77
671.442	15.25
671.767	15.61
672.092	15.31
672.418	15.74
672.743	15.8
673.068	15.39
673.393	16.2
673.718	15.52
674.043	15.88
674.368	15.63
674.693	16.14
675.018	16.1
675.343	16.23
675.667	16.23
675.992	16.45
676.317	15.78
676.641	16.36
676.966	16.33
677.29	15.96
677.615	16.11
677.939	16.1
678.264	16.19
678.588	16.48
678.912	15.96
679.236	16.18
679.56	15.97
679.885	16.44
680.209	17.02
680.532	17.02
680.856	16.83
681.18	17.47
681.504	16.51
681.828	16.89
682.152	16.22
682.475	16.59
682.799	16.39
683.122	16.72
683.446	16.54
683.769	17.29
684.093	17.37
684.416	16.91
684.739	16.33
685.062	16.82
685.386	16.54
685.709	16.69
686.032	16.94
686.355	16.81
