Data from 22-4_forehead_Reflection__1__207.txt Node

Date: Thu Dec 15 18:07:09 CST 2022
User: ToomeyLab
Spectrometer: FLMS14357
Trigger mode: 0
Integration Time (sec): 1.000000E-2
Scans to average: 100
Electric dark correction enabled: true
Nonlinearity correction enabled: false
Boxcar width: 0
XAxis mode: Wavelengths
Number of Pixels in Spectrum: 2048
>>>>>Begin Spectral Data<<<<<
189.047	-262.98
189.435	-262.98
189.823	-262.98
190.211	147.64
190.599	-256.13
190.987	387.85
191.375	-39.88
191.763	111.91
192.151	-134.08
192.538	421.94
192.926	-36.29
193.314	174.35
193.702	-660.69
194.089	145.45
194.477	3.17
194.864	137.95
195.252	382.6
195.639	57.57
196.027	63.83
196.414	1517.91
196.801	70.38
197.189	69.82
197.576	-48.38
197.963	-238.79
198.351	-19.54
198.738	-57.64
199.125	-42.55
199.512	42.13
199.899	-32.04
200.286	-70.21
200.673	57.88
201.06	-2.75
201.447	50.55
201.833	18.87
202.22	18.91
202.607	-54.52
202.994	-29.18
203.38	11.24
203.767	-12.88
204.154	22.53
204.54	0.8
204.927	-14.52
205.313	35.42
205.699	27.05
206.086	33.17
206.472	-10.38
206.858	7.28
207.245	5.83
207.631	-7.08
208.017	63.69
208.403	-105.68
208.789	-1.13
209.175	-0.35
209.561	-20.97
209.947	-21.69
210.333	-16.72
210.719	13.26
211.105	17.09
211.491	2.21
211.876	-50.47
212.262	4.27
212.648	-2.75
213.034	-0.37
213.419	24.53
213.805	4.93
214.19	-32.36
214.576	-5.54
214.961	35.03
215.346	8.04
215.732	-7
216.117	-16.92
216.502	-21.43
216.888	7.22
217.273	-4.99
217.658	-22.87
218.043	-33.92
218.428	-48.23
218.813	17.25
219.198	-41.78
219.583	-5.28
219.968	2.57
220.353	-34.86
220.738	-23.23
221.122	-12.02
221.507	-4.55
221.892	-24.02
222.276	-28.24
222.661	-17.03
223.046	-19.4
223.43	22.25
223.815	0.26
224.199	6.12
224.583	3.44
224.968	-4.11
225.352	-4.18
225.736	5.92
226.121	6.1
226.505	-4.07
226.889	-4.52
227.273	-4.28
227.657	3.56
228.041	2.57
228.425	-2.46
228.809	-0.18
229.193	1.53
229.577	1.44
229.961	0.72
230.344	1.52
230.728	3.09
231.112	3.29
231.495	1.56
231.879	2.28
232.263	1.18
232.646	0.86
233.03	3.3
233.413	3.36
233.797	-0.28
234.18	2.65
234.563	4.39
234.946	2.21
235.33	2.92
235.713	1.85
236.096	3.3
236.479	4.91
236.862	1.78
237.245	1.75
237.628	2.27
238.011	1.34
238.394	-0.12
238.777	1.19
239.16	1.79
239.543	4.22
239.925	2.27
240.308	0.46
240.691	2.05
241.073	1.8
241.456	2.37
241.838	2.52
242.221	2.01
242.603	1.66
242.986	1.93
243.368	2.11
243.75	2.15
244.133	2.55
244.515	2.07
244.897	1.8
245.279	1.53
245.661	1.86
246.043	2.85
246.425	1.87
246.807	2.47
247.189	1.68
247.571	2.2
247.953	1.9
248.335	2.19
248.717	2.29
249.098	2.44
249.48	2.01
249.862	2.15
250.243	2.52
250.625	2.21
251.006	3.49
251.388	1.97
251.769	1.56
252.151	2.46
252.532	1.72
252.913	2.21
253.295	2.43
253.676	2.52
254.057	1.73
254.438	1.58
254.819	2.46
255.2	2.47
255.581	3.58
255.962	3.67
256.343	3.09
256.724	2.04
257.105	2.23
257.486	0.83
257.867	1.96
258.247	1.91
258.628	2.82
259.009	2.21
259.389	2.12
259.77	1.96
260.15	3.04
260.531	2.39
260.911	2.1
261.292	2.38
261.672	2.3
262.052	2.36
262.432	1.85
262.813	2.08
263.193	2.71
263.573	2.06
263.953	2.26
264.333	2.23
264.713	2.11
265.093	1.7
265.473	1.82
265.853	2.37
266.233	1.57
266.612	1.11
266.992	2.07
267.372	2.53
267.752	2.81
268.131	1.98
268.511	2.3
268.89	2.18
269.27	1.7
269.649	2.2
270.029	1.54
270.408	1.91
270.787	2.44
271.167	2.31
271.546	2.6
271.925	2.58
272.304	2.07
272.683	2.12
273.062	2.04
273.441	2.11
273.82	2.41
274.199	2.36
274.578	2.32
274.957	2.04
275.336	2.71
275.715	2.95
276.093	1.63
276.472	1.93
276.851	1.64
277.229	2.2
277.608	1.81
277.986	2.17
278.365	2.76
278.743	2.62
279.122	1.66
279.5	2.47
279.878	2.22
280.257	2.19
280.635	2.55
281.013	1.69
281.391	1.79
281.769	2.45
282.147	2.08
282.525	1.98
282.903	1.82
283.281	2.31
283.659	2.81
284.037	2.22
284.415	2.16
284.792	2.39
285.17	1.73
285.548	1.95
285.925	2.02
286.303	2.45
286.68	2.11
287.058	2.67
287.435	2.13
287.813	2.08
288.19	2.48
288.567	2.17
288.945	2.19
289.322	2.66
289.699	2.65
290.076	2.44
290.453	2.18
290.83	2.5
291.207	2.58
291.584	2.56
291.961	2.52
292.338	2.43
292.715	2.32
293.092	2.84
293.469	2.41
293.845	2.31
294.222	2.96
294.599	2.3
294.975	2.36
295.352	2.69
295.728	2.36
296.105	2.5
296.481	2.89
296.858	2.87
297.234	2.49
297.61	2.56
297.986	2.9
298.363	3.02
298.739	2.94
299.115	2.7
299.491	2.8
299.867	2.27
300.243	2.64
300.619	2.76
300.995	3.03
301.371	3.28
301.746	3.04
302.122	2.64
302.498	2.59
302.874	3.27
303.249	3.09
303.625	3.01
304	3.25
304.376	3.15
304.751	2.85
305.127	2.75
305.502	3.17
305.878	3.49
306.253	2.24
306.628	3.22
307.003	3
307.378	2.63
307.754	3.11
308.129	2.93
308.504	3.36
308.879	3.12
309.254	3.32
309.629	3.4
310.003	3.54
310.378	3.75
310.753	3.29
311.128	3.05
311.502	3.18
311.877	3.28
312.252	3.65
312.626	3.65
313.001	3.85
313.375	3.32
313.75	3.81
314.124	3.7
314.498	3.89
314.873	3.43
315.247	3.4
315.621	3.48
315.995	3.66
316.369	3.24
316.743	3.54
317.117	3.69
317.491	3.74
317.865	3.64
318.239	4.17
318.613	3.67
318.987	3.39
319.361	4.55
319.734	3.53
320.108	3.98
320.482	4.03
320.855	3.56
321.229	3.86
321.602	3.96
321.976	3.25
322.349	4.66
322.723	3.75
323.096	4.09
323.469	3.79
323.843	3.69
324.216	4.29
324.589	4.25
324.962	4.04
325.335	3.57
325.708	3.77
326.081	3.95
326.454	4.32
326.827	4.33
327.2	3.87
327.573	4.43
327.945	3.77
328.318	3.93
328.691	4.22
329.063	4.27
329.436	4.44
329.809	4.49
330.181	4.76
330.553	4.39
330.926	5.42
331.298	4.46
331.671	4.56
332.043	4.43
332.415	3.88
332.787	4.66
333.159	4.19
333.532	4.7
333.904	5.12
334.276	4.68
334.648	4.73
335.02	4.29
335.391	4.52
335.763	4.81
336.135	4.89
336.507	4.43
336.879	4.86
337.25	4.68
337.622	4.51
337.993	4.44
338.365	4.66
338.736	4.45
339.108	4.94
339.479	5.12
339.851	4.65
340.222	5.32
340.593	4.88
340.964	5.24
341.336	4.5
341.707	4.71
342.078	4.89
342.449	5.13
342.82	5.08
343.191	5.06
343.562	5.07
343.933	4.77
344.303	4.92
344.674	4.88
345.045	4.96
345.416	5.15
345.786	4.67
346.157	5.47
346.527	5.05
346.898	4.98
347.268	5.07
347.639	4.53
348.009	4.93
348.38	5.13
348.75	5.28
349.12	5.46
349.49	5.27
349.861	5.26
350.231	5.22
350.601	5.37
350.971	5.1
351.341	5.22
351.711	5.13
352.081	5.17
352.45	5.05
352.82	5.24
353.19	5.23
353.56	5.15
353.929	5.33
354.299	5.61
354.669	5.34
355.038	5.64
355.408	5.74
355.777	5.76
356.147	5.51
356.516	5.02
356.885	5.64
357.254	5.5
357.624	4.89
357.993	5.66
358.362	5.23
358.731	5.66
359.1	5.64
359.469	5.79
359.838	5.72
360.207	5.38
360.576	6.07
360.945	5.68
361.314	5.54
361.682	5.5
362.051	5.57
362.42	5.79
362.788	5.96
363.157	5.54
363.525	5.83
363.894	5.47
364.262	5.72
364.631	5.97
364.999	5.96
365.367	5.91
365.735	5.41
366.104	5.77
366.472	5.99
366.84	5.73
367.208	6.13
367.576	5.56
367.944	6.02
368.312	5.9
368.68	6.34
369.048	5.76
369.416	5.94
369.783	6.25
370.151	6.68
370.519	6.47
370.886	6.12
371.254	6.21
371.621	6.3
371.989	6.2
372.356	5.94
372.724	6.29
373.091	6.09
373.458	5.88
373.826	6.56
374.193	6.09
374.56	6.22
374.927	5.88
375.294	6.14
375.661	6.2
376.028	6.13
376.395	6.43
376.762	6.14
377.129	6.41
377.496	6.35
377.863	6.22
378.229	6.48
378.596	6.57
378.963	6.46
379.329	6.48
379.696	6.21
380.062	6.36
380.429	6.23
380.795	6.57
381.161	6.17
381.528	6.3
381.894	6.38
382.26	6.75
382.626	6.65
382.993	6.94
383.359	6.66
383.725	6.47
384.091	6.75
384.457	6.57
384.823	6.78
385.188	6.85
385.554	6.8
385.92	6.63
386.286	7.07
386.651	6.71
387.017	6.78
387.383	6.95
387.748	7.07
388.114	6.89
388.479	6.74
388.845	6.63
389.21	7.06
389.575	7.08
389.94	6.95
390.306	7.02
390.671	6.97
391.036	7.01
391.401	7.06
391.766	7.18
392.131	7.23
392.496	7.18
392.861	6.93
393.226	6.95
393.591	7.27
393.956	7.18
394.32	7.07
394.685	7.34
395.05	7.12
395.414	7.36
395.779	7.3
396.143	7.08
396.508	7.33
396.872	7.31
397.236	7.58
397.601	7.4
397.965	7.46
398.329	7.46
398.694	7.2
399.058	7.48
399.422	7.48
399.786	7.4
400.15	7.54
400.514	7.66
400.878	7.47
401.242	7.45
401.605	7.66
401.969	7.51
402.333	7.38
402.697	7.72
403.06	7.72
403.424	7.69
403.787	7.61
404.151	7.6
404.514	7.52
404.878	7.58
405.241	7.74
405.604	7.62
405.968	7.69
406.331	7.7
406.694	7.7
407.057	7.6
407.42	7.7
407.783	8.01
408.146	7.81
408.509	8.14
408.872	7.84
409.235	7.85
409.598	7.71
409.961	7.8
410.323	7.87
410.686	7.94
411.049	8.04
411.411	8.09
411.774	7.99
412.136	8.06
412.499	8.18
412.861	7.64
413.223	7.85
413.586	8.1
413.948	8.29
414.31	8.25
414.672	7.99
415.035	8.31
415.397	8
415.759	7.85
416.121	8.26
416.483	7.96
416.845	8.05
417.206	8.27
417.568	8.2
417.93	8.34
418.292	8.39
418.653	8.08
419.015	8.19
419.377	8.26
419.738	8.37
420.1	8.28
420.461	8.15
420.822	8.16
421.184	8.23
421.545	8.37
421.906	8.36
422.267	8.2
422.629	8.27
422.99	8.18
423.351	8.28
423.712	8.34
424.073	8.54
424.434	8.52
424.795	8.33
425.155	8.34
425.516	8.33
425.877	8.49
426.238	8.38
426.598	8.55
426.959	8.64
427.32	8.49
427.68	8.51
428.041	8.65
428.401	8.63
428.761	8.85
429.122	8.58
429.482	8.81
429.842	8.7
430.202	8.89
430.563	8.98
430.923	8.86
431.283	9.13
431.643	8.99
432.003	8.98
432.363	9.09
432.722	8.89
433.082	9.05
433.442	9.07
433.802	9.03
434.161	8.89
434.521	9.06
434.881	9.08
435.24	9.08
435.6	9.12
435.959	9.14
436.319	9.21
436.678	9.23
437.037	9.24
437.396	9.17
437.756	9.24
438.115	9.38
438.474	9.31
438.833	9.36
439.192	9.25
439.551	9.27
439.91	9.49
440.269	9.3
440.628	9.39
440.987	9.28
441.345	9.36
441.704	9.36
442.063	9.21
442.421	9.33
442.78	9.45
443.138	9.37
443.497	9.38
443.855	9.58
444.214	9.41
444.572	9.74
444.93	9.54
445.288	9.68
445.647	9.44
446.005	9.61
446.363	9.61
446.721	9.66
447.079	9.57
447.437	9.56
447.795	9.68
448.153	9.53
448.51	9.71
448.868	9.61
449.226	9.7
449.584	9.67
449.941	9.76
450.299	9.73
450.656	9.79
451.014	9.95
451.371	10.11
451.729	10.01
452.086	9.97
452.443	10.2
452.801	10.19
453.158	10.2
453.515	10.02
453.872	10.12
454.229	10.12
454.586	10.09
454.943	10.17
455.3	10.3
455.657	10.17
456.014	10.37
456.371	10.35
456.727	10.33
457.084	10.48
457.441	10.47
457.797	10.38
458.154	10.6
458.51	10.46
458.867	10.48
459.223	10.31
459.58	10.55
459.936	10.48
460.292	10.29
460.648	10.33
461.005	10.35
461.361	10.2
461.717	10.26
462.073	10.46
462.429	10.53
462.785	10.75
463.141	10.6
463.496	10.62
463.852	10.7
464.208	10.8
464.564	10.78
464.919	10.79
465.275	10.79
465.631	11
465.986	10.91
466.342	10.78
466.697	10.8
467.052	10.97
467.408	11.07
467.763	10.91
468.118	10.98
468.473	11.05
468.829	10.95
469.184	11.15
469.539	10.85
469.894	11.05
470.249	11.04
470.603	11.27
470.958	10.94
471.313	11.16
471.668	11.22
472.023	11.3
472.377	11.24
472.732	11.44
473.086	11.09
473.441	11.28
473.795	11.51
474.15	11.4
474.504	11.42
474.859	11.28
475.213	11.39
475.567	11.4
475.921	11.53
476.275	11.49
476.63	11.55
476.984	11.6
477.338	11.74
477.692	11.44
478.045	11.52
478.399	11.67
478.753	11.53
479.107	11.73
479.461	11.61
479.814	11.62
480.168	11.77
480.521	11.66
480.875	11.83
481.228	11.88
481.582	11.83
481.935	11.8
482.289	11.76
482.642	11.84
482.995	11.73
483.348	11.7
483.701	11.8
484.055	11.61
484.408	11.64
484.761	11.44
485.114	11.28
485.466	11.25
485.819	11.29
486.172	11.36
486.525	11.39
486.878	11.47
487.23	11.61
487.583	11.71
487.936	11.77
488.288	11.73
488.641	11.6
488.993	11.63
489.345	11.63
489.698	11.63
490.05	11.69
490.402	11.79
490.754	11.9
491.107	11.93
491.459	12.09
491.811	12.15
492.163	12.08
492.515	12.08
492.866	11.97
493.218	11.88
493.57	11.98
493.922	12
494.274	12.18
494.625	12.2
494.977	12.39
495.328	12.54
495.68	12.69
496.031	12.55
496.383	12.64
496.734	12.64
497.086	12.74
497.437	12.78
497.788	12.79
498.139	12.67
498.49	12.76
498.842	12.76
499.193	12.74
499.544	12.77
499.894	12.82
500.245	12.89
500.596	12.93
500.947	12.88
501.298	12.95
501.648	13.1
501.999	13.05
502.35	12.97
502.7	13.29
503.051	13.16
503.401	13.23
503.752	13.19
504.102	13.14
504.452	13.09
504.803	13.27
505.153	13.47
505.503	13.17
505.853	13.29
506.203	13.17
506.553	13.33
506.903	13.59
507.253	13.38
507.603	13.48
507.953	13.47
508.303	13.43
508.652	13.34
509.002	13.62
509.352	13.52
509.701	13.38
510.051	13.54
510.4	13.59
510.75	13.49
511.099	13.4
511.449	13.6
511.798	13.63
512.147	13.58
512.496	13.73
512.846	13.63
513.195	13.71
513.544	13.88
513.893	13.79
514.242	13.91
514.591	13.82
514.939	13.84
515.288	13.87
515.637	13.79
515.986	14.04
516.334	14.01
516.683	14.15
517.032	14.13
517.38	14.02
517.729	14.09
518.077	14.28
518.426	14.22
518.774	14.15
519.122	14.2
519.47	14.01
519.819	14.13
520.167	14.03
520.515	14.08
520.863	13.96
521.211	14.13
521.559	14.19
521.907	14.16
522.255	14.22
522.602	14.46
522.95	14.57
523.298	14.59
523.645	14.53
523.993	14.57
524.341	14.59
524.688	14.49
525.036	14.64
525.383	14.7
525.73	14.55
526.078	14.62
526.425	14.49
526.772	14.4
527.119	14.63
527.466	14.51
527.814	14.54
528.161	14.59
528.508	14.64
528.854	14.67
529.201	14.53
529.548	14.46
529.895	14.21
530.242	14.24
530.588	14.31
530.935	14.33
531.282	14.39
531.628	14.44
531.975	14.57
532.321	14.77
532.667	14.82
533.014	14.87
533.36	15.02
533.706	14.91
534.052	15.08
534.399	14.95
534.745	14.77
535.091	14.76
535.437	14.88
535.783	14.89
536.129	14.95
536.474	15.03
536.82	15.09
537.166	15.17
537.512	15.24
537.857	15.23
538.203	15.26
538.549	15.26
538.894	15.23
539.239	15.43
539.585	15.49
539.93	15.59
540.276	15.69
540.621	15.75
540.966	15.79
541.311	15.77
541.656	15.69
542.001	15.61
542.346	15.55
542.691	15.33
543.036	15.4
543.381	15.34
543.726	15.42
544.071	15.48
544.415	15.58
544.76	15.62
545.105	15.75
545.449	15.79
545.794	15.95
546.138	16.06
546.483	16.09
546.827	15.97
547.171	16.19
547.516	16.04
547.86	16.2
548.204	16.17
548.548	16.19
548.892	16.29
549.236	16.24
549.58	16.46
549.924	16.46
550.268	16.54
550.612	16.62
550.956	16.71
551.3	16.85
551.643	16.79
551.987	17.03
552.33	16.96
552.674	16.84
553.017	16.91
553.361	17.01
553.704	16.92
554.048	16.77
554.391	16.93
554.734	16.66
555.077	16.91
555.42	17.03
555.764	17.11
556.107	17.13
556.45	17.22
556.793	17.25
557.135	17.23
557.478	17.3
557.821	17.45
558.164	17.55
558.507	17.28
558.849	17.79
559.192	17.37
559.534	17.43
559.877	17.33
560.219	17.48
560.562	17.45
560.904	17.72
561.246	17.48
561.589	17.81
561.931	17.67
562.273	17.66
562.615	17.51
562.957	17.71
563.299	17.66
563.641	17.82
563.983	17.76
564.325	17.82
564.667	17.83
565.008	17.87
565.35	17.71
565.692	17.9
566.033	17.91
566.375	17.95
566.716	17.93
567.058	18.12
567.399	18
567.741	18.03
568.082	18
568.423	17.98
568.764	18.05
569.105	18.15
569.447	17.99
569.788	18.28
570.129	18.16
570.47	18.12
570.811	18.12
571.151	18.15
571.492	18.39
571.833	18.34
572.174	18.47
572.514	18.45
572.855	18.33
573.195	18.5
573.536	18.47
573.876	18.44
574.217	18.44
574.557	18.57
574.898	18.61
575.238	18.45
575.578	18.64
575.918	18.79
576.258	18.95
576.598	18.69
576.938	18.79
577.278	18.94
577.618	18.7
577.958	18.73
578.298	18.92
578.638	19.06
578.977	18.68
579.317	18.98
579.657	19.2
579.996	19.23
580.336	19.36
580.675	19.25
581.014	19.32
581.354	19.34
581.693	19.32
582.032	19.68
582.372	19.13
582.711	19.48
583.05	19.46
583.389	19.63
583.728	19.71
584.067	19.52
584.406	19.8
584.745	19.65
585.083	19.55
585.422	19.68
585.761	19.87
586.1	19.94
586.438	19.58
586.777	19.83
587.115	19.89
587.454	19.97
587.792	20.05
588.13	19.78
588.469	19.75
588.807	19.97
589.145	19.98
589.483	19.95
589.821	20.08
590.159	20.29
590.497	19.95
590.835	20.12
591.173	20.18
591.511	20.16
591.849	20.36
592.187	20.04
592.524	20.38
592.862	20.41
593.2	20.08
593.537	20.34
593.875	20.26
594.212	20.46
594.55	20.23
594.887	20.56
595.224	20.76
595.561	20.52
595.899	20.66
596.236	20.58
596.573	20.39
596.91	20.58
597.247	20.82
597.584	20.5
597.921	20.7
598.258	20.73
598.594	20.66
598.931	20.26
599.268	20.54
599.604	20.58
599.941	20.71
600.277	20.89
600.614	20.81
600.95	21.02
601.287	20.99
601.623	20.94
601.959	21.23
602.296	21.07
602.632	21.02
602.968	20.95
603.304	21.23
603.64	21.05
603.976	20.98
604.312	21.09
604.648	21.19
604.984	21.28
605.319	21.21
605.655	21.13
605.991	21.27
606.326	21.24
606.662	21.01
606.998	21.33
607.333	21.23
607.668	21.3
608.004	21.24
608.339	21.6
608.674	21.8
609.01	21.81
609.345	21.56
609.68	21.52
610.015	21.76
610.35	21.66
610.685	21.49
611.02	21.6
611.355	21.66
611.689	21.58
612.024	21.74
612.359	21.82
612.694	21.85
613.028	21.78
613.363	21.84
613.697	22.09
614.032	21.84
614.366	22.01
614.7	22.22
615.035	22.25
615.369	22.23
615.703	22.36
616.037	22.07
616.371	21.97
616.705	22.19
617.039	22.4
617.373	22.3
617.707	22.51
618.041	22.32
618.375	21.62
618.709	22.49
619.042	22.17
619.376	22.49
619.71	22.58
620.043	22.94
620.377	22.48
620.71	22.9
621.043	22.92
621.377	22.79
621.71	22.78
622.043	22.53
622.376	22.73
622.709	23.1
623.043	22.92
623.376	23.22
623.709	23.07
624.041	22.94
624.374	23.16
624.707	22.88
625.04	23.03
625.373	23.03
625.705	23.2
626.038	22.84
626.37	23.1
626.703	23.04
627.035	23
627.368	23.34
627.7	23.16
628.032	23.31
628.365	23.3
628.697	23.59
629.029	23.23
629.361	23.56
629.693	23.27
630.025	23.2
630.357	23.51
630.689	23.35
631.021	23.34
631.353	23.55
631.684	23.28
632.016	23.21
632.348	23.61
632.679	23.73
633.011	23.48
633.342	23.72
633.674	23.49
634.005	23.68
634.336	24.26
634.668	23.78
634.999	23.88
635.33	24.2
635.661	23.97
635.992	23.97
636.323	24.1
636.654	23.92
636.985	24.15
637.316	24.07
637.647	24.2
637.977	24.03
638.308	24.41
638.639	24.04
638.969	24.09
639.3	24.18
639.63	24.21
639.961	24.47
640.291	23.74
640.622	24.59
640.952	24.83
641.282	23.97
641.612	24.22
641.943	24.17
642.273	24.47
642.603	24.61
642.933	24.81
643.263	24.77
643.592	24.72
643.922	24.85
644.252	24.5
644.582	24.88
644.911	24.44
645.241	24.8
645.571	24.68
645.9	24.85
646.23	24.89
646.559	24.49
646.888	25.15
647.218	24.94
647.547	24.59
647.876	24.83
648.205	24.46
648.534	24.93
648.863	25.16
649.192	25
649.521	25.51
649.85	25.09
650.179	24.96
650.508	24.62
650.837	25.59
651.165	25.05
651.494	24.95
651.822	25.36
652.151	25.05
652.479	25.75
652.808	25.16
653.136	24.86
653.465	24.96
653.793	25.29
654.121	25.34
654.449	25.41
654.777	24.8
655.105	25.2
655.433	25.02
655.761	25.14
656.089	25.54
656.417	25.95
656.745	26.39
657.073	25.71
657.4	25.31
657.728	25.51
658.056	26.19
658.383	25.81
658.711	25.89
659.038	25.8
659.365	25.74
659.693	25.51
660.02	25.65
660.347	25.8
660.674	25.81
661.001	25.94
661.329	26.03
661.656	25.58
661.982	25.82
662.309	26.02
662.636	25.84
662.963	26.05
663.29	26.26
663.616	26.55
663.943	26.32
664.27	26.11
664.596	25.97
664.923	25.92
665.249	26.21
665.576	25.83
665.902	26.08
666.228	26.13
666.554	26.53
666.881	26.48
667.207	26.57
667.533	26.59
667.859	26.37
668.185	26.73
668.511	26.66
668.837	26.44
669.162	26.86
669.488	26.2
669.814	26.7
670.139	26.24
670.465	26.65
670.791	26.42
671.116	26.52
671.442	26.2
671.767	26.49
672.092	26.31
672.418	27.09
672.743	26.51
673.068	26.54
673.393	26.49
673.718	26.84
674.043	26.77
674.368	26.72
674.693	27.28
675.018	27.47
675.343	26.92
675.667	26.95
675.992	27.11
