Data from 22-4_forehead_Reflection__0__206.txt Node

Date: Thu Dec 15 18:06:58 CST 2022
User: ToomeyLab
Spectrometer: FLMS14357
Trigger mode: 0
Integration Time (sec): 1.000000E-2
Scans to average: 100
Electric dark correction enabled: true
Nonlinearity correction enabled: false
Boxcar width: 0
XAxis mode: Wavelengths
Number of Pixels in Spectrum: 2048
>>>>>Begin Spectral Data<<<<<
189.047	-100.55
189.435	-100.55
189.823	-100.55
190.211	20.36
190.599	1238.04
190.987	100.16
191.375	-80.08
191.763	69.37
192.151	472.67
192.538	346.98
192.926	135.21
193.314	-7.13
193.702	-1537.4
194.089	237.03
194.477	153.79
194.864	271.5
195.252	8.61
195.639	24.31
196.027	131.96
196.414	-790.37
196.801	-115.43
197.189	50.31
197.576	-75.83
197.963	-610.62
198.351	31.68
198.738	-27.17
199.125	-20.5
199.512	22.03
199.899	-47.91
200.286	-10.42
200.673	34.75
201.06	6.11
201.447	16.29
201.833	14.57
202.22	27.05
202.607	-28.12
202.994	18.27
203.38	21.66
203.767	2.79
204.154	49.91
204.54	19.14
204.927	5.45
205.313	35.83
205.699	5.69
206.086	23.79
206.472	37.74
206.858	-9.23
207.245	-12.28
207.631	2.61
208.017	44.35
208.403	-19.73
208.789	64.22
209.175	-12.47
209.561	-83.21
209.947	4.15
210.333	9.45
210.719	-3.46
211.105	34.88
211.491	-21.83
211.876	14.61
212.262	22.87
212.648	24.72
213.034	-22.69
213.419	4.48
213.805	-25.06
214.19	-6.54
214.576	-13.94
214.961	36.6
215.346	-21.58
215.732	22.35
216.117	-13.9
216.502	46.74
216.888	10.35
217.273	10.51
217.658	-10.99
218.043	-24
218.428	-2.27
218.813	25.03
219.198	-47.78
219.583	-33.74
219.968	-5.66
220.353	-12.4
220.738	4.27
221.122	6.22
221.507	-3.52
221.892	-34.74
222.276	-17.7
222.661	-12.32
223.046	-3.55
223.43	6.36
223.815	3.25
224.199	-0.59
224.583	7.09
224.968	-7.91
225.352	-7.35
225.736	7.28
226.121	1.68
226.505	-0.63
226.889	-0.34
227.273	-0.4
227.657	4.24
228.041	4.08
228.425	-3.04
228.809	-0.67
229.193	1.43
229.577	1.69
229.961	4.04
230.344	3.54
230.728	3.36
231.112	3.75
231.495	3.04
231.879	1.97
232.263	3.52
232.646	2.4
233.03	6.17
233.413	2.54
233.797	0.96
234.18	2.81
234.563	4.05
234.946	0.9
235.33	3.52
235.713	3.26
236.096	4.42
236.479	4.16
236.862	4.28
237.245	2.7
237.628	2.89
238.011	2.11
238.394	4.96
238.777	2.61
239.16	4.35
239.543	3.25
239.925	2.22
240.308	1.89
240.691	3.77
241.073	2.92
241.456	3.91
241.838	3.34
242.221	3.96
242.603	4.04
242.986	3.13
243.368	3.29
243.75	3.81
244.133	3.73
244.515	3.37
244.897	3.73
245.279	3.38
245.661	3.57
246.043	3.7
246.425	4.53
246.807	3.73
247.189	3.36
247.571	3.29
247.953	3.53
248.335	3.76
248.717	3.66
249.098	3.25
249.48	3.07
249.862	3.83
250.243	3.38
250.625	3.67
251.006	3.81
251.388	3.39
251.769	3.21
252.151	3.67
252.532	3.31
252.913	3.22
253.295	3.88
253.676	3.82
254.057	3.6
254.438	3.01
254.819	3.65
255.2	4.45
255.581	4.44
255.962	3.88
256.343	4.41
256.724	3.01
257.105	3.88
257.486	2.67
257.867	2.72
258.247	4.57
258.628	3.81
259.009	3.45
259.389	2.75
259.77	2.83
260.15	4.45
260.531	3.74
260.911	3.5
261.292	3.66
261.672	3.65
262.052	3.79
262.432	3.35
262.813	3.72
263.193	3.52
263.573	3.29
263.953	3.12
264.333	3.73
264.713	4.1
265.093	3.14
265.473	2.38
265.853	3.49
266.233	3.46
266.612	3.11
266.992	3.39
267.372	3.75
267.752	3.98
268.131	4.01
268.511	3.36
268.89	3.9
269.27	2.81
269.649	3.01
270.029	3.51
270.408	2.82
270.787	3.49
271.167	3.89
271.546	4.38
271.925	3.78
272.304	3.28
272.683	3.09
273.062	3.46
273.441	3.14
273.82	3.67
274.199	3.38
274.578	3.5
274.957	3.45
275.336	3.97
275.715	3.37
276.093	3.35
276.472	2.56
276.851	3.72
277.229	3.17
277.608	3.16
277.986	3.56
278.365	3.88
278.743	3.21
279.122	3.63
279.5	3.18
279.878	3.07
280.257	3.84
280.635	3.68
281.013	2.55
281.391	3.62
281.769	4
282.147	3.46
282.525	3.18
282.903	3.47
283.281	3.61
283.659	3.61
284.037	3.4
284.415	3.65
284.792	3.64
285.17	3.3
285.548	3.15
285.925	3.24
286.303	4.1
286.68	3.16
287.058	3.57
287.435	3.43
287.813	3.58
288.19	3.49
288.567	3.38
288.945	3.41
289.322	3.48
289.699	4
290.076	3.47
290.453	3.07
290.83	3.66
291.207	3.61
291.584	4.06
291.961	3.64
292.338	3.95
292.715	3.73
293.092	4.22
293.469	3.28
293.845	3.84
294.222	4.33
294.599	3.41
294.975	3.46
295.352	3.65
295.728	3.89
296.105	3.93
296.481	3.86
296.858	4.1
297.234	3.66
297.61	4.1
297.986	4.43
298.363	4.01
298.739	4.27
299.115	4.07
299.491	3.97
299.867	3.64
300.243	4.4
300.619	3.91
300.995	4.31
301.371	4.42
301.746	4.21
302.122	3.44
302.498	4.14
302.874	4.32
303.249	4.74
303.625	3.77
304	4.33
304.376	4.42
304.751	4.39
305.127	4.31
305.502	4.98
305.878	4.53
306.253	4.17
306.628	4.39
307.003	4.37
307.378	4.65
307.754	4.56
308.129	4.35
308.504	5.11
308.879	4.73
309.254	4.92
309.629	4.89
310.003	4.4
310.378	5.1
310.753	4.97
311.128	4.48
311.502	4.77
311.877	4.92
312.252	4.99
312.626	5.14
313.001	4.91
313.375	5.23
313.75	5.01
314.124	5.15
314.498	5.34
314.873	4.74
315.247	5.46
315.621	4.98
315.995	5.4
316.369	5.21
316.743	5.05
317.117	4.93
317.491	5.27
317.865	5.23
318.239	5.67
318.613	4.59
318.987	4.73
319.361	5.63
319.734	5.5
320.108	5.04
320.482	5.96
320.855	5.29
321.229	5.61
321.602	5.69
321.976	4.99
322.349	6.16
322.723	5.33
323.096	5.3
323.469	5.11
323.843	5.26
324.216	5.5
324.589	5.95
324.962	4.84
325.335	5.46
325.708	5.58
326.081	5.22
326.454	5.74
326.827	5.44
327.2	6.1
327.573	5.9
327.945	5.54
328.318	5.56
328.691	5.63
329.063	5.53
329.436	5.51
329.809	5.91
330.181	6.45
330.553	6.2
330.926	6.5
331.298	5.37
331.671	5.7
332.043	5.79
332.415	6.05
332.787	5.88
333.159	5.96
333.532	6
333.904	6.24
334.276	5.99
334.648	6.23
335.02	5.74
335.391	5.6
335.763	6.26
336.135	6.03
336.507	5.99
336.879	6.15
337.25	6.32
337.622	6.2
337.993	6.25
338.365	6.17
338.736	6.44
339.108	5.98
339.479	6.64
339.851	6.6
340.222	6.77
340.593	6.12
340.964	6.43
341.336	6.09
341.707	6.24
342.078	6.31
342.449	6.33
342.82	6.56
343.191	6.34
343.562	6.57
343.933	6.33
344.303	6.45
344.674	6.18
345.045	6.43
345.416	6.91
345.786	6.68
346.157	7.03
346.527	6.42
346.898	5.98
347.268	6.43
347.639	6.2
348.009	6.45
348.38	6.8
348.75	6.91
349.12	6.91
349.49	6.74
349.861	6.59
350.231	6.66
350.601	6.35
350.971	7.03
351.341	6.86
351.711	6.7
352.081	6.51
352.45	6.69
352.82	6.45
353.19	6.75
353.56	6.98
353.929	7.15
354.299	7.12
354.669	7.3
355.038	6.92
355.408	6.81
355.777	6.8
356.147	6.94
356.516	6.85
356.885	6.81
357.254	6.8
357.624	6.96
357.993	7.32
358.362	7.32
358.731	7.34
359.1	7.26
359.469	7.28
359.838	7.35
360.207	7.15
360.576	7.54
360.945	7.08
361.314	7.14
361.682	7.03
362.051	7.01
362.42	7.19
362.788	7.45
363.157	7.12
363.525	7.24
363.894	7.03
364.262	7.11
364.631	7.59
364.999	7.68
365.367	7
365.735	7.28
366.104	7.52
366.472	7.48
366.84	7.46
367.208	7.91
367.576	7.4
367.944	7.39
368.312	7.57
368.68	7.9
369.048	7.9
369.416	7.31
369.783	7.77
370.151	7.89
370.519	7.74
370.886	8
371.254	7.65
371.621	8.03
371.989	8.08
372.356	7.67
372.724	7.46
373.091	7.38
373.458	7.42
373.826	7.87
374.193	7.82
374.56	7.75
374.927	7.93
375.294	8.13
375.661	7.89
376.028	7.57
376.395	8.05
376.762	7.9
377.129	7.91
377.496	8.08
377.863	8.1
378.229	8.24
378.596	7.99
378.963	8.07
379.329	8.24
379.696	7.94
380.062	8.2
380.429	7.68
380.795	8.55
381.161	7.84
381.528	7.93
381.894	8.28
382.26	8.1
382.626	8.12
382.993	8.47
383.359	8.43
383.725	8.03
384.091	8.4
384.457	8.2
384.823	8.57
385.188	8.49
385.554	8.39
385.92	8.16
386.286	8.55
386.651	8.44
387.017	8.61
387.383	8.32
387.748	8.71
388.114	8.61
388.479	8.58
388.845	8.54
389.21	8.92
389.575	8.95
389.94	9.06
390.306	9.15
390.671	8.79
391.036	8.81
391.401	8.65
391.766	8.75
392.131	8.97
392.496	8.93
392.861	8.8
393.226	8.79
393.591	8.81
393.956	8.85
394.32	9.12
394.685	9.18
395.05	8.94
395.414	8.79
395.779	9.06
396.143	8.81
396.508	8.87
396.872	8.91
397.236	9.22
397.601	9.41
397.965	9.39
398.329	9.21
398.694	9.09
399.058	9.35
399.422	9.15
399.786	9.23
400.15	9.03
400.514	9.5
400.878	9.32
401.242	9.33
401.605	9.21
401.969	9.23
402.333	9.31
402.697	9.45
403.06	9.12
403.424	9.39
403.787	9.35
404.151	9.44
404.514	9.56
404.878	9.42
405.241	9.54
405.604	9.56
405.968	9.51
406.331	9.68
406.694	9.75
407.057	9.4
407.42	9.58
407.783	9.63
408.146	9.59
408.509	9.77
408.872	9.84
409.235	9.78
409.598	9.77
409.961	9.88
410.323	9.82
410.686	9.8
411.049	9.89
411.411	9.89
411.774	10.01
412.136	9.82
412.499	10.03
412.861	9.71
413.223	10.04
413.586	10
413.948	10.1
414.31	10.17
414.672	9.99
415.035	10.2
415.397	10.02
415.759	9.78
416.121	10.06
416.483	10.21
416.845	10.17
417.206	10.2
417.568	10.21
417.93	10.31
418.292	10.13
418.653	9.99
419.015	10.25
419.377	10.17
419.738	10.29
420.1	10.16
420.461	10.08
420.822	10.18
421.184	10.22
421.545	10.21
421.906	10.32
422.267	10.12
422.629	10.15
422.99	10.19
423.351	10.22
423.712	10.2
424.073	10.33
424.434	10.53
424.795	10.34
425.155	10.42
425.516	10.27
425.877	10.35
426.238	10.43
426.598	10.5
426.959	10.48
427.32	10.59
427.68	10.69
428.041	10.78
428.401	10.7
428.761	11.06
429.122	10.94
429.482	10.83
429.842	10.99
430.202	11.09
430.563	11.17
430.923	11
431.283	11.1
431.643	11.18
432.003	11.07
432.363	11.34
432.722	11.06
433.082	11.17
433.442	11.27
433.802	11.06
434.161	11.11
434.521	11.11
434.881	11.11
435.24	11.18
435.6	11.23
435.959	11.44
436.319	11.28
436.678	11.62
437.037	11.39
437.396	11.55
437.756	11.59
438.115	11.55
438.474	11.65
438.833	11.52
439.192	11.49
439.551	11.42
439.91	11.61
440.269	11.61
440.628	11.77
440.987	11.54
441.345	11.58
441.704	11.59
442.063	11.61
442.421	11.52
442.78	11.63
443.138	11.72
443.497	11.67
443.855	11.79
444.214	11.71
444.572	11.84
444.93	12.01
445.288	12.16
445.647	11.85
446.005	11.93
446.363	11.8
446.721	11.95
447.079	11.91
447.437	11.9
447.795	11.9
448.153	11.8
448.51	11.94
448.868	11.99
449.226	11.99
449.584	11.99
449.941	12.28
450.299	12.13
450.656	12.26
451.014	12.35
451.371	12.47
451.729	12.44
452.086	12.36
452.443	12.57
452.801	12.57
453.158	12.74
453.515	12.57
453.872	12.54
454.229	12.41
454.586	12.65
454.943	12.66
455.3	12.71
455.657	12.78
456.014	12.76
456.371	12.88
456.727	12.89
457.084	12.98
457.441	12.92
457.797	12.9
458.154	13
458.51	12.77
458.867	12.84
459.223	13.02
459.58	13.09
459.936	12.9
460.292	12.89
460.648	12.9
461.005	12.79
461.361	12.76
461.717	12.87
462.073	13.02
462.429	13.16
462.785	13.35
463.141	13.26
463.496	13.31
463.852	13.42
464.208	13.41
464.564	13.48
464.919	13.51
465.275	13.66
465.631	13.7
465.986	13.51
466.342	13.47
466.697	13.46
467.052	13.75
467.408	13.78
467.763	13.61
468.118	13.64
468.473	13.66
468.829	13.74
469.184	13.9
469.539	13.83
469.894	14.02
470.249	13.92
470.603	14.06
470.958	13.97
471.313	13.91
471.668	14.03
472.023	14.04
472.377	14.11
472.732	14.1
473.086	14.03
473.441	14.12
473.795	14.28
474.15	14.1
474.504	14.19
474.859	14.06
475.213	14.33
475.567	14.15
475.921	14.27
476.275	14.44
476.63	14.52
476.984	14.46
477.338	14.62
477.692	14.39
478.045	14.46
478.399	14.51
478.753	14.57
479.107	14.5
479.461	14.56
479.814	14.6
480.168	14.56
480.521	14.7
480.875	14.71
481.228	14.81
481.582	14.79
481.935	14.87
482.289	14.72
482.642	15.01
482.995	14.79
483.348	14.74
483.701	14.79
484.055	14.69
484.408	14.6
484.761	14.35
485.114	14.22
485.466	14.06
485.819	14.19
486.172	14.3
486.525	14.52
486.878	14.71
487.23	14.79
487.583	14.83
487.936	14.79
488.288	14.69
488.641	14.61
488.993	14.56
489.345	14.58
489.698	14.66
490.05	14.75
490.402	14.91
490.754	15
491.107	15.2
491.459	15.41
491.811	15.29
492.163	15.32
492.515	15.11
492.866	15.13
493.218	14.98
493.57	15.05
493.922	15.2
494.274	15.48
494.625	15.63
494.977	15.84
495.328	15.93
495.68	15.88
496.031	16.01
496.383	16.06
496.734	16.11
497.086	16.08
497.437	16.1
497.788	16.2
498.139	16.04
498.49	16.07
498.842	16.09
499.193	16.2
499.544	16.2
499.894	16.3
500.245	16.33
500.596	16.47
500.947	16.42
501.298	16.46
501.648	16.54
501.999	16.72
502.35	16.47
502.7	16.7
503.051	16.73
503.401	16.69
503.752	16.7
504.102	16.79
504.452	16.69
504.803	16.85
505.153	16.97
505.503	16.88
505.853	16.89
506.203	16.98
506.553	16.91
506.903	17.12
507.253	17.15
507.603	17.25
507.953	17.22
508.303	17.26
508.652	17.15
509.002	17.28
509.352	17.27
509.701	17.19
510.051	17.25
510.4	17.22
510.75	17.07
511.099	17.03
511.449	17.37
511.798	17.35
512.147	17.49
512.496	17.67
512.846	17.61
513.195	17.61
513.544	17.62
513.893	17.58
514.242	17.6
514.591	17.65
514.939	17.85
515.288	17.77
515.637	17.9
515.986	17.98
516.334	17.99
516.683	18.15
517.032	18.05
517.38	18.14
517.729	18.05
518.077	18.24
518.426	18.2
518.774	18.1
519.122	18.03
519.47	17.95
519.819	18.02
520.167	17.89
520.515	18.02
520.863	18.12
521.211	18.21
521.559	18.16
521.907	18.26
522.255	18.37
522.602	18.68
522.95	18.6
523.298	18.67
523.645	18.69
523.993	18.81
524.341	18.71
524.688	18.68
525.036	18.82
525.383	18.82
525.73	18.64
526.078	18.8
526.425	18.86
526.772	18.79
527.119	18.63
527.466	18.57
527.814	18.78
528.161	18.83
528.508	18.96
528.854	18.95
529.201	18.7
529.548	18.72
529.895	18.35
530.242	18.42
530.588	18.45
530.935	18.69
531.282	18.79
531.628	18.99
531.975	19.16
532.321	19.19
532.667	19.36
533.014	19.41
533.36	19.51
533.706	19.49
534.052	19.48
534.399	19.36
534.745	19.14
535.091	19.13
535.437	19.26
535.783	19.48
536.129	19.64
536.474	19.86
536.82	19.89
537.166	19.95
537.512	19.9
537.857	19.87
538.203	19.86
538.549	19.84
538.894	20.06
539.239	20.19
539.585	20.43
539.93	20.39
540.276	20.54
540.621	20.57
540.966	20.5
541.311	20.72
541.656	20.66
542.001	20.4
542.346	20.19
542.691	20.05
543.036	19.95
543.381	20.05
543.726	20.3
544.071	20.44
544.415	20.47
544.76	20.55
545.105	20.69
545.449	20.72
545.794	20.93
546.138	21.07
546.483	21.11
546.827	21.15
547.171	21.21
547.516	21.12
547.86	21.2
548.204	21.26
548.548	21.18
548.892	21.31
549.236	21.54
549.58	21.58
549.924	21.7
550.268	21.8
550.612	22.12
550.956	22.07
551.3	22.13
551.643	22.23
551.987	22.17
552.33	22.39
552.674	22.22
553.017	22.42
553.361	22.46
553.704	22.26
554.048	22.2
554.391	22.27
554.734	22.19
555.077	22.33
555.42	22.42
555.764	22.52
556.107	22.86
556.45	22.79
556.793	22.91
557.135	22.76
557.478	23.03
557.821	22.99
558.164	23
558.507	23.01
558.849	23.27
559.192	23.08
559.534	23.09
559.877	23.12
560.219	23.05
560.562	23.07
560.904	23.39
561.246	23.36
561.589	23.75
561.931	23.57
562.273	23.44
562.615	23.28
562.957	23.38
563.299	23.61
563.641	23.63
563.983	23.66
564.325	23.86
564.667	23.84
565.008	23.82
565.35	23.66
565.692	23.91
566.033	24
566.375	24.07
566.716	23.98
567.058	23.97
567.399	24.14
567.741	24.01
568.082	24
568.423	23.96
568.764	24.13
569.105	24.12
569.447	24.32
569.788	24.44
570.129	24.22
570.47	24.36
570.811	24.43
571.151	24.83
571.492	24.51
571.833	24.54
572.174	24.89
572.514	24.69
572.855	24.9
573.195	24.47
573.536	24.58
573.876	24.54
574.217	24.6
574.557	24.64
574.898	24.84
575.238	25.09
575.578	25
575.918	25.07
576.258	25.16
576.598	25.12
576.938	24.99
577.278	25.14
577.618	25.41
577.958	25.33
578.298	25.49
578.638	25.32
578.977	25.57
579.317	25.63
579.657	25.55
579.996	25.94
580.336	25.88
580.675	25.85
581.014	25.96
581.354	25.88
581.693	26.01
582.032	26.3
582.372	26
582.711	26.17
583.05	26.17
583.389	26.47
583.728	26.56
584.067	26.55
584.406	26.47
584.745	26.32
585.083	26.5
585.422	26.69
585.761	26.48
586.1	26.68
586.438	26.45
586.777	26.65
587.115	26.83
587.454	26.67
587.792	26.94
588.13	26.91
588.469	27.06
588.807	26.98
589.145	27.03
589.483	26.98
589.821	27.08
590.159	27.22
590.497	26.95
590.835	27.15
591.173	27.37
591.511	27.1
591.849	27.42
592.187	27.24
592.524	27.31
592.862	27.4
593.2	27.63
593.537	27.73
593.875	27.58
594.212	27.52
594.55	27.5
594.887	27.79
595.224	27.97
595.561	27.84
595.899	27.65
596.236	27.86
596.573	28.05
596.91	27.97
597.247	27.99
597.584	28
597.921	27.91
598.258	28.05
598.594	27.94
598.931	27.7
599.268	27.91
599.604	28.14
599.941	28.41
600.277	28.48
600.614	28.61
600.95	28.24
601.287	28.44
601.623	28.26
601.959	28.77
602.296	28.72
602.632	28.51
602.968	28.71
603.304	28.76
603.64	28.71
603.976	28.95
604.312	28.62
604.648	28.62
604.984	28.75
605.319	28.88
605.655	28.75
605.991	28.86
606.326	28.84
606.662	28.59
606.998	28.91
607.333	28.94
607.668	29.21
608.004	29.15
608.339	29.39
608.674	29.5
609.01	29.72
609.345	29.32
609.68	29.29
610.015	29.42
610.35	29.62
610.685	29.42
611.02	29.59
611.355	29.43
611.689	29.49
612.024	29.82
612.359	29.79
612.694	30.18
613.028	30.12
613.363	29.89
613.697	30.2
614.032	30.31
614.366	29.9
614.7	30.31
615.035	30.49
615.369	30.68
615.703	30.18
616.037	30.78
616.371	30.48
616.705	30.51
617.039	30.56
617.373	30.61
617.707	31.06
618.041	30.64
618.375	30.38
618.709	30.8
619.042	30.5
619.376	30.49
619.71	30.81
620.043	30.93
620.377	30.72
620.71	31.04
621.043	31.09
621.377	31.28
621.71	31.08
622.043	31.04
622.376	31.45
622.709	31.55
623.043	30.97
623.376	31.38
623.709	31.58
624.041	31.28
624.374	31.9
624.707	31.61
625.04	31.52
625.373	31.48
625.705	31.74
626.038	31.81
626.37	31.6
626.703	31.7
627.035	31.99
627.368	32.06
627.7	31.77
628.032	31.71
628.365	32.09
628.697	32.04
629.029	31.68
629.361	32.07
629.693	31.88
630.025	31.98
630.357	32.35
630.689	32.01
631.021	32.13
631.353	32.14
631.684	31.87
632.016	31.82
632.348	31.99
632.679	32.78
633.011	32.47
633.342	32.94
633.674	32.5
634.005	32.75
634.336	32.9
634.668	32.56
634.999	32.64
635.33	32.92
635.661	32.32
635.992	32.52
636.323	32.89
636.654	32.8
636.985	32.69
637.316	32.99
637.647	33.06
637.977	33.05
638.308	33.18
638.639	33.14
638.969	32.86
639.3	33.28
639.63	33.31
639.961	33.78
640.291	32.66
640.622	33.65
640.952	34.07
641.282	33.4
641.612	33.44
641.943	33.47
642.273	33.77
642.603	33.6
642.933	33.49
643.263	33.97
643.592	34.37
643.922	33.87
644.252	33.96
644.582	33.79
644.911	34.2
645.241	33.94
645.571	34.1
645.9	34.08
646.23	34.05
646.559	33.86
646.888	34.14
647.218	34.26
647.547	34.43
647.876	33.93
648.205	34.17
648.534	34.36
648.863	34.32
649.192	34.64
649.521	34.56
649.85	34.46
650.179	35.03
650.508	34.53
650.837	34.92
651.165	34.74
651.494	34.3
651.822	34.92
652.151	34.89
652.479	35.09
652.808	34.73
653.136	34.45
653.465	35.01
653.793	34.8
654.121	35.09
654.449	35.15
654.777	34.41
655.105	34.87
655.433	35.41
655.761	35.46
656.089	35.3
656.417	35.29
656.745	35.66
657.073	35.5
657.4	35.44
657.728	36.09
658.056	35.73
658.383	35.22
658.711	35.84
659.038	35.95
659.365	35.91
659.693	35.32
660.02	35.56
660.347	35.64
660.674	35.52
661.001	35.58
661.329	35.42
661.656	35.68
661.982	35.72
662.309	36.11
662.636	35.95
662.963	36
663.29	36.12
663.616	35.87
663.943	36.26
664.27	36.05
664.596	35.74
664.923	36.38
665.249	36.63
665.576	36.53
665.902	36.47
666.228	36.98
666.554	37.06
666.881	36.2
667.207	36.4
667.533	36.41
667.859	36.44
668.185	36.4
668.511	36.85
668.837	36.38
669.162	36.65
669.488	36.51
669.814	37.2
670.139	36.45
670.465	37.15
670.791	35.93
671.116	37.3
671.442	36.89
671.767	37.15
672.092	37.7
672.418	37.01
672.743	37.14
673.068	37.1
673.393	37.48
673.718	37.36
674.043	36.68
674.368	37.35
674.693	37.21
675.018	37.37
