Data from 22-4_forehead_Reflection__4__210.txt Node

Date: Thu Dec 15 18:07:41 CST 2022
User: ToomeyLab
Spectrometer: FLMS14357
Trigger mode: 0
Integration Time (sec): 1.000000E-2
Scans to average: 100
Electric dark correction enabled: true
Nonlinearity correction enabled: false
Boxcar width: 0
XAxis mode: Wavelengths
Number of Pixels in Spectrum: 2048
>>>>>Begin Spectral Data<<<<<
189.047	-59.52
189.435	-59.52
189.823	-59.52
190.211	-27.12
190.599	1465.64
190.987	119.25
191.375	86.72
191.763	154.31
192.151	-42.34
192.538	311.78
192.926	82.78
193.314	290.65
193.702	248.09
194.089	-41.73
194.477	60.99
194.864	113.28
195.252	-24.56
195.639	139.67
196.027	189.98
196.414	1662.57
196.801	-24.3
197.189	30.59
197.576	49.39
197.963	-763.13
198.351	10.37
198.738	11.4
199.125	-53.46
199.512	79.56
199.899	-16.1
200.286	-3.93
200.673	47.17
201.06	23.02
201.447	8.45
201.833	-11.44
202.22	59.2
202.607	-19.95
202.994	-13.84
203.38	30.67
203.767	10.44
204.154	29.51
204.54	6.09
204.927	-10.99
205.313	36.36
205.699	34.35
206.086	43.98
206.472	89.3
206.858	-13.88
207.245	2.39
207.631	-10.18
208.017	48.56
208.403	-81.4
208.789	39.54
209.175	1.51
209.561	-39.05
209.947	-7.46
210.333	-34.2
210.719	39.31
211.105	33.77
211.491	-16.18
211.876	-16.35
212.262	18.81
212.648	45.62
213.034	29.55
213.419	3.54
213.805	-40.84
214.19	-10.41
214.576	-29.5
214.961	20.3
215.346	10.92
215.732	-2.7
216.117	-24.93
216.502	1.06
216.888	-16.37
217.273	9.45
217.658	8.39
218.043	-25.93
218.428	-0.32
218.813	22.1
219.198	-12.53
219.583	21.31
219.968	22.9
220.353	7.34
220.738	26.3
221.122	-18.85
221.507	-14.96
221.892	-7
222.276	-25.68
222.661	-2.37
223.046	-22.49
223.43	20.13
223.815	0.37
224.199	1.94
224.583	-13.98
224.968	4.53
225.352	-4.73
225.736	8.03
226.121	0.37
226.505	0.3
226.889	1.85
227.273	-4.59
227.657	5.91
228.041	3.69
228.425	-0.05
228.809	1.28
229.193	3.51
229.577	1.56
229.961	2.43
230.344	3.47
230.728	3.72
231.112	4.38
231.495	1.83
231.879	3.12
232.263	3.83
232.646	1.24
233.03	4.93
233.413	3.62
233.797	1.9
234.18	2.32
234.563	2.58
234.946	3.34
235.33	3.11
235.713	3.35
236.096	3.77
236.479	4.25
236.862	2.59
237.245	2.37
237.628	4.33
238.011	3.92
238.394	2.9
238.777	4.43
239.16	3.02
239.543	4.01
239.925	2.3
240.308	2.3
240.691	3.49
241.073	1.76
241.456	3.48
241.838	2.49
242.221	2.89
242.603	3.94
242.986	2.69
243.368	3.03
243.75	2.94
244.133	3.56
244.515	3.03
244.897	3.42
245.279	3.24
245.661	3.94
246.043	3.18
246.425	3.45
246.807	3.08
247.189	3.45
247.571	2.77
247.953	3.05
248.335	3.13
248.717	3.33
249.098	3.19
249.48	2.78
249.862	3.33
250.243	3.35
250.625	3.34
251.006	3.64
251.388	3.75
251.769	3.35
252.151	2.84
252.532	3.18
252.913	2.93
253.295	2.75
253.676	2.79
254.057	3.29
254.438	2.88
254.819	3.71
255.2	3.6
255.581	4.73
255.962	4.42
256.343	3.7
256.724	2.77
257.105	2.51
257.486	2.15
257.867	3.98
258.247	3.48
258.628	2.82
259.009	3.05
259.389	2.94
259.77	3.01
260.15	3.44
260.531	2.94
260.911	3.13
261.292	3.43
261.672	3.08
262.052	3.16
262.432	2.81
262.813	3.18
263.193	2.94
263.573	3.18
263.953	2.94
264.333	3.7
264.713	3.47
265.093	2.7
265.473	2.75
265.853	3.85
266.233	3.44
266.612	2.77
266.992	2.78
267.372	3.12
267.752	3.37
268.131	2.62
268.511	2.9
268.89	3.65
269.27	2.93
269.649	2.92
270.029	3.08
270.408	2.52
270.787	3.14
271.167	3.57
271.546	3.73
271.925	3.64
272.304	3.2
272.683	2.64
273.062	3.02
273.441	2.77
273.82	3.16
274.199	3.19
274.578	3.29
274.957	3.61
275.336	3.1
275.715	3.55
276.093	2.62
276.472	2.94
276.851	3.29
277.229	3
277.608	2.63
277.986	2.9
278.365	3.23
278.743	2.63
279.122	3.29
279.5	2.79
279.878	2.71
280.257	2.89
280.635	3.92
281.013	3.1
281.391	3.17
281.769	3.89
282.147	3.07
282.525	2.36
282.903	2.73
283.281	2.83
283.659	3.15
284.037	2.69
284.415	3.28
284.792	2.78
285.17	3.06
285.548	3.17
285.925	2.89
286.303	3.37
286.68	2.99
287.058	3.3
287.435	2.81
287.813	3.11
288.19	2.64
288.567	3.07
288.945	3
289.322	3.39
289.699	3.25
290.076	3.08
290.453	2.79
290.83	3.3
291.207	3.33
291.584	3.39
291.961	3.11
292.338	3.16
292.715	2.96
293.092	3.57
293.469	2.96
293.845	3.32
294.222	3.41
294.599	2.98
294.975	2.84
295.352	3.47
295.728	3.11
296.105	3.54
296.481	2.96
296.858	3.23
297.234	3.03
297.61	3.24
297.986	3.47
298.363	3.74
298.739	3.68
299.115	3.35
299.491	3.88
299.867	3.16
300.243	3.47
300.619	3.39
300.995	3.45
301.371	4.08
301.746	3.93
302.122	3
302.498	3.84
302.874	3.33
303.249	3.66
303.625	3.39
304	3.48
304.376	4.06
304.751	3.57
305.127	3.31
305.502	3.8
305.878	4.08
306.253	3.68
306.628	3.96
307.003	3.79
307.378	3.63
307.754	4
308.129	3.53
308.504	3.91
308.879	4.14
309.254	4.55
309.629	4.4
310.003	3.78
310.378	4.32
310.753	4.13
311.128	3.86
311.502	4.22
311.877	4.14
312.252	4.56
312.626	4.89
313.001	4.25
313.375	4.63
313.75	4.39
314.124	4.47
314.498	4.44
314.873	4.68
315.247	4.42
315.621	4.28
315.995	4.21
316.369	4.46
316.743	4.49
317.117	4.56
317.491	4.63
317.865	4.02
318.239	4.4
318.613	4.51
318.987	4.24
319.361	4.77
319.734	4.63
320.108	5.15
320.482	5.18
320.855	5.02
321.229	4.93
321.602	5
321.976	4.43
322.349	5.26
322.723	5.17
323.096	4.79
323.469	5.28
323.843	4.41
324.216	4.2
324.589	5.23
324.962	4.9
325.335	4.87
325.708	4.91
326.081	4.66
326.454	5.14
326.827	5
327.2	4.89
327.573	5.37
327.945	4.92
328.318	4.87
328.691	5.14
329.063	4.9
329.436	4.8
329.809	5.27
330.181	5.87
330.553	5.33
330.926	5.97
331.298	5.03
331.671	5.7
332.043	5.21
332.415	5.74
332.787	5.72
333.159	5.35
333.532	5.27
333.904	6.2
334.276	5.75
334.648	5.72
335.02	5.38
335.391	5.29
335.763	5.2
336.135	5.99
336.507	5.58
336.879	6.13
337.25	5.98
337.622	5.76
337.993	5.73
338.365	5.93
338.736	6.42
339.108	5.68
339.479	5.75
339.851	6.2
340.222	5.96
340.593	5.32
340.964	6.03
341.336	6.17
341.707	6.05
342.078	6.05
342.449	5.97
342.82	6.18
343.191	6.17
343.562	6.37
343.933	5.94
344.303	5.58
344.674	5.9
345.045	5.98
345.416	6.49
345.786	6.15
346.157	6.36
346.527	6.48
346.898	5.95
347.268	6.13
347.639	5.79
348.009	6.02
348.38	6.19
348.75	6.52
349.12	6.59
349.49	5.93
349.861	6.81
350.231	6.08
350.601	6.74
350.971	6.05
351.341	6.5
351.711	6.39
352.081	6.23
352.45	6.24
352.82	6.37
353.19	6.57
353.56	6.35
353.929	6.61
354.299	6.28
354.669	7.22
355.038	6.91
355.408	6.79
355.777	7.05
356.147	6.89
356.516	6.23
356.885	6.83
357.254	6.58
357.624	6.35
357.993	6.82
358.362	7.06
358.731	6.88
359.1	7.12
359.469	6.79
359.838	6.91
360.207	6.83
360.576	7.11
360.945	7.04
361.314	7.07
361.682	6.69
362.051	6.98
362.42	6.94
362.788	7.05
363.157	6.96
363.525	7.09
363.894	6.95
364.262	6.84
364.631	7.18
364.999	6.9
365.367	6.8
365.735	7.35
366.104	7.35
366.472	7.18
366.84	7.48
367.208	7.43
367.576	7.31
367.944	7.44
368.312	7.25
368.68	7.7
369.048	7.5
369.416	7.33
369.783	7.3
370.151	7.71
370.519	7.74
370.886	7.6
371.254	7.58
371.621	8.07
371.989	7.8
372.356	7.79
372.724	7.77
373.091	7.58
373.458	7.33
373.826	7.96
374.193	7.79
374.56	7.81
374.927	7.77
375.294	7.87
375.661	7.99
376.028	7.64
376.395	7.98
376.762	7.93
377.129	7.54
377.496	7.99
377.863	7.84
378.229	8.1
378.596	8.08
378.963	8.11
379.329	7.99
379.696	8.23
380.062	8.12
380.429	8.01
380.795	8.35
381.161	8.19
381.528	8.34
381.894	8.11
382.26	8.09
382.626	8.11
382.993	8.69
383.359	8.28
383.725	8.14
384.091	8.4
384.457	8.3
384.823	8.42
385.188	8.47
385.554	8.45
385.92	8.42
386.286	8.63
386.651	8.48
387.017	8.81
387.383	8.53
387.748	8.45
388.114	8.77
388.479	8.69
388.845	8.53
389.21	8.95
389.575	8.89
389.94	8.95
390.306	9.14
390.671	9.01
391.036	8.86
391.401	8.65
391.766	8.98
392.131	9
392.496	8.89
392.861	8.95
393.226	8.73
393.591	8.96
393.956	9.1
394.32	9.06
394.685	9.04
395.05	9.1
395.414	9.12
395.779	9.16
396.143	8.92
396.508	9.13
396.872	9.13
397.236	9.51
397.601	9.35
397.965	9.21
398.329	9.23
398.694	9.12
399.058	9.59
399.422	9.42
399.786	9.19
400.15	9.32
400.514	9.52
400.878	9.37
401.242	9.57
401.605	9.61
401.969	9.39
402.333	9.65
402.697	9.74
403.06	9.72
403.424	9.84
403.787	9.5
404.151	9.76
404.514	9.87
404.878	9.44
405.241	9.83
405.604	9.54
405.968	9.43
406.331	9.83
406.694	9.64
407.057	9.81
407.42	9.88
407.783	9.89
408.146	9.88
408.509	10.01
408.872	9.9
409.235	10.08
409.598	9.97
409.961	10.25
410.323	10.03
410.686	9.81
411.049	10.2
411.411	9.94
411.774	10.11
412.136	10.24
412.499	10.35
412.861	9.92
413.223	10.2
413.586	10.29
413.948	10.49
414.31	10.34
414.672	10.4
415.035	10.55
415.397	10.33
415.759	10.34
416.121	10.55
416.483	10.5
416.845	10.47
417.206	10.48
417.568	10.62
417.93	10.66
418.292	10.43
418.653	10.44
419.015	10.55
419.377	10.5
419.738	10.76
420.1	10.55
420.461	10.5
420.822	10.59
421.184	10.5
421.545	10.76
421.906	10.62
422.267	10.55
422.629	10.62
422.99	10.57
423.351	10.73
423.712	10.76
424.073	10.89
424.434	10.94
424.795	10.8
425.155	10.73
425.516	10.85
425.877	10.87
426.238	10.87
426.598	10.99
426.959	11.13
427.32	10.92
427.68	11.2
428.041	11.4
428.401	11.21
428.761	11.34
429.122	11.52
429.482	11.28
429.842	11.38
430.202	11.49
430.563	11.67
430.923	11.55
431.283	11.72
431.643	11.7
432.003	11.63
432.363	11.76
432.722	11.78
433.082	11.79
433.442	11.81
433.802	11.85
434.161	11.72
434.521	11.81
434.881	11.87
435.24	11.87
435.6	11.85
435.959	11.91
436.319	11.97
436.678	12.14
437.037	12.01
437.396	12.1
437.756	12.1
438.115	12.15
438.474	12.18
438.833	12.17
439.192	12.09
439.551	12.3
439.91	12.26
440.269	12.23
440.628	12.23
440.987	12.29
441.345	12.29
441.704	12.33
442.063	12.42
442.421	12.36
442.78	12.55
443.138	12.51
443.497	12.47
443.855	12.66
444.214	12.52
444.572	12.72
444.93	12.73
445.288	12.84
445.647	12.72
446.005	12.71
446.363	12.75
446.721	12.79
447.079	12.75
447.437	12.79
447.795	12.74
448.153	12.72
448.51	12.94
448.868	12.81
449.226	12.96
449.584	13.08
449.941	13.04
450.299	13.03
450.656	13.1
451.014	13.31
451.371	13.37
451.729	13.3
452.086	13.36
452.443	13.61
452.801	13.45
453.158	13.54
453.515	13.45
453.872	13.48
454.229	13.36
454.586	13.52
454.943	13.61
455.3	13.79
455.657	13.58
456.014	13.83
456.371	13.86
456.727	13.89
457.084	13.9
457.441	13.81
457.797	13.9
458.154	13.93
458.51	13.84
458.867	13.91
459.223	13.94
459.58	14.1
459.936	14.03
460.292	14.17
460.648	13.91
461.005	13.97
461.361	13.89
461.717	13.93
462.073	14.05
462.429	14.17
462.785	14.4
463.141	14.31
463.496	14.32
463.852	14.47
464.208	14.49
464.564	14.53
464.919	14.71
465.275	14.7
465.631	14.76
465.986	14.74
466.342	14.72
466.697	14.87
467.052	14.82
467.408	14.97
467.763	14.86
468.118	14.88
468.473	15.02
468.829	14.86
469.184	15.19
469.539	14.93
469.894	15.04
470.249	15.16
470.603	15.16
470.958	15.41
471.313	15.51
471.668	15.32
472.023	15.26
472.377	15.3
472.732	15.47
473.086	15.41
473.441	15.43
473.795	15.68
474.15	15.57
474.504	15.59
474.859	15.51
475.213	15.7
475.567	15.57
475.921	15.87
476.275	15.8
476.63	15.87
476.984	15.6
477.338	15.94
477.692	15.9
478.045	15.82
478.399	15.81
478.753	15.94
479.107	16
479.461	16.01
479.814	16.04
480.168	16.03
480.521	16.17
480.875	16.14
481.228	16.12
481.582	16.22
481.935	16.36
482.289	16.23
482.642	16.35
482.995	16.31
483.348	16.27
483.701	16.29
484.055	16.13
484.408	15.93
484.761	15.88
485.114	15.67
485.466	15.66
485.819	15.71
486.172	15.79
486.525	15.82
486.878	15.97
487.23	16.16
487.583	16.22
487.936	16.22
488.288	16.2
488.641	16.24
488.993	16.15
489.345	16.13
489.698	16.16
490.05	16.24
490.402	16.36
490.754	16.51
491.107	16.58
491.459	16.77
491.811	16.89
492.163	16.9
492.515	16.77
492.866	16.68
493.218	16.56
493.57	16.62
493.922	16.71
494.274	16.97
494.625	17.13
494.977	17.28
495.328	17.45
495.68	17.59
496.031	17.58
496.383	17.77
496.734	17.68
497.086	17.77
497.437	17.8
497.788	17.84
498.139	17.8
498.49	17.74
498.842	17.88
499.193	17.92
499.544	17.84
499.894	17.96
500.245	18.23
500.596	18.1
500.947	18.06
501.298	18.13
501.648	18.3
501.999	18.38
502.35	18.4
502.7	18.59
503.051	18.64
503.401	18.55
503.752	18.48
504.102	18.54
504.452	18.55
504.803	18.66
505.153	18.93
505.503	18.75
505.853	18.7
506.203	18.8
506.553	18.92
506.903	18.93
507.253	18.84
507.603	19.01
507.953	19.1
508.303	19.18
508.652	19.05
509.002	19.08
509.352	19.07
509.701	19.08
510.051	19.1
510.4	19.18
510.75	19.11
511.099	19
511.449	19.26
511.798	19.14
512.147	19.21
512.496	19.52
512.846	19.38
513.195	19.44
513.544	19.58
513.893	19.49
514.242	19.58
514.591	19.66
514.939	19.7
515.288	19.71
515.637	19.97
515.986	19.87
516.334	19.94
516.683	20.15
517.032	20.02
517.38	20.12
517.729	20.18
518.077	20.18
518.426	20.19
518.774	20.27
519.122	19.96
519.47	20.12
519.819	20.13
520.167	19.99
520.515	20.12
520.863	20.1
521.211	20.15
521.559	20.17
521.907	20.34
522.255	20.4
522.602	20.64
522.95	20.78
523.298	20.72
523.645	20.87
523.993	20.82
524.341	21.04
524.688	20.9
525.036	20.86
525.383	20.97
525.73	20.84
526.078	21.11
526.425	20.94
526.772	20.84
527.119	20.84
527.466	20.83
527.814	20.81
528.161	20.96
528.508	20.97
528.854	20.98
529.201	20.81
529.548	20.69
529.895	20.55
530.242	20.65
530.588	20.74
530.935	20.74
531.282	20.77
531.628	20.93
531.975	21.07
532.321	21.23
532.667	21.35
533.014	21.54
533.36	21.5
533.706	21.58
534.052	21.57
534.399	21.43
534.745	21.37
535.091	21.34
535.437	21.57
535.783	21.6
536.129	21.68
536.474	21.83
536.82	21.96
537.166	22
537.512	22.05
537.857	22.14
538.203	22.08
538.549	22.11
538.894	22.23
539.239	22.36
539.585	22.37
539.93	22.53
540.276	22.65
540.621	22.76
540.966	22.88
541.311	22.95
541.656	22.78
542.001	22.65
542.346	22.46
542.691	22.24
543.036	22.31
543.381	22.34
543.726	22.52
544.071	22.53
544.415	22.75
544.76	22.79
545.105	22.78
545.449	23.18
545.794	23.23
546.138	23.18
546.483	23.48
546.827	23.4
547.171	23.48
547.516	23.48
547.86	23.39
548.204	23.36
548.548	23.45
548.892	23.61
549.236	23.7
549.58	23.83
549.924	24.13
550.268	24.11
550.612	24.14
550.956	24.32
551.3	24.55
551.643	24.62
551.987	24.64
552.33	24.77
552.674	24.71
553.017	24.84
553.361	24.64
553.704	24.73
554.048	24.58
554.391	24.71
554.734	24.7
555.077	24.8
555.42	24.79
555.764	25.04
556.107	25.04
556.45	25.14
556.793	25.38
557.135	25.36
557.478	25.27
557.821	25.25
558.164	25.49
558.507	25.45
558.849	25.53
559.192	25.64
559.534	25.64
559.877	25.48
560.219	25.64
560.562	25.66
560.904	25.84
561.246	25.91
561.589	26.07
561.931	25.75
562.273	25.94
562.615	25.92
562.957	26.14
563.299	26.04
563.641	26.03
563.983	25.95
564.325	26.14
564.667	26.34
565.008	26.17
565.35	26.18
565.692	26.45
566.033	26.31
566.375	26.53
566.716	26.51
567.058	26.68
567.399	26.7
567.741	26.39
568.082	26.42
568.423	26.43
568.764	26.43
569.105	26.59
569.447	26.56
569.788	26.78
570.129	26.82
570.47	26.68
570.811	26.98
571.151	27.09
571.492	27.28
571.833	27.03
572.174	27.35
572.514	27.31
572.855	27.19
573.195	27.2
573.536	27.25
573.876	27.2
574.217	27.06
574.557	27.43
574.898	27.49
575.238	27.49
575.578	27.73
575.918	27.55
576.258	27.87
576.598	27.69
576.938	27.77
577.278	27.82
577.618	27.76
577.958	27.97
578.298	28
578.638	28.05
578.977	27.98
579.317	28.17
579.657	28.46
579.996	28.5
580.336	28.39
580.675	28.28
581.014	28.57
581.354	28.58
581.693	28.79
582.032	28.71
582.372	28.51
582.711	28.75
583.05	28.74
583.389	29.04
583.728	29.14
584.067	29
584.406	29.13
584.745	29.1
585.083	29.14
585.422	29.51
585.761	29.35
586.1	29.19
586.438	29.01
586.777	29.56
587.115	29.43
587.454	29.2
587.792	29.43
588.13	29.66
588.469	29.52
588.807	29.57
589.145	29.85
589.483	29.52
589.821	29.83
590.159	29.79
590.497	29.9
590.835	30.04
591.173	30.21
591.511	29.92
591.849	30.17
592.187	30.01
592.524	30.2
592.862	29.95
593.2	30.43
593.537	30.42
593.875	30.17
594.212	30.31
594.55	30.55
594.887	30.57
595.224	30.63
595.561	30.45
595.899	30.43
596.236	30.3
596.573	30.58
596.91	30.46
597.247	30.58
597.584	30.48
597.921	30.45
598.258	30.82
598.594	30.61
598.931	30.56
599.268	30.5
599.604	30.58
599.941	31.24
600.277	31.16
600.614	31.28
600.95	31.06
601.287	31.01
601.623	31.28
601.959	31.46
602.296	31.44
602.632	31.15
602.968	31.48
603.304	31.65
603.64	31.59
603.976	31.52
604.312	31.63
604.648	31.53
604.984	31.52
605.319	31.7
605.655	31.55
605.991	31.63
606.326	31.44
606.662	31.57
606.998	31.71
607.333	31.71
607.668	31.66
608.004	32.02
608.339	32.11
608.674	32.32
609.01	32.56
609.345	32.34
609.68	32.34
610.015	32.61
610.35	32.38
610.685	32.24
611.02	32.18
611.355	32.26
611.689	32.35
612.024	32.41
612.359	32.77
612.694	32.69
613.028	32.53
613.363	32.78
613.697	32.74
614.032	32.8
614.366	32.66
614.7	33.04
615.035	33.28
615.369	33.28
615.703	33.49
616.037	33.14
616.371	33.36
616.705	33.26
617.039	33.29
617.373	33.31
617.707	33.58
618.041	33.4
618.375	33.33
618.709	33.55
619.042	33.63
619.376	33.78
619.71	33.75
620.043	33.95
620.377	34.02
620.71	33.64
621.043	34.11
621.377	33.91
621.71	34.38
622.043	34.24
622.376	33.96
622.709	34.02
623.043	34.09
623.376	34.36
623.709	34.32
624.041	34.19
624.374	34.53
624.707	34.56
625.04	34.27
625.373	34.38
625.705	34.36
626.038	34.45
626.37	34.67
626.703	34.79
627.035	34.66
627.368	34.6
627.7	34.97
628.032	34.66
628.365	34.86
628.697	34.72
629.029	35.03
629.361	35.21
629.693	35
630.025	35.21
630.357	35.32
630.689	34.97
631.021	35.4
631.353	35.29
631.684	35.25
632.016	34.88
632.348	35.06
632.679	35.18
633.011	35.48
633.342	35.6
633.674	35.05
634.005	35.83
634.336	35.8
634.668	35.63
634.999	35.43
635.33	35.79
635.661	35.24
635.992	35.83
636.323	36.02
636.654	35.62
636.985	35.54
637.316	36.04
637.647	35.8
637.977	35.85
638.308	36.05
638.639	36.22
638.969	35.94
639.3	36.49
639.63	36.06
639.961	36.37
640.291	36.39
640.622	36.41
640.952	36.78
641.282	36.26
641.612	36.35
641.943	36.41
642.273	36.89
642.603	37.03
642.933	36.61
643.263	37.07
643.592	36.81
643.922	36.94
644.252	36.73
644.582	37.18
644.911	37.18
645.241	37.26
645.571	37.3
645.9	37.18
646.23	37.61
646.559	37.4
646.888	37.11
647.218	37.57
647.547	37.31
647.876	37.67
648.205	37.11
648.534	36.82
648.863	37.45
649.192	37.5
649.521	37.7
649.85	37.15
650.179	37.58
650.508	37.42
650.837	37.83
651.165	37.43
651.494	37.56
651.822	38.11
652.151	37.57
652.479	38.29
652.808	38.27
653.136	37.86
653.465	37.82
653.793	38.1
654.121	37.63
654.449	37.86
654.777	37.68
655.105	37.73
655.433	37.99
655.761	38.44
656.089	38.39
656.417	38.41
656.745	38.28
657.073	38.68
657.4	38
657.728	38.76
658.056	38.61
658.383	38.5
658.711	38.33
659.038	38.95
659.365	38.6
659.693	38.63
660.02	38.79
660.347	38.52
660.674	38.74
661.001	38.48
661.329	38.43
661.656	38.41
661.982	38.56
662.309	39.02
662.636	38.97
662.963	39.08
663.29	38.81
663.616	38.97
663.943	39.13
664.27	39.28
664.596	39.24
664.923	39.06
665.249	39.74
665.576	39.3
665.902	39.6
666.228	39.28
666.554	39.78
666.881	39.27
667.207	40.78
667.533	40.12
667.859	39.12
668.185	39.87
668.511	40.09
668.837	40.13
669.162	39.76
669.488	39.24
669.814	39.66
670.139	39.52
670.465	39.97
670.791	39.43
671.116	39.98
671.442	40
671.767	40.01
672.092	39.87
672.418	40.09
672.743	39.88
673.068	39.79
673.393	40.09
673.718	40.14
674.043	40.46
674.368	39.83
674.693	40.48
