Data from 22-4_chest_Reflection__3__199.txt Node

Date: Thu Dec 15 18:02:45 CST 2022
User: ToomeyLab
Spectrometer: FLMS14357
Trigger mode: 0
Integration Time (sec): 1.000000E-2
Scans to average: 100
Electric dark correction enabled: true
Nonlinearity correction enabled: false
Boxcar width: 0
XAxis mode: Wavelengths
Number of Pixels in Spectrum: 2048
>>>>>Begin Spectral Data<<<<<
189.047	-52.7
189.435	-52.7
189.823	-52.7
190.211	189.6
190.599	470.55
190.987	235.07
191.375	51.68
191.763	-58.44
192.151	137.24
192.538	356.12
192.926	82.21
193.314	173.31
193.702	646.56
194.089	-91.2
194.477	171.06
194.864	70.17
195.252	307.22
195.639	148.02
196.027	212.56
196.414	615.51
196.801	206.05
197.189	17.74
197.576	-85.29
197.963	-141.89
198.351	17.92
198.738	-34.24
199.125	-9.49
199.512	40.78
199.899	-46.33
200.286	-32.54
200.673	60.17
201.06	21.19
201.447	19.27
201.833	-24.35
202.22	20
202.607	-42.72
202.994	34.16
203.38	23.53
203.767	-46.32
204.154	25.6
204.54	7.65
204.927	22.68
205.313	49.6
205.699	15.07
206.086	40.49
206.472	20.43
206.858	-16.07
207.245	9.37
207.631	8.84
208.017	23.82
208.403	-92.55
208.789	-4.06
209.175	-16.16
209.561	-53.82
209.947	-20.03
210.333	-11.07
210.719	13.91
211.105	10.21
211.491	56.34
211.876	-35.58
212.262	7.6
212.648	16.7
213.034	11.98
213.419	9.22
213.805	-60.14
214.19	-25.07
214.576	4.32
214.961	2.87
215.346	-13.45
215.732	-11.86
216.117	-2.57
216.502	-33.1
216.888	10.14
217.273	-24.79
217.658	-1.54
218.043	-14.56
218.428	-36.87
218.813	13.1
219.198	-23.74
219.583	-27.3
219.968	-12.3
220.353	-16.88
220.738	13.9
221.122	-11.34
221.507	-7.88
221.892	-12.63
222.276	-15.94
222.661	-23.57
223.046	-8.99
223.43	21.28
223.815	16.53
224.199	7.68
224.583	1.31
224.968	2.52
225.352	-6.61
225.736	4.27
226.121	0.53
226.505	3.14
226.889	1.46
227.273	-2.89
227.657	6.8
228.041	7.21
228.425	-0.17
228.809	6.15
229.193	4.38
229.577	5.52
229.961	5.26
230.344	5.46
230.728	6.26
231.112	6.2
231.495	5.14
231.879	4.69
232.263	6.65
232.646	3.64
233.03	6.85
233.413	5.85
233.797	3.5
234.18	8.08
234.563	7.32
234.946	3.09
235.33	6.01
235.713	5.74
236.096	6.46
236.479	7.26
236.862	4
237.245	5.98
237.628	6.01
238.011	5.26
238.394	4.62
238.777	5.97
239.16	5.48
239.543	6.5
239.925	3.61
240.308	5.23
240.691	5.44
241.073	3.7
241.456	4.82
241.838	4.59
242.221	4.76
242.603	4.97
242.986	5.16
243.368	5.32
243.75	5.42
244.133	5.14
244.515	5.09
244.897	5.37
245.279	5.9
245.661	5.21
246.043	5.57
246.425	4.63
246.807	4.47
247.189	5.58
247.571	5.12
247.953	4.88
248.335	5.09
248.717	4.96
249.098	4.83
249.48	5.25
249.862	4.99
250.243	5.45
250.625	5.56
251.006	4.93
251.388	5.16
251.769	3.7
252.151	4.97
252.532	3.56
252.913	4.66
253.295	4.52
253.676	4.83
254.057	4.77
254.438	4.82
254.819	4.5
255.2	4.51
255.581	6.19
255.962	4.6
256.343	4.62
256.724	5.07
257.105	3.49
257.486	3.42
257.867	4.26
258.247	5.08
258.628	5.07
259.009	4.53
259.389	4.17
259.77	4.41
260.15	5.28
260.531	4.67
260.911	4.63
261.292	5.01
261.672	4.86
262.052	4.74
262.432	3.92
262.813	4.9
263.193	4.7
263.573	4.75
263.953	4.05
264.333	4.67
264.713	4.25
265.093	4.42
265.473	3.76
265.853	4.53
266.233	4.85
266.612	4.53
266.992	5.02
267.372	4.71
267.752	5.06
268.131	4.74
268.511	4.71
268.89	4.97
269.27	4.46
269.649	4.35
270.029	4.22
270.408	4.27
270.787	5.03
271.167	5.01
271.546	5.26
271.925	4.55
272.304	4.57
272.683	4.45
273.062	4.24
273.441	4.06
273.82	4.71
274.199	4.17
274.578	4.76
274.957	4.56
275.336	4.77
275.715	4.86
276.093	3.92
276.472	4.16
276.851	4.57
277.229	4.5
277.608	4.62
277.986	4.37
278.365	5.24
278.743	4.45
279.122	4.15
279.5	4.04
279.878	3.56
280.257	4.71
280.635	4.38
281.013	3.56
281.391	3.96
281.769	5.13
282.147	4.2
282.525	4.1
282.903	4.17
283.281	4.75
283.659	4.57
284.037	4.31
284.415	4.13
284.792	4.64
285.17	4.71
285.548	4.32
285.925	4.53
286.303	4.79
286.68	4.24
287.058	4.71
287.435	4.22
287.813	4.58
288.19	4.51
288.567	4.4
288.945	3.9
289.322	4.47
289.699	4.7
290.076	4.16
290.453	4.05
290.83	4.27
291.207	4.49
291.584	4.73
291.961	4.53
292.338	4.09
292.715	4.08
293.092	4.26
293.469	4.2
293.845	4.78
294.222	5.07
294.599	4.33
294.975	3.79
295.352	4.7
295.728	4.37
296.105	3.96
296.481	4.37
296.858	4.42
297.234	4.12
297.61	4.48
297.986	4.52
298.363	4.48
298.739	4.45
299.115	4.56
299.491	4.82
299.867	4.19
300.243	4.22
300.619	4.54
300.995	4.41
301.371	4.7
301.746	4.8
302.122	4.03
302.498	4.23
302.874	4.45
303.249	4.24
303.625	3.94
304	4.86
304.376	4.57
304.751	4.17
305.127	4.18
305.502	4.39
305.878	4.8
306.253	4.43
306.628	4.26
307.003	3.72
307.378	4.53
307.754	4.58
308.129	3.97
308.504	4.64
308.879	4.44
309.254	4.94
309.629	4.88
310.003	4.16
310.378	4.93
310.753	4.74
311.128	4.11
311.502	4.56
311.877	4.49
312.252	5.15
312.626	4.77
313.001	4.33
313.375	4.37
313.75	4.52
314.124	4.86
314.498	4.94
314.873	3.94
315.247	3.84
315.621	4.26
315.995	4.51
316.369	4.19
316.743	4.36
317.117	4.32
317.491	4.62
317.865	4.27
318.239	4.46
318.613	4.03
318.987	3.72
319.361	4.69
319.734	4.7
320.108	4.36
320.482	4.93
320.855	4.15
321.229	4.73
321.602	4.77
321.976	4.07
322.349	5.26
322.723	4.36
323.096	4.34
323.469	4.31
323.843	4.24
324.216	4.74
324.589	5.1
324.962	3.98
325.335	4.11
325.708	4.51
326.081	4.3
326.454	4.73
326.827	4.59
327.2	4.13
327.573	5.02
327.945	4.39
328.318	4.18
328.691	4.16
329.063	3.73
329.436	4.3
329.809	4.81
330.181	5.14
330.553	4.59
330.926	4.93
331.298	4.18
331.671	4.7
332.043	4.17
332.415	4.88
332.787	4.44
333.159	4.08
333.532	4.13
333.904	4.29
334.276	4.87
334.648	4.51
335.02	4.55
335.391	4
335.763	4.41
336.135	4.77
336.507	4.21
336.879	4.56
337.25	4.43
337.622	4.2
337.993	4.49
338.365	4.2
338.736	4.73
339.108	4.56
339.479	4.28
339.851	4.22
340.222	4.89
340.593	4.59
340.964	4.55
341.336	4.13
341.707	4.6
342.078	4.34
342.449	4.59
342.82	4.87
343.191	4.66
343.562	4.78
343.933	4.7
344.303	4.94
344.674	4.37
345.045	4.44
345.416	4.63
345.786	4.2
346.157	4.57
346.527	4.56
346.898	4.35
347.268	4.48
347.639	4.39
348.009	4.61
348.38	4.23
348.75	4.65
349.12	4.59
349.49	4.37
349.861	4.31
350.231	4.26
350.601	4.42
350.971	4.55
351.341	4.52
351.711	4.62
352.081	4.25
352.45	4.19
352.82	4.06
353.19	4.69
353.56	4.38
353.929	4.57
354.299	4.31
354.669	4.32
355.038	4.76
355.408	4.43
355.777	4.5
356.147	4.34
356.516	4.25
356.885	4.14
357.254	4.3
357.624	4
357.993	4.64
358.362	4.6
358.731	4.78
359.1	4.4
359.469	4.59
359.838	4.72
360.207	4.28
360.576	4.81
360.945	4.68
361.314	4.75
361.682	4.17
362.051	4.52
362.42	4.77
362.788	4.74
363.157	4.34
363.525	4.51
363.894	4.28
364.262	4.58
364.631	4.66
364.999	4.32
365.367	4.39
365.735	4.27
366.104	4.33
366.472	4.51
366.84	4.41
367.208	4.58
367.576	4.4
367.944	4.74
368.312	4.67
368.68	4.97
369.048	4.3
369.416	4.26
369.783	4.74
370.151	4.64
370.519	4.58
370.886	4.61
371.254	4.47
371.621	4.55
371.989	4.64
372.356	4.63
372.724	4.59
373.091	4.43
373.458	4.46
373.826	4.8
374.193	4.64
374.56	4.82
374.927	4.4
375.294	4.72
375.661	4.64
376.028	4.54
376.395	4.73
376.762	4.62
377.129	4.59
377.496	4.67
377.863	4.57
378.229	4.67
378.596	4.44
378.963	4.76
379.329	4.4
379.696	4.51
380.062	4.55
380.429	4.37
380.795	4.74
381.161	4.23
381.528	4.39
381.894	4.46
382.26	4.66
382.626	4.85
382.993	4.95
383.359	4.62
383.725	4.38
384.091	4.51
384.457	4.37
384.823	4.51
385.188	4.68
385.554	4.62
385.92	4.68
386.286	4.62
386.651	4.48
387.017	4.75
387.383	4.81
387.748	4.87
388.114	4.92
388.479	4.65
388.845	4.58
389.21	4.81
389.575	4.83
389.94	4.81
390.306	4.71
390.671	4.66
391.036	4.7
391.401	4.78
391.766	4.71
392.131	4.79
392.496	4.66
392.861	4.71
393.226	4.47
393.591	4.96
393.956	4.91
394.32	4.95
394.685	4.64
395.05	4.79
395.414	4.69
395.779	4.92
396.143	4.51
396.508	4.67
396.872	4.49
397.236	4.97
397.601	4.88
397.965	4.51
398.329	4.69
398.694	4.73
399.058	4.87
399.422	4.55
399.786	4.64
400.15	4.77
400.514	4.85
400.878	4.65
401.242	4.86
401.605	4.69
401.969	4.74
402.333	4.56
402.697	4.89
403.06	4.74
403.424	5.06
403.787	4.79
404.151	4.91
404.514	4.85
404.878	4.62
405.241	4.72
405.604	4.68
405.968	4.85
406.331	4.8
406.694	4.89
407.057	4.61
407.42	4.71
407.783	4.83
408.146	4.53
408.509	4.74
408.872	4.69
409.235	4.83
409.598	4.9
409.961	4.78
410.323	4.75
410.686	4.59
411.049	4.8
411.411	4.67
411.774	4.92
412.136	4.6
412.499	4.82
412.861	4.39
413.223	4.61
413.586	4.83
413.948	4.79
414.31	4.78
414.672	4.65
415.035	4.75
415.397	4.75
415.759	4.7
416.121	4.89
416.483	4.69
416.845	4.99
417.206	4.68
417.568	4.75
417.93	4.79
418.292	4.6
418.653	4.6
419.015	4.68
419.377	4.68
419.738	4.77
420.1	4.64
420.461	4.66
420.822	4.77
421.184	4.71
421.545	4.7
421.906	4.71
422.267	4.69
422.629	4.64
422.99	4.7
423.351	4.72
423.712	4.77
424.073	4.72
424.434	4.84
424.795	4.65
425.155	4.58
425.516	4.67
425.877	4.74
426.238	4.68
426.598	4.82
426.959	4.79
427.32	4.75
427.68	4.7
428.041	4.82
428.401	4.64
428.761	4.89
429.122	4.9
429.482	4.79
429.842	4.8
430.202	4.88
430.563	4.84
430.923	4.91
431.283	4.92
431.643	4.84
432.003	5.04
432.363	4.94
432.722	4.87
433.082	4.88
433.442	4.98
433.802	4.77
434.161	4.88
434.521	4.89
434.881	4.77
435.24	4.85
435.6	4.91
435.959	4.81
436.319	4.92
436.678	4.98
437.037	4.94
437.396	5.01
437.756	4.77
438.115	4.88
438.474	4.99
438.833	4.94
439.192	4.88
439.551	4.83
439.91	4.96
440.269	4.83
440.628	4.8
440.987	4.9
441.345	4.86
441.704	4.87
442.063	4.84
442.421	4.82
442.78	4.84
443.138	4.87
443.497	4.83
443.855	4.91
444.214	4.8
444.572	5.08
444.93	4.87
445.288	4.98
445.647	4.91
446.005	5.04
446.363	4.9
446.721	4.95
447.079	4.85
447.437	4.94
447.795	4.98
448.153	4.9
448.51	4.83
448.868	4.77
449.226	4.92
449.584	4.93
449.941	4.99
450.299	4.89
450.656	4.98
451.014	5.07
451.371	4.87
451.729	4.88
452.086	5.02
452.443	5.16
452.801	5.06
453.158	5.15
453.515	4.85
453.872	4.98
454.229	4.78
454.586	4.88
454.943	5.18
455.3	5.02
455.657	4.8
456.014	4.98
456.371	5.01
456.727	5.1
457.084	5.13
457.441	5.03
457.797	5.09
458.154	5.07
458.51	5
458.867	5.01
459.223	4.93
459.58	5.14
459.936	4.98
460.292	5.05
460.648	4.91
461.005	4.96
461.361	4.97
461.717	5.02
462.073	5.07
462.429	5.05
462.785	5.06
463.141	5.1
463.496	5.19
463.852	5.08
464.208	5.06
464.564	5.05
464.919	5.12
465.275	5.02
465.631	5.25
465.986	5.1
466.342	5.12
466.697	5.08
467.052	5.25
467.408	5.21
467.763	5.1
468.118	5.05
468.473	5.12
468.829	4.97
469.184	5.15
469.539	5.02
469.894	5.19
470.249	5.09
470.603	5.17
470.958	5.36
471.313	5.13
471.668	5.3
472.023	5.13
472.377	4.99
472.732	5.2
473.086	5.11
473.441	5.27
473.795	5.26
474.15	5.09
474.504	5.18
474.859	5.08
475.213	5.24
475.567	5.18
475.921	5.26
476.275	5.19
476.63	5.28
476.984	5.04
477.338	5.29
477.692	5.18
478.045	5.22
478.399	5.16
478.753	5.21
479.107	5.19
479.461	5.12
479.814	5.31
480.168	5.27
480.521	5.38
480.875	5.24
481.228	5.24
481.582	5.28
481.935	5.24
482.289	5.26
482.642	5.35
482.995	5.2
483.348	5.14
483.701	5.33
484.055	5.21
484.408	5.18
484.761	5.01
485.114	4.96
485.466	4.95
485.819	4.98
486.172	4.94
486.525	5
486.878	5.07
487.23	5.09
487.583	5.15
487.936	5.12
488.288	5.11
488.641	5.07
488.993	5.04
489.345	5.09
489.698	5.08
490.05	5.08
490.402	5.1
490.754	5.16
491.107	5.16
491.459	5.25
491.811	5.3
492.163	5.21
492.515	5.14
492.866	5.12
493.218	5.12
493.57	5.15
493.922	5.16
494.274	5.25
494.625	5.22
494.977	5.36
495.328	5.36
495.68	5.34
496.031	5.36
496.383	5.32
496.734	5.35
497.086	5.47
497.437	5.32
497.788	5.45
498.139	5.36
498.49	5.39
498.842	5.49
499.193	5.32
499.544	5.28
499.894	5.42
500.245	5.47
500.596	5.4
500.947	5.39
501.298	5.47
501.648	5.39
501.999	5.44
502.35	5.36
502.7	5.68
503.051	5.51
503.401	5.51
503.752	5.48
504.102	5.44
504.452	5.31
504.803	5.54
505.153	5.56
505.503	5.43
505.853	5.59
506.203	5.54
506.553	5.6
506.903	5.53
507.253	5.52
507.603	5.55
507.953	5.56
508.303	5.53
508.652	5.5
509.002	5.59
509.352	5.56
509.701	5.44
510.051	5.54
510.4	5.61
510.75	5.45
511.099	5.5
511.449	5.69
511.798	5.52
512.147	5.54
512.496	5.63
512.846	5.67
513.195	5.58
513.544	5.67
513.893	5.59
514.242	5.6
514.591	5.63
514.939	5.67
515.288	5.74
515.637	5.59
515.986	5.68
516.334	5.68
516.683	5.78
517.032	5.72
517.38	5.67
517.729	5.6
518.077	5.76
518.426	5.73
518.774	5.64
519.122	5.73
519.47	5.67
519.819	5.71
520.167	5.65
520.515	5.75
520.863	5.67
521.211	5.72
521.559	5.64
521.907	5.74
522.255	5.65
522.602	5.74
522.95	5.8
523.298	5.75
523.645	5.75
523.993	5.88
524.341	5.82
524.688	5.69
525.036	5.78
525.383	5.78
525.73	5.79
526.078	5.84
526.425	5.85
526.772	5.82
527.119	5.76
527.466	5.82
527.814	5.81
528.161	5.81
528.508	5.89
528.854	5.88
529.201	5.81
529.548	5.75
529.895	5.7
530.242	5.7
530.588	5.71
530.935	5.75
531.282	5.76
531.628	5.77
531.975	5.78
532.321	5.86
532.667	5.93
533.014	5.96
533.36	5.93
533.706	5.99
534.052	5.98
534.399	5.93
534.745	5.87
535.091	5.87
535.437	5.92
535.783	5.89
536.129	5.95
536.474	6.06
536.82	6.07
537.166	5.89
537.512	6.07
537.857	6.08
538.203	6.06
538.549	5.99
538.894	6.05
539.239	6.08
539.585	6.16
539.93	6.18
540.276	6.25
540.621	6.29
540.966	6.25
541.311	6.29
541.656	6.18
542.001	6.2
542.346	6.13
542.691	6.03
543.036	6.04
543.381	6.03
543.726	6.09
544.071	6.13
544.415	6.17
544.76	6.2
545.105	6.22
545.449	6.27
545.794	6.27
546.138	6.32
546.483	6.42
546.827	6.33
547.171	6.38
547.516	6.42
547.86	6.38
548.204	6.45
548.548	6.38
548.892	6.43
549.236	6.39
549.58	6.48
549.924	6.5
550.268	6.55
550.612	6.7
550.956	6.78
551.3	6.75
551.643	6.5
551.987	6.96
552.33	6.89
552.674	6.71
553.017	6.67
553.361	6.65
553.704	6.62
554.048	6.76
554.391	6.64
554.734	6.53
555.077	6.66
555.42	6.69
555.764	6.75
556.107	6.83
556.45	6.91
556.793	6.96
557.135	6.87
557.478	6.77
557.821	6.97
558.164	6.88
558.507	6.71
558.849	7.03
559.192	6.95
559.534	6.87
559.877	6.75
560.219	7.02
560.562	6.77
560.904	7.19
561.246	6.89
561.589	7.28
561.931	6.93
562.273	7.1
562.615	7.03
562.957	7.03
563.299	7.1
563.641	7
563.983	6.95
564.325	7.2
564.667	7.27
565.008	7.21
565.35	7.1
565.692	7.15
566.033	7.2
566.375	7.34
566.716	7.14
567.058	7.29
567.399	7.43
567.741	7.36
568.082	7.32
568.423	7.24
568.764	7.38
569.105	7.29
569.447	7.26
569.788	7.15
570.129	7.44
570.47	7.29
570.811	7.32
571.151	7.52
571.492	7.47
571.833	7.4
572.174	7.63
572.514	7.69
572.855	7.46
573.195	7.57
573.536	7.68
573.876	7.69
574.217	7.55
574.557	7.78
574.898	7.63
575.238	7.69
575.578	7.96
575.918	7.79
576.258	7.88
576.598	7.69
576.938	7.71
577.278	7.84
577.618	7.69
577.958	7.82
578.298	7.81
578.638	7.82
578.977	7.81
579.317	7.9
579.657	7.72
579.996	8.06
580.336	8.06
580.675	8.15
581.014	8.03
581.354	7.9
581.693	8.25
582.032	8.16
582.372	8.05
582.711	8.22
583.05	8.25
583.389	8.2
583.728	8.22
584.067	8.16
584.406	8.4
584.745	8.17
585.083	8.31
585.422	8.65
585.761	8.36
586.1	8.54
586.438	8.23
586.777	8.28
587.115	8.53
587.454	8.36
587.792	8.67
588.13	8.49
588.469	8.48
588.807	8.75
589.145	8.64
589.483	8.41
589.821	8.6
590.159	8.72
590.497	8.75
590.835	8.85
591.173	8.87
591.511	8.94
591.849	8.78
592.187	8.57
592.524	8.79
592.862	8.89
593.2	8.8
593.537	8.83
593.875	8.98
594.212	9.02
594.55	8.83
594.887	9.04
595.224	9.08
595.561	8.9
595.899	9.18
596.236	9.09
596.573	8.97
596.91	9.08
597.247	9.19
597.584	8.88
597.921	9.07
598.258	9.64
598.594	9.16
598.931	9.18
599.268	9.07
599.604	9.32
599.941	9.13
600.277	9.24
600.614	9.21
600.95	9.22
601.287	9.05
601.623	9.21
601.959	9.72
602.296	9.59
602.632	9.43
602.968	9.67
603.304	9.6
603.64	9.46
603.976	9.45
604.312	9.57
604.648	9.72
604.984	9.74
605.319	9.68
605.655	9.63
605.991	9.56
606.326	9.58
606.662	9.64
606.998	9.86
607.333	9.85
607.668	9.72
608.004	9.75
608.339	9.84
608.674	9.93
609.01	10.36
609.345	10.13
609.68	9.89
610.015	10.12
610.35	9.98
610.685	9.82
611.02	10.11
611.355	10.07
611.689	10.07
612.024	10.19
612.359	10.4
612.694	10.24
613.028	10.1
613.363	10
613.697	10.42
614.032	10.31
614.366	10.37
614.7	10.6
615.035	10.42
615.369	10.7
615.703	10.63
616.037	10.57
616.371	10.48
616.705	10.32
617.039	10.52
617.373	10.81
617.707	10.57
618.041	10.45
618.375	10.09
618.709	10.69
619.042	10.63
619.376	10.84
619.71	10.75
620.043	11.01
620.377	10.81
620.71	10.66
621.043	10.95
621.377	11.36
621.71	11.13
622.043	11.1
622.376	11.12
622.709	11.01
623.043	11.33
623.376	10.98
623.709	11.37
624.041	11.21
624.374	11.15
624.707	11.26
625.04	11.16
625.373	11.41
625.705	11.62
626.038	11.06
626.37	11.56
626.703	11.48
627.035	11.16
627.368	11.78
627.7	11.57
628.032	11.47
628.365	11.59
628.697	11.79
629.029	11.48
629.361	11.71
629.693	11.48
630.025	11.62
630.357	11.82
630.689	11.76
631.021	11.83
631.353	11.86
631.684	11.54
632.016	11.7
632.348	11.78
632.679	12.12
633.011	12.15
633.342	11.91
633.674	11.92
634.005	11.87
634.336	12.19
634.668	11.97
634.999	11.79
635.33	12.45
635.661	11.8
635.992	12.2
636.323	12.38
636.654	12.3
636.985	12.08
637.316	12.35
637.647	12.31
637.977	12.32
638.308	12.71
638.639	12.4
638.969	12.23
639.3	12.45
639.63	12.54
639.961	12.7
640.291	12.4
640.622	12.79
640.952	12.57
641.282	12.47
641.612	12.53
641.943	12.74
642.273	12.82
642.603	12.94
642.933	13.14
643.263	13.08
643.592	13.16
643.922	13.1
644.252	13.1
644.582	13.15
644.911	13.32
645.241	12.84
645.571	13.3
645.9	13.12
646.23	13.44
646.559	12.91
646.888	13.02
647.218	13.08
647.547	13.26
647.876	13.13
648.205	13.39
648.534	13.3
648.863	13.56
649.192	13.62
649.521	13.66
649.85	13.48
650.179	13.79
650.508	13.55
650.837	13.91
651.165	13.79
651.494	13.41
651.822	13.74
652.151	13.51
652.479	14.41
652.808	13.77
653.136	13.67
653.465	13.76
653.793	13.7
654.121	13.86
654.449	13.66
654.777	13.43
655.105	13.63
655.433	14.33
655.761	14.42
656.089	13.81
656.417	14.65
656.745	14.66
657.073	13.92
657.4	14.26
657.728	13.76
658.056	14.25
658.383	14.05
658.711	14.35
659.038	14.74
659.365	14.33
659.693	14.45
660.02	14.56
660.347	14.56
660.674	14.34
661.001	14.43
661.329	14.69
661.656	14.44
661.982	14.33
662.309	14.45
662.636	14.38
662.963	14.6
663.29	15.14
663.616	14.86
663.943	14.94
664.27	14.7
664.596	15
664.923	15.09
665.249	15.27
665.576	14.78
665.902	15.22
666.228	15.4
666.554	15.39
666.881	14.91
667.207	15.05
667.533	14.81
667.859	15.34
668.185	15.25
668.511	16.32
668.837	15.4
669.162	15.67
669.488	14.59
669.814	15.59
670.139	14.59
670.465	15.82
670.791	15.64
671.116	15.5
671.442	15.4
671.767	15.38
672.092	15.23
672.418	15.91
672.743	15.66
673.068	15.36
673.393	15.68
673.718	15.61
674.043	15.95
674.368	15.24
674.693	15.53
675.018	16.18
675.343	15.79
675.667	15.99
675.992	15.65
676.317	15.63
676.641	16.68
676.966	15.75
677.29	15.65
677.615	16.12
677.939	16.87
678.264	16.21
678.588	16.16
678.912	15.78
679.236	15.9
679.56	16.15
679.885	16.12
680.209	16.36
680.532	17.1
680.856	16.82
681.18	17.14
681.504	15.99
681.828	16.13
682.152	16.27
682.475	16.79
682.799	16.69
683.122	16.64
683.446	16.35
683.769	16.69
684.093	16.92
684.416	16.67
684.739	16.54
685.062	17.09
685.386	17.37
685.709	16.92
686.032	17.75
686.355	16.75
686.678	17.22
