Data from 22-4_crown_Reflection__2__203.txt Node

Date: Thu Dec 15 18:04:17 CST 2022
User: ToomeyLab
Spectrometer: FLMS14357
Trigger mode: 0
Integration Time (sec): 1.000000E-2
Scans to average: 100
Electric dark correction enabled: true
Nonlinearity correction enabled: false
Boxcar width: 0
XAxis mode: Wavelengths
Number of Pixels in Spectrum: 2048
>>>>>Begin Spectral Data<<<<<
189.047	-55.56
189.435	-55.56
189.823	-55.56
190.211	-6.97
190.599	520.86
190.987	-343.39
191.375	-88.11
191.763	184.14
192.151	802.1
192.538	317.36
192.926	98.29
193.314	177
193.702	1118.32
194.089	66.92
194.477	25.71
194.864	168.44
195.252	0.12
195.639	78.65
196.027	34.18
196.414	-12.3
196.801	208.61
197.189	60.36
197.576	45.19
197.963	-339.53
198.351	0.54
198.738	-48.52
199.125	12.52
199.512	25.19
199.899	-102.1
200.286	-29.37
200.673	39.06
201.06	-35.7
201.447	-13.8
201.833	-31.83
202.22	-31.22
202.607	26.65
202.994	-37.89
203.38	9.1
203.767	-18.22
204.154	11.52
204.54	25.46
204.927	3.47
205.313	41.58
205.699	-8.64
206.086	-0.29
206.472	7.68
206.858	-63.01
207.245	0.62
207.631	-16.7
208.017	39.14
208.403	-101.79
208.789	13.22
209.175	-0.54
209.561	-97.36
209.947	-24.83
210.333	-3.88
210.719	0.41
211.105	23.07
211.491	-24.57
211.876	-34.44
212.262	10.77
212.648	9.85
213.034	-0.22
213.419	17.62
213.805	-17.57
214.19	-16.92
214.576	-9.95
214.961	21.46
215.346	-9.98
215.732	7.55
216.117	16.6
216.502	12.67
216.888	7.08
217.273	1.1
217.658	-11.12
218.043	-34.12
218.428	-31.78
218.813	1.14
219.198	-26.55
219.583	2.47
219.968	-7.11
220.353	-2.57
220.738	3.52
221.122	-20.36
221.507	-15.2
221.892	-33.96
222.276	-25.72
222.661	0.49
223.046	-7.03
223.43	9.36
223.815	-5.56
224.199	-5.97
224.583	-10.37
224.968	3.16
225.352	-1.66
225.736	7.4
226.121	-5.98
226.505	-1.36
226.889	-4.78
227.273	0.64
227.657	5.9
228.041	3.65
228.425	1.97
228.809	3.91
229.193	7.08
229.577	5.69
229.961	4.7
230.344	5.78
230.728	6.07
231.112	6.13
231.495	5.47
231.879	4.31
232.263	6.27
232.646	5.46
233.03	5.91
233.413	5.73
233.797	5.21
234.18	5.43
234.563	5.19
234.946	4.62
235.33	2.34
235.713	4.99
236.096	5.28
236.479	7.74
236.862	2.51
237.245	4.85
237.628	5.83
238.011	5.7
238.394	4.89
238.777	5.67
239.16	6.08
239.543	5.02
239.925	4.85
240.308	5.15
240.691	4.65
241.073	5.06
241.456	5.55
241.838	5.33
242.221	4.84
242.603	5.15
242.986	5.09
243.368	5.37
243.75	5.43
244.133	5.76
244.515	5.26
244.897	5.21
245.279	5.19
245.661	4.38
246.043	4.59
246.425	4.74
246.807	4.71
247.189	4.48
247.571	5.37
247.953	5.14
248.335	5.41
248.717	5.5
249.098	5.4
249.48	5.03
249.862	5.08
250.243	5.21
250.625	5
251.006	5.93
251.388	4.97
251.769	4.55
252.151	5.33
252.532	4.43
252.913	4.93
253.295	5.36
253.676	5.38
254.057	4.98
254.438	5.78
254.819	5.38
255.2	5.29
255.581	5.85
255.962	4.67
256.343	5.54
256.724	5.27
257.105	4.31
257.486	4.16
257.867	4.78
258.247	5.85
258.628	5.47
259.009	3.81
259.389	4.21
259.77	4.65
260.15	5.04
260.531	5.1
260.911	4.68
261.292	5.06
261.672	4.93
262.052	4.87
262.432	4.98
262.813	5
263.193	5.07
263.573	4.98
263.953	4.63
264.333	5.22
264.713	5
265.093	4.46
265.473	4.82
265.853	5.67
266.233	4.65
266.612	4.43
266.992	4.49
267.372	5.53
267.752	4.86
268.131	4.83
268.511	4.37
268.89	5.16
269.27	4.14
269.649	4.86
270.029	4.81
270.408	4.96
270.787	4.88
271.167	5.3
271.546	5.34
271.925	5.17
272.304	5
272.683	4.74
273.062	4.51
273.441	4.65
273.82	5.04
274.199	4.83
274.578	5.05
274.957	4.82
275.336	5.33
275.715	5.24
276.093	4.28
276.472	4.36
276.851	4.54
277.229	4.87
277.608	4.64
277.986	4.7
278.365	5.06
278.743	4.6
279.122	4.54
279.5	4.52
279.878	4.31
280.257	4.53
280.635	4.64
281.013	3.75
281.391	4.69
281.769	5.17
282.147	4.1
282.525	4.44
282.903	4.6
283.281	5.22
283.659	4.88
284.037	4.39
284.415	4.56
284.792	4.79
285.17	4.85
285.548	4.56
285.925	4.89
286.303	5.37
286.68	4.54
287.058	4.66
287.435	4.43
287.813	4.6
288.19	4.59
288.567	4.94
288.945	4.8
289.322	4.86
289.699	4.9
290.076	4.28
290.453	4.19
290.83	4.54
291.207	4.49
291.584	4.4
291.961	4.78
292.338	4.47
292.715	4.17
293.092	4.91
293.469	4.59
293.845	4.76
294.222	4.36
294.599	4.22
294.975	4.48
295.352	4.67
295.728	5.07
296.105	4.6
296.481	4.77
296.858	4.59
297.234	3.88
297.61	4.05
297.986	4.96
298.363	4.65
298.739	4.76
299.115	4.61
299.491	4.85
299.867	4.69
300.243	4.63
300.619	4.52
300.995	4.78
301.371	4.78
301.746	4.56
302.122	3.84
302.498	4.58
302.874	4.42
303.249	4.27
303.625	4.17
304	4.86
304.376	4.67
304.751	4.66
305.127	4.37
305.502	4.67
305.878	4.84
306.253	3.54
306.628	4.76
307.003	4.26
307.378	4.27
307.754	4.56
308.129	4.05
308.504	4.95
308.879	4.15
309.254	5.05
309.629	4.32
310.003	4.32
310.378	4.86
310.753	4.64
311.128	3.88
311.502	4.64
311.877	4.15
312.252	4.45
312.626	5.01
313.001	4.43
313.375	4.73
313.75	4.36
314.124	4.43
314.498	4.75
314.873	4.03
315.247	4.63
315.621	4.84
315.995	3.84
316.369	3.96
316.743	4.29
317.117	3.86
317.491	4.8
317.865	4.08
318.239	4.46
318.613	4.33
318.987	3.79
319.361	4.45
319.734	4.84
320.108	4.55
320.482	4.64
320.855	4.19
321.229	4.08
321.602	4.58
321.976	3.16
322.349	5.22
322.723	4.86
323.096	4.64
323.469	4.42
323.843	3.97
324.216	3.73
324.589	4.86
324.962	4
325.335	4.26
325.708	4.42
326.081	4.12
326.454	4.26
326.827	4.56
327.2	4.22
327.573	4.81
327.945	4.09
328.318	3.84
328.691	3.83
329.063	3.85
329.436	4.14
329.809	4.55
330.181	4.64
330.553	4.62
330.926	3.98
331.298	4.1
331.671	4.23
332.043	4.19
332.415	4.5
332.787	4.51
333.159	3.83
333.532	4.05
333.904	4.61
334.276	3.98
334.648	4.34
335.02	4.14
335.391	3.91
335.763	3.83
336.135	4.24
336.507	3.98
336.879	4.28
337.25	4.26
337.622	4.45
337.993	3.75
338.365	3.98
338.736	4.34
339.108	4.06
339.479	4.2
339.851	4.57
340.222	4.56
340.593	4.26
340.964	4
341.336	3.79
341.707	4.37
342.078	3.81
342.449	3.9
342.82	4.32
343.191	4.35
343.562	4.31
343.933	4.12
344.303	4.47
344.674	3.98
345.045	4.2
345.416	4.4
345.786	4.01
346.157	4.17
346.527	4.11
346.898	3.84
347.268	4.16
347.639	4.41
348.009	4.57
348.38	4.19
348.75	4.52
349.12	4.39
349.49	4.11
349.861	4.41
350.231	4.11
350.601	3.99
350.971	3.98
351.341	4
351.711	4.44
352.081	3.87
352.45	3.8
352.82	3.44
353.19	3.99
353.56	3.85
353.929	4.04
354.299	4.29
354.669	4.16
355.038	4.38
355.408	4.01
355.777	4.36
356.147	3.71
356.516	3.51
356.885	3.98
357.254	3.99
357.624	3.65
357.993	4.24
358.362	4.29
358.731	4.38
359.1	4.04
359.469	4.33
359.838	4.3
360.207	4
360.576	4.45
360.945	4.19
361.314	4.04
361.682	4.06
362.051	4.17
362.42	4.17
362.788	4.19
363.157	3.96
363.525	4.02
363.894	4.04
364.262	4.19
364.631	4.37
364.999	4.42
365.367	4.04
365.735	4.24
366.104	4.26
366.472	3.89
366.84	4.15
367.208	4.63
367.576	3.71
367.944	4.07
368.312	4.43
368.68	4.17
369.048	4.21
369.416	4.21
369.783	4.28
370.151	4.43
370.519	4.47
370.886	4.25
371.254	4.4
371.621	4.43
371.989	4.33
372.356	4.2
372.724	4.13
373.091	3.89
373.458	3.92
373.826	4.58
374.193	4.16
374.56	4.36
374.927	4.08
375.294	4.08
375.661	4.34
376.028	4.06
376.395	4.13
376.762	4.18
377.129	3.98
377.496	4.41
377.863	4.33
378.229	4.45
378.596	4.33
378.963	4.14
379.329	4.21
379.696	4.19
380.062	4.2
380.429	4.06
380.795	4.21
381.161	3.88
381.528	3.9
381.894	3.98
382.26	4.49
382.626	4.21
382.993	4.5
383.359	4.13
383.725	4.21
384.091	4.36
384.457	4.11
384.823	3.94
385.188	4.13
385.554	4.25
385.92	4.25
386.286	4.38
386.651	4.07
387.017	4.47
387.383	4.25
387.748	4.45
388.114	4.56
388.479	4.34
388.845	3.89
389.21	4.49
389.575	4.57
389.94	4.41
390.306	4.43
390.671	4.32
391.036	4.02
391.401	4.23
391.766	4.31
392.131	4.42
392.496	4.33
392.861	4.26
393.226	4.23
393.591	4.41
393.956	4.28
394.32	4.48
394.685	4.3
395.05	4.2
395.414	4.31
395.779	4.39
396.143	4.11
396.508	4.35
396.872	4.39
397.236	4.67
397.601	4.26
397.965	4.32
398.329	4.36
398.694	4.11
399.058	4.46
399.422	4.48
399.786	4.21
400.15	4.13
400.514	4.41
400.878	4.33
401.242	4.5
401.605	4.24
401.969	4.29
402.333	4.33
402.697	4.5
403.06	4.54
403.424	4.4
403.787	4.43
404.151	4.36
404.514	4.36
404.878	4.22
405.241	4.27
405.604	4.26
405.968	4.37
406.331	4.47
406.694	4.4
407.057	4.27
407.42	4.3
407.783	4.41
408.146	4.29
408.509	4.34
408.872	4.51
409.235	4.37
409.598	4.52
409.961	4.41
410.323	4.16
410.686	4.26
411.049	4.65
411.411	4.31
411.774	4.52
412.136	4.38
412.499	4.55
412.861	4.08
413.223	4.29
413.586	4.64
413.948	4.43
414.31	4.28
414.672	4.23
415.035	4.44
415.397	4.42
415.759	4.09
416.121	4.48
416.483	4.43
416.845	4.28
417.206	4.45
417.568	4.49
417.93	4.55
418.292	4.35
418.653	4.34
419.015	4.41
419.377	4.29
419.738	4.5
420.1	4.4
420.461	4.25
420.822	4.32
421.184	4.4
421.545	4.41
421.906	4.36
422.267	4.34
422.629	4.37
422.99	4.31
423.351	4.38
423.712	4.38
424.073	4.41
424.434	4.54
424.795	4.31
425.155	4.3
425.516	4.38
425.877	4.37
426.238	4.43
426.598	4.29
426.959	4.43
427.32	4.43
427.68	4.45
428.041	4.57
428.401	4.35
428.761	4.52
429.122	4.54
429.482	4.59
429.842	4.46
430.202	4.58
430.563	4.35
430.923	4.52
431.283	4.57
431.643	4.52
432.003	4.51
432.363	4.56
432.722	4.48
433.082	4.5
433.442	4.76
433.802	4.41
434.161	4.62
434.521	4.47
434.881	4.46
435.24	4.46
435.6	4.65
435.959	4.67
436.319	4.53
436.678	4.66
437.037	4.56
437.396	4.55
437.756	4.41
438.115	4.6
438.474	4.47
438.833	4.46
439.192	4.55
439.551	4.46
439.91	4.63
440.269	4.52
440.628	4.59
440.987	4.51
441.345	4.62
441.704	4.5
442.063	4.46
442.421	4.57
442.78	4.58
443.138	4.59
443.497	4.53
443.855	4.65
444.214	4.49
444.572	4.72
444.93	4.49
445.288	4.58
445.647	4.48
446.005	4.57
446.363	4.57
446.721	4.48
447.079	4.5
447.437	4.6
447.795	4.5
448.153	4.47
448.51	4.56
448.868	4.54
449.226	4.57
449.584	4.64
449.941	4.62
450.299	4.61
450.656	4.58
451.014	4.8
451.371	4.82
451.729	4.58
452.086	4.7
452.443	4.95
452.801	4.71
453.158	4.77
453.515	4.59
453.872	4.56
454.229	4.47
454.586	4.54
454.943	4.72
455.3	4.85
455.657	4.59
456.014	4.66
456.371	4.69
456.727	4.83
457.084	4.69
457.441	4.74
457.797	4.8
458.154	4.68
458.51	4.6
458.867	4.71
459.223	4.63
459.58	4.77
459.936	4.67
460.292	4.69
460.648	4.55
461.005	4.53
461.361	4.54
461.717	4.68
462.073	4.69
462.429	4.71
462.785	4.88
463.141	4.8
463.496	4.71
463.852	4.89
464.208	4.79
464.564	4.66
464.919	4.74
465.275	4.82
465.631	4.79
465.986	4.74
466.342	4.64
466.697	4.88
467.052	5.02
467.408	5.03
467.763	4.88
468.118	4.68
468.473	4.78
468.829	4.74
469.184	4.93
469.539	4.85
469.894	4.82
470.249	4.89
470.603	5.09
470.958	4.9
471.313	5.03
471.668	4.93
472.023	4.72
472.377	4.75
472.732	4.97
473.086	4.76
473.441	4.86
473.795	5.13
474.15	4.75
474.504	4.86
474.859	4.68
475.213	4.89
475.567	4.79
475.921	4.95
476.275	4.99
476.63	4.89
476.984	4.77
477.338	5.06
477.692	4.91
478.045	4.98
478.399	4.86
478.753	4.69
479.107	4.89
479.461	4.91
479.814	4.91
480.168	4.97
480.521	4.89
480.875	4.87
481.228	4.98
481.582	4.9
481.935	5.04
482.289	4.94
482.642	5.03
482.995	4.95
483.348	4.81
483.701	4.8
484.055	4.81
484.408	4.84
484.761	4.73
485.114	4.58
485.466	4.57
485.819	4.61
486.172	4.69
486.525	4.77
486.878	4.84
487.23	4.83
487.583	4.85
487.936	4.78
488.288	4.81
488.641	4.74
488.993	4.69
489.345	4.69
489.698	4.76
490.05	4.73
490.402	4.83
490.754	4.88
491.107	4.87
491.459	4.94
491.811	4.97
492.163	4.92
492.515	4.82
492.866	4.84
493.218	4.71
493.57	4.79
493.922	4.85
494.274	5
494.625	4.99
494.977	5.01
495.328	5.08
495.68	4.98
496.031	5.03
496.383	5.04
496.734	5.04
497.086	5.05
497.437	5.05
497.788	5.1
498.139	4.97
498.49	5.09
498.842	5.05
499.193	4.99
499.544	5.07
499.894	4.93
500.245	5.13
500.596	5.16
500.947	4.99
501.298	5.08
501.648	5.12
501.999	5.11
502.35	5.11
502.7	5.2
503.051	5.1
503.401	5.15
503.752	5.01
504.102	5.01
504.452	5.05
504.803	5.07
505.153	5.19
505.503	5.08
505.853	5.12
506.203	5.15
506.553	5.1
506.903	5.23
507.253	5.2
507.603	5.17
507.953	5.14
508.303	5.16
508.652	5.07
509.002	5.08
509.352	5.05
509.701	5.01
510.051	5.13
510.4	5.21
510.75	5.06
511.099	4.97
511.449	5.17
511.798	5.13
512.147	5.18
512.496	5.15
512.846	5.04
513.195	5.19
513.544	5.18
513.893	5.08
514.242	5.11
514.591	5.14
514.939	5.12
515.288	5.2
515.637	5.1
515.986	5.11
516.334	5.31
516.683	5.29
517.032	5.2
517.38	5.18
517.729	5.14
518.077	5.25
518.426	5.21
518.774	5.13
519.122	5.22
519.47	5.16
519.819	5.1
520.167	5.12
520.515	5.17
520.863	5.19
521.211	5.14
521.559	5.15
521.907	5.3
522.255	5.11
522.602	5.28
522.95	5.3
523.298	5.22
523.645	5.25
523.993	5.28
524.341	5.24
524.688	5.22
525.036	5.21
525.383	5.3
525.73	5.09
526.078	5.37
526.425	5.16
526.772	5.21
527.119	5.11
527.466	5.14
527.814	5.1
528.161	5.25
528.508	5.2
528.854	5.21
529.201	5.18
529.548	5.07
529.895	4.9
530.242	4.92
530.588	4.98
530.935	5
531.282	5.08
531.628	5.19
531.975	5.09
532.321	5.2
532.667	5.24
533.014	5.24
533.36	5.19
533.706	5.18
534.052	5.25
534.399	5.11
534.745	5.03
535.091	5.06
535.437	5.12
535.783	5.14
536.129	5.16
536.474	5.26
536.82	5.28
537.166	5.23
537.512	5.17
537.857	5.19
538.203	5.17
538.549	5.11
538.894	5.19
539.239	5.24
539.585	5.35
539.93	5.48
540.276	5.42
540.621	5.34
540.966	5.31
541.311	5.27
541.656	5.14
542.001	5.25
542.346	5.16
542.691	5.04
543.036	5.13
543.381	5.07
543.726	5.22
544.071	5.26
544.415	5.26
544.76	5.23
545.105	5.22
545.449	5.31
545.794	5.33
546.138	5.29
546.483	5.34
546.827	5.28
547.171	5.28
547.516	5.36
547.86	5.4
548.204	5.4
548.548	5.28
548.892	5.38
549.236	5.3
549.58	5.47
549.924	5.42
550.268	5.45
550.612	5.54
550.956	5.62
551.3	5.51
551.643	5.36
551.987	5.6
552.33	5.65
552.674	5.44
553.017	5.55
553.361	5.46
553.704	5.59
554.048	5.39
554.391	5.47
554.734	5.33
555.077	5.46
555.42	5.5
555.764	5.44
556.107	5.69
556.45	5.69
556.793	5.58
557.135	5.52
557.478	5.43
557.821	5.63
558.164	5.44
558.507	5.42
558.849	5.56
559.192	5.59
559.534	5.54
559.877	5.43
560.219	5.53
560.562	5.54
560.904	5.69
561.246	5.3
561.589	5.71
561.931	5.49
562.273	5.47
562.615	5.38
562.957	5.49
563.299	5.45
563.641	5.5
563.983	5.35
564.325	5.64
564.667	5.45
565.008	5.44
565.35	5.47
565.692	5.43
566.033	5.43
566.375	5.57
566.716	5.44
567.058	5.42
567.399	5.49
567.741	5.54
568.082	5.59
568.423	5.37
568.764	5.59
569.105	5.45
569.447	5.43
569.788	5.39
570.129	5.55
570.47	5.64
570.811	5.45
571.151	5.53
571.492	5.49
571.833	5.45
572.174	5.49
572.514	5.57
572.855	5.47
573.195	5.5
573.536	5.51
573.876	5.42
574.217	5.42
574.557	5.55
574.898	5.56
575.238	5.63
575.578	5.57
575.918	5.51
576.258	5.71
576.598	5.43
576.938	5.34
577.278	5.52
577.618	5.5
577.958	5.53
578.298	5.55
578.638	5.51
578.977	5.79
579.317	5.49
579.657	5.42
579.996	5.57
580.336	5.63
580.675	5.62
581.014	5.48
581.354	5.51
581.693	5.56
582.032	5.75
582.372	5.49
582.711	5.6
583.05	5.51
583.389	5.67
583.728	5.7
584.067	5.54
584.406	5.74
584.745	5.54
585.083	5.53
585.422	5.59
585.761	5.62
586.1	5.9
586.438	5.52
586.777	5.68
587.115	5.57
587.454	5.39
587.792	5.66
588.13	5.72
588.469	5.66
588.807	5.66
589.145	5.71
589.483	5.44
589.821	5.79
590.159	5.66
590.497	5.59
590.835	5.74
591.173	5.87
591.511	5.75
591.849	5.67
592.187	5.39
592.524	5.74
592.862	5.64
593.2	5.51
593.537	5.8
593.875	5.55
594.212	5.74
594.55	5.58
594.887	5.82
595.224	5.82
595.561	5.81
595.899	5.67
596.236	5.89
596.573	5.55
596.91	5.58
597.247	5.77
597.584	5.64
597.921	5.64
598.258	5.73
598.594	5.73
598.931	5.42
599.268	5.48
599.604	5.59
599.941	5.85
600.277	5.76
600.614	5.58
600.95	5.57
601.287	5.36
601.623	5.32
601.959	5.78
602.296	5.72
602.632	5.63
602.968	5.6
603.304	5.61
603.64	5.78
603.976	5.67
604.312	5.55
604.648	5.91
604.984	5.55
605.319	5.58
605.655	5.62
605.991	5.65
606.326	5.6
606.662	5.48
606.998	5.74
607.333	5.6
607.668	5.59
608.004	5.58
608.339	5.66
608.674	5.85
609.01	5.94
609.345	5.83
609.68	5.51
610.015	5.8
610.35	5.86
610.685	5.57
611.02	5.61
611.355	5.51
611.689	5.82
612.024	5.76
612.359	5.79
612.694	5.71
613.028	5.64
613.363	5.68
613.697	6.03
614.032	5.84
614.366	5.66
614.7	5.68
615.035	5.93
615.369	6.15
615.703	5.91
616.037	5.94
616.371	5.46
616.705	5.67
617.039	5.59
617.373	5.9
617.707	5.86
618.041	5.59
618.375	5.16
618.709	5.73
619.042	5.64
619.376	5.76
619.71	5.8
620.043	6.14
620.377	5.62
620.71	5.82
621.043	5.86
621.377	6.04
621.71	5.89
622.043	5.46
622.376	5.79
622.709	6.32
623.043	5.75
623.376	5.85
623.709	5.99
624.041	5.72
624.374	5.68
624.707	5.83
625.04	6
625.373	6.05
625.705	5.91
626.038	5.88
626.37	5.63
626.703	5.69
627.035	6.05
627.368	6.1
627.7	5.87
628.032	5.66
628.365	6.05
628.697	6.22
629.029	5.89
629.361	6.03
629.693	5.66
630.025	6.06
630.357	5.8
630.689	5.68
631.021	6
631.353	5.81
631.684	5.57
632.016	5.53
632.348	5.83
632.679	5.9
633.011	5.72
633.342	5.85
633.674	5.85
634.005	5.77
634.336	5.84
634.668	5.74
634.999	5.81
635.33	5.83
635.661	5.7
635.992	5.76
636.323	5.77
636.654	5.67
636.985	5.64
637.316	5.83
637.647	6.03
637.977	5.6
638.308	6.19
638.639	5.68
638.969	5.65
639.3	6.06
639.63	5.5
639.961	5.6
640.291	5.47
640.622	6.07
640.952	6.04
641.282	5.67
641.612	6.06
641.943	5.68
642.273	5.82
642.603	6.07
642.933	6.11
643.263	5.93
643.592	5.86
643.922	6.14
644.252	5.42
644.582	5.65
644.911	5.68
645.241	5.65
645.571	5.71
645.9	5.89
646.23	6.3
646.559	5.64
646.888	6.32
647.218	5.67
647.547	6.06
647.876	5.87
648.205	5.53
648.534	6.47
648.863	5.65
649.192	5.8
649.521	5.68
649.85	5.73
650.179	5.79
650.508	5.88
650.837	5.79
651.165	5.84
651.494	5.89
651.822	5.94
652.151	6.1
652.479	6.02
652.808	5.99
653.136	5.47
653.465	5.79
653.793	5.63
654.121	5.74
654.449	5.59
654.777	5.36
655.105	5.79
655.433	5.78
655.761	6.07
656.089	5.76
656.417	6.11
656.745	6.5
657.073	5.9
657.4	5.91
657.728	5.7
658.056	6.2
658.383	5.74
658.711	5.97
659.038	6.25
659.365	6.1
659.693	5.73
660.02	6.04
660.347	6.05
660.674	5.67
661.001	5.82
661.329	5.66
661.656	5.75
661.982	5.55
662.309	5.8
662.636	5.88
662.963	5.84
663.29	5.9
663.616	5.86
663.943	5.99
664.27	5.57
664.596	5.51
664.923	6.31
665.249	5.96
665.576	6.09
665.902	6.22
666.228	6.33
666.554	6.16
666.881	5.71
667.207	5.83
667.533	5.42
667.859	5.63
668.185	5.71
668.511	6.34
668.837	5.63
669.162	5.84
669.488	5.21
669.814	6.11
670.139	5.39
670.465	6.3
670.791	5.41
671.116	5.87
671.442	5.22
671.767	5.96
672.092	5.69
672.418	6.06
672.743	5.89
673.068	5.87
673.393	5.65
673.718	5.13
674.043	6.35
674.368	5.42
674.693	6.05
675.018	6.32
675.343	6.14
675.667	6.7
675.992	6.27
676.317	5.46
676.641	6.04
676.966	5.97
677.29	5.61
677.615	5.71
677.939	6.29
678.264	5.5
678.588	6.15
678.912	5.72
679.236	5.36
679.56	5.64
679.885	5.06
680.209	6.29
680.532	6.4
680.856	6.27
681.18	6.48
681.504	6.12
681.828	5.8
682.152	5.87
682.475	6.15
682.799	6.04
683.122	6
683.446	5.27
683.769	6.22
684.093	6
684.416	5.46
684.739	5.69
685.062	5.93
685.386	6.14
685.709	6.12
686.032	5.96
686.355	5.58
686.678	6.01
687.001	5.97
687.324	5.43
687.646	5.78
687.969	5.45
688.292	5.92
688.614	6.66
688.937	6.48
689.26	6.17
689.582	6.43
689.904	6.27
690.227	6.39
690.549	6.85
690.871	5.31
691.194	5.43
691.516	5.25
691.838	6.62
692.16	5.82
692.482	5.87
