Data from 22-4_crown_Reflection__1__202.txt Node

Date: Thu Dec 15 18:04:06 CST 2022
User: ToomeyLab
Spectrometer: FLMS14357
Trigger mode: 0
Integration Time (sec): 1.000000E-2
Scans to average: 100
Electric dark correction enabled: true
Nonlinearity correction enabled: false
Boxcar width: 0
XAxis mode: Wavelengths
Number of Pixels in Spectrum: 2048
>>>>>Begin Spectral Data<<<<<
189.047	-121.84
189.435	-121.84
189.823	-121.84
190.211	-48.39
190.599	708.9
190.987	-21.45
191.375	35.2
191.763	93.59
192.151	268.02
192.538	382.71
192.926	-5.41
193.314	-105.72
193.702	985.88
194.089	346.51
194.477	166.52
194.864	287.18
195.252	34.87
195.639	-3.12
196.027	78.3
196.414	455.35
196.801	108.14
197.189	-41.28
197.576	13.3
197.963	-537.02
198.351	-20.91
198.738	-1.36
199.125	-55.11
199.512	9.62
199.899	-86.02
200.286	-87.54
200.673	63.61
201.06	10.97
201.447	-16.34
201.833	-37.38
202.22	-12.97
202.607	-79.98
202.994	44.58
203.38	37.81
203.767	25.37
204.154	19.61
204.54	6.18
204.927	28.66
205.313	41.02
205.699	14.25
206.086	29.32
206.472	15.14
206.858	32.55
207.245	18.7
207.631	1.34
208.017	47.43
208.403	-69.28
208.789	-3.22
209.175	19.18
209.561	-43.85
209.947	-16.9
210.333	-14.76
210.719	9.1
211.105	19.66
211.491	-2.32
211.876	-24.53
212.262	14.04
212.648	23.54
213.034	17.53
213.419	-19.51
213.805	4.55
214.19	-26.68
214.576	-11.54
214.961	0.34
215.346	-39.08
215.732	-18.7
216.117	7.83
216.502	-12.59
216.888	3.48
217.273	-12.55
217.658	-12.25
218.043	-7.34
218.428	-19.53
218.813	3.84
219.198	-21.07
219.583	-44.56
219.968	1.9
220.353	-24.81
220.738	7.59
221.122	-10.97
221.507	-3.44
221.892	-23.08
222.276	-29.7
222.661	-16.64
223.046	-5.11
223.43	10.39
223.815	2
224.199	-0.78
224.583	-2.58
224.968	2.87
225.352	-7.82
225.736	9.64
226.121	8.61
226.505	-4.55
226.889	-7.63
227.273	-5.27
227.657	1.72
228.041	2.1
228.425	4.01
228.809	2.64
229.193	6.28
229.577	3.93
229.961	4.14
230.344	5.14
230.728	5.39
231.112	5.51
231.495	3.2
231.879	4.97
232.263	4.58
232.646	3.68
233.03	4.08
233.413	4.69
233.797	0.93
234.18	5.01
234.563	1.69
234.946	4.07
235.33	4.28
235.713	5.16
236.096	4.08
236.479	5.38
236.862	2.05
237.245	2.43
237.628	3.41
238.011	4.41
238.394	1.47
238.777	4
239.16	6.31
239.543	4.44
239.925	4.58
240.308	2.78
240.691	1.68
241.073	3.32
241.456	4.52
241.838	3.97
242.221	4.26
242.603	4.38
242.986	4.88
243.368	4.94
243.75	4.22
244.133	4.6
244.515	4.24
244.897	4.07
245.279	3.43
245.661	3.22
246.043	4.21
246.425	4.31
246.807	3.27
247.189	4.09
247.571	3.99
247.953	4.4
248.335	4.43
248.717	4.33
249.098	4.28
249.48	4.18
249.862	4.37
250.243	4.12
250.625	3.7
251.006	4.29
251.388	3.49
251.769	2.57
252.151	4.86
252.532	3.94
252.913	4.05
253.295	4.04
253.676	4.46
254.057	3.65
254.438	3.97
254.819	3.52
255.2	5.02
255.581	4.78
255.962	4.13
256.343	4.52
256.724	3.68
257.105	2.96
257.486	2.72
257.867	3.81
258.247	4.62
258.628	4.53
259.009	3.31
259.389	3.43
259.77	3.29
260.15	4.46
260.531	3.74
260.911	3.89
261.292	4.1
261.672	3.88
262.052	3.9
262.432	3.67
262.813	3.56
263.193	4.5
263.573	3.42
263.953	3.5
264.333	4.17
264.713	3.54
265.093	3.49
265.473	2.75
265.853	3.24
266.233	4.38
266.612	2.94
266.992	4.4
267.372	3.78
267.752	4.11
268.131	3.44
268.511	3.46
268.89	4.24
269.27	3.6
269.649	3.1
270.029	3.76
270.408	3.85
270.787	3.67
271.167	3.63
271.546	4.43
271.925	3.7
272.304	3.41
272.683	3.38
273.062	3.82
273.441	3.54
273.82	3.46
274.199	3.48
274.578	3.61
274.957	3.61
275.336	4.14
275.715	3.71
276.093	3.33
276.472	2.82
276.851	3.69
277.229	3.61
277.608	3.16
277.986	4.03
278.365	4.19
278.743	3.58
279.122	3.73
279.5	3.45
279.878	3.44
280.257	3.48
280.635	3.57
281.013	3.23
281.391	3.15
281.769	3.68
282.147	3.04
282.525	3.07
282.903	3.55
283.281	3.52
283.659	3.52
284.037	3.65
284.415	3.31
284.792	3.28
285.17	3.48
285.548	3.65
285.925	3.36
286.303	3.88
286.68	3.57
287.058	3.47
287.435	3.56
287.813	3.49
288.19	3.27
288.567	3.62
288.945	3.46
289.322	3.51
289.699	3.45
290.076	3.19
290.453	2.92
290.83	3.4
291.207	3.54
291.584	3.82
291.961	3.79
292.338	3.22
292.715	3.32
293.092	3.59
293.469	3.42
293.845	3.43
294.222	4.1
294.599	2.61
294.975	2.54
295.352	2.8
295.728	3.33
296.105	2.94
296.481	3.06
296.858	3.52
297.234	3.02
297.61	3.68
297.986	3.57
298.363	3.32
298.739	3.54
299.115	3.59
299.491	3.65
299.867	3.22
300.243	3.44
300.619	2.87
300.995	3.48
301.371	3.28
301.746	3.08
302.122	2.54
302.498	3.1
302.874	3.01
303.249	3.22
303.625	3.09
304	3.42
304.376	3.51
304.751	3.57
305.127	3.26
305.502	2.96
305.878	3.66
306.253	2.88
306.628	3.62
307.003	2.78
307.378	2.93
307.754	3.4
308.129	2.81
308.504	3.04
308.879	3.44
309.254	3.49
309.629	3.37
310.003	3.11
310.378	3.58
310.753	3.13
311.128	2.64
311.502	3.46
311.877	3.18
312.252	3.28
312.626	3.47
313.001	3.04
313.375	3.34
313.75	3.68
314.124	3.12
314.498	3.36
314.873	2.55
315.247	3.28
315.621	2.99
315.995	2.99
316.369	2.56
316.743	2.73
317.117	2.99
317.491	3.3
317.865	2.87
318.239	3.45
318.613	3.03
318.987	2.51
319.361	3.15
319.734	3.42
320.108	3.08
320.482	3.28
320.855	2.93
321.229	3.14
321.602	3.25
321.976	2.32
322.349	3.24
322.723	2.85
323.096	3.07
323.469	2.44
323.843	2.62
324.216	3.05
324.589	3.45
324.962	3
325.335	2.71
325.708	2.95
326.081	2.85
326.454	3.48
326.827	2.92
327.2	3.08
327.573	3.29
327.945	2.57
328.318	2.94
328.691	3.39
329.063	3.23
329.436	2.94
329.809	3.42
330.181	3.76
330.553	3.18
330.926	3.18
331.298	2.79
331.671	3.61
332.043	3.3
332.415	3.39
332.787	3.17
333.159	2.99
333.532	3.13
333.904	3.1
334.276	3.31
334.648	2.65
335.02	2.53
335.391	2.88
335.763	3.13
336.135	3.25
336.507	2.97
336.879	2.85
337.25	3.3
337.622	2.98
337.993	2.92
338.365	2.86
338.736	3.28
339.108	3.17
339.479	2.9
339.851	3.18
340.222	2.95
340.593	2.69
340.964	3.29
341.336	2.86
341.707	2.72
342.078	3.35
342.449	3
342.82	3.3
343.191	3.12
343.562	3.14
343.933	2.67
344.303	3
344.674	2.78
345.045	2.96
345.416	3.28
345.786	2.9
346.157	3.09
346.527	2.89
346.898	2.62
347.268	2.85
347.639	2.62
348.009	3.17
348.38	2.96
348.75	3.43
349.12	3.18
349.49	3.31
349.861	3.22
350.231	2.74
350.601	3.01
350.971	3.01
351.341	3.22
351.711	3.23
352.081	2.72
352.45	2.68
352.82	2.79
353.19	2.74
353.56	3.07
353.929	2.92
354.299	3.56
354.669	3.43
355.038	3.3
355.408	2.84
355.777	3.37
356.147	2.96
356.516	2.89
356.885	3.03
357.254	2.96
357.624	2.52
357.993	3.1
358.362	2.98
358.731	3.21
359.1	2.92
359.469	3.17
359.838	3.05
360.207	2.81
360.576	3.15
360.945	2.88
361.314	2.93
361.682	2.92
362.051	3.07
362.42	3.16
362.788	3.16
363.157	3.05
363.525	3.02
363.894	2.79
364.262	3.2
364.631	3.17
364.999	2.96
365.367	2.91
365.735	2.89
366.104	2.99
366.472	2.86
366.84	3.01
367.208	3.25
367.576	2.99
367.944	3.15
368.312	2.98
368.68	3.3
369.048	3.15
369.416	2.94
369.783	2.94
370.151	3.28
370.519	3.59
370.886	3.15
371.254	3.38
371.621	3.1
371.989	3.39
372.356	3.13
372.724	2.86
373.091	2.74
373.458	2.98
373.826	3.2
374.193	3.25
374.56	3.06
374.927	3.04
375.294	3.42
375.661	3.13
376.028	2.99
376.395	3.21
376.762	2.88
377.129	3.13
377.496	3
377.863	3.36
378.229	3.38
378.596	3.25
378.963	3.12
379.329	3.21
379.696	2.76
380.062	3.2
380.429	2.76
380.795	3.25
381.161	3.04
381.528	2.61
381.894	3.17
382.26	3.21
382.626	3.13
382.993	3.52
383.359	3.3
383.725	2.89
384.091	3.07
384.457	2.85
384.823	3.31
385.188	3.22
385.554	2.96
385.92	3.01
386.286	3.12
386.651	3.09
387.017	3.3
387.383	3.3
387.748	3.3
388.114	3.36
388.479	3.01
388.845	3.11
389.21	3.29
389.575	3.48
389.94	3.36
390.306	3.36
390.671	3.23
391.036	3.24
391.401	3.52
391.766	3.04
392.131	3.16
392.496	3.34
392.861	3.14
393.226	3.11
393.591	3.44
393.956	3.12
394.32	3.47
394.685	3.08
395.05	3.24
395.414	3.17
395.779	3.33
396.143	3.2
396.508	3.07
396.872	3.24
397.236	3.43
397.601	3.43
397.965	3.39
398.329	3.35
398.694	3.2
399.058	3.24
399.422	3.55
399.786	3.14
400.15	3.3
400.514	3.5
400.878	3.48
401.242	3.4
401.605	3.47
401.969	3.14
402.333	3.07
402.697	3.45
403.06	3.29
403.424	3.38
403.787	3.3
404.151	3.4
404.514	3.5
404.878	3.29
405.241	3.19
405.604	3.38
405.968	3.36
406.331	3.38
406.694	3.33
407.057	3.22
407.42	3.34
407.783	3.5
408.146	3.1
408.509	3.29
408.872	3.39
409.235	3.51
409.598	3.54
409.961	3.54
410.323	3.19
410.686	3.25
411.049	3.32
411.411	3.41
411.774	3.24
412.136	3.32
412.499	3.57
412.861	3.1
413.223	3.34
413.586	3.32
413.948	3.57
414.31	3.53
414.672	3.37
415.035	3.46
415.397	3.31
415.759	3
416.121	3.33
416.483	3.41
416.845	3.38
417.206	3.46
417.568	3.49
417.93	3.42
418.292	3.19
418.653	3.21
419.015	3.31
419.377	3.39
419.738	3.41
420.1	3.34
420.461	3.24
420.822	3.32
421.184	3.35
421.545	3.35
421.906	3.42
422.267	3.28
422.629	3.28
422.99	3.38
423.351	3.27
423.712	3.41
424.073	3.41
424.434	3.41
424.795	3.29
425.155	3.21
425.516	3.3
425.877	3.27
426.238	3.29
426.598	3.29
426.959	3.45
427.32	3.25
427.68	3.35
428.041	3.4
428.401	3.33
428.761	3.43
429.122	3.39
429.482	3.34
429.842	3.38
430.202	3.56
430.563	3.27
430.923	3.45
431.283	3.42
431.643	3.4
432.003	3.48
432.363	3.46
432.722	3.39
433.082	3.41
433.442	3.44
433.802	3.45
434.161	3.41
434.521	3.4
434.881	3.39
435.24	3.37
435.6	3.4
435.959	3.36
436.319	3.39
436.678	3.46
437.037	3.43
437.396	3.4
437.756	3.31
438.115	3.54
438.474	3.63
438.833	3.29
439.192	3.46
439.551	3.35
439.91	3.34
440.269	3.45
440.628	3.34
440.987	3.45
441.345	3.43
441.704	3.44
442.063	3.33
442.421	3.37
442.78	3.5
443.138	3.44
443.497	3.39
443.855	3.53
444.214	3.27
444.572	3.52
444.93	3.39
445.288	3.47
445.647	3.24
446.005	3.44
446.363	3.48
446.721	3.5
447.079	3.46
447.437	3.35
447.795	3.51
448.153	3.38
448.51	3.47
448.868	3.41
449.226	3.51
449.584	3.43
449.941	3.53
450.299	3.4
450.656	3.37
451.014	3.57
451.371	3.51
451.729	3.64
452.086	3.46
452.443	3.6
452.801	3.55
453.158	3.7
453.515	3.5
453.872	3.51
454.229	3.47
454.586	3.35
454.943	3.6
455.3	3.54
455.657	3.44
456.014	3.49
456.371	3.64
456.727	3.62
457.084	3.51
457.441	3.65
457.797	3.55
458.154	3.5
458.51	3.53
458.867	3.49
459.223	3.49
459.58	3.45
459.936	3.59
460.292	3.39
460.648	3.47
461.005	3.46
461.361	3.39
461.717	3.43
462.073	3.53
462.429	3.54
462.785	3.63
463.141	3.52
463.496	3.79
463.852	3.71
464.208	3.59
464.564	3.52
464.919	3.6
465.275	3.63
465.631	3.7
465.986	3.74
466.342	3.59
466.697	3.59
467.052	3.73
467.408	3.69
467.763	3.49
468.118	3.42
468.473	3.51
468.829	3.52
469.184	3.58
469.539	3.48
469.894	3.52
470.249	3.65
470.603	3.67
470.958	3.72
471.313	3.74
471.668	3.52
472.023	3.61
472.377	3.54
472.732	3.76
473.086	3.48
473.441	3.48
473.795	3.78
474.15	3.72
474.504	3.71
474.859	3.51
475.213	3.64
475.567	3.49
475.921	3.58
476.275	3.6
476.63	3.74
476.984	3.53
477.338	3.67
477.692	3.53
478.045	3.6
478.399	3.52
478.753	3.72
479.107	3.62
479.461	3.58
479.814	3.61
480.168	3.59
480.521	3.59
480.875	3.74
481.228	3.71
481.582	3.66
481.935	3.62
482.289	3.61
482.642	3.67
482.995	3.52
483.348	3.56
483.701	3.63
484.055	3.55
484.408	3.57
484.761	3.41
485.114	3.37
485.466	3.33
485.819	3.33
486.172	3.4
486.525	3.45
486.878	3.58
487.23	3.55
487.583	3.57
487.936	3.47
488.288	3.47
488.641	3.44
488.993	3.39
489.345	3.36
489.698	3.44
490.05	3.43
490.402	3.47
490.754	3.56
491.107	3.53
491.459	3.55
491.811	3.56
492.163	3.54
492.515	3.49
492.866	3.44
493.218	3.41
493.57	3.47
493.922	3.54
494.274	3.62
494.625	3.65
494.977	3.63
495.328	3.59
495.68	3.52
496.031	3.68
496.383	3.52
496.734	3.52
497.086	3.66
497.437	3.7
497.788	3.7
498.139	3.6
498.49	3.59
498.842	3.6
499.193	3.47
499.544	3.61
499.894	3.63
500.245	3.66
500.596	3.63
500.947	3.66
501.298	3.54
501.648	3.67
501.999	3.69
502.35	3.72
502.7	3.76
503.051	3.59
503.401	3.73
503.752	3.59
504.102	3.7
504.452	3.59
504.803	3.54
505.153	3.69
505.503	3.77
505.853	3.71
506.203	3.7
506.553	3.57
506.903	3.68
507.253	3.6
507.603	3.61
507.953	3.67
508.303	3.72
508.652	3.54
509.002	3.7
509.352	3.69
509.701	3.52
510.051	3.67
510.4	3.77
510.75	3.6
511.099	3.54
511.449	3.73
511.798	3.6
512.147	3.6
512.496	3.74
512.846	3.62
513.195	3.54
513.544	3.71
513.893	3.61
514.242	3.64
514.591	3.63
514.939	3.73
515.288	3.73
515.637	3.67
515.986	3.72
516.334	3.7
516.683	3.73
517.032	3.7
517.38	3.59
517.729	3.64
518.077	3.6
518.426	3.72
518.774	3.53
519.122	3.71
519.47	3.72
519.819	3.57
520.167	3.56
520.515	3.64
520.863	3.58
521.211	3.58
521.559	3.61
521.907	3.58
522.255	3.65
522.602	3.6
522.95	3.65
523.298	3.63
523.645	3.7
523.993	3.58
524.341	3.65
524.688	3.53
525.036	3.59
525.383	3.73
525.73	3.48
526.078	3.71
526.425	3.61
526.772	3.57
527.119	3.58
527.466	3.66
527.814	3.62
528.161	3.69
528.508	3.72
528.854	3.58
529.201	3.54
529.548	3.55
529.895	3.48
530.242	3.37
530.588	3.43
530.935	3.46
531.282	3.47
531.628	3.56
531.975	3.55
532.321	3.62
532.667	3.74
533.014	3.61
533.36	3.7
533.706	3.6
534.052	3.68
534.399	3.57
534.745	3.5
535.091	3.45
535.437	3.54
535.783	3.57
536.129	3.56
536.474	3.66
536.82	3.69
537.166	3.57
537.512	3.53
537.857	3.59
538.203	3.56
538.549	3.53
538.894	3.58
539.239	3.62
539.585	3.7
539.93	3.7
540.276	3.56
540.621	3.72
540.966	3.67
541.311	3.67
541.656	3.53
542.001	3.69
542.346	3.48
542.691	3.46
543.036	3.47
543.381	3.52
543.726	3.58
544.071	3.56
544.415	3.56
544.76	3.59
545.105	3.59
545.449	3.58
545.794	3.57
546.138	3.57
546.483	3.7
546.827	3.57
547.171	3.61
547.516	3.62
547.86	3.72
548.204	3.59
548.548	3.57
548.892	3.66
549.236	3.61
549.58	3.7
549.924	3.68
550.268	3.81
550.612	3.71
550.956	3.92
551.3	3.88
551.643	3.65
551.987	3.81
552.33	3.83
552.674	3.66
553.017	3.77
553.361	3.67
553.704	3.71
554.048	3.72
554.391	3.88
554.734	3.61
555.077	3.72
555.42	3.67
555.764	3.74
556.107	3.7
556.45	3.69
556.793	3.74
557.135	3.62
557.478	3.76
557.821	3.76
558.164	3.85
558.507	3.74
558.849	3.8
559.192	3.73
559.534	3.73
559.877	3.63
560.219	3.74
560.562	3.71
560.904	3.73
561.246	3.71
561.589	3.98
561.931	3.7
562.273	3.81
562.615	3.54
562.957	3.67
563.299	3.67
563.641	3.65
563.983	3.59
564.325	3.78
564.667	3.82
565.008	3.65
565.35	3.51
565.692	3.7
566.033	3.7
566.375	3.74
566.716	3.55
567.058	3.71
567.399	3.62
567.741	3.64
568.082	3.74
568.423	3.58
568.764	3.73
569.105	3.61
569.447	3.58
569.788	3.75
570.129	3.77
570.47	3.7
570.811	3.62
571.151	3.82
571.492	3.69
571.833	3.54
572.174	3.74
572.514	3.67
572.855	3.72
573.195	3.6
573.536	3.79
573.876	3.57
574.217	3.65
574.557	3.47
574.898	3.62
575.238	3.73
575.578	3.77
575.918	3.64
576.258	3.77
576.598	3.63
576.938	3.45
577.278	3.71
577.618	3.63
577.958	3.67
578.298	3.68
578.638	3.59
578.977	3.79
579.317	3.87
579.657	3.51
579.996	3.75
580.336	3.78
580.675	3.54
581.014	3.63
581.354	3.58
581.693	3.81
582.032	3.9
582.372	3.76
582.711	3.78
583.05	3.64
583.389	3.87
583.728	3.73
584.067	3.8
584.406	3.81
584.745	3.66
585.083	3.63
585.422	3.78
585.761	3.81
586.1	3.9
586.438	3.57
586.777	3.62
587.115	3.79
587.454	3.64
587.792	3.83
588.13	3.72
588.469	3.7
588.807	3.74
589.145	3.58
589.483	3.49
589.821	3.62
590.159	3.91
590.497	3.81
590.835	3.67
591.173	3.6
591.511	3.65
591.849	3.84
592.187	3.58
592.524	3.69
592.862	3.43
593.2	3.56
593.537	3.61
593.875	3.7
594.212	3.68
594.55	3.73
594.887	3.85
595.224	3.87
595.561	3.67
595.899	3.73
596.236	3.58
596.573	3.73
596.91	3.61
597.247	3.89
597.584	3.7
597.921	3.61
598.258	3.85
598.594	3.54
598.931	3.48
599.268	3.32
599.604	3.78
599.941	3.61
600.277	3.55
600.614	3.69
600.95	3.68
601.287	3.55
601.623	3.41
601.959	3.97
602.296	3.84
602.632	3.61
602.968	3.59
603.304	3.66
603.64	3.75
603.976	3.46
604.312	3.69
604.648	3.72
604.984	3.78
605.319	3.49
605.655	3.51
605.991	3.63
606.326	3.66
606.662	3.49
606.998	3.76
607.333	3.58
607.668	3.53
608.004	3.66
608.339	3.51
608.674	3.73
609.01	3.95
609.345	3.58
609.68	3.51
610.015	3.73
610.35	3.54
610.685	3.23
611.02	3.59
611.355	3.53
611.689	3.55
612.024	3.63
612.359	3.7
612.694	3.78
613.028	3.73
613.363	3.6
613.697	3.72
614.032	3.56
614.366	3.62
614.7	3.61
615.035	3.81
615.369	3.7
615.703	3.56
616.037	3.88
616.371	3.76
616.705	3.85
617.039	3.75
617.373	3.81
617.707	3.92
618.041	3.67
618.375	3.27
618.709	3.47
619.042	3.27
619.376	3.72
619.71	3.76
620.043	3.86
620.377	3.49
620.71	3.52
621.043	3.84
621.377	3.84
621.71	3.85
622.043	4
622.376	3.78
622.709	3.87
623.043	3.83
623.376	3.74
623.709	3.62
624.041	3.49
624.374	3.63
624.707	3.79
625.04	3.58
625.373	3.78
625.705	3.85
626.038	3.67
626.37	3.53
626.703	3.67
627.035	3.48
627.368	4.26
627.7	3.6
628.032	3.76
628.365	3.82
628.697	3.65
629.029	3.57
629.361	4.02
629.693	3.61
630.025	3.78
630.357	4.11
630.689	3.85
631.021	3.84
631.353	3.82
631.684	3.48
632.016	3.19
632.348	3.56
632.679	3.87
633.011	3.88
633.342	3.71
633.674	3.22
634.005	3.63
634.336	3.86
634.668	3.54
634.999	3.51
635.33	3.8
635.661	3.71
635.992	3.6
636.323	3.58
636.654	3.92
636.985	3.48
637.316	3.62
637.647	3.95
637.977	3.65
638.308	3.83
638.639	3.45
638.969	3.52
639.3	3.98
639.63	3.62
639.961	3.62
640.291	3.3
640.622	3.82
640.952	3.8
641.282	3.28
641.612	3.42
641.943	3.33
642.273	3.53
642.603	3.8
642.933	3.7
643.263	3.64
643.592	3.65
643.922	3.81
644.252	3.75
644.582	3.84
644.911	3.49
645.241	3.5
645.571	3.65
645.9	3.88
646.23	3.75
646.559	3.53
646.888	3.84
647.218	3.64
647.547	3.54
647.876	3.46
648.205	3.76
648.534	3.99
648.863	3.45
649.192	3.24
649.521	3.76
649.85	3.89
650.179	3.76
650.508	3.53
650.837	4.04
651.165	4.03
651.494	3.61
651.822	4
652.151	3.48
652.479	4.01
652.808	3.83
653.136	3.58
653.465	3.26
653.793	3.9
654.121	3.72
654.449	3.76
654.777	3.24
655.105	3.46
655.433	4.02
655.761	3.76
656.089	3.84
656.417	4.17
656.745	4.1
657.073	3.63
657.4	3.51
657.728	3.61
658.056	3.98
658.383	3.58
658.711	3.81
659.038	3.89
659.365	3.9
659.693	3.56
660.02	3.52
660.347	3.57
660.674	3.64
661.001	3.6
661.329	3.62
661.656	3.52
661.982	3.23
662.309	3.57
662.636	3.73
662.963	3.66
663.29	3.9
663.616	3.34
663.943	3.61
664.27	3.73
664.596	3.83
664.923	4.3
665.249	4.13
665.576	3.35
665.902	3.41
666.228	3.86
666.554	4.4
666.881	3.48
667.207	4
667.533	3.58
667.859	3.77
668.185	3.27
668.511	3.81
668.837	3.6
669.162	3.7
669.488	2.9
669.814	3.45
670.139	3.33
670.465	4.18
670.791	3.3
671.116	3.63
671.442	3.36
671.767	3.2
672.092	3.95
672.418	3.41
672.743	3.09
673.068	3.47
673.393	3.81
673.718	2.92
674.043	3.28
674.368	3.67
674.693	3.6
675.018	3.94
675.343	3.64
675.667	3.34
675.992	3.55
676.317	2.88
676.641	4.26
676.966	3.2
677.29	3.39
677.615	3.8
677.939	3.91
678.264	3.01
678.588	3.79
678.912	3.58
679.236	3.4
679.56	3.47
679.885	3.36
680.209	4.37
680.532	3.96
680.856	3.88
681.18	4.08
681.504	3.86
681.828	3.57
682.152	4.04
682.475	3.47
682.799	3.37
683.122	3.85
683.446	3.54
683.769	3.72
684.093	3.46
684.416	3.39
684.739	3.65
685.062	4.14
685.386	3.46
685.709	3.82
686.032	3.66
686.355	2.94
686.678	4.01
687.001	3.26
687.324	3.98
687.646	3.44
687.969	4.33
688.292	3.74
688.614	3.94
688.937	4.01
689.26	3.56
689.582	3.92
689.904	3.53
690.227	3.78
690.549	3.94
690.871	3.7
691.194	3.09
691.516	3.41
691.838	3.51
692.16	3.75
692.482	2.94
