Data from 22-4_crown_Reflection__3__204.txt Node

Date: Thu Dec 15 18:04:31 CST 2022
User: ToomeyLab
Spectrometer: FLMS14357
Trigger mode: 0
Integration Time (sec): 1.000000E-2
Scans to average: 100
Electric dark correction enabled: true
Nonlinearity correction enabled: false
Boxcar width: 0
XAxis mode: Wavelengths
Number of Pixels in Spectrum: 2048
>>>>>Begin Spectral Data<<<<<
189.047	-40.26
189.435	-40.26
189.823	-40.26
190.211	146.84
190.599	1505.52
190.987	205.22
191.375	-38.84
191.763	149.6
192.151	224.02
192.538	240.93
192.926	83.48
193.314	110.46
193.702	1830.53
194.089	-25.8
194.477	112.55
194.864	48.83
195.252	195.34
195.639	81.49
196.027	347.54
196.414	332.62
196.801	21.99
197.189	77.09
197.576	-35.41
197.963	-92.63
198.351	29.9
198.738	-46.67
199.125	-24.83
199.512	41.97
199.899	-93.79
200.286	-37.7
200.673	16.31
201.06	0.09
201.447	-35.58
201.833	-7.57
202.22	14.89
202.607	-11.52
202.994	15.9
203.38	-20.51
203.767	-14.33
204.154	9.86
204.54	13.77
204.927	18.33
205.313	51.63
205.699	40.13
206.086	9.7
206.472	50.2
206.858	14.06
207.245	9.96
207.631	-3.41
208.017	40.59
208.403	-18.9
208.789	2.15
209.175	-24.46
209.561	-22
209.947	15.86
210.333	-7.44
210.719	10.91
211.105	25.96
211.491	-3.23
211.876	-9.44
212.262	20.73
212.648	-10.08
213.034	-9
213.419	-15.35
213.805	-38.26
214.19	31.74
214.576	-0.57
214.961	-26.29
215.346	-22.17
215.732	0.25
216.117	2.74
216.502	-10.04
216.888	-1.88
217.273	10.39
217.658	-1.55
218.043	-34.05
218.428	-18.64
218.813	22.25
219.198	-46.24
219.583	-15.9
219.968	-15.47
220.353	-19.36
220.738	16.52
221.122	-18.64
221.507	-12.62
221.892	-36.81
222.276	-26.53
222.661	-15.31
223.046	-14.74
223.43	17.98
223.815	-6.83
224.199	-5.34
224.583	-9.92
224.968	7.54
225.352	-9.87
225.736	7.78
226.121	-7.6
226.505	-11.78
226.889	-1.07
227.273	-8.38
227.657	0.1
228.041	0.16
228.425	3.31
228.809	2.21
229.193	0.61
229.577	1.32
229.961	1.35
230.344	2.35
230.728	3.26
231.112	2.39
231.495	1.87
231.879	2.98
232.263	3.01
232.646	2.65
233.03	2.14
233.413	3.16
233.797	2.1
234.18	2.59
234.563	3.2
234.946	-1.87
235.33	0.97
235.713	3.84
236.096	3.56
236.479	4.11
236.862	1.83
237.245	-0.66
237.628	4.07
238.011	3.82
238.394	3.05
238.777	1.87
239.16	2.58
239.543	2.58
239.925	2.71
240.308	0.03
240.691	1.33
241.073	0.99
241.456	1.96
241.838	2.94
242.221	2.6
242.603	2.73
242.986	3.18
243.368	2.75
243.75	2.93
244.133	3.45
244.515	3.07
244.897	3
245.279	2.62
245.661	3.12
246.043	2.95
246.425	3.05
246.807	2.36
247.189	2.5
247.571	2.77
247.953	3.06
248.335	3.07
248.717	3.32
249.098	3
249.48	2.78
249.862	3.12
250.243	3.19
250.625	3.01
251.006	4.11
251.388	2.56
251.769	1.91
252.151	3.7
252.532	2.23
252.913	3.09
253.295	2.78
253.676	2.86
254.057	3.2
254.438	3.11
254.819	3.04
255.2	3.38
255.581	3.59
255.962	3.63
256.343	2.44
256.724	2.94
257.105	2.65
257.486	2.5
257.867	2.19
258.247	3.63
258.628	2.01
259.009	1.74
259.389	2.1
259.77	2.73
260.15	3.73
260.531	2.8
260.911	2.87
261.292	3.04
261.672	2.95
262.052	2.94
262.432	2.73
262.813	3.3
263.193	3.12
263.573	2.95
263.953	2.54
264.333	3.08
264.713	2.31
265.093	2.55
265.473	2.26
265.853	2.59
266.233	2.23
266.612	2.36
266.992	2.94
267.372	3.08
267.752	2.75
268.131	2.76
268.511	2.87
268.89	3.29
269.27	2.78
269.649	2.69
270.029	2.62
270.408	2.48
270.787	3.04
271.167	3.11
271.546	3.42
271.925	2.92
272.304	2.29
272.683	2.46
273.062	2.69
273.441	2.42
273.82	3.05
274.199	2.56
274.578	2.85
274.957	2.86
275.336	3.15
275.715	3.01
276.093	2.09
276.472	1.98
276.851	2.84
277.229	2.69
277.608	2.41
277.986	2.82
278.365	2.77
278.743	2.41
279.122	2.11
279.5	2.61
279.878	2.43
280.257	2.62
280.635	2.36
281.013	2.28
281.391	2.5
281.769	2.14
282.147	2.45
282.525	2.13
282.903	2.31
283.281	2.96
283.659	2.8
284.037	2.52
284.415	2.63
284.792	2.77
285.17	2.59
285.548	2.69
285.925	2.69
286.303	3.22
286.68	2.96
287.058	2.47
287.435	2.39
287.813	2.9
288.19	2.46
288.567	2.9
288.945	2.79
289.322	2.89
289.699	2.8
290.076	2.61
290.453	2.37
290.83	2.92
291.207	2.94
291.584	3.15
291.961	2.86
292.338	2.92
292.715	2.53
293.092	3.23
293.469	2.41
293.845	3.22
294.222	3.01
294.599	2.42
294.975	2.49
295.352	3.21
295.728	2.85
296.105	2.97
296.481	3.11
296.858	3.2
297.234	2.76
297.61	3.04
297.986	3.59
298.363	3.51
298.739	3.46
299.115	3.11
299.491	3.16
299.867	3.34
300.243	2.93
300.619	2.87
300.995	3.07
301.371	3.25
301.746	3.45
302.122	2.87
302.498	3.59
302.874	3.42
303.249	2.92
303.625	3.14
304	3.3
304.376	3.58
304.751	3.49
305.127	3.15
305.502	3.08
305.878	3.49
306.253	3.09
306.628	3.02
307.003	2.82
307.378	2.7
307.754	3.41
308.129	3.54
308.504	3.91
308.879	2.98
309.254	3.34
309.629	3.26
310.003	3.03
310.378	3.35
310.753	3.46
311.128	3.13
311.502	3.37
311.877	3.15
312.252	3.12
312.626	3.49
313.001	3.21
313.375	3.15
313.75	3.38
314.124	3.59
314.498	3.67
314.873	3.01
315.247	3.62
315.621	3.07
315.995	3.48
316.369	3.1
316.743	3.2
317.117	2.92
317.491	3.18
317.865	2.92
318.239	3.64
318.613	2.87
318.987	2.76
319.361	3.43
319.734	3
320.108	3.58
320.482	3.06
320.855	3.46
321.229	3.93
321.602	3.68
321.976	2.9
322.349	3.84
322.723	3.45
323.096	3.28
323.469	3.07
323.843	3.79
324.216	2.65
324.589	3.19
324.962	3.43
325.335	3.39
325.708	3.17
326.081	3.57
326.454	3.38
326.827	3.7
327.2	3.14
327.573	3.9
327.945	2.84
328.318	3.29
328.691	3.73
329.063	3.09
329.436	2.96
329.809	3.53
330.181	3.89
330.553	3.8
330.926	3.03
331.298	2.67
331.671	3.89
332.043	3.06
332.415	3.23
332.787	3.67
333.159	3.4
333.532	3.46
333.904	3.67
334.276	2.94
334.648	3.3
335.02	2.85
335.391	3.27
335.763	3.41
336.135	3.61
336.507	2.92
336.879	3.58
337.25	3.36
337.622	3.55
337.993	3.28
338.365	3.37
338.736	3
339.108	3.51
339.479	3.5
339.851	3.53
340.222	3.97
340.593	3.36
340.964	3.32
341.336	3.36
341.707	3.37
342.078	3.13
342.449	3.3
342.82	3.38
343.191	2.91
343.562	3.64
343.933	2.95
344.303	3.12
344.674	3.1
345.045	3.4
345.416	3.49
345.786	3.14
346.157	3.35
346.527	3.17
346.898	3.19
347.268	3.52
347.639	3.3
348.009	3.39
348.38	3.24
348.75	3.77
349.12	3.52
349.49	3.56
349.861	3.48
350.231	3.05
350.601	3.16
350.971	2.54
351.341	3.71
351.711	3.38
352.081	3.03
352.45	2.88
352.82	2.93
353.19	3.42
353.56	3.24
353.929	3.58
354.299	3.46
354.669	3.46
355.038	3.26
355.408	3.36
355.777	3.44
356.147	3.07
356.516	2.96
356.885	3.22
357.254	3.09
357.624	2.9
357.993	3.67
358.362	3.64
358.731	3.65
359.1	3.33
359.469	3.47
359.838	3.49
360.207	3.36
360.576	3.41
360.945	3.57
361.314	3.29
361.682	3.07
362.051	3.31
362.42	3.37
362.788	3.47
363.157	3.23
363.525	3.48
363.894	3.26
364.262	3.46
364.631	3.41
364.999	3.39
365.367	3.4
365.735	3.34
366.104	3.23
366.472	3.11
366.84	3.03
367.208	3.72
367.576	3.32
367.944	3.34
368.312	3.18
368.68	3.65
369.048	3.11
369.416	3.13
369.783	3.25
370.151	3.7
370.519	3.83
370.886	3.5
371.254	3.63
371.621	3.31
371.989	3.51
372.356	3.24
372.724	3.25
373.091	3.09
373.458	3.06
373.826	3.48
374.193	3.17
374.56	3.27
374.927	3.28
375.294	3.57
375.661	3.54
376.028	3.53
376.395	3.58
376.762	3.19
377.129	3.17
377.496	3.41
377.863	3.31
378.229	3.32
378.596	3.55
378.963	3.29
379.329	3.29
379.696	3.23
380.062	3.3
380.429	3.53
380.795	3.59
381.161	3.01
381.528	2.76
381.894	3.37
382.26	3.47
382.626	3.29
382.993	3.69
383.359	3.37
383.725	3.17
384.091	3.51
384.457	3.03
384.823	3.39
385.188	3.6
385.554	3.36
385.92	3.05
386.286	3.24
386.651	3.23
387.017	3.55
387.383	3.23
387.748	3.29
388.114	3.53
388.479	3.33
388.845	3.1
389.21	3.49
389.575	3.48
389.94	3.49
390.306	3.41
390.671	3.33
391.036	3.34
391.401	3.58
391.766	3.4
392.131	3.5
392.496	3.36
392.861	3.33
393.226	3.15
393.591	3.45
393.956	3.33
394.32	3.63
394.685	3.29
395.05	3.48
395.414	3.58
395.779	3.69
396.143	3.34
396.508	3.25
396.872	3.34
397.236	3.62
397.601	3.49
397.965	3.4
398.329	3.62
398.694	3.27
399.058	3.48
399.422	3.46
399.786	3.53
400.15	3.49
400.514	3.39
400.878	3.44
401.242	3.58
401.605	3.3
401.969	3.26
402.333	3.37
402.697	3.71
403.06	3.51
403.424	3.5
403.787	3.38
404.151	3.43
404.514	3.54
404.878	3.51
405.241	3.45
405.604	3.29
405.968	3.32
406.331	3.5
406.694	3.49
407.057	3.42
407.42	3.37
407.783	3.35
408.146	3.21
408.509	3.55
408.872	3.35
409.235	3.61
409.598	3.42
409.961	3.47
410.323	3.19
410.686	3.34
411.049	3.67
411.411	3.56
411.774	3.65
412.136	3.4
412.499	3.59
412.861	3.12
413.223	3.31
413.586	3.45
413.948	3.47
414.31	3.66
414.672	3.29
415.035	3.75
415.397	3.31
415.759	3.26
416.121	3.43
416.483	3.46
416.845	3.52
417.206	3.56
417.568	3.44
417.93	3.62
418.292	3.39
418.653	3.27
419.015	3.43
419.377	3.42
419.738	3.5
420.1	3.37
420.461	3.38
420.822	3.43
421.184	3.51
421.545	3.43
421.906	3.44
422.267	3.41
422.629	3.35
422.99	3.47
423.351	3.41
423.712	3.42
424.073	3.49
424.434	3.5
424.795	3.37
425.155	3.37
425.516	3.44
425.877	3.47
426.238	3.46
426.598	3.49
426.959	3.34
427.32	3.39
427.68	3.44
428.041	3.54
428.401	3.41
428.761	3.63
429.122	3.51
429.482	3.55
429.842	3.57
430.202	3.61
430.563	3.4
430.923	3.52
431.283	3.69
431.643	3.71
432.003	3.49
432.363	3.68
432.722	3.53
433.082	3.37
433.442	3.52
433.802	3.54
434.161	3.54
434.521	3.58
434.881	3.55
435.24	3.56
435.6	3.69
435.959	3.58
436.319	3.54
436.678	3.53
437.037	3.53
437.396	3.59
437.756	3.4
438.115	3.6
438.474	3.63
438.833	3.57
439.192	3.6
439.551	3.55
439.91	3.69
440.269	3.63
440.628	3.47
440.987	3.65
441.345	3.63
441.704	3.56
442.063	3.54
442.421	3.65
442.78	3.6
443.138	3.55
443.497	3.59
443.855	3.6
444.214	3.44
444.572	3.79
444.93	3.66
445.288	3.66
445.647	3.56
446.005	3.6
446.363	3.64
446.721	3.6
447.079	3.53
447.437	3.67
447.795	3.58
448.153	3.6
448.51	3.52
448.868	3.54
449.226	3.6
449.584	3.6
449.941	3.64
450.299	3.65
450.656	3.58
451.014	3.68
451.371	3.72
451.729	3.71
452.086	3.73
452.443	3.95
452.801	3.64
453.158	3.83
453.515	3.63
453.872	3.68
454.229	3.59
454.586	3.51
454.943	3.71
455.3	3.67
455.657	3.76
456.014	3.67
456.371	3.81
456.727	3.87
457.084	3.86
457.441	3.73
457.797	3.76
458.154	3.62
458.51	3.51
458.867	3.78
459.223	3.71
459.58	3.81
459.936	3.61
460.292	3.69
460.648	3.63
461.005	3.71
461.361	3.63
461.717	3.67
462.073	3.75
462.429	3.81
462.785	3.8
463.141	3.69
463.496	3.68
463.852	3.77
464.208	3.78
464.564	3.7
464.919	3.7
465.275	3.79
465.631	3.94
465.986	3.79
466.342	3.74
466.697	3.87
467.052	4.07
467.408	3.92
467.763	3.85
468.118	3.69
468.473	3.9
468.829	3.76
469.184	3.77
469.539	3.67
469.894	3.87
470.249	4.01
470.603	3.82
470.958	3.88
471.313	3.91
471.668	3.75
472.023	3.97
472.377	3.83
472.732	3.82
473.086	3.9
473.441	3.87
473.795	4.07
474.15	3.87
474.504	3.85
474.859	3.68
475.213	3.79
475.567	3.87
475.921	3.92
476.275	3.92
476.63	3.92
476.984	3.74
477.338	3.94
477.692	3.77
478.045	4
478.399	3.87
478.753	3.77
479.107	3.92
479.461	3.89
479.814	3.87
480.168	3.87
480.521	4.01
480.875	3.85
481.228	3.91
481.582	3.97
481.935	4.03
482.289	3.77
482.642	3.93
482.995	3.91
483.348	3.93
483.701	3.85
484.055	3.92
484.408	3.89
484.761	3.78
485.114	3.72
485.466	3.69
485.819	3.7
486.172	3.73
486.525	3.74
486.878	3.8
487.23	3.79
487.583	3.82
487.936	3.78
488.288	3.79
488.641	3.84
488.993	3.77
489.345	3.78
489.698	3.81
490.05	3.81
490.402	3.81
490.754	3.9
491.107	3.86
491.459	3.93
491.811	3.98
492.163	3.88
492.515	3.85
492.866	3.84
493.218	3.84
493.57	3.85
493.922	3.8
494.274	3.95
494.625	4.01
494.977	3.94
495.328	4.06
495.68	3.94
496.031	4.07
496.383	3.97
496.734	3.97
497.086	4.1
497.437	4.08
497.788	4.08
498.139	4
498.49	4.09
498.842	4.13
499.193	4
499.544	4.12
499.894	4.02
500.245	4.07
500.596	4.08
500.947	4.03
501.298	4.08
501.648	4.08
501.999	4.19
502.35	3.99
502.7	4.19
503.051	4.06
503.401	4.17
503.752	4.01
504.102	4.05
504.452	3.95
504.803	4.04
505.153	4.25
505.503	4.07
505.853	4.21
506.203	4.13
506.553	4.14
506.903	4.27
507.253	4.08
507.603	4.19
507.953	4.24
508.303	4.13
508.652	4.14
509.002	4.14
509.352	4.22
509.701	4.03
510.051	4.09
510.4	4.22
510.75	4.02
511.099	4.09
511.449	4.17
511.798	4.05
512.147	4.19
512.496	4.3
512.846	4.12
513.195	4.2
513.544	4.35
513.893	4.18
514.242	4.13
514.591	4.18
514.939	4.24
515.288	4.2
515.637	4.26
515.986	4.17
516.334	4.11
516.683	4.3
517.032	4.24
517.38	4.03
517.729	4.19
518.077	4.28
518.426	4.27
518.774	4.19
519.122	4.19
519.47	4.18
519.819	4.18
520.167	4.2
520.515	4.22
520.863	4.17
521.211	4.15
521.559	4.2
521.907	4.19
522.255	4.23
522.602	4.3
522.95	4.38
523.298	4.34
523.645	4.35
523.993	4.27
524.341	4.27
524.688	4.3
525.036	4.23
525.383	4.31
525.73	4.31
526.078	4.45
526.425	4.21
526.772	4.28
527.119	4.22
527.466	4.37
527.814	4.25
528.161	4.38
528.508	4.32
528.854	4.24
529.201	4.24
529.548	4.27
529.895	4.21
530.242	4.18
530.588	4.18
530.935	4.19
531.282	4.2
531.628	4.24
531.975	4.21
532.321	4.35
532.667	4.33
533.014	4.33
533.36	4.33
533.706	4.36
534.052	4.3
534.399	4.34
534.745	4.34
535.091	4.25
535.437	4.24
535.783	4.31
536.129	4.24
536.474	4.29
536.82	4.39
537.166	4.28
537.512	4.39
537.857	4.38
538.203	4.33
538.549	4.35
538.894	4.39
539.239	4.48
539.585	4.41
539.93	4.52
540.276	4.41
540.621	4.46
540.966	4.38
541.311	4.48
541.656	4.38
542.001	4.41
542.346	4.37
542.691	4.33
543.036	4.34
543.381	4.33
543.726	4.36
544.071	4.41
544.415	4.44
544.76	4.38
545.105	4.41
545.449	4.51
545.794	4.5
546.138	4.48
546.483	4.53
546.827	4.46
547.171	4.62
547.516	4.6
547.86	4.56
548.204	4.55
548.548	4.55
548.892	4.46
549.236	4.5
549.58	4.52
549.924	4.71
550.268	4.66
550.612	4.73
550.956	4.79
551.3	4.81
551.643	4.63
551.987	4.8
552.33	4.82
552.674	4.57
553.017	4.71
553.361	4.73
553.704	4.82
554.048	4.66
554.391	4.76
554.734	4.53
555.077	4.71
555.42	4.52
555.764	4.63
556.107	4.75
556.45	4.76
556.793	4.83
557.135	4.82
557.478	4.75
557.821	4.74
558.164	4.93
558.507	4.54
558.849	4.81
559.192	4.77
559.534	4.66
559.877	4.77
560.219	4.87
560.562	4.7
560.904	4.93
561.246	4.7
561.589	4.75
561.931	4.67
562.273	4.76
562.615	4.68
562.957	4.7
563.299	4.82
563.641	4.86
563.983	4.67
564.325	4.77
564.667	4.68
565.008	4.64
565.35	4.68
565.692	4.89
566.033	4.77
566.375	4.9
566.716	4.75
567.058	4.78
567.399	4.96
567.741	4.88
568.082	4.89
568.423	4.86
568.764	4.79
569.105	4.78
569.447	4.56
569.788	4.9
570.129	4.89
570.47	4.92
570.811	4.87
571.151	4.98
571.492	4.77
571.833	4.69
572.174	4.91
572.514	4.88
572.855	4.92
573.195	4.84
573.536	4.99
573.876	4.87
574.217	4.72
574.557	4.87
574.898	4.88
575.238	5
575.578	4.95
575.918	5
576.258	5.04
576.598	5
576.938	4.88
577.278	4.98
577.618	4.92
577.958	4.92
578.298	4.91
578.638	4.87
578.977	5.04
579.317	4.94
579.657	4.85
579.996	5.26
580.336	5.07
580.675	5.02
581.014	5.12
581.354	4.92
581.693	5.19
582.032	5.17
582.372	5.08
582.711	4.94
583.05	5.01
583.389	5.15
583.728	5.17
584.067	4.97
584.406	5.01
584.745	4.93
585.083	5.11
585.422	5.11
585.761	5.03
586.1	4.99
586.438	4.9
586.777	5.1
587.115	5.22
587.454	4.94
587.792	5.15
588.13	5.07
588.469	5.07
588.807	5.17
589.145	5.13
589.483	4.86
589.821	5.19
590.159	5.16
590.497	5.12
590.835	5.21
591.173	5.17
591.511	5.37
591.849	5.27
592.187	5.15
592.524	5.29
592.862	5.19
593.2	5.33
593.537	5.23
593.875	5.32
594.212	5.35
594.55	5.27
594.887	5.49
595.224	5.35
595.561	5.2
595.899	5.35
596.236	5.15
596.573	5.08
596.91	5.18
597.247	5.34
597.584	5.21
597.921	5.18
598.258	5.35
598.594	5.18
598.931	5.11
599.268	5.31
599.604	5.28
599.941	5.29
600.277	5.2
600.614	5.26
600.95	5.24
601.287	5.02
601.623	5.09
601.959	5.57
602.296	5.45
602.632	5.22
602.968	5.4
603.304	5.36
603.64	5.37
603.976	5.29
604.312	5.36
604.648	5.58
604.984	5.37
605.319	5.37
605.655	5.27
605.991	5.36
606.326	5.33
606.662	5.25
606.998	5.51
607.333	5.28
607.668	5.39
608.004	5.35
608.339	5.42
608.674	5.41
609.01	5.47
609.345	5.58
609.68	5.39
610.015	5.38
610.35	5.46
610.685	5.15
611.02	5.3
611.355	5.48
611.689	5.3
612.024	5.55
612.359	5.43
612.694	5.42
613.028	5.34
613.363	5.32
613.697	5.45
614.032	5.58
614.366	5.55
614.7	5.75
615.035	5.48
615.369	5.61
615.703	5.9
616.037	5.55
616.371	5.59
616.705	5.34
617.039	5.46
617.373	5.72
617.707	5.74
618.041	5.48
618.375	5.14
618.709	5.55
619.042	5.32
619.376	5.6
619.71	5.57
620.043	5.68
620.377	5.73
620.71	5.38
621.043	5.87
621.377	5.69
621.71	6.01
622.043	5.31
622.376	5.37
622.709	5.89
623.043	5.66
623.376	5.54
623.709	5.81
624.041	5.92
624.374	5.97
624.707	5.7
625.04	5.73
625.373	5.63
625.705	5.89
626.038	5.55
626.37	5.63
626.703	5.68
627.035	5.66
627.368	5.8
627.7	5.52
628.032	5.72
628.365	5.7
628.697	5.84
629.029	5.62
629.361	5.81
629.693	5.71
630.025	5.91
630.357	5.95
630.689	5.69
631.021	5.85
631.353	5.96
631.684	5.73
632.016	5.58
632.348	5.64
632.679	5.8
633.011	5.72
633.342	5.95
633.674	5.69
634.005	6
634.336	5.92
634.668	5.73
634.999	5.68
635.33	6.01
635.661	5.65
635.992	5.88
636.323	5.94
636.654	5.99
636.985	5.79
637.316	5.63
637.647	6.02
637.977	5.7
638.308	6.15
638.639	6.1
638.969	5.64
639.3	5.83
639.63	5.64
639.961	6.12
640.291	5.76
640.622	6.11
640.952	5.65
641.282	5.74
641.612	5.82
641.943	6
642.273	5.88
642.603	6.21
642.933	6.09
643.263	6.05
643.592	6.32
643.922	6.75
644.252	6.23
644.582	6.01
644.911	6.41
645.241	5.99
645.571	6.19
645.9	6.16
646.23	6.09
646.559	5.91
646.888	6.31
647.218	6.08
647.547	6.14
647.876	6.16
648.205	5.84
648.534	6.22
648.863	6.07
649.192	6.35
649.521	6.28
649.85	6.13
650.179	6.03
650.508	6.15
650.837	6.11
651.165	6.22
651.494	5.88
651.822	6.6
652.151	6.08
652.479	6.31
652.808	6.11
653.136	5.59
653.465	5.85
653.793	6.29
654.121	6.23
654.449	6.24
654.777	5.87
655.105	5.75
655.433	6.36
655.761	5.92
656.089	6.03
656.417	5.98
656.745	6.83
657.073	5.79
657.4	5.82
657.728	5.91
658.056	6.5
658.383	6.46
658.711	6.09
659.038	6.8
659.365	6.31
659.693	6.27
660.02	5.82
660.347	6.36
660.674	6.27
661.001	6.14
661.329	6.42
661.656	6.02
661.982	6.45
662.309	6.03
662.636	6.03
662.963	6.18
663.29	6.12
663.616	6.42
663.943	6.04
664.27	6.33
664.596	6.11
664.923	7.13
665.249	6.68
665.576	6.24
665.902	6.39
666.228	6.72
666.554	6.62
666.881	6.39
667.207	6.2
667.533	6.18
667.859	5.85
668.185	6.39
668.511	6.99
668.837	6.73
669.162	6.16
669.488	6.22
669.814	6.3
670.139	6.02
670.465	6.87
670.791	6.3
671.116	6.24
671.442	5.95
671.767	6.84
672.092	6.2
672.418	6.52
672.743	6.6
673.068	6.56
673.393	6.38
673.718	5.74
674.043	5.96
674.368	6.32
674.693	6.7
675.018	7
675.343	6.98
675.667	6.18
675.992	6.24
676.317	6
676.641	6.46
676.966	6.72
677.29	5.85
677.615	6.12
677.939	6.51
678.264	6.66
678.588	7.34
678.912	6.27
679.236	6.53
679.56	6.41
679.885	7.37
680.209	6.8
680.532	7.29
680.856	6.91
681.18	6.97
681.504	6.4
681.828	5.95
682.152	6.24
682.475	6.66
682.799	6.35
683.122	6.77
683.446	7.02
683.769	6.53
684.093	6.61
684.416	6.28
684.739	6.89
685.062	6.68
685.386	7.49
685.709	6.61
686.032	6.58
686.355	7
686.678	6.9
687.001	6.96
687.324	6.85
687.646	7.18
687.969	7.34
688.292	7.01
688.614	7.07
688.937	6.95
689.26	7.18
689.582	7.06
689.904	8.1
690.227	7.22
690.549	7.11
690.871	7.33
691.194	6.73
691.516	6.69
691.838	6.94
692.16	6.5
692.482	6.49
