Data from 22-4_forehead_Reflection__2__208.txt Node

Date: Thu Dec 15 18:07:19 CST 2022
User: ToomeyLab
Spectrometer: FLMS14357
Trigger mode: 0
Integration Time (sec): 1.000000E-2
Scans to average: 100
Electric dark correction enabled: true
Nonlinearity correction enabled: false
Boxcar width: 0
XAxis mode: Wavelengths
Number of Pixels in Spectrum: 2048
>>>>>Begin Spectral Data<<<<<
189.047	-146.81
189.435	-146.81
189.823	-146.81
190.211	-67.58
190.599	877.61
190.987	79.85
191.375	-111.23
191.763	172.74
192.151	312.76
192.538	58.53
192.926	134.74
193.314	377.06
193.702	-56.11
194.089	-5.08
194.477	281.43
194.864	106.08
195.252	273.63
195.639	117.27
196.027	145.23
196.414	16.31
196.801	86.06
197.189	67.47
197.576	104.24
197.963	-212.83
198.351	-7.94
198.738	-41.09
199.125	-89.69
199.512	37.73
199.899	-86.2
200.286	-6.1
200.673	49.83
201.06	-8.33
201.447	-14.76
201.833	-57.61
202.22	17.05
202.607	-24.06
202.994	-10.08
203.38	9.57
203.767	-9.47
204.154	12.07
204.54	20.01
204.927	-19.95
205.313	23.16
205.699	34.37
206.086	25.15
206.472	49.31
206.858	21.11
207.245	23.02
207.631	-9.87
208.017	18.25
208.403	-37.96
208.789	20.14
209.175	-16.16
209.561	-98.1
209.947	5.39
210.333	-5.3
210.719	7.67
211.105	55.07
211.491	14.18
211.876	-3.01
212.262	21.02
212.648	-2.42
213.034	-10.86
213.419	11.93
213.805	-40.81
214.19	1.09
214.576	15.68
214.961	45.48
215.346	-0.02
215.732	-6.63
216.117	-9.13
216.502	-15.18
216.888	6.69
217.273	49.16
217.658	-6
218.043	-38.6
218.428	-9.57
218.813	6.89
219.198	-13.49
219.583	-34.68
219.968	6.24
220.353	-8.15
220.738	2.76
221.122	-1.56
221.507	13.19
221.892	-29.93
222.276	-13.95
222.661	-2.01
223.046	-5.66
223.43	22.62
223.815	3.8
224.199	-1.56
224.583	-10.53
224.968	-0.04
225.352	-4.65
225.736	17.35
226.121	-3.22
226.505	-8.44
226.889	-0.13
227.273	-2.81
227.657	4.99
228.041	3.3
228.425	-0.32
228.809	1.46
229.193	1.69
229.577	2.67
229.961	1
230.344	2.34
230.728	3.06
231.112	2.82
231.495	1.91
231.879	1.74
232.263	3.63
232.646	2.71
233.03	3.43
233.413	1.5
233.797	2.47
234.18	2.9
234.563	3.38
234.946	1.2
235.33	2.3
235.713	2.9
236.096	3.15
236.479	4.15
236.862	1.59
237.245	1.68
237.628	1.85
238.011	3.05
238.394	2.09
238.777	2.12
239.16	3.25
239.543	3.5
239.925	1.44
240.308	0.59
240.691	3.44
241.073	2.11
241.456	1.96
241.838	3.27
242.221	2.28
242.603	2.1
242.986	2.69
243.368	2.45
243.75	2.45
244.133	2.83
244.515	2.58
244.897	1.94
245.279	2.48
245.661	3.64
246.043	2.87
246.425	3.11
246.807	2.21
247.189	1.62
247.571	2.25
247.953	2.32
248.335	2.4
248.717	2.48
249.098	2.46
249.48	2.34
249.862	2.73
250.243	3.17
250.625	2.99
251.006	3.26
251.388	2.23
251.769	1.85
252.151	3.53
252.532	1.89
252.913	2.78
253.295	2.53
253.676	2.22
254.057	2.35
254.438	2.41
254.819	2.64
255.2	2.69
255.581	2.83
255.962	3.38
256.343	3.67
256.724	2.64
257.105	2.84
257.486	2.23
257.867	2.54
258.247	1.72
258.628	1.92
259.009	1.89
259.389	1.75
259.77	2.04
260.15	3.63
260.531	2.49
260.911	2.45
261.292	2.42
261.672	2.46
262.052	2.65
262.432	2.08
262.813	2.46
263.193	3.12
263.573	2.95
263.953	2.75
264.333	2.25
264.713	2.87
265.093	2.62
265.473	2.07
265.853	2.61
266.233	2.46
266.612	2.46
266.992	2.04
267.372	2.98
267.752	2.62
268.131	2.46
268.511	2.62
268.89	3.21
269.27	1.91
269.649	1.97
270.029	3.12
270.408	2.02
270.787	2.54
271.167	2.76
271.546	3.8
271.925	2.56
272.304	2.43
272.683	2.66
273.062	2.64
273.441	2.01
273.82	2.64
274.199	2.31
274.578	2.83
274.957	2.36
275.336	2.82
275.715	2.76
276.093	2.02
276.472	2.11
276.851	2.6
277.229	2.4
277.608	1.59
277.986	2.3
278.365	2.45
278.743	2.15
279.122	2.09
279.5	2.43
279.878	2.03
280.257	2.52
280.635	2.37
281.013	1.52
281.391	2.14
281.769	2.92
282.147	1.97
282.525	2.2
282.903	2.21
283.281	2.88
283.659	2.82
284.037	2.44
284.415	2.35
284.792	2.62
285.17	2.98
285.548	2.42
285.925	2.48
286.303	2.8
286.68	2.72
287.058	2.76
287.435	2.57
287.813	2.43
288.19	2.42
288.567	2.54
288.945	1.89
289.322	3.03
289.699	2.7
290.076	2.42
290.453	2.4
290.83	3
291.207	2.81
291.584	2.9
291.961	2.62
292.338	2.23
292.715	2.71
293.092	2.93
293.469	2.52
293.845	3
294.222	3.3
294.599	2.49
294.975	1.96
295.352	3.12
295.728	2.89
296.105	3.05
296.481	2.79
296.858	2.93
297.234	2.76
297.61	2.9
297.986	3.2
298.363	2.97
298.739	3.17
299.115	2.68
299.491	3.34
299.867	2.75
300.243	3.07
300.619	2.95
300.995	3.14
301.371	3.12
301.746	3.28
302.122	2.63
302.498	2.95
302.874	3.45
303.249	3.57
303.625	3.2
304	2.97
304.376	3.32
304.751	3.4
305.127	3.61
305.502	3.33
305.878	3.63
306.253	3.3
306.628	3.39
307.003	2.78
307.378	3.61
307.754	3.38
308.129	3.24
308.504	3.35
308.879	3.27
309.254	3.97
309.629	3.92
310.003	3.6
310.378	3.88
310.753	3.94
311.128	3.64
311.502	3.84
311.877	3.88
312.252	3.73
312.626	4.27
313.001	4.1
313.375	4.35
313.75	4.1
314.124	4.09
314.498	4.16
314.873	3.49
315.247	3.62
315.621	4.14
315.995	3.93
316.369	3.48
316.743	3.93
317.117	4.05
317.491	3.74
317.865	3.65
318.239	4.26
318.613	4.14
318.987	3.81
319.361	3.97
319.734	3.98
320.108	4.4
320.482	4.37
320.855	4.7
321.229	4.35
321.602	4.37
321.976	3.84
322.349	5.01
322.723	4.33
323.096	4.41
323.469	4.09
323.843	4.06
324.216	4.68
324.589	5.03
324.962	4.23
325.335	4.67
325.708	4.35
326.081	4.52
326.454	4.71
326.827	4.67
327.2	4.71
327.573	5
327.945	4.47
328.318	4.61
328.691	4.85
329.063	4.06
329.436	4.26
329.809	5.22
330.181	5.48
330.553	4.63
330.926	5.72
331.298	4.27
331.671	4.89
332.043	5.17
332.415	4.48
332.787	5.07
333.159	5.03
333.532	5.02
333.904	4.88
334.276	5.36
334.648	4.87
335.02	4.51
335.391	4.51
335.763	5.03
336.135	5.63
336.507	5.43
336.879	5.46
337.25	5.29
337.622	5.72
337.993	4.98
338.365	5.31
338.736	5.24
339.108	5.13
339.479	5.07
339.851	5.41
340.222	5.32
340.593	5.35
340.964	5.26
341.336	5.36
341.707	5.1
342.078	5.18
342.449	5.37
342.82	5.43
343.191	5.4
343.562	5.41
343.933	4.89
344.303	5.78
344.674	5.61
345.045	5.61
345.416	5.98
345.786	5.48
346.157	5.53
346.527	5.61
346.898	5.35
347.268	5.81
347.639	5.54
348.009	5.92
348.38	5.45
348.75	6.07
349.12	6.15
349.49	6.06
349.861	6.11
350.231	5.71
350.601	5.99
350.971	5.37
351.341	5.96
351.711	5.56
352.081	5.67
352.45	5.74
352.82	5.33
353.19	5.76
353.56	5.91
353.929	6.05
354.299	6.29
354.669	6.08
355.038	6.53
355.408	5.85
355.777	6.28
356.147	5.79
356.516	5.71
356.885	6.09
357.254	5.68
357.624	6.1
357.993	5.92
358.362	6.14
358.731	6.2
359.1	6.02
359.469	6.08
359.838	6.24
360.207	6.22
360.576	6.38
360.945	6.3
361.314	6.27
361.682	5.92
362.051	6.39
362.42	6.13
362.788	6.36
363.157	6.27
363.525	6.36
363.894	6.02
364.262	6.55
364.631	6.66
364.999	6.5
365.367	6.49
365.735	6.38
366.104	6.39
366.472	6.54
366.84	6.64
367.208	6.83
367.576	6.43
367.944	6.55
368.312	6.43
368.68	7.14
369.048	6.75
369.416	6.67
369.783	6.44
370.151	6.97
370.519	7.2
370.886	6.78
371.254	7.05
371.621	6.73
371.989	6.79
372.356	7.11
372.724	6.83
373.091	6.44
373.458	6.57
373.826	7.07
374.193	7.07
374.56	7.07
374.927	6.72
375.294	7.17
375.661	7.08
376.028	7.07
376.395	7.2
376.762	6.9
377.129	6.89
377.496	7
377.863	7.09
378.229	7.41
378.596	7.53
378.963	7.04
379.329	7.37
379.696	7.08
380.062	7.44
380.429	7.1
380.795	7.36
381.161	7.18
381.528	7.16
381.894	7.4
382.26	7.4
382.626	7.46
382.993	7.61
383.359	7.38
383.725	7.04
384.091	7.58
384.457	7.61
384.823	7.63
385.188	7.43
385.554	7.38
385.92	7.45
386.286	7.57
386.651	7.67
387.017	7.85
387.383	7.55
387.748	7.79
388.114	7.82
388.479	7.77
388.845	7.74
389.21	7.95
389.575	8.07
389.94	7.93
390.306	7.84
390.671	7.96
391.036	7.78
391.401	7.84
391.766	7.86
392.131	8.39
392.496	7.83
392.861	7.81
393.226	7.87
393.591	8.09
393.956	7.89
394.32	8.12
394.685	8.25
395.05	7.94
395.414	8.21
395.779	8.38
396.143	8.04
396.508	8.09
396.872	8.12
397.236	8.26
397.601	8.48
397.965	8.24
398.329	8.61
398.694	8.32
399.058	8.25
399.422	8.04
399.786	8.26
400.15	8.32
400.514	8.42
400.878	8.13
401.242	8.46
401.605	8.64
401.969	8.47
402.333	8.36
402.697	8.79
403.06	8.6
403.424	8.48
403.787	8.57
404.151	8.56
404.514	8.81
404.878	8.52
405.241	8.64
405.604	8.6
405.968	8.62
406.331	8.69
406.694	8.79
407.057	8.65
407.42	8.72
407.783	8.74
408.146	8.54
408.509	8.8
408.872	8.93
409.235	8.79
409.598	8.73
409.961	8.9
410.323	9.14
410.686	8.94
411.049	9.17
411.411	8.74
411.774	8.81
412.136	8.94
412.499	9.25
412.861	8.89
413.223	9.11
413.586	9.14
413.948	9.33
414.31	9.18
414.672	8.97
415.035	9.45
415.397	9.03
415.759	9.07
416.121	9.48
416.483	9.16
416.845	9.11
417.206	9.29
417.568	9.2
417.93	9.28
418.292	9.13
418.653	9
419.015	9.42
419.377	9.11
419.738	9.23
420.1	9.24
420.461	9.31
420.822	9.3
421.184	9.35
421.545	9.32
421.906	9.38
422.267	9.33
422.629	9.28
422.99	9.35
423.351	9.36
423.712	9.38
424.073	9.49
424.434	9.52
424.795	9.49
425.155	9.45
425.516	9.56
425.877	9.54
426.238	9.63
426.598	9.6
426.959	9.65
427.32	9.74
427.68	9.79
428.041	9.89
428.401	9.76
428.761	9.92
429.122	10
429.482	10.09
429.842	10.01
430.202	10.24
430.563	10.15
430.923	10.06
431.283	10.2
431.643	10.2
432.003	10.31
432.363	10.37
432.722	10.34
433.082	10.28
433.442	10.35
433.802	10.17
434.161	10.34
434.521	10.34
434.881	10.43
435.24	10.44
435.6	10.28
435.959	10.55
436.319	10.57
436.678	10.52
437.037	10.35
437.396	10.58
437.756	10.6
438.115	10.49
438.474	10.67
438.833	10.7
439.192	10.65
439.551	10.53
439.91	10.69
440.269	10.64
440.628	10.69
440.987	10.56
441.345	10.63
441.704	10.7
442.063	10.76
442.421	10.74
442.78	10.67
443.138	10.79
443.497	10.83
443.855	10.92
444.214	10.82
444.572	11.11
444.93	10.89
445.288	11.16
445.647	10.91
446.005	11.11
446.363	11.01
446.721	11.12
447.079	11.07
447.437	10.97
447.795	11.03
448.153	11.04
448.51	11.13
448.868	11.02
449.226	11.18
449.584	11.28
449.941	11.19
450.299	11.28
450.656	11.39
451.014	11.63
451.371	11.63
451.729	11.48
452.086	11.62
452.443	11.68
452.801	11.68
453.158	11.74
453.515	11.48
453.872	11.71
454.229	11.47
454.586	11.51
454.943	11.76
455.3	11.73
455.657	11.78
456.014	11.74
456.371	11.93
456.727	11.94
457.084	12
457.441	12.06
457.797	12
458.154	12.06
458.51	12.14
458.867	12.12
459.223	11.97
459.58	12.21
459.936	12.13
460.292	11.93
460.648	11.94
461.005	11.89
461.361	11.86
461.717	12
462.073	12.11
462.429	12.22
462.785	12.4
463.141	12.09
463.496	12.51
463.852	12.69
464.208	12.48
464.564	12.53
464.919	12.65
465.275	12.67
465.631	12.91
465.986	12.7
466.342	12.53
466.697	12.65
467.052	12.61
467.408	12.82
467.763	12.79
468.118	12.71
468.473	12.94
468.829	12.65
469.184	12.91
469.539	12.81
469.894	12.92
470.249	13.14
470.603	12.99
470.958	12.96
471.313	13.01
471.668	13.15
472.023	13.25
472.377	13.15
472.732	13.28
473.086	13.25
473.441	13.19
473.795	13.42
474.15	13.23
474.504	13.3
474.859	13.17
475.213	13.49
475.567	13.35
475.921	13.55
476.275	13.32
476.63	13.44
476.984	13.41
477.338	13.67
477.692	13.7
478.045	13.45
478.399	13.56
478.753	13.43
479.107	13.71
479.461	13.51
479.814	13.65
480.168	13.66
480.521	13.86
480.875	13.86
481.228	13.89
481.582	13.75
481.935	13.88
482.289	13.74
482.642	13.91
482.995	13.78
483.348	13.86
483.701	13.74
484.055	13.71
484.408	13.55
484.761	13.46
485.114	13.28
485.466	13.28
485.819	13.26
486.172	13.32
486.525	13.49
486.878	13.66
487.23	13.76
487.583	13.83
487.936	13.72
488.288	13.78
488.641	13.69
488.993	13.61
489.345	13.64
489.698	13.72
490.05	13.81
490.402	14
490.754	14
491.107	14.12
491.459	14.31
491.811	14.39
492.163	14.35
492.515	14.26
492.866	14.05
493.218	14.11
493.57	14.15
493.922	14.15
494.274	14.45
494.625	14.56
494.977	14.68
495.328	14.84
495.68	14.95
496.031	14.89
496.383	15.03
496.734	15
497.086	15.15
497.437	15.1
497.788	15.22
498.139	15.04
498.49	15.01
498.842	15.15
499.193	15.05
499.544	15.14
499.894	15.12
500.245	15.34
500.596	15.39
500.947	15.38
501.298	15.44
501.648	15.44
501.999	15.58
502.35	15.57
502.7	15.76
503.051	15.6
503.401	15.59
503.752	15.64
504.102	15.62
504.452	15.66
504.803	15.88
505.153	15.92
505.503	15.84
505.853	15.77
506.203	15.9
506.553	15.94
506.903	16
507.253	15.87
507.603	15.89
507.953	16.13
508.303	16.26
508.652	16.06
509.002	16.2
509.352	16.3
509.701	16.09
510.051	16.26
510.4	16.14
510.75	16.06
511.099	16.07
511.449	16.28
511.798	16.25
512.147	16.27
512.496	16.35
512.846	16.48
513.195	16.41
513.544	16.57
513.893	16.5
514.242	16.43
514.591	16.55
514.939	16.59
515.288	16.77
515.637	16.73
515.986	16.66
516.334	16.98
516.683	16.83
517.032	16.92
517.38	16.82
517.729	16.93
518.077	17.12
518.426	17.07
518.774	16.87
519.122	16.91
519.47	16.85
519.819	16.85
520.167	16.73
520.515	16.83
520.863	16.9
521.211	16.82
521.559	16.98
521.907	17.15
522.255	17.15
522.602	17.41
522.95	17.49
523.298	17.5
523.645	17.55
523.993	17.53
524.341	17.65
524.688	17.6
525.036	17.58
525.383	17.77
525.73	17.55
526.078	17.65
526.425	17.62
526.772	17.49
527.119	17.51
527.466	17.47
527.814	17.49
528.161	17.52
528.508	17.63
528.854	17.54
529.201	17.45
529.548	17.5
529.895	17.24
530.242	17.24
530.588	17.3
530.935	17.36
531.282	17.49
531.628	17.61
531.975	17.79
532.321	17.93
532.667	18.03
533.014	18.12
533.36	18.14
533.706	18.09
534.052	18.13
534.399	17.92
534.745	17.88
535.091	17.87
535.437	18.01
535.783	18.15
536.129	18.28
536.474	18.42
536.82	18.48
537.166	18.67
537.512	18.65
537.857	18.51
538.203	18.48
538.549	18.56
538.894	18.61
539.239	18.79
539.585	18.81
539.93	18.95
540.276	19.18
540.621	19.11
540.966	19.17
541.311	19.16
541.656	19.21
542.001	19
542.346	18.77
542.691	18.67
543.036	18.66
543.381	18.67
543.726	18.86
544.071	18.92
544.415	19.07
544.76	19.06
545.105	19.13
545.449	19.32
545.794	19.43
546.138	19.45
546.483	19.68
546.827	19.64
547.171	19.75
547.516	19.63
547.86	19.89
548.204	19.7
548.548	19.81
548.892	19.82
549.236	19.86
549.58	20.06
549.924	20.21
550.268	20.3
550.612	20.35
550.956	20.46
551.3	20.6
551.643	20.47
551.987	20.74
552.33	20.84
552.674	20.75
553.017	20.76
553.361	20.73
553.704	20.77
554.048	20.65
554.391	20.77
554.734	20.74
555.077	20.77
555.42	20.74
555.764	20.89
556.107	21.15
556.45	21.08
556.793	21.17
557.135	21.13
557.478	21.25
557.821	21.2
558.164	21.54
558.507	21.41
558.849	21.65
559.192	21.47
559.534	21.44
559.877	21.49
560.219	21.6
560.562	21.64
560.904	21.59
561.246	21.54
561.589	21.92
561.931	21.68
562.273	21.61
562.615	22.01
562.957	21.88
563.299	22.15
563.641	22.01
563.983	21.88
564.325	21.94
564.667	22.07
565.008	22.06
565.35	21.9
565.692	22.34
566.033	22.24
566.375	22.18
566.716	22.19
567.058	22.15
567.399	22.23
567.741	22.29
568.082	22.23
568.423	22.35
568.764	22.21
569.105	22.5
569.447	22.34
569.788	22.42
570.129	22.55
570.47	22.59
570.811	22.59
571.151	22.76
571.492	22.86
571.833	22.91
572.174	22.91
572.514	23.03
572.855	22.98
573.195	22.96
573.536	23.02
573.876	22.93
574.217	22.96
574.557	23.02
574.898	23.02
575.238	23.1
575.578	23.23
575.918	23.32
576.258	23.4
576.598	22.92
576.938	23.2
577.278	23.32
577.618	23.33
577.958	23.56
578.298	23.6
578.638	23.42
578.977	23.69
579.317	23.79
579.657	23.86
579.996	23.8
580.336	23.83
580.675	24.11
581.014	23.98
581.354	23.98
581.693	24.11
582.032	24.56
582.372	24.1
582.711	24.45
583.05	24.27
583.389	24.39
583.728	24.48
584.067	24.25
584.406	24.84
584.745	24.22
585.083	24.46
585.422	24.66
585.761	24.63
586.1	24.74
586.438	24.86
586.777	24.71
587.115	24.74
587.454	24.51
587.792	24.66
588.13	25.02
588.469	24.82
588.807	24.78
589.145	25.29
589.483	24.86
589.821	25
590.159	25.35
590.497	24.91
590.835	25.26
591.173	25.49
591.511	25.18
591.849	25.34
592.187	25.31
592.524	25.49
592.862	25.24
593.2	25.4
593.537	25.2
593.875	25.53
594.212	25.56
594.55	25.58
594.887	25.59
595.224	25.81
595.561	25.58
595.899	25.64
596.236	25.67
596.573	25.64
596.91	25.74
597.247	25.69
597.584	25.76
597.921	25.74
598.258	26.15
598.594	25.7
598.931	25.71
599.268	25.71
599.604	25.87
599.941	26.27
600.277	26.03
600.614	26.36
600.95	25.95
601.287	26.2
601.623	26.28
601.959	26.62
602.296	26.34
602.632	26.48
602.968	26.65
603.304	26.63
603.64	26.68
603.976	26.66
604.312	26.38
604.648	26.73
604.984	26.47
605.319	26.51
605.655	26.69
605.991	26.68
606.326	26.6
606.662	26.63
606.998	26.63
607.333	26.46
607.668	26.6
608.004	27.03
608.339	26.9
608.674	27.15
609.01	27.39
609.345	27.09
609.68	27.28
610.015	27.34
610.35	27.19
610.685	26.96
611.02	26.98
611.355	27.46
611.689	27.25
612.024	27.54
612.359	27.5
612.694	27.37
613.028	27.63
613.363	27.62
613.697	27.9
614.032	27.78
614.366	27.63
614.7	27.97
615.035	27.71
615.369	27.86
615.703	28.14
616.037	28.29
616.371	28.32
616.705	27.88
617.039	28.26
617.373	28.19
617.707	28.39
618.041	28.39
618.375	27.96
618.709	28.26
619.042	28.02
619.376	28.48
619.71	28.28
620.043	28.73
620.377	28.6
620.71	28.53
621.043	28.88
621.377	28.68
621.71	28.87
622.043	28.61
622.376	29.08
622.709	29.02
623.043	28.96
623.376	29.02
623.709	29.12
624.041	28.72
624.374	29.12
624.707	29.29
625.04	28.89
625.373	29.15
625.705	29.3
626.038	29.5
626.37	29.27
626.703	29.54
627.035	29.15
627.368	29.54
627.7	29.28
628.032	29.32
628.365	29.41
628.697	29.45
629.029	29.28
629.361	29.4
629.693	29.3
630.025	29.55
630.357	29.66
630.689	29.61
631.021	29.63
631.353	30.01
631.684	29.47
632.016	29.32
632.348	29.63
632.679	30.07
633.011	29.82
633.342	29.96
633.674	30.01
634.005	30.2
634.336	30.1
634.668	30.34
634.999	30.13
635.33	30.19
635.661	29.92
635.992	30.32
636.323	30.14
636.654	30.66
636.985	30.06
637.316	30.32
637.647	30.5
637.977	30.44
638.308	30.6
638.639	30.84
638.969	30.2
639.3	30.79
639.63	30.37
639.961	30.71
640.291	30.47
640.622	31.19
640.952	31.12
641.282	30.51
641.612	31.05
641.943	30.97
642.273	31.1
642.603	31.49
642.933	31.26
643.263	31.44
643.592	31.69
643.922	31.39
644.252	31.28
644.582	31.66
644.911	30.96
645.241	31.7
645.571	31.16
645.9	31.36
646.23	31.9
646.559	31.36
646.888	31.55
647.218	31.37
647.547	31.8
647.876	31.58
648.205	31.56
648.534	31.83
648.863	31.81
649.192	32.1
649.521	32.05
649.85	32.03
650.179	32.01
650.508	32.1
650.837	32.62
651.165	31.75
651.494	31.91
651.822	31.96
652.151	31.89
652.479	32.61
652.808	32.14
653.136	31.84
653.465	32.09
653.793	32.19
654.121	32.84
654.449	32.37
654.777	32.13
655.105	32.05
655.433	32.38
655.761	32.48
656.089	32.36
656.417	32.58
656.745	32.46
657.073	32.6
657.4	32.66
657.728	32.71
658.056	32.71
658.383	32.75
658.711	32.55
659.038	32.83
659.365	33.17
659.693	32.4
660.02	32.85
660.347	33.2
660.674	32.73
661.001	33.31
661.329	33.02
661.656	32.98
661.982	33.08
662.309	32.82
662.636	33.44
662.963	33.15
663.29	33.58
663.616	33.34
663.943	33.59
664.27	33.28
664.596	33.23
664.923	33.93
665.249	33.16
665.576	33.15
665.902	33.76
666.228	33.78
666.554	33.72
666.881	33.53
667.207	33.82
667.533	34.22
667.859	33.49
668.185	33.75
668.511	34.53
668.837	33.58
669.162	34.12
669.488	33.76
669.814	33.68
670.139	33.21
670.465	33.9
670.791	33.4
671.116	33.44
671.442	34.31
671.767	33.97
672.092	34.53
672.418	34.12
672.743	33.92
673.068	34.1
673.393	34.73
673.718	34.07
674.043	34.48
674.368	34.33
674.693	34.39
675.018	34.68
675.343	34.92
675.667	33.95
