Data from 22-4_forehead_Reflection__3__209.txt Node

Date: Thu Dec 15 18:07:30 CST 2022
User: ToomeyLab
Spectrometer: FLMS14357
Trigger mode: 0
Integration Time (sec): 1.000000E-2
Scans to average: 100
Electric dark correction enabled: true
Nonlinearity correction enabled: false
Boxcar width: 0
XAxis mode: Wavelengths
Number of Pixels in Spectrum: 2048
>>>>>Begin Spectral Data<<<<<
189.047	36.08
189.435	36.08
189.823	36.08
190.211	58.31
190.599	584.05
190.987	574.23
191.375	-69.83
191.763	-50.98
192.151	425.23
192.538	95.5
192.926	107.06
193.314	64.94
193.702	170.99
194.089	-257.36
194.477	264.35
194.864	303.17
195.252	120.14
195.639	15.96
196.027	131
196.414	1407.49
196.801	84.57
197.189	73.83
197.576	43.98
197.963	-358.7
198.351	-25.45
198.738	-20.21
199.125	-9.27
199.512	70.22
199.899	-81.94
200.286	-37.66
200.673	67.64
201.06	-42.29
201.447	12.76
201.833	20.48
202.22	36.06
202.607	-26.02
202.994	-8.62
203.38	8.32
203.767	-9.05
204.154	13.05
204.54	22.9
204.927	19.54
205.313	34.6
205.699	23.19
206.086	13.94
206.472	39.88
206.858	-23.1
207.245	-0.61
207.631	3.98
208.017	62.69
208.403	-98.48
208.789	-59.59
209.175	3.1
209.561	-104.36
209.947	3.65
210.333	-3.52
210.719	-2.1
211.105	51.75
211.491	-14.21
211.876	-29.14
212.262	-13.8
212.648	36.49
213.034	-16.89
213.419	-8.15
213.805	-20.47
214.19	-51.93
214.576	7.91
214.961	2.47
215.346	-18.49
215.732	-16.54
216.117	19.05
216.502	-40.45
216.888	-1.06
217.273	1.32
217.658	2.11
218.043	-35.5
218.428	-2.86
218.813	10.57
219.198	-19.15
219.583	-19.34
219.968	-0.79
220.353	-36.68
220.738	-2.36
221.122	-5.19
221.507	-11.8
221.892	-13.76
222.276	-31.73
222.661	-21.36
223.046	-7.51
223.43	4.64
223.815	2.32
224.199	-4.82
224.583	-6.27
224.968	-2.16
225.352	-3.26
225.736	4.86
226.121	-4.76
226.505	-11.58
226.889	3.45
227.273	-4.38
227.657	-1.1
228.041	3.53
228.425	0.22
228.809	0.87
229.193	2.25
229.577	1.66
229.961	1.1
230.344	2.74
230.728	2.56
231.112	1.65
231.495	0.73
231.879	1.91
232.263	2.12
232.646	2.33
233.03	4.08
233.413	1.32
233.797	1.17
234.18	1.66
234.563	2.36
234.946	1.42
235.33	1.83
235.713	2.15
236.096	4.44
236.479	3.35
236.862	0.76
237.245	0.9
237.628	1.09
238.011	1.34
238.394	1.78
238.777	0.87
239.16	0.81
239.543	3.76
239.925	0.47
240.308	0.13
240.691	0.27
241.073	2.01
241.456	2.07
241.838	1.19
242.221	1.65
242.603	2.26
242.986	2.09
243.368	2.01
243.75	2.56
244.133	2.36
244.515	2.13
244.897	1.92
245.279	1.45
245.661	1.56
246.043	2.11
246.425	2.61
246.807	2.88
247.189	2.37
247.571	1.69
247.953	1.92
248.335	2.13
248.717	2.41
249.098	2.31
249.48	2.41
249.862	2.4
250.243	2.13
250.625	2.49
251.006	3.11
251.388	1.93
251.769	1.27
252.151	2.65
252.532	1.75
252.913	2.02
253.295	1.92
253.676	2.01
254.057	2.2
254.438	1.98
254.819	2.45
255.2	1.99
255.581	2.52
255.962	2.74
256.343	3.59
256.724	3.23
257.105	2.91
257.486	1.28
257.867	1.9
258.247	2.3
258.628	2.84
259.009	2.45
259.389	1.79
259.77	1.85
260.15	2.77
260.531	2.38
260.911	2.34
261.292	2.29
261.672	2.18
262.052	2.44
262.432	2.11
262.813	1.94
263.193	2.47
263.573	2.44
263.953	1.99
264.333	2.21
264.713	2.25
265.093	2.21
265.473	2.4
265.853	1.77
266.233	2.22
266.612	1.74
266.992	1.91
267.372	2.24
267.752	2.61
268.131	2.4
268.511	2.25
268.89	2.44
269.27	1.41
269.649	2.26
270.029	1.74
270.408	1.67
270.787	2.09
271.167	2.75
271.546	2.48
271.925	2.05
272.304	2.39
272.683	1.88
273.062	2.24
273.441	1.91
273.82	2.21
274.199	1.97
274.578	2.12
274.957	1.54
275.336	2.48
275.715	2.07
276.093	1.35
276.472	1.92
276.851	2.22
277.229	2.27
277.608	1.45
277.986	2.42
278.365	2.31
278.743	2.19
279.122	2.08
279.5	2.27
279.878	1.92
280.257	2.24
280.635	2.17
281.013	1.62
281.391	2.21
281.769	2.54
282.147	2.86
282.525	1.7
282.903	2.12
283.281	2.43
283.659	2.4
284.037	2.07
284.415	1.85
284.792	2.48
285.17	1.86
285.548	2
285.925	2.2
286.303	2.63
286.68	2.16
287.058	2.34
287.435	2.17
287.813	2.09
288.19	1.82
288.567	2.47
288.945	2.07
289.322	2.4
289.699	2.77
290.076	2.46
290.453	2.12
290.83	2.48
291.207	2.25
291.584	2.59
291.961	2.67
292.338	2.07
292.715	2.33
293.092	2.87
293.469	1.75
293.845	2.47
294.222	3.01
294.599	2.36
294.975	1.78
295.352	2.35
295.728	2.58
296.105	2.6
296.481	2.85
296.858	2.53
297.234	2.26
297.61	2.42
297.986	2.99
298.363	2.67
298.739	2.7
299.115	2.74
299.491	2.88
299.867	2.46
300.243	2.96
300.619	2.64
300.995	2.69
301.371	3.07
301.746	3.32
302.122	2.6
302.498	3
302.874	3
303.249	3.18
303.625	2.65
304	3.05
304.376	2.85
304.751	2.9
305.127	2.48
305.502	2.94
305.878	3.53
306.253	3.09
306.628	2.7
307.003	3.17
307.378	3.09
307.754	3.42
308.129	3.52
308.504	3.17
308.879	3.11
309.254	3.53
309.629	3.17
310.003	3.56
310.378	3.61
310.753	3.3
311.128	3.24
311.502	3.56
311.877	3.32
312.252	3.54
312.626	3.47
313.001	3.75
313.375	3.58
313.75	3.77
314.124	3.88
314.498	3.76
314.873	3.32
315.247	3.93
315.621	3.08
315.995	3.47
316.369	3.22
316.743	3.66
317.117	3.53
317.491	4.28
317.865	3.02
318.239	4.55
318.613	3.82
318.987	3.9
319.361	4
319.734	4.09
320.108	3.91
320.482	4.56
320.855	4.02
321.229	3.63
321.602	4.58
321.976	3.28
322.349	4.89
322.723	3.64
323.096	4.01
323.469	4.37
323.843	4.06
324.216	4.44
324.589	4.46
324.962	4.09
325.335	3.97
325.708	3.91
326.081	4.3
326.454	4.45
326.827	4.28
327.2	4.29
327.573	4.88
327.945	4.23
328.318	4.45
328.691	4.21
329.063	3.86
329.436	4.39
329.809	4.94
330.181	5.54
330.553	5.06
330.926	5.26
331.298	4.29
331.671	5.12
332.043	4.67
332.415	4.91
332.787	5.12
333.159	4.37
333.532	4.56
333.904	4.8
334.276	5.14
334.648	4.79
335.02	4.39
335.391	4.56
335.763	4.74
336.135	5.32
336.507	5.02
336.879	4.77
337.25	4.71
337.622	5.19
337.993	5.46
338.365	4.93
338.736	5.05
339.108	5.41
339.479	5.24
339.851	5.1
340.222	5.66
340.593	4.99
340.964	5.31
341.336	4.65
341.707	4.9
342.078	4.82
342.449	5.26
342.82	5.29
343.191	5.27
343.562	5.59
343.933	5.03
344.303	5.31
344.674	5.63
345.045	5.12
345.416	5.42
345.786	5.38
346.157	5.69
346.527	5.57
346.898	5.17
347.268	5.45
347.639	5.5
348.009	5.65
348.38	5.29
348.75	5.81
349.12	5.6
349.49	5.3
349.861	5.71
350.231	5.72
350.601	5.79
350.971	5.27
351.341	5.69
351.711	5.64
352.081	5.14
352.45	5.37
352.82	5.78
353.19	5.98
353.56	5.76
353.929	6.1
354.299	5.74
354.669	5.99
355.038	6.09
355.408	5.84
355.777	6.16
356.147	5.89
356.516	5.65
356.885	6.17
357.254	5.89
357.624	5.68
357.993	6.09
358.362	5.97
358.731	6.09
359.1	6.13
359.469	6.46
359.838	6.23
360.207	6.04
360.576	6.16
360.945	6.24
361.314	5.97
361.682	5.91
362.051	6.36
362.42	6.28
362.788	6.35
363.157	6.3
363.525	6.33
363.894	6.24
364.262	6.26
364.631	6.5
364.999	6.38
365.367	6.23
365.735	6.31
366.104	6.6
366.472	6.55
366.84	6.51
367.208	6.47
367.576	6.58
367.944	6.42
368.312	6.58
368.68	6.85
369.048	6.68
369.416	6.13
369.783	6.63
370.151	7.05
370.519	7.2
370.886	7.06
371.254	6.84
371.621	7.15
371.989	7.08
372.356	6.91
372.724	6.84
373.091	6.68
373.458	6.91
373.826	7.19
374.193	6.68
374.56	6.95
374.927	6.9
375.294	7.06
375.661	7.43
376.028	7.2
376.395	7.15
376.762	7.02
377.129	6.99
377.496	7.32
377.863	7.32
378.229	7.51
378.596	7.39
378.963	7.45
379.329	7.37
379.696	6.94
380.062	7.43
380.429	7.32
380.795	7.74
381.161	7.18
381.528	7.04
381.894	7.24
382.26	7.62
382.626	7.6
382.993	7.82
383.359	7.35
383.725	7.18
384.091	7.53
384.457	7.53
384.823	7.94
385.188	7.73
385.554	7.52
385.92	7.55
386.286	7.65
386.651	7.62
387.017	8.09
387.383	7.8
387.748	7.9
388.114	8.02
388.479	7.64
388.845	7.66
389.21	8.22
389.575	8.18
389.94	8.16
390.306	8.21
390.671	7.98
391.036	8.12
391.401	7.95
391.766	8.09
392.131	8.37
392.496	8.07
392.861	8.12
393.226	8.01
393.591	8.08
393.956	8.32
394.32	8.54
394.685	8.17
395.05	8.33
395.414	8.48
395.779	8.55
396.143	8.42
396.508	8.26
396.872	8.17
397.236	8.59
397.601	8.28
397.965	8.65
398.329	8.63
398.694	8.49
399.058	8.53
399.422	8.63
399.786	8.38
400.15	8.51
400.514	8.63
400.878	8.64
401.242	8.75
401.605	8.96
401.969	8.7
402.333	8.81
402.697	9.12
403.06	8.88
403.424	8.86
403.787	8.84
404.151	9.04
404.514	9.02
404.878	8.75
405.241	8.92
405.604	8.92
405.968	8.78
406.331	9.09
406.694	9.11
407.057	8.96
407.42	9.05
407.783	9.2
408.146	9.13
408.509	9.2
408.872	9.16
409.235	9.48
409.598	9.33
409.961	9.39
410.323	9.15
410.686	9.36
411.049	9.37
411.411	9.22
411.774	9.56
412.136	9.37
412.499	9.71
412.861	9.23
413.223	9.54
413.586	9.86
413.948	9.88
414.31	9.61
414.672	9.67
415.035	9.68
415.397	9.6
415.759	9.53
416.121	9.87
416.483	9.49
416.845	9.63
417.206	9.74
417.568	9.73
417.93	9.79
418.292	9.76
418.653	9.72
419.015	9.96
419.377	9.78
419.738	9.84
420.1	9.8
420.461	9.69
420.822	9.81
421.184	9.83
421.545	9.83
421.906	9.9
422.267	9.86
422.629	9.75
422.99	9.85
423.351	9.86
423.712	9.96
424.073	9.98
424.434	10.14
424.795	9.97
425.155	10.13
425.516	10.08
425.877	10.06
426.238	10.13
426.598	10.22
426.959	10.3
427.32	10.33
427.68	10.45
428.041	10.53
428.401	10.38
428.761	10.7
429.122	10.68
429.482	10.66
429.842	10.62
430.202	10.75
430.563	10.66
430.923	10.92
431.283	10.83
431.643	10.93
432.003	10.73
432.363	11.08
432.722	10.8
433.082	10.86
433.442	11.13
433.802	11
434.161	11.07
434.521	10.96
434.881	11.05
435.24	11
435.6	11.26
435.959	11.16
436.319	11.08
436.678	11.21
437.037	11.33
437.396	11.44
437.756	11.25
438.115	11.34
438.474	11.5
438.833	11.34
439.192	11.5
439.551	11.3
439.91	11.5
440.269	11.52
440.628	11.56
440.987	11.51
441.345	11.56
441.704	11.46
442.063	11.53
442.421	11.55
442.78	11.56
443.138	11.63
443.497	11.71
443.855	11.75
444.214	11.67
444.572	12
444.93	11.95
445.288	11.97
445.647	11.89
446.005	11.98
446.363	11.93
446.721	11.89
447.079	11.98
447.437	12
447.795	11.91
448.153	11.94
448.51	11.99
448.868	12.01
449.226	12.11
449.584	12.18
449.941	12.24
450.299	12.24
450.656	12.39
451.014	12.56
451.371	12.43
451.729	12.53
452.086	12.46
452.443	12.71
452.801	12.75
453.158	12.79
453.515	12.68
453.872	12.55
454.229	12.42
454.586	12.62
454.943	12.94
455.3	12.95
455.657	12.72
456.014	12.97
456.371	12.96
456.727	13.09
457.084	13.17
457.441	13.18
457.797	13.16
458.154	13.05
458.51	12.98
458.867	13.16
459.223	13.18
459.58	13.29
459.936	13.09
460.292	13.07
460.648	13.19
461.005	13.05
461.361	12.99
461.717	12.97
462.073	13.25
462.429	13.4
462.785	13.65
463.141	13.58
463.496	13.73
463.852	13.62
464.208	13.65
464.564	13.77
464.919	13.8
465.275	13.9
465.631	13.88
465.986	13.94
466.342	13.81
466.697	13.89
467.052	13.96
467.408	14.07
467.763	14.14
468.118	14.03
468.473	14
468.829	13.9
469.184	14.23
469.539	13.97
469.894	14.26
470.249	14.22
470.603	14.48
470.958	14.42
471.313	14.4
471.668	14.58
472.023	14.51
472.377	14.52
472.732	14.49
473.086	14.43
473.441	14.42
473.795	14.8
474.15	14.74
474.504	14.63
474.859	14.57
475.213	14.79
475.567	14.69
475.921	14.7
476.275	14.9
476.63	14.93
476.984	14.94
477.338	15.15
477.692	15.17
478.045	14.96
478.399	14.91
478.753	14.96
479.107	15.14
479.461	14.99
479.814	15.22
480.168	15.08
480.521	15.33
480.875	15.28
481.228	15.47
481.582	15.39
481.935	15.42
482.289	15.33
482.642	15.37
482.995	15.21
483.348	15.29
483.701	15.3
484.055	15.25
484.408	15.05
484.761	14.95
485.114	14.67
485.466	14.67
485.819	14.67
486.172	14.81
486.525	15
486.878	15.13
487.23	15.31
487.583	15.33
487.936	15.29
488.288	15.23
488.641	15.2
488.993	15.11
489.345	15.22
489.698	15.26
490.05	15.32
490.402	15.46
490.754	15.65
491.107	15.76
491.459	15.9
491.811	15.91
492.163	16.02
492.515	15.77
492.866	15.71
493.218	15.52
493.57	15.66
493.922	15.77
494.274	16.07
494.625	16.2
494.977	16.32
495.328	16.56
495.68	16.58
496.031	16.67
496.383	16.92
496.734	16.77
497.086	16.82
497.437	16.84
497.788	16.83
498.139	16.73
498.49	16.83
498.842	16.88
499.193	16.84
499.544	16.97
499.894	17.07
500.245	17.17
500.596	17.22
500.947	17.18
501.298	17.25
501.648	17.29
501.999	17.41
502.35	17.36
502.7	17.51
503.051	17.56
503.401	17.59
503.752	17.59
504.102	17.73
504.452	17.67
504.803	17.65
505.153	17.86
505.503	17.61
505.853	17.77
506.203	17.96
506.553	17.73
506.903	17.92
507.253	17.97
507.603	18.17
507.953	18.12
508.303	18.06
508.652	17.97
509.002	18.21
509.352	18.07
509.701	18.06
510.051	18.12
510.4	18.1
510.75	18.09
511.099	18.13
511.449	18.28
511.798	18.2
512.147	18.3
512.496	18.38
512.846	18.33
513.195	18.46
513.544	18.51
513.893	18.49
514.242	18.7
514.591	18.65
514.939	18.79
515.288	18.82
515.637	18.78
515.986	18.81
516.334	18.9
516.683	19
517.032	19.13
517.38	18.92
517.729	19.03
518.077	19.03
518.426	19.23
518.774	19.05
519.122	19.07
519.47	18.94
519.819	18.81
520.167	18.94
520.515	18.88
520.863	19.09
521.211	19.11
521.559	19.17
521.907	19.3
522.255	19.35
522.602	19.43
522.95	19.56
523.298	19.58
523.645	19.64
523.993	19.78
524.341	19.91
524.688	19.85
525.036	19.86
525.383	19.97
525.73	19.73
526.078	19.91
526.425	19.87
526.772	19.75
527.119	19.74
527.466	19.72
527.814	19.69
528.161	19.77
528.508	19.88
528.854	19.78
529.201	19.73
529.548	19.67
529.895	19.38
530.242	19.42
530.588	19.52
530.935	19.59
531.282	19.76
531.628	19.85
531.975	19.95
532.321	20.24
532.667	20.28
533.014	20.49
533.36	20.56
533.706	20.53
534.052	20.5
534.399	20.4
534.745	20.19
535.091	20.2
535.437	20.33
535.783	20.52
536.129	20.64
536.474	20.84
536.82	20.97
537.166	20.95
537.512	20.96
537.857	20.96
538.203	20.99
538.549	20.92
538.894	21.05
539.239	21.26
539.585	21.25
539.93	21.54
540.276	21.74
540.621	21.73
540.966	21.73
541.311	21.72
541.656	21.54
542.001	21.48
542.346	21.25
542.691	21.04
543.036	21.11
543.381	21.13
543.726	21.25
544.071	21.42
544.415	21.59
544.76	21.6
545.105	21.74
545.449	21.73
545.794	22
546.138	22.11
546.483	22.28
546.827	22.15
547.171	22.33
547.516	22.37
547.86	22.49
548.204	22.22
548.548	22.26
548.892	22.38
549.236	22.55
549.58	22.64
549.924	22.81
550.268	22.99
550.612	23.18
550.956	23.17
551.3	23.34
551.643	23.22
551.987	23.66
552.33	23.43
552.674	23.52
553.017	23.62
553.361	23.46
553.704	23.49
554.048	23.33
554.391	23.45
554.734	23.43
555.077	23.53
555.42	23.63
555.764	23.77
556.107	23.94
556.45	23.93
556.793	24.06
557.135	24.22
557.478	24.02
557.821	24.04
558.164	24.22
558.507	24.16
558.849	24.51
559.192	24.4
559.534	24.33
559.877	24.34
560.219	24.46
560.562	24.3
560.904	24.65
561.246	24.61
561.589	24.73
561.931	24.59
562.273	24.66
562.615	24.75
562.957	24.7
563.299	24.84
563.641	24.72
563.983	24.97
564.325	25.09
564.667	24.91
565.008	25.04
565.35	25.04
565.692	25.32
566.033	25.23
566.375	25.09
566.716	25.25
567.058	25.19
567.399	25.23
567.741	25.19
568.082	25.06
568.423	25.22
568.764	25.3
569.105	25.45
569.447	25.47
569.788	25.61
570.129	25.63
570.47	25.47
570.811	25.76
571.151	25.99
571.492	25.85
571.833	25.81
572.174	25.85
572.514	26
572.855	25.82
573.195	25.77
573.536	25.97
573.876	25.81
574.217	25.81
574.557	26.18
574.898	26.15
575.238	26.31
575.578	26.5
575.918	26.31
576.258	26.43
576.598	26.21
576.938	26.35
577.278	26.64
577.618	26.54
577.958	26.63
578.298	26.61
578.638	26.79
578.977	26.89
579.317	26.86
579.657	26.95
579.996	27.3
580.336	27.12
580.675	27.22
581.014	27.7
581.354	27.26
581.693	27.36
582.032	27.69
582.372	27.22
582.711	27.77
583.05	27.51
583.389	27.64
583.728	27.86
584.067	27.52
584.406	27.78
584.745	27.85
585.083	27.8
585.422	27.98
585.761	28.13
586.1	28.02
586.438	28.07
586.777	28.19
587.115	28.23
587.454	27.73
587.792	28.21
588.13	28.05
588.469	28.21
588.807	28.28
589.145	28.47
589.483	28.19
589.821	28.38
590.159	28.59
590.497	28.45
590.835	28.84
591.173	28.56
591.511	28.66
591.849	28.74
592.187	28.59
592.524	28.71
592.862	28.72
593.2	28.82
593.537	28.93
593.875	28.99
594.212	28.84
594.55	28.97
594.887	29.12
595.224	29.19
595.561	29.23
595.899	28.98
596.236	29.17
596.573	29.26
596.91	29.33
597.247	29.38
597.584	29.18
597.921	29.15
598.258	29.58
598.594	29.32
598.931	29.24
599.268	29.35
599.604	29.36
599.941	29.45
600.277	29.43
600.614	29.83
600.95	29.45
601.287	29.67
601.623	29.96
601.959	29.88
602.296	29.95
602.632	29.81
602.968	29.79
603.304	30.37
603.64	30.18
603.976	30.32
604.312	30.06
604.648	29.95
604.984	30.11
605.319	30.21
605.655	30.15
605.991	30.02
606.326	30.04
606.662	30.06
606.998	30.34
607.333	30.19
607.668	30.07
608.004	30.34
608.339	30.44
608.674	30.79
609.01	31.12
609.345	30.78
609.68	30.94
610.015	30.52
610.35	30.85
610.685	30.76
611.02	30.81
611.355	30.86
611.689	30.81
612.024	31.13
612.359	31.23
612.694	31.41
613.028	31.18
613.363	31.52
613.697	31.37
614.032	31.57
614.366	31.55
614.7	31.63
615.035	31.6
615.369	31.83
615.703	31.91
616.037	31.83
616.371	31.66
616.705	32.02
617.039	32.09
617.373	32.12
617.707	31.82
618.041	32.09
618.375	31.75
618.709	31.93
619.042	31.94
619.376	32.02
619.71	32.52
620.043	32.33
620.377	32.36
620.71	32.27
621.043	32.62
621.377	32.52
621.71	32.77
622.043	32.49
622.376	32.69
622.709	33.01
623.043	32.61
623.376	32.74
623.709	32.82
624.041	32.76
624.374	32.93
624.707	32.92
625.04	33.13
625.373	32.93
625.705	33.12
626.038	33.06
626.37	33.05
626.703	33.26
627.035	33.17
627.368	33.37
627.7	33.29
628.032	33.24
628.365	33.37
628.697	33.28
629.029	33.17
629.361	33.95
629.693	33.59
630.025	33.83
630.357	33.67
630.689	33.53
631.021	33.8
631.353	33.19
631.684	33.66
632.016	33.51
632.348	33.89
632.679	33.48
633.011	33.9
633.342	34.19
633.674	33.63
634.005	34.15
634.336	34.33
634.668	33.98
634.999	34.09
635.33	34.23
635.661	33.66
635.992	34.32
636.323	34.15
636.654	34.21
636.985	34.03
637.316	34.56
637.647	34.18
637.977	34
638.308	34.63
638.639	34.64
638.969	34.4
639.3	34.33
639.63	34.71
639.961	34.6
640.291	34.6
640.622	34.77
640.952	35.1
641.282	34.35
641.612	35.2
641.943	34.71
642.273	35.18
642.603	35.21
642.933	35.27
643.263	35.3
643.592	35.54
643.922	35.44
644.252	35.16
644.582	35.22
644.911	35.18
645.241	35.85
645.571	35.39
645.9	35.66
646.23	36.01
646.559	35.22
646.888	35.76
647.218	35.64
647.547	35.82
647.876	35.76
648.205	35.38
648.534	35.72
648.863	35.95
649.192	36.39
649.521	35.97
649.85	36.2
650.179	35.97
650.508	36.16
650.837	36.2
651.165	36.02
651.494	36.38
651.822	36.57
652.151	35.79
652.479	36.36
652.808	36.52
653.136	36.47
653.465	35.9
653.793	36.25
654.121	36.56
654.449	36.69
654.777	36.17
655.105	36.31
655.433	36.67
655.761	36.11
656.089	36.94
656.417	37.15
656.745	36.8
657.073	37.07
657.4	36.96
657.728	36.85
658.056	36.79
658.383	37.29
658.711	36.91
659.038	37.07
659.365	36.98
659.693	36.83
660.02	37.17
660.347	37.51
660.674	36.97
661.001	37.32
661.329	37.07
661.656	37.02
661.982	37.03
662.309	37.49
662.636	37.46
662.963	37.77
663.29	37.4
663.616	37.39
663.943	37.2
664.27	37.49
664.596	37.52
664.923	37.93
665.249	38.55
665.576	37.75
665.902	37.7
666.228	37.7
666.554	38.09
666.881	38.21
667.207	38.29
667.533	38.01
667.859	38.06
668.185	37.86
668.511	37.66
668.837	37.99
669.162	38.78
669.488	37.38
669.814	37.73
670.139	38.28
670.465	38.15
670.791	38.02
671.116	38.19
671.442	38.18
671.767	37.94
672.092	38.13
672.418	38.87
672.743	38.26
673.068	38.37
673.393	38.53
673.718	38.67
674.043	38.36
674.368	38.26
674.693	38.76
675.018	38.61
