Data from 22-4_chest_Reflection__0__196.txt Node

Date: Thu Dec 15 18:01:56 CST 2022
User: ToomeyLab
Spectrometer: FLMS14357
Trigger mode: 0
Integration Time (sec): 1.000000E-2
Scans to average: 100
Electric dark correction enabled: true
Nonlinearity correction enabled: false
Boxcar width: 0
XAxis mode: Wavelengths
Number of Pixels in Spectrum: 2048
>>>>>Begin Spectral Data<<<<<
189.047	-91.2
189.435	-91.2
189.823	-91.2
190.211	175.24
190.599	488.96
190.987	13.54
191.375	-1.33
191.763	43.08
192.151	445.35
192.538	326.67
192.926	69.73
193.314	161.75
193.702	-765.65
194.089	-140.06
194.477	109.69
194.864	157.41
195.252	256.69
195.639	125.19
196.027	57.71
196.414	670.05
196.801	116.2
197.189	64.31
197.576	37.75
197.963	126.55
198.351	-9.81
198.738	-33.8
199.125	-37.35
199.512	43.62
199.899	-66.61
200.286	-58.12
200.673	56.78
201.06	12.6
201.447	-7.35
201.833	13.41
202.22	0.43
202.607	-42.45
202.994	-19.3
203.38	1.23
203.767	22.38
204.154	31.05
204.54	24.9
204.927	8.94
205.313	-3.17
205.699	3.06
206.086	1.47
206.472	46.99
206.858	0.08
207.245	4.59
207.631	-14.26
208.017	43.55
208.403	-97.14
208.789	1.21
209.175	7.37
209.561	-103.4
209.947	-19.12
210.333	-39.22
210.719	46.76
211.105	44.72
211.491	67.79
211.876	14.67
212.262	20.34
212.648	13.72
213.034	21.16
213.419	36.9
213.805	-28.2
214.19	-4.25
214.576	-13.9
214.961	33.22
215.346	-6.38
215.732	6.12
216.117	15.63
216.502	-30.22
216.888	-0.12
217.273	-9.82
217.658	-6.02
218.043	-21.98
218.428	-12.73
218.813	6.24
219.198	-15.49
219.583	-14.47
219.968	-12.6
220.353	-52.98
220.738	5.85
221.122	-7.78
221.507	-12.7
221.892	-10.09
222.276	-32.33
222.661	-27.03
223.046	-4.77
223.43	10.4
223.815	1.4
224.199	-3.8
224.583	0.41
224.968	6.51
225.352	-6.47
225.736	9.98
226.121	-6.18
226.505	-2.27
226.889	1.7
227.273	-8.32
227.657	4.65
228.041	-0.1
228.425	2.48
228.809	0.84
229.193	-0.31
229.577	1.45
229.961	1.71
230.344	1.85
230.728	2.67
231.112	3.27
231.495	0.45
231.879	1.96
232.263	1.1
232.646	1.35
233.03	2.52
233.413	1.48
233.797	-1.41
234.18	1.14
234.563	2.67
234.946	4.32
235.33	1.09
235.713	2.66
236.096	3.58
236.479	4.05
236.862	1.22
237.245	2.89
237.628	3.08
238.011	1.78
238.394	0.62
238.777	2.13
239.16	3.87
239.543	2.18
239.925	1.04
240.308	0.26
240.691	2.18
241.073	1.29
241.456	1.88
241.838	2.5
242.221	3.02
242.603	2.84
242.986	2.23
243.368	2.69
243.75	2.62
244.133	2.67
244.515	2.56
244.897	2.36
245.279	2.32
245.661	2.58
246.043	3.05
246.425	1.53
246.807	2.35
247.189	2.85
247.571	1.99
247.953	2.21
248.335	2.71
248.717	3.04
249.098	2.84
249.48	2.59
249.862	2.52
250.243	3.11
250.625	2.64
251.006	2.82
251.388	2.02
251.769	2.23
252.151	2.89
252.532	2.43
252.913	3.25
253.295	3.06
253.676	3.17
254.057	3.14
254.438	2.97
254.819	2.59
255.2	3.14
255.581	3.26
255.962	2.94
256.343	3.17
256.724	3.19
257.105	2.77
257.486	1.81
257.867	2.35
258.247	3
258.628	2.98
259.009	2.62
259.389	1.74
259.77	1.99
260.15	2.81
260.531	2.87
260.911	2.64
261.292	2.8
261.672	2.71
262.052	2.89
262.432	2.16
262.813	2.63
263.193	3.05
263.573	2.07
263.953	2
264.333	2.48
264.713	3.13
265.093	2.37
265.473	1.6
265.853	3.33
266.233	2.63
266.612	1.88
266.992	2.78
267.372	3.49
267.752	2.76
268.131	2.39
268.511	2.42
268.89	3.37
269.27	1.57
269.649	2.22
270.029	2.18
270.408	3.11
270.787	2.87
271.167	2.82
271.546	2.73
271.925	2.9
272.304	2.95
272.683	1.94
273.062	2.25
273.441	2.17
273.82	2.87
274.199	2.29
274.578	2.84
274.957	2.66
275.336	2.79
275.715	2.97
276.093	2.3
276.472	2.33
276.851	2.77
277.229	2.14
277.608	2.28
277.986	2.19
278.365	2.75
278.743	2.22
279.122	2.59
279.5	2.85
279.878	1.48
280.257	2.18
280.635	2.79
281.013	2.64
281.391	2.56
281.769	2.79
282.147	2.55
282.525	2.47
282.903	1.98
283.281	3.05
283.659	2.79
284.037	2.14
284.415	2.43
284.792	2.71
285.17	2.22
285.548	2.38
285.925	2.73
286.303	2.87
286.68	2.52
287.058	2.74
287.435	2.59
287.813	2.73
288.19	2.74
288.567	2.66
288.945	2.49
289.322	2.92
289.699	2.69
290.076	2.7
290.453	2.61
290.83	2.81
291.207	2.51
291.584	3.27
291.961	2.62
292.338	2.63
292.715	2.53
293.092	2.64
293.469	3.08
293.845	3.19
294.222	3.23
294.599	2.34
294.975	2.54
295.352	3.57
295.728	3.24
296.105	2.74
296.481	2.72
296.858	3.36
297.234	3.12
297.61	3.09
297.986	3.44
298.363	3.22
298.739	3.46
299.115	3.4
299.491	3.48
299.867	3.11
300.243	2.91
300.619	3.04
300.995	2.94
301.371	3.27
301.746	3.42
302.122	2.62
302.498	3.21
302.874	3.71
303.249	3.36
303.625	3.03
304	3.73
304.376	3.61
304.751	3.45
305.127	2.87
305.502	3.35
305.878	3.74
306.253	3.14
306.628	3.47
307.003	3.51
307.378	3.27
307.754	3.61
308.129	3.2
308.504	3.71
308.879	3.76
309.254	3.87
309.629	3.38
310.003	3.31
310.378	3.65
310.753	3.59
311.128	3.25
311.502	3.58
311.877	3.52
312.252	3.78
312.626	4.15
313.001	3.61
313.375	3.91
313.75	3.86
314.124	3.81
314.498	3.88
314.873	3.59
315.247	3.88
315.621	3.51
315.995	3.57
316.369	3.14
316.743	3.31
317.117	3.48
317.491	3.61
317.865	3.58
318.239	4.51
318.613	4.07
318.987	3.47
319.361	3.74
319.734	3.8
320.108	3.85
320.482	4.16
320.855	3.84
321.229	3.5
321.602	4.24
321.976	3.4
322.349	5.06
322.723	3.54
323.096	3.65
323.469	3.66
323.843	3.2
324.216	4.12
324.589	4.11
324.962	3.31
325.335	3.38
325.708	4.14
326.081	3.9
326.454	4.34
326.827	4.21
327.2	3.44
327.573	4.46
327.945	3.71
328.318	3.99
328.691	4.13
329.063	3.47
329.436	3.71
329.809	4.19
330.181	4.51
330.553	4.47
330.926	4.35
331.298	3.87
331.671	4.32
332.043	3.89
332.415	4.01
332.787	4.37
333.159	3.98
333.532	4.36
333.904	4.13
334.276	4.04
334.648	4.13
335.02	3.63
335.391	3.99
335.763	4.26
336.135	4.23
336.507	3.91
336.879	4.67
337.25	3.95
337.622	4.13
337.993	3.92
338.365	4.04
338.736	4.11
339.108	4.31
339.479	4.38
339.851	4.54
340.222	4.76
340.593	4.37
340.964	4.25
341.336	4.17
341.707	4.35
342.078	3.91
342.449	3.9
342.82	4.2
343.191	4.17
343.562	4.24
343.933	3.88
344.303	3.93
344.674	4.18
345.045	4.25
345.416	4.52
345.786	3.99
346.157	4.71
346.527	3.94
346.898	3.76
347.268	4.25
347.639	4.22
348.009	4.52
348.38	4.05
348.75	4.21
349.12	4.46
349.49	4.56
349.861	4.33
350.231	4.32
350.601	3.98
350.971	4.07
351.341	4.43
351.711	4.24
352.081	4.17
352.45	4.11
352.82	3.64
353.19	4.14
353.56	4.25
353.929	4.54
354.299	4.52
354.669	4.44
355.038	4.58
355.408	4.38
355.777	4.34
356.147	4.36
356.516	3.86
356.885	4
357.254	4.43
357.624	4.38
357.993	4.55
358.362	4.47
358.731	4.71
359.1	4.48
359.469	4.5
359.838	4.46
360.207	4.28
360.576	4.4
360.945	4.44
361.314	4.14
361.682	4.07
362.051	4.57
362.42	4.41
362.788	4.44
363.157	4.27
363.525	4.5
363.894	4.24
364.262	4.37
364.631	4.75
364.999	4.2
365.367	4.33
365.735	4.32
366.104	4.5
366.472	4.4
366.84	4.37
367.208	4.69
367.576	4.36
367.944	4.66
368.312	4.47
368.68	4.67
369.048	4.52
369.416	4.57
369.783	4.49
370.151	4.95
370.519	4.76
370.886	4.42
371.254	4.76
371.621	4.61
371.989	4.73
372.356	4.72
372.724	4.44
373.091	4.43
373.458	4.29
373.826	4.73
374.193	4.34
374.56	4.51
374.927	4.73
375.294	4.76
375.661	4.62
376.028	4.2
376.395	4.94
376.762	4.39
377.129	4.63
377.496	4.65
377.863	4.64
378.229	4.77
378.596	4.83
378.963	4.88
379.329	4.74
379.696	4.43
380.062	4.78
380.429	4.38
380.795	4.87
381.161	4.52
381.528	4.3
381.894	4.63
382.26	5.11
382.626	4.92
382.993	5.02
383.359	4.81
383.725	4.36
384.091	4.85
384.457	4.58
384.823	4.88
385.188	4.94
385.554	4.77
385.92	4.7
386.286	4.65
386.651	4.72
387.017	4.8
387.383	4.85
387.748	4.87
388.114	4.85
388.479	4.82
388.845	4.75
389.21	5
389.575	5.19
389.94	4.83
390.306	5.04
390.671	4.84
391.036	4.78
391.401	4.87
391.766	4.8
392.131	5.36
392.496	4.84
392.861	4.66
393.226	4.75
393.591	4.9
393.956	4.91
394.32	5.04
394.685	4.65
395.05	5.03
395.414	5.01
395.779	5.04
396.143	4.86
396.508	4.89
396.872	4.93
397.236	5.37
397.601	5.2
397.965	5.06
398.329	4.92
398.694	4.96
399.058	4.98
399.422	4.8
399.786	4.97
400.15	5.06
400.514	4.81
400.878	5
401.242	4.94
401.605	5.12
401.969	4.84
402.333	5.02
402.697	5.1
403.06	5.02
403.424	5.14
403.787	4.9
404.151	5.15
404.514	5.05
404.878	4.76
405.241	5.05
405.604	4.88
405.968	5.06
406.331	5.18
406.694	5.07
407.057	4.89
407.42	5.04
407.783	5.27
408.146	4.97
408.509	5
408.872	5.22
409.235	5.16
409.598	5.06
409.961	5.06
410.323	5.15
410.686	5.11
411.049	5.33
411.411	5.05
411.774	5.28
412.136	5.11
412.499	5.42
412.861	4.98
413.223	5.11
413.586	5.2
413.948	5.3
414.31	5.27
414.672	4.88
415.035	5.35
415.397	5.04
415.759	5.07
416.121	5.35
416.483	4.9
416.845	5.4
417.206	5.28
417.568	5.18
417.93	5.33
418.292	5.24
418.653	5.03
419.015	5.25
419.377	5.2
419.738	5.21
420.1	5.26
420.461	5.1
420.822	5.24
421.184	5.23
421.545	5.35
421.906	5.27
422.267	5.14
422.629	5.17
422.99	5.21
423.351	5.26
423.712	5.2
424.073	5.29
424.434	5.2
424.795	5.12
425.155	5.1
425.516	5.23
425.877	5.21
426.238	5.28
426.598	5.17
426.959	5.29
427.32	5.35
427.68	5.3
428.041	5.44
428.401	5.21
428.761	5.42
429.122	5.34
429.482	5.29
429.842	5.31
430.202	5.48
430.563	5.33
430.923	5.36
431.283	5.56
431.643	5.47
432.003	5.42
432.363	5.57
432.722	5.49
433.082	5.47
433.442	5.55
433.802	5.42
434.161	5.5
434.521	5.52
434.881	5.49
435.24	5.44
435.6	5.51
435.959	5.44
436.319	5.35
436.678	5.53
437.037	5.49
437.396	5.51
437.756	5.65
438.115	5.51
438.474	5.66
438.833	5.64
439.192	5.48
439.551	5.53
439.91	5.46
440.269	5.55
440.628	5.52
440.987	5.55
441.345	5.54
441.704	5.62
442.063	5.52
442.421	5.53
442.78	5.48
443.138	5.61
443.497	5.59
443.855	5.73
444.214	5.62
444.572	5.82
444.93	5.81
445.288	5.63
445.647	5.53
446.005	5.54
446.363	5.65
446.721	5.6
447.079	5.51
447.437	5.57
447.795	5.63
448.153	5.63
448.51	5.6
448.868	5.62
449.226	5.67
449.584	5.74
449.941	5.71
450.299	5.67
450.656	5.78
451.014	5.78
451.371	5.9
451.729	5.75
452.086	5.8
452.443	5.91
452.801	5.71
453.158	6.02
453.515	5.84
453.872	5.63
454.229	5.54
454.586	5.8
454.943	5.98
455.3	6.01
455.657	5.7
456.014	5.94
456.371	5.98
456.727	6.01
457.084	6.09
457.441	6.07
457.797	5.93
458.154	6.03
458.51	5.8
458.867	5.99
459.223	5.89
459.58	5.82
459.936	5.84
460.292	6
460.648	5.8
461.005	5.83
461.361	5.88
461.717	5.9
462.073	5.9
462.429	5.95
462.785	6.15
463.141	6.01
463.496	6.02
463.852	6.11
464.208	6.02
464.564	6.15
464.919	5.98
465.275	6.08
465.631	6.22
465.986	6.03
466.342	5.89
466.697	6.06
467.052	6.27
467.408	6.18
467.763	6.13
468.118	6.06
468.473	6.17
468.829	5.9
469.184	6.1
469.539	6.02
469.894	6.29
470.249	6.36
470.603	6.23
470.958	6.25
471.313	6.11
471.668	6.29
472.023	6.28
472.377	6.2
472.732	6.35
473.086	6.27
473.441	6.26
473.795	6.52
474.15	6.26
474.504	6.21
474.859	6.03
475.213	6.25
475.567	6.28
475.921	6.53
476.275	6.52
476.63	6.35
476.984	6.25
477.338	6.44
477.692	6.38
478.045	6.45
478.399	6.24
478.753	6.43
479.107	6.53
479.461	6.28
479.814	6.38
480.168	6.33
480.521	6.44
480.875	6.32
481.228	6.44
481.582	6.38
481.935	6.47
482.289	6.37
482.642	6.5
482.995	6.33
483.348	6.29
483.701	6.42
484.055	6.36
484.408	6.39
484.761	6.22
485.114	6.12
485.466	6.07
485.819	6.09
486.172	6.14
486.525	6.24
486.878	6.27
487.23	6.33
487.583	6.43
487.936	6.32
488.288	6.32
488.641	6.33
488.993	6.29
489.345	6.31
489.698	6.32
490.05	6.31
490.402	6.37
490.754	6.47
491.107	6.47
491.459	6.54
491.811	6.57
492.163	6.48
492.515	6.45
492.866	6.41
493.218	6.43
493.57	6.46
493.922	6.44
494.274	6.59
494.625	6.67
494.977	6.62
495.328	6.79
495.68	6.76
496.031	6.83
496.383	6.75
496.734	6.76
497.086	6.95
497.437	6.87
497.788	6.87
498.139	6.84
498.49	6.75
498.842	6.88
499.193	6.76
499.544	6.85
499.894	6.89
500.245	6.9
500.596	6.94
500.947	6.85
501.298	6.83
501.648	7.03
501.999	6.97
502.35	6.99
502.7	7.09
503.051	7.02
503.401	7.14
503.752	6.95
504.102	7.1
504.452	6.96
504.803	6.99
505.153	7.18
505.503	7
505.853	7.06
506.203	7.15
506.553	6.97
506.903	7.12
507.253	7.08
507.603	7.16
507.953	7.07
508.303	7.24
508.652	7.1
509.002	7.29
509.352	7.29
509.701	7.1
510.051	7.13
510.4	7.24
510.75	7.05
511.099	7.05
511.449	7.28
511.798	7.22
512.147	7.16
512.496	7.21
512.846	7.24
513.195	7.19
513.544	7.31
513.893	7.32
514.242	7.33
514.591	7.29
514.939	7.29
515.288	7.33
515.637	7.32
515.986	7.32
516.334	7.34
516.683	7.41
517.032	7.39
517.38	7.31
517.729	7.48
518.077	7.36
518.426	7.54
518.774	7.41
519.122	7.43
519.47	7.43
519.819	7.38
520.167	7.38
520.515	7.44
520.863	7.44
521.211	7.46
521.559	7.55
521.907	7.56
522.255	7.5
522.602	7.56
522.95	7.6
523.298	7.66
523.645	7.65
523.993	7.7
524.341	7.78
524.688	7.75
525.036	7.74
525.383	7.77
525.73	7.62
526.078	7.75
526.425	7.71
526.772	7.61
527.119	7.66
527.466	7.66
527.814	7.63
528.161	7.69
528.508	7.78
528.854	7.77
529.201	7.64
529.548	7.61
529.895	7.52
530.242	7.57
530.588	7.58
530.935	7.58
531.282	7.59
531.628	7.7
531.975	7.74
532.321	7.83
532.667	7.84
533.014	7.94
533.36	7.93
533.706	7.93
534.052	7.94
534.399	7.91
534.745	7.88
535.091	7.83
535.437	7.88
535.783	7.94
536.129	7.96
536.474	8.12
536.82	8.14
537.166	7.98
537.512	8.05
537.857	8.14
538.203	8.12
538.549	8.07
538.894	8.17
539.239	8.19
539.585	8.25
539.93	8.32
540.276	8.44
540.621	8.36
540.966	8.46
541.311	8.41
541.656	8.38
542.001	8.34
542.346	8.19
542.691	8.18
543.036	8.19
543.381	8.22
543.726	8.24
544.071	8.31
544.415	8.32
544.76	8.34
545.105	8.4
545.449	8.42
545.794	8.48
546.138	8.57
546.483	8.64
546.827	8.6
547.171	8.67
547.516	8.61
547.86	8.64
548.204	8.69
548.548	8.74
548.892	8.65
549.236	8.82
549.58	8.8
549.924	8.95
550.268	9.09
550.612	8.94
550.956	8.98
551.3	9.2
551.643	9.03
551.987	9.11
552.33	9.21
552.674	8.98
553.017	9.13
553.361	9.11
553.704	9.12
554.048	9.09
554.391	9.26
554.734	9.03
555.077	9.05
555.42	9.17
555.764	9.19
556.107	9.32
556.45	9.31
556.793	9.45
557.135	9.22
557.478	9.43
557.821	9.25
558.164	9.4
558.507	9.18
558.849	9.52
559.192	9.51
559.534	9.38
559.877	9.42
560.219	9.52
560.562	9.38
560.904	9.64
561.246	9.48
561.589	9.7
561.931	9.47
562.273	9.59
562.615	9.56
562.957	9.65
563.299	9.66
563.641	9.79
563.983	9.52
564.325	9.66
564.667	9.71
565.008	9.6
565.35	9.65
565.692	9.85
566.033	9.85
566.375	9.71
566.716	9.82
567.058	9.84
567.399	9.8
567.741	9.81
568.082	10.01
568.423	9.76
568.764	9.97
569.105	9.93
569.447	10.03
569.788	10.03
570.129	10.15
570.47	10.12
570.811	10.08
571.151	10.15
571.492	10.1
571.833	10.1
572.174	10.29
572.514	10.13
572.855	10.23
573.195	10.13
573.536	10.21
573.876	10.21
574.217	10.13
574.557	10.27
574.898	10.27
575.238	10.43
575.578	10.49
575.918	10.47
576.258	10.46
576.598	10.41
576.938	10.42
577.278	10.47
577.618	10.56
577.958	10.61
578.298	10.63
578.638	10.49
578.977	10.9
579.317	10.61
579.657	10.85
579.996	10.85
580.336	10.76
580.675	10.68
581.014	10.89
581.354	10.61
581.693	10.88
582.032	11.04
582.372	10.99
582.711	10.75
583.05	10.79
583.389	11
583.728	11.02
584.067	10.83
584.406	11.19
584.745	10.93
585.083	11.21
585.422	11.27
585.761	11.37
586.1	11.19
586.438	11.12
586.777	11.3
587.115	11.3
587.454	11.12
587.792	11.27
588.13	11.41
588.469	11.11
588.807	11.31
589.145	11.47
589.483	11.28
589.821	11.52
590.159	11.46
590.497	11.36
590.835	11.34
591.173	11.64
591.511	11.45
591.849	11.63
592.187	11.47
592.524	11.78
592.862	11.52
593.2	11.63
593.537	11.5
593.875	11.65
594.212	11.73
594.55	11.7
594.887	11.96
595.224	11.68
595.561	11.79
595.899	11.8
596.236	11.81
596.573	11.91
596.91	11.86
597.247	12.11
597.584	11.87
597.921	11.88
598.258	12.01
598.594	11.97
598.931	11.72
599.268	11.8
599.604	12
599.941	12.02
600.277	12.01
600.614	11.94
600.95	11.92
601.287	11.87
601.623	11.91
601.959	12.29
602.296	12.25
602.632	12.18
602.968	12.2
603.304	12.57
603.64	12.09
603.976	12.03
604.312	12.27
604.648	12.43
604.984	12.5
605.319	12.32
605.655	12.28
605.991	12.3
606.326	12.4
606.662	12.21
606.998	12.31
607.333	12.42
607.668	12.4
608.004	12.18
608.339	12.61
608.674	12.69
609.01	13.22
609.345	12.63
609.68	12.7
610.015	12.85
610.35	12.93
610.685	12.43
611.02	12.75
611.355	13.02
611.689	12.66
612.024	12.75
612.359	13.18
612.694	12.71
613.028	12.92
613.363	13.12
613.697	13.08
614.032	12.87
614.366	12.85
614.7	13.06
615.035	13.13
615.369	13.18
615.703	13.37
616.037	13.58
616.371	13
616.705	13.32
617.039	13.56
617.373	12.9
617.707	13.5
618.041	13.2
618.375	12.86
618.709	13.59
619.042	13.4
619.376	13.47
619.71	13.49
620.043	13.67
620.377	13.56
620.71	13.3
621.043	13.73
621.377	13.85
621.71	13.61
622.043	13.78
622.376	13.92
622.709	13.75
623.043	13.86
623.376	13.55
623.709	13.78
624.041	13.72
624.374	13.68
624.707	13.99
625.04	13.64
625.373	13.74
625.705	13.97
626.038	13.85
626.37	13.78
626.703	14.01
627.035	13.63
627.368	14.25
627.7	14.11
628.032	13.85
628.365	14.14
628.697	14.14
629.029	13.91
629.361	14.25
629.693	14.17
630.025	14.39
630.357	14.2
630.689	14.17
631.021	14.17
631.353	14.1
631.684	14.35
632.016	14.05
632.348	13.94
632.679	14.39
633.011	14.47
633.342	14.07
633.674	14.41
634.005	14.53
634.336	14.47
634.668	14.47
634.999	14.45
635.33	14.24
635.661	14.6
635.992	14.48
636.323	14.78
636.654	14.56
636.985	14.48
637.316	14.64
637.647	14.73
637.977	14.63
638.308	14.98
638.639	14.64
638.969	14.6
639.3	14.9
639.63	14.59
639.961	14.92
640.291	14.68
640.622	14.66
640.952	15.21
641.282	14.37
641.612	15.28
641.943	15.02
642.273	14.68
642.603	14.99
642.933	15.61
643.263	15.37
643.592	15.65
643.922	15.44
644.252	15.08
644.582	15.29
644.911	15.4
645.241	15.09
645.571	15.42
645.9	15.37
646.23	15.56
646.559	15.23
646.888	15.55
647.218	14.84
647.547	15.83
647.876	14.68
648.205	14.76
648.534	15.23
648.863	15.31
649.192	15.74
649.521	15.65
649.85	15.15
650.179	16.12
650.508	15.27
650.837	15.57
651.165	15.94
651.494	15.59
651.822	15.54
652.151	15.57
652.479	15.88
652.808	15.46
653.136	15.25
653.465	15.45
653.793	16.12
654.121	15.96
654.449	15.98
654.777	15.25
655.105	15.17
655.433	15.96
655.761	15.77
656.089	15.45
656.417	16.13
656.745	16.61
657.073	16.21
657.4	15.91
657.728	15.53
658.056	15.59
658.383	16.03
658.711	16.41
659.038	16.23
659.365	16.72
659.693	16
660.02	15.78
660.347	16.09
660.674	16.32
661.001	16.02
661.329	16.1
661.656	15.87
661.982	16.06
662.309	16.25
662.636	16.67
662.963	16.49
663.29	16.03
663.616	16.34
663.943	16.74
664.27	16.2
664.596	16.36
664.923	16.84
665.249	16.62
665.576	16.17
665.902	15.92
666.228	16.88
666.554	17.02
666.881	16.08
667.207	17.48
667.533	16.64
667.859	16.76
668.185	16.19
668.511	16.68
668.837	16.91
669.162	16.77
669.488	15.99
669.814	17.02
670.139	15.93
670.465	16.72
670.791	16.99
671.116	16.49
671.442	16.32
671.767	16.91
672.092	16.99
672.418	16.89
672.743	17.05
673.068	16.95
673.393	16.54
673.718	16.31
674.043	16.85
674.368	16.85
674.693	16.86
675.018	17.79
675.343	17.56
675.667	16.92
675.992	17.13
676.317	16.5
676.641	17.19
676.966	17.34
677.29	17.18
677.615	17.06
677.939	17.3
678.264	17.49
678.588	18.11
678.912	16.76
679.236	17.08
679.56	17.37
679.885	17.11
680.209	17.52
680.532	17.69
680.856	17.75
681.18	17.96
681.504	17.29
681.828	17.45
682.152	17.53
682.475	17.58
682.799	17
683.122	17.39
683.446	17.23
683.769	17.6
684.093	17.69
684.416	17.61
