Data from 22-4_crown_Reflection__4__205.txt Node

Date: Thu Dec 15 18:04:43 CST 2022
User: ToomeyLab
Spectrometer: FLMS14357
Trigger mode: 0
Integration Time (sec): 1.000000E-2
Scans to average: 100
Electric dark correction enabled: true
Nonlinearity correction enabled: false
Boxcar width: 0
XAxis mode: Wavelengths
Number of Pixels in Spectrum: 2048
>>>>>Begin Spectral Data<<<<<
189.047	-44.94
189.435	-44.94
189.823	-44.94
190.211	-13.77
190.599	1934.05
190.987	113.46
191.375	7.05
191.763	136.1
192.151	153.6
192.538	-26.12
192.926	97.61
193.314	430.93
193.702	965.27
194.089	159.1
194.477	131.12
194.864	103.83
195.252	112.75
195.639	65.04
196.027	441.26
196.414	808.82
196.801	-34.14
197.189	35.2
197.576	-106.75
197.963	188.94
198.351	21.63
198.738	-18.29
199.125	-34.64
199.512	40.35
199.899	-6.72
200.286	-47.93
200.673	64.76
201.06	7.32
201.447	7.91
201.833	23.81
202.22	-32.3
202.607	-10.7
202.994	-13.78
203.38	7.56
203.767	-0.52
204.154	18.04
204.54	19.02
204.927	2.57
205.313	55.75
205.699	-10.2
206.086	30.69
206.472	31.96
206.858	-20.22
207.245	-19.25
207.631	-11.13
208.017	37.47
208.403	-44.58
208.789	-22.18
209.175	10.51
209.561	-50.21
209.947	-5.76
210.333	-14.68
210.719	7.29
211.105	23.38
211.491	24.6
211.876	-52.94
212.262	0.01
212.648	18.36
213.034	4.08
213.419	12.61
213.805	10.56
214.19	-37.79
214.576	-14.07
214.961	12.38
215.346	-6.55
215.732	6.07
216.117	5.95
216.502	26.28
216.888	14.93
217.273	-3.8
217.658	0.59
218.043	-39.43
218.428	-21.19
218.813	24.1
219.198	-38.91
219.583	18.01
219.968	-7.11
220.353	8.62
220.738	-7.02
221.122	7.42
221.507	-23.67
221.892	-47.46
222.276	-9.43
222.661	-11.78
223.046	-9.31
223.43	15.22
223.815	3.09
224.199	-0.16
224.583	9.21
224.968	3.81
225.352	-10.55
225.736	14.64
226.121	-5.04
226.505	-6.26
226.889	-1.01
227.273	-9.03
227.657	2.98
228.041	2.42
228.425	-0.28
228.809	-2.07
229.193	0.95
229.577	2.38
229.961	2.33
230.344	3.62
230.728	3.11
231.112	3.46
231.495	2.27
231.879	2.95
232.263	3.67
232.646	2.61
233.03	2.63
233.413	3.63
233.797	1.49
234.18	1.39
234.563	2.68
234.946	0.61
235.33	1.64
235.713	3.58
236.096	4.48
236.479	3.61
236.862	2.83
237.245	1.34
237.628	3.97
238.011	3.31
238.394	0.93
238.777	3.65
239.16	4.04
239.543	5.38
239.925	3.21
240.308	2.54
240.691	2.11
241.073	2.62
241.456	3.33
241.838	2.67
242.221	4.3
242.603	3.51
242.986	3.68
243.368	3.67
243.75	3.48
244.133	3.72
244.515	3.24
244.897	3.05
245.279	2.71
245.661	2.57
246.043	3.59
246.425	2.49
246.807	3.72
247.189	2.84
247.571	3.13
247.953	3.07
248.335	3.4
248.717	3.47
249.098	3.22
249.48	3.33
249.862	3.83
250.243	3.45
250.625	3.76
251.006	4
251.388	2.8
251.769	1.9
252.151	4.57
252.532	2.85
252.913	2.78
253.295	2.95
253.676	3.42
254.057	3.21
254.438	2.86
254.819	3.61
255.2	3.77
255.581	3.59
255.962	2.93
256.343	3.73
256.724	2.84
257.105	2.47
257.486	2.04
257.867	3.02
258.247	3.13
258.628	3.01
259.009	2.37
259.389	2.49
259.77	2.6
260.15	3.98
260.531	3
260.911	3.31
261.292	3.21
261.672	3.24
262.052	3.29
262.432	3.21
262.813	2.93
263.193	3.27
263.573	3.6
263.953	2.47
264.333	2.84
264.713	3.39
265.093	2.78
265.473	2.16
265.853	2.96
266.233	3.1
266.612	2.49
266.992	2.35
267.372	3.71
267.752	3.62
268.131	2.88
268.511	2.73
268.89	3.54
269.27	2.33
269.649	2.5
270.029	3.11
270.408	2.54
270.787	2.56
271.167	3.22
271.546	3.73
271.925	3.58
272.304	3.23
272.683	2.55
273.062	2.74
273.441	2.98
273.82	2.85
274.199	3.2
274.578	3.27
274.957	3.1
275.336	3.23
275.715	3.36
276.093	2.47
276.472	2.43
276.851	3.05
277.229	2.44
277.608	2.67
277.986	3.21
278.365	3.42
278.743	3.13
279.122	2.6
279.5	3.58
279.878	2.46
280.257	2.79
280.635	3.44
281.013	2.72
281.391	2.62
281.769	3.74
282.147	2.75
282.525	2.27
282.903	2.7
283.281	3.37
283.659	3.07
284.037	2.66
284.415	2.24
284.792	2.76
285.17	2.92
285.548	3.28
285.925	2.63
286.303	3.37
286.68	2.99
287.058	3.07
287.435	2.59
287.813	2.8
288.19	2.97
288.567	2.74
288.945	2.72
289.322	2.77
289.699	3.02
290.076	3.17
290.453	2.42
290.83	3.02
291.207	2.69
291.584	3.21
291.961	2.86
292.338	2.74
292.715	2.93
293.092	2.94
293.469	3.18
293.845	2.7
294.222	3.1
294.599	2.21
294.975	1.99
295.352	3.1
295.728	2.75
296.105	2.66
296.481	2.79
296.858	2.54
297.234	2.57
297.61	2.94
297.986	3.4
298.363	2.85
298.739	3.13
299.115	2.91
299.491	3.02
299.867	2.91
300.243	2.9
300.619	2.57
300.995	2.73
301.371	3.05
301.746	3.04
302.122	2.05
302.498	2.48
302.874	2.74
303.249	2.6
303.625	2.75
304	3.14
304.376	2.98
304.751	2.95
305.127	2.66
305.502	2.47
305.878	3
306.253	2.33
306.628	2.67
307.003	2.96
307.378	2.7
307.754	2.21
308.129	3.02
308.504	2.82
308.879	3.19
309.254	2.98
309.629	2.96
310.003	2.87
310.378	2.94
310.753	2.54
311.128	2.55
311.502	2.51
311.877	2.71
312.252	2.52
312.626	2.93
313.001	2.97
313.375	2.98
313.75	3.01
314.124	3.01
314.498	2.83
314.873	2.24
315.247	2
315.621	2.8
315.995	2.52
316.369	2.31
316.743	2.5
317.117	2.45
317.491	2.79
317.865	2.25
318.239	3.3
318.613	2.53
318.987	1.93
319.361	2.37
319.734	2.52
320.108	2.68
320.482	2.74
320.855	2.52
321.229	2.86
321.602	2.49
321.976	2.41
322.349	3.22
322.723	2.5
323.096	2.71
323.469	2.93
323.843	2.06
324.216	2.53
324.589	2.66
324.962	2.41
325.335	2.22
325.708	2.56
326.081	2.68
326.454	2.81
326.827	2.54
327.2	2.06
327.573	2.51
327.945	2.14
328.318	2.38
328.691	2.85
329.063	2.35
329.436	2.35
329.809	2.52
330.181	3.29
330.553	2.91
330.926	3.48
331.298	2.58
331.671	2.87
332.043	2.4
332.415	2.69
332.787	3.03
333.159	2.29
333.532	2.94
333.904	2.7
334.276	2.46
334.648	2.75
335.02	2.57
335.391	2.44
335.763	2.35
336.135	2.48
336.507	2.62
336.879	2.69
337.25	2.57
337.622	2.62
337.993	2.57
338.365	2.67
338.736	2.77
339.108	2.7
339.479	2.35
339.851	2.79
340.222	3.05
340.593	2.5
340.964	2.78
341.336	2.42
341.707	2.3
342.078	2.5
342.449	2.36
342.82	2.62
343.191	2.71
343.562	2.8
343.933	2.85
344.303	3.1
344.674	2.88
345.045	2.6
345.416	2.51
345.786	2.58
346.157	2.96
346.527	2.82
346.898	2.17
347.268	2.65
347.639	2.46
348.009	3.05
348.38	2.46
348.75	2.29
349.12	2.79
349.49	2.73
349.861	2.62
350.231	2.13
350.601	2.59
350.971	2.46
351.341	2.53
351.711	2.71
352.081	2.28
352.45	2.12
352.82	2.28
353.19	2.45
353.56	2.6
353.929	3.08
354.299	2.95
354.669	2.75
355.038	2.91
355.408	2.46
355.777	2.62
356.147	2.41
356.516	2.44
356.885	2.62
357.254	2.34
357.624	2.24
357.993	2.61
358.362	2.62
358.731	2.59
359.1	2.63
359.469	2.67
359.838	2.59
360.207	2.58
360.576	2.62
360.945	2.54
361.314	2.5
361.682	2.39
362.051	2.46
362.42	2.8
362.788	2.54
363.157	2.56
363.525	2.71
363.894	2.51
364.262	2.51
364.631	2.96
364.999	2.72
365.367	2.52
365.735	2.69
366.104	2.64
366.472	2.52
366.84	2.52
367.208	2.53
367.576	2.62
367.944	2.41
368.312	2.67
368.68	2.69
369.048	2.61
369.416	2.58
369.783	2.69
370.151	2.97
370.519	2.91
370.886	2.63
371.254	2.91
371.621	2.92
371.989	2.87
372.356	2.71
372.724	2.58
373.091	2.44
373.458	2.65
373.826	2.51
374.193	2.93
374.56	2.71
374.927	2.39
375.294	2.87
375.661	2.68
376.028	2.69
376.395	2.78
376.762	2.54
377.129	2.22
377.496	2.58
377.863	2.71
378.229	3.05
378.596	2.85
378.963	2.5
379.329	2.76
379.696	2.62
380.062	2.77
380.429	2.35
380.795	2.85
381.161	2.55
381.528	2.35
381.894	2.55
382.26	2.92
382.626	2.85
382.993	2.96
383.359	2.62
383.725	2.35
384.091	2.9
384.457	2.63
384.823	2.93
385.188	2.76
385.554	2.68
385.92	2.41
386.286	2.61
386.651	2.47
387.017	2.98
387.383	2.71
387.748	2.83
388.114	2.69
388.479	2.66
388.845	2.66
389.21	3.04
389.575	2.83
389.94	2.55
390.306	2.54
390.671	2.55
391.036	2.41
391.401	2.77
391.766	2.81
392.131	2.84
392.496	2.69
392.861	2.78
393.226	2.75
393.591	2.7
393.956	2.81
394.32	2.87
394.685	2.68
395.05	2.79
395.414	2.59
395.779	2.81
396.143	2.79
396.508	2.68
396.872	2.66
397.236	2.93
397.601	2.78
397.965	2.73
398.329	2.94
398.694	2.75
399.058	2.86
399.422	2.83
399.786	2.72
400.15	2.78
400.514	2.75
400.878	2.62
401.242	2.95
401.605	2.85
401.969	2.67
402.333	2.85
402.697	3.07
403.06	2.83
403.424	2.89
403.787	2.9
404.151	2.92
404.514	3
404.878	2.6
405.241	2.86
405.604	2.79
405.968	2.73
406.331	2.96
406.694	2.72
407.057	2.64
407.42	2.88
407.783	2.94
408.146	2.81
408.509	3.01
408.872	2.79
409.235	2.85
409.598	2.6
409.961	2.91
410.323	2.74
410.686	2.83
411.049	2.98
411.411	2.91
411.774	2.65
412.136	2.91
412.499	2.91
412.861	2.72
413.223	2.73
413.586	2.71
413.948	3.03
414.31	2.88
414.672	2.8
415.035	2.94
415.397	2.78
415.759	2.75
416.121	2.84
416.483	2.92
416.845	2.66
417.206	2.71
417.568	2.6
417.93	2.83
418.292	2.68
418.653	2.74
419.015	2.92
419.377	2.71
419.738	2.85
420.1	2.81
420.461	2.73
420.822	2.85
421.184	2.78
421.545	2.84
421.906	2.82
422.267	2.82
422.629	2.82
422.99	2.81
423.351	2.85
423.712	2.81
424.073	2.85
424.434	2.98
424.795	2.78
425.155	2.78
425.516	2.81
425.877	2.81
426.238	2.73
426.598	2.93
426.959	2.87
427.32	2.86
427.68	2.86
428.041	2.75
428.401	2.8
428.761	2.89
429.122	2.77
429.482	2.88
429.842	2.76
430.202	2.93
430.563	2.93
430.923	2.86
431.283	3.01
431.643	2.97
432.003	3.05
432.363	3.25
432.722	2.94
433.082	2.95
433.442	3.04
433.802	2.95
434.161	2.92
434.521	2.92
434.881	2.86
435.24	2.86
435.6	3.11
435.959	3.04
436.319	2.98
436.678	3.05
437.037	2.91
437.396	2.92
437.756	2.91
438.115	2.92
438.474	3.06
438.833	2.96
439.192	2.99
439.551	2.88
439.91	2.95
440.269	2.87
440.628	2.91
440.987	2.95
441.345	3.05
441.704	2.98
442.063	2.9
442.421	2.97
442.78	3.01
443.138	3.02
443.497	3.01
443.855	3.08
444.214	2.86
444.572	3.1
444.93	2.92
445.288	3
445.647	2.86
446.005	2.94
446.363	2.97
446.721	3.04
447.079	2.99
447.437	2.87
447.795	2.88
448.153	2.98
448.51	2.98
448.868	2.97
449.226	2.97
449.584	2.91
449.941	2.99
450.299	2.95
450.656	3.12
451.014	3.12
451.371	2.93
451.729	3.07
452.086	2.99
452.443	3.1
452.801	2.94
453.158	3.09
453.515	3.06
453.872	3.06
454.229	2.96
454.586	2.86
454.943	3.12
455.3	3.06
455.657	3.05
456.014	3.13
456.371	3.13
456.727	3.22
457.084	3.13
457.441	3.15
457.797	3.09
458.154	3.02
458.51	2.97
458.867	3.07
459.223	3.05
459.58	3
459.936	3.02
460.292	3.08
460.648	3.02
461.005	2.97
461.361	2.96
461.717	2.94
462.073	3.13
462.429	3.12
462.785	3.23
463.141	3.14
463.496	3.29
463.852	3.31
464.208	3.23
464.564	3.09
464.919	2.97
465.275	3.05
465.631	3.14
465.986	3.21
466.342	3.02
466.697	3.03
467.052	3.36
467.408	3.23
467.763	3.19
468.118	3.06
468.473	3.15
468.829	3.07
469.184	3.17
469.539	3.01
469.894	3.15
470.249	3.3
470.603	3.29
470.958	3.34
471.313	3.17
471.668	3.25
472.023	3.31
472.377	3.2
472.732	3.21
473.086	3.15
473.441	3.12
473.795	3.35
474.15	3.16
474.504	3.24
474.859	2.96
475.213	3.3
475.567	3.2
475.921	3.36
476.275	3.28
476.63	3.29
476.984	3.13
477.338	3.39
477.692	3.12
478.045	3.33
478.399	3.29
478.753	3.16
479.107	3.17
479.461	3.15
479.814	3.08
480.168	3.21
480.521	3.29
480.875	3.19
481.228	3.24
481.582	3.21
481.935	3.31
482.289	3.21
482.642	3.31
482.995	3.17
483.348	3.13
483.701	3.23
484.055	3.15
484.408	3.19
484.761	3.09
485.114	2.94
485.466	3
485.819	3.03
486.172	3.07
486.525	3.17
486.878	3.19
487.23	3.18
487.583	3.25
487.936	3.11
488.288	3.12
488.641	3.1
488.993	3.07
489.345	3.13
489.698	3.06
490.05	3.08
490.402	3.12
490.754	3.22
491.107	3.19
491.459	3.3
491.811	3.26
492.163	3.26
492.515	3.17
492.866	3.09
493.218	3.11
493.57	3.18
493.922	3.15
494.274	3.28
494.625	3.38
494.977	3.31
495.328	3.39
495.68	3.31
496.031	3.29
496.383	3.31
496.734	3.31
497.086	3.46
497.437	3.38
497.788	3.41
498.139	3.29
498.49	3.26
498.842	3.35
499.193	3.29
499.544	3.45
499.894	3.34
500.245	3.41
500.596	3.4
500.947	3.4
501.298	3.28
501.648	3.4
501.999	3.46
502.35	3.29
502.7	3.47
503.051	3.29
503.401	3.42
503.752	3.29
504.102	3.42
504.452	3.31
504.803	3.31
505.153	3.5
505.503	3.4
505.853	3.47
506.203	3.54
506.553	3.46
506.903	3.45
507.253	3.36
507.603	3.5
507.953	3.41
508.303	3.49
508.652	3.36
509.002	3.49
509.352	3.47
509.701	3.23
510.051	3.49
510.4	3.48
510.75	3.38
511.099	3.32
511.449	3.44
511.798	3.36
512.147	3.33
512.496	3.37
512.846	3.4
513.195	3.42
513.544	3.52
513.893	3.41
514.242	3.39
514.591	3.44
514.939	3.49
515.288	3.48
515.637	3.58
515.986	3.42
516.334	3.47
516.683	3.36
517.032	3.45
517.38	3.33
517.729	3.59
518.077	3.46
518.426	3.44
518.774	3.39
519.122	3.49
519.47	3.36
519.819	3.37
520.167	3.42
520.515	3.39
520.863	3.4
521.211	3.37
521.559	3.41
521.907	3.46
522.255	3.42
522.602	3.54
522.95	3.54
523.298	3.48
523.645	3.56
523.993	3.52
524.341	3.51
524.688	3.32
525.036	3.43
525.383	3.49
525.73	3.38
526.078	3.56
526.425	3.47
526.772	3.38
527.119	3.43
527.466	3.46
527.814	3.4
528.161	3.46
528.508	3.56
528.854	3.47
529.201	3.38
529.548	3.33
529.895	3.32
530.242	3.27
530.588	3.29
530.935	3.36
531.282	3.39
531.628	3.48
531.975	3.45
532.321	3.44
532.667	3.51
533.014	3.54
533.36	3.53
533.706	3.53
534.052	3.52
534.399	3.46
534.745	3.39
535.091	3.34
535.437	3.39
535.783	3.48
536.129	3.45
536.474	3.55
536.82	3.6
537.166	3.35
537.512	3.45
537.857	3.53
538.203	3.51
538.549	3.42
538.894	3.48
539.239	3.51
539.585	3.6
539.93	3.7
540.276	3.65
540.621	3.68
540.966	3.58
541.311	3.7
541.656	3.44
542.001	3.48
542.346	3.43
542.691	3.39
543.036	3.41
543.381	3.45
543.726	3.47
544.071	3.5
544.415	3.55
544.76	3.5
545.105	3.45
545.449	3.52
545.794	3.56
546.138	3.56
546.483	3.61
546.827	3.54
547.171	3.61
547.516	3.55
547.86	3.61
548.204	3.49
548.548	3.52
548.892	3.5
549.236	3.51
549.58	3.73
549.924	3.8
550.268	3.78
550.612	3.68
550.956	3.73
551.3	3.85
551.643	3.66
551.987	3.71
552.33	3.96
552.674	3.68
553.017	3.72
553.361	3.75
553.704	3.72
554.048	3.52
554.391	3.74
554.734	3.73
555.077	3.59
555.42	3.59
555.764	3.54
556.107	3.7
556.45	3.83
556.793	3.86
557.135	3.75
557.478	3.8
557.821	3.68
558.164	3.72
558.507	3.64
558.849	3.84
559.192	3.67
559.534	3.76
559.877	3.75
560.219	3.64
560.562	3.66
560.904	3.93
561.246	3.64
561.589	3.96
561.931	3.78
562.273	3.61
562.615	3.7
562.957	3.82
563.299	3.74
563.641	3.73
563.983	3.44
564.325	3.74
564.667	3.85
565.008	3.74
565.35	3.64
565.692	3.65
566.033	3.69
566.375	3.73
566.716	3.64
567.058	3.71
567.399	3.64
567.741	3.82
568.082	3.67
568.423	3.75
568.764	3.76
569.105	3.6
569.447	3.76
569.788	3.62
570.129	3.56
570.47	3.74
570.811	3.68
571.151	3.79
571.492	3.63
571.833	3.77
572.174	3.87
572.514	3.75
572.855	3.8
573.195	3.7
573.536	3.69
573.876	3.65
574.217	3.68
574.557	3.69
574.898	3.6
575.238	3.76
575.578	3.76
575.918	3.79
576.258	4.08
576.598	3.6
576.938	3.73
577.278	3.7
577.618	3.72
577.958	3.88
578.298	3.78
578.638	3.84
578.977	3.61
579.317	3.97
579.657	3.61
579.996	3.76
580.336	3.77
580.675	3.91
581.014	3.84
581.354	3.65
581.693	3.9
582.032	3.93
582.372	3.94
582.711	3.94
583.05	3.77
583.389	3.88
583.728	3.89
584.067	3.49
584.406	4.01
584.745	3.74
585.083	3.81
585.422	3.93
585.761	4
586.1	3.91
586.438	3.64
586.777	4
587.115	4.08
587.454	3.63
587.792	3.76
588.13	3.78
588.469	3.7
588.807	3.82
589.145	3.92
589.483	3.57
589.821	3.81
590.159	3.72
590.497	3.88
590.835	4.04
591.173	4.01
591.511	3.95
591.849	3.96
592.187	3.6
592.524	3.93
592.862	3.76
593.2	3.79
593.537	3.85
593.875	3.85
594.212	3.95
594.55	3.97
594.887	3.99
595.224	3.8
595.561	3.98
595.899	3.93
596.236	3.95
596.573	3.61
596.91	3.85
597.247	3.89
597.584	3.88
597.921	3.95
598.258	3.85
598.594	3.82
598.931	3.64
599.268	3.7
599.604	4
599.941	3.88
600.277	3.95
600.614	3.74
600.95	3.96
601.287	3.73
601.623	3.7
601.959	4.25
602.296	3.87
602.632	3.58
602.968	4.01
603.304	3.57
603.64	3.87
603.976	3.65
604.312	3.86
604.648	4.01
604.984	3.88
605.319	3.79
605.655	3.75
605.991	3.73
606.326	3.82
606.662	3.66
606.998	3.99
607.333	3.72
607.668	3.7
608.004	3.88
608.339	4.03
608.674	3.85
609.01	4.13
609.345	4.01
609.68	3.78
610.015	3.81
610.35	3.88
610.685	3.6
611.02	3.74
611.355	3.79
611.689	3.74
612.024	3.74
612.359	3.92
612.694	3.7
613.028	3.8
613.363	3.8
613.697	4.04
614.032	3.91
614.366	3.71
614.7	3.98
615.035	3.98
615.369	4.27
615.703	4.13
616.037	4.11
616.371	3.8
616.705	3.85
617.039	3.93
617.373	4.28
617.707	3.89
618.041	3.98
618.375	3.6
618.709	3.92
619.042	3.92
619.376	3.91
619.71	3.85
620.043	4.28
620.377	4.1
620.71	3.68
621.043	3.97
621.377	4.15
621.71	4.36
622.043	3.96
622.376	4.19
622.709	4.16
623.043	3.91
623.376	3.88
623.709	3.97
624.041	3.94
624.374	3.96
624.707	3.79
625.04	4.02
625.373	4.03
625.705	4.04
626.038	3.86
626.37	3.59
626.703	3.95
627.035	3.76
627.368	4.2
627.7	3.83
628.032	3.81
628.365	4.23
628.697	3.99
629.029	3.8
629.361	4.16
629.693	4.05
630.025	4.17
630.357	3.98
630.689	3.83
631.021	4.03
631.353	4.1
631.684	3.6
632.016	3.75
632.348	3.91
632.679	3.96
633.011	4.01
633.342	3.89
633.674	3.58
634.005	3.99
634.336	3.97
634.668	4.13
634.999	4.01
635.33	4
635.661	4.15
635.992	4.11
636.323	4.15
636.654	3.87
636.985	4.13
637.316	4.11
637.647	4.2
637.977	3.75
638.308	3.86
638.639	3.93
638.969	3.98
639.3	4.1
639.63	3.82
639.961	3.6
640.291	3.98
640.622	4.07
640.952	4.05
641.282	3.54
641.612	3.85
641.943	3.57
642.273	3.79
642.603	3.92
642.933	4.39
643.263	4.08
643.592	4.62
643.922	4.39
644.252	3.89
644.582	4.02
644.911	4.11
645.241	3.93
645.571	4.02
645.9	4.02
646.23	4.11
646.559	3.87
646.888	3.92
647.218	3.97
647.547	4.12
647.876	4.06
648.205	3.81
648.534	3.75
648.863	3.95
649.192	3.92
649.521	4.11
649.85	4.54
650.179	4.16
650.508	4.14
650.837	4.04
651.165	4.28
651.494	3.96
651.822	3.98
652.151	3.89
652.479	4.17
652.808	3.83
653.136	4.19
653.465	3.93
653.793	4.07
654.121	3.76
654.449	3.79
654.777	3.88
655.105	3.96
655.433	3.97
655.761	4.2
656.089	3.76
656.417	4.47
656.745	4.12
657.073	3.97
657.4	3.91
657.728	3.64
658.056	3.94
658.383	3.72
658.711	4.1
659.038	4.33
659.365	4.29
659.693	3.82
660.02	3.59
660.347	3.86
660.674	3.47
661.001	4.22
661.329	3.73
661.656	3.87
661.982	3.92
662.309	4.16
662.636	3.66
662.963	4.44
663.29	4.28
663.616	4.29
663.943	3.89
664.27	4.19
664.596	3.28
664.923	3.84
665.249	4.06
665.576	3.66
665.902	3.52
666.228	4.21
666.554	4.72
666.881	4.08
667.207	4.19
667.533	3.71
667.859	4.09
668.185	4.11
668.511	4.71
668.837	4.16
669.162	3.79
669.488	3.44
669.814	3.75
670.139	2.82
670.465	4.75
670.791	3.68
671.116	3.88
671.442	3.61
671.767	4.07
672.092	4.37
672.418	3.87
672.743	3.53
673.068	3.75
673.393	4.16
673.718	3.66
674.043	3.74
674.368	3.61
674.693	3.59
675.018	4.38
675.343	4.79
675.667	3.86
675.992	4.18
676.317	3.57
676.641	4.29
676.966	4.1
677.29	3.41
677.615	4.27
677.939	4.25
678.264	4.43
678.588	3.94
678.912	3.91
679.236	4.11
679.56	3.66
679.885	4.31
680.209	4.19
680.532	4.55
680.856	4.2
681.18	5.16
681.504	4.12
681.828	3.93
682.152	4.07
682.475	4.28
682.799	3.7
683.122	3.89
683.446	3.42
683.769	4.61
684.093	4.35
684.416	3.79
684.739	4.03
685.062	4.1
685.386	4.67
685.709	3.8
686.032	4.43
686.355	3.88
686.678	4.56
687.001	4.04
687.324	4.19
687.646	4.2
687.969	4.51
688.292	4.08
688.614	4.29
688.937	4.11
689.26	4.74
689.582	4.12
689.904	4.04
690.227	4.38
690.549	4.98
690.871	4.28
691.194	3.98
691.516	3.84
691.838	4.07
692.16	3.86
