Data from 0016_chest_Reflection__3__53.txt Node

Date: Mon Oct 17 14:50:06 CDT 2022
User: ToomeyLab
Spectrometer: FLMS14357
Trigger mode: 0
Integration Time (sec): 1.000000E-2
Scans to average: 100
Electric dark correction enabled: true
Nonlinearity correction enabled: false
Boxcar width: 0
XAxis mode: Wavelengths
Number of Pixels in Spectrum: 2048
>>>>>Begin Spectral Data<<<<<
189.047	-1259.84
189.435	-1259.84
189.823	-1259.84
190.211	82.38
190.599	25.57
190.987	82.17
191.375	26.38
191.763	222.19
192.151	45.99
192.538	21.11
192.926	93.88
193.314	13.48
193.702	-149.84
194.089	-17.01
194.477	-693.47
194.864	169.35
195.252	203.12
195.639	35.63
196.027	189.79
196.414	142.69
196.801	9.45
197.189	72.64
197.576	61.31
197.963	-363.23
198.351	-95.42
198.738	12.21
199.125	-23.95
199.512	-104.28
199.899	14.57
200.286	21.33
200.673	4.82
201.06	-45.64
201.447	38.3
201.833	75.63
202.22	15.76
202.607	-35.89
202.994	-40.84
203.38	-17.42
203.767	-20.46
204.154	53.94
204.54	-6.77
204.927	9.38
205.313	8.43
205.699	14.5
206.086	-15.82
206.472	7.66
206.858	-10.79
207.245	3.3
207.631	21.93
208.017	7.62
208.403	21.21
208.789	5.54
209.175	-23.6
209.561	-46.38
209.947	-18.16
210.333	10.42
210.719	6.02
211.105	17.17
211.491	-2.64
211.876	6.61
212.262	21.22
212.648	5.55
213.034	-1
213.419	19.65
213.805	-41.74
214.19	-7.74
214.576	-4.23
214.961	-9.97
215.346	10.19
215.732	6.92
216.117	-9.39
216.502	11.67
216.888	16.5
217.273	-4.51
217.658	1.62
218.043	-8.58
218.428	-25.09
218.813	16.99
219.198	0.09
219.583	-6.18
219.968	14.42
220.353	-6.33
220.738	18.95
221.122	6.58
221.507	4.8
221.892	0.85
222.276	-7.91
222.661	-3.23
223.046	-6
223.43	1.37
223.815	-1.25
224.199	4.23
224.583	-1.12
224.968	-9.1
225.352	-8.69
225.736	6.03
226.121	-12.59
226.505	1.82
226.889	5.2
227.273	4.78
227.657	7.62
228.041	7.27
228.425	6.59
228.809	5.57
229.193	5.12
229.577	6.01
229.961	7.65
230.344	5.06
230.728	5.25
231.112	5.76
231.495	4.62
231.879	5.07
232.263	6.11
232.646	7.7
233.03	5.35
233.413	4.46
233.797	4.65
234.18	7.05
234.563	2.72
234.946	6.53
235.33	4.46
235.713	4.84
236.096	5.22
236.479	4.45
236.862	5.31
237.245	3.63
237.628	3.76
238.011	5.78
238.394	4.63
238.777	6.22
239.16	7.26
239.543	4.57
239.925	6.29
240.308	5.57
240.691	5.59
241.073	6.02
241.456	4.05
241.838	4.95
242.221	4.76
242.603	4.97
242.986	5.21
243.368	6
243.75	4.87
244.133	5.69
244.515	5.53
244.897	5.33
245.279	5.66
245.661	5.4
246.043	6.14
246.425	4.12
246.807	4.61
247.189	5.58
247.571	4.96
247.953	5.04
248.335	5.21
248.717	5.2
249.098	5.31
249.48	5.31
249.862	4.97
250.243	4.81
250.625	5.17
251.006	5.08
251.388	4.87
251.769	5.23
252.151	4.85
252.532	5.24
252.913	5.1
253.295	4.54
253.676	5.29
254.057	5.47
254.438	5.23
254.819	5.34
255.2	5.78
255.581	5.25
255.962	4.51
256.343	4.12
256.724	5.62
257.105	4.61
257.486	4.48
257.867	4.36
258.247	4.67
258.628	5.4
259.009	5.44
259.389	5.26
259.77	5.05
260.15	4.64
260.531	4.29
260.911	5.21
261.292	4.86
261.672	4.67
262.052	4.72
262.432	4.86
262.813	4.84
263.193	4.46
263.573	5.33
263.953	4.63
264.333	4.75
264.713	4.13
265.093	4.77
265.473	5.51
265.853	4.68
266.233	5.79
266.612	4.06
266.992	5.8
267.372	5.32
267.752	5.13
268.131	4.89
268.511	4.76
268.89	5.01
269.27	4.58
269.649	5.05
270.029	4.74
270.408	4.93
270.787	4.33
271.167	4.31
271.546	4.71
271.925	4.51
272.304	4.73
272.683	4.81
273.062	4.67
273.441	4.49
273.82	4.61
274.199	4.93
274.578	4.98
274.957	4.63
275.336	4.57
275.715	5.1
276.093	4.91
276.472	4.33
276.851	5.16
277.229	4.44
277.608	4.83
277.986	4.33
278.365	5.16
278.743	4.98
279.122	4.71
279.5	4.9
279.878	4.28
280.257	4.3
280.635	4.22
281.013	4.8
281.391	4.51
281.769	4.42
282.147	4.75
282.525	4.29
282.903	3.72
283.281	4.37
283.659	4.26
284.037	4.6
284.415	4.43
284.792	4.31
285.17	4.17
285.548	4.09
285.925	4.52
286.303	4.83
286.68	4.59
287.058	4.69
287.435	4.67
287.813	4.48
288.19	4.63
288.567	4.22
288.945	4.29
289.322	5.28
289.699	4.22
290.076	4.46
290.453	4.19
290.83	4.49
291.207	4.23
291.584	4.35
291.961	4.38
292.338	4.45
292.715	4.72
293.092	4.5
293.469	4.51
293.845	4.29
294.222	4.38
294.599	4.72
294.975	4.05
295.352	4.35
295.728	4.45
296.105	4.7
296.481	4.49
296.858	4.46
297.234	4.2
297.61	3.96
297.986	4.18
298.363	4.21
298.739	4.63
299.115	4.24
299.491	4.49
299.867	4.52
300.243	4.4
300.619	3.95
300.995	4.02
301.371	3.98
301.746	4.16
302.122	4.18
302.498	4.24
302.874	4.44
303.249	4.42
303.625	4.23
304	4.34
304.376	4.58
304.751	4.53
305.127	4.55
305.502	4.09
305.878	4.32
306.253	4.37
306.628	4.47
307.003	4.11
307.378	4.32
307.754	4.3
308.129	4.18
308.504	4.33
308.879	4.45
309.254	4.12
309.629	4.18
310.003	4.62
310.378	4.21
310.753	4.2
311.128	4.2
311.502	4.34
311.877	4.18
312.252	4.06
312.626	4.29
313.001	4.07
313.375	4.12
313.75	4.14
314.124	4.28
314.498	4.23
314.873	4.41
315.247	4.06
315.621	4.67
315.995	4
316.369	3.68
316.743	4.24
317.117	4.47
317.491	3.97
317.865	4.59
318.239	4.2
318.613	4.37
318.987	3.76
319.361	3.64
319.734	4.2
320.108	3.45
320.482	4.01
320.855	4.14
321.229	3.97
321.602	4.42
321.976	3.69
322.349	3.9
322.723	4.03
323.096	3.92
323.469	4.11
323.843	4.07
324.216	4.16
324.589	3.7
324.962	4.23
325.335	4.04
325.708	4.42
326.081	4.27
326.454	4.39
326.827	4.38
327.2	3.93
327.573	3.9
327.945	3.71
328.318	4.03
328.691	4.03
329.063	4.08
329.436	4.17
329.809	4.15
330.181	4.29
330.553	3.73
330.926	3.57
331.298	4.3
331.671	4.32
332.043	4.02
332.415	4.07
332.787	4.18
333.159	4.23
333.532	3.99
333.904	4.1
334.276	4.16
334.648	3.74
335.02	3.8
335.391	4.38
335.763	3.93
336.135	3.71
336.507	4.2
336.879	4.76
337.25	4.58
337.622	4.24
337.993	4.08
338.365	4.02
338.736	3.95
339.108	4.33
339.479	3.91
339.851	4.09
340.222	3.96
340.593	4.22
340.964	3.98
341.336	4.12
341.707	4.41
342.078	4.19
342.449	4.26
342.82	4.29
343.191	4.3
343.562	3.87
343.933	4.01
344.303	3.77
344.674	4.41
345.045	4.53
345.416	4.03
345.786	4.25
346.157	4.02
346.527	3.56
346.898	4.27
347.268	4.38
347.639	4.01
348.009	4.21
348.38	4.08
348.75	3.91
349.12	3.9
349.49	4.25
349.861	4.34
350.231	4.29
350.601	3.96
350.971	3.92
351.341	3.95
351.711	3.76
352.081	4.22
352.45	4.65
352.82	4.26
353.19	3.95
353.56	3.94
353.929	4.09
354.299	4.18
354.669	4.37
355.038	4.44
355.408	4.35
355.777	4.2
356.147	4.04
356.516	4.19
356.885	4.35
357.254	4.27
357.624	4.5
357.993	4.23
358.362	4.11
358.731	3.99
359.1	3.96
359.469	4.24
359.838	4.28
360.207	4.12
360.576	3.91
360.945	4.04
361.314	4.45
361.682	4.22
362.051	4.13
362.42	4.13
362.788	4.05
363.157	4.14
363.525	4.07
363.894	4.33
364.262	4.19
364.631	4.12
364.999	3.98
365.367	3.96
365.735	4.33
366.104	4.16
366.472	4
366.84	3.96
367.208	4.42
367.576	4.28
367.944	3.97
368.312	4.3
368.68	4.52
369.048	4.23
369.416	4.11
369.783	4.25
370.151	4.18
370.519	4.46
370.886	4.37
371.254	4.03
371.621	4.19
371.989	4.56
372.356	4.33
372.724	4.25
373.091	4.3
373.458	4.37
373.826	4.41
374.193	4.49
374.56	4.27
374.927	4.16
375.294	4.05
375.661	4.38
376.028	4.31
376.395	4.18
376.762	4.28
377.129	4.53
377.496	4.43
377.863	3.78
378.229	4.47
378.596	4.21
378.963	4.12
379.329	4.3
379.696	4.29
380.062	4.56
380.429	4.15
380.795	4.61
381.161	4.44
381.528	4.49
381.894	4.19
382.26	4.55
382.626	4.67
382.993	4.49
383.359	4.42
383.725	4.35
384.091	4.48
384.457	4.34
384.823	4.29
385.188	4
385.554	4.37
385.92	4.37
386.286	4.58
386.651	4.43
387.017	4.22
387.383	4.51
387.748	4.45
388.114	4.11
388.479	4.41
388.845	4.48
389.21	4.12
389.575	4.34
389.94	4.74
390.306	4.42
390.671	4.72
391.036	4.72
391.401	4.35
391.766	4.55
392.131	4.34
392.496	4.66
392.861	4.29
393.226	4.46
393.591	4.38
393.956	4.56
394.32	4.64
394.685	4.69
395.05	4.56
395.414	4.66
395.779	4.55
396.143	4.62
396.508	4.6
396.872	4.42
397.236	4.33
397.601	4.54
397.965	4.32
398.329	4.58
398.694	4.58
399.058	4.42
399.422	4.49
399.786	4.73
400.15	4.76
400.514	4.24
400.878	4.48
401.242	4.72
401.605	4.56
401.969	4.41
402.333	4.6
402.697	4.53
403.06	4.55
403.424	4.41
403.787	4.51
404.151	4.49
404.514	4.57
404.878	4.62
405.241	4.6
405.604	4.6
405.968	4.65
406.331	4.48
406.694	4.48
407.057	4.59
407.42	4.53
407.783	4.78
408.146	4.74
408.509	4.85
408.872	4.44
409.235	4.49
409.598	4.47
409.961	4.29
410.323	4.58
410.686	4.72
411.049	4.79
411.411	4.86
411.774	4.68
412.136	4.71
412.499	4.82
412.861	4.68
413.223	4.56
413.586	4.61
413.948	4.76
414.31	4.48
414.672	4.51
415.035	4.77
415.397	4.86
415.759	4.66
416.121	4.63
416.483	4.87
416.845	4.61
417.206	4.56
417.568	4.78
417.93	4.73
418.292	4.81
418.653	4.49
419.015	4.6
419.377	4.65
419.738	4.54
420.1	4.7
420.461	4.61
420.822	4.68
421.184	4.67
421.545	4.57
421.906	4.67
422.267	4.55
422.629	4.54
422.99	4.55
423.351	4.56
423.712	4.61
424.073	4.67
424.434	4.63
424.795	4.61
425.155	4.76
425.516	4.41
425.877	4.54
426.238	4.56
426.598	4.58
426.959	4.55
427.32	4.67
427.68	4.68
428.041	4.67
428.401	4.82
428.761	4.78
429.122	4.81
429.482	4.76
429.842	4.6
430.202	4.79
430.563	4.62
430.923	4.73
431.283	4.8
431.643	4.86
432.003	4.79
432.363	4.93
432.722	4.68
433.082	4.6
433.442	4.79
433.802	4.74
434.161	4.68
434.521	4.85
434.881	4.83
435.24	4.72
435.6	4.77
435.959	4.7
436.319	4.78
436.678	4.72
437.037	4.75
437.396	4.72
437.756	4.92
438.115	4.73
438.474	4.71
438.833	4.78
439.192	4.71
439.551	4.58
439.91	4.76
440.269	4.71
440.628	4.76
440.987	4.79
441.345	4.65
441.704	4.84
442.063	4.62
442.421	4.71
442.78	4.72
443.138	4.81
443.497	4.79
443.855	4.78
444.214	4.88
444.572	4.71
444.93	4.86
445.288	4.67
445.647	4.79
446.005	5.05
446.363	4.86
446.721	4.86
447.079	4.83
447.437	4.79
447.795	4.88
448.153	4.87
448.51	4.78
448.868	4.8
449.226	4.8
449.584	4.9
449.941	4.78
450.299	4.85
450.656	4.79
451.014	4.75
451.371	5.09
451.729	4.79
452.086	4.84
452.443	5.05
452.801	4.9
453.158	5.01
453.515	4.84
453.872	4.9
454.229	4.82
454.586	4.89
454.943	4.89
455.3	4.9
455.657	4.91
456.014	4.86
456.371	5.02
456.727	4.91
457.084	4.88
457.441	4.98
457.797	5.12
458.154	4.9
458.51	4.96
458.867	4.99
459.223	4.82
459.58	4.87
459.936	4.92
460.292	5.02
460.648	4.89
461.005	4.98
461.361	4.89
461.717	4.79
462.073	4.84
462.429	4.9
462.785	4.95
463.141	5.02
463.496	4.98
463.852	5.06
464.208	5.03
464.564	4.95
464.919	5.01
465.275	4.96
465.631	4.98
465.986	5.1
466.342	5.06
466.697	5.01
467.052	5.03
467.408	5
467.763	4.91
468.118	5.1
468.473	5.23
468.829	5.04
469.184	5.08
469.539	5.07
469.894	5.1
470.249	4.96
470.603	5.04
470.958	5.22
471.313	4.97
471.668	5.13
472.023	4.97
472.377	5.2
472.732	4.87
473.086	5.1
473.441	4.94
473.795	5.06
474.15	5.18
474.504	5.16
474.859	5.16
475.213	5.21
475.567	5.31
475.921	5.09
476.275	5.05
476.63	5.13
476.984	5.26
477.338	5.03
477.692	5.06
478.045	5.28
478.399	5.11
478.753	5.15
479.107	4.94
479.461	5.02
479.814	5.11
480.168	5.17
480.521	5.1
480.875	5.05
481.228	5.06
481.582	5.2
481.935	5.17
482.289	5.03
482.642	5.13
482.995	5.17
483.348	5.05
483.701	5.03
484.055	5
484.408	5.02
484.761	4.99
485.114	4.86
485.466	4.8
485.819	4.78
486.172	4.81
486.525	4.87
486.878	4.9
487.23	4.94
487.583	5.01
487.936	4.99
488.288	4.97
488.641	4.94
488.993	4.89
489.345	4.85
489.698	4.93
490.05	4.91
490.402	4.9
490.754	5.01
491.107	4.99
491.459	5.07
491.811	5.11
492.163	5.09
492.515	5.04
492.866	4.99
493.218	4.99
493.57	5
493.922	4.96
494.274	5.04
494.625	5.08
494.977	5.15
495.328	5.12
495.68	5.16
496.031	5.31
496.383	5.14
496.734	5.24
497.086	5.06
497.437	5.21
497.788	5.25
498.139	5.07
498.49	5.11
498.842	5.14
499.193	5.17
499.544	5.12
499.894	5.19
500.245	5.24
500.596	5.2
500.947	5.26
501.298	5.37
501.648	5.36
501.999	5.24
502.35	5.25
502.7	5.42
503.051	5.33
503.401	5.32
503.752	5.37
504.102	5.24
504.452	5.26
504.803	5.34
505.153	5.32
505.503	5.38
505.853	5.28
506.203	5.28
506.553	5.31
506.903	5.26
507.253	5.39
507.603	5.29
507.953	5.37
508.303	5.4
508.652	5.4
509.002	5.44
509.352	5.25
509.701	5.4
510.051	5.42
510.4	5.29
510.75	5.27
511.099	5.34
511.449	5.24
511.798	5.3
512.147	5.28
512.496	5.35
512.846	5.33
513.195	5.34
513.544	5.3
513.893	5.31
514.242	5.44
514.591	5.48
514.939	5.37
515.288	5.37
515.637	5.42
515.986	5.43
516.334	5.38
516.683	5.39
517.032	5.47
517.38	5.3
517.729	5.46
518.077	5.49
518.426	5.36
518.774	5.39
519.122	5.31
519.47	5.4
519.819	5.48
520.167	5.35
520.515	5.39
520.863	5.34
521.211	5.36
521.559	5.38
521.907	5.46
522.255	5.44
522.602	5.47
522.95	5.54
523.298	5.47
523.645	5.54
523.993	5.48
524.341	5.59
524.688	5.53
525.036	5.45
525.383	5.61
525.73	5.54
526.078	5.6
526.425	5.49
526.772	5.5
527.119	5.51
527.466	5.4
527.814	5.45
528.161	5.51
528.508	5.49
528.854	5.38
529.201	5.49
529.548	5.46
529.895	5.33
530.242	5.31
530.588	5.34
530.935	5.34
531.282	5.37
531.628	5.38
531.975	5.48
532.321	5.44
532.667	5.59
533.014	5.6
533.36	5.56
533.706	5.56
534.052	5.58
534.399	5.57
534.745	5.47
535.091	5.48
535.437	5.54
535.783	5.52
536.129	5.57
536.474	5.64
536.82	5.66
537.166	5.67
537.512	5.67
537.857	5.7
538.203	5.66
538.549	5.66
538.894	5.76
539.239	5.7
539.585	5.65
539.93	5.83
540.276	5.69
540.621	5.72
540.966	5.8
541.311	5.79
541.656	5.79
542.001	5.81
542.346	5.72
542.691	5.69
543.036	5.6
543.381	5.69
543.726	5.66
544.071	5.69
544.415	5.72
544.76	5.76
545.105	5.74
545.449	5.82
545.794	5.82
546.138	5.83
546.483	5.94
546.827	5.86
547.171	5.82
547.516	5.93
547.86	5.99
548.204	5.88
548.548	5.92
548.892	5.93
549.236	5.89
549.58	5.91
549.924	5.93
550.268	6.04
550.612	6
550.956	6.24
551.3	6.04
551.643	6.23
551.987	6.31
552.33	6.18
552.674	6.19
553.017	6.24
553.361	6.25
553.704	6.05
554.048	6.03
554.391	6.13
554.734	6.09
555.077	6.14
555.42	6.3
555.764	6.19
556.107	6.18
556.45	6.31
556.793	6.23
557.135	6.28
557.478	6.26
557.821	6.35
558.164	6.27
558.507	6.3
558.849	6.21
559.192	6.24
559.534	6.3
559.877	6.23
560.219	6.22
560.562	6.15
560.904	6.39
561.246	6.52
561.589	6.36
561.931	6.53
562.273	6.43
562.615	6.43
562.957	6.59
563.299	6.53
563.641	6.6
563.983	6.54
564.325	6.64
564.667	6.66
565.008	6.65
565.35	6.61
565.692	6.57
566.033	6.62
566.375	6.65
566.716	6.57
567.058	6.49
567.399	6.52
567.741	6.64
568.082	6.58
568.423	6.57
568.764	6.66
569.105	6.76
569.447	6.64
569.788	6.74
570.129	6.85
570.47	6.82
570.811	6.77
571.151	6.72
571.492	6.79
571.833	6.86
572.174	6.76
572.514	6.94
572.855	6.77
573.195	6.89
573.536	6.82
573.876	6.89
574.217	6.85
574.557	6.75
574.898	6.82
575.238	7.09
575.578	6.93
575.918	6.84
576.258	6.98
576.598	6.95
576.938	7.07
577.278	7.14
577.618	7.09
577.958	7.02
578.298	7
578.638	7.06
578.977	7.08
579.317	6.93
579.657	7.26
579.996	7.18
580.336	7.37
580.675	7.01
581.014	7.08
581.354	7.09
581.693	7.23
582.032	7.2
582.372	7.24
582.711	7.12
583.05	7.28
583.389	7.15
583.728	7.44
584.067	7.27
584.406	7.32
584.745	7.56
585.083	7.43
585.422	7.45
585.761	7.56
586.1	7.29
586.438	7.31
586.777	7.61
587.115	7.7
587.454	7.54
587.792	7.94
588.13	7.67
588.469	7.86
588.807	7.7
589.145	7.51
589.483	7.56
589.821	7.77
590.159	7.53
590.497	7.73
590.835	7.7
591.173	7.59
591.511	7.67
591.849	7.63
592.187	7.59
592.524	7.76
592.862	7.8
593.2	7.73
593.537	7.97
593.875	7.86
594.212	7.93
594.55	7.73
594.887	7.75
595.224	7.9
595.561	7.95
595.899	8.04
596.236	7.99
596.573	7.83
596.91	7.87
597.247	7.74
597.584	7.74
597.921	8.14
598.258	7.85
598.594	7.89
598.931	7.96
599.268	8.06
599.604	8.06
599.941	8.18
600.277	8.27
600.614	8.17
600.95	8.23
601.287	8.05
601.623	8.41
601.959	8.11
602.296	8.35
602.632	8.23
602.968	8.25
603.304	8.39
603.64	8.27
603.976	8.36
604.312	8.3
604.648	8.27
604.984	8.39
605.319	8.16
605.655	8.32
605.991	8.45
606.326	8.24
606.662	8.4
606.998	8.21
607.333	8.53
607.668	8.42
608.004	8.53
608.339	8.46
608.674	8.55
609.01	8.71
609.345	8.72
609.68	8.7
610.015	8.88
610.35	8.72
610.685	8.52
611.02	8.61
611.355	8.7
611.689	8.63
612.024	8.81
612.359	8.57
612.694	8.84
613.028	8.75
613.363	8.99
613.697	8.8
614.032	9.03
614.366	9.01
614.7	9.2
615.035	8.98
615.369	9.01
615.703	8.97
616.037	9.24
616.371	9.12
616.705	8.96
617.039	9.33
617.373	9.01
617.707	9.24
618.041	8.89
618.375	8.83
618.709	9.41
619.042	9.36
619.376	9.23
619.71	9.11
620.043	9.23
620.377	9.39
620.71	9.38
621.043	9.52
621.377	9.74
621.71	9.45
622.043	9.61
622.376	9.07
622.709	9.5
623.043	9.49
623.376	9.19
623.709	9.43
624.041	9.22
624.374	9.7
624.707	9.6
625.04	9.48
625.373	9.56
625.705	9.36
626.038	9.2
626.37	9.6
626.703	9.86
627.035	9.62
627.368	9.68
627.7	9.81
628.032	9.9
628.365	9.46
628.697	9.74
629.029	10.04
629.361	10.02
629.693	9.93
630.025	9.64
630.357	9.69
630.689	9.89
631.021	9.71
631.353	9.77
631.684	9.55
632.016	9.95
632.348	10.12
632.679	9.79
633.011	9.95
633.342	10.13
633.674	10.05
634.005	10.1
634.336	10.05
634.668	10.46
634.999	10.17
635.33	9.94
635.661	10.03
635.992	10
636.323	10.35
636.654	10.3
636.985	10.07
637.316	10.39
637.647	10.16
637.977	10.16
638.308	10.04
638.639	10.32
638.969	10.38
639.3	10.24
639.63	10.4
639.961	10.79
640.291	10.62
640.622	10.82
640.952	10.87
641.282	10.48
641.612	10.58
641.943	10.64
642.273	10.48
642.603	10.61
642.933	10.55
643.263	10.56
643.592	10.68
643.922	10.35
644.252	10.55
644.582	10.82
644.911	11.15
645.241	10.63
645.571	10.8
645.9	11.05
646.23	10.87
646.559	10.87
646.888	10.75
647.218	11.08
647.547	11.03
647.876	10.79
648.205	10.75
648.534	10.95
648.863	10.88
649.192	11
649.521	11.12
649.85	11.15
650.179	10.95
650.508	10.84
650.837	10.98
651.165	11.37
651.494	11.08
651.822	11.47
652.151	11.08
652.479	11.4
652.808	11.06
653.136	10.75
653.465	11.27
653.793	11.29
654.121	11.4
654.449	11.24
654.777	11.37
655.105	11.34
655.433	11.44
655.761	11.28
656.089	11.63
656.417	11.5
656.745	10.99
657.073	11.64
657.4	11.85
657.728	11.64
658.056	11.42
658.383	11.74
658.711	11.65
659.038	11.34
659.365	11.67
659.693	11.88
660.02	11.73
660.347	12.05
660.674	11.61
661.001	11.53
661.329	11.88
661.656	11.63
661.982	11.72
662.309	11.91
662.636	12.18
662.963	12.14
663.29	12.22
663.616	12.24
663.943	11.92
664.27	11.95
664.596	11.87
664.923	11.63
665.249	12.09
665.576	11.84
665.902	12.11
666.228	12.21
666.554	11.93
666.881	11.9
667.207	12.51
667.533	12.17
667.859	12.59
668.185	12.64
668.511	11.95
668.837	12.38
669.162	12.77
669.488	12.18
669.814	12.75
670.139	12.31
670.465	12.5
670.791	12.38
671.116	12.27
671.442	12.5
671.767	12.46
672.092	12.47
672.418	12.76
672.743	12.31
673.068	13.17
673.393	12.2
673.718	12.8
674.043	12.78
674.368	12.17
674.693	12.9
675.018	12.82
675.343	13.48
675.667	12.88
675.992	12.42
676.317	13.02
676.641	12.62
676.966	12.99
677.29	12.66
677.615	12.43
677.939	13.48
678.264	12.99
678.588	12.86
678.912	13.4
679.236	13.51
679.56	12.85
679.885	13.8
680.209	13.14
680.532	12.99
680.856	13.33
681.18	13.17
681.504	13.31
681.828	12.81
682.152	13.03
682.475	13.46
682.799	13.16
683.122	13.26
683.446	13.36
683.769	12.91
684.093	13.26
684.416	13.66
684.739	13.36
685.062	13.67
685.386	13.38
685.709	13.45
686.032	14.5
686.355	13.38
686.678	13.19
687.001	13.45
687.324	13.89
687.646	13.25
687.969	13.68
688.292	13.87
688.614	13.4
