Data from 0016_crown_Reflection__5__60.txt Node

Date: Mon Oct 17 14:53:01 CDT 2022
User: ToomeyLab
Spectrometer: FLMS14357
Trigger mode: 0
Integration Time (sec): 1.000000E-2
Scans to average: 100
Electric dark correction enabled: true
Nonlinearity correction enabled: false
Boxcar width: 0
XAxis mode: Wavelengths
Number of Pixels in Spectrum: 2048
>>>>>Begin Spectral Data<<<<<
189.047	442.05
189.435	442.05
189.823	442.05
190.211	191.32
190.599	117.82
190.987	899.22
191.375	4.38
191.763	122.63
192.151	9.88
192.538	20.51
192.926	76.69
193.314	61.7
193.702	-104.48
194.089	133.93
194.477	-2037.11
194.864	138.79
195.252	221.36
195.639	35.83
196.027	252.29
196.414	-639.54
196.801	-48.06
197.189	58.88
197.576	82.73
197.963	-422.12
198.351	-98.41
198.738	-17.53
199.125	-108.39
199.512	-80.49
199.899	-15.31
200.286	38.74
200.673	-21.94
201.06	-28.7
201.447	16.09
201.833	5.66
202.22	21.22
202.607	-57.31
202.994	-29.13
203.38	11.76
203.767	-1.03
204.154	30.67
204.54	-21.58
204.927	5.18
205.313	-30.81
205.699	-3.65
206.086	-39.45
206.472	-12.18
206.858	-10.75
207.245	-12.29
207.631	31.65
208.017	9.06
208.403	12.31
208.789	25.96
209.175	-10.8
209.561	-7
209.947	-36.98
210.333	9.71
210.719	19.86
211.105	4.16
211.491	-9.6
211.876	-4.36
212.262	29.31
212.648	-6.58
213.034	-26.88
213.419	-8.39
213.805	-23.48
214.19	-7.34
214.576	8.1
214.961	4.66
215.346	7.26
215.732	-15.42
216.117	2.89
216.502	3.09
216.888	-0.32
217.273	3.25
217.658	9.31
218.043	-12.89
218.428	0.58
218.813	4.27
219.198	5.45
219.583	-20.41
219.968	-1.49
220.353	-10.14
220.738	5.21
221.122	-13.02
221.507	0.88
221.892	13.21
222.276	6.54
222.661	-8.58
223.046	-6.46
223.43	6.02
223.815	-9.39
224.199	-1.32
224.583	-13.51
224.968	-1.91
225.352	-10.49
225.736	8.82
226.121	-4.18
226.505	1.87
226.889	7.14
227.273	4.77
227.657	6.72
228.041	6.95
228.425	3.62
228.809	6.08
229.193	5.49
229.577	6.27
229.961	7.18
230.344	6.31
230.728	6.25
231.112	6.08
231.495	6.62
231.879	7.07
232.263	7.81
232.646	6.5
233.03	6.73
233.413	5.3
233.797	7.51
234.18	7.76
234.563	3.38
234.946	6.95
235.33	5.36
235.713	5.33
236.096	6.14
236.479	5.89
236.862	5.42
237.245	6.59
237.628	5.61
238.011	5.65
238.394	6.54
238.777	6.53
239.16	6.72
239.543	4.9
239.925	6.55
240.308	6.95
240.691	5.91
241.073	7.11
241.456	4.34
241.838	6.04
242.221	5.37
242.603	6.15
242.986	5.71
243.368	6.85
243.75	6.35
244.133	6.64
244.515	6.47
244.897	6.46
245.279	6.43
245.661	6.69
246.043	6.74
246.425	5.3
246.807	6.54
247.189	7.09
247.571	6.34
247.953	6.3
248.335	6.24
248.717	6.2
249.098	6.52
249.48	6.33
249.862	5.85
250.243	5.96
250.625	6.42
251.006	6.4
251.388	5.84
251.769	6.16
252.151	5.39
252.532	5.87
252.913	6.11
253.295	5.15
253.676	6.25
254.057	6.29
254.438	6.01
254.819	6.64
255.2	6.41
255.581	6.39
255.962	4.15
256.343	4.98
256.724	6.23
257.105	5.79
257.486	5.04
257.867	5.45
258.247	4.91
258.628	5.77
259.009	5.19
259.389	6.02
259.77	6.02
260.15	5.49
260.531	5.45
260.911	5.76
261.292	5.65
261.672	5.76
262.052	5.72
262.432	5.85
262.813	5.55
263.193	5.55
263.573	5.71
263.953	5.66
264.333	5.85
264.713	5.57
265.093	5.57
265.473	5.57
265.853	5.53
266.233	5.98
266.612	5.65
266.992	6.26
267.372	5.8
267.752	5.57
268.131	5.81
268.511	5.87
268.89	5.79
269.27	5.64
269.649	5.7
270.029	5.26
270.408	5.72
270.787	5.29
271.167	5.17
271.546	5.48
271.925	5.48
272.304	5.14
272.683	5.28
273.062	5.45
273.441	5.29
273.82	5.34
274.199	5.55
274.578	5.3
274.957	5.3
275.336	5.45
275.715	5.32
276.093	5.13
276.472	5.28
276.851	5.73
277.229	5.21
277.608	5.23
277.986	5.5
278.365	5.56
278.743	5.62
279.122	5.3
279.5	5.26
279.878	5.13
280.257	5.17
280.635	5.07
281.013	4.98
281.391	4.69
281.769	5.03
282.147	5.48
282.525	4.57
282.903	4.78
283.281	5.27
283.659	5.47
284.037	4.69
284.415	4.99
284.792	5.18
285.17	4.97
285.548	5.01
285.925	5.14
286.303	5.05
286.68	4.97
287.058	5.53
287.435	5.12
287.813	4.98
288.19	5.24
288.567	5.13
288.945	5.19
289.322	5.31
289.699	4.7
290.076	5.27
290.453	4.87
290.83	4.99
291.207	4.77
291.584	4.71
291.961	4.99
292.338	4.64
292.715	4.93
293.092	4.77
293.469	4.83
293.845	4.65
294.222	5.05
294.599	5.26
294.975	4.32
295.352	4.47
295.728	4.66
296.105	4.35
296.481	4.88
296.858	5.22
297.234	4.52
297.61	4.53
297.986	4.5
298.363	4.75
298.739	4.78
299.115	4.5
299.491	4.86
299.867	4.66
300.243	4.76
300.619	4.06
300.995	4.99
301.371	4.44
301.746	4.3
302.122	4.26
302.498	4.74
302.874	5.16
303.249	4.62
303.625	4.55
304	4.71
304.376	4.76
304.751	4.63
305.127	4.63
305.502	4.53
305.878	4.57
306.253	4.49
306.628	4.32
307.003	4.65
307.378	4.69
307.754	4.21
308.129	4.63
308.504	4.76
308.879	4.58
309.254	4.32
309.629	4.56
310.003	4.34
310.378	4.55
310.753	4.17
311.128	4.39
311.502	4.41
311.877	4.65
312.252	4.23
312.626	4.28
313.001	4.43
313.375	4.51
313.75	4.47
314.124	4.41
314.498	4.7
314.873	4.25
315.247	4.08
315.621	5.1
315.995	4.35
316.369	4.46
316.743	4.53
317.117	4.52
317.491	4.28
317.865	4.3
318.239	4.88
318.613	4.61
318.987	4.01
319.361	4.07
319.734	4.56
320.108	4.57
320.482	4.28
320.855	4.13
321.229	4.13
321.602	4.25
321.976	4.11
322.349	4.15
322.723	4.42
323.096	4.41
323.469	4.37
323.843	4.4
324.216	4.65
324.589	4.22
324.962	4.26
325.335	3.92
325.708	4.62
326.081	4.39
326.454	4.3
326.827	4.25
327.2	4.3
327.573	4.28
327.945	3.98
328.318	4.34
328.691	3.91
329.063	4.05
329.436	3.94
329.809	4.19
330.181	4.8
330.553	4.33
330.926	4.11
331.298	4.52
331.671	4.68
332.043	4.29
332.415	4.15
332.787	4.12
333.159	4.61
333.532	4.37
333.904	3.8
334.276	4.25
334.648	4.26
335.02	4.23
335.391	4.16
335.763	4.24
336.135	4
336.507	4.3
336.879	4.39
337.25	4.47
337.622	4.38
337.993	4.19
338.365	4.46
338.736	4.07
339.108	4.35
339.479	4.05
339.851	4.61
340.222	4.13
340.593	4.58
340.964	4.04
341.336	4.23
341.707	4.41
342.078	4.88
342.449	4.19
342.82	4.63
343.191	4.07
343.562	4.29
343.933	4.52
344.303	4.18
344.674	4.92
345.045	4.7
345.416	4.45
345.786	4.3
346.157	4.17
346.527	4.6
346.898	4.51
347.268	4.87
347.639	4.13
348.009	4.6
348.38	4.2
348.75	4.38
349.12	4.34
349.49	4.34
349.861	4.49
350.231	4.11
350.601	4.36
350.971	4.31
351.341	4.04
351.711	4.19
352.081	4.57
352.45	4.77
352.82	4.55
353.19	3.98
353.56	4.47
353.929	4.45
354.299	4.48
354.669	4.65
355.038	4.85
355.408	4.62
355.777	4.48
356.147	4.53
356.516	4.47
356.885	4.25
357.254	4.53
357.624	4.51
357.993	4.77
358.362	4.42
358.731	4.21
359.1	4.27
359.469	4.42
359.838	4.82
360.207	4.66
360.576	4.41
360.945	4.46
361.314	4.46
361.682	4.61
362.051	4.37
362.42	4.57
362.788	4.62
363.157	4.82
363.525	4.44
363.894	4.77
364.262	4.8
364.631	4.75
364.999	4.51
365.367	4.37
365.735	4.75
366.104	4.53
366.472	4.29
366.84	4.56
367.208	4.85
367.576	4.36
367.944	4.43
368.312	4.67
368.68	4.9
369.048	4.8
369.416	4.88
369.783	4.76
370.151	4.68
370.519	4.54
370.886	4.41
371.254	4.54
371.621	4.74
371.989	4.83
372.356	4.72
372.724	5.04
373.091	4.87
373.458	4.66
373.826	4.86
374.193	5.02
374.56	4.75
374.927	5.03
375.294	4.61
375.661	4.95
376.028	4.92
376.395	4.6
376.762	4.87
377.129	4.81
377.496	4.55
377.863	4.37
378.229	4.82
378.596	4.8
378.963	4.81
379.329	4.58
379.696	4.81
380.062	5.03
380.429	4.81
380.795	5.31
381.161	4.87
381.528	4.75
381.894	4.55
382.26	5.1
382.626	5.04
382.993	5
383.359	5.06
383.725	4.86
384.091	4.91
384.457	4.94
384.823	4.86
385.188	4.71
385.554	5
385.92	4.86
386.286	5.03
386.651	4.97
387.017	4.73
387.383	4.72
387.748	4.77
388.114	5
388.479	5.32
388.845	5.15
389.21	4.85
389.575	4.94
389.94	5.16
390.306	5.25
390.671	5.02
391.036	5.25
391.401	5.26
391.766	5.11
392.131	4.92
392.496	5.18
392.861	4.93
393.226	5.04
393.591	4.93
393.956	4.92
394.32	4.99
394.685	4.97
395.05	5
395.414	5.26
395.779	5.19
396.143	5.06
396.508	5
396.872	5.21
397.236	5.11
397.601	5.25
397.965	4.95
398.329	5.32
398.694	5.19
399.058	5.18
399.422	5.06
399.786	5.21
400.15	5.3
400.514	4.96
400.878	5.09
401.242	5.07
401.605	5.35
401.969	5.11
402.333	5.2
402.697	5.15
403.06	5.05
403.424	5.22
403.787	5.11
404.151	5.11
404.514	5.37
404.878	5.28
405.241	5.05
405.604	5.39
405.968	5.24
406.331	4.98
406.694	5.24
407.057	5.2
407.42	5.12
407.783	5.26
408.146	5.23
408.509	5.48
408.872	5.15
409.235	5.15
409.598	5.31
409.961	5.03
410.323	5.37
410.686	5.36
411.049	5.07
411.411	5.42
411.774	5.11
412.136	5.14
412.499	5.33
412.861	5.38
413.223	5.25
413.586	5.3
413.948	5.41
414.31	5.18
414.672	5.36
415.035	5.16
415.397	5.62
415.759	5.5
416.121	5.32
416.483	5.42
416.845	5.26
417.206	5.33
417.568	5.42
417.93	5.27
418.292	5.39
418.653	5.28
419.015	5.34
419.377	5.42
419.738	5.28
420.1	5.47
420.461	5.18
420.822	5.28
421.184	5.17
421.545	5.21
421.906	5.38
422.267	5.39
422.629	5.28
422.99	5.28
423.351	5.24
423.712	5.3
424.073	5.34
424.434	5.21
424.795	5.41
425.155	5.44
425.516	5.27
425.877	5.28
426.238	5.31
426.598	5.35
426.959	5.25
427.32	5.3
427.68	5.32
428.041	5.31
428.401	5.44
428.761	5.56
429.122	5.56
429.482	5.51
429.842	5.4
430.202	5.64
430.563	5.43
430.923	5.61
431.283	5.3
431.643	5.46
432.003	5.57
432.363	5.55
432.722	5.65
433.082	5.36
433.442	5.63
433.802	5.46
434.161	5.44
434.521	5.6
434.881	5.53
435.24	5.29
435.6	5.63
435.959	5.44
436.319	5.54
436.678	5.4
437.037	5.58
437.396	5.56
437.756	5.56
438.115	5.41
438.474	5.42
438.833	5.52
439.192	5.47
439.551	5.39
439.91	5.41
440.269	5.4
440.628	5.56
440.987	5.47
441.345	5.46
441.704	5.4
442.063	5.41
442.421	5.51
442.78	5.39
443.138	5.56
443.497	5.51
443.855	5.63
444.214	5.61
444.572	5.47
444.93	5.65
445.288	5.57
445.647	5.6
446.005	5.71
446.363	5.67
446.721	5.6
447.079	5.47
447.437	5.49
447.795	5.52
448.153	5.52
448.51	5.41
448.868	5.54
449.226	5.47
449.584	5.57
449.941	5.49
450.299	5.72
450.656	5.55
451.014	5.62
451.371	5.73
451.729	5.7
452.086	5.68
452.443	5.77
452.801	5.68
453.158	5.66
453.515	5.59
453.872	5.61
454.229	5.49
454.586	5.59
454.943	5.65
455.3	5.63
455.657	5.67
456.014	5.64
456.371	5.62
456.727	5.64
457.084	5.68
457.441	5.68
457.797	5.8
458.154	5.78
458.51	5.61
458.867	5.65
459.223	5.72
459.58	5.61
459.936	5.61
460.292	5.76
460.648	5.6
461.005	5.62
461.361	5.55
461.717	5.5
462.073	5.49
462.429	5.55
462.785	5.62
463.141	5.84
463.496	5.6
463.852	5.72
464.208	5.82
464.564	5.75
464.919	5.65
465.275	5.76
465.631	5.84
465.986	5.88
466.342	5.92
466.697	5.62
467.052	5.68
467.408	5.67
467.763	5.7
468.118	5.73
468.473	5.78
468.829	5.68
469.184	5.83
469.539	5.69
469.894	5.66
470.249	5.69
470.603	5.77
470.958	5.75
471.313	5.66
471.668	5.72
472.023	5.59
472.377	5.85
472.732	5.62
473.086	6
473.441	5.79
473.795	5.8
474.15	5.83
474.504	5.76
474.859	5.77
475.213	5.79
475.567	5.86
475.921	5.84
476.275	5.75
476.63	5.8
476.984	5.78
477.338	5.81
477.692	5.64
478.045	5.95
478.399	5.81
478.753	5.76
479.107	5.75
479.461	5.69
479.814	5.72
480.168	5.73
480.521	5.68
480.875	5.69
481.228	5.74
481.582	5.87
481.935	5.86
482.289	5.66
482.642	5.72
482.995	5.72
483.348	5.67
483.701	5.64
484.055	5.64
484.408	5.68
484.761	5.51
485.114	5.44
485.466	5.32
485.819	5.32
486.172	5.39
486.525	5.53
486.878	5.6
487.23	5.68
487.583	5.65
487.936	5.66
488.288	5.61
488.641	5.44
488.993	5.41
489.345	5.39
489.698	5.49
490.05	5.5
490.402	5.51
490.754	5.6
491.107	5.76
491.459	5.79
491.811	5.73
492.163	5.77
492.515	5.65
492.866	5.53
493.218	5.53
493.57	5.49
493.922	5.51
494.274	5.64
494.625	5.75
494.977	5.79
495.328	5.7
495.68	5.75
496.031	5.77
496.383	5.79
496.734	5.76
497.086	5.64
497.437	5.78
497.788	5.77
498.139	5.67
498.49	5.69
498.842	5.61
499.193	5.67
499.544	5.69
499.894	5.76
500.245	5.74
500.596	5.78
500.947	5.84
501.298	5.81
501.648	5.76
501.999	5.77
502.35	5.71
502.7	5.98
503.051	5.81
503.401	5.98
503.752	5.91
504.102	5.75
504.452	5.72
504.803	5.76
505.153	5.67
505.503	5.72
505.853	5.72
506.203	5.87
506.553	5.73
506.903	5.86
507.253	5.76
507.603	5.86
507.953	5.85
508.303	5.88
508.652	5.72
509.002	5.85
509.352	5.67
509.701	5.75
510.051	5.78
510.4	5.65
510.75	5.75
511.099	5.73
511.449	5.74
511.798	5.86
512.147	5.84
512.496	5.82
512.846	5.7
513.195	5.76
513.544	5.81
513.893	5.75
514.242	5.83
514.591	5.78
514.939	5.84
515.288	5.79
515.637	5.77
515.986	5.88
516.334	5.93
516.683	5.87
517.032	5.81
517.38	5.68
517.729	5.92
518.077	5.83
518.426	5.77
518.774	5.72
519.122	5.82
519.47	5.77
519.819	5.79
520.167	5.64
520.515	5.67
520.863	5.72
521.211	5.72
521.559	5.78
521.907	5.81
522.255	5.78
522.602	5.81
522.95	5.84
523.298	5.7
523.645	5.87
523.993	5.95
524.341	5.82
524.688	5.85
525.036	5.85
525.383	5.89
525.73	5.8
526.078	5.86
526.425	5.8
526.772	5.78
527.119	5.73
527.466	5.59
527.814	5.62
528.161	5.71
528.508	5.7
528.854	5.67
529.201	5.62
529.548	5.65
529.895	5.53
530.242	5.39
530.588	5.42
530.935	5.5
531.282	5.51
531.628	5.62
531.975	5.72
532.321	5.66
532.667	5.81
533.014	5.78
533.36	5.67
533.706	5.77
534.052	5.7
534.399	5.62
534.745	5.53
535.091	5.52
535.437	5.6
535.783	5.64
536.129	5.7
536.474	5.8
536.82	5.82
537.166	5.86
537.512	5.79
537.857	5.78
538.203	5.68
538.549	5.64
538.894	5.64
539.239	5.7
539.585	5.7
539.93	5.73
540.276	5.81
540.621	5.74
540.966	5.74
541.311	5.85
541.656	5.75
542.001	5.7
542.346	5.66
542.691	5.58
543.036	5.42
543.381	5.52
543.726	5.57
544.071	5.6
544.415	5.69
544.76	5.68
545.105	5.64
545.449	5.69
545.794	5.69
546.138	5.68
546.483	5.8
546.827	5.82
547.171	5.64
547.516	5.79
547.86	5.75
548.204	5.72
548.548	5.76
548.892	5.65
549.236	5.72
549.58	5.67
549.924	5.83
550.268	5.87
550.612	5.86
550.956	5.86
551.3	5.75
551.643	5.96
551.987	5.87
552.33	5.77
552.674	5.84
553.017	5.9
553.361	5.77
553.704	5.64
554.048	5.71
554.391	5.84
554.734	5.64
555.077	5.71
555.42	5.77
555.764	5.79
556.107	5.82
556.45	5.73
556.793	5.84
557.135	5.99
557.478	5.96
557.821	5.85
558.164	5.75
558.507	5.81
558.849	5.89
559.192	5.73
559.534	5.82
559.877	5.6
560.219	5.78
560.562	5.67
560.904	5.77
561.246	5.89
561.589	5.79
561.931	5.75
562.273	5.99
562.615	5.79
562.957	5.77
563.299	5.76
563.641	5.66
563.983	5.85
564.325	5.94
564.667	5.99
565.008	5.92
565.35	5.88
565.692	5.92
566.033	5.86
566.375	5.76
566.716	5.74
567.058	5.73
567.399	5.65
567.741	5.64
568.082	5.76
568.423	5.76
568.764	5.79
569.105	5.72
569.447	5.64
569.788	5.81
570.129	5.94
570.47	5.74
570.811	5.84
571.151	5.85
571.492	5.84
571.833	5.83
572.174	5.78
572.514	5.85
572.855	5.77
573.195	5.72
573.536	5.69
573.876	5.75
574.217	5.71
574.557	5.6
574.898	5.64
575.238	5.81
575.578	5.81
575.918	5.83
576.258	5.67
576.598	5.68
576.938	5.6
577.278	5.62
577.618	5.84
577.958	5.72
578.298	5.88
578.638	5.79
578.977	5.85
579.317	5.75
579.657	5.77
579.996	5.84
580.336	5.84
580.675	5.75
581.014	5.68
581.354	5.65
581.693	5.62
582.032	5.74
582.372	5.71
582.711	5.82
583.05	5.76
583.389	5.47
583.728	5.67
584.067	5.8
584.406	5.7
584.745	5.56
585.083	5.76
585.422	5.53
585.761	5.76
586.1	5.84
586.438	5.94
586.777	5.69
587.115	5.81
587.454	5.82
587.792	5.85
588.13	5.81
588.469	6
588.807	5.8
589.145	5.78
589.483	5.61
589.821	5.62
590.159	5.65
590.497	5.94
590.835	5.72
591.173	5.63
591.511	5.69
591.849	5.59
592.187	5.84
592.524	5.8
592.862	5.68
593.2	5.86
593.537	5.83
593.875	5.73
594.212	5.85
594.55	5.64
594.887	5.68
595.224	6
595.561	5.71
595.899	5.84
596.236	5.81
596.573	5.67
596.91	5.61
597.247	5.71
597.584	5.64
597.921	5.83
598.258	5.59
598.594	5.69
598.931	5.51
599.268	5.62
599.604	5.52
599.941	5.76
600.277	5.66
600.614	5.71
600.95	5.63
601.287	5.68
601.623	5.73
601.959	5.72
602.296	5.7
602.632	5.75
602.968	5.39
603.304	5.65
603.64	5.69
603.976	5.73
604.312	5.62
604.648	5.48
604.984	5.58
605.319	5.33
605.655	5.69
605.991	5.66
606.326	5.52
606.662	5.67
606.998	5.5
607.333	5.74
607.668	5.69
608.004	5.57
608.339	5.78
608.674	5.89
609.01	5.4
609.345	5.82
609.68	5.75
610.015	5.61
610.35	5.5
610.685	5.25
611.02	5.57
611.355	5.47
611.689	5.54
612.024	5.49
612.359	5.59
612.694	5.7
613.028	5.57
613.363	5.85
613.697	5.57
614.032	5.59
614.366	5.65
614.7	5.7
615.035	5.8
615.369	5.68
615.703	5.72
616.037	5.92
616.371	5.52
616.705	5.68
617.039	5.94
617.373	5.65
617.707	5.89
618.041	5.73
618.375	5.44
618.709	5.77
619.042	5.62
619.376	5.76
619.71	5.47
620.043	5.74
620.377	5.95
620.71	5.63
621.043	5.79
621.377	5.87
621.71	6.01
622.043	5.67
622.376	5.92
622.709	5.52
623.043	5.64
623.376	5.3
623.709	5.54
624.041	5.53
624.374	5.88
624.707	5.45
625.04	5.59
625.373	5.76
625.705	5.58
626.038	5.3
626.37	5.5
626.703	5.98
627.035	5.75
627.368	5.5
627.7	5.88
628.032	5.35
628.365	5.48
628.697	5.4
629.029	5.6
629.361	5.55
629.693	5.57
630.025	5.63
630.357	5.83
630.689	5.4
631.021	5.72
631.353	5.52
631.684	5.41
632.016	5.48
632.348	5.77
632.679	5.49
633.011	5.61
633.342	5.88
633.674	5.75
634.005	5.62
634.336	5.27
634.668	5.77
634.999	5.57
635.33	5.61
635.661	5.66
635.992	5.63
636.323	5.85
636.654	5.81
636.985	5.58
637.316	5.57
637.647	5.82
637.977	5.71
638.308	5.65
638.639	5.22
638.969	5.54
639.3	5.66
639.63	5.39
639.961	5.76
640.291	5.68
640.622	5.92
640.952	5.52
641.282	5.48
641.612	5.62
641.943	5.49
642.273	5.52
642.603	5.4
642.933	5.91
643.263	5.62
643.592	5.81
643.922	5.54
644.252	5.82
644.582	5.95
644.911	5.93
645.241	5.74
645.571	5.49
645.9	5.9
646.23	5.52
646.559	5.42
646.888	5.61
647.218	5.42
647.547	5.68
647.876	5.91
648.205	5.53
648.534	5.92
648.863	5.79
649.192	5.54
649.521	5.53
649.85	5.37
650.179	5.76
650.508	5.58
650.837	5.12
651.165	5.59
651.494	5.99
651.822	5.4
652.151	5.71
652.479	5.81
652.808	5.15
653.136	5.52
653.465	5.11
653.793	5.41
654.121	5.52
654.449	5.47
654.777	5.54
655.105	5.3
655.433	5.59
655.761	5.73
656.089	5.84
656.417	5.7
656.745	5.38
657.073	5.56
657.4	5.69
657.728	5.45
658.056	5.14
658.383	6.01
658.711	5.17
659.038	5.29
659.365	5.38
659.693	5.48
660.02	5.52
660.347	5.66
660.674	5.45
661.001	5.68
661.329	5.59
661.656	5.49
661.982	5.36
662.309	5.82
662.636	5.46
662.963	5.65
663.29	5.95
663.616	5.74
663.943	5.36
664.27	6
664.596	5.24
664.923	5.58
665.249	5.28
665.576	5.55
665.902	5.39
666.228	5.19
666.554	5.49
666.881	5.84
667.207	5.88
667.533	5.62
667.859	5.58
668.185	5.9
668.511	5.34
668.837	5.35
669.162	6.24
669.488	5.71
669.814	6.08
670.139	5.93
670.465	5.87
670.791	5.6
671.116	5.65
671.442	5.87
671.767	5.28
672.092	5.58
672.418	5.56
672.743	5.79
673.068	5.32
673.393	5.22
673.718	5.2
674.043	5.95
674.368	5.72
674.693	5.64
675.018	5.47
675.343	5.82
675.667	5.83
675.992	5.51
676.317	6.18
676.641	5.34
676.966	6.01
677.29	5.24
677.615	5.27
677.939	5.63
678.264	5.53
678.588	5.97
678.912	5.6
679.236	6.17
679.56	4.78
679.885	5.47
680.209	5.78
680.532	5.46
680.856	5.59
681.18	5.09
681.504	6.05
681.828	5.46
682.152	5.98
682.475	5.89
682.799	5.87
683.122	5.91
683.446	5.82
683.769	5.96
684.093	5.59
684.416	5.79
684.739	5.6
685.062	6.03
685.386	5.81
685.709	5.52
686.032	6.71
686.355	5.35
686.678	5.47
687.001	5.77
687.324	5.49
687.646	5.42
687.969	5.51
688.292	5.95
688.614	6.05
688.937	6.08
689.26	6.02
689.582	4.96
689.904	5.95
690.227	6.45
690.549	7
690.871	5.61
691.194	5.27
691.516	5.77
691.838	5.59
692.16	5.98
692.482	6.01
