Data from 0016_chest_Reflection__4__54.txt Node

Date: Mon Oct 17 14:50:22 CDT 2022
User: ToomeyLab
Spectrometer: FLMS14357
Trigger mode: 0
Integration Time (sec): 1.000000E-2
Scans to average: 100
Electric dark correction enabled: true
Nonlinearity correction enabled: false
Boxcar width: 0
XAxis mode: Wavelengths
Number of Pixels in Spectrum: 2048
>>>>>Begin Spectral Data<<<<<
189.047	-1040.7
189.435	-1040.7
189.823	-1040.7
190.211	2.65
190.599	105.38
190.987	259.17
191.375	142.31
191.763	374.45
192.151	224.03
192.538	49.91
192.926	21.23
193.314	30.17
193.702	119.23
194.089	405.82
194.477	-551.55
194.864	-24.32
195.252	337.57
195.639	63.53
196.027	255.46
196.414	-736.68
196.801	50.04
197.189	18.1
197.576	102.17
197.963	144.25
198.351	-63.25
198.738	15.42
199.125	-0.33
199.512	-40.94
199.899	-31.4
200.286	33.79
200.673	27.61
201.06	-7.14
201.447	24.59
201.833	30.94
202.22	30.92
202.607	-26.92
202.994	-30.37
203.38	34.69
203.767	-30.18
204.154	12.76
204.54	7.08
204.927	58.65
205.313	17.15
205.699	-6.57
206.086	-66.69
206.472	2.48
206.858	-6
207.245	3.89
207.631	28.07
208.017	-1.33
208.403	9.26
208.789	12.01
209.175	14.05
209.561	-13.81
209.947	-28.53
210.333	31.78
210.719	-4.65
211.105	-1.12
211.491	-10.28
211.876	-1.07
212.262	24.88
212.648	14.1
213.034	-0.83
213.419	-11.26
213.805	-0.48
214.19	-8.26
214.576	1.85
214.961	-20.26
215.346	-10.24
215.732	-8.01
216.117	-12.73
216.502	12.77
216.888	-40.33
217.273	7.07
217.658	20.04
218.043	-25.02
218.428	-20.35
218.813	1.51
219.198	8.49
219.583	-18.14
219.968	4.26
220.353	-7.37
220.738	3.1
221.122	-6.81
221.507	-13.21
221.892	0.21
222.276	-7.46
222.661	12.67
223.046	-2
223.43	2.68
223.815	-6.59
224.199	-4.82
224.583	-5.07
224.968	3.83
225.352	-11.41
225.736	5.75
226.121	-5.7
226.505	-2.6
226.889	6.05
227.273	6.18
227.657	6.06
228.041	5.92
228.425	3
228.809	2.7
229.193	2.84
229.577	5.81
229.961	6.16
230.344	3.44
230.728	3.74
231.112	4.36
231.495	3.76
231.879	5.09
232.263	4.09
232.646	4.09
233.03	3.27
233.413	2.93
233.797	2.61
234.18	6.8
234.563	2.9
234.946	3.72
235.33	2.75
235.713	4.49
236.096	4.84
236.479	1.84
236.862	3.95
237.245	2.3
237.628	3.32
238.011	3.85
238.394	4.79
238.777	4.34
239.16	4.45
239.543	3.53
239.925	4.21
240.308	4.45
240.691	3.93
241.073	3.94
241.456	3.83
241.838	3.69
242.221	3.39
242.603	3.71
242.986	4.19
243.368	4.39
243.75	4.04
244.133	4.32
244.515	4.04
244.897	4.55
245.279	4.92
245.661	4.05
246.043	4.17
246.425	2.61
246.807	3.73
247.189	3.35
247.571	4.07
247.953	3.83
248.335	3.87
248.717	4.3
249.098	4.38
249.48	4.17
249.862	3.98
250.243	3.96
250.625	4.13
251.006	3.8
251.388	4.1
251.769	4.21
252.151	4.02
252.532	3.96
252.913	3.94
253.295	3.31
253.676	4.34
254.057	3.89
254.438	4.09
254.819	4.94
255.2	5.07
255.581	4.65
255.962	3.15
256.343	2.89
256.724	3.73
257.105	3.58
257.486	3.39
257.867	3.45
258.247	3.97
258.628	4.16
259.009	4.2
259.389	3.88
259.77	4.24
260.15	4
260.531	3.65
260.911	3.86
261.292	3.98
261.672	3.86
262.052	4.15
262.432	3.75
262.813	4.05
263.193	4.18
263.573	3.96
263.953	3.43
264.333	4.17
264.713	3.23
265.093	4.22
265.473	4.26
265.853	3.9
266.233	5.07
266.612	3.85
266.992	4.23
267.372	4.7
267.752	4.25
268.131	4.25
268.511	4.06
268.89	3.88
269.27	3.69
269.649	3.88
270.029	3.6
270.408	3.96
270.787	3.39
271.167	3.67
271.546	3.22
271.925	3.45
272.304	3.78
272.683	3.99
273.062	3.57
273.441	3.59
273.82	3.82
274.199	3.8
274.578	3.87
274.957	3.81
275.336	3.96
275.715	4.06
276.093	3.99
276.472	3.33
276.851	3.91
277.229	3.42
277.608	3.42
277.986	3.19
278.365	3.8
278.743	4.31
279.122	3.49
279.5	3.84
279.878	4.19
280.257	3.59
280.635	3.41
281.013	3.89
281.391	2.96
281.769	3.65
282.147	4
282.525	3.72
282.903	3.1
283.281	3.43
283.659	3.48
284.037	3.66
284.415	3.75
284.792	3.93
285.17	3.21
285.548	3.49
285.925	3.56
286.303	3.56
286.68	3.68
287.058	4
287.435	3.88
287.813	3.65
288.19	3.79
288.567	3.35
288.945	3.62
289.322	4.24
289.699	4.08
290.076	3.55
290.453	3.6
290.83	3.54
291.207	3.76
291.584	4.13
291.961	3.36
292.338	3.96
292.715	3.57
293.092	3.66
293.469	3.56
293.845	3.82
294.222	3.88
294.599	4.21
294.975	3.28
295.352	3.57
295.728	3.54
296.105	3.72
296.481	3.78
296.858	4.42
297.234	3.79
297.61	3.44
297.986	3.51
298.363	3.68
298.739	4.25
299.115	3.63
299.491	4.02
299.867	3.92
300.243	3.8
300.619	3.65
300.995	3.58
301.371	3.61
301.746	3.53
302.122	3.76
302.498	4
302.874	3.85
303.249	3.89
303.625	4.35
304	4.07
304.376	4.18
304.751	4.48
305.127	3.96
305.502	3.58
305.878	3.56
306.253	3.64
306.628	3.87
307.003	3.78
307.378	3.85
307.754	4.01
308.129	3.95
308.504	4.03
308.879	4.16
309.254	3.51
309.629	3.85
310.003	4.14
310.378	3.54
310.753	3.75
311.128	3.5
311.502	3.95
311.877	3.92
312.252	3.91
312.626	3.82
313.001	3.7
313.375	3.57
313.75	3.65
314.124	4.14
314.498	4.29
314.873	3.83
315.247	4.24
315.621	4.57
315.995	3.61
316.369	3.53
316.743	4.07
317.117	4.09
317.491	3.89
317.865	4.32
318.239	4.11
318.613	3.93
318.987	3.71
319.361	3.67
319.734	4.05
320.108	4.04
320.482	4.16
320.855	3.51
321.229	3.55
321.602	3.77
321.976	3.84
322.349	4.03
322.723	3.45
323.096	4.23
323.469	3.66
323.843	3.85
324.216	3.78
324.589	3.25
324.962	3.86
325.335	3.41
325.708	4.39
326.081	3.83
326.454	4.09
326.827	3.78
327.2	3.47
327.573	3.66
327.945	3.66
328.318	3.71
328.691	3.85
329.063	3.5
329.436	3.93
329.809	4
330.181	3.88
330.553	3.51
330.926	3.73
331.298	4.2
331.671	4.2
332.043	3.89
332.415	3.79
332.787	3.99
333.159	3.83
333.532	3.7
333.904	3.93
334.276	3.95
334.648	3.56
335.02	3.63
335.391	3.92
335.763	4.07
336.135	4.02
336.507	3.94
336.879	4.04
337.25	4.08
337.622	3.54
337.993	4.28
338.365	3.75
338.736	3.64
339.108	4.01
339.479	3.8
339.851	4.31
340.222	3.57
340.593	4
340.964	3.83
341.336	3.93
341.707	4.32
342.078	4.39
342.449	4.02
342.82	4.29
343.191	3.88
343.562	3.7
343.933	3.87
344.303	3.8
344.674	4.27
345.045	3.93
345.416	3.69
345.786	3.89
346.157	3.96
346.527	3.73
346.898	4.16
347.268	3.91
347.639	3.51
348.009	4.14
348.38	3.65
348.75	3.71
349.12	4.21
349.49	3.99
349.861	4.59
350.231	3.86
350.601	4.28
350.971	3.93
351.341	3.51
351.711	3.38
352.081	3.31
352.45	4.31
352.82	3.79
353.19	3.77
353.56	4.01
353.929	3.95
354.299	3.84
354.669	4.28
355.038	4.25
355.408	3.83
355.777	3.78
356.147	3.81
356.516	3.93
356.885	3.82
357.254	4.28
357.624	4.02
357.993	4.03
358.362	3.66
358.731	3.78
359.1	3.92
359.469	3.86
359.838	4.28
360.207	3.83
360.576	3.65
360.945	4.14
361.314	4.08
361.682	4.2
362.051	3.94
362.42	3.8
362.788	3.98
363.157	4.17
363.525	3.85
363.894	4
364.262	3.71
364.631	4.21
364.999	4.47
365.367	3.7
365.735	4.09
366.104	4.03
366.472	3.76
366.84	4.02
367.208	4.12
367.576	4.02
367.944	3.72
368.312	4.22
368.68	4.25
369.048	4.28
369.416	4.27
369.783	3.91
370.151	3.95
370.519	4.38
370.886	4.13
371.254	3.92
371.621	3.9
371.989	3.93
372.356	4.21
372.724	4.41
373.091	4.16
373.458	4.03
373.826	4.1
374.193	4.43
374.56	3.88
374.927	4
375.294	4.28
375.661	4.06
376.028	4.01
376.395	3.91
376.762	4.33
377.129	4.32
377.496	4
377.863	3.83
378.229	4.05
378.596	4.09
378.963	4.14
379.329	3.89
379.696	4.18
380.062	4.17
380.429	3.85
380.795	4.52
381.161	4
381.528	4.06
381.894	4.25
382.26	4.12
382.626	4.27
382.993	4.11
383.359	4.15
383.725	4.2
384.091	4.26
384.457	4.09
384.823	3.97
385.188	4.12
385.554	4.16
385.92	4.45
386.286	4.19
386.651	4.17
387.017	4.17
387.383	4.11
387.748	3.97
388.114	3.71
388.479	4.18
388.845	4.37
389.21	4.07
389.575	4.01
389.94	4.19
390.306	4.32
390.671	4.57
391.036	4.46
391.401	4.06
391.766	4.2
392.131	4.04
392.496	4.23
392.861	4.14
393.226	4.17
393.591	4.02
393.956	4.28
394.32	4.19
394.685	4.07
395.05	4.12
395.414	4.35
395.779	4.26
396.143	4.23
396.508	4.28
396.872	4.21
397.236	4.18
397.601	4.08
397.965	4.05
398.329	4.31
398.694	4.4
399.058	4.18
399.422	4.32
399.786	4.35
400.15	4.47
400.514	4.27
400.878	4.04
401.242	4.05
401.605	4.37
401.969	4.39
402.333	4.22
402.697	4.13
403.06	4.08
403.424	4.36
403.787	4.19
404.151	4.05
404.514	4.48
404.878	4.26
405.241	4.35
405.604	4.37
405.968	4.31
406.331	4.19
406.694	4.22
407.057	4.22
407.42	4.12
407.783	4.37
408.146	4.3
408.509	4.38
408.872	4.16
409.235	4.22
409.598	4.14
409.961	3.98
410.323	4.15
410.686	4.34
411.049	4.12
411.411	4.3
411.774	4.22
412.136	4.23
412.499	4.46
412.861	4.39
413.223	4.05
413.586	4.15
413.948	4.38
414.31	4.22
414.672	4.18
415.035	4.38
415.397	4.39
415.759	4.36
416.121	4.31
416.483	4.49
416.845	4.37
417.206	4.24
417.568	4.3
417.93	4.27
418.292	4.59
418.653	4.31
419.015	4.23
419.377	4.28
419.738	4.25
420.1	4.4
420.461	4.35
420.822	4.28
421.184	4.27
421.545	4.28
421.906	4.27
422.267	4.27
422.629	4.22
422.99	4.2
423.351	4.27
423.712	4.28
424.073	4.33
424.434	4.3
424.795	4.46
425.155	4.4
425.516	4.18
425.877	4.25
426.238	4.21
426.598	4.27
426.959	4.18
427.32	4.36
427.68	4.29
428.041	4.21
428.401	4.42
428.761	4.5
429.122	4.47
429.482	4.41
429.842	4.41
430.202	4.35
430.563	4.4
430.923	4.34
431.283	4.55
431.643	4.45
432.003	4.45
432.363	4.55
432.722	4.47
433.082	4.19
433.442	4.34
433.802	4.5
434.161	4.36
434.521	4.48
434.881	4.41
435.24	4.33
435.6	4.51
435.959	4.43
436.319	4.41
436.678	4.33
437.037	4.43
437.396	4.5
437.756	4.62
438.115	4.32
438.474	4.22
438.833	4.46
439.192	4.37
439.551	4.4
439.91	4.48
440.269	4.5
440.628	4.39
440.987	4.38
441.345	4.47
441.704	4.48
442.063	4.39
442.421	4.38
442.78	4.39
443.138	4.48
443.497	4.53
443.855	4.56
444.214	4.41
444.572	4.29
444.93	4.43
445.288	4.47
445.647	4.55
446.005	4.57
446.363	4.58
446.721	4.35
447.079	4.44
447.437	4.47
447.795	4.42
448.153	4.52
448.51	4.42
448.868	4.59
449.226	4.51
449.584	4.48
449.941	4.52
450.299	4.63
450.656	4.4
451.014	4.56
451.371	4.61
451.729	4.6
452.086	4.55
452.443	4.66
452.801	4.64
453.158	4.62
453.515	4.49
453.872	4.6
454.229	4.54
454.586	4.61
454.943	4.53
455.3	4.62
455.657	4.53
456.014	4.52
456.371	4.58
456.727	4.7
457.084	4.54
457.441	4.67
457.797	4.65
458.154	4.63
458.51	4.69
458.867	4.65
459.223	4.48
459.58	4.62
459.936	4.42
460.292	4.59
460.648	4.63
461.005	4.58
461.361	4.53
461.717	4.49
462.073	4.51
462.429	4.57
462.785	4.6
463.141	4.77
463.496	4.55
463.852	4.84
464.208	4.65
464.564	4.64
464.919	4.71
465.275	4.46
465.631	4.6
465.986	4.67
466.342	4.62
466.697	4.79
467.052	4.79
467.408	4.54
467.763	4.54
468.118	4.78
468.473	4.85
468.829	4.62
469.184	4.73
469.539	4.61
469.894	4.78
470.249	4.78
470.603	4.65
470.958	4.78
471.313	4.56
471.668	4.81
472.023	4.75
472.377	4.84
472.732	4.53
473.086	4.81
473.441	4.66
473.795	4.74
474.15	4.72
474.504	4.82
474.859	4.71
475.213	4.79
475.567	4.97
475.921	4.66
476.275	4.62
476.63	4.95
476.984	4.91
477.338	4.86
477.692	4.71
478.045	4.96
478.399	4.75
478.753	4.79
479.107	4.87
479.461	4.74
479.814	4.74
480.168	4.77
480.521	4.83
480.875	4.82
481.228	4.74
481.582	4.88
481.935	4.82
482.289	4.73
482.642	4.75
482.995	4.87
483.348	4.71
483.701	4.77
484.055	4.69
484.408	4.75
484.761	4.67
485.114	4.59
485.466	4.49
485.819	4.49
486.172	4.54
486.525	4.57
486.878	4.61
487.23	4.65
487.583	4.77
487.936	4.77
488.288	4.79
488.641	4.66
488.993	4.61
489.345	4.56
489.698	4.63
490.05	4.62
490.402	4.65
490.754	4.69
491.107	4.75
491.459	4.79
491.811	4.83
492.163	4.88
492.515	4.74
492.866	4.75
493.218	4.7
493.57	4.72
493.922	4.78
494.274	4.75
494.625	4.82
494.977	4.85
495.328	4.85
495.68	4.99
496.031	5.04
496.383	4.95
496.734	4.87
497.086	4.95
497.437	4.92
497.788	5.01
498.139	4.87
498.49	4.91
498.842	4.94
499.193	4.85
499.544	4.95
499.894	4.94
500.245	4.94
500.596	4.98
500.947	5.09
501.298	4.99
501.648	5.04
501.999	4.98
502.35	5.04
502.7	5.14
503.051	5.08
503.401	5.19
503.752	5.24
504.102	5.06
504.452	5.01
504.803	5.12
505.153	5.17
505.503	4.99
505.853	5.08
506.203	5.12
506.553	5.2
506.903	5
507.253	5.09
507.603	5.21
507.953	5.18
508.303	5.18
508.652	5.04
509.002	5.19
509.352	5.15
509.701	5.04
510.051	5.23
510.4	4.99
510.75	5.11
511.099	5.09
511.449	5.2
511.798	5.15
512.147	5.24
512.496	5.25
512.846	5.1
513.195	5.22
513.544	5.2
513.893	5.21
514.242	5.23
514.591	5.28
514.939	5.18
515.288	5.21
515.637	5.32
515.986	5.31
516.334	5.36
516.683	5.32
517.032	5.2
517.38	5.27
517.729	5.3
518.077	5.21
518.426	5.2
518.774	5.35
519.122	5.32
519.47	5.2
519.819	5.38
520.167	5.21
520.515	5.22
520.863	5.29
521.211	5.2
521.559	5.3
521.907	5.35
522.255	5.28
522.602	5.29
522.95	5.42
523.298	5.34
523.645	5.42
523.993	5.43
524.341	5.56
524.688	5.42
525.036	5.52
525.383	5.52
525.73	5.44
526.078	5.48
526.425	5.48
526.772	5.52
527.119	5.39
527.466	5.3
527.814	5.33
528.161	5.46
528.508	5.42
528.854	5.44
529.201	5.44
529.548	5.4
529.895	5.28
530.242	5.27
530.588	5.28
530.935	5.35
531.282	5.35
531.628	5.4
531.975	5.42
532.321	5.42
532.667	5.56
533.014	5.56
533.36	5.58
533.706	5.65
534.052	5.62
534.399	5.56
534.745	5.52
535.091	5.54
535.437	5.58
535.783	5.58
536.129	5.6
536.474	5.76
536.82	5.7
537.166	5.76
537.512	5.73
537.857	5.78
538.203	5.65
538.549	5.68
538.894	5.79
539.239	5.82
539.585	5.75
539.93	5.82
540.276	5.82
540.621	5.84
540.966	5.87
541.311	5.9
541.656	5.9
542.001	5.85
542.346	5.8
542.691	5.76
543.036	5.72
543.381	5.73
543.726	5.76
544.071	5.78
544.415	5.81
544.76	5.85
545.105	5.85
545.449	5.94
545.794	5.92
546.138	5.97
546.483	6.03
546.827	6.12
547.171	5.93
547.516	6.1
547.86	6.17
548.204	6.09
548.548	6.1
548.892	6.08
549.236	6.12
549.58	6.14
549.924	6.06
550.268	6.31
550.612	6.21
550.956	6.32
551.3	6.1
551.643	6.34
551.987	6.4
552.33	6.41
552.674	6.44
553.017	6.35
553.361	6.46
553.704	6.39
554.048	6.26
554.391	6.5
554.734	6.32
555.077	6.37
555.42	6.44
555.764	6.54
556.107	6.42
556.45	6.58
556.793	6.51
557.135	6.79
557.478	6.66
557.821	6.65
558.164	6.67
558.507	6.68
558.849	6.51
559.192	6.68
559.534	6.69
559.877	6.35
560.219	6.54
560.562	6.6
560.904	6.7
561.246	6.94
561.589	6.79
561.931	6.68
562.273	6.76
562.615	6.76
562.957	6.79
563.299	6.75
563.641	6.83
563.983	7
564.325	7.06
564.667	7.06
565.008	7.06
565.35	6.93
565.692	7.16
566.033	7.07
566.375	6.95
566.716	7
567.058	6.97
567.399	6.95
567.741	7.03
568.082	7.08
568.423	7.03
568.764	7.11
569.105	7.13
569.447	7.16
569.788	7.19
570.129	7.26
570.47	7.26
570.811	7.23
571.151	7.25
571.492	7.27
571.833	7.23
572.174	7.3
572.514	7.27
572.855	7.27
573.195	7.26
573.536	7.16
573.876	7.35
574.217	7.45
574.557	7.24
574.898	7.41
575.238	7.47
575.578	7.54
575.918	7.41
576.258	7.42
576.598	7.53
576.938	7.53
577.278	7.73
577.618	7.69
577.958	7.4
578.298	7.67
578.638	7.71
578.977	7.69
579.317	7.81
579.657	7.69
579.996	7.79
580.336	7.88
580.675	7.71
581.014	7.72
581.354	7.67
581.693	7.73
582.032	7.91
582.372	7.8
582.711	7.76
583.05	7.85
583.389	7.79
583.728	7.98
584.067	7.96
584.406	7.8
584.745	8.1
585.083	8.02
585.422	8.17
585.761	8.2
586.1	8.29
586.438	8.38
586.777	8.36
587.115	8.14
587.454	8.51
587.792	8.47
588.13	8.5
588.469	8.54
588.807	8.36
589.145	8.38
589.483	8.38
589.821	8.4
590.159	8.42
590.497	8.55
590.835	8.41
591.173	8.56
591.511	8.58
591.849	8.66
592.187	8.57
592.524	8.68
592.862	8.58
593.2	8.66
593.537	9.04
593.875	8.77
594.212	8.88
594.55	8.62
594.887	8.64
595.224	8.96
595.561	8.84
595.899	8.9
596.236	8.94
596.573	8.74
596.91	8.96
597.247	9.06
597.584	8.84
597.921	8.97
598.258	9.08
598.594	9.01
598.931	8.97
599.268	8.98
599.604	9.14
599.941	9.17
600.277	9.14
600.614	9.31
600.95	9.32
601.287	9.04
601.623	9.25
601.959	9.15
602.296	9.36
602.632	9.15
602.968	9.44
603.304	9.48
603.64	9.31
603.976	9.4
604.312	9.56
604.648	9.52
604.984	9.38
605.319	9.36
605.655	9.75
605.991	9.72
606.326	9.64
606.662	9.6
606.998	9.59
607.333	9.75
607.668	9.83
608.004	9.69
608.339	9.53
608.674	10
609.01	9.81
609.345	10.13
609.68	9.97
610.015	10.07
610.35	10.09
610.685	9.84
611.02	9.9
611.355	10.12
611.689	9.86
612.024	10.22
612.359	10.17
612.694	10.33
613.028	10.22
613.363	10.11
613.697	10.18
614.032	10.53
614.366	10.34
614.7	10.35
615.035	10.47
615.369	10.86
615.703	10.26
616.037	10.56
616.371	10.38
616.705	10.41
617.039	10.94
617.373	10.71
617.707	10.63
618.041	10.48
618.375	10.28
618.709	10.98
619.042	10.97
619.376	11.1
619.71	10.67
620.043	10.9
620.377	11.11
620.71	11.13
621.043	11.12
621.377	11.21
621.71	11.26
622.043	11.08
622.376	11.38
622.709	11.14
623.043	11.11
623.376	10.91
623.709	11
624.041	10.81
624.374	11.32
624.707	10.99
625.04	11.25
625.373	11.61
625.705	10.79
626.038	11.11
626.37	10.94
626.703	11.82
627.035	11.35
627.368	11.54
627.7	11.32
628.032	11.52
628.365	11.37
628.697	11.47
629.029	11.61
629.361	11.59
629.693	11.65
630.025	11.84
630.357	11.75
630.689	11.42
631.021	11.57
631.353	11.59
631.684	11.68
632.016	11.89
632.348	12.23
632.679	11.96
633.011	11.76
633.342	11.91
633.674	12.53
634.005	11.92
634.336	11.95
634.668	12.31
634.999	12.35
635.33	12.15
635.661	12.3
635.992	12.21
636.323	12.6
636.654	12.48
636.985	12.29
637.316	12.16
637.647	12.36
637.977	12.21
638.308	12.54
638.639	12.6
638.969	12.41
639.3	12.46
639.63	12.48
639.961	12.49
640.291	12.51
640.622	12.45
640.952	12.78
641.282	12.53
641.612	12.72
641.943	12.75
642.273	12.6
642.603	12.66
642.933	12.66
643.263	12.95
643.592	12.74
643.922	13.04
644.252	12.73
644.582	13.19
644.911	13.68
645.241	13.46
645.571	12.62
645.9	13.36
646.23	12.94
646.559	13.65
646.888	13.23
647.218	13.15
647.547	13.49
647.876	13.1
648.205	13.08
648.534	13.32
648.863	13.34
649.192	13.63
649.521	13.34
649.85	13.48
650.179	13.6
650.508	13.7
650.837	13.28
651.165	14.02
651.494	13.93
651.822	13.92
652.151	13.79
652.479	13.73
652.808	13.78
653.136	14.01
653.465	13.71
653.793	13.88
654.121	13.74
654.449	14.08
654.777	14.31
655.105	13.84
655.433	14.16
655.761	13.92
656.089	14.34
656.417	13.97
656.745	13.95
657.073	14.42
657.4	13.92
657.728	14.28
658.056	13.96
658.383	14.37
658.711	14.58
659.038	14.15
659.365	14.21
659.693	14.22
660.02	14.18
660.347	14.45
660.674	14.67
661.001	14.65
661.329	14.7
661.656	14.44
661.982	14.59
662.309	14.94
662.636	14.9
662.963	14.65
663.29	14.63
663.616	14.68
663.943	14.95
664.27	14.65
664.596	14.67
664.923	15.4
665.249	14.95
665.576	14.79
665.902	15.05
666.228	15.12
666.554	14.97
666.881	15.26
667.207	15.45
667.533	15.64
667.859	15.22
668.185	15.45
668.511	15.59
668.837	15.36
669.162	15.58
669.488	15.69
669.814	15.89
670.139	15.53
670.465	15.36
670.791	15.59
671.116	15.32
671.442	15.53
671.767	15.44
672.092	15.29
672.418	15.72
672.743	15.38
673.068	15.9
673.393	15.37
673.718	15.77
674.043	16.16
674.368	15.94
674.693	15.77
675.018	16.32
675.343	16.02
675.667	15.98
675.992	15.99
676.317	16.15
676.641	15.47
676.966	15.8
677.29	16.46
677.615	16.13
677.939	16.36
678.264	16.48
678.588	15.81
678.912	16.64
679.236	16.78
679.56	15.98
679.885	16.23
680.209	16.36
680.532	16.31
680.856	16.6
681.18	16.46
681.504	17.06
681.828	16.91
682.152	16.77
682.475	16.61
682.799	16.78
683.122	16.09
683.446	16.48
683.769	16.64
684.093	16.56
684.416	17.24
684.739	16.86
685.062	17.24
685.386	17.25
685.709	16.74
686.032	17.91
686.355	16.91
686.678	16.73
687.001	16.65
