Data from 0016_chest_Reflection__1__51.txt Node

Date: Mon Oct 17 14:49:40 CDT 2022
User: ToomeyLab
Spectrometer: FLMS14357
Trigger mode: 0
Integration Time (sec): 1.000000E-2
Scans to average: 100
Electric dark correction enabled: true
Nonlinearity correction enabled: false
Boxcar width: 0
XAxis mode: Wavelengths
Number of Pixels in Spectrum: 2048
>>>>>Begin Spectral Data<<<<<
189.047	1214.29
189.435	1214.29
189.823	1214.29
190.211	105.3
190.599	172.02
190.987	-828.68
191.375	173.56
191.763	-57.37
192.151	-242.69
192.538	110.14
192.926	-43.82
193.314	97.39
193.702	-133.53
194.089	77.98
194.477	376.98
194.864	-89.15
195.252	54.33
195.639	67.66
196.027	113.14
196.414	15.76
196.801	30.99
197.189	145.05
197.576	55.71
197.963	-159.19
198.351	-43.14
198.738	58.94
199.125	-54.94
199.512	39.22
199.899	11.28
200.286	26.66
200.673	-16.76
201.06	-56.57
201.447	15.88
201.833	55.08
202.22	29.21
202.607	-20.17
202.994	20.65
203.38	-29.88
203.767	29.74
204.154	53.85
204.54	-24.92
204.927	-15.97
205.313	-4.72
205.699	9.21
206.086	-34.66
206.472	-5.56
206.858	5.59
207.245	-10.57
207.631	22.22
208.017	18.01
208.403	19.29
208.789	17.47
209.175	47.9
209.561	-25.24
209.947	-10.15
210.333	9.3
210.719	0.92
211.105	25.59
211.491	2.31
211.876	-11.13
212.262	-5.37
212.648	-10.31
213.034	-28.68
213.419	9.81
213.805	-32.33
214.19	20.4
214.576	-8.45
214.961	-16.95
215.346	-9.21
215.732	-10.88
216.117	3.49
216.502	6.86
216.888	17.3
217.273	6.7
217.658	11.06
218.043	7.08
218.428	-8.33
218.813	13.53
219.198	-1.8
219.583	-9.59
219.968	3.25
220.353	-8.61
220.738	-29.2
221.122	2.03
221.507	-20
221.892	5.36
222.276	-14.6
222.661	12.39
223.046	-3.5
223.43	14.01
223.815	-5.59
224.199	-7.74
224.583	-6.58
224.968	-6.65
225.352	-10.53
225.736	-0.78
226.121	0.49
226.505	3.89
226.889	3.37
227.273	0.11
227.657	10.06
228.041	5.32
228.425	1.59
228.809	6.29
229.193	3.32
229.577	4.03
229.961	5.14
230.344	3.36
230.728	4.04
231.112	4.75
231.495	3.61
231.879	3.96
232.263	4.01
232.646	5.3
233.03	3.49
233.413	2.91
233.797	3.18
234.18	5.21
234.563	-0
234.946	5.12
235.33	3.58
235.713	2.94
236.096	4.76
236.479	3.91
236.862	2.47
237.245	4.39
237.628	3.24
238.011	2.52
238.394	4.88
238.777	4.13
239.16	5.17
239.543	2.65
239.925	3.42
240.308	3.07
240.691	3.46
241.073	3.69
241.456	3.98
241.838	3.17
242.221	3.28
242.603	3.89
242.986	3.27
243.368	4.22
243.75	4.18
244.133	3.91
244.515	3.8
244.897	4.27
245.279	4.02
245.661	3.99
246.043	4.51
246.425	3.33
246.807	3.62
247.189	4.05
247.571	3.97
247.953	3.73
248.335	3.7
248.717	4.09
249.098	4.09
249.48	3.65
249.862	3.79
250.243	3.75
250.625	3.85
251.006	3.71
251.388	4.4
251.769	4.14
252.151	3.2
252.532	3.77
252.913	3.47
253.295	3.09
253.676	4.06
254.057	4.24
254.438	3.86
254.819	4.71
255.2	4.41
255.581	4.03
255.962	2.39
256.343	3.2
256.724	2.93
257.105	3.15
257.486	2.88
257.867	2.94
258.247	2.91
258.628	3.97
259.009	4.75
259.389	3.9
259.77	3.69
260.15	3.21
260.531	3.6
260.911	3.62
261.292	3.82
261.672	3.56
262.052	3.71
262.432	3.58
262.813	3.46
263.193	3.94
263.573	4.09
263.953	3.34
264.333	3.32
264.713	3.17
265.093	3.23
265.473	3.29
265.853	4.33
266.233	4.57
266.612	3.26
266.992	4.1
267.372	3.8
267.752	3.8
268.131	3.97
268.511	3.54
268.89	3.85
269.27	3.82
269.649	3.8
270.029	3.76
270.408	4.32
270.787	3.53
271.167	3.06
271.546	3.52
271.925	2.96
272.304	4.19
272.683	3.81
273.062	3.32
273.441	3.42
273.82	3.36
274.199	3.54
274.578	3.3
274.957	3.29
275.336	3.29
275.715	3.31
276.093	3.43
276.472	3
276.851	4.14
277.229	2.88
277.608	3.53
277.986	3.31
278.365	3.63
278.743	3.53
279.122	3.07
279.5	3.93
279.878	3.64
280.257	3.01
280.635	2.76
281.013	3.1
281.391	2.94
281.769	3.45
282.147	4.12
282.525	3.31
282.903	2.94
283.281	3.41
283.659	3.53
284.037	3.45
284.415	3.62
284.792	3.16
285.17	2.74
285.548	3.01
285.925	3.79
286.303	3.34
286.68	3.31
287.058	3.48
287.435	3.63
287.813	3.29
288.19	3.29
288.567	3.18
288.945	3.25
289.322	3.58
289.699	3.33
290.076	3.16
290.453	2.97
290.83	3.07
291.207	3.27
291.584	3.31
291.961	3.29
292.338	3.39
292.715	3.36
293.092	3.14
293.469	3.01
293.845	3.53
294.222	3.52
294.599	3.74
294.975	2.69
295.352	2.8
295.728	3.28
296.105	3.01
296.481	3.46
296.858	3.5
297.234	3.28
297.61	3.16
297.986	3.09
298.363	3.19
298.739	3.64
299.115	3.17
299.491	3.44
299.867	3.18
300.243	3.46
300.619	2.96
300.995	3.08
301.371	3.29
301.746	3.03
302.122	3.34
302.498	3.38
302.874	3.76
303.249	3.54
303.625	3.41
304	3.39
304.376	3.63
304.751	3.25
305.127	3.48
305.502	2.98
305.878	3.23
306.253	3.05
306.628	3.15
307.003	3.52
307.378	3.54
307.754	2.86
308.129	3.26
308.504	3.49
308.879	3.37
309.254	3.18
309.629	2.9
310.003	3.02
310.378	3.27
310.753	3.17
311.128	3.39
311.502	3.29
311.877	3.06
312.252	3.06
312.626	2.99
313.001	3.27
313.375	3.03
313.75	3.26
314.124	3.12
314.498	3.23
314.873	3.32
315.247	3.11
315.621	3.68
315.995	3.22
316.369	3.1
316.743	3.19
317.117	3.46
317.491	3.12
317.865	3.5
318.239	3.22
318.613	3.28
318.987	3.31
319.361	2.76
319.734	3.34
320.108	2.93
320.482	3.35
320.855	2.84
321.229	2.96
321.602	3.25
321.976	2.94
322.349	3.34
322.723	3.4
323.096	3.35
323.469	3.49
323.843	3.31
324.216	3.52
324.589	3.27
324.962	3.03
325.335	2.99
325.708	3.46
326.081	3.29
326.454	3.91
326.827	3.21
327.2	3.29
327.573	3.19
327.945	3.24
328.318	3.05
328.691	3.02
329.063	3.3
329.436	3.18
329.809	2.95
330.181	3.78
330.553	3.24
330.926	3.33
331.298	3.16
331.671	3.76
332.043	3.36
332.415	3.64
332.787	3.45
333.159	3.18
333.532	3.15
333.904	2.77
334.276	3.51
334.648	3.2
335.02	2.93
335.391	3.68
335.763	3.31
336.135	3.04
336.507	3.53
336.879	3.33
337.25	3.34
337.622	3.05
337.993	3.35
338.365	3.38
338.736	3.22
339.108	3.38
339.479	3.3
339.851	3.57
340.222	3.04
340.593	3.41
340.964	3.29
341.336	3.04
341.707	3.54
342.078	3.92
342.449	3.12
342.82	2.85
343.191	3.17
343.562	3.45
343.933	3.27
344.303	3.05
344.674	3.72
345.045	3.38
345.416	3.27
345.786	3.53
346.157	3.06
346.527	3.23
346.898	3.68
347.268	3.43
347.639	3.06
348.009	3.04
348.38	3.36
348.75	3.24
349.12	3.02
349.49	3.21
349.861	3.45
350.231	3.1
350.601	2.98
350.971	3.42
351.341	3.13
351.711	3.07
352.081	3.35
352.45	3.36
352.82	3.59
353.19	3.04
353.56	3.04
353.929	3.61
354.299	3.21
354.669	3.57
355.038	3.53
355.408	3.45
355.777	2.94
356.147	3.55
356.516	3.14
356.885	3.34
357.254	3.53
357.624	3.49
357.993	3.43
358.362	3.02
358.731	3.2
359.1	3.41
359.469	3.23
359.838	3.38
360.207	3.64
360.576	3.17
360.945	3.16
361.314	3.38
361.682	3.35
362.051	3.24
362.42	3.15
362.788	3.29
363.157	3.39
363.525	3.35
363.894	3.39
364.262	3.49
364.631	3.27
364.999	3.25
365.367	3.04
365.735	3.66
366.104	3.3
366.472	3.11
366.84	3.55
367.208	3.39
367.576	3.47
367.944	3.38
368.312	3.48
368.68	3.52
369.048	3.46
369.416	3.68
369.783	3.49
370.151	3.35
370.519	3.33
370.886	3.53
371.254	3.16
371.621	3.11
371.989	3.4
372.356	3.34
372.724	3.39
373.091	3.52
373.458	3.34
373.826	3.34
374.193	3.63
374.56	3.49
374.927	3.36
375.294	3.26
375.661	3.47
376.028	3.55
376.395	3.37
376.762	3.44
377.129	3.4
377.496	3.28
377.863	3.03
378.229	3.14
378.596	3.35
378.963	3.5
379.329	3.49
379.696	3.31
380.062	3.51
380.429	3.13
380.795	3.74
381.161	3.53
381.528	3.38
381.894	3.3
382.26	3.49
382.626	3.89
382.993	3.52
383.359	3.67
383.725	3.52
384.091	3.77
384.457	3.5
384.823	3.24
385.188	3.25
385.554	3.66
385.92	3.51
386.286	3.54
386.651	3.41
387.017	3.63
387.383	3.67
387.748	3.36
388.114	3.31
388.479	3.57
388.845	3.73
389.21	3.43
389.575	3.53
389.94	3.99
390.306	3.54
390.671	3.83
391.036	3.69
391.401	3.68
391.766	3.41
392.131	3.51
392.496	3.6
392.861	3.37
393.226	3.37
393.591	3.39
393.956	3.4
394.32	3.56
394.685	3.51
395.05	3.38
395.414	3.76
395.779	3.61
396.143	3.56
396.508	3.46
396.872	3.65
397.236	3.44
397.601	3.49
397.965	3.53
398.329	3.86
398.694	3.69
399.058	3.58
399.422	3.7
399.786	3.78
400.15	3.93
400.514	3.4
400.878	3.56
401.242	3.58
401.605	3.76
401.969	3.48
402.333	3.67
402.697	3.6
403.06	3.32
403.424	3.49
403.787	3.47
404.151	3.46
404.514	3.59
404.878	3.69
405.241	3.68
405.604	3.64
405.968	3.75
406.331	3.44
406.694	3.66
407.057	3.43
407.42	3.35
407.783	3.58
408.146	3.63
408.509	3.8
408.872	3.48
409.235	3.5
409.598	3.78
409.961	3.51
410.323	3.65
410.686	3.55
411.049	3.56
411.411	3.48
411.774	3.53
412.136	3.65
412.499	3.75
412.861	3.76
413.223	3.73
413.586	3.65
413.948	3.71
414.31	3.67
414.672	3.6
415.035	3.83
415.397	3.89
415.759	3.67
416.121	3.54
416.483	3.46
416.845	3.58
417.206	3.64
417.568	3.85
417.93	3.75
418.292	3.83
418.653	3.62
419.015	3.63
419.377	3.61
419.738	3.49
420.1	3.66
420.461	3.55
420.822	3.71
421.184	3.58
421.545	3.51
421.906	3.67
422.267	3.58
422.629	3.52
422.99	3.58
423.351	3.52
423.712	3.58
424.073	3.63
424.434	3.57
424.795	3.6
425.155	3.56
425.516	3.56
425.877	3.54
426.238	3.59
426.598	3.54
426.959	3.66
427.32	3.6
427.68	3.61
428.041	3.65
428.401	3.76
428.761	3.73
429.122	3.71
429.482	3.8
429.842	3.67
430.202	3.77
430.563	3.51
430.923	3.83
431.283	3.83
431.643	3.77
432.003	3.8
432.363	3.91
432.722	3.65
433.082	3.71
433.442	3.81
433.802	3.73
434.161	3.64
434.521	3.78
434.881	3.75
435.24	3.61
435.6	3.78
435.959	3.7
436.319	3.65
436.678	3.71
437.037	3.74
437.396	3.52
437.756	3.94
438.115	3.58
438.474	3.59
438.833	3.63
439.192	3.77
439.551	3.66
439.91	3.63
440.269	3.76
440.628	3.64
440.987	3.62
441.345	3.77
441.704	3.75
442.063	3.62
442.421	3.77
442.78	3.68
443.138	3.73
443.497	3.74
443.855	3.89
444.214	3.75
444.572	3.64
444.93	3.74
445.288	3.78
445.647	3.78
446.005	3.76
446.363	3.72
446.721	3.67
447.079	3.72
447.437	3.72
447.795	3.69
448.153	3.7
448.51	3.7
448.868	3.77
449.226	3.72
449.584	3.75
449.941	3.7
450.299	3.85
450.656	3.69
451.014	3.73
451.371	3.96
451.729	3.81
452.086	3.83
452.443	3.97
452.801	3.88
453.158	4.02
453.515	3.76
453.872	3.88
454.229	3.66
454.586	3.78
454.943	3.67
455.3	3.88
455.657	3.78
456.014	3.92
456.371	3.85
456.727	3.86
457.084	3.71
457.441	3.8
457.797	3.85
458.154	3.74
458.51	3.88
458.867	4.05
459.223	3.82
459.58	3.78
459.936	3.71
460.292	3.95
460.648	3.8
461.005	3.83
461.361	3.77
461.717	3.75
462.073	3.72
462.429	3.75
462.785	3.83
463.141	3.97
463.496	3.78
463.852	4.03
464.208	4.01
464.564	3.85
464.919	3.99
465.275	3.86
465.631	3.89
465.986	3.86
466.342	4.05
466.697	3.94
467.052	3.9
467.408	3.82
467.763	3.68
468.118	3.9
468.473	4
468.829	3.84
469.184	3.87
469.539	3.8
469.894	3.87
470.249	3.93
470.603	3.95
470.958	4.01
471.313	4
471.668	3.91
472.023	3.87
472.377	3.96
472.732	3.84
473.086	4.02
473.441	3.99
473.795	3.96
474.15	3.87
474.504	3.88
474.859	3.95
475.213	4.11
475.567	4.23
475.921	3.82
476.275	3.9
476.63	3.9
476.984	4.07
477.338	4.04
477.692	4.05
478.045	4.09
478.399	4
478.753	3.88
479.107	3.92
479.461	3.96
479.814	3.93
480.168	3.91
480.521	3.89
480.875	3.96
481.228	3.96
481.582	4.01
481.935	4.04
482.289	3.9
482.642	3.94
482.995	4.02
483.348	4.02
483.701	3.94
484.055	3.87
484.408	3.86
484.761	3.78
485.114	3.77
485.466	3.67
485.819	3.68
486.172	3.7
486.525	3.79
486.878	3.78
487.23	3.81
487.583	3.93
487.936	3.89
488.288	3.89
488.641	3.8
488.993	3.72
489.345	3.8
489.698	3.8
490.05	3.79
490.402	3.81
490.754	3.8
491.107	3.81
491.459	3.89
491.811	3.94
492.163	3.92
492.515	3.94
492.866	3.81
493.218	3.77
493.57	3.85
493.922	3.85
494.274	3.87
494.625	3.93
494.977	4.05
495.328	3.95
495.68	4.15
496.031	4.16
496.383	4.04
496.734	4.1
497.086	4.05
497.437	3.92
497.788	4.01
498.139	4.01
498.49	4.07
498.842	4.01
499.193	4.07
499.544	4
499.894	4
500.245	4.09
500.596	4.1
500.947	4.12
501.298	4.15
501.648	3.99
501.999	4.08
502.35	4.1
502.7	4.1
503.051	4.19
503.401	4.31
503.752	4.11
504.102	4.17
504.452	4.03
504.803	4.19
505.153	4.14
505.503	4.06
505.853	4.13
506.203	4.08
506.553	4.14
506.903	4.19
507.253	4.13
507.603	4.14
507.953	4.19
508.303	4.28
508.652	4.2
509.002	4.25
509.352	4.12
509.701	4.09
510.051	4.19
510.4	4.11
510.75	4.2
511.099	4.16
511.449	4.13
511.798	4.17
512.147	4.1
512.496	4.17
512.846	4.18
513.195	4.21
513.544	4.26
513.893	4.23
514.242	4.21
514.591	4.11
514.939	4.15
515.288	4.12
515.637	4.3
515.986	4.28
516.334	4.27
516.683	4.28
517.032	4.25
517.38	4.16
517.729	4.27
518.077	4.16
518.426	4.12
518.774	4.18
519.122	4.24
519.47	4.24
519.819	4.2
520.167	4.17
520.515	4.12
520.863	4.32
521.211	4.2
521.559	4.18
521.907	4.35
522.255	4.36
522.602	4.22
522.95	4.32
523.298	4.26
523.645	4.26
523.993	4.34
524.341	4.48
524.688	4.31
525.036	4.39
525.383	4.41
525.73	4.39
526.078	4.32
526.425	4.3
526.772	4.29
527.119	4.17
527.466	4.13
527.814	4.25
528.161	4.28
528.508	4.31
528.854	4.27
529.201	4.28
529.548	4.27
529.895	4.14
530.242	4.15
530.588	4.1
530.935	4.16
531.282	4.19
531.628	4.19
531.975	4.28
532.321	4.28
532.667	4.39
533.014	4.47
533.36	4.4
533.706	4.39
534.052	4.46
534.399	4.38
534.745	4.3
535.091	4.26
535.437	4.3
535.783	4.37
536.129	4.36
536.474	4.44
536.82	4.54
537.166	4.52
537.512	4.46
537.857	4.54
538.203	4.45
538.549	4.46
538.894	4.47
539.239	4.54
539.585	4.5
539.93	4.59
540.276	4.58
540.621	4.63
540.966	4.53
541.311	4.57
541.656	4.62
542.001	4.6
542.346	4.5
542.691	4.5
543.036	4.36
543.381	4.39
543.726	4.45
544.071	4.51
544.415	4.5
544.76	4.5
545.105	4.55
545.449	4.64
545.794	4.56
546.138	4.62
546.483	4.77
546.827	4.75
547.171	4.7
547.516	4.7
547.86	4.81
548.204	4.72
548.548	4.71
548.892	4.73
549.236	4.79
549.58	4.77
549.924	4.68
550.268	4.9
550.612	4.83
550.956	4.96
551.3	4.92
551.643	5.03
551.987	4.95
552.33	4.93
552.674	4.93
553.017	5.03
553.361	4.96
553.704	4.86
554.048	4.86
554.391	4.97
554.734	4.95
555.077	4.91
555.42	5.04
555.764	5.1
556.107	5.03
556.45	4.99
556.793	5.12
557.135	5.18
557.478	5.06
557.821	5.06
558.164	5.03
558.507	5.1
558.849	5.12
559.192	5.01
559.534	5.08
559.877	5.04
560.219	5.13
560.562	4.96
560.904	5.2
561.246	5.26
561.589	5.27
561.931	5.1
562.273	5.31
562.615	5.19
562.957	5.21
563.299	5.19
563.641	5.32
563.983	5.1
564.325	5.53
564.667	5.33
565.008	5.27
565.35	5.26
565.692	5.49
566.033	5.34
566.375	5.39
566.716	5.29
567.058	5.4
567.399	5.33
567.741	5.48
568.082	5.36
568.423	5.35
568.764	5.46
569.105	5.38
569.447	5.47
569.788	5.47
570.129	5.51
570.47	5.51
570.811	5.7
571.151	5.59
571.492	5.54
571.833	5.62
572.174	5.64
572.514	5.66
572.855	5.52
573.195	5.59
573.536	5.53
573.876	5.59
574.217	5.7
574.557	5.45
574.898	5.7
575.238	5.73
575.578	5.73
575.918	5.74
576.258	5.82
576.598	5.64
576.938	5.74
577.278	5.73
577.618	5.87
577.958	5.85
578.298	5.76
578.638	5.91
578.977	5.81
579.317	5.67
579.657	5.86
579.996	5.77
580.336	6.02
580.675	6.08
581.014	5.81
581.354	5.81
581.693	6.04
582.032	6.13
582.372	6.18
582.711	6.08
583.05	5.93
583.389	5.94
583.728	6.17
584.067	6.26
584.406	6.15
584.745	6.14
585.083	6.26
585.422	6.01
585.761	6.33
586.1	6.35
586.438	6.39
586.777	6.4
587.115	6.26
587.454	6.16
587.792	6.42
588.13	6.33
588.469	6.51
588.807	6.42
589.145	6.5
589.483	6.1
589.821	6.48
590.159	6.52
590.497	6.64
590.835	6.56
591.173	6.51
591.511	6.51
591.849	6.54
592.187	6.58
592.524	6.41
592.862	6.46
593.2	6.47
593.537	6.75
593.875	6.79
594.212	6.79
594.55	6.72
594.887	6.69
595.224	6.56
595.561	6.65
595.899	6.92
596.236	6.94
596.573	6.93
596.91	7
597.247	6.78
597.584	6.82
597.921	6.9
598.258	6.72
598.594	6.79
598.931	6.86
599.268	6.79
599.604	6.84
599.941	6.95
600.277	6.99
600.614	7.14
600.95	7.11
601.287	7.01
601.623	7.23
601.959	6.98
602.296	7.09
602.632	6.92
602.968	6.92
603.304	7.06
603.64	7.24
603.976	6.91
604.312	7.31
604.648	7.08
604.984	7.2
605.319	7.18
605.655	7.31
605.991	7.37
606.326	7.16
606.662	7.31
606.998	7.29
607.333	7.41
607.668	7.18
608.004	7.43
608.339	7.44
608.674	7.83
609.01	7.69
609.345	7.72
609.68	7.76
610.015	7.62
610.35	7.44
610.685	7.37
611.02	7.62
611.355	7.64
611.689	7.55
612.024	7.8
612.359	7.67
612.694	7.72
613.028	7.62
613.363	8.01
613.697	7.75
614.032	7.71
614.366	7.59
614.7	7.91
615.035	8.09
615.369	8.15
615.703	7.94
616.037	7.83
616.371	8.17
616.705	8.3
617.039	8.2
617.373	8.06
617.707	8.06
618.041	8.24
618.375	7.9
618.709	8.37
619.042	8.28
619.376	7.98
619.71	8.37
620.043	8.28
620.377	8.23
620.71	8.35
621.043	8.52
621.377	8.66
621.71	8.41
622.043	8.61
622.376	8.39
622.709	8.19
623.043	8.35
623.376	8.04
623.709	8.44
624.041	8.62
624.374	8.65
624.707	8.33
625.04	8.54
625.373	8.55
625.705	8.5
626.038	8.17
626.37	8.54
626.703	8.75
627.035	8.51
627.368	8.51
627.7	8.76
628.032	8.85
628.365	8.66
628.697	8.97
629.029	8.88
629.361	8.75
629.693	8.79
630.025	8.69
630.357	8.91
630.689	8.69
631.021	8.71
631.353	8.93
631.684	8.74
632.016	8.92
632.348	9.25
632.679	9.08
633.011	8.95
633.342	9.05
633.674	9.35
634.005	8.99
634.336	9.06
634.668	9.33
634.999	9.03
635.33	9.18
635.661	9.43
635.992	9.35
636.323	9.34
636.654	9.35
636.985	9.16
637.316	9.26
637.647	9.14
637.977	9.33
638.308	9.4
638.639	9.42
638.969	9.25
639.3	9.44
639.63	9.73
639.961	9.32
640.291	9.42
640.622	9.51
640.952	9.43
641.282	9.44
641.612	9.73
641.943	9.79
642.273	9.6
642.603	9.52
642.933	9.71
643.263	10.09
643.592	9.87
643.922	9.69
644.252	9.71
644.582	10.07
644.911	10.28
645.241	9.68
645.571	9.56
645.9	10.04
646.23	9.71
646.559	10.11
646.888	10.01
647.218	10.08
647.547	10.12
647.876	10.38
648.205	10.16
648.534	10.26
648.863	10.18
649.192	10.22
649.521	10.11
649.85	10.02
650.179	10.45
650.508	10.21
650.837	10.1
651.165	10.78
651.494	10.36
651.822	10.26
652.151	10.07
652.479	10.49
652.808	10.02
653.136	10.71
653.465	10.36
653.793	10.41
654.121	10.37
654.449	10.57
654.777	10.62
655.105	10.46
655.433	10.72
655.761	10.63
656.089	10.54
656.417	10.74
656.745	10.73
657.073	10.88
657.4	10.58
657.728	10.64
658.056	10.68
658.383	11.16
658.711	10.75
659.038	10.52
659.365	10.34
659.693	10.37
660.02	10.67
660.347	11
660.674	10.7
661.001	11.08
661.329	11.03
661.656	10.87
661.982	11.09
662.309	11.24
662.636	11.08
662.963	10.84
663.29	10.9
663.616	11.06
663.943	10.68
664.27	11.54
664.596	10.58
664.923	10.9
665.249	11.44
665.576	11.11
665.902	11.23
666.228	11.58
666.554	10.93
666.881	11.1
667.207	11.01
667.533	12.04
667.859	11.86
668.185	11.56
668.511	11.45
668.837	11.37
669.162	11.75
669.488	11.58
669.814	12.23
670.139	11.44
670.465	11.55
670.791	11.94
671.116	11.67
671.442	11.24
671.767	12.14
672.092	11.72
672.418	11.98
672.743	11.7
673.068	12.14
673.393	11.35
673.718	11.82
674.043	11.9
674.368	11.81
674.693	11.61
675.018	12.07
675.343	12.5
675.667	12.24
675.992	11.57
676.317	11.35
676.641	11.66
676.966	12.03
677.29	11.91
677.615	11.91
677.939	12.24
678.264	11.82
678.588	12.21
678.912	12.51
679.236	12.95
679.56	11.47
679.885	11.84
680.209	12.36
680.532	12.41
680.856	12.21
681.18	12.29
681.504	12.54
681.828	12.83
682.152	12.55
682.475	12.91
682.799	12.74
683.122	12.2
683.446	12.41
683.769	12.72
684.093	12.49
684.416	13.63
684.739	12.56
685.062	13.01
685.386	12.37
685.709	13.15
686.032	13.34
686.355	13.21
686.678	12.24
687.001	12.92
687.324	13.49
687.646	12.96
687.969	13.06
688.292	13.2
688.614	13.09
688.937	13.18
