Data from 0016_forehead_Reflection__1__62.txt Node

Date: Mon Oct 17 14:54:12 CDT 2022
User: ToomeyLab
Spectrometer: FLMS14357
Trigger mode: 0
Integration Time (sec): 1.000000E-2
Scans to average: 100
Electric dark correction enabled: true
Nonlinearity correction enabled: false
Boxcar width: 0
XAxis mode: Wavelengths
Number of Pixels in Spectrum: 2048
>>>>>Begin Spectral Data<<<<<
189.047	150.94
189.435	150.94
189.823	150.94
190.211	92.13
190.599	98.48
190.987	376.23
191.375	-11.67
191.763	-21.02
192.151	41.45
192.538	-249.02
192.926	47.09
193.314	39.96
193.702	-326.45
194.089	343.78
194.477	-494.85
194.864	-122.6
195.252	593.61
195.639	22.82
196.027	309.41
196.414	-155.87
196.801	-86.25
197.189	41.62
197.576	79.18
197.963	-310.91
198.351	-50.3
198.738	67.19
199.125	-21.82
199.512	-4.74
199.899	-2.01
200.286	32.52
200.673	41.22
201.06	-27.47
201.447	31.57
201.833	46.78
202.22	48.35
202.607	-15.68
202.994	-16.19
203.38	16.27
203.767	37.37
204.154	30.07
204.54	-0.13
204.927	0.87
205.313	-15.37
205.699	42.88
206.086	-18.09
206.472	18.25
206.858	19.65
207.245	-9.2
207.631	18.44
208.017	17.71
208.403	3.49
208.789	25.61
209.175	28.46
209.561	-29.98
209.947	-44.91
210.333	42.3
210.719	37.27
211.105	17.47
211.491	1.99
211.876	-22.93
212.262	12.1
212.648	7.08
213.034	-21.3
213.419	9.86
213.805	10.8
214.19	5.14
214.576	-3.55
214.961	-6.35
215.346	13.14
215.732	23.61
216.117	3.97
216.502	-1.35
216.888	-22.61
217.273	12.41
217.658	13.56
218.043	14.25
218.428	11
218.813	10.03
219.198	6.79
219.583	-10.63
219.968	-9.17
220.353	-8.01
220.738	-9.37
221.122	10.89
221.507	5.58
221.892	7.51
222.276	9.02
222.661	-3.19
223.046	5.65
223.43	11.94
223.815	6.9
224.199	4.69
224.583	-0.89
224.968	-3.57
225.352	-10.7
225.736	8.8
226.121	-0.65
226.505	2.83
226.889	3.01
227.273	3.3
227.657	5.93
228.041	5.03
228.425	2.66
228.809	5.06
229.193	4.5
229.577	5.26
229.961	6.6
230.344	3.56
230.728	4.37
231.112	4.74
231.495	4.04
231.879	5.93
232.263	4.71
232.646	4.88
233.03	4.11
233.413	2.27
233.797	4.14
234.18	3.95
234.563	3.61
234.946	3.88
235.33	3.54
235.713	3.09
236.096	4.19
236.479	2.96
236.862	3.39
237.245	3.13
237.628	3.02
238.011	4.92
238.394	4.2
238.777	5.05
239.16	5.67
239.543	4.08
239.925	4.42
240.308	4.92
240.691	3.85
241.073	4.09
241.456	4.35
241.838	3.98
242.221	2.98
242.603	3.74
242.986	3.91
243.368	4.63
243.75	3.9
244.133	4.32
244.515	4.43
244.897	4.21
245.279	4.26
245.661	4.38
246.043	4.87
246.425	3.41
246.807	4.57
247.189	4.67
247.571	3.78
247.953	3.98
248.335	4.2
248.717	4.4
249.098	4.53
249.48	4.32
249.862	4.39
250.243	4.13
250.625	4.55
251.006	4.34
251.388	4.49
251.769	4.2
252.151	4.09
252.532	3.99
252.913	4.01
253.295	4.04
253.676	4.23
254.057	4.98
254.438	4.73
254.819	5.3
255.2	5.13
255.581	4.83
255.962	4
256.343	4.54
256.724	2.9
257.105	4.08
257.486	3.67
257.867	3.11
258.247	3.86
258.628	4.96
259.009	4.42
259.389	4.55
259.77	5.14
260.15	4.49
260.531	4.01
260.911	4.31
261.292	4.31
261.672	4.22
262.052	4.39
262.432	4.31
262.813	4.44
263.193	4.18
263.573	4.43
263.953	4.25
264.333	4.72
264.713	3.93
265.093	4.51
265.473	4.29
265.853	4.84
266.233	5.48
266.612	4.37
266.992	5.11
267.372	4.38
267.752	5.01
268.131	4.55
268.511	4.58
268.89	4.2
269.27	4.26
269.649	4.4
270.029	4.43
270.408	4.77
270.787	4.28
271.167	4.15
271.546	4.31
271.925	4.33
272.304	4.4
272.683	4.55
273.062	4.21
273.441	4.09
273.82	4.9
274.199	4.34
274.578	4.43
274.957	4.18
275.336	4.57
275.715	4.78
276.093	4.36
276.472	4.12
276.851	4.72
277.229	3.73
277.608	4.36
277.986	3.99
278.365	4.13
278.743	4.72
279.122	4.41
279.5	4.64
279.878	4.34
280.257	4.11
280.635	3.5
281.013	4.49
281.391	4.43
281.769	4.22
282.147	4.71
282.525	4.45
282.903	3.87
283.281	4.4
283.659	4.26
284.037	3.95
284.415	4.45
284.792	4.24
285.17	4.05
285.548	3.81
285.925	4.67
286.303	4.37
286.68	4.74
287.058	4.78
287.435	4.64
287.813	4.65
288.19	4.34
288.567	4.21
288.945	4.7
289.322	5.11
289.699	4.71
290.076	4.67
290.453	4.71
290.83	4.73
291.207	4.84
291.584	4.57
291.961	4.76
292.338	4.63
292.715	4.78
293.092	4.9
293.469	4.83
293.845	4.95
294.222	5.58
294.599	5.07
294.975	4.67
295.352	4.77
295.728	4.81
296.105	4.67
296.481	5.4
296.858	5.51
297.234	5.1
297.61	4.93
297.986	5
298.363	5.49
298.739	5.51
299.115	5.39
299.491	5.5
299.867	5.29
300.243	5.64
300.619	5.3
300.995	5.54
301.371	5.79
301.746	5.72
302.122	5.83
302.498	5.6
302.874	6.27
303.249	6.13
303.625	5.79
304	5.81
304.376	6.27
304.751	5.97
305.127	5.95
305.502	5.98
305.878	6.25
306.253	5.96
306.628	6.35
307.003	5.9
307.378	6.67
307.754	6.2
308.129	6.58
308.504	6.82
308.879	6.82
309.254	6.47
309.629	6.53
310.003	6.6
310.378	6.74
310.753	6.48
311.128	6.89
311.502	7.09
311.877	7.04
312.252	6.64
312.626	6.79
313.001	6.93
313.375	6.87
313.75	7.25
314.124	7.46
314.498	7.46
314.873	6.99
315.247	7.84
315.621	8.22
315.995	7.1
316.369	7.15
316.743	7.74
317.117	7.84
317.491	8.12
317.865	8.13
318.239	8.59
318.613	8.15
318.987	7.96
319.361	8.32
319.734	8.55
320.108	8.05
320.482	7.97
320.855	8.36
321.229	7.91
321.602	8.59
321.976	7.95
322.349	9.11
322.723	8.2
323.096	8.4
323.469	8.74
323.843	8.5
324.216	9.09
324.589	8.86
324.962	8.91
325.335	8.58
325.708	9.06
326.081	8.78
326.454	9.31
326.827	8.88
327.2	8.76
327.573	8.7
327.945	8.53
328.318	9.39
328.691	8.57
329.063	8.89
329.436	9.35
329.809	9.33
330.181	9.21
330.553	9.21
330.926	9.44
331.298	9.72
331.671	9.8
332.043	9.81
332.415	9.7
332.787	9.69
333.159	10.3
333.532	9.6
333.904	9.58
334.276	10.01
334.648	9.96
335.02	9.92
335.391	10.29
335.763	10.09
336.135	9.62
336.507	10.33
336.879	10.1
337.25	10.45
337.622	10.26
337.993	10.63
338.365	10.77
338.736	10.34
339.108	10.52
339.479	10.43
339.851	10.52
340.222	10.46
340.593	10.66
340.964	10.51
341.336	10.45
341.707	11.01
342.078	10.99
342.449	10.82
342.82	10.79
343.191	10.89
343.562	11.2
343.933	11.18
344.303	11.22
344.674	11.06
345.045	11.14
345.416	11.24
345.786	11.51
346.157	11.16
346.527	11.57
346.898	11.45
347.268	11.98
347.639	10.89
348.009	11.48
348.38	11.49
348.75	11.57
349.12	11.58
349.49	11.55
349.861	12.03
350.231	11.74
350.601	12.19
350.971	12.18
351.341	12.18
351.711	11.87
352.081	11.75
352.45	12.24
352.82	12.03
353.19	11.97
353.56	12.12
353.929	12.2
354.299	12.19
354.669	12.57
355.038	12.73
355.408	12.58
355.777	12.09
356.147	12.18
356.516	12.53
356.885	12.42
357.254	12.81
357.624	12.92
357.993	12.84
358.362	12.68
358.731	12.47
359.1	12.77
359.469	12.52
359.838	12.7
360.207	13.02
360.576	12.93
360.945	12.58
361.314	13.1
361.682	13.14
362.051	13.22
362.42	13.17
362.788	13.3
363.157	13.32
363.525	13.19
363.894	13.51
364.262	13.34
364.631	13.35
364.999	13.66
365.367	13.51
365.735	13.95
366.104	13.29
366.472	13.58
366.84	13.93
367.208	13.8
367.576	13.94
367.944	13.61
368.312	14.01
368.68	14.1
369.048	14.13
369.416	14.25
369.783	14.18
370.151	14.13
370.519	14.17
370.886	14.32
371.254	14.13
371.621	14.54
371.989	14.61
372.356	14.52
372.724	14.74
373.091	14.57
373.458	14.28
373.826	14.62
374.193	15.03
374.56	14.87
374.927	14.94
375.294	14.58
375.661	15
376.028	15.04
376.395	15.06
376.762	15.03
377.129	14.89
377.496	14.88
377.863	14.74
378.229	15.19
378.596	15.19
378.963	15.19
379.329	15.23
379.696	15.13
380.062	15.49
380.429	15.31
380.795	15.44
381.161	15.44
381.528	15.46
381.894	15.55
382.26	15.53
382.626	15.71
382.993	15.93
383.359	15.85
383.725	15.78
384.091	15.83
384.457	16.09
384.823	15.8
385.188	15.84
385.554	16.03
385.92	16.18
386.286	16.15
386.651	16.26
387.017	16.19
387.383	16.12
387.748	15.99
388.114	16.12
388.479	16.75
388.845	16.64
389.21	16.16
389.575	16.24
389.94	16.51
390.306	16.59
390.671	17.02
391.036	16.42
391.401	16.74
391.766	16.54
392.131	16.76
392.496	16.97
392.861	16.73
393.226	16.64
393.591	16.74
393.956	16.8
394.32	16.87
394.685	16.98
395.05	16.88
395.414	17.19
395.779	17.24
396.143	17.08
396.508	17.13
396.872	17.21
397.236	17.39
397.601	17.38
397.965	17.46
398.329	17.68
398.694	17.3
399.058	17.5
399.422	17.71
399.786	17.49
400.15	17.69
400.514	17.49
400.878	17.56
401.242	17.88
401.605	18.07
401.969	17.72
402.333	17.55
402.697	17.93
403.06	17.95
403.424	18.26
403.787	18.12
404.151	18.07
404.514	17.91
404.878	18.24
405.241	18.26
405.604	18.37
405.968	18.25
406.331	18.05
406.694	17.98
407.057	18.18
407.42	18.16
407.783	18.48
408.146	18.51
408.509	18.52
408.872	18.19
409.235	18.39
409.598	18.64
409.961	18.42
410.323	18.79
410.686	18.91
411.049	18.6
411.411	18.89
411.774	18.79
412.136	18.56
412.499	18.86
412.861	18.87
413.223	18.78
413.586	19.08
413.948	19.13
414.31	18.91
414.672	19.2
415.035	19.22
415.397	19.33
415.759	19.31
416.121	19.17
416.483	19.11
416.845	19.18
417.206	19.15
417.568	19.34
417.93	19.35
418.292	19.43
418.653	19.22
419.015	19.49
419.377	19.5
419.738	19.31
420.1	19.53
420.461	19.33
420.822	19.64
421.184	19.53
421.545	19.46
421.906	19.59
422.267	19.49
422.629	19.56
422.99	19.5
423.351	19.56
423.712	19.69
424.073	19.75
424.434	19.86
424.795	19.94
425.155	19.86
425.516	19.82
425.877	19.75
426.238	20
426.598	20.1
426.959	19.96
427.32	20.32
427.68	20.32
428.041	20.23
428.401	20.7
428.761	20.77
429.122	20.88
429.482	20.78
429.842	20.77
430.202	21.17
430.563	21.01
430.923	20.75
431.283	21.12
431.643	21.15
432.003	21.16
432.363	21.52
432.722	21.16
433.082	21.16
433.442	21.54
433.802	21.33
434.161	21.35
434.521	21.45
434.881	21.28
435.24	21.46
435.6	21.52
435.959	21.45
436.319	21.72
436.678	21.7
437.037	21.74
437.396	21.72
437.756	21.9
438.115	21.69
438.474	21.87
438.833	21.9
439.192	22.04
439.551	21.87
439.91	22.09
440.269	22.1
440.628	22.04
440.987	22.22
441.345	22.25
441.704	22.26
442.063	22.15
442.421	22.23
442.78	22.28
443.138	22.15
443.497	22.43
443.855	22.48
444.214	22.5
444.572	22.65
444.93	22.76
445.288	22.85
445.647	22.89
446.005	23.02
446.363	23.03
446.721	22.79
447.079	22.89
447.437	22.79
447.795	22.71
448.153	22.7
448.51	22.73
448.868	22.82
449.226	22.79
449.584	22.96
449.941	22.93
450.299	23.18
450.656	23.26
451.014	23.28
451.371	23.54
451.729	23.52
452.086	23.8
452.443	23.78
452.801	23.76
453.158	23.91
453.515	23.77
453.872	23.87
454.229	23.72
454.586	23.64
454.943	23.86
455.3	24.12
455.657	24.02
456.014	24.17
456.371	24.16
456.727	24.29
457.084	24.2
457.441	24.6
457.797	24.29
458.154	24.41
458.51	24.54
458.867	24.62
459.223	24.46
459.58	24.44
459.936	24.45
460.292	24.73
460.648	24.53
461.005	24.52
461.361	24.49
461.717	24.32
462.073	24.45
462.429	24.52
462.785	24.71
463.141	24.88
463.496	24.78
463.852	24.94
464.208	25.04
464.564	25.23
464.919	25.27
465.275	25.11
465.631	25.49
465.986	25.34
466.342	25.52
466.697	25.3
467.052	25.48
467.408	25.5
467.763	25.64
468.118	25.6
468.473	25.57
468.829	25.72
469.184	25.68
469.539	25.78
469.894	25.76
470.249	25.81
470.603	25.65
470.958	26
471.313	26.05
471.668	26.1
472.023	26.18
472.377	26.31
472.732	26.14
473.086	26.03
473.441	26.14
473.795	26.3
474.15	26.28
474.504	26.28
474.859	26.31
475.213	26.28
475.567	26.51
475.921	26.46
476.275	26.5
476.63	26.64
476.984	26.68
477.338	26.73
477.692	26.69
478.045	26.56
478.399	26.76
478.753	26.77
479.107	26.65
479.461	26.76
479.814	26.72
480.168	26.9
480.521	26.9
480.875	26.94
481.228	26.91
481.582	27.13
481.935	26.97
482.289	27
482.642	26.99
482.995	27.04
483.348	27.05
483.701	27.06
484.055	26.98
484.408	26.95
484.761	26.61
485.114	26.5
485.466	26.44
485.819	26.38
486.172	26.39
486.525	26.34
486.878	26.34
487.23	26.48
487.583	26.73
487.936	26.92
488.288	26.91
488.641	26.95
488.993	26.88
489.345	26.82
489.698	26.81
490.05	26.86
490.402	26.92
490.754	27.09
491.107	27.11
491.459	27.37
491.811	27.47
492.163	27.62
492.515	27.73
492.866	27.53
493.218	27.42
493.57	27.4
493.922	27.47
494.274	27.36
494.625	27.49
494.977	27.79
495.328	27.8
495.68	28.18
496.031	28.31
496.383	28.61
496.734	28.44
497.086	28.5
497.437	28.6
497.788	28.82
498.139	28.61
498.49	28.46
498.842	28.56
499.193	28.49
499.544	28.6
499.894	28.58
500.245	28.65
500.596	28.78
500.947	29.03
501.298	28.98
501.648	28.95
501.999	29.11
502.35	29.27
502.7	29.34
503.051	29.34
503.401	29.31
503.752	29.56
504.102	29.28
504.452	29.3
504.803	29.8
505.153	29.53
505.503	29.49
505.853	29.57
506.203	29.64
506.553	29.54
506.903	29.64
507.253	29.68
507.603	29.63
507.953	29.83
508.303	29.83
508.652	29.88
509.002	29.86
509.352	29.72
509.701	29.93
510.051	29.78
510.4	29.7
510.75	29.69
511.099	29.8
511.449	29.94
511.798	29.89
512.147	30
512.496	30.01
512.846	30.12
513.195	29.97
513.544	30.14
513.893	30.15
514.242	30.25
514.591	30.31
514.939	30.23
515.288	30.22
515.637	30.25
515.986	30.54
516.334	30.6
516.683	30.59
517.032	30.65
517.38	30.65
517.729	30.68
518.077	30.57
518.426	30.72
518.774	30.81
519.122	30.75
519.47	30.67
519.819	30.63
520.167	30.56
520.515	30.44
520.863	30.4
521.211	30.45
521.559	30.54
521.907	30.79
522.255	30.86
522.602	30.99
522.95	31.19
523.298	31.05
523.645	31.17
523.993	31.28
524.341	31.43
524.688	31.52
525.036	31.32
525.383	31.55
525.73	31.56
526.078	31.52
526.425	31.42
526.772	31.32
527.119	31.16
527.466	31.13
527.814	31.14
528.161	31.17
528.508	31.11
528.854	31.16
529.201	31.29
529.548	31.13
529.895	30.93
530.242	31.13
530.588	30.98
530.935	30.9
531.282	30.8
531.628	30.75
531.975	30.86
532.321	30.98
532.667	31.19
533.014	31.47
533.36	31.56
533.706	31.77
534.052	31.8
534.399	31.72
534.745	31.61
535.091	31.5
535.437	31.59
535.783	31.56
536.129	31.47
536.474	31.65
536.82	31.79
537.166	31.96
537.512	32.14
537.857	32.25
538.203	32.2
538.549	32.04
538.894	32.23
539.239	32.34
539.585	32.11
539.93	32.34
540.276	32.37
540.621	32.65
540.966	32.76
541.311	32.84
541.656	32.77
542.001	32.79
542.346	32.62
542.691	32.48
543.036	32.35
543.381	32.25
543.726	32.24
544.071	32.21
544.415	32.28
544.76	32.34
545.105	32.47
545.449	32.6
545.794	32.77
546.138	32.87
546.483	32.95
546.827	33.15
547.171	33.19
547.516	33.24
547.86	33.31
548.204	33.21
548.548	33.35
548.892	33.36
549.236	33.32
549.58	33.31
549.924	33.46
550.268	33.32
550.612	33.5
550.956	33.88
551.3	33.8
551.643	33.88
551.987	34.03
552.33	34.03
552.674	34.14
553.017	34.25
553.361	34.05
553.704	34.1
554.048	34.16
554.391	34.26
554.734	34.13
555.077	34.13
555.42	34.27
555.764	34.04
556.107	34.23
556.45	34.21
556.793	34.5
557.135	34.76
557.478	34.45
557.821	34.66
558.164	34.77
558.507	34.81
558.849	34.95
559.192	34.68
559.534	34.75
559.877	34.74
560.219	34.96
560.562	34.76
560.904	34.95
561.246	34.82
561.589	34.99
561.931	34.96
562.273	34.86
562.615	35.06
562.957	35.14
563.299	34.93
563.641	35.05
563.983	35.35
564.325	35.11
564.667	35.35
565.008	35.38
565.35	35.34
565.692	35.32
566.033	35.58
566.375	35.38
566.716	35.55
567.058	35.51
567.399	35.63
567.741	35.62
568.082	35.48
568.423	35.51
568.764	35.46
569.105	35.47
569.447	35.56
569.788	35.41
570.129	35.79
570.47	35.65
570.811	36.1
571.151	35.8
571.492	35.91
571.833	35.85
572.174	36.2
572.514	35.99
572.855	35.89
573.195	35.94
573.536	35.77
573.876	35.82
574.217	35.99
574.557	35.68
574.898	35.84
575.238	36
575.578	36.12
575.918	35.85
576.258	36.25
576.598	36.03
576.938	36.3
577.278	36.17
577.618	36.24
577.958	36.19
578.298	36.1
578.638	36.02
578.977	36.53
579.317	36.48
579.657	36.49
579.996	36.81
580.336	36.72
580.675	36.78
581.014	36.84
581.354	36.93
581.693	37.06
582.032	36.85
582.372	36.91
582.711	37.09
583.05	37.36
583.389	37.07
583.728	37.12
584.067	36.83
584.406	37.17
584.745	37.33
585.083	37.26
585.422	37.08
585.761	37.58
586.1	37.48
586.438	37.39
586.777	37.45
587.115	37.35
587.454	37.66
587.792	37.69
588.13	37.66
588.469	37.68
588.807	37.64
589.145	37.76
589.483	37.77
589.821	37.6
590.159	37.86
590.497	37.9
590.835	37.83
591.173	38.04
591.511	37.98
591.849	37.8
592.187	37.84
592.524	37.99
592.862	38
593.2	38.21
593.537	38.31
593.875	38.06
594.212	38.18
594.55	37.9
594.887	38.13
595.224	38.05
595.561	38.3
595.899	38.22
596.236	38.53
596.573	38.27
596.91	38.41
597.247	38.49
597.584	38.22
597.921	38.32
598.258	38.38
598.594	38.29
598.931	38.47
599.268	38.22
599.604	38.67
599.941	38.11
600.277	38.4
600.614	38.43
600.95	38.37
601.287	38.4
601.623	38.59
601.959	39.02
602.296	38.99
602.632	38.81
602.968	38.82
603.304	39.09
603.64	38.92
603.976	39.06
604.312	39.19
604.648	39.2
604.984	39.17
605.319	38.99
605.655	39.08
605.991	39.16
606.326	39.01
606.662	39.05
606.998	38.87
607.333	39.09
607.668	38.78
608.004	38.89
608.339	39.05
608.674	39.34
609.01	39.61
609.345	39.64
609.68	39.79
610.015	39.5
610.35	39.7
610.685	39.6
611.02	39.68
611.355	39.71
611.689	39.51
612.024	39.56
612.359	39.31
612.694	39.81
613.028	39.65
613.363	39.9
613.697	39.83
614.032	39.96
614.366	39.8
614.7	39.75
615.035	39.69
615.369	40.5
615.703	40.04
616.037	40.29
616.371	40.06
616.705	39.98
617.039	40.69
617.373	40.45
617.707	40.33
618.041	39.95
618.375	40.2
618.709	40.91
619.042	40.22
619.376	40.25
619.71	40.69
620.043	40.43
620.377	40.64
620.71	40.62
621.043	40.8
621.377	40.74
621.71	41.16
622.043	40.83
622.376	40.81
622.709	40.77
623.043	40.55
623.376	40.41
623.709	40.75
624.041	40.85
624.374	40.94
624.707	41.49
625.04	40.89
625.373	41.13
625.705	40.85
626.038	40.85
626.37	40.84
626.703	41.07
627.035	41.3
627.368	41.29
627.7	41.41
628.032	41.05
628.365	41.44
628.697	41.13
629.029	41.22
629.361	41.06
629.693	41.26
630.025	40.9
630.357	41.74
630.689	41.22
631.021	41.33
631.353	41.42
631.684	40.85
632.016	41.46
632.348	41.81
632.679	41.59
633.011	41.47
633.342	41.68
633.674	41.99
634.005	41.92
634.336	41.29
634.668	41.86
634.999	41.61
635.33	42.12
635.661	41.68
635.992	41.84
636.323	41.92
636.654	42.2
636.985	41.79
637.316	42.21
637.647	42.18
637.977	42.27
638.308	42.17
638.639	42.42
638.969	42.52
639.3	42.26
639.63	42.21
639.961	42.15
640.291	42.04
640.622	42.75
640.952	42.28
641.282	42.2
641.612	42.51
641.943	42.26
642.273	42.8
642.603	42.51
642.933	42.83
643.263	42.48
643.592	42.44
643.922	42.28
644.252	42.43
644.582	43.18
644.911	42.95
645.241	42.5
645.571	43.02
645.9	43.08
646.23	42.6
646.559	42.48
646.888	42.93
647.218	43.1
647.547	43.16
647.876	42.99
648.205	42.08
648.534	43.11
648.863	42.78
649.192	42.86
649.521	43.31
649.85	43.1
650.179	42.83
650.508	43.27
650.837	43.03
651.165	43.22
651.494	43.47
651.822	43.33
652.151	43.25
652.479	43.38
652.808	43.17
653.136	43.38
653.465	43.65
653.793	43.43
654.121	43.75
654.449	43.44
654.777	43.23
655.105	43.71
655.433	43.73
655.761	43.55
656.089	43.33
656.417	43.24
656.745	43.04
657.073	43.36
657.4	43.92
657.728	43.51
658.056	44.04
658.383	43.81
658.711	43.65
659.038	43.78
659.365	43.67
659.693	43.31
660.02	43.64
660.347	44.08
660.674	44
661.001	44.16
661.329	44
661.656	43.81
661.982	43.9
662.309	43.45
662.636	43.98
662.963	44.18
663.29	43.85
663.616	44.16
663.943	44.27
664.27	43.86
664.596	44.03
664.923	44.18
665.249	43.93
665.576	44.51
665.902	43.9
666.228	44.09
666.554	43.64
666.881	44.41
667.207	44.52
667.533	44.65
667.859	43.92
668.185	44.48
668.511	44.72
668.837	44.56
669.162	44.35
669.488	44.77
669.814	44.61
670.139	44.54
670.465	44.91
