Data from 0016_crown_Reflection__0__55.txt Node

Date: Mon Oct 17 14:51:36 CDT 2022
User: ToomeyLab
Spectrometer: FLMS14357
Trigger mode: 0
Integration Time (sec): 1.000000E-2
Scans to average: 100
Electric dark correction enabled: true
Nonlinearity correction enabled: false
Boxcar width: 0
XAxis mode: Wavelengths
Number of Pixels in Spectrum: 2048
>>>>>Begin Spectral Data<<<<<
189.047	428.57
189.435	428.57
189.823	428.57
190.211	-34.01
190.599	91.95
190.987	75.97
191.375	49.24
191.763	414.89
192.151	39.94
192.538	-0.36
192.926	55.62
193.314	38.76
193.702	213.52
194.089	260.16
194.477	-938.14
194.864	27.81
195.252	536.71
195.639	74.99
196.027	322.55
196.414	195.42
196.801	-151.46
197.189	81.35
197.576	66.59
197.963	-495.96
198.351	-88.44
198.738	-12.52
199.125	-50.98
199.512	-147.55
199.899	1.28
200.286	17.08
200.673	-38.62
201.06	-42.7
201.447	-18.78
201.833	19.51
202.22	-8.29
202.607	-51.37
202.994	-30.47
203.38	14.78
203.767	-17.64
204.154	6.84
204.54	-35.65
204.927	9.66
205.313	-52.53
205.699	12.01
206.086	-45.67
206.472	-3.3
206.858	19.23
207.245	20.19
207.631	8.3
208.017	27.86
208.403	14.72
208.789	6.04
209.175	17.35
209.561	-68.3
209.947	-62.35
210.333	9.58
210.719	5.17
211.105	5.31
211.491	-6.85
211.876	-6.8
212.262	25.03
212.648	-17.19
213.034	-17.11
213.419	-10.13
213.805	-47.13
214.19	-2.02
214.576	12.61
214.961	2.44
215.346	-16.69
215.732	-4.06
216.117	-2.45
216.502	-28.2
216.888	-28.15
217.273	7.02
217.658	-2.2
218.043	-19.63
218.428	-24.51
218.813	-12.54
219.198	1.12
219.583	-11.32
219.968	-7.86
220.353	-2.95
220.738	-6.51
221.122	-13.22
221.507	-25.33
221.892	9.76
222.276	-12.22
222.661	8.87
223.046	-6.21
223.43	0.18
223.815	-1.71
224.199	0.31
224.583	-11.76
224.968	3.41
225.352	-13.67
225.736	3.05
226.121	-2.3
226.505	1.69
226.889	3.33
227.273	6.06
227.657	3.45
228.041	1.09
228.425	2.89
228.809	4.94
229.193	2.57
229.577	4.93
229.961	5.28
230.344	3.14
230.728	3.26
231.112	3.5
231.495	4.15
231.879	3.09
232.263	4.34
232.646	3.34
233.03	2.79
233.413	0.41
233.797	3.46
234.18	3.31
234.563	1.48
234.946	4.46
235.33	2.86
235.713	1.94
236.096	3.12
236.479	2.06
236.862	2.14
237.245	1.42
237.628	2.06
238.011	2.59
238.394	2.6
238.777	3.24
239.16	3.18
239.543	3.22
239.925	2.05
240.308	1.99
240.691	2.21
241.073	3.29
241.456	3.35
241.838	3.72
242.221	2.26
242.603	3.49
242.986	3.17
243.368	3.75
243.75	2.95
244.133	3.54
244.515	3.11
244.897	3.31
245.279	3.48
245.661	4.09
246.043	3
246.425	2.72
246.807	2.81
247.189	3.17
247.571	2.89
247.953	3
248.335	3.15
248.717	3.36
249.098	3.41
249.48	3.4
249.862	3.1
250.243	2.88
250.625	3.66
251.006	3.12
251.388	3.32
251.769	2.93
252.151	3
252.532	2.91
252.913	3.19
253.295	2.3
253.676	3.23
254.057	3.38
254.438	3.3
254.819	3.89
255.2	3.72
255.581	2.99
255.962	2.46
256.343	2.22
256.724	2.99
257.105	3.76
257.486	1.68
257.867	1.81
258.247	2.47
258.628	4.11
259.009	3.05
259.389	3
259.77	3.27
260.15	2.65
260.531	2.39
260.911	2.64
261.292	3.22
261.672	3
262.052	3.14
262.432	3.21
262.813	3.04
263.193	3.02
263.573	3.3
263.953	2.87
264.333	2.96
264.713	3.05
265.093	2.93
265.473	2.45
265.853	3.15
266.233	3.52
266.612	3.1
266.992	3.51
267.372	3.03
267.752	3.07
268.131	3.22
268.511	3.24
268.89	3.55
269.27	3.06
269.649	2.87
270.029	2.84
270.408	3.74
270.787	2.31
271.167	2.63
271.546	3.21
271.925	3.36
272.304	2.74
272.683	3.59
273.062	2.79
273.441	2.81
273.82	2.78
274.199	3.42
274.578	3.03
274.957	2.69
275.336	2.97
275.715	2.72
276.093	2.62
276.472	2.13
276.851	2.86
277.229	2.54
277.608	3.19
277.986	2.66
278.365	2.89
278.743	3.2
279.122	2.52
279.5	3.14
279.878	2.55
280.257	2.81
280.635	3
281.013	2.62
281.391	2.69
281.769	2.31
282.147	3.16
282.525	3.04
282.903	2.52
283.281	2.69
283.659	2.62
284.037	2.56
284.415	2.78
284.792	2.51
285.17	2.32
285.548	2.39
285.925	2.78
286.303	2.68
286.68	2.86
287.058	2.91
287.435	2.75
287.813	2.7
288.19	2.85
288.567	2.51
288.945	2.57
289.322	3.16
289.699	2.46
290.076	2.37
290.453	2.43
290.83	3.08
291.207	2.68
291.584	2.73
291.961	2.41
292.338	2.36
292.715	2.56
293.092	2.6
293.469	2.69
293.845	3.1
294.222	2.71
294.599	2.92
294.975	2.29
295.352	2.29
295.728	2.56
296.105	2.01
296.481	2.5
296.858	2.84
297.234	2.46
297.61	2.36
297.986	2.31
298.363	2.6
298.739	2.78
299.115	2.55
299.491	2.28
299.867	2.62
300.243	2.66
300.619	2.23
300.995	2.86
301.371	2.05
301.746	2.34
302.122	2.53
302.498	2.59
302.874	2.89
303.249	2.41
303.625	2.96
304	2.65
304.376	2.52
304.751	2.78
305.127	2.48
305.502	2.27
305.878	2.69
306.253	2.68
306.628	2.8
307.003	2.45
307.378	2.74
307.754	2.38
308.129	2.4
308.504	2.81
308.879	2.49
309.254	2.64
309.629	2.36
310.003	2.89
310.378	2.75
310.753	2.26
311.128	2.41
311.502	2.76
311.877	2.74
312.252	2.38
312.626	2.56
313.001	2.53
313.375	2.44
313.75	2.37
314.124	2.59
314.498	2.42
314.873	2.51
315.247	2.29
315.621	2.89
315.995	2.55
316.369	2.43
316.743	2.16
317.117	2.71
317.491	2.5
317.865	2.7
318.239	2.91
318.613	2.62
318.987	2.13
319.361	2.1
319.734	2.5
320.108	2.09
320.482	2.59
320.855	2.24
321.229	2.45
321.602	2.36
321.976	2.05
322.349	3.02
322.723	2.19
323.096	2.31
323.469	2.25
323.843	2.61
324.216	2.78
324.589	2.5
324.962	2.74
325.335	2.27
325.708	2.37
326.081	2.67
326.454	2.79
326.827	2.44
327.2	2.2
327.573	2.07
327.945	2.06
328.318	2.1
328.691	2.44
329.063	2.05
329.436	2.1
329.809	2.46
330.181	2.65
330.553	2.24
330.926	2.68
331.298	2.55
331.671	3.06
332.043	2.6
332.415	2.76
332.787	2.31
333.159	2.47
333.532	2.37
333.904	2.04
334.276	2.33
334.648	2.41
335.02	2.52
335.391	2.47
335.763	2.81
336.135	2.29
336.507	2.34
336.879	2.77
337.25	2.92
337.622	2.2
337.993	2.48
338.365	2.61
338.736	2.28
339.108	2.41
339.479	2.44
339.851	3.07
340.222	2.43
340.593	2.72
340.964	2.47
341.336	2.9
341.707	2.32
342.078	3.17
342.449	2.47
342.82	2.45
343.191	2.71
343.562	2.25
343.933	2.66
344.303	2.55
344.674	2.86
345.045	2.69
345.416	2.55
345.786	2.95
346.157	2.59
346.527	2.55
346.898	2.76
347.268	3.08
347.639	2.63
348.009	2.62
348.38	2.79
348.75	2.48
349.12	2.45
349.49	2.61
349.861	2.82
350.231	2.75
350.601	2.6
350.971	2.4
351.341	2.24
351.711	2.33
352.081	2.55
352.45	2.74
352.82	2.81
353.19	2.37
353.56	2.36
353.929	2.9
354.299	2.59
354.669	3.05
355.038	2.8
355.408	2.82
355.777	2.33
356.147	2.52
356.516	2.65
356.885	2.55
357.254	2.64
357.624	3.1
357.993	2.3
358.362	2.63
358.731	2.19
359.1	2.4
359.469	2.57
359.838	2.58
360.207	2.85
360.576	2.53
360.945	2.56
361.314	2.92
361.682	2.72
362.051	2.61
362.42	2.76
362.788	2.71
363.157	2.68
363.525	2.57
363.894	2.71
364.262	2.92
364.631	2.85
364.999	2.82
365.367	2.53
365.735	2.89
366.104	2.68
366.472	2.61
366.84	2.74
367.208	3.01
367.576	2.77
367.944	2.65
368.312	2.93
368.68	2.81
369.048	2.68
369.416	3.01
369.783	2.98
370.151	2.85
370.519	2.66
370.886	2.74
371.254	2.53
371.621	2.95
371.989	2.75
372.356	2.9
372.724	2.81
373.091	2.92
373.458	2.75
373.826	2.96
374.193	2.98
374.56	2.67
374.927	2.8
375.294	2.87
375.661	2.83
376.028	3.01
376.395	2.55
376.762	2.89
377.129	2.86
377.496	2.61
377.863	2.72
378.229	2.84
378.596	2.75
378.963	2.85
379.329	2.79
379.696	2.85
380.062	2.89
380.429	2.63
380.795	3.34
381.161	2.77
381.528	2.85
381.894	2.84
382.26	2.93
382.626	2.96
382.993	3.03
383.359	2.67
383.725	2.77
384.091	2.69
384.457	2.86
384.823	2.66
385.188	2.73
385.554	3
385.92	3
386.286	2.84
386.651	3.05
387.017	2.68
387.383	3.05
387.748	2.78
388.114	2.81
388.479	2.87
388.845	3.16
389.21	2.88
389.575	3.06
389.94	3.03
390.306	2.86
390.671	3.11
391.036	3.07
391.401	3.05
391.766	2.91
392.131	3.06
392.496	3.06
392.861	2.77
393.226	3.01
393.591	2.83
393.956	2.91
394.32	3.12
394.685	2.81
395.05	2.89
395.414	2.96
395.779	2.97
396.143	3.04
396.508	3.14
396.872	2.99
397.236	3.04
397.601	3.07
397.965	2.93
398.329	3.02
398.694	3.38
399.058	3.17
399.422	3.16
399.786	3
400.15	3.05
400.514	2.81
400.878	2.95
401.242	3.03
401.605	3.07
401.969	3.05
402.333	3.16
402.697	3
403.06	2.99
403.424	3.11
403.787	3.06
404.151	3.16
404.514	3.22
404.878	2.94
405.241	3.01
405.604	3.19
405.968	3.29
406.331	2.9
406.694	3
407.057	3.01
407.42	2.97
407.783	3.24
408.146	3.23
408.509	3.39
408.872	3.14
409.235	2.95
409.598	3.06
409.961	3.03
410.323	2.96
410.686	3.1
411.049	2.93
411.411	3.19
411.774	3.11
412.136	3.01
412.499	3.23
412.861	3.13
413.223	3.23
413.586	3.03
413.948	3.11
414.31	3.08
414.672	3.17
415.035	3.34
415.397	3.29
415.759	3.16
416.121	3.14
416.483	3.2
416.845	3.21
417.206	3.23
417.568	3.32
417.93	3.03
418.292	3.2
418.653	3.14
419.015	3.38
419.377	3.18
419.738	3.08
420.1	3.22
420.461	3.07
420.822	3.13
421.184	3.06
421.545	3.14
421.906	3.13
422.267	3.13
422.629	3.04
422.99	3.09
423.351	3.03
423.712	3.13
424.073	3.2
424.434	3.19
424.795	3.19
425.155	3.15
425.516	3.09
425.877	3.07
426.238	3.01
426.598	3.11
426.959	3.14
427.32	3.23
427.68	3.16
428.041	3.14
428.401	3.29
428.761	3.35
429.122	3.37
429.482	3.22
429.842	3.31
430.202	3.3
430.563	3.36
430.923	3.2
431.283	3.33
431.643	3.13
432.003	3.21
432.363	3.44
432.722	3.17
433.082	3.09
433.442	3.46
433.802	3.23
434.161	3.15
434.521	3.35
434.881	3.27
435.24	3.17
435.6	3.32
435.959	3.2
436.319	3.38
436.678	3.25
437.037	3.35
437.396	3.38
437.756	3.32
438.115	3.09
438.474	3.2
438.833	3.17
439.192	3.17
439.551	3.18
439.91	3.29
440.269	3.19
440.628	3.16
440.987	3.17
441.345	3.23
441.704	3.16
442.063	3.12
442.421	3.25
442.78	3.15
443.138	3.19
443.497	3.34
443.855	3.38
444.214	3.31
444.572	3.15
444.93	3.29
445.288	3.17
445.647	3.42
446.005	3.36
446.363	3.4
446.721	3.2
447.079	3.21
447.437	3.21
447.795	3.37
448.153	3.24
448.51	3.19
448.868	3.35
449.226	3.28
449.584	3.4
449.941	3.37
450.299	3.42
450.656	3.29
451.014	3.2
451.371	3.42
451.729	3.44
452.086	3.37
452.443	3.47
452.801	3.46
453.158	3.52
453.515	3.29
453.872	3.3
454.229	3.35
454.586	3.25
454.943	3.22
455.3	3.38
455.657	3.4
456.014	3.39
456.371	3.45
456.727	3.5
457.084	3.35
457.441	3.28
457.797	3.33
458.154	3.38
458.51	3.42
458.867	3.44
459.223	3.33
459.58	3.17
459.936	3.15
460.292	3.41
460.648	3.33
461.005	3.27
461.361	3.28
461.717	3.22
462.073	3.26
462.429	3.38
462.785	3.49
463.141	3.61
463.496	3.5
463.852	3.52
464.208	3.54
464.564	3.43
464.919	3.47
465.275	3.29
465.631	3.44
465.986	3.34
466.342	3.58
466.697	3.47
467.052	3.51
467.408	3.47
467.763	3.41
468.118	3.5
468.473	3.37
468.829	3.44
469.184	3.48
469.539	3.34
469.894	3.37
470.249	3.45
470.603	3.52
470.958	3.46
471.313	3.4
471.668	3.56
472.023	3.46
472.377	3.61
472.732	3.36
473.086	3.44
473.441	3.39
473.795	3.54
474.15	3.42
474.504	3.52
474.859	3.42
475.213	3.54
475.567	3.67
475.921	3.44
476.275	3.47
476.63	3.61
476.984	3.49
477.338	3.55
477.692	3.38
478.045	3.44
478.399	3.45
478.753	3.37
479.107	3.45
479.461	3.42
479.814	3.45
480.168	3.35
480.521	3.46
480.875	3.45
481.228	3.47
481.582	3.61
481.935	3.51
482.289	3.37
482.642	3.36
482.995	3.39
483.348	3.47
483.701	3.41
484.055	3.33
484.408	3.44
484.761	3.29
485.114	3.13
485.466	3.08
485.819	3.07
486.172	3.17
486.525	3.33
486.878	3.49
487.23	3.53
487.583	3.56
487.936	3.43
488.288	3.36
488.641	3.21
488.993	3.14
489.345	3.21
489.698	3.26
490.05	3.28
490.402	3.37
490.754	3.39
491.107	3.45
491.459	3.5
491.811	3.57
492.163	3.42
492.515	3.41
492.866	3.3
493.218	3.19
493.57	3.21
493.922	3.32
494.274	3.49
494.625	3.59
494.977	3.67
495.328	3.57
495.68	3.59
496.031	3.61
496.383	3.62
496.734	3.45
497.086	3.43
497.437	3.49
497.788	3.52
498.139	3.36
498.49	3.4
498.842	3.37
499.193	3.41
499.544	3.48
499.894	3.52
500.245	3.49
500.596	3.51
500.947	3.55
501.298	3.59
501.648	3.45
501.999	3.43
502.35	3.5
502.7	3.62
503.051	3.57
503.401	3.69
503.752	3.63
504.102	3.53
504.452	3.52
504.803	3.54
505.153	3.52
505.503	3.59
505.853	3.53
506.203	3.44
506.553	3.57
506.903	3.52
507.253	3.53
507.603	3.47
507.953	3.51
508.303	3.54
508.652	3.46
509.002	3.49
509.352	3.47
509.701	3.52
510.051	3.51
510.4	3.39
510.75	3.46
511.099	3.5
511.449	3.5
511.798	3.5
512.147	3.51
512.496	3.59
512.846	3.44
513.195	3.48
513.544	3.5
513.893	3.49
514.242	3.5
514.591	3.47
514.939	3.62
515.288	3.55
515.637	3.65
515.986	3.52
516.334	3.67
516.683	3.66
517.032	3.54
517.38	3.5
517.729	3.64
518.077	3.55
518.426	3.43
518.774	3.46
519.122	3.4
519.47	3.37
519.819	3.5
520.167	3.35
520.515	3.37
520.863	3.48
521.211	3.5
521.559	3.52
521.907	3.7
522.255	3.61
522.602	3.61
522.95	3.66
523.298	3.46
523.645	3.5
523.993	3.55
524.341	3.76
524.688	3.58
525.036	3.52
525.383	3.54
525.73	3.58
526.078	3.4
526.425	3.47
526.772	3.48
527.119	3.37
527.466	3.34
527.814	3.43
528.161	3.48
528.508	3.54
528.854	3.51
529.201	3.46
529.548	3.38
529.895	3.24
530.242	3.19
530.588	3.16
530.935	3.26
531.282	3.41
531.628	3.51
531.975	3.65
532.321	3.54
532.667	3.72
533.014	3.6
533.36	3.53
533.706	3.62
534.052	3.51
534.399	3.38
534.745	3.31
535.091	3.3
535.437	3.33
535.783	3.5
536.129	3.57
536.474	3.7
536.82	3.71
537.166	3.8
537.512	3.54
537.857	3.58
538.203	3.39
538.549	3.3
538.894	3.44
539.239	3.57
539.585	3.58
539.93	3.69
540.276	3.59
540.621	3.55
540.966	3.54
541.311	3.53
541.656	3.55
542.001	3.54
542.346	3.44
542.691	3.39
543.036	3.23
543.381	3.3
543.726	3.4
544.071	3.46
544.415	3.58
544.76	3.58
545.105	3.49
545.449	3.57
545.794	3.6
546.138	3.59
546.483	3.6
546.827	3.6
547.171	3.45
547.516	3.52
547.86	3.51
548.204	3.44
548.548	3.49
548.892	3.53
549.236	3.53
549.58	3.57
549.924	3.61
550.268	3.81
550.612	3.6
550.956	3.75
551.3	3.62
551.643	3.8
551.987	3.67
552.33	3.64
552.674	3.61
553.017	3.63
553.361	3.54
553.704	3.42
554.048	3.47
554.391	3.44
554.734	3.46
555.077	3.54
555.42	3.59
555.764	3.67
556.107	3.69
556.45	3.67
556.793	3.66
557.135	3.73
557.478	3.62
557.821	3.7
558.164	3.64
558.507	3.67
558.849	3.5
559.192	3.5
559.534	3.68
559.877	3.73
560.219	3.45
560.562	3.49
560.904	3.59
561.246	3.79
561.589	3.66
561.931	3.46
562.273	3.69
562.615	3.63
562.957	3.59
563.299	3.56
563.641	3.68
563.983	3.6
564.325	3.76
564.667	3.79
565.008	3.75
565.35	3.76
565.692	3.85
566.033	3.67
566.375	3.56
566.716	3.6
567.058	3.54
567.399	3.62
567.741	3.52
568.082	3.64
568.423	3.55
568.764	3.56
569.105	3.6
569.447	3.75
569.788	3.73
570.129	3.76
570.47	3.65
570.811	3.66
571.151	3.5
571.492	3.63
571.833	3.67
572.174	3.67
572.514	3.63
572.855	3.6
573.195	3.45
573.536	3.53
573.876	3.69
574.217	3.49
574.557	3.59
574.898	3.62
575.238	3.71
575.578	3.82
575.918	3.62
576.258	3.66
576.598	3.57
576.938	3.62
577.278	3.66
577.618	3.64
577.958	3.64
578.298	3.65
578.638	3.81
578.977	3.77
579.317	3.39
579.657	3.69
579.996	3.65
580.336	3.63
580.675	3.55
581.014	3.62
581.354	3.41
581.693	3.61
582.032	3.69
582.372	3.64
582.711	3.57
583.05	3.78
583.389	3.44
583.728	3.78
584.067	3.54
584.406	3.52
584.745	3.79
585.083	3.58
585.422	3.89
585.761	3.86
586.1	3.87
586.438	3.98
586.777	3.65
587.115	3.64
587.454	3.81
587.792	3.77
588.13	3.82
588.469	3.76
588.807	3.8
589.145	3.68
589.483	3.44
589.821	3.56
590.159	3.49
590.497	3.72
590.835	3.71
591.173	3.78
591.511	3.65
591.849	3.61
592.187	3.56
592.524	3.69
592.862	3.71
593.2	3.59
593.537	3.84
593.875	3.52
594.212	3.65
594.55	3.62
594.887	3.55
595.224	3.72
595.561	3.67
595.899	3.72
596.236	3.85
596.573	3.88
596.91	3.63
597.247	3.66
597.584	3.59
597.921	3.76
598.258	3.49
598.594	3.6
598.931	3.57
599.268	3.6
599.604	3.79
599.941	3.94
600.277	3.57
600.614	3.92
600.95	3.68
601.287	3.69
601.623	3.67
601.959	3.6
602.296	3.73
602.632	3.62
602.968	3.53
603.304	3.58
603.64	3.55
603.976	3.72
604.312	3.88
604.648	3.62
604.984	3.68
605.319	3.54
605.655	3.67
605.991	3.77
606.326	3.54
606.662	3.59
606.998	3.64
607.333	3.65
607.668	3.7
608.004	3.64
608.339	3.84
608.674	3.89
609.01	3.86
609.345	3.69
609.68	3.94
610.015	3.89
610.35	3.55
610.685	3.34
611.02	3.75
611.355	3.46
611.689	3.6
612.024	3.91
612.359	3.69
612.694	3.86
613.028	3.55
613.363	3.94
613.697	3.64
614.032	3.79
614.366	3.84
614.7	3.69
615.035	3.6
615.369	3.81
615.703	3.63
616.037	3.86
616.371	3.69
616.705	3.68
617.039	3.95
617.373	3.94
617.707	3.95
618.041	3.43
618.375	3.55
618.709	3.97
619.042	3.97
619.376	3.68
619.71	3.94
620.043	3.64
620.377	3.8
620.71	4.02
621.043	4.07
621.377	4.1
621.71	3.81
622.043	4.02
622.376	3.85
622.709	3.91
623.043	3.78
623.376	3.55
623.709	3.67
624.041	3.55
624.374	3.54
624.707	3.52
625.04	3.83
625.373	4.08
625.705	3.55
626.038	3.15
626.37	3.52
626.703	3.92
627.035	3.68
627.368	3.59
627.7	3.89
628.032	3.83
628.365	3.89
628.697	3.6
629.029	3.88
629.361	3.82
629.693	3.93
630.025	3.84
630.357	3.64
630.689	3.38
631.021	3.92
631.353	3.64
631.684	3.56
632.016	3.63
632.348	3.92
632.679	3.89
633.011	3.63
633.342	3.82
633.674	3.99
634.005	3.6
634.336	3.37
634.668	3.82
634.999	3.97
635.33	3.84
635.661	3.7
635.992	3.64
636.323	3.66
636.654	3.53
636.985	3.72
637.316	3.68
637.647	3.59
637.977	3.69
638.308	3.82
638.639	3.54
638.969	3.69
639.3	3.78
639.63	3.54
639.961	3.74
640.291	3.63
640.622	3.53
640.952	3.86
641.282	4.16
641.612	3.34
641.943	3.79
642.273	3.66
642.603	3.56
642.933	4.21
643.263	4.18
643.592	4.03
643.922	3.66
644.252	3.49
644.582	4.03
644.911	4.18
645.241	3.93
645.571	3.78
645.9	4.06
646.23	3.51
646.559	3.49
646.888	3.34
647.218	3.38
647.547	3.75
647.876	3.65
648.205	3.67
648.534	3.74
648.863	3.44
649.192	3.81
649.521	4.16
649.85	3.52
650.179	4.15
650.508	3.6
650.837	3.56
651.165	4.05
651.494	3.96
651.822	4.14
652.151	3.76
652.479	4.14
652.808	3.36
653.136	3.4
653.465	3.48
653.793	3.28
654.121	4.28
654.449	3.42
654.777	3.98
655.105	3.24
655.433	3.76
655.761	3.8
656.089	3.31
656.417	4.05
656.745	3.5
657.073	4.04
657.4	3.78
657.728	3.45
658.056	3.17
658.383	4.21
658.711	3.79
659.038	3.46
659.365	3.6
659.693	3.48
660.02	3.53
660.347	4.05
660.674	3.82
661.001	3.71
661.329	3.84
661.656	3.81
661.982	3.62
662.309	3.96
662.636	3.8
662.963	3.56
663.29	4.09
663.616	3.67
663.943	3.72
664.27	3.83
664.596	3.4
664.923	3.75
665.249	3.25
665.576	3.94
665.902	3.71
666.228	4.22
666.554	3.69
666.881	3.79
667.207	4.27
667.533	4.05
667.859	3.87
668.185	4.06
668.511	3.65
668.837	4.29
669.162	3.7
669.488	3.83
669.814	4.53
670.139	3.7
670.465	3.56
670.791	4.19
671.116	4.07
671.442	4.04
671.767	3.83
672.092	3.66
672.418	3.86
672.743	3.71
673.068	3.98
673.393	3.89
673.718	3.61
674.043	3.91
674.368	3.43
674.693	3.77
675.018	3.58
675.343	4.54
675.667	4.08
675.992	3.82
676.317	3.53
676.641	3.34
676.966	4.17
677.29	3.5
677.615	3.45
677.939	4.29
678.264	3.8
678.588	3.65
678.912	4.02
679.236	4.35
679.56	3.69
679.885	3.81
680.209	3.97
680.532	3.58
680.856	3.97
681.18	3.89
681.504	4.01
681.828	3.77
682.152	3.48
682.475	3.72
682.799	4.23
683.122	3.29
683.446	4.02
683.769	4.13
684.093	3.69
684.416	4.06
684.739	3.65
685.062	3.82
685.386	4.2
685.709	3.69
686.032	4.6
686.355	3.7
686.678	3.07
687.001	4.05
687.324	3.91
687.646	3.5
687.969	4
688.292	4.29
688.614	4.26
688.937	4.3
689.26	4.03
689.582	3.61
689.904	4.21
690.227	4.21
690.549	4.59
690.871	3.97
691.194	3.67
691.516	3.82
691.838	4.02
692.16	3.44
692.482	4.26
