Data from 0016_forehead_Reflection__2__63.txt Node

Date: Mon Oct 17 14:54:23 CDT 2022
User: ToomeyLab
Spectrometer: FLMS14357
Trigger mode: 0
Integration Time (sec): 1.000000E-2
Scans to average: 100
Electric dark correction enabled: true
Nonlinearity correction enabled: false
Boxcar width: 0
XAxis mode: Wavelengths
Number of Pixels in Spectrum: 2048
>>>>>Begin Spectral Data<<<<<
189.047	-297.57
189.435	-297.57
189.823	-297.57
190.211	-50.98
190.599	113.63
190.987	136.43
191.375	-177.02
191.763	-327.01
192.151	-54.2
192.538	56.29
192.926	22.16
193.314	49.86
193.702	-199.61
194.089	348.08
194.477	-1556.01
194.864	30.99
195.252	-6.24
195.639	82.59
196.027	195.18
196.414	-18.34
196.801	-6.46
197.189	85.59
197.576	85.07
197.963	-566.82
198.351	-97.74
198.738	36.99
199.125	-26.93
199.512	-100.99
199.899	-38.14
200.286	14.29
200.673	52.73
201.06	-42.44
201.447	29.36
201.833	48.69
202.22	33.71
202.607	-6.88
202.994	-6.51
203.38	18.4
203.767	14.7
204.154	42
204.54	3.84
204.927	-11.11
205.313	13.19
205.699	55.52
206.086	-20.81
206.472	39.25
206.858	0.39
207.245	11.59
207.631	24.39
208.017	24.65
208.403	23.3
208.789	26.31
209.175	22.55
209.561	-22.75
209.947	-5.58
210.333	15.95
210.719	12.55
211.105	16.02
211.491	11.83
211.876	-3.3
212.262	8.98
212.648	14.43
213.034	-9.6
213.419	3.02
213.805	28.49
214.19	-4.87
214.576	-2.51
214.961	-7.5
215.346	-12.21
215.732	7.22
216.117	17.85
216.502	-6.55
216.888	21.97
217.273	24.97
217.658	20.02
218.043	7.05
218.428	4.26
218.813	8.38
219.198	31.66
219.583	-4.1
219.968	9.67
220.353	-5.23
220.738	1.51
221.122	2.46
221.507	-5.16
221.892	7.06
222.276	7.96
222.661	20.39
223.046	8.05
223.43	14.58
223.815	-3.36
224.199	8.63
224.583	-8.55
224.968	-3.79
225.352	-4.18
225.736	4.35
226.121	-3.74
226.505	4.78
226.889	-1.38
227.273	5.64
227.657	8.41
228.041	3.15
228.425	2.72
228.809	1.5
229.193	4.04
229.577	5.36
229.961	6.41
230.344	2.94
230.728	3.35
231.112	3.45
231.495	4.17
231.879	4.49
232.263	3.95
232.646	4.24
233.03	3.41
233.413	1.78
233.797	2.83
234.18	5.3
234.563	0.49
234.946	5.25
235.33	3.5
235.713	2.67
236.096	4.91
236.479	4.22
236.862	5.18
237.245	2.86
237.628	4.79
238.011	4.48
238.394	4.69
238.777	4.09
239.16	5.19
239.543	2.95
239.925	3.28
240.308	2.83
240.691	3.17
241.073	4.45
241.456	3.96
241.838	3.79
242.221	2.87
242.603	4.37
242.986	3.13
243.368	3.59
243.75	3.19
244.133	3.84
244.515	3.69
244.897	3.61
245.279	3.63
245.661	4.15
246.043	3.39
246.425	2.62
246.807	3.43
247.189	4.21
247.571	3.58
247.953	3.97
248.335	3.64
248.717	3.63
249.098	3.82
249.48	3.77
249.862	3.73
250.243	3.35
250.625	3.95
251.006	3.51
251.388	4.43
251.769	4.25
252.151	3.62
252.532	3.86
252.913	3.42
253.295	3.25
253.676	3.81
254.057	4.05
254.438	4.01
254.819	4.59
255.2	4.7
255.581	4.29
255.962	3.75
256.343	3.5
256.724	4.49
257.105	2.92
257.486	2.61
257.867	3.52
258.247	3.64
258.628	3.73
259.009	3.92
259.389	3.62
259.77	3.98
260.15	3.99
260.531	3.67
260.911	3.84
261.292	3.73
261.672	3.62
262.052	3.69
262.432	3.53
262.813	3.38
263.193	3.8
263.573	3.59
263.953	3.88
264.333	3.72
264.713	3.61
265.093	3.2
265.473	3.73
265.853	4.01
266.233	4.7
266.612	3.58
266.992	4.53
267.372	3.69
267.752	3.78
268.131	4.15
268.511	3.54
268.89	4.42
269.27	3.61
269.649	3.83
270.029	3.68
270.408	4.3
270.787	3.73
271.167	3.37
271.546	3.89
271.925	3.72
272.304	4.14
272.683	3.86
273.062	3.84
273.441	3.57
273.82	3.95
274.199	3.88
274.578	3.69
274.957	3.81
275.336	3.98
275.715	3.41
276.093	3.82
276.472	3.58
276.851	4.29
277.229	3.44
277.608	3.47
277.986	3.22
278.365	3.14
278.743	3.63
279.122	3.4
279.5	3.97
279.878	3.84
280.257	3.66
280.635	3.7
281.013	3.72
281.391	3.41
281.769	3.24
282.147	4.24
282.525	3.58
282.903	3.15
283.281	3.41
283.659	3.47
284.037	3.57
284.415	4.08
284.792	3.54
285.17	3.33
285.548	3.4
285.925	3.94
286.303	3.7
286.68	3.97
287.058	4.07
287.435	3.87
287.813	3.6
288.19	3.74
288.567	3.65
288.945	3.67
289.322	4.14
289.699	3.97
290.076	3.68
290.453	3.86
290.83	3.91
291.207	4.24
291.584	3.69
291.961	3.8
292.338	4.06
292.715	3.82
293.092	4.35
293.469	4.11
293.845	4.04
294.222	4.17
294.599	4.42
294.975	3.52
295.352	4.04
295.728	4.43
296.105	4.37
296.481	4.68
296.858	4.92
297.234	4.25
297.61	4.33
297.986	4.11
298.363	4.6
298.739	4.71
299.115	4.38
299.491	4.34
299.867	4.79
300.243	4.37
300.619	4.17
300.995	4.85
301.371	4.91
301.746	4.52
302.122	4.53
302.498	4.86
302.874	5.19
303.249	4.97
303.625	5.46
304	4.85
304.376	5.41
304.751	5.55
305.127	5.09
305.502	4.46
305.878	4.93
306.253	4.97
306.628	5.22
307.003	4.98
307.378	5.36
307.754	4.77
308.129	4.86
308.504	5.46
308.879	5.44
309.254	5.41
309.629	5.25
310.003	5.72
310.378	5.67
310.753	5.14
311.128	5.78
311.502	5.75
311.877	5.9
312.252	5.84
312.626	5.86
313.001	5.63
313.375	5.83
313.75	5.73
314.124	5.75
314.498	5.53
314.873	5.73
315.247	5.46
315.621	6.43
315.995	6.08
316.369	6.25
316.743	6.22
317.117	6.16
317.491	5.87
317.865	6.3
318.239	6.41
318.613	6.41
318.987	6.23
319.361	5.96
319.734	6.38
320.108	6.57
320.482	6.96
320.855	6.14
321.229	6.37
321.602	6.63
321.976	6.29
322.349	6.41
322.723	6.51
323.096	7
323.469	6.54
323.843	6.38
324.216	6.9
324.589	6.76
324.962	7.26
325.335	6.83
325.708	6.89
326.081	6.63
326.454	7.12
326.827	6.92
327.2	7.04
327.573	6.95
327.945	7.12
328.318	6.97
328.691	6.68
329.063	7.36
329.436	6.98
329.809	7.19
330.181	7.51
330.553	7.24
330.926	7.25
331.298	7.3
331.671	7.84
332.043	7.35
332.415	7.24
332.787	7.37
333.159	8.19
333.532	6.8
333.904	7.59
334.276	8
334.648	7.34
335.02	7.57
335.391	7.6
335.763	7.45
336.135	7.8
336.507	7.84
336.879	7.93
337.25	8.11
337.622	7.9
337.993	7.72
338.365	8.35
338.736	7.89
339.108	7.83
339.479	7.66
339.851	8.1
340.222	7.76
340.593	8.21
340.964	8.05
341.336	8.25
341.707	8.28
342.078	8.41
342.449	8.43
342.82	8.38
343.191	8.37
343.562	8.14
343.933	8.48
344.303	8.02
344.674	9.2
345.045	8.34
345.416	8.38
345.786	8.71
346.157	8.11
346.527	8.56
346.898	8.58
347.268	8.47
347.639	8.34
348.009	8.29
348.38	8.64
348.75	8.58
349.12	8.86
349.49	9.02
349.861	8.97
350.231	9.12
350.601	8.95
350.971	8.78
351.341	8.53
351.711	8.87
352.081	9.22
352.45	9.18
352.82	8.92
353.19	8.85
353.56	8.81
353.929	9.28
354.299	9.22
354.669	9.11
355.038	9.32
355.408	9.25
355.777	9.29
356.147	9.39
356.516	9.59
356.885	9.57
357.254	9.45
357.624	9.78
357.993	9.62
358.362	9.53
358.731	9.4
359.1	9.77
359.469	9.44
359.838	9.61
360.207	9.54
360.576	9.53
360.945	9.86
361.314	10.06
361.682	9.92
362.051	9.91
362.42	9.87
362.788	9.63
363.157	9.9
363.525	9.75
363.894	9.81
364.262	10.1
364.631	10.11
364.999	10.17
365.367	10.05
365.735	10.33
366.104	10.15
366.472	10.14
366.84	10.2
367.208	10.14
367.576	10.47
367.944	10.1
368.312	10.26
368.68	10.55
369.048	10.27
369.416	10.51
369.783	10.58
370.151	10.59
370.519	10.78
370.886	10.72
371.254	10.63
371.621	10.58
371.989	10.69
372.356	10.91
372.724	10.69
373.091	10.86
373.458	11.07
373.826	11.12
374.193	11.02
374.56	10.87
374.927	11.17
375.294	11.25
375.661	11.16
376.028	11.17
376.395	11.08
376.762	11.17
377.129	11.21
377.496	11.19
377.863	10.8
378.229	11.42
378.596	11.34
378.963	11.03
379.329	11.38
379.696	11.31
380.062	11.57
380.429	11.45
380.795	11.96
381.161	11.7
381.528	11.64
381.894	11.31
382.26	11.56
382.626	11.66
382.993	11.86
383.359	11.73
383.725	12.21
384.091	12.03
384.457	11.61
384.823	11.69
385.188	11.93
385.554	11.84
385.92	12.06
386.286	12.26
386.651	12
387.017	11.82
387.383	12.26
387.748	12.08
388.114	12.03
388.479	12.23
388.845	12.46
389.21	12.08
389.575	12.28
389.94	12.57
390.306	12.33
390.671	12.64
391.036	12.64
391.401	12.37
391.766	12.33
392.131	12.56
392.496	12.54
392.861	12.31
393.226	12.45
393.591	12.32
393.956	12.61
394.32	12.54
394.685	12.67
395.05	12.59
395.414	12.76
395.779	12.77
396.143	12.76
396.508	12.71
396.872	12.84
397.236	12.69
397.601	12.88
397.965	12.71
398.329	13.07
398.694	13.04
399.058	13
399.422	12.73
399.786	13.18
400.15	13.35
400.514	13.1
400.878	13.1
401.242	13.14
401.605	13.43
401.969	13.17
402.333	13.08
402.697	12.94
403.06	13.44
403.424	13.36
403.787	13.62
404.151	13.18
404.514	13.55
404.878	13.4
405.241	13.35
405.604	13.35
405.968	13.23
406.331	13.4
406.694	13.33
407.057	13.44
407.42	13.35
407.783	13.66
408.146	13.47
408.509	13.69
408.872	13.47
409.235	13.44
409.598	13.8
409.961	13.46
410.323	14.02
410.686	13.85
411.049	13.92
411.411	13.94
411.774	13.93
412.136	13.93
412.499	13.98
412.861	13.81
413.223	13.76
413.586	13.89
413.948	14
414.31	13.88
414.672	14.03
415.035	14.19
415.397	14.14
415.759	14.13
416.121	13.91
416.483	14.19
416.845	14.13
417.206	14.25
417.568	14.35
417.93	14.15
418.292	14.35
418.653	14.11
419.015	14.32
419.377	14.25
419.738	14.25
420.1	14.26
420.461	14.32
420.822	14.31
421.184	14.22
421.545	14.36
421.906	14.31
422.267	14.38
422.629	14.26
422.99	14.32
423.351	14.29
423.712	14.35
424.073	14.61
424.434	14.61
424.795	14.66
425.155	14.91
425.516	14.58
425.877	14.51
426.238	14.66
426.598	14.83
426.959	14.82
427.32	15.02
427.68	15.09
428.041	15.13
428.401	15.26
428.761	15.3
429.122	15.46
429.482	15.51
429.842	15.44
430.202	15.65
430.563	15.65
430.923	15.63
431.283	16
431.643	15.79
432.003	15.97
432.363	16.12
432.722	15.9
433.082	15.9
433.442	16.04
433.802	15.84
434.161	15.87
434.521	16.28
434.881	16.06
435.24	16.16
435.6	16.27
435.959	16.18
436.319	16.35
436.678	16.32
437.037	16.39
437.396	16.27
437.756	16.8
438.115	16.56
438.474	16.56
438.833	16.53
439.192	16.7
439.551	16.58
439.91	16.89
440.269	16.68
440.628	16.54
440.987	16.74
441.345	16.79
441.704	16.74
442.063	16.78
442.421	16.78
442.78	16.79
443.138	17.07
443.497	17.11
443.855	17.29
444.214	17.15
444.572	17.2
444.93	17.17
445.288	17.43
445.647	17.42
446.005	17.69
446.363	17.57
446.721	17.42
447.079	17.39
447.437	17.45
447.795	17.33
448.153	17.22
448.51	17.42
448.868	17.43
449.226	17.54
449.584	17.64
449.941	17.83
450.299	17.95
450.656	17.8
451.014	18.01
451.371	18.21
451.729	18.18
452.086	18.35
452.443	18.38
452.801	18.27
453.158	18.55
453.515	18.32
453.872	18.61
454.229	18.39
454.586	18.42
454.943	18.49
455.3	18.65
455.657	18.67
456.014	18.59
456.371	18.87
456.727	18.75
457.084	18.77
457.441	18.9
457.797	18.94
458.154	19.02
458.51	19.05
458.867	19.07
459.223	19.25
459.58	19.1
459.936	18.98
460.292	19.19
460.648	19.24
461.005	18.98
461.361	18.91
461.717	18.81
462.073	18.98
462.429	19.23
462.785	19.31
463.141	19.47
463.496	19.46
463.852	19.7
464.208	19.75
464.564	19.78
464.919	19.88
465.275	19.88
465.631	19.86
465.986	20.13
466.342	19.99
466.697	19.98
467.052	20.03
467.408	20.02
467.763	20.02
468.118	20.28
468.473	20.27
468.829	20.35
469.184	20.33
469.539	20.31
469.894	20.37
470.249	20.3
470.603	20.5
470.958	20.58
471.313	20.65
471.668	20.77
472.023	20.4
472.377	20.88
472.732	20.44
473.086	20.92
473.441	21.01
473.795	20.9
474.15	20.88
474.504	21.07
474.859	21.03
475.213	21.02
475.567	21.12
475.921	20.94
476.275	21.02
476.63	21.33
476.984	21.24
477.338	21.37
477.692	21.25
478.045	21.31
478.399	21.2
478.753	21.46
479.107	21.32
479.461	21.38
479.814	21.37
480.168	21.46
480.521	21.58
480.875	21.61
481.228	21.68
481.582	21.83
481.935	21.62
482.289	21.73
482.642	21.65
482.995	21.69
483.348	21.7
483.701	21.73
484.055	21.53
484.408	21.43
484.761	21.22
485.114	21.06
485.466	20.9
485.819	20.91
486.172	21.03
486.525	21.18
486.878	21.31
487.23	21.5
487.583	21.69
487.936	21.74
488.288	21.65
488.641	21.55
488.993	21.39
489.345	21.48
489.698	21.54
490.05	21.64
490.402	21.62
490.754	21.85
491.107	22.01
491.459	22.25
491.811	22.38
492.163	22.41
492.515	22.33
492.866	22.11
493.218	21.96
493.57	22.05
493.922	22.12
494.274	22.24
494.625	22.56
494.977	22.72
495.328	22.84
495.68	22.99
496.031	23.15
496.383	23.15
496.734	23.2
497.086	23.24
497.437	23.25
497.788	23.33
498.139	23.1
498.49	23.13
498.842	23.25
499.193	23.25
499.544	23.39
499.894	23.51
500.245	23.53
500.596	23.57
500.947	23.7
501.298	23.74
501.648	23.7
501.999	23.79
502.35	23.83
502.7	23.9
503.051	23.93
503.401	23.98
503.752	24.21
504.102	24.17
504.452	24.09
504.803	24.31
505.153	24.19
505.503	24.2
505.853	24.24
506.203	24.01
506.553	24.37
506.903	24.27
507.253	24.42
507.603	24.3
507.953	24.61
508.303	24.52
508.652	24.48
509.002	24.62
509.352	24.48
509.701	24.59
510.051	24.5
510.4	24.46
510.75	24.55
511.099	24.54
511.449	24.7
511.798	24.78
512.147	24.72
512.496	24.66
512.846	24.66
513.195	24.69
513.544	24.82
513.893	24.77
514.242	24.98
514.591	24.99
514.939	25.06
515.288	25.19
515.637	25.16
515.986	25.23
516.334	25.39
516.683	25.3
517.032	25.35
517.38	25.21
517.729	25.46
518.077	25.59
518.426	25.44
518.774	25.4
519.122	25.3
519.47	25.46
519.819	25.22
520.167	25.29
520.515	25.2
520.863	25.32
521.211	25.24
521.559	25.44
521.907	25.58
522.255	25.68
522.602	25.72
522.95	25.96
523.298	25.84
523.645	25.93
523.993	25.98
524.341	26.18
524.688	26
525.036	26.07
525.383	26.28
525.73	26.11
526.078	26.08
526.425	26.07
526.772	25.98
527.119	25.82
527.466	25.82
527.814	25.9
528.161	25.91
528.508	25.99
528.854	26.01
529.201	26.04
529.548	25.81
529.895	25.61
530.242	25.54
530.588	25.58
530.935	25.65
531.282	25.8
531.628	25.79
531.975	25.91
532.321	26.07
532.667	26.33
533.014	26.56
533.36	26.53
533.706	26.47
534.052	26.54
534.399	26.55
534.745	26.17
535.091	26.17
535.437	26.37
535.783	26.43
536.129	26.58
536.474	26.68
536.82	26.83
537.166	26.98
537.512	27.13
537.857	27
538.203	26.87
538.549	26.87
538.894	27.02
539.239	27.1
539.585	27.01
539.93	27.41
540.276	27.33
540.621	27.4
540.966	27.5
541.311	27.51
541.656	27.65
542.001	27.48
542.346	27.28
542.691	27.05
543.036	26.87
543.381	27.04
543.726	27.05
544.071	27.11
544.415	27.25
544.76	27.32
545.105	27.52
545.449	27.61
545.794	27.75
546.138	27.75
546.483	27.87
546.827	28.09
547.171	28.02
547.516	28.04
547.86	28.23
548.204	27.97
548.548	28.13
548.892	28.15
549.236	28.19
549.58	28.39
549.924	28.53
550.268	28.56
550.612	28.73
550.956	28.96
551.3	28.74
551.643	29.17
551.987	29
552.33	29.09
552.674	28.96
553.017	29.18
553.361	29.14
553.704	29.04
554.048	28.98
554.391	28.96
554.734	29.03
555.077	28.91
555.42	29.13
555.764	29.07
556.107	29.34
556.45	29.24
556.793	29.59
557.135	29.53
557.478	29.34
557.821	29.61
558.164	29.57
558.507	29.84
558.849	29.87
559.192	29.69
559.534	29.67
559.877	29.77
560.219	29.81
560.562	29.79
560.904	29.82
561.246	30
561.589	30.08
561.931	29.87
562.273	30.19
562.615	30.07
562.957	30.09
563.299	30.25
563.641	30.39
563.983	30.22
564.325	30.3
564.667	30.45
565.008	30.56
565.35	30.18
565.692	30.64
566.033	30.35
566.375	30.38
566.716	30.5
567.058	30.65
567.399	30.55
567.741	30.56
568.082	30.62
568.423	30.39
568.764	30.58
569.105	30.48
569.447	30.66
569.788	30.65
570.129	30.8
570.47	30.92
570.811	31.02
571.151	30.83
571.492	31.16
571.833	30.85
572.174	30.97
572.514	31.14
572.855	31.12
573.195	31.15
573.536	30.89
573.876	31.18
574.217	31.2
574.557	31.07
574.898	30.96
575.238	31.32
575.578	31.36
575.918	31.35
576.258	31.55
576.598	31.34
576.938	31.41
577.278	31.6
577.618	31.48
577.958	31.35
578.298	31.46
578.638	31.7
578.977	31.68
579.317	31.6
579.657	31.82
579.996	32.08
580.336	31.88
580.675	31.7
581.014	32.07
581.354	32.07
581.693	32.37
582.032	32.06
582.372	32.21
582.711	32.05
583.05	32.37
583.389	32.22
583.728	32.29
584.067	32.38
584.406	32.64
584.745	32.4
585.083	32.6
585.422	32.46
585.761	32.65
586.1	32.71
586.438	32.75
586.777	32.67
587.115	32.66
587.454	32.8
587.792	32.99
588.13	33.23
588.469	33.06
588.807	33.07
589.145	32.92
589.483	32.77
589.821	32.95
590.159	33.05
590.497	33.23
590.835	33.27
591.173	33.37
591.511	33.16
591.849	33.01
592.187	33.19
592.524	33.38
592.862	33.39
593.2	33.35
593.537	33.52
593.875	33.46
594.212	33.37
594.55	33.56
594.887	33.23
595.224	33.57
595.561	33.47
595.899	33.69
596.236	33.78
596.573	33.87
596.91	33.79
597.247	33.7
597.584	33.43
597.921	33.8
598.258	33.6
598.594	33.7
598.931	33.74
599.268	33.74
599.604	33.86
599.941	33.77
600.277	34.1
600.614	33.91
600.95	33.82
601.287	34.23
601.623	34.11
601.959	34.29
602.296	34.47
602.632	34.31
602.968	34.46
603.304	34.5
603.64	34.65
603.976	34.26
604.312	34.24
604.648	34.47
604.984	34.27
605.319	34.3
605.655	34.44
605.991	34.36
606.326	34.13
606.662	34.26
606.998	34.23
607.333	34.57
607.668	34.48
608.004	34.39
608.339	34.97
608.674	34.71
609.01	34.84
609.345	35.11
609.68	35.26
610.015	34.86
610.35	34.91
610.685	34.69
611.02	35.12
611.355	34.92
611.689	34.95
612.024	35.34
612.359	34.94
612.694	35.42
613.028	35.07
613.363	35.24
613.697	35.51
614.032	35.6
614.366	35.6
614.7	35.33
615.035	35.54
615.369	35.74
615.703	35.47
616.037	35.88
616.371	36.23
616.705	35.76
617.039	36.08
617.373	36.16
617.707	36.17
618.041	35.89
618.375	35.69
618.709	36.3
619.042	35.93
619.376	35.9
619.71	35.9
620.043	36.16
620.377	36.54
620.71	36.34
621.043	36.63
621.377	36.24
621.71	36.48
622.043	36.44
622.376	36.48
622.709	36.77
623.043	36.38
623.376	36.36
623.709	36.34
624.041	36.05
624.374	36.38
624.707	36.48
625.04	36.71
625.373	36.73
625.705	36.63
626.038	36.66
626.37	36.64
626.703	36.78
627.035	37.19
627.368	37.18
627.7	37
628.032	36.74
628.365	36.9
628.697	36.98
629.029	37.13
629.361	37.01
629.693	36.92
630.025	36.96
630.357	37.15
630.689	36.8
631.021	37.38
631.353	37.31
631.684	37.01
632.016	37.35
632.348	37.62
632.679	37.77
633.011	37.58
633.342	37.65
633.674	37.73
634.005	37.29
634.336	37.26
634.668	37.29
634.999	37.78
635.33	37.67
635.661	37.49
635.992	37.49
636.323	37.94
636.654	37.94
636.985	37.8
637.316	37.9
637.647	37.94
637.977	37.73
638.308	38.12
638.639	37.91
638.969	38.04
639.3	37.95
639.63	37.82
639.961	38.28
640.291	38.28
640.622	37.96
640.952	38.01
641.282	38.01
641.612	38.3
641.943	38.1
642.273	38.95
642.603	38.52
642.933	39.06
643.263	38.24
643.592	38.45
643.922	38.74
644.252	38.42
644.582	39.2
644.911	39.29
645.241	38.63
645.571	38.55
645.9	38.84
646.23	38.62
646.559	38.74
646.888	38.76
647.218	38.99
647.547	39.07
647.876	38.81
648.205	38.55
648.534	39.05
648.863	39.1
649.192	39.1
649.521	39.17
649.85	39.36
650.179	39.07
650.508	39.17
650.837	39.31
651.165	39.5
651.494	39.61
651.822	39.61
652.151	39.34
652.479	39.23
652.808	39.45
653.136	39.64
653.465	39.2
653.793	39.38
654.121	39.81
654.449	39.92
654.777	39.33
655.105	39.35
655.433	39.72
655.761	38.92
656.089	39.01
656.417	39.61
656.745	39.56
657.073	39.7
657.4	39.66
657.728	39.86
658.056	39.72
658.383	39.96
658.711	40.01
659.038	40.24
659.365	39.92
659.693	39.7
660.02	39.55
660.347	40.25
660.674	39.98
661.001	40.03
661.329	39.75
661.656	39.67
661.982	40.07
662.309	40.2
662.636	40.23
662.963	40.25
663.29	40.05
663.616	40.07
663.943	40.21
664.27	40.54
664.596	40.11
664.923	41.06
665.249	40.53
665.576	40.13
665.902	40.49
666.228	40.62
666.554	40.23
666.881	40.26
667.207	41.17
667.533	40.45
667.859	40.68
668.185	40.54
668.511	40.96
668.837	40.78
669.162	40.91
669.488	41.15
669.814	40.88
670.139	40.82
670.465	40.66
670.791	41
671.116	41.21
671.442	40.88
671.767	41.12
