Data from 0016_crown_Reflection__2__57.txt Node

Date: Mon Oct 17 14:52:02 CDT 2022
User: ToomeyLab
Spectrometer: FLMS14357
Trigger mode: 0
Integration Time (sec): 1.000000E-2
Scans to average: 100
Electric dark correction enabled: true
Nonlinearity correction enabled: false
Boxcar width: 0
XAxis mode: Wavelengths
Number of Pixels in Spectrum: 2048
>>>>>Begin Spectral Data<<<<<
189.047	447.71
189.435	447.71
189.823	447.71
190.211	54.78
190.599	148.39
190.987	-195.09
191.375	70.21
191.763	-46.28
192.151	156.99
192.538	107.99
192.926	-10.32
193.314	84.22
193.702	-33.46
194.089	-206
194.477	-1084.19
194.864	-59.36
195.252	214.26
195.639	52.96
196.027	267.66
196.414	0.86
196.801	56.54
197.189	99.23
197.576	49
197.963	7.62
198.351	-106.12
198.738	-18.54
199.125	-60.5
199.512	-81.51
199.899	-19.04
200.286	-21.53
200.673	-8.07
201.06	-71.2
201.447	-17.12
201.833	7.24
202.22	17.74
202.607	-56.52
202.994	-12.38
203.38	-8.41
203.767	26.27
204.154	32.22
204.54	16.03
204.927	20.39
205.313	-8.82
205.699	30.5
206.086	-63.03
206.472	0.32
206.858	12.08
207.245	-6.72
207.631	17.86
208.017	25.47
208.403	9.41
208.789	20.1
209.175	10.45
209.561	-58.27
209.947	-8.93
210.333	-1.99
210.719	-1.25
211.105	19.01
211.491	-21.37
211.876	-3.71
212.262	-11.38
212.648	-29.57
213.034	-16.6
213.419	23.63
213.805	-36.79
214.19	14.88
214.576	-19.21
214.961	-30.57
215.346	5.75
215.732	-6.27
216.117	15.88
216.502	-9.94
216.888	-36
217.273	17.09
217.658	17.01
218.043	-14.31
218.428	-26.95
218.813	17.21
219.198	-29.51
219.583	6.27
219.968	0.33
220.353	6.84
220.738	-21.16
221.122	-5.96
221.507	3.9
221.892	8.55
222.276	10.72
222.661	4.72
223.046	-1.02
223.43	13.93
223.815	-9.36
224.199	2.49
224.583	-4.75
224.968	-7.45
225.352	-9.4
225.736	-3.39
226.121	-7.64
226.505	-3.99
226.889	-4.23
227.273	-1.28
227.657	8.48
228.041	6.43
228.425	5.48
228.809	2.75
229.193	4.61
229.577	4.22
229.961	5.69
230.344	4.12
230.728	4.42
231.112	4.71
231.495	4.77
231.879	6.11
232.263	5.51
232.646	6.11
233.03	5.41
233.413	2.63
233.797	4.05
234.18	6.38
234.563	1.78
234.946	5.58
235.33	4.49
235.713	4.26
236.096	4.06
236.479	3.67
236.862	5
237.245	2.61
237.628	3.67
238.011	5.05
238.394	4.03
238.777	4.83
239.16	6.16
239.543	3.96
239.925	5.34
240.308	3.37
240.691	3.7
241.073	5.3
241.456	4.56
241.838	4.41
242.221	2.63
242.603	4.7
242.986	4.18
243.368	4.68
243.75	4.23
244.133	4.44
244.515	4.86
244.897	4.96
245.279	5.31
245.661	4.73
246.043	4.74
246.425	3.01
246.807	4.26
247.189	4.59
247.571	4.5
247.953	4.38
248.335	4.21
248.717	4.36
249.098	4.61
249.48	4.39
249.862	4.29
250.243	4.26
250.625	4.84
251.006	3.34
251.388	3.58
251.769	3.89
252.151	4
252.532	2.87
252.913	3.98
253.295	3.61
253.676	4.22
254.057	4.16
254.438	4.52
254.819	5.31
255.2	5.08
255.581	3.91
255.962	2.98
256.343	3.99
256.724	3.02
257.105	3.96
257.486	3.07
257.867	4.01
258.247	3.12
258.628	4.42
259.009	4.14
259.389	3.75
259.77	3.68
260.15	3.86
260.531	3.74
260.911	3.98
261.292	4.04
261.672	3.93
262.052	3.98
262.432	3.87
262.813	3.89
263.193	3.87
263.573	3.93
263.953	3.7
264.333	3.76
264.713	3.46
265.093	3.51
265.473	3.81
265.853	4.05
266.233	4.73
266.612	3.58
266.992	3.86
267.372	3.67
267.752	4.09
268.131	4.19
268.511	4.24
268.89	3.97
269.27	3.8
269.649	3.71
270.029	3.7
270.408	4.11
270.787	3.39
271.167	3.46
271.546	4.11
271.925	3.47
272.304	3.05
272.683	3.66
273.062	3.48
273.441	3.41
273.82	3.92
274.199	3.79
274.578	3.71
274.957	3.72
275.336	3.88
275.715	3.41
276.093	3.59
276.472	3.46
276.851	3.75
277.229	2.84
277.608	3.53
277.986	3.06
278.365	3.22
278.743	3.76
279.122	3.31
279.5	3.52
279.878	3.62
280.257	3.54
280.635	3.29
281.013	3.9
281.391	3.25
281.769	3.43
282.147	4.08
282.525	3.13
282.903	2.8
283.281	3.13
283.659	3.32
284.037	3.14
284.415	3.6
284.792	3.36
285.17	3.21
285.548	2.96
285.925	3.61
286.303	3.69
286.68	3.47
287.058	3.66
287.435	3.51
287.813	3.33
288.19	3.12
288.567	3.29
288.945	3.4
289.322	3.79
289.699	3.38
290.076	3.4
290.453	3.12
290.83	3.35
291.207	3.73
291.584	3.31
291.961	3.13
292.338	3.12
292.715	3.61
293.092	3.8
293.469	3.44
293.845	3.3
294.222	3.49
294.599	3.6
294.975	2.6
295.352	3.2
295.728	3.37
296.105	3.21
296.481	3.34
296.858	3.84
297.234	3.07
297.61	3.27
297.986	3.17
298.363	3.17
298.739	3.64
299.115	3.3
299.491	3.19
299.867	3.3
300.243	3.1
300.619	3.39
300.995	3.29
301.371	3.04
301.746	3.14
302.122	2.78
302.498	3.59
302.874	3.72
303.249	3.44
303.625	3.62
304	3.17
304.376	3.31
304.751	3.49
305.127	3.3
305.502	3.1
305.878	3.36
306.253	3.02
306.628	3.12
307.003	3.3
307.378	3.16
307.754	3.01
308.129	3.23
308.504	2.87
308.879	3.47
309.254	3.31
309.629	3.04
310.003	3.74
310.378	3.39
310.753	3.22
311.128	3.1
311.502	3.29
311.877	3.2
312.252	3.31
312.626	2.9
313.001	3
313.375	3.03
313.75	3.04
314.124	3.27
314.498	2.96
314.873	2.99
315.247	3.2
315.621	3.88
315.995	3.14
316.369	3.02
316.743	3.26
317.117	3.38
317.491	3.24
317.865	3.3
318.239	3.47
318.613	3.26
318.987	3.15
319.361	2.9
319.734	3.16
320.108	3.22
320.482	3.15
320.855	2.94
321.229	3.2
321.602	3.31
321.976	2.71
322.349	3.37
322.723	3.12
323.096	3.21
323.469	2.79
323.843	3.16
324.216	3.59
324.589	2.8
324.962	3.32
325.335	3.18
325.708	3.13
326.081	3.07
326.454	3.14
326.827	3.14
327.2	3.06
327.573	2.99
327.945	2.58
328.318	3.31
328.691	3.4
329.063	3.28
329.436	2.53
329.809	2.88
330.181	3.68
330.553	2.6
330.926	3.4
331.298	3.24
331.671	3.66
332.043	2.93
332.415	3.04
332.787	3.3
333.159	3.56
333.532	3.19
333.904	3.05
334.276	3.26
334.648	2.79
335.02	3.23
335.391	2.98
335.763	3.13
336.135	2.88
336.507	3.7
336.879	3.19
337.25	3.8
337.622	2.85
337.993	2.94
338.365	3.21
338.736	2.85
339.108	3.16
339.479	3.34
339.851	3.21
340.222	2.88
340.593	3.49
340.964	3.19
341.336	3.11
341.707	3.42
342.078	3.46
342.449	3.27
342.82	3.5
343.191	3.28
343.562	2.99
343.933	3.16
344.303	3.05
344.674	3.46
345.045	3.41
345.416	3.19
345.786	3.46
346.157	3.24
346.527	3.25
346.898	3.38
347.268	3.45
347.639	3.12
348.009	3.2
348.38	3.09
348.75	3.24
349.12	3.18
349.49	3.43
349.861	3.45
350.231	3.17
350.601	3.07
350.971	2.98
351.341	3.38
351.711	2.87
352.081	3.3
352.45	3.41
352.82	3.75
353.19	3.28
353.56	2.9
353.929	3.22
354.299	3.15
354.669	3.52
355.038	3.46
355.408	3.39
355.777	3.07
356.147	3.15
356.516	3.54
356.885	3.58
357.254	3.36
357.624	3.39
357.993	3.55
358.362	3.31
358.731	2.88
359.1	3.27
359.469	3.48
359.838	3.58
360.207	3.4
360.576	3.46
360.945	3.46
361.314	3.44
361.682	3.12
362.051	3.4
362.42	3.4
362.788	3.61
363.157	3.55
363.525	3.24
363.894	3.5
364.262	3.54
364.631	3.47
364.999	3.45
365.367	3.01
365.735	3.63
366.104	3.56
366.472	3.61
366.84	3.67
367.208	3.82
367.576	3.32
367.944	3.61
368.312	3.36
368.68	3.49
369.048	3.72
369.416	3.76
369.783	3.4
370.151	3.57
370.519	3.71
370.886	3.56
371.254	3.37
371.621	3.53
371.989	3.84
372.356	3.52
372.724	3.45
373.091	3.32
373.458	3.48
373.826	3.86
374.193	4.07
374.56	3.65
374.927	3.74
375.294	3.82
375.661	3.61
376.028	3.49
376.395	3.43
376.762	3.53
377.129	3.58
377.496	3.5
377.863	3.23
378.229	3.42
378.596	3.56
378.963	3.79
379.329	3.35
379.696	3.59
380.062	3.83
380.429	3.54
380.795	4.06
381.161	3.98
381.528	3.65
381.894	3.58
382.26	3.81
382.626	3.71
382.993	3.95
383.359	3.59
383.725	3.55
384.091	3.74
384.457	3.74
384.823	3.45
385.188	3.64
385.554	3.76
385.92	3.84
386.286	3.72
386.651	3.82
387.017	3.48
387.383	3.79
387.748	3.74
388.114	3.79
388.479	3.82
388.845	3.89
389.21	3.62
389.575	3.8
389.94	3.77
390.306	4.02
390.671	3.81
391.036	3.82
391.401	3.91
391.766	3.84
392.131	3.86
392.496	3.75
392.861	3.7
393.226	3.75
393.591	3.67
393.956	3.79
394.32	3.78
394.685	3.76
395.05	3.77
395.414	3.85
395.779	3.79
396.143	3.85
396.508	4.05
396.872	3.86
397.236	3.77
397.601	3.63
397.965	3.77
398.329	4.02
398.694	3.8
399.058	3.72
399.422	4.08
399.786	3.89
400.15	4.11
400.514	3.76
400.878	3.84
401.242	3.73
401.605	4.16
401.969	3.93
402.333	3.73
402.697	3.89
403.06	3.9
403.424	3.89
403.787	3.85
404.151	3.97
404.514	3.96
404.878	3.81
405.241	3.86
405.604	4.03
405.968	4.04
406.331	3.71
406.694	3.91
407.057	3.74
407.42	3.81
407.783	4.23
408.146	4.1
408.509	4.24
408.872	3.97
409.235	3.9
409.598	4.02
409.961	4.05
410.323	3.91
410.686	3.79
411.049	3.84
411.411	4.05
411.774	3.95
412.136	3.96
412.499	4.14
412.861	4.04
413.223	3.76
413.586	4.03
413.948	4.14
414.31	3.97
414.672	4.01
415.035	4.07
415.397	4.11
415.759	3.87
416.121	3.77
416.483	4.05
416.845	3.98
417.206	3.81
417.568	4.14
417.93	4.07
418.292	4.03
418.653	3.8
419.015	3.84
419.377	3.96
419.738	3.83
420.1	4.08
420.461	3.94
420.822	3.99
421.184	3.91
421.545	3.94
421.906	3.87
422.267	3.92
422.629	3.83
422.99	3.9
423.351	4.02
423.712	3.99
424.073	4.1
424.434	3.98
424.795	4.01
425.155	4.01
425.516	3.95
425.877	3.8
426.238	3.86
426.598	3.91
426.959	3.91
427.32	3.97
427.68	4.05
428.041	4.06
428.401	4.07
428.761	3.97
429.122	4.11
429.482	3.95
429.842	4.01
430.202	4.15
430.563	3.98
430.923	4.08
431.283	4.11
431.643	4.01
432.003	4.01
432.363	4.05
432.722	3.97
433.082	3.92
433.442	4.17
433.802	3.91
434.161	3.96
434.521	4.27
434.881	4.06
435.24	3.95
435.6	4.12
435.959	3.94
436.319	4.14
436.678	3.83
437.037	4
437.396	3.93
437.756	4.23
438.115	3.88
438.474	3.88
438.833	3.92
439.192	4.08
439.551	4.08
439.91	4
440.269	4.02
440.628	3.95
440.987	4.06
441.345	3.97
441.704	4.02
442.063	3.82
442.421	4.02
442.78	3.96
443.138	4.01
443.497	4.04
443.855	4.01
444.214	3.98
444.572	4.04
444.93	4.03
445.288	3.99
445.647	3.97
446.005	4.16
446.363	4.14
446.721	4.01
447.079	3.97
447.437	4.08
447.795	4.02
448.153	4.03
448.51	3.97
448.868	4.05
449.226	4.07
449.584	4.03
449.941	3.93
450.299	4.11
450.656	4.07
451.014	4.04
451.371	4.24
451.729	4.2
452.086	4.16
452.443	4.14
452.801	4.11
453.158	4.21
453.515	4.05
453.872	4.09
454.229	3.92
454.586	4.09
454.943	4.04
455.3	4.15
455.657	4.06
456.014	4.06
456.371	4.11
456.727	4.16
457.084	4.04
457.441	4.22
457.797	4.17
458.154	4.18
458.51	4.16
458.867	4.24
459.223	4.14
459.58	4.06
459.936	4.04
460.292	4.15
460.648	4.13
461.005	4.05
461.361	4.05
461.717	4.01
462.073	4.05
462.429	4.06
462.785	4.15
463.141	4.22
463.496	4.1
463.852	4.01
464.208	4.22
464.564	4.05
464.919	4.28
465.275	4.12
465.631	4.06
465.986	4.09
466.342	4.16
466.697	4.19
467.052	4.06
467.408	4.06
467.763	3.88
468.118	4.19
468.473	4.08
468.829	4.05
469.184	4.14
469.539	4.11
469.894	4.23
470.249	4.26
470.603	4.13
470.958	4.31
471.313	4.25
471.668	4.15
472.023	4.14
472.377	4.17
472.732	3.97
473.086	4.29
473.441	4.26
473.795	4.15
474.15	4.15
474.504	4.18
474.859	4.1
475.213	4.19
475.567	4.25
475.921	3.92
476.275	4.08
476.63	4.25
476.984	4.18
477.338	4.08
477.692	4.15
478.045	4.21
478.399	4.12
478.753	4.11
479.107	4.05
479.461	4.18
479.814	4.09
480.168	4.13
480.521	4.13
480.875	4.12
481.228	4.11
481.582	4.28
481.935	4.2
482.289	4.03
482.642	4.22
482.995	4.09
483.348	4.05
483.701	4.06
484.055	3.97
484.408	4.06
484.761	3.93
485.114	3.85
485.466	3.82
485.819	3.79
486.172	3.81
486.525	3.91
486.878	4
487.23	3.99
487.583	4.06
487.936	4.05
488.288	3.96
488.641	3.92
488.993	3.88
489.345	3.87
489.698	3.89
490.05	3.87
490.402	3.94
490.754	3.98
491.107	4.02
491.459	4.02
491.811	4.11
492.163	4.03
492.515	3.94
492.866	3.9
493.218	3.85
493.57	3.92
493.922	3.89
494.274	4.03
494.625	4.09
494.977	4.12
495.328	4.03
495.68	4.12
496.031	4.17
496.383	4.18
496.734	4.05
497.086	4.04
497.437	4.15
497.788	4.15
498.139	4.02
498.49	3.97
498.842	3.99
499.193	3.92
499.544	4.07
499.894	4.06
500.245	4.09
500.596	4.12
500.947	4.23
501.298	4.03
501.648	3.97
501.999	4.05
502.35	4.15
502.7	4.17
503.051	4.16
503.401	4.1
503.752	4.27
504.102	4.14
504.452	4.05
504.803	4.19
505.153	4.15
505.503	4.18
505.853	4.17
506.203	4.09
506.553	4.09
506.903	4.11
507.253	3.92
507.603	4.08
507.953	4.11
508.303	4.01
508.652	4.14
509.002	4.11
509.352	4.12
509.701	4.15
510.051	4.02
510.4	3.94
510.75	4.01
511.099	4.02
511.449	4.06
511.798	4.11
512.147	4.14
512.496	4.06
512.846	4.09
513.195	4.07
513.544	4.09
513.893	4.11
514.242	4.09
514.591	3.94
514.939	3.98
515.288	4.04
515.637	4.07
515.986	4.12
516.334	4.06
516.683	4.14
517.032	4.03
517.38	3.95
517.729	4.15
518.077	4.05
518.426	4.03
518.774	3.99
519.122	3.98
519.47	4
519.819	4.06
520.167	3.99
520.515	3.97
520.863	3.99
521.211	3.99
521.559	3.93
521.907	4.11
522.255	4.07
522.602	3.98
522.95	4.11
523.298	4.05
523.645	4.07
523.993	4.06
524.341	4.1
524.688	3.92
525.036	4.07
525.383	4.09
525.73	3.99
526.078	3.99
526.425	4.01
526.772	3.95
527.119	3.88
527.466	3.81
527.814	3.92
528.161	3.99
528.508	4
528.854	3.91
529.201	3.9
529.548	3.94
529.895	3.79
530.242	3.78
530.588	3.77
530.935	3.78
531.282	3.85
531.628	3.91
531.975	3.96
532.321	3.9
532.667	4.09
533.014	4.06
533.36	4.01
533.706	4.05
534.052	3.92
534.399	3.9
534.745	3.79
535.091	3.82
535.437	3.89
535.783	3.9
536.129	3.9
536.474	3.99
536.82	4.04
537.166	4.07
537.512	4.08
537.857	4.01
538.203	3.96
538.549	3.96
538.894	3.92
539.239	3.96
539.585	3.98
539.93	4.03
540.276	3.95
540.621	3.92
540.966	3.93
541.311	3.92
541.656	3.98
542.001	3.98
542.346	3.93
542.691	3.9
543.036	3.75
543.381	3.79
543.726	3.81
544.071	3.85
544.415	3.92
544.76	3.9
545.105	3.85
545.449	3.91
545.794	3.84
546.138	3.95
546.483	3.9
546.827	4.02
547.171	3.89
547.516	3.89
547.86	3.98
548.204	3.88
548.548	3.93
548.892	3.91
549.236	3.89
549.58	3.93
549.924	4.01
550.268	3.96
550.612	3.98
550.956	4.2
551.3	3.92
551.643	4.05
551.987	3.97
552.33	3.95
552.674	3.95
553.017	4.06
553.361	4.05
553.704	3.92
554.048	3.78
554.391	3.97
554.734	3.9
555.077	4.06
555.42	4.03
555.764	3.93
556.107	3.95
556.45	3.97
556.793	3.98
557.135	4.15
557.478	3.97
557.821	4.2
558.164	4.01
558.507	3.87
558.849	3.96
559.192	3.93
559.534	4.05
559.877	3.96
560.219	3.82
560.562	3.87
560.904	3.94
561.246	4
561.589	3.94
561.931	3.75
562.273	4.15
562.615	3.91
562.957	3.95
563.299	3.92
563.641	3.92
563.983	3.84
564.325	4.15
564.667	3.91
565.008	4.2
565.35	4.09
565.692	4.18
566.033	3.97
566.375	3.9
566.716	3.95
567.058	3.85
567.399	3.79
567.741	3.91
568.082	3.91
568.423	3.82
568.764	3.79
569.105	3.91
569.447	3.97
569.788	4.02
570.129	4.03
570.47	3.84
570.811	4.07
571.151	3.99
571.492	4.14
571.833	3.78
572.174	3.97
572.514	3.95
572.855	3.9
573.195	3.82
573.536	3.85
573.876	3.87
574.217	3.83
574.557	3.78
574.898	3.87
575.238	3.93
575.578	3.97
575.918	3.87
576.258	3.99
576.598	3.76
576.938	3.95
577.278	3.91
577.618	3.95
577.958	3.82
578.298	3.9
578.638	3.91
578.977	3.9
579.317	3.92
579.657	3.79
579.996	3.91
580.336	4.14
580.675	3.9
581.014	3.86
581.354	3.71
581.693	3.94
582.032	3.92
582.372	3.86
582.711	3.82
583.05	3.78
583.389	3.65
583.728	3.99
584.067	3.8
584.406	3.91
584.745	3.99
585.083	3.97
585.422	3.97
585.761	3.87
586.1	4.15
586.438	4.11
586.777	4.03
587.115	3.82
587.454	4
587.792	4
588.13	3.97
588.469	3.95
588.807	3.86
589.145	3.99
589.483	3.83
589.821	3.92
590.159	3.67
590.497	3.85
590.835	3.85
591.173	3.93
591.511	3.79
591.849	3.83
592.187	3.88
592.524	3.96
592.862	3.88
593.2	3.82
593.537	4.07
593.875	3.8
594.212	3.9
594.55	3.67
594.887	3.72
595.224	3.94
595.561	3.89
595.899	3.81
596.236	3.98
596.573	3.75
596.91	3.9
597.247	3.94
597.584	3.72
597.921	3.85
598.258	3.76
598.594	3.89
598.931	3.76
599.268	3.79
599.604	3.83
599.941	3.65
600.277	3.91
600.614	3.77
600.95	3.7
601.287	3.68
601.623	3.92
601.959	3.96
602.296	3.79
602.632	3.88
602.968	3.71
603.304	3.89
603.64	3.76
603.976	3.82
604.312	3.87
604.648	3.69
604.984	3.77
605.319	3.64
605.655	3.78
605.991	4
606.326	3.74
606.662	3.79
606.998	3.63
607.333	3.86
607.668	3.75
608.004	3.73
608.339	3.75
608.674	3.8
609.01	4.03
609.345	4
609.68	3.86
610.015	3.69
610.35	3.73
610.685	3.5
611.02	3.75
611.355	3.72
611.689	3.67
612.024	3.93
612.359	3.87
612.694	3.66
613.028	3.85
613.363	4.09
613.697	3.59
614.032	3.96
614.366	3.64
614.7	3.73
615.035	3.88
615.369	3.91
615.703	3.6
616.037	3.94
616.371	3.93
616.705	4.03
617.039	4.27
617.373	4.17
617.707	4.08
618.041	3.94
618.375	3.56
618.709	3.79
619.042	4.09
619.376	3.91
619.71	3.81
620.043	3.67
620.377	3.78
620.71	4.02
621.043	4.12
621.377	4.05
621.71	4.13
622.043	3.87
622.376	3.73
622.709	3.86
623.043	3.68
623.376	3.57
623.709	3.88
624.041	3.55
624.374	4.11
624.707	3.51
625.04	4
625.373	4.05
625.705	3.72
626.038	3.58
626.37	3.81
626.703	3.81
627.035	3.74
627.368	3.96
627.7	3.75
628.032	3.87
628.365	3.61
628.697	3.71
629.029	3.84
629.361	3.86
629.693	3.63
630.025	3.65
630.357	3.45
630.689	3.48
631.021	3.69
631.353	3.52
631.684	3.66
632.016	3.81
632.348	3.94
632.679	3.74
633.011	3.9
633.342	3.96
633.674	3.84
634.005	3.57
634.336	3.59
634.668	3.63
634.999	3.45
635.33	3.68
635.661	3.94
635.992	3.55
636.323	3.85
636.654	4
636.985	3.76
637.316	3.93
637.647	3.8
637.977	3.78
638.308	3.83
638.639	3.86
638.969	3.86
639.3	3.45
639.63	3.96
639.961	3.72
640.291	3.67
640.622	3.65
640.952	3.95
641.282	3.63
641.612	3.65
641.943	3.75
642.273	3.51
642.603	3.54
642.933	3.78
643.263	3.81
643.592	3.7
643.922	3.5
644.252	3.99
644.582	3.89
644.911	4.35
645.241	3.87
645.571	3.1
645.9	3.84
646.23	3.55
646.559	3.65
646.888	3.55
647.218	3.5
647.547	3.77
647.876	3.77
648.205	3.38
648.534	3.76
648.863	3.8
649.192	3.4
649.521	3.9
649.85	3.6
650.179	4.03
650.508	3.65
650.837	3.63
651.165	3.8
651.494	3.64
651.822	3.65
652.151	3.84
652.479	3.58
652.808	3.6
653.136	3.69
653.465	3.39
653.793	3.5
654.121	3.85
654.449	3.99
654.777	4.02
655.105	3.02
655.433	3.88
655.761	3.92
656.089	3.7
656.417	3.57
656.745	3.52
657.073	4.24
657.4	3.56
657.728	4.1
658.056	3.55
658.383	3.78
658.711	3.7
659.038	3.27
659.365	3.78
659.693	3.49
660.02	3.52
660.347	3.87
660.674	3.82
661.001	3.89
661.329	3.81
661.656	3.43
661.982	3.51
662.309	4.3
662.636	3.89
662.963	3.68
663.29	4.07
663.616	3.92
663.943	3.33
664.27	3.41
664.596	3.79
664.923	3.81
665.249	3.84
665.576	3.63
665.902	3.83
666.228	3.59
666.554	3.44
666.881	4.05
667.207	3.9
667.533	4.26
667.859	3.48
668.185	4.07
668.511	4.2
668.837	3.91
669.162	3.78
669.488	4.18
669.814	4.1
670.139	3.56
670.465	3.88
670.791	3.55
671.116	3.47
671.442	3.84
671.767	3.65
672.092	3.31
672.418	3.79
672.743	3.71
673.068	3.89
673.393	3.25
673.718	3.67
674.043	4.47
674.368	3.58
674.693	3.9
675.018	3.57
675.343	4.17
675.667	4.24
675.992	3.47
676.317	3.91
676.641	4.33
676.966	3.58
677.29	3.71
677.615	3.42
677.939	4.32
678.264	3.69
678.588	3.61
678.912	3.73
679.236	4.23
679.56	3.26
679.885	3.78
680.209	4.12
680.532	3.55
680.856	3.56
681.18	3.91
681.504	4.17
681.828	4.01
682.152	4.16
682.475	4.02
682.799	3.93
683.122	3.83
683.446	3.86
683.769	3.93
684.093	3.42
684.416	4.24
684.739	3.55
685.062	4.09
685.386	4.79
685.709	3.46
686.032	4.77
686.355	3.64
686.678	3.81
687.001	3.46
687.324	4.01
687.646	3.42
687.969	3.95
688.292	3.93
688.614	3.91
688.937	4.59
689.26	4.08
689.582	4.58
689.904	4.03
690.227	4.39
690.549	4.52
690.871	4.04
691.194	3.75
691.516	3.91
691.838	4.3
692.16	3.87
692.482	4.15
