Data from 0016_crown_Reflection__3__58.txt Node

Date: Mon Oct 17 14:52:12 CDT 2022
User: ToomeyLab
Spectrometer: FLMS14357
Trigger mode: 0
Integration Time (sec): 1.000000E-2
Scans to average: 100
Electric dark correction enabled: true
Nonlinearity correction enabled: false
Boxcar width: 0
XAxis mode: Wavelengths
Number of Pixels in Spectrum: 2048
>>>>>Begin Spectral Data<<<<<
189.047	1022.91
189.435	1022.91
189.823	1022.91
190.211	2.34
190.599	92.82
190.987	-218.35
191.375	197.26
191.763	-26.13
192.151	-142.97
192.538	-149.02
192.926	38.37
193.314	76.31
193.702	-126.64
194.089	523.99
194.477	-1406.53
194.864	16.66
195.252	67.58
195.639	75.26
196.027	233.14
196.414	-115.47
196.801	109.5
197.189	111.81
197.576	41.61
197.963	-447.68
198.351	-97.01
198.738	-0.58
199.125	-33.25
199.512	-114.55
199.899	12.35
200.286	3.3
200.673	10.85
201.06	-1.55
201.447	5.09
201.833	34.25
202.22	16.59
202.607	-17.64
202.994	11.62
203.38	-4.96
203.767	15.78
204.154	24.75
204.54	-12.19
204.927	10
205.313	-20.76
205.699	11.1
206.086	-40.36
206.472	32.61
206.858	28.49
207.245	26.86
207.631	-2.65
208.017	13.12
208.403	17.77
208.789	33.53
209.175	21.48
209.561	-25.79
209.947	-14.54
210.333	23.34
210.719	13.94
211.105	2.27
211.491	31.11
211.876	-20.92
212.262	26.41
212.648	21.13
213.034	-13.67
213.419	-8.92
213.805	17.8
214.19	7.01
214.576	6.65
214.961	-23.93
215.346	1.46
215.732	-9.71
216.117	12.4
216.502	-13.56
216.888	-0.41
217.273	0.83
217.658	35.53
218.043	20.03
218.428	-9.08
218.813	8.65
219.198	17.07
219.583	-19.65
219.968	26.16
220.353	14.07
220.738	-3.09
221.122	2.75
221.507	-9.3
221.892	0.83
222.276	-7
222.661	6.63
223.046	15.79
223.43	4.5
223.815	-2.55
224.199	20.26
224.583	-8.95
224.968	3.11
225.352	-3.38
225.736	8.99
226.121	-0.61
226.505	7
226.889	4.17
227.273	4.48
227.657	12.05
228.041	7.57
228.425	7.93
228.809	3.79
229.193	5.29
229.577	7.07
229.961	8.14
230.344	5.91
230.728	6.76
231.112	7.23
231.495	6.78
231.879	7.62
232.263	7.18
232.646	6.91
233.03	7.34
233.413	4.95
233.797	7.63
234.18	7.47
234.563	4.64
234.946	6.57
235.33	7.23
235.713	6.96
236.096	7.17
236.479	5.86
236.862	6.25
237.245	5.3
237.628	5.63
238.011	7.54
238.394	7.27
238.777	6.61
239.16	7.74
239.543	6.13
239.925	7.56
240.308	6.58
240.691	5.97
241.073	6.6
241.456	5.67
241.838	5.95
242.221	5.96
242.603	5.74
242.986	5.2
243.368	6.82
243.75	6.25
244.133	6.71
244.515	6.76
244.897	6.61
245.279	6.86
245.661	6.66
246.043	6.19
246.425	5.55
246.807	5.87
247.189	6.4
247.571	6.24
247.953	6.22
248.335	5.97
248.717	6.26
249.098	6.35
249.48	6.21
249.862	6.31
250.243	6.04
250.625	6.09
251.006	5.71
251.388	5.59
251.769	6.4
252.151	5.17
252.532	6.11
252.913	5.76
253.295	5.5
253.676	6.45
254.057	6.62
254.438	6.46
254.819	6.45
255.2	6.91
255.581	6.28
255.962	5.21
256.343	5.26
256.724	5.47
257.105	5.19
257.486	5.25
257.867	5.39
258.247	5.58
258.628	6.02
259.009	6.43
259.389	5.73
259.77	4.91
260.15	6.24
260.531	5.46
260.911	5.8
261.292	5.84
261.672	5.64
262.052	5.84
262.432	5.84
262.813	5.6
263.193	5.62
263.573	5.67
263.953	5.17
264.333	5.51
264.713	5.54
265.093	5.31
265.473	5.67
265.853	5.21
266.233	7.25
266.612	5.34
266.992	6.46
267.372	5.32
267.752	5.98
268.131	5.79
268.511	5.64
268.89	5.7
269.27	5.28
269.649	5.57
270.029	5.3
270.408	5.84
270.787	5.18
271.167	5.44
271.546	5.79
271.925	5.65
272.304	5.6
272.683	5.63
273.062	5.47
273.441	5.42
273.82	5.63
274.199	5.48
274.578	5.41
274.957	5.29
275.336	5.55
275.715	5.5
276.093	5.61
276.472	5.08
276.851	6.1
277.229	5.14
277.608	5.2
277.986	5.38
278.365	5.36
278.743	5.11
279.122	4.8
279.5	5.39
279.878	5.46
280.257	5.57
280.635	5.08
281.013	5.39
281.391	5.45
281.769	5.2
282.147	5.42
282.525	5.2
282.903	4.72
283.281	4.72
283.659	4.77
284.037	4.91
284.415	4.93
284.792	4.87
285.17	4.4
285.548	4.46
285.925	5.17
286.303	5.2
286.68	5.34
287.058	5.41
287.435	5.25
287.813	4.92
288.19	4.89
288.567	4.53
288.945	4.97
289.322	5.47
289.699	4.93
290.076	4.94
290.453	5.05
290.83	5.12
291.207	4.74
291.584	4.78
291.961	4.76
292.338	5.04
292.715	4.7
293.092	5.01
293.469	4.38
293.845	5.11
294.222	5.23
294.599	5.02
294.975	4.32
295.352	4.16
295.728	4.91
296.105	4.42
296.481	4.74
296.858	4.79
297.234	4.49
297.61	4.42
297.986	4.63
298.363	4.62
298.739	4.79
299.115	4.6
299.491	4.65
299.867	4.82
300.243	4.53
300.619	4.24
300.995	4.66
301.371	4.2
301.746	4.86
302.122	4.72
302.498	4.73
302.874	5.1
303.249	4.63
303.625	4.49
304	4.9
304.376	5.02
304.751	5.07
305.127	4.71
305.502	4.71
305.878	4.72
306.253	4.39
306.628	4.67
307.003	4.21
307.378	4.63
307.754	3.95
308.129	4.16
308.504	4.32
308.879	4.21
309.254	4.57
309.629	4.51
310.003	4.69
310.378	4.76
310.753	4.07
311.128	4.52
311.502	4.56
311.877	4.38
312.252	4.4
312.626	4.5
313.001	4.38
313.375	4.23
313.75	4.55
314.124	4.59
314.498	4.32
314.873	4.05
315.247	4.38
315.621	4.83
315.995	4.5
316.369	3.89
316.743	4.44
317.117	4.58
317.491	4.22
317.865	4.17
318.239	4.81
318.613	4.61
318.987	4.23
319.361	4.02
319.734	4.79
320.108	4.18
320.482	4.45
320.855	4.22
321.229	4.2
321.602	4.92
321.976	4.08
322.349	4.05
322.723	3.97
323.096	4.38
323.469	4.72
323.843	4.12
324.216	4.12
324.589	3.71
324.962	4.38
325.335	3.82
325.708	4.22
326.081	4.04
326.454	4.23
326.827	4.06
327.2	4.14
327.573	3.76
327.945	4.25
328.318	4.23
328.691	3.97
329.063	4.25
329.436	3.84
329.809	4.38
330.181	5.15
330.553	3.48
330.926	3.84
331.298	3.98
331.671	4.6
332.043	4.46
332.415	4.17
332.787	3.73
333.159	4.3
333.532	4.23
333.904	3.81
334.276	4.44
334.648	3.93
335.02	3.89
335.391	4.51
335.763	3.87
336.135	4.25
336.507	4.26
336.879	4.77
337.25	4.62
337.622	4.23
337.993	4.18
338.365	4.18
338.736	4.12
339.108	4.58
339.479	4.32
339.851	4.85
340.222	4.22
340.593	4.31
340.964	4.47
341.336	4.34
341.707	4.58
342.078	4.89
342.449	4.36
342.82	4.34
343.191	4.27
343.562	4.2
343.933	4.31
344.303	4.43
344.674	4.91
345.045	4.22
345.416	4.49
345.786	4.34
346.157	4.23
346.527	4.22
346.898	4.52
347.268	4.79
347.639	4.36
348.009	4.45
348.38	4.28
348.75	4.15
349.12	4.18
349.49	4.28
349.861	4.93
350.231	4.61
350.601	4.62
350.971	4.53
351.341	4.15
351.711	4.53
352.081	4.32
352.45	4.53
352.82	4.76
353.19	4.31
353.56	4.3
353.929	4.52
354.299	4.22
354.669	4.61
355.038	4.61
355.408	4.39
355.777	4.19
356.147	4.49
356.516	4.51
356.885	4.74
357.254	4.71
357.624	4.56
357.993	4.85
358.362	4.54
358.731	4.2
359.1	4.44
359.469	4.41
359.838	4.73
360.207	4.61
360.576	4.48
360.945	4.54
361.314	4.44
361.682	4.77
362.051	4.7
362.42	4.59
362.788	4.49
363.157	4.61
363.525	4.38
363.894	4.61
364.262	4.59
364.631	4.52
364.999	4.74
365.367	4.41
365.735	4.4
366.104	4.65
366.472	4.39
366.84	4.74
367.208	4.88
367.576	4.85
367.944	4.47
368.312	4.8
368.68	4.94
369.048	4.81
369.416	4.75
369.783	4.74
370.151	4.61
370.519	4.97
370.886	4.72
371.254	4.67
371.621	4.72
371.989	4.85
372.356	4.55
372.724	4.72
373.091	4.88
373.458	4.56
373.826	4.99
374.193	5.04
374.56	4.9
374.927	5.24
375.294	4.68
375.661	4.5
376.028	5.11
376.395	4.76
376.762	4.88
377.129	4.68
377.496	4.56
377.863	4.59
378.229	4.84
378.596	4.72
378.963	4.83
379.329	4.66
379.696	4.68
380.062	5.21
380.429	4.5
380.795	5.08
381.161	5.19
381.528	4.86
381.894	4.94
382.26	5.09
382.626	4.83
382.993	5.05
383.359	4.86
383.725	4.8
384.091	5.15
384.457	5.04
384.823	4.99
385.188	4.79
385.554	4.71
385.92	4.91
386.286	5.19
386.651	5.1
387.017	4.83
387.383	5.07
387.748	4.8
388.114	4.68
388.479	5.07
388.845	5.09
389.21	4.85
389.575	5.01
389.94	5.09
390.306	5.2
390.671	5.27
391.036	4.96
391.401	4.92
391.766	5.17
392.131	5.1
392.496	5.07
392.861	5
393.226	4.99
393.591	4.83
393.956	5.06
394.32	5.09
394.685	5.18
395.05	5.08
395.414	5.24
395.779	5.1
396.143	5.13
396.508	4.99
396.872	5.11
397.236	5.08
397.601	5.05
397.965	5.49
398.329	5.44
398.694	5.3
399.058	5.21
399.422	5.24
399.786	5.09
400.15	5.1
400.514	5.02
400.878	5.12
401.242	5.16
401.605	5.42
401.969	5.24
402.333	5.42
402.697	4.93
403.06	5.15
403.424	5.27
403.787	5.13
404.151	5.25
404.514	5.17
404.878	5.36
405.241	5.27
405.604	5.33
405.968	5.33
406.331	5.09
406.694	5.29
407.057	5.12
407.42	4.96
407.783	5.31
408.146	5.26
408.509	5.47
408.872	5.19
409.235	5.32
409.598	5.28
409.961	5.12
410.323	5.49
410.686	5.38
411.049	5.29
411.411	5.37
411.774	5.08
412.136	5.08
412.499	5.46
412.861	5.31
413.223	5.17
413.586	5.28
413.948	5.29
414.31	5.07
414.672	5.36
415.035	5.41
415.397	5.43
415.759	5.44
416.121	5.27
416.483	5.43
416.845	5.28
417.206	5.23
417.568	5.48
417.93	5.41
418.292	5.55
418.653	5.3
419.015	5.32
419.377	5.32
419.738	5.32
420.1	5.42
420.461	5.32
420.822	5.38
421.184	5.23
421.545	5.28
421.906	5.32
422.267	5.26
422.629	5.26
422.99	5.26
423.351	5.34
423.712	5.22
424.073	5.35
424.434	5.24
424.795	5.46
425.155	5.45
425.516	5.25
425.877	5.23
426.238	5.33
426.598	5.24
426.959	5.31
427.32	5.44
427.68	5.37
428.041	5.33
428.401	5.44
428.761	5.61
429.122	5.57
429.482	5.5
429.842	5.27
430.202	5.53
430.563	5.56
430.923	5.67
431.283	5.67
431.643	5.48
432.003	5.57
432.363	5.56
432.722	5.45
433.082	5.39
433.442	5.63
433.802	5.45
434.161	5.41
434.521	5.58
434.881	5.41
435.24	5.44
435.6	5.56
435.959	5.44
436.319	5.56
436.678	5.4
437.037	5.6
437.396	5.39
437.756	5.62
438.115	5.43
438.474	5.39
438.833	5.58
439.192	5.38
439.551	5.56
439.91	5.57
440.269	5.57
440.628	5.54
440.987	5.47
441.345	5.52
441.704	5.46
442.063	5.36
442.421	5.49
442.78	5.42
443.138	5.41
443.497	5.52
443.855	5.61
444.214	5.51
444.572	5.46
444.93	5.58
445.288	5.46
445.647	5.58
446.005	5.61
446.363	5.57
446.721	5.46
447.079	5.45
447.437	5.45
447.795	5.55
448.153	5.49
448.51	5.43
448.868	5.47
449.226	5.51
449.584	5.55
449.941	5.52
450.299	5.54
450.656	5.59
451.014	5.47
451.371	5.59
451.729	5.67
452.086	5.56
452.443	5.81
452.801	5.68
453.158	5.93
453.515	5.63
453.872	5.68
454.229	5.65
454.586	5.57
454.943	5.53
455.3	5.71
455.657	5.77
456.014	5.71
456.371	5.67
456.727	5.63
457.084	5.63
457.441	5.63
457.797	5.71
458.154	5.7
458.51	5.66
458.867	5.78
459.223	5.78
459.58	5.59
459.936	5.57
460.292	5.64
460.648	5.71
461.005	5.65
461.361	5.51
461.717	5.49
462.073	5.57
462.429	5.55
462.785	5.61
463.141	5.85
463.496	5.56
463.852	5.77
464.208	5.79
464.564	5.69
464.919	5.78
465.275	5.76
465.631	5.82
465.986	5.72
466.342	5.7
466.697	5.69
467.052	5.63
467.408	5.69
467.763	5.61
468.118	5.79
468.473	5.74
468.829	5.73
469.184	5.74
469.539	5.76
469.894	5.65
470.249	5.65
470.603	5.72
470.958	5.75
471.313	5.81
471.668	5.79
472.023	5.63
472.377	6.03
472.732	5.7
473.086	5.74
473.441	5.77
473.795	5.71
474.15	5.66
474.504	5.86
474.859	5.9
475.213	5.71
475.567	5.81
475.921	5.64
476.275	5.61
476.63	5.7
476.984	5.78
477.338	5.71
477.692	5.78
478.045	5.84
478.399	5.74
478.753	5.8
479.107	5.69
479.461	5.75
479.814	5.75
480.168	5.67
480.521	5.76
480.875	5.7
481.228	5.68
481.582	5.78
481.935	5.74
482.289	5.74
482.642	5.8
482.995	5.74
483.348	5.78
483.701	5.63
484.055	5.52
484.408	5.67
484.761	5.54
485.114	5.4
485.466	5.33
485.819	5.3
486.172	5.34
486.525	5.45
486.878	5.49
487.23	5.52
487.583	5.65
487.936	5.6
488.288	5.55
488.641	5.51
488.993	5.41
489.345	5.43
489.698	5.44
490.05	5.41
490.402	5.49
490.754	5.54
491.107	5.54
491.459	5.64
491.811	5.67
492.163	5.65
492.515	5.56
492.866	5.47
493.218	5.47
493.57	5.48
493.922	5.46
494.274	5.58
494.625	5.59
494.977	5.67
495.328	5.73
495.68	5.7
496.031	5.74
496.383	5.85
496.734	5.84
497.086	5.71
497.437	5.72
497.788	5.84
498.139	5.72
498.49	5.7
498.842	5.72
499.193	5.67
499.544	5.68
499.894	5.65
500.245	5.66
500.596	5.6
500.947	5.72
501.298	5.74
501.648	5.63
501.999	5.81
502.35	5.77
502.7	5.84
503.051	5.77
503.401	5.85
503.752	5.84
504.102	5.81
504.452	5.64
504.803	5.83
505.153	5.81
505.503	5.82
505.853	5.68
506.203	5.76
506.553	5.83
506.903	5.73
507.253	5.6
507.603	5.81
507.953	5.97
508.303	5.77
508.652	5.79
509.002	5.91
509.352	5.72
509.701	5.71
510.051	5.79
510.4	5.54
510.75	5.67
511.099	5.67
511.449	5.82
511.798	5.77
512.147	5.75
512.496	5.78
512.846	5.8
513.195	5.68
513.544	5.73
513.893	5.77
514.242	5.72
514.591	5.76
514.939	5.73
515.288	5.74
515.637	5.8
515.986	5.8
516.334	5.68
516.683	5.87
517.032	5.83
517.38	5.69
517.729	5.89
518.077	5.78
518.426	5.75
518.774	5.62
519.122	5.65
519.47	5.71
519.819	5.68
520.167	5.61
520.515	5.57
520.863	5.68
521.211	5.68
521.559	5.67
521.907	5.78
522.255	5.69
522.602	5.77
522.95	5.76
523.298	5.6
523.645	5.84
523.993	5.71
524.341	5.84
524.688	5.79
525.036	5.84
525.383	5.78
525.73	5.82
526.078	5.79
526.425	5.75
526.772	5.77
527.119	5.54
527.466	5.52
527.814	5.54
528.161	5.68
528.508	5.67
528.854	5.65
529.201	5.57
529.548	5.52
529.895	5.43
530.242	5.4
530.588	5.37
530.935	5.44
531.282	5.45
531.628	5.52
531.975	5.59
532.321	5.49
532.667	5.69
533.014	5.71
533.36	5.64
533.706	5.7
534.052	5.63
534.399	5.64
534.745	5.46
535.091	5.47
535.437	5.57
535.783	5.53
536.129	5.62
536.474	5.68
536.82	5.78
537.166	5.67
537.512	5.73
537.857	5.73
538.203	5.68
538.549	5.56
538.894	5.64
539.239	5.71
539.585	5.58
539.93	5.75
540.276	5.71
540.621	5.61
540.966	5.69
541.311	5.6
541.656	5.63
542.001	5.64
542.346	5.64
542.691	5.56
543.036	5.41
543.381	5.49
543.726	5.49
544.071	5.56
544.415	5.54
544.76	5.58
545.105	5.56
545.449	5.67
545.794	5.63
546.138	5.65
546.483	5.7
546.827	5.61
547.171	5.7
547.516	5.69
547.86	5.7
548.204	5.58
548.548	5.63
548.892	5.66
549.236	5.68
549.58	5.64
549.924	5.68
550.268	5.79
550.612	5.79
550.956	5.87
551.3	5.76
551.643	5.87
551.987	5.84
552.33	5.76
552.674	5.81
553.017	5.78
553.361	5.67
553.704	5.69
554.048	5.64
554.391	5.69
554.734	5.75
555.077	5.73
555.42	5.87
555.764	5.73
556.107	5.82
556.45	5.87
556.793	5.7
557.135	5.82
557.478	5.79
557.821	5.91
558.164	5.8
558.507	5.76
558.849	5.63
559.192	5.62
559.534	5.68
559.877	5.7
560.219	5.58
560.562	5.54
560.904	5.76
561.246	5.88
561.589	5.77
561.931	5.62
562.273	5.81
562.615	5.9
562.957	5.72
563.299	5.64
563.641	5.64
563.983	5.68
564.325	5.89
564.667	5.84
565.008	5.78
565.35	5.66
565.692	5.84
566.033	5.54
566.375	5.64
566.716	5.55
567.058	5.6
567.399	5.62
567.741	5.71
568.082	5.66
568.423	5.57
568.764	5.71
569.105	5.66
569.447	5.6
569.788	5.74
570.129	5.76
570.47	5.78
570.811	5.75
571.151	5.77
571.492	5.66
571.833	5.63
572.174	5.69
572.514	5.77
572.855	5.54
573.195	5.61
573.536	5.53
573.876	5.51
574.217	5.56
574.557	5.45
574.898	5.59
575.238	5.63
575.578	5.77
575.918	5.6
576.258	5.73
576.598	5.62
576.938	5.72
577.278	5.69
577.618	5.77
577.958	5.42
578.298	5.59
578.638	5.51
578.977	5.75
579.317	5.51
579.657	5.55
579.996	5.57
580.336	5.75
580.675	5.67
581.014	5.53
581.354	5.6
581.693	5.66
582.032	5.75
582.372	5.71
582.711	5.54
583.05	5.71
583.389	5.34
583.728	5.67
584.067	5.44
584.406	5.49
584.745	5.71
585.083	5.73
585.422	5.77
585.761	5.8
586.1	5.69
586.438	5.74
586.777	5.79
587.115	5.71
587.454	5.77
587.792	5.93
588.13	5.68
588.469	5.99
588.807	5.8
589.145	5.33
589.483	5.38
589.821	5.66
590.159	5.6
590.497	5.64
590.835	5.68
591.173	5.65
591.511	5.58
591.849	5.55
592.187	5.55
592.524	5.6
592.862	5.68
593.2	5.7
593.537	5.83
593.875	5.8
594.212	5.65
594.55	5.69
594.887	5.67
595.224	5.66
595.561	5.49
595.899	5.85
596.236	5.75
596.573	5.53
596.91	5.67
597.247	5.73
597.584	5.5
597.921	5.56
598.258	5.52
598.594	5.59
598.931	5.51
599.268	5.51
599.604	5.44
599.941	5.72
600.277	5.61
600.614	5.92
600.95	5.53
601.287	5.46
601.623	5.66
601.959	5.54
602.296	5.75
602.632	5.6
602.968	5.68
603.304	5.67
603.64	5.72
603.976	5.36
604.312	5.68
604.648	5.38
604.984	5.54
605.319	5.43
605.655	5.42
605.991	5.64
606.326	5.43
606.662	5.56
606.998	5.36
607.333	5.57
607.668	5.5
608.004	5.45
608.339	5.38
608.674	5.58
609.01	5.67
609.345	5.88
609.68	5.74
610.015	5.66
610.35	5.48
610.685	5.34
611.02	5.49
611.355	5.49
611.689	5.42
612.024	5.55
612.359	5.44
612.694	5.51
613.028	5.43
613.363	5.89
613.697	5.48
614.032	5.4
614.366	5.55
614.7	5.63
615.035	5.73
615.369	5.52
615.703	5.49
616.037	5.95
616.371	5.5
616.705	5.5
617.039	5.69
617.373	5.69
617.707	5.5
618.041	5.46
618.375	5.17
618.709	5.89
619.042	5.97
619.376	5.45
619.71	5.61
620.043	5.26
620.377	5.57
620.71	5.78
621.043	5.65
621.377	5.8
621.71	5.61
622.043	5.65
622.376	5.38
622.709	5.6
623.043	5.71
623.376	5.04
623.709	5.76
624.041	5.42
624.374	5.55
624.707	5.41
625.04	5.54
625.373	5.68
625.705	5.29
626.038	5.03
626.37	5.83
626.703	6.01
627.035	5.66
627.368	5.4
627.7	5.45
628.032	5.84
628.365	5.38
628.697	5.46
629.029	5.45
629.361	5.59
629.693	5.61
630.025	5.37
630.357	5.34
630.689	5.1
631.021	5.21
631.353	5.42
631.684	5.29
632.016	5.16
632.348	5.68
632.679	5.48
633.011	5.18
633.342	5.55
633.674	5.68
634.005	5.31
634.336	4.88
634.668	5.34
634.999	5.49
635.33	5.36
635.661	5.74
635.992	5.46
636.323	5.34
636.654	5.66
636.985	5.73
637.316	5.3
637.647	5.44
637.977	5.41
638.308	5.57
638.639	5.42
638.969	5.32
639.3	5.2
639.63	5.48
639.961	5.54
640.291	5.35
640.622	5.33
640.952	5.47
641.282	5.66
641.612	5.15
641.943	5.48
642.273	5.44
642.603	5.42
642.933	5.68
643.263	5.52
643.592	5.52
643.922	5.47
644.252	5.45
644.582	5.72
644.911	5.73
645.241	5.37
645.571	5.08
645.9	5.6
646.23	5.18
646.559	5.42
646.888	5.34
647.218	5.28
647.547	5.74
647.876	5.25
648.205	5.13
648.534	5.36
648.863	5.29
649.192	5.23
649.521	5.21
649.85	5.27
650.179	5.68
650.508	5.24
650.837	5.11
651.165	5.59
651.494	5.8
651.822	5.6
652.151	5.8
652.479	5.65
652.808	5.1
653.136	5.4
653.465	5.02
653.793	5.43
654.121	5.13
654.449	5.37
654.777	5.57
655.105	5.17
655.433	5.34
655.761	5.34
656.089	5.42
656.417	5.25
656.745	5.24
657.073	5.13
657.4	5.76
657.728	5.11
658.056	5.4
658.383	5.63
658.711	5.43
659.038	5.39
659.365	4.94
659.693	5.24
660.02	5.1
660.347	5.89
660.674	5.49
661.001	5.45
661.329	5.52
661.656	5.1
661.982	5.37
662.309	5.47
662.636	5.46
662.963	4.98
663.29	5.49
663.616	5.51
663.943	5.35
664.27	5.53
664.596	5.23
664.923	5.5
665.249	5.34
665.576	5.19
665.902	5.21
666.228	5.52
666.554	5.29
666.881	5.5
667.207	5.59
667.533	5.51
667.859	5.36
668.185	5.71
668.511	5.89
668.837	5.41
669.162	5.55
669.488	5.52
669.814	5.51
670.139	5.37
670.465	5.35
670.791	5.73
671.116	5.88
671.442	5.61
671.767	5.13
672.092	5.03
672.418	5.52
672.743	4.87
673.068	5.42
673.393	5.03
673.718	5.39
674.043	5.98
674.368	5.31
674.693	5.2
675.018	5.82
675.343	6.03
675.667	5.84
675.992	5.36
676.317	5.04
676.641	5.07
676.966	6.03
677.29	5.01
677.615	5.47
677.939	5.11
678.264	5.35
678.588	5.64
678.912	5.46
679.236	5.38
679.56	5.26
679.885	5.66
680.209	5.57
680.532	5.43
680.856	5.5
681.18	5.62
681.504	5.79
681.828	5.89
682.152	5.43
682.475	5.35
682.799	5.25
683.122	4.87
683.446	5.45
683.769	5.38
684.093	4.72
684.416	5.82
684.739	5.58
685.062	5.58
685.386	5.63
685.709	4.97
686.032	5.96
686.355	4.79
686.678	5.39
687.001	5.43
687.324	5.11
687.646	4.56
687.969	4.96
688.292	5.69
688.614	5.74
688.937	5.42
689.26	5.32
689.582	5.09
689.904	5.85
690.227	6.08
690.549	6.34
690.871	5.61
691.194	5.36
691.516	6.36
691.838	5.64
