Data from 0016_crown_Reflection__1__56.txt Node

Date: Mon Oct 17 14:51:48 CDT 2022
User: ToomeyLab
Spectrometer: FLMS14357
Trigger mode: 0
Integration Time (sec): 1.000000E-2
Scans to average: 100
Electric dark correction enabled: true
Nonlinearity correction enabled: false
Boxcar width: 0
XAxis mode: Wavelengths
Number of Pixels in Spectrum: 2048
>>>>>Begin Spectral Data<<<<<
189.047	828.3
189.435	828.3
189.823	828.3
190.211	79.81
190.599	68.95
190.987	58.14
191.375	388.02
191.763	168.03
192.151	-133.96
192.538	-18.19
192.926	13.14
193.314	157.33
193.702	196.56
194.089	148.88
194.477	-2138.49
194.864	154.33
195.252	134.76
195.639	49.19
196.027	188.42
196.414	-995.13
196.801	23.96
197.189	114.79
197.576	61
197.963	-138.86
198.351	-50.51
198.738	2.62
199.125	10.6
199.512	-88.21
199.899	35.45
200.286	-15.28
200.673	-8.99
201.06	-13.46
201.447	26.95
201.833	39.41
202.22	20.78
202.607	-10.88
202.994	27.99
203.38	4.25
203.767	32.55
204.154	50.47
204.54	-0.52
204.927	20.04
205.313	-3.05
205.699	26.07
206.086	-57.95
206.472	6.72
206.858	1.55
207.245	28.92
207.631	11.81
208.017	8.14
208.403	1.86
208.789	-16.43
209.175	1.05
209.561	-50.02
209.947	-23.28
210.333	33.49
210.719	11.06
211.105	10.75
211.491	-3.79
211.876	-23.53
212.262	13.21
212.648	23.14
213.034	-27.86
213.419	1.43
213.805	26.4
214.19	10.09
214.576	-21.39
214.961	-10.23
215.346	-25.91
215.732	-6.71
216.117	28.79
216.502	-9.51
216.888	-12.14
217.273	3.14
217.658	9.13
218.043	0.07
218.428	-12.4
218.813	14.83
219.198	11.9
219.583	-1.35
219.968	25.98
220.353	10.03
220.738	25.75
221.122	-7.93
221.507	-15.05
221.892	15.6
222.276	5.45
222.661	2.21
223.046	2.21
223.43	8.61
223.815	5.35
224.199	4.95
224.583	-3.47
224.968	4.37
225.352	-6.85
225.736	7.85
226.121	1.88
226.505	3.24
226.889	7.94
227.273	8.32
227.657	9.15
228.041	6.04
228.425	5.14
228.809	8.48
229.193	9.54
229.577	6.25
229.961	9.27
230.344	6.9
230.728	6.89
231.112	6.87
231.495	7.03
231.879	8.51
232.263	8.52
232.646	7.38
233.03	6.42
233.413	4.62
233.797	6.14
234.18	5.77
234.563	3.75
234.946	8.98
235.33	6.03
235.713	6.33
236.096	7.42
236.479	5.51
236.862	7.76
237.245	6.13
237.628	4.73
238.011	6.58
238.394	6.84
238.777	6.51
239.16	8.74
239.543	7.15
239.925	6.89
240.308	6.69
240.691	6.83
241.073	7.41
241.456	4.84
241.838	6.75
242.221	5.8
242.603	6.76
242.986	6.04
243.368	7.31
243.75	6.61
244.133	6.76
244.515	6.93
244.897	7.37
245.279	7.26
245.661	6.85
246.043	6.68
246.425	5.87
246.807	6.38
247.189	6.55
247.571	6.68
247.953	6.26
248.335	6.46
248.717	6.4
249.098	6.49
249.48	6.4
249.862	6.32
250.243	6.3
250.625	6.96
251.006	6.04
251.388	5.82
251.769	7.15
252.151	6.17
252.532	5.61
252.913	6
253.295	5.79
253.676	6.76
254.057	6.56
254.438	6.56
254.819	7.37
255.2	7.19
255.581	6.49
255.962	5.74
256.343	5.95
256.724	5.44
257.105	6.55
257.486	5.33
257.867	5.54
258.247	5.41
258.628	6.1
259.009	6.96
259.389	5.84
259.77	5.88
260.15	5.82
260.531	5.75
260.911	6.02
261.292	6.03
261.672	5.8
262.052	5.96
262.432	6
262.813	5.54
263.193	5.94
263.573	6.38
263.953	5.82
264.333	6.13
264.713	6
265.093	6.18
265.473	6.79
265.853	5.97
266.233	6.33
266.612	5.69
266.992	6.19
267.372	5.55
267.752	5.99
268.131	6.16
268.511	5.92
268.89	6.03
269.27	6
269.649	5.25
270.029	5.3
270.408	5.82
270.787	5.54
271.167	6.02
271.546	6.02
271.925	6.2
272.304	5.72
272.683	5.93
273.062	5.66
273.441	5.15
273.82	5.74
274.199	5.99
274.578	5.58
274.957	5.44
275.336	5.8
275.715	5.32
276.093	5.2
276.472	5.53
276.851	5.31
277.229	5.28
277.608	5.47
277.986	5.04
278.365	5.41
278.743	5.6
279.122	4.9
279.5	5.65
279.878	5.68
280.257	5.1
280.635	4.88
281.013	5.31
281.391	5.26
281.769	5.1
282.147	5.79
282.525	5.37
282.903	4.53
283.281	5.08
283.659	5.24
284.037	4.61
284.415	5.45
284.792	5.61
285.17	4.99
285.548	4.84
285.925	5.15
286.303	4.83
286.68	5.3
287.058	5.19
287.435	5.36
287.813	5.26
288.19	5.11
288.567	4.95
288.945	4.87
289.322	5.76
289.699	5.41
290.076	5.15
290.453	4.52
290.83	4.96
291.207	4.94
291.584	4.73
291.961	4.75
292.338	4.91
292.715	5.22
293.092	4.78
293.469	4.83
293.845	4.99
294.222	5.28
294.599	4.82
294.975	4.32
295.352	4.6
295.728	5.07
296.105	4.63
296.481	4.84
296.858	5.18
297.234	4.67
297.61	4.86
297.986	4.54
298.363	4.8
298.739	5.06
299.115	4.54
299.491	4.94
299.867	4.69
300.243	4.46
300.619	4.34
300.995	4.94
301.371	4.71
301.746	4.77
302.122	4.24
302.498	4.47
302.874	5.15
303.249	4.56
303.625	4.69
304	4.37
304.376	4.83
304.751	4.78
305.127	4.65
305.502	4.49
305.878	4.67
306.253	4.42
306.628	5.07
307.003	4.34
307.378	5.23
307.754	4.61
308.129	3.79
308.504	4.87
308.879	4.69
309.254	4.71
309.629	4.62
310.003	4.67
310.378	4.79
310.753	4.51
311.128	4.69
311.502	4.5
311.877	4.58
312.252	4.59
312.626	4.15
313.001	4.13
313.375	4.21
313.75	4.43
314.124	4.81
314.498	4.23
314.873	4.42
315.247	4.22
315.621	4.84
315.995	4.16
316.369	3.99
316.743	4.27
317.117	4.8
317.491	4.46
317.865	4.58
318.239	4.71
318.613	4.72
318.987	4.04
319.361	3.76
319.734	4.9
320.108	4.2
320.482	4.79
320.855	4.37
321.229	4.23
321.602	4.58
321.976	4.21
322.349	3.97
322.723	4.19
323.096	4.41
323.469	4.62
323.843	4.34
324.216	4.38
324.589	4.18
324.962	4.35
325.335	4.39
325.708	4.5
326.081	4.1
326.454	4.8
326.827	4.1
327.2	4.2
327.573	4.03
327.945	3.96
328.318	4.2
328.691	4.02
329.063	4.42
329.436	4.12
329.809	4.1
330.181	4.65
330.553	4.01
330.926	4.12
331.298	4.46
331.671	4.61
332.043	4.25
332.415	4.23
332.787	4.22
333.159	4.51
333.532	3.98
333.904	4.27
334.276	4.08
334.648	4.14
335.02	4.3
335.391	4.77
335.763	4.59
336.135	4.28
336.507	4.56
336.879	4.56
337.25	4.43
337.622	4.29
337.993	4.1
338.365	4.42
338.736	3.87
339.108	4.41
339.479	4.63
339.851	5.01
340.222	4.57
340.593	4.99
340.964	4.17
341.336	4.37
341.707	4.42
342.078	4.5
342.449	4.43
342.82	4.54
343.191	4.48
343.562	4.25
343.933	4.59
344.303	4.44
344.674	4.49
345.045	4.39
345.416	4.52
345.786	4.74
346.157	4.64
346.527	4.52
346.898	4.88
347.268	4.9
347.639	4.5
348.009	4.42
348.38	4.39
348.75	4.22
349.12	4.61
349.49	4.57
349.861	4.56
350.231	4.08
350.601	4.44
350.971	4.36
351.341	4.27
351.711	4.37
352.081	4.42
352.45	4.83
352.82	4.58
353.19	4.43
353.56	4.32
353.929	4.4
354.299	4.61
354.669	4.61
355.038	4.8
355.408	4.87
355.777	4.56
356.147	4.55
356.516	4.84
356.885	4.74
357.254	4.72
357.624	4.68
357.993	4.96
358.362	4.54
358.731	4.51
359.1	4.71
359.469	4.57
359.838	4.57
360.207	4.86
360.576	4.7
360.945	4.31
361.314	4.75
361.682	4.9
362.051	4.67
362.42	4.53
362.788	4.83
363.157	4.69
363.525	4.59
363.894	4.8
364.262	4.77
364.631	4.91
364.999	4.65
365.367	4.77
365.735	4.83
366.104	4.87
366.472	4.67
366.84	5.02
367.208	5.16
367.576	4.95
367.944	4.63
368.312	4.96
368.68	5.19
369.048	4.85
369.416	5
369.783	5.15
370.151	4.99
370.519	4.79
370.886	5.16
371.254	4.85
371.621	5.02
371.989	4.61
372.356	5.31
372.724	4.92
373.091	4.85
373.458	4.85
373.826	5.05
374.193	5.26
374.56	4.86
374.927	5.06
375.294	4.92
375.661	5.23
376.028	5.24
376.395	5.01
376.762	4.96
377.129	5
377.496	4.97
377.863	4.66
378.229	4.95
378.596	5.16
378.963	5.19
379.329	4.85
379.696	4.76
380.062	5.48
380.429	4.99
380.795	5.14
381.161	5.15
381.528	4.76
381.894	4.98
382.26	5.24
382.626	5.14
382.993	5.28
383.359	5.29
383.725	5.31
384.091	5.06
384.457	5.27
384.823	5.1
385.188	5.03
385.554	5.27
385.92	5.19
386.286	5.45
386.651	5.08
387.017	4.97
387.383	5.21
387.748	4.88
388.114	5.23
388.479	5.53
388.845	5.31
389.21	4.96
389.575	5.17
389.94	5.46
390.306	5.41
390.671	5.38
391.036	5.44
391.401	5.68
391.766	5.45
392.131	5.38
392.496	5.41
392.861	5.23
393.226	5.33
393.591	5.09
393.956	5.17
394.32	5.35
394.685	5.38
395.05	5.47
395.414	5.34
395.779	5.36
396.143	5.31
396.508	5.29
396.872	5.23
397.236	5.54
397.601	5.42
397.965	5.47
398.329	5.63
398.694	5.53
399.058	5.51
399.422	5.4
399.786	5.46
400.15	5.64
400.514	5.36
400.878	5.45
401.242	5.1
401.605	5.67
401.969	5.69
402.333	5.34
402.697	5.65
403.06	5.23
403.424	5.39
403.787	5.5
404.151	5.62
404.514	5.48
404.878	5.6
405.241	5.3
405.604	5.41
405.968	5.59
406.331	5.27
406.694	5.33
407.057	5.39
407.42	5.52
407.783	5.61
408.146	5.58
408.509	5.7
408.872	5.51
409.235	5.58
409.598	5.54
409.961	5.48
410.323	5.9
410.686	5.52
411.049	5.37
411.411	5.74
411.774	5.51
412.136	5.52
412.499	5.85
412.861	5.7
413.223	5.48
413.586	5.51
413.948	5.69
414.31	5.67
414.672	5.67
415.035	5.6
415.397	5.85
415.759	5.43
416.121	5.42
416.483	5.55
416.845	5.59
417.206	5.56
417.568	5.65
417.93	5.37
418.292	5.81
418.653	5.73
419.015	5.69
419.377	5.55
419.738	5.44
420.1	5.74
420.461	5.48
420.822	5.48
421.184	5.6
421.545	5.52
421.906	5.54
422.267	5.52
422.629	5.43
422.99	5.5
423.351	5.5
423.712	5.52
424.073	5.67
424.434	5.61
424.795	5.68
425.155	5.57
425.516	5.46
425.877	5.4
426.238	5.49
426.598	5.6
426.959	5.58
427.32	5.66
427.68	5.61
428.041	5.62
428.401	5.75
428.761	5.77
429.122	5.84
429.482	5.8
429.842	5.79
430.202	5.91
430.563	5.74
430.923	5.88
431.283	5.91
431.643	5.78
432.003	5.83
432.363	5.77
432.722	5.67
433.082	5.71
433.442	5.84
433.802	5.84
434.161	5.78
434.521	5.92
434.881	5.68
435.24	5.67
435.6	5.87
435.959	5.78
436.319	5.8
436.678	5.77
437.037	5.93
437.396	5.77
437.756	6.01
438.115	5.84
438.474	5.68
438.833	5.67
439.192	5.62
439.551	5.73
439.91	5.75
440.269	5.77
440.628	5.63
440.987	5.75
441.345	5.71
441.704	5.7
442.063	5.69
442.421	5.65
442.78	5.59
443.138	5.77
443.497	5.78
443.855	5.91
444.214	5.88
444.572	5.71
444.93	5.8
445.288	5.71
445.647	5.87
446.005	5.85
446.363	5.92
446.721	5.62
447.079	5.68
447.437	5.73
447.795	5.66
448.153	5.71
448.51	5.73
448.868	5.7
449.226	5.65
449.584	5.77
449.941	5.73
450.299	5.91
450.656	5.75
451.014	5.79
451.371	5.91
451.729	5.87
452.086	5.92
452.443	6.03
452.801	5.88
453.158	5.99
453.515	5.68
453.872	5.86
454.229	5.63
454.586	5.82
454.943	5.85
455.3	5.98
455.657	5.77
456.014	5.9
456.371	5.86
456.727	5.95
457.084	5.86
457.441	5.87
457.797	5.88
458.154	5.79
458.51	5.9
458.867	5.88
459.223	5.84
459.58	5.9
459.936	5.82
460.292	5.99
460.648	5.78
461.005	5.82
461.361	5.71
461.717	5.74
462.073	5.77
462.429	5.84
462.785	5.92
463.141	5.99
463.496	5.81
463.852	6.06
464.208	6.14
464.564	5.79
464.919	5.95
465.275	5.84
465.631	6.08
465.986	5.96
466.342	5.86
466.697	6.01
467.052	6.1
467.408	5.73
467.763	5.71
468.118	6.03
468.473	5.94
468.829	5.94
469.184	6.01
469.539	6
469.894	5.81
470.249	5.99
470.603	5.94
470.958	6.07
471.313	6.07
471.668	6.14
472.023	5.74
472.377	5.98
472.732	5.85
473.086	6.06
473.441	6.03
473.795	5.88
474.15	6.05
474.504	6.05
474.859	5.99
475.213	5.93
475.567	6.1
475.921	5.84
476.275	5.84
476.63	6.1
476.984	6.08
477.338	5.87
477.692	5.99
478.045	6.03
478.399	5.92
478.753	5.92
479.107	5.84
479.461	5.96
479.814	6.06
480.168	5.9
480.521	5.96
480.875	5.98
481.228	5.92
481.582	6.03
481.935	5.93
482.289	5.76
482.642	5.81
482.995	5.86
483.348	5.83
483.701	5.86
484.055	5.8
484.408	5.83
484.761	5.66
485.114	5.5
485.466	5.4
485.819	5.37
486.172	5.52
486.525	5.71
486.878	5.76
487.23	5.8
487.583	5.83
487.936	5.77
488.288	5.68
488.641	5.58
488.993	5.53
489.345	5.57
489.698	5.55
490.05	5.61
490.402	5.64
490.754	5.78
491.107	5.77
491.459	5.87
491.811	5.89
492.163	5.75
492.515	5.78
492.866	5.57
493.218	5.55
493.57	5.59
493.922	5.64
494.274	5.82
494.625	5.85
494.977	5.97
495.328	5.81
495.68	5.9
496.031	5.97
496.383	6.02
496.734	5.88
497.086	5.89
497.437	5.85
497.788	5.8
498.139	5.68
498.49	5.72
498.842	5.82
499.193	5.82
499.544	5.91
499.894	5.88
500.245	5.83
500.596	5.83
500.947	6.07
501.298	5.96
501.648	5.84
501.999	5.9
502.35	5.9
502.7	5.99
503.051	6
503.401	5.97
503.752	6
504.102	5.86
504.452	5.87
504.803	6.05
505.153	5.85
505.503	5.89
505.853	5.78
506.203	5.82
506.553	5.84
506.903	5.9
507.253	5.88
507.603	5.89
507.953	5.98
508.303	5.88
508.652	5.86
509.002	5.99
509.352	5.9
509.701	5.81
510.051	5.85
510.4	5.72
510.75	5.78
511.099	5.81
511.449	5.84
511.798	5.87
512.147	5.85
512.496	5.82
512.846	5.79
513.195	5.91
513.544	5.77
513.893	5.9
514.242	5.89
514.591	5.8
514.939	5.88
515.288	5.87
515.637	5.93
515.986	5.92
516.334	5.92
516.683	5.94
517.032	5.79
517.38	5.78
517.729	5.89
518.077	5.95
518.426	5.8
518.774	5.74
519.122	5.7
519.47	5.83
519.819	5.79
520.167	5.68
520.515	5.72
520.863	5.82
521.211	5.73
521.559	5.8
521.907	5.86
522.255	5.83
522.602	5.83
522.95	5.88
523.298	5.71
523.645	5.84
523.993	5.79
524.341	5.86
524.688	5.81
525.036	5.79
525.383	5.83
525.73	5.87
526.078	5.85
526.425	5.74
526.772	5.68
527.119	5.72
527.466	5.5
527.814	5.62
528.161	5.68
528.508	5.75
528.854	5.67
529.201	5.73
529.548	5.61
529.895	5.46
530.242	5.36
530.588	5.39
530.935	5.48
531.282	5.58
531.628	5.66
531.975	5.72
532.321	5.64
532.667	5.8
533.014	5.75
533.36	5.76
533.706	5.68
534.052	5.71
534.399	5.59
534.745	5.5
535.091	5.44
535.437	5.51
535.783	5.66
536.129	5.76
536.474	5.83
536.82	5.76
537.166	5.81
537.512	5.79
537.857	5.75
538.203	5.55
538.549	5.59
538.894	5.68
539.239	5.83
539.585	5.69
539.93	5.8
540.276	5.78
540.621	5.73
540.966	5.75
541.311	5.63
541.656	5.66
542.001	5.71
542.346	5.64
542.691	5.53
543.036	5.36
543.381	5.45
543.726	5.49
544.071	5.58
544.415	5.61
544.76	5.64
545.105	5.59
545.449	5.63
545.794	5.66
546.138	5.59
546.483	5.73
546.827	5.73
547.171	5.67
547.516	5.68
547.86	5.68
548.204	5.62
548.548	5.56
548.892	5.67
549.236	5.67
549.58	5.67
549.924	5.75
550.268	5.78
550.612	5.79
550.956	5.86
551.3	5.64
551.643	5.81
551.987	5.79
552.33	5.85
552.674	5.77
553.017	5.74
553.361	5.8
553.704	5.58
554.048	5.52
554.391	5.7
554.734	5.57
555.077	5.75
555.42	5.74
555.764	5.85
556.107	5.73
556.45	5.71
556.793	5.73
557.135	5.86
557.478	5.84
557.821	5.79
558.164	5.55
558.507	5.9
558.849	5.61
559.192	5.7
559.534	5.95
559.877	5.59
560.219	5.58
560.562	5.48
560.904	5.58
561.246	5.8
561.589	5.63
561.931	5.61
562.273	5.79
562.615	5.52
562.957	5.64
563.299	5.7
563.641	5.62
563.983	5.66
564.325	5.79
564.667	5.73
565.008	5.65
565.35	5.59
565.692	5.88
566.033	5.66
566.375	5.51
566.716	5.6
567.058	5.49
567.399	5.59
567.741	5.59
568.082	5.66
568.423	5.54
568.764	5.52
569.105	5.55
569.447	5.63
569.788	5.59
570.129	5.68
570.47	5.78
570.811	5.67
571.151	5.46
571.492	5.68
571.833	5.5
572.174	5.7
572.514	5.68
572.855	5.58
573.195	5.48
573.536	5.47
573.876	5.42
574.217	5.44
574.557	5.39
574.898	5.44
575.238	5.55
575.578	5.64
575.918	5.6
576.258	5.67
576.598	5.43
576.938	5.64
577.278	5.5
577.618	5.62
577.958	5.47
578.298	5.47
578.638	5.5
578.977	5.72
579.317	5.51
579.657	5.46
579.996	5.37
580.336	5.48
580.675	5.66
581.014	5.4
581.354	5.37
581.693	5.54
582.032	5.41
582.372	5.29
582.711	5.46
583.05	5.37
583.389	5.26
583.728	5.63
584.067	5.53
584.406	5.43
584.745	5.56
585.083	5.6
585.422	5.34
585.761	5.6
586.1	5.59
586.438	5.46
586.777	5.82
587.115	5.72
587.454	5.39
587.792	5.7
588.13	5.51
588.469	5.7
588.807	5.55
589.145	5.46
589.483	5.52
589.821	5.46
590.159	5.29
590.497	5.56
590.835	5.45
591.173	5.54
591.511	5.41
591.849	5.24
592.187	5.5
592.524	5.63
592.862	5.39
593.2	5.47
593.537	5.59
593.875	5.41
594.212	5.62
594.55	5.5
594.887	5.39
595.224	5.47
595.561	5.36
595.899	5.46
596.236	5.54
596.573	5.4
596.91	5.44
597.247	5.37
597.584	5.32
597.921	5.22
598.258	5.17
598.594	5.27
598.931	5.21
599.268	5.09
599.604	5.37
599.941	5.32
600.277	5.38
600.614	5.33
600.95	5.45
601.287	5.37
601.623	5.6
601.959	5.07
602.296	5.47
602.632	5.06
602.968	5.07
603.304	5.1
603.64	5.28
603.976	5.26
604.312	5.32
604.648	5.19
604.984	5.19
605.319	5.13
605.655	5.19
605.991	5.5
606.326	5.06
606.662	5.16
606.998	5.13
607.333	5.29
607.668	5.18
608.004	5.19
608.339	5.35
608.674	5.53
609.01	5.52
609.345	5.4
609.68	5.46
610.015	5.46
610.35	5.07
610.685	4.8
611.02	5.39
611.355	5.26
611.689	5.24
612.024	5.32
612.359	5.25
612.694	5.21
613.028	5.11
613.363	5.43
613.697	4.99
614.032	5.53
614.366	5.34
614.7	5.44
615.035	5.22
615.369	5.3
615.703	5.29
616.037	5.38
616.371	5.49
616.705	5.06
617.039	5.66
617.373	5.32
617.707	5.29
618.041	5.25
618.375	5.22
618.709	5.83
619.042	5.23
619.376	5.19
619.71	5.27
620.043	5.43
620.377	5.33
620.71	5.5
621.043	5.42
621.377	5.02
621.71	5.64
622.043	5.54
622.376	5.21
622.709	5.08
623.043	5.08
623.376	5.17
623.709	5.13
624.041	5.2
624.374	5.24
624.707	5.39
625.04	5.03
625.373	5.42
625.705	5.15
626.038	4.63
626.37	5.25
626.703	5.59
627.035	5.34
627.368	5.21
627.7	5.19
628.032	5.29
628.365	4.99
628.697	5.18
629.029	5.07
629.361	5.18
629.693	5.2
630.025	5.21
630.357	4.97
630.689	5.1
631.021	5.25
631.353	5.06
631.684	4.86
632.016	4.92
632.348	5.37
632.679	5.36
633.011	5.02
633.342	5.03
633.674	5.43
634.005	5.39
634.336	5.1
634.668	5.37
634.999	5.39
635.33	4.89
635.661	5.4
635.992	4.97
636.323	4.91
636.654	5.33
636.985	4.92
637.316	5.22
637.647	5.2
637.977	5.08
638.308	5.04
638.639	4.94
638.969	4.97
639.3	4.99
639.63	5.51
639.961	5.1
640.291	5.14
640.622	5.1
640.952	5.54
641.282	5.11
641.612	4.81
641.943	5.29
642.273	5.23
642.603	5.01
642.933	5.24
643.263	5.11
643.592	4.81
643.922	4.7
644.252	5.21
644.582	5.5
644.911	5.38
645.241	5.1
645.571	4.66
645.9	5.52
646.23	4.83
646.559	4.96
646.888	4.87
647.218	4.95
647.547	5.07
647.876	4.86
648.205	5.05
648.534	4.99
648.863	5.14
649.192	4.99
649.521	5.13
649.85	4.86
650.179	5.14
650.508	4.98
650.837	5.11
651.165	5.21
651.494	5.41
651.822	5.36
652.151	4.48
652.479	5.12
652.808	4.67
653.136	5.04
653.465	4.46
653.793	4.98
654.121	5.36
654.449	5.36
654.777	5.13
655.105	4.6
655.433	4.85
655.761	4.92
656.089	4.92
656.417	5.04
656.745	4.7
657.073	4.59
657.4	4.97
657.728	4.95
658.056	4.64
658.383	5.2
658.711	4.99
659.038	5.28
659.365	5.08
659.693	4.8
660.02	4.43
660.347	5.24
660.674	4.89
661.001	5.11
661.329	5.16
661.656	4.74
661.982	4.61
662.309	5.27
662.636	5.23
662.963	4.68
663.29	5.03
663.616	5.01
663.943	4.71
664.27	4.83
664.596	4.69
664.923	4.89
665.249	4.78
665.576	5.33
665.902	5.03
666.228	5.18
666.554	4.95
666.881	4.77
667.207	5.3
667.533	5.83
667.859	5.38
668.185	5.31
668.511	5.14
668.837	4.86
669.162	5.31
669.488	5.1
669.814	5.58
670.139	5.03
670.465	5.02
670.791	4.99
671.116	5.41
671.442	4.95
671.767	5.12
672.092	4.71
672.418	4.68
672.743	5.05
673.068	4.87
673.393	4.52
673.718	5.01
674.043	5.02
674.368	5.02
674.693	5.04
675.018	5.07
675.343	5.39
675.667	4.75
675.992	5.02
676.317	4.26
676.641	4.9
676.966	4.99
677.29	5.16
677.615	4.31
677.939	4.91
678.264	4.88
678.588	4.85
678.912	4.89
679.236	5.66
679.56	4.31
679.885	5.62
680.209	5.01
680.532	5.21
680.856	4.96
681.18	4.69
681.504	5.49
681.828	5.25
682.152	5.02
682.475	4.73
682.799	4.83
683.122	4.9
683.446	5.62
683.769	4.97
684.093	4.68
684.416	5.48
684.739	4.72
685.062	5.59
685.386	5.15
685.709	4.71
686.032	6.25
686.355	5.49
686.678	4.71
687.001	4.97
687.324	4.68
687.646	4.71
687.969	4.87
688.292	5.42
688.614	5.07
688.937	5.47
689.26	5.21
689.582	4.82
689.904	5.52
690.227	5.17
690.549	5.74
690.871	5.71
691.194	5.14
691.516	4.96
691.838	5.63
692.16	4.76
692.482	5.25
692.804	4.59
