Data from 0016_chest_Reflection__2__52.txt Node

Date: Mon Oct 17 14:49:53 CDT 2022
User: ToomeyLab
Spectrometer: FLMS14357
Trigger mode: 0
Integration Time (sec): 1.000000E-2
Scans to average: 100
Electric dark correction enabled: true
Nonlinearity correction enabled: false
Boxcar width: 0
XAxis mode: Wavelengths
Number of Pixels in Spectrum: 2048
>>>>>Begin Spectral Data<<<<<
189.047	188.14
189.435	188.14
189.823	188.14
190.211	185.72
190.599	61.15
190.987	941.09
191.375	361.22
191.763	12.55
192.151	35.31
192.538	69.05
192.926	45.49
193.314	120.71
193.702	172.19
194.089	-225.78
194.477	-551.89
194.864	44.51
195.252	-24.16
195.639	132.6
196.027	54.18
196.414	-951.86
196.801	-79.93
197.189	21.36
197.576	66.12
197.963	-290.88
198.351	-83.71
198.738	18.62
199.125	-10.15
199.512	6.49
199.899	-3.12
200.286	-3.65
200.673	38.11
201.06	-51.27
201.447	25.49
201.833	44.48
202.22	11.36
202.607	-49.89
202.994	5.35
203.38	16.98
203.767	45.81
204.154	44.7
204.54	-3.92
204.927	12.13
205.313	-36.04
205.699	-19.66
206.086	-1.22
206.472	7.79
206.858	12.68
207.245	9.07
207.631	10.06
208.017	10.06
208.403	19.21
208.789	24.62
209.175	16.48
209.561	-23.14
209.947	-49.78
210.333	11.17
210.719	3.52
211.105	13.23
211.491	-15.01
211.876	-6.48
212.262	16.81
212.648	5.3
213.034	-0.91
213.419	7.5
213.805	10.19
214.19	1.57
214.576	14.49
214.961	-0.88
215.346	-14.21
215.732	-18.52
216.117	9.69
216.502	-2.93
216.888	-13.11
217.273	10.29
217.658	19.76
218.043	9.35
218.428	-14.38
218.813	19.37
219.198	2.7
219.583	-18.61
219.968	2.3
220.353	-3.74
220.738	-1.22
221.122	-4.35
221.507	-9.87
221.892	21.75
222.276	1.66
222.661	-0.93
223.046	-4.92
223.43	3.5
223.815	-9.25
224.199	-7.66
224.583	-3.19
224.968	-6.8
225.352	-6.96
225.736	8.29
226.121	3.23
226.505	-0.85
226.889	-2.07
227.273	1.88
227.657	5.1
228.041	6.19
228.425	1.81
228.809	1.72
229.193	0.45
229.577	2.9
229.961	5.12
230.344	2.54
230.728	3.17
231.112	3.19
231.495	2.79
231.879	4.2
232.263	2.5
232.646	4.36
233.03	2
233.413	1.47
233.797	2.87
234.18	3.34
234.563	0.85
234.946	2.74
235.33	3.19
235.713	2.63
236.096	3.68
236.479	1.92
236.862	1.68
237.245	3.25
237.628	1.36
238.011	1.61
238.394	3.82
238.777	2.11
239.16	4.37
239.543	3.07
239.925	3.38
240.308	2.95
240.691	1.99
241.073	2.57
241.456	3.11
241.838	2.5
242.221	2.18
242.603	2.39
242.986	2.27
243.368	3.01
243.75	2.64
244.133	2.83
244.515	3.14
244.897	3.33
245.279	3.38
245.661	2.72
246.043	3.2
246.425	1.75
246.807	1.55
247.189	3.31
247.571	2.87
247.953	2.56
248.335	2.87
248.717	2.9
249.098	3
249.48	3.02
249.862	2.6
250.243	2.61
250.625	2.91
251.006	2.61
251.388	3.11
251.769	2.58
252.151	2.66
252.532	2.44
252.913	2.97
253.295	1.66
253.676	3.24
254.057	3.32
254.438	3.09
254.819	3.71
255.2	3.48
255.581	2.98
255.962	1.53
256.343	2.21
256.724	3.46
257.105	2.16
257.486	2.26
257.867	1.98
258.247	2.02
258.628	3.22
259.009	3.95
259.389	2.9
259.77	2.68
260.15	2.62
260.531	2.1
260.911	2.64
261.292	2.91
261.672	2.77
262.052	2.7
262.432	2.77
262.813	2.55
263.193	2.06
263.573	2.78
263.953	2.6
264.333	2.75
264.713	2.23
265.093	2.49
265.473	2.94
265.853	2.37
266.233	2.93
266.612	2.34
266.992	3.2
267.372	2.58
267.752	3.31
268.131	2.8
268.511	2.56
268.89	2.95
269.27	2.55
269.649	2.81
270.029	2.7
270.408	3.02
270.787	2.59
271.167	2.46
271.546	2.88
271.925	3.06
272.304	2.5
272.683	2.37
273.062	2.54
273.441	2.48
273.82	2.63
274.199	2.77
274.578	2.95
274.957	2.45
275.336	2.68
275.715	2.49
276.093	1.79
276.472	2.5
276.851	2.34
277.229	1.85
277.608	2.43
277.986	2.45
278.365	2.71
278.743	3.06
279.122	2.09
279.5	2.79
279.878	2.97
280.257	2.39
280.635	2.52
281.013	2.97
281.391	2.41
281.769	2.27
282.147	2.58
282.525	2.22
282.903	2.35
283.281	2.36
283.659	2.39
284.037	2.39
284.415	2.53
284.792	2.37
285.17	2.06
285.548	2.44
285.925	3.02
286.303	2.38
286.68	2.75
287.058	2.56
287.435	2.73
287.813	2.55
288.19	2.52
288.567	2.23
288.945	2.57
289.322	2.69
289.699	2.79
290.076	2.34
290.453	2.45
290.83	2.72
291.207	2.49
291.584	2.38
291.961	2.47
292.338	2.67
292.715	2.8
293.092	2.49
293.469	2.44
293.845	2.69
294.222	3.03
294.599	3.05
294.975	2.49
295.352	2.13
295.728	2.86
296.105	2.4
296.481	2.7
296.858	2.95
297.234	2.6
297.61	2.69
297.986	2.4
298.363	2.37
298.739	2.93
299.115	2.65
299.491	2.71
299.867	2.55
300.243	2.59
300.619	2.46
300.995	2.64
301.371	2.57
301.746	2.11
302.122	2.57
302.498	2.59
302.874	2.61
303.249	2.67
303.625	2.69
304	2.91
304.376	3.12
304.751	3.42
305.127	3.06
305.502	2.11
305.878	2.71
306.253	2.56
306.628	2.53
307.003	2.62
307.378	2.98
307.754	2.63
308.129	2.11
308.504	2.95
308.879	2.71
309.254	2.26
309.629	2.37
310.003	2.69
310.378	2.29
310.753	2.29
311.128	2.67
311.502	2.57
311.877	2.71
312.252	2.35
312.626	2.53
313.001	2.48
313.375	2.36
313.75	2.61
314.124	2.81
314.498	2.6
314.873	2.76
315.247	2.12
315.621	2.54
315.995	2.39
316.369	2.43
316.743	2.52
317.117	2.87
317.491	2.48
317.865	3.12
318.239	3.07
318.613	2.71
318.987	2.47
319.361	2.28
319.734	2.71
320.108	2.61
320.482	3.26
320.855	2.5
321.229	2.18
321.602	2.53
321.976	2.52
322.349	2.89
322.723	2.66
323.096	2.92
323.469	2.86
323.843	2.51
324.216	2.81
324.589	2.75
324.962	2.48
325.335	2.4
325.708	3.02
326.081	2.61
326.454	2.99
326.827	2.2
327.2	2.31
327.573	2.1
327.945	2.62
328.318	2.61
328.691	2.65
329.063	2.66
329.436	2.61
329.809	2.52
330.181	2.87
330.553	2.48
330.926	2.35
331.298	2.96
331.671	2.69
332.043	2.45
332.415	2.73
332.787	2.85
333.159	3.12
333.532	2.9
333.904	2.78
334.276	2.79
334.648	2.69
335.02	2.37
335.391	2.72
335.763	1.98
336.135	2.12
336.507	2.53
336.879	3.2
337.25	3.22
337.622	2.78
337.993	2.59
338.365	2.84
338.736	2.1
339.108	2.66
339.479	2.28
339.851	2.66
340.222	2.32
340.593	2.4
340.964	2.42
341.336	2.77
341.707	3.1
342.078	2.77
342.449	2.76
342.82	2.62
343.191	2.64
343.562	2.92
343.933	2.34
344.303	2.11
344.674	3.03
345.045	2.66
345.416	2.69
345.786	2.87
346.157	2.58
346.527	2.59
346.898	2.63
347.268	2.89
347.639	2.45
348.009	2.78
348.38	2.64
348.75	2.58
349.12	2.6
349.49	2.67
349.861	3.04
350.231	2.85
350.601	2.7
350.971	2.55
351.341	2.39
351.711	2.73
352.081	2.9
352.45	2.99
352.82	3.02
353.19	2.39
353.56	2.64
353.929	2.83
354.299	2.78
354.669	2.83
355.038	2.87
355.408	3.09
355.777	2.62
356.147	2.48
356.516	2.83
356.885	2.82
357.254	2.98
357.624	3.02
357.993	2.76
358.362	2.43
358.731	2.54
359.1	2.6
359.469	2.64
359.838	2.85
360.207	2.83
360.576	2.46
360.945	2.87
361.314	2.94
361.682	2.78
362.051	2.81
362.42	2.7
362.788	2.78
363.157	2.87
363.525	2.59
363.894	2.88
364.262	2.79
364.631	2.75
364.999	2.71
365.367	2.35
365.735	2.7
366.104	3.06
366.472	2.6
366.84	2.7
367.208	2.76
367.576	2.73
367.944	2.63
368.312	2.68
368.68	2.9
369.048	2.71
369.416	2.88
369.783	2.94
370.151	2.95
370.519	3.05
370.886	2.85
371.254	2.51
371.621	2.49
371.989	3.02
372.356	2.83
372.724	2.99
373.091	2.87
373.458	2.82
373.826	3.02
374.193	2.96
374.56	2.66
374.927	2.63
375.294	3.07
375.661	2.9
376.028	2.67
376.395	2.57
376.762	2.57
377.129	2.76
377.496	2.73
377.863	2.68
378.229	2.78
378.596	2.72
378.963	2.75
379.329	2.75
379.696	2.78
380.062	2.95
380.429	2.59
380.795	2.83
381.161	3.12
381.528	2.79
381.894	2.72
382.26	2.69
382.626	2.79
382.993	3.02
383.359	2.73
383.725	2.95
384.091	2.73
384.457	2.96
384.823	2.48
385.188	2.69
385.554	2.91
385.92	3.05
386.286	2.85
386.651	2.88
387.017	2.69
387.383	3.08
387.748	2.84
388.114	2.88
388.479	2.85
388.845	3.23
389.21	2.53
389.575	2.87
389.94	3.05
390.306	3.15
390.671	3.27
391.036	3.1
391.401	2.86
391.766	2.84
392.131	2.94
392.496	2.74
392.861	2.68
393.226	2.87
393.591	2.86
393.956	2.85
394.32	2.78
394.685	2.68
395.05	2.78
395.414	3.06
395.779	2.88
396.143	3.05
396.508	2.85
396.872	2.7
397.236	2.87
397.601	2.86
397.965	2.66
398.329	3.04
398.694	2.97
399.058	2.95
399.422	2.91
399.786	3
400.15	2.8
400.514	2.73
400.878	2.91
401.242	2.77
401.605	3.14
401.969	2.88
402.333	2.85
402.697	2.87
403.06	2.89
403.424	2.92
403.787	2.84
404.151	2.85
404.514	2.9
404.878	2.96
405.241	3.1
405.604	3.05
405.968	2.95
406.331	2.82
406.694	2.97
407.057	2.83
407.42	2.79
407.783	3.07
408.146	3.13
408.509	3.14
408.872	2.93
409.235	2.96
409.598	2.77
409.961	2.75
410.323	2.84
410.686	2.84
411.049	2.89
411.411	2.89
411.774	2.98
412.136	2.87
412.499	3.05
412.861	2.92
413.223	3.02
413.586	2.77
413.948	3.09
414.31	2.92
414.672	2.99
415.035	2.97
415.397	3.1
415.759	2.89
416.121	2.97
416.483	3.18
416.845	3
417.206	2.81
417.568	3.09
417.93	2.83
418.292	3.01
418.653	2.93
419.015	2.92
419.377	2.95
419.738	2.91
420.1	3.1
420.461	2.85
420.822	2.92
421.184	2.85
421.545	2.97
421.906	2.96
422.267	2.81
422.629	2.86
422.99	2.93
423.351	2.87
423.712	2.95
424.073	2.88
424.434	2.95
424.795	3.02
425.155	3.06
425.516	2.85
425.877	2.84
426.238	2.84
426.598	2.91
426.959	2.85
427.32	2.99
427.68	2.89
428.041	2.87
428.401	3.04
428.761	3.07
429.122	3.15
429.482	2.88
429.842	3
430.202	3
430.563	2.96
430.923	3.06
431.283	3.01
431.643	3.01
432.003	2.99
432.363	3.09
432.722	2.97
433.082	2.8
433.442	3.16
433.802	2.87
434.161	3
434.521	3.07
434.881	3.06
435.24	2.92
435.6	3.14
435.959	2.85
436.319	3.16
436.678	2.95
437.037	3.09
437.396	2.89
437.756	3.04
438.115	2.79
438.474	2.98
438.833	2.98
439.192	2.96
439.551	2.87
439.91	3.03
440.269	2.92
440.628	2.95
440.987	3.02
441.345	3.06
441.704	3.03
442.063	2.92
442.421	3
442.78	2.9
443.138	2.92
443.497	3.02
443.855	3.12
444.214	3.07
444.572	2.96
444.93	3.07
445.288	2.89
445.647	3.06
446.005	3.1
446.363	3.1
446.721	2.92
447.079	2.96
447.437	3
447.795	3.03
448.153	3.06
448.51	3.05
448.868	3.14
449.226	2.97
449.584	3.06
449.941	3.09
450.299	3.2
450.656	3.06
451.014	3
451.371	3.2
451.729	3.06
452.086	3.17
452.443	3.2
452.801	3.2
453.158	3.27
453.515	3.09
453.872	3.16
454.229	3.06
454.586	2.97
454.943	3.03
455.3	3.13
455.657	3.14
456.014	3.06
456.371	3.19
456.727	3.11
457.084	3.03
457.441	3.11
457.797	3.18
458.154	3.13
458.51	3.31
458.867	3.07
459.223	3.13
459.58	2.96
459.936	3.01
460.292	3.21
460.648	3.17
461.005	3
461.361	3.07
461.717	2.98
462.073	3.03
462.429	3.1
462.785	3.12
463.141	3.32
463.496	3.15
463.852	3.13
464.208	3.24
464.564	3.01
464.919	3.23
465.275	3.23
465.631	3.28
465.986	3.22
466.342	3.28
466.697	3.24
467.052	3.15
467.408	3.15
467.763	3.13
468.118	3.15
468.473	3.15
468.829	3.26
469.184	3.19
469.539	3.14
469.894	3.18
470.249	3.15
470.603	3.12
470.958	3.32
471.313	3.05
471.668	3.15
472.023	3.02
472.377	3.3
472.732	2.99
473.086	3.28
473.441	3.12
473.795	3.34
474.15	3.27
474.504	3.26
474.859	3.25
475.213	3.26
475.567	3.23
475.921	3.06
476.275	3.15
476.63	3.23
476.984	3.29
477.338	3.22
477.692	3.17
478.045	3.31
478.399	3.26
478.753	3.19
479.107	3.05
479.461	3.19
479.814	3.08
480.168	3.24
480.521	3.08
480.875	3.17
481.228	3.23
481.582	3.24
481.935	3.32
482.289	3.15
482.642	3.19
482.995	3.25
483.348	3.18
483.701	3.19
484.055	3.12
484.408	3.23
484.761	3.07
485.114	2.98
485.466	2.98
485.819	2.94
486.172	2.97
486.525	3.07
486.878	3.08
487.23	3.12
487.583	3.19
487.936	3.2
488.288	3.14
488.641	3.03
488.993	3.03
489.345	3.07
489.698	3.09
490.05	3.1
490.402	3.14
490.754	3.18
491.107	3.13
491.459	3.24
491.811	3.26
492.163	3.22
492.515	3.23
492.866	3.05
493.218	3.13
493.57	3.15
493.922	3.2
494.274	3.19
494.625	3.17
494.977	3.3
495.328	3.24
495.68	3.33
496.031	3.41
496.383	3.26
496.734	3.4
497.086	3.27
497.437	3.34
497.788	3.28
498.139	3.24
498.49	3.3
498.842	3.23
499.193	3.22
499.544	3.28
499.894	3.28
500.245	3.29
500.596	3.23
500.947	3.5
501.298	3.43
501.648	3.41
501.999	3.37
502.35	3.4
502.7	3.45
503.051	3.36
503.401	3.52
503.752	3.29
504.102	3.38
504.452	3.29
504.803	3.46
505.153	3.42
505.503	3.48
505.853	3.35
506.203	3.28
506.553	3.44
506.903	3.46
507.253	3.32
507.603	3.33
507.953	3.54
508.303	3.48
508.652	3.41
509.002	3.47
509.352	3.38
509.701	3.5
510.051	3.4
510.4	3.27
510.75	3.46
511.099	3.44
511.449	3.43
511.798	3.5
512.147	3.37
512.496	3.47
512.846	3.37
513.195	3.44
513.544	3.51
513.893	3.44
514.242	3.6
514.591	3.41
514.939	3.43
515.288	3.4
515.637	3.47
515.986	3.5
516.334	3.61
516.683	3.56
517.032	3.57
517.38	3.43
517.729	3.48
518.077	3.51
518.426	3.51
518.774	3.42
519.122	3.53
519.47	3.45
519.819	3.48
520.167	3.44
520.515	3.42
520.863	3.5
521.211	3.52
521.559	3.47
521.907	3.62
522.255	3.53
522.602	3.59
522.95	3.59
523.298	3.57
523.645	3.51
523.993	3.61
524.341	3.64
524.688	3.57
525.036	3.57
525.383	3.52
525.73	3.54
526.078	3.56
526.425	3.59
526.772	3.61
527.119	3.56
527.466	3.51
527.814	3.53
528.161	3.59
528.508	3.53
528.854	3.53
529.201	3.59
529.548	3.6
529.895	3.47
530.242	3.44
530.588	3.4
530.935	3.45
531.282	3.48
531.628	3.57
531.975	3.65
532.321	3.54
532.667	3.75
533.014	3.75
533.36	3.64
533.706	3.74
534.052	3.71
534.399	3.63
534.745	3.57
535.091	3.57
535.437	3.64
535.783	3.68
536.129	3.72
536.474	3.8
536.82	3.81
537.166	3.81
537.512	3.82
537.857	3.81
538.203	3.77
538.549	3.69
538.894	3.79
539.239	3.89
539.585	3.84
539.93	3.89
540.276	3.84
540.621	3.83
540.966	3.99
541.311	3.76
541.656	3.84
542.001	3.84
542.346	3.77
542.691	3.82
543.036	3.69
543.381	3.73
543.726	3.76
544.071	3.81
544.415	3.91
544.76	3.88
545.105	3.89
545.449	3.89
545.794	3.92
546.138	3.97
546.483	3.96
546.827	4.11
547.171	4
547.516	3.96
547.86	4.08
548.204	3.89
548.548	4
548.892	3.97
549.236	4.1
549.58	4.14
549.924	4.05
550.268	4.15
550.612	4.07
550.956	4.31
551.3	4.14
551.643	4.34
551.987	4.2
552.33	4.1
552.674	4.14
553.017	4.31
553.361	4.31
553.704	4.21
554.048	4.07
554.391	4.24
554.734	4.16
555.077	4.25
555.42	4.34
555.764	4.31
556.107	4.29
556.45	4.37
556.793	4.34
557.135	4.37
557.478	4.37
557.821	4.55
558.164	4.51
558.507	4.39
558.849	4.35
559.192	4.39
559.534	4.48
559.877	4.41
560.219	4.33
560.562	4.44
560.904	4.4
561.246	4.6
561.589	4.57
561.931	4.41
562.273	4.56
562.615	4.58
562.957	4.38
563.299	4.54
563.641	4.71
563.983	4.62
564.325	4.75
564.667	4.68
565.008	4.74
565.35	4.66
565.692	4.71
566.033	4.64
566.375	4.56
566.716	4.71
567.058	4.64
567.399	4.62
567.741	4.59
568.082	4.65
568.423	4.67
568.764	4.63
569.105	4.83
569.447	4.74
569.788	4.81
570.129	4.95
570.47	4.99
570.811	4.89
571.151	4.71
571.492	5.02
571.833	4.84
572.174	4.85
572.514	4.9
572.855	4.93
573.195	5.04
573.536	4.87
573.876	4.94
574.217	4.91
574.557	4.81
574.898	4.98
575.238	5.06
575.578	5.09
575.918	5.06
576.258	5.16
576.598	5.08
576.938	5.25
577.278	5.19
577.618	5.29
577.958	5.02
578.298	5.14
578.638	5.19
578.977	5.26
579.317	5.07
579.657	5.2
579.996	5.35
580.336	5.31
580.675	5.22
581.014	5.42
581.354	5.41
581.693	5.39
582.032	5.26
582.372	5.3
582.711	5.37
583.05	5.27
583.389	5.3
583.728	5.6
584.067	5.56
584.406	5.53
584.745	5.54
585.083	5.63
585.422	5.6
585.761	5.52
586.1	5.71
586.438	5.7
586.777	5.78
587.115	5.57
587.454	5.63
587.792	5.94
588.13	5.74
588.469	5.79
588.807	5.84
589.145	5.61
589.483	5.72
589.821	5.57
590.159	5.75
590.497	5.96
590.835	5.82
591.173	5.97
591.511	6
591.849	5.98
592.187	5.95
592.524	5.91
592.862	5.9
593.2	5.82
593.537	6.2
593.875	6.01
594.212	6.14
594.55	6.21
594.887	5.88
595.224	6.16
595.561	6.12
595.899	6.23
596.236	6.36
596.573	5.99
596.91	6.34
597.247	6.23
597.584	6.13
597.921	6.25
598.258	6.31
598.594	6.16
598.931	6.12
599.268	6.16
599.604	6.28
599.941	6.3
600.277	6.42
600.614	6.58
600.95	6.58
601.287	6.39
601.623	6.57
601.959	6.6
602.296	6.48
602.632	6.5
602.968	6.58
603.304	6.7
603.64	6.64
603.976	6.5
604.312	6.82
604.648	6.63
604.984	6.78
605.319	6.51
605.655	6.86
605.991	6.79
606.326	6.63
606.662	6.64
606.998	6.79
607.333	6.96
607.668	6.76
608.004	6.94
608.339	6.93
608.674	7.1
609.01	6.98
609.345	7.11
609.68	7.23
610.015	7.17
610.35	6.94
610.685	6.85
611.02	7.19
611.355	7.14
611.689	7.06
612.024	7.33
612.359	7.11
612.694	7.28
613.028	7
613.363	7.49
613.697	6.96
614.032	7.14
614.366	7.38
614.7	7.57
615.035	7.31
615.369	7.57
615.703	7.44
616.037	7.58
616.371	7.42
616.705	7.32
617.039	7.95
617.373	7.52
617.707	7.54
618.041	7.53
618.375	7.61
618.709	7.88
619.042	8.05
619.376	7.79
619.71	7.7
620.043	7.67
620.377	8.03
620.71	8.03
621.043	7.91
621.377	8.1
621.71	7.91
622.043	8.13
622.376	8.05
622.709	7.83
623.043	7.96
623.376	7.33
623.709	7.94
624.041	7.76
624.374	8.06
624.707	7.86
625.04	8.04
625.373	8.34
625.705	8.02
626.038	7.86
626.37	8.47
626.703	8.43
627.035	8.1
627.368	8.18
627.7	8.48
628.032	7.95
628.365	8.36
628.697	8.14
629.029	8.42
629.361	8.4
629.693	8.49
630.025	8.38
630.357	8.3
630.689	8.29
631.021	8.67
631.353	8.3
631.684	8.41
632.016	8.4
632.348	8.73
632.679	8.73
633.011	8.43
633.342	8.74
633.674	8.99
634.005	8.56
634.336	8.76
634.668	8.85
634.999	8.95
635.33	8.83
635.661	8.77
635.992	8.77
636.323	8.78
636.654	8.96
636.985	8.91
637.316	8.78
637.647	8.99
637.977	9.1
638.308	9.24
638.639	9.13
638.969	9.05
639.3	9.01
639.63	9.71
639.961	8.92
640.291	9.15
640.622	9.24
640.952	9.21
641.282	9.27
641.612	9.23
641.943	9.25
642.273	9.25
642.603	9.39
642.933	9.62
643.263	9.56
643.592	9.85
643.922	9.72
644.252	9.97
644.582	9.83
644.911	9.86
645.241	9.85
645.571	9.5
645.9	9.56
646.23	9.1
646.559	9.32
646.888	9.55
647.218	9.38
647.547	10.12
647.876	10.05
648.205	10.05
648.534	9.67
648.863	9.52
649.192	10.12
649.521	9.95
649.85	10.17
650.179	10.05
650.508	9.73
650.837	10.02
651.165	10.27
651.494	10.05
651.822	10.14
652.151	10.09
652.479	10.16
652.808	9.79
653.136	10.24
653.465	9.73
653.793	10.13
654.121	10.34
654.449	10.53
654.777	10.32
655.105	10.32
655.433	10.55
655.761	10.6
656.089	10.56
656.417	10.45
656.745	10.9
657.073	10.47
657.4	10.19
657.728	10.42
658.056	10.56
658.383	11.18
658.711	10.86
659.038	10.56
659.365	10.4
659.693	10.89
660.02	10.63
660.347	11.04
660.674	10.85
661.001	10.82
661.329	10.89
661.656	10.76
661.982	10.92
662.309	11.13
662.636	10.78
662.963	11.35
663.29	11.34
663.616	10.69
663.943	11.31
664.27	10.57
664.596	10.97
664.923	11.11
665.249	11.14
665.576	11.05
665.902	10.89
666.228	11.37
666.554	11.07
666.881	11.42
667.207	11.72
667.533	11.78
667.859	11.41
668.185	11.63
668.511	11.46
668.837	11.59
669.162	11.62
669.488	11.83
669.814	12.14
670.139	11.32
670.465	11.96
670.791	12.03
671.116	11.57
671.442	11.9
671.767	11.65
672.092	11.59
672.418	12.08
672.743	11.24
673.068	12.16
673.393	12.09
673.718	11.92
674.043	11.68
674.368	12.08
674.693	11.75
675.018	12.19
675.343	12.8
675.667	12.22
675.992	12.18
676.317	12.37
676.641	12.27
676.966	12.57
677.29	11.81
677.615	12.3
677.939	12.22
678.264	12.45
678.588	13.41
678.912	12.47
679.236	13.1
679.56	12.08
679.885	12.75
680.209	12.57
680.532	12.06
680.856	12.94
681.18	12.83
681.504	13.13
681.828	13.18
682.152	12.97
682.475	12.79
682.799	12.62
683.122	12.63
683.446	12.48
683.769	12.71
684.093	12.53
684.416	13.54
684.739	13.01
685.062	13.13
685.386	12.96
685.709	13.13
686.032	13.89
686.355	13.3
686.678	12.56
687.001	13.27
687.324	13.19
687.646	13.35
687.969	13.53
688.292	13.86
688.614	13.44
688.937	13.8
689.26	13.2
689.582	13.31
689.904	14.03
