Data from 0016_forehead_Reflection__3__64.txt Node

Date: Mon Oct 17 14:54:42 CDT 2022
User: ToomeyLab
Spectrometer: FLMS14357
Trigger mode: 0
Integration Time (sec): 1.000000E-2
Scans to average: 100
Electric dark correction enabled: true
Nonlinearity correction enabled: false
Boxcar width: 0
XAxis mode: Wavelengths
Number of Pixels in Spectrum: 2048
>>>>>Begin Spectral Data<<<<<
189.047	1392.72
189.435	1392.72
189.823	1392.72
190.211	87.26
190.599	75.38
190.987	-1463.82
191.375	-18.42
191.763	-83.94
192.151	-36.31
192.538	229.04
192.926	2.45
193.314	79.93
193.702	-121.7
194.089	214.95
194.477	115.12
194.864	81.92
195.252	421.43
195.639	41.76
196.027	447.8
196.414	830.09
196.801	-13.7
197.189	100.96
197.576	88
197.963	476.08
198.351	-83.57
198.738	9.01
199.125	-25.93
199.512	-63.99
199.899	9.21
200.286	47.68
200.673	-8.97
201.06	-80.89
201.447	25.76
201.833	61.94
202.22	45.41
202.607	-9.21
202.994	-15.27
203.38	18.6
203.767	23.09
204.154	81.22
204.54	-39.31
204.927	16.46
205.313	-12.75
205.699	43.12
206.086	2.73
206.472	32.12
206.858	3.41
207.245	23.26
207.631	12.84
208.017	19.87
208.403	24.08
208.789	5.84
209.175	6.86
209.561	-12.04
209.947	-36.15
210.333	21.75
210.719	23.91
211.105	13.43
211.491	24.04
211.876	-13.45
212.262	10.74
212.648	7.27
213.034	-15.68
213.419	25.21
213.805	-25.36
214.19	10.55
214.576	0.35
214.961	-2.06
215.346	-11.56
215.732	10.32
216.117	8.63
216.502	7.72
216.888	15.72
217.273	-18.99
217.658	20.23
218.043	-6.9
218.428	1.17
218.813	17.15
219.198	11.14
219.583	-11.97
219.968	-0.63
220.353	-3.69
220.738	-4.91
221.122	8.63
221.507	-8.49
221.892	1.29
222.276	-3.13
222.661	4.18
223.046	4.78
223.43	6.85
223.815	-1.4
224.199	1.68
224.583	-5.51
224.968	-1.98
225.352	-4.25
225.736	4.5
226.121	-7.09
226.505	-1.93
226.889	2.75
227.273	4.43
227.657	5.15
228.041	-0.14
228.425	-0.25
228.809	3.44
229.193	-0.34
229.577	2.33
229.961	3.07
230.344	1.29
230.728	0.79
231.112	1.38
231.495	1.28
231.879	1.13
232.263	1.71
232.646	3.1
233.03	0.27
233.413	-1.25
233.797	1
234.18	2.68
234.563	-1.09
234.946	1.97
235.33	1.17
235.713	0.42
236.096	1.4
236.479	-0.11
236.862	1.53
237.245	1.26
237.628	-0.17
238.011	2.88
238.394	2.25
238.777	2.36
239.16	1.24
239.543	1.25
239.925	1.85
240.308	1.52
240.691	-0.05
241.073	2.87
241.456	0.67
241.838	2.26
242.221	0.36
242.603	1.38
242.986	0.38
243.368	1.46
243.75	1.03
244.133	1.52
244.515	1.44
244.897	1.77
245.279	1.46
245.661	1.33
246.043	1.51
246.425	0.8
246.807	1.7
247.189	2.28
247.571	1.39
247.953	1.09
248.335	1.37
248.717	1.35
249.098	1.48
249.48	1.18
249.862	1.18
250.243	0.93
250.625	1.58
251.006	1.06
251.388	1.8
251.769	1.01
252.151	0.91
252.532	1.78
252.913	1.4
253.295	1.05
253.676	1.26
254.057	1.97
254.438	1.33
254.819	1.9
255.2	1.44
255.581	1.51
255.962	1.56
256.343	0.47
256.724	1.6
257.105	0.79
257.486	0.71
257.867	1.59
258.247	0.71
258.628	1.55
259.009	1.7
259.389	1.54
259.77	1.59
260.15	1.18
260.531	0.8
260.911	1.36
261.292	1.72
261.672	1.36
262.052	1.37
262.432	1.32
262.813	1.22
263.193	1.34
263.573	1.88
263.953	1.51
264.333	1.56
264.713	1.17
265.093	1.5
265.473	1.87
265.853	1.19
266.233	2.29
266.612	0.57
266.992	2.23
267.372	1.3
267.752	1.57
268.131	2
268.511	1.75
268.89	1.16
269.27	1.48
269.649	1.59
270.029	1.41
270.408	1.68
270.787	0.98
271.167	1.45
271.546	1.26
271.925	1.77
272.304	1.22
272.683	1.79
273.062	1.58
273.441	0.98
273.82	1.5
274.199	1.75
274.578	1.54
274.957	1.35
275.336	1.56
275.715	1.29
276.093	1.57
276.472	1.7
276.851	2.06
277.229	0.82
277.608	1.31
277.986	0.93
278.365	1.25
278.743	1.73
279.122	1.07
279.5	1.9
279.878	1.65
280.257	1.8
280.635	1.32
281.013	1.69
281.391	1.42
281.769	1.18
282.147	2.06
282.525	1.39
282.903	1.11
283.281	1.2
283.659	1.22
284.037	0.97
284.415	1.58
284.792	1.05
285.17	0.88
285.548	1.28
285.925	1.53
286.303	1.72
286.68	1.62
287.058	1.76
287.435	1.54
287.813	1.59
288.19	1.61
288.567	1.27
288.945	1.19
289.322	1.79
289.699	1.06
290.076	1.47
290.453	1.3
290.83	1.78
291.207	1.66
291.584	1.54
291.961	1.36
292.338	1.58
292.715	1.91
293.092	1.94
293.469	1.62
293.845	1.61
294.222	2.1
294.599	1.66
294.975	1.09
295.352	1.53
295.728	1.69
296.105	1.55
296.481	1.74
296.858	2.05
297.234	1.59
297.61	1.55
297.986	1.52
298.363	1.84
298.739	2.28
299.115	1.87
299.491	1.6
299.867	1.75
300.243	1.78
300.619	1.75
300.995	1.92
301.371	2.05
301.746	1.8
302.122	1.81
302.498	1.94
302.874	2.73
303.249	1.95
303.625	2.22
304	2.24
304.376	2.21
304.751	2.8
305.127	2.06
305.502	1.96
305.878	2.09
306.253	1.88
306.628	2.35
307.003	2.05
307.378	2.4
307.754	1.69
308.129	2.11
308.504	2.38
308.879	2.27
309.254	2.36
309.629	2.29
310.003	2.42
310.378	2.28
310.753	2.07
311.128	2.44
311.502	2.46
311.877	2.47
312.252	2.26
312.626	2.37
313.001	2.17
313.375	2.05
313.75	2.48
314.124	2.63
314.498	2.56
314.873	2.19
315.247	2.28
315.621	2.89
315.995	2.44
316.369	2.35
316.743	2.6
317.117	2.84
317.491	2.85
317.865	2.7
318.239	2.99
318.613	2.86
318.987	2.99
319.361	2.56
319.734	2.94
320.108	2.73
320.482	2.88
320.855	2.63
321.229	2.78
321.602	2.57
321.976	2.62
322.349	2.79
322.723	3.01
323.096	3.04
323.469	3.26
323.843	2.87
324.216	3.24
324.589	2.58
324.962	2.98
325.335	2.94
325.708	3.15
326.081	3.32
326.454	3.34
326.827	2.73
327.2	2.59
327.573	2.69
327.945	3.26
328.318	3
328.691	3.41
329.063	3.24
329.436	3.19
329.809	3.48
330.181	3.59
330.553	3.37
330.926	3.37
331.298	3.39
331.671	3.66
332.043	3.69
332.415	3.45
332.787	2.85
333.159	3.27
333.532	3.18
333.904	3.11
334.276	3.07
334.648	3.44
335.02	3.49
335.391	3.42
335.763	3.46
336.135	2.98
336.507	3.69
336.879	3.25
337.25	4.32
337.622	3.54
337.993	3.31
338.365	3.55
338.736	3.65
339.108	4.17
339.479	3.6
339.851	3.8
340.222	3.6
340.593	3.65
340.964	3.63
341.336	3.37
341.707	3.83
342.078	4.04
342.449	3.5
342.82	3.92
343.191	3.26
343.562	3.84
343.933	3.73
344.303	3.66
344.674	4.38
345.045	4.17
345.416	3.72
345.786	3.99
346.157	3.85
346.527	3.81
346.898	3.72
347.268	4.22
347.639	3.54
348.009	3.8
348.38	3.96
348.75	4.02
349.12	4.1
349.49	4.04
349.861	4.3
350.231	3.72
350.601	4.32
350.971	3.83
351.341	3.63
351.711	3.93
352.081	4.15
352.45	4.02
352.82	4.4
353.19	3.85
353.56	3.79
353.929	4.34
354.299	4.27
354.669	4.28
355.038	4.66
355.408	4.38
355.777	4.02
356.147	4.27
356.516	4.51
356.885	4.59
357.254	4.41
357.624	4.45
357.993	4.37
358.362	4.18
358.731	4.33
359.1	4.4
359.469	4.31
359.838	4.42
360.207	4.65
360.576	4.28
360.945	4.46
361.314	4.54
361.682	4.43
362.051	4.34
362.42	4.52
362.788	4.5
363.157	4.58
363.525	4.36
363.894	4.54
364.262	4.81
364.631	4.66
364.999	4.8
365.367	4.81
365.735	4.54
366.104	4.54
366.472	4.66
366.84	4.75
367.208	5.05
367.576	4.94
367.944	4.79
368.312	4.82
368.68	5.08
369.048	4.82
369.416	4.74
369.783	5.16
370.151	4.89
370.519	5.02
370.886	5.11
371.254	5.12
371.621	5.12
371.989	5.11
372.356	5.18
372.724	5.16
373.091	5.1
373.458	5.23
373.826	5.37
374.193	5.46
374.56	5.2
374.927	5.1
375.294	5.38
375.661	5.09
376.028	5.28
376.395	5.12
376.762	5.43
377.129	5.3
377.496	5.09
377.863	5.06
378.229	5.27
378.596	5.73
378.963	5.27
379.329	5.3
379.696	5.44
380.062	5.78
380.429	5.6
380.795	5.66
381.161	5.63
381.528	5.38
381.894	5.56
382.26	5.69
382.626	5.58
382.993	5.96
383.359	5.44
383.725	5.75
384.091	6.02
384.457	5.69
384.823	5.45
385.188	5.72
385.554	5.72
385.92	5.75
386.286	5.86
386.651	6.18
387.017	5.58
387.383	6.01
387.748	5.94
388.114	5.53
388.479	6.01
388.845	6.18
389.21	5.78
389.575	5.83
389.94	5.89
390.306	5.97
390.671	6.34
391.036	6.11
391.401	6.33
391.766	6.04
392.131	6.19
392.496	6.19
392.861	5.96
393.226	6.02
393.591	5.96
393.956	6.12
394.32	6.2
394.685	6.27
395.05	6.13
395.414	6.22
395.779	6.18
396.143	6.22
396.508	6.23
396.872	6.22
397.236	6.16
397.601	6.54
397.965	6.35
398.329	6.67
398.694	6.54
399.058	6.52
399.422	6.46
399.786	6.55
400.15	6.6
400.514	6.26
400.878	6.47
401.242	6.42
401.605	6.8
401.969	6.54
402.333	6.52
402.697	6.68
403.06	6.56
403.424	6.5
403.787	6.48
404.151	6.83
404.514	6.84
404.878	6.54
405.241	6.66
405.604	6.84
405.968	6.73
406.331	6.53
406.694	6.69
407.057	6.64
407.42	6.67
407.783	6.86
408.146	6.91
408.509	6.94
408.872	6.63
409.235	6.62
409.598	6.67
409.961	6.9
410.323	6.85
410.686	6.7
411.049	6.85
411.411	6.92
411.774	6.81
412.136	6.82
412.499	7.07
412.861	6.96
413.223	6.94
413.586	7.01
413.948	7.02
414.31	6.87
414.672	7.14
415.035	6.95
415.397	7.27
415.759	6.99
416.121	7.04
416.483	7.1
416.845	7.25
417.206	7.11
417.568	7.3
417.93	7.1
418.292	7.28
418.653	7.1
419.015	7.14
419.377	7.12
419.738	7
420.1	7.14
420.461	7.21
420.822	7.13
421.184	7.16
421.545	7.1
421.906	7.21
422.267	7.11
422.629	7.06
422.99	7.08
423.351	7.19
423.712	7.31
424.073	7.39
424.434	7.39
424.795	7.5
425.155	7.44
425.516	7.39
425.877	7.34
426.238	7.37
426.598	7.55
426.959	7.56
427.32	7.72
427.68	7.72
428.041	7.67
428.401	7.77
428.761	7.86
429.122	8.04
429.482	7.79
429.842	7.88
430.202	8.05
430.563	8.11
430.923	8.21
431.283	8.35
431.643	8.04
432.003	8.05
432.363	8.44
432.722	8.18
433.082	8.1
433.442	8.31
433.802	8.15
434.161	8.03
434.521	8.39
434.881	8.34
435.24	8.14
435.6	8.46
435.959	8.37
436.319	8.53
436.678	8.33
437.037	8.58
437.396	8.44
437.756	8.76
438.115	8.63
438.474	8.69
438.833	8.62
439.192	8.5
439.551	8.55
439.91	8.66
440.269	8.62
440.628	8.61
440.987	8.6
441.345	8.77
441.704	8.68
442.063	8.63
442.421	8.75
442.78	8.62
443.138	8.83
443.497	9.06
443.855	9.04
444.214	9.08
444.572	9.03
444.93	9.07
445.288	9.05
445.647	9.13
446.005	9.29
446.363	9.23
446.721	9.15
447.079	8.96
447.437	9.1
447.795	9.04
448.153	9.05
448.51	9.13
448.868	9.28
449.226	9.22
449.584	9.38
449.941	9.36
450.299	9.6
450.656	9.36
451.014	9.61
451.371	9.68
451.729	9.73
452.086	9.68
452.443	9.86
452.801	9.97
453.158	9.91
453.515	9.8
453.872	9.83
454.229	9.8
454.586	9.78
454.943	9.84
455.3	10.09
455.657	9.98
456.014	10.09
456.371	10.03
456.727	10.13
457.084	10.14
457.441	10.1
457.797	10.29
458.154	10.37
458.51	10.28
458.867	10.39
459.223	10.36
459.58	10.3
459.936	10.29
460.292	10.44
460.648	10.22
461.005	10.21
461.361	10.13
461.717	9.96
462.073	10.2
462.429	10.4
462.785	10.57
463.141	10.71
463.496	10.68
463.852	10.66
464.208	10.83
464.564	10.8
464.919	10.69
465.275	10.76
465.631	11.06
465.986	10.92
466.342	10.84
466.697	10.89
467.052	10.9
467.408	10.99
467.763	10.95
468.118	11.15
468.473	11.13
468.829	11.03
469.184	11.24
469.539	11.06
469.894	11.25
470.249	11.2
470.603	11.45
470.958	11.37
471.313	11.17
471.668	11.55
472.023	11.37
472.377	11.46
472.732	11.42
473.086	11.59
473.441	11.52
473.795	11.55
474.15	11.56
474.504	11.7
474.859	11.53
475.213	11.71
475.567	11.9
475.921	11.62
476.275	11.74
476.63	11.89
476.984	11.85
477.338	11.8
477.692	11.9
478.045	11.92
478.399	11.83
478.753	11.98
479.107	11.98
479.461	11.93
479.814	12.01
480.168	12.03
480.521	12.05
480.875	12.14
481.228	12.05
481.582	12.2
481.935	12.19
482.289	12.12
482.642	12.17
482.995	12.13
483.348	12.17
483.701	12.06
484.055	12.05
484.408	11.96
484.761	11.77
485.114	11.46
485.466	11.3
485.819	11.3
486.172	11.5
486.525	11.82
486.878	12.08
487.23	12.24
487.583	12.21
487.936	12.33
488.288	12.18
488.641	11.94
488.993	11.81
489.345	11.86
489.698	11.91
490.05	12
490.402	12.16
490.754	12.41
491.107	12.57
491.459	12.68
491.811	12.85
492.163	12.78
492.515	12.71
492.866	12.3
493.218	12.17
493.57	12.16
493.922	12.4
494.274	12.68
494.625	12.95
494.977	13.1
495.328	13.19
495.68	13.32
496.031	13.49
496.383	13.39
496.734	13.52
497.086	13.33
497.437	13.42
497.788	13.46
498.139	13.17
498.49	13.17
498.842	13.27
499.193	13.43
499.544	13.48
499.894	13.46
500.245	13.61
500.596	13.67
500.947	13.86
501.298	13.79
501.648	13.8
501.999	13.77
502.35	13.84
502.7	14
503.051	14.01
503.401	14.06
503.752	14.03
504.102	14.11
504.452	13.91
504.803	14.1
505.153	14.15
505.503	14.08
505.853	14.07
506.203	14.16
506.553	14.2
506.903	14.24
507.253	14.23
507.603	14.23
507.953	14.36
508.303	14.4
508.652	14.4
509.002	14.36
509.352	14.39
509.701	14.37
510.051	14.39
510.4	14.17
510.75	14.18
511.099	14.45
511.449	14.24
511.798	14.51
512.147	14.46
512.496	14.57
512.846	14.6
513.195	14.43
513.544	14.66
513.893	14.55
514.242	14.63
514.591	14.69
514.939	14.79
515.288	14.8
515.637	14.97
515.986	14.92
516.334	14.99
516.683	15.13
517.032	14.89
517.38	15.04
517.729	15.14
518.077	15.05
518.426	14.96
518.774	14.96
519.122	14.97
519.47	14.89
519.819	14.9
520.167	14.67
520.515	14.7
520.863	14.65
521.211	14.89
521.559	15.01
521.907	15.2
522.255	15.2
522.602	15.18
522.95	15.38
523.298	15.3
523.645	15.43
523.993	15.47
524.341	15.58
524.688	15.55
525.036	15.51
525.383	15.53
525.73	15.61
526.078	15.5
526.425	15.43
526.772	15.41
527.119	15.2
527.466	15.04
527.814	15.21
528.161	15.25
528.508	15.31
528.854	15.3
529.201	15.35
529.548	15.12
529.895	14.78
530.242	14.63
530.588	14.66
530.935	14.85
531.282	15.17
531.628	15.29
531.975	15.48
532.321	15.58
532.667	15.73
533.014	15.93
533.36	15.7
533.706	15.76
534.052	15.67
534.399	15.6
534.745	15.36
535.091	15.36
535.437	15.41
535.783	15.62
536.129	15.83
536.474	16.05
536.82	16.11
537.166	16.25
537.512	16.3
537.857	16.01
538.203	15.91
538.549	15.84
538.894	16
539.239	16.1
539.585	16.19
539.93	16.58
540.276	16.59
540.621	16.58
540.966	16.66
541.311	16.48
541.656	16.37
542.001	16.41
542.346	16.16
542.691	15.87
543.036	15.69
543.381	15.79
543.726	15.89
544.071	16.09
544.415	16.31
544.76	16.39
545.105	16.44
545.449	16.61
545.794	16.67
546.138	16.76
546.483	16.76
546.827	16.96
547.171	16.78
547.516	16.87
547.86	16.98
548.204	16.86
548.548	16.88
548.892	16.91
549.236	17.01
549.58	17
549.924	17.19
550.268	17.45
550.612	17.47
550.956	17.59
551.3	17.45
551.643	17.67
551.987	17.49
552.33	17.62
552.674	17.8
553.017	17.5
553.361	17.68
553.704	17.58
554.048	17.66
554.391	17.68
554.734	17.47
555.077	17.69
555.42	17.73
555.764	17.78
556.107	17.98
556.45	17.93
556.793	18.03
557.135	18.02
557.478	18.03
557.821	18.14
558.164	18.13
558.507	17.96
558.849	18.04
559.192	18.06
559.534	18.15
559.877	18.1
560.219	18.16
560.562	17.98
560.904	18.11
561.246	18.41
561.589	18.4
561.931	18.24
562.273	18.35
562.615	18.23
562.957	18.44
563.299	18.13
563.641	18.51
563.983	18.44
564.325	18.6
564.667	18.68
565.008	18.67
565.35	18.41
565.692	18.53
566.033	18.63
566.375	18.46
566.716	18.59
567.058	18.58
567.399	18.65
567.741	18.5
568.082	18.52
568.423	18.36
568.764	18.61
569.105	18.67
569.447	18.88
569.788	18.96
570.129	18.9
570.47	19.03
570.811	19.07
571.151	18.82
571.492	19
571.833	18.95
572.174	18.92
572.514	18.86
572.855	18.9
573.195	18.89
573.536	18.74
573.876	18.85
574.217	18.86
574.557	18.87
574.898	19.02
575.238	19.22
575.578	19.28
575.918	19.07
576.258	19.1
576.598	19.03
576.938	19.18
577.278	19.23
577.618	19.33
577.958	19.35
578.298	19.55
578.638	19.44
578.977	19.53
579.317	19.46
579.657	19.54
579.996	19.61
580.336	19.82
580.675	19.68
581.014	19.57
581.354	19.55
581.693	19.94
582.032	19.88
582.372	19.79
582.711	19.71
583.05	20.01
583.389	19.72
583.728	19.85
584.067	19.9
584.406	19.56
584.745	19.94
585.083	20.17
585.422	20.04
585.761	20.32
586.1	20.39
586.438	20.28
586.777	20.36
587.115	20.21
587.454	20.22
587.792	20.73
588.13	20.4
588.469	20.44
588.807	20.38
589.145	20.33
589.483	20.15
589.821	20.28
590.159	20.32
590.497	20.46
590.835	20.28
591.173	20.36
591.511	20.34
591.849	20.24
592.187	20.34
592.524	20.39
592.862	20.58
593.2	20.53
593.537	20.59
593.875	20.71
594.212	20.72
594.55	20.68
594.887	20.58
595.224	20.91
595.561	20.95
595.899	20.78
596.236	20.84
596.573	20.93
596.91	20.76
597.247	20.81
597.584	20.74
597.921	20.84
598.258	20.87
598.594	20.54
598.931	20.49
599.268	20.61
599.604	20.96
599.941	20.91
600.277	20.99
600.614	21.16
600.95	20.93
601.287	21.04
601.623	21.11
601.959	21.31
602.296	21.47
602.632	21.23
602.968	21.25
603.304	21.2
603.64	21.46
603.976	21.3
604.312	21.46
604.648	21.4
604.984	21.28
605.319	21.12
605.655	21.23
605.991	20.99
606.326	20.95
606.662	21.14
606.998	21.05
607.333	21.4
607.668	21.37
608.004	21.23
608.339	21.54
608.674	21.92
609.01	21.87
609.345	21.88
609.68	21.97
610.015	22.07
610.35	21.49
610.685	21.76
611.02	21.62
611.355	21.73
611.689	21.72
612.024	21.79
612.359	21.64
612.694	21.97
613.028	21.82
613.363	22.36
613.697	21.93
614.032	22.2
614.366	21.91
614.7	22.3
615.035	22.08
615.369	22.61
615.703	22.37
616.037	22.4
616.371	22.24
616.705	22.41
617.039	22.78
617.373	22.44
617.707	22.54
618.041	22.33
618.375	22.36
618.709	22.83
619.042	22.58
619.376	22.32
619.71	22.35
620.043	22.5
620.377	22.52
620.71	22.69
621.043	22.82
621.377	22.64
621.71	23.16
622.043	23.07
622.376	22.81
622.709	23.19
623.043	22.64
623.376	22.79
623.709	22.71
624.041	22.9
624.374	23.11
624.707	22.87
625.04	23.03
625.373	22.96
625.705	22.79
626.038	22.89
626.37	22.83
626.703	23.12
627.035	23.31
627.368	22.87
627.7	23.16
628.032	22.82
628.365	22.86
628.697	22.72
629.029	22.91
629.361	23.22
629.693	23.08
630.025	22.83
630.357	23.2
630.689	23.01
631.021	23.32
631.353	23.1
631.684	22.89
632.016	23.36
632.348	23.53
632.679	23.85
633.011	23.15
633.342	23.8
633.674	23.64
634.005	23.76
634.336	23.21
634.668	23.76
634.999	23.5
635.33	23.44
635.661	23.58
635.992	23.31
636.323	23.55
636.654	23.73
636.985	23.6
637.316	23.86
637.647	23.86
637.977	23.96
638.308	23.65
638.639	23.63
638.969	23.56
639.3	23.6
639.63	24.38
639.961	24.06
640.291	23.65
640.622	24.25
640.952	24.23
641.282	24.24
641.612	24.03
641.943	24.02
642.273	23.77
642.603	24.05
642.933	24.27
643.263	24.16
643.592	23.98
643.922	24.11
644.252	24.2
644.582	24.68
644.911	24.39
645.241	24.46
645.571	24.42
645.9	24.61
646.23	24.49
646.559	24.02
646.888	24.48
647.218	24.64
647.547	24.43
647.876	24.14
648.205	23.96
648.534	24.7
648.863	24.34
649.192	24.5
649.521	24.33
649.85	24.72
650.179	24.83
650.508	24.36
650.837	24.23
651.165	24.88
651.494	24.88
651.822	24.72
652.151	24.79
652.479	24.83
652.808	24.52
653.136	25.14
653.465	24.62
653.793	24.7
654.121	24.73
654.449	24.9
654.777	24.76
655.105	24.92
655.433	25.18
655.761	24.76
656.089	24.7
656.417	25.4
656.745	24.76
657.073	25.07
657.4	24.62
657.728	24.6
658.056	24.55
658.383	25.46
658.711	24.84
659.038	25.45
659.365	24.92
659.693	24.54
660.02	24.76
660.347	25.53
660.674	24.89
661.001	25.08
661.329	25.02
661.656	25.23
661.982	24.83
662.309	25.5
662.636	25.46
662.963	25.46
663.29	25.74
663.616	25.07
663.943	25.61
664.27	25.33
664.596	25
664.923	25.5
665.249	25.69
665.576	25.84
665.902	25.85
666.228	26.1
666.554	25.47
666.881	25.99
667.207	25.66
667.533	26.44
667.859	25.43
668.185	26.18
668.511	25.58
668.837	25.93
669.162	25.77
669.488	25.76
669.814	26.11
670.139	26.02
670.465	25.97
670.791	26.04
671.116	25.89
671.442	25.52
671.767	25.8
672.092	25.93
672.418	25.92
672.743	25.22
673.068	26.3
673.393	25.77
673.718	25.8
674.043	25.91
674.368	25.68
674.693	26.01
675.018	25.79
675.343	26.85
675.667	26.16
675.992	26.31
676.317	26.19
676.641	25.89
676.966	26.3
677.29	26.57
677.615	25.43
