Data from 97282_forehead_Reflection__2__98.txt Node

Date: Fri Sep 23 20:27:49 CDT 2022
User: ToomeyLab
Spectrometer: FLMS14357
Trigger mode: 0
Integration Time (sec): 1.000000E-2
Scans to average: 100
Electric dark correction enabled: true
Nonlinearity correction enabled: false
Boxcar width: 0
XAxis mode: Wavelengths
Number of Pixels in Spectrum: 2048
>>>>>Begin Spectral Data<<<<<
189.047	-44.16
189.435	-44.16
189.823	-44.16
190.211	83.62
190.599	76.75
190.987	5.27
191.375	671.11
191.763	108.84
192.151	-5.62
192.538	-114.26
192.926	138.49
193.314	93.44
193.702	175.51
194.089	-75.39
194.477	95.64
194.864	-146.41
195.252	166.39
195.639	104.4
196.027	114.81
196.414	28760
196.801	8.38
197.189	1089.41
197.576	-1872.73
197.963	77.23
198.351	17.37
198.738	9.86
199.125	25.15
199.512	24.57
199.899	56.64
200.286	2.25
200.673	46.04
201.06	57.44
201.447	69.09
201.833	53.06
202.22	41.94
202.607	9.09
202.994	46.37
203.38	-4.16
203.767	12.79
204.154	39.3
204.54	27.69
204.927	49.77
205.313	33.22
205.699	24.87
206.086	-3.34
206.472	71.59
206.858	19.04
207.245	24.39
207.631	13.41
208.017	8.19
208.403	27.13
208.789	46.85
209.175	34.01
209.561	39.7
209.947	26.72
210.333	63.52
210.719	-6.95
211.105	28.92
211.491	17
211.876	32.95
212.262	25.59
212.648	-11.5
213.034	19.54
213.419	29.93
213.805	40.63
214.19	13.62
214.576	33.81
214.961	27.88
215.346	2.59
215.732	29.79
216.117	28.3
216.502	19.54
216.888	33.88
217.273	37.99
217.658	-3.47
218.043	28.56
218.428	-6.22
218.813	13.41
219.198	12.83
219.583	21.47
219.968	40.88
220.353	6.29
220.738	25.35
221.122	41.43
221.507	8.92
221.892	14.37
222.276	15.81
222.661	-3.87
223.046	14.51
223.43	9.64
223.815	11.39
224.199	16.42
224.583	16.04
224.968	4.29
225.352	9.86
225.736	6.52
226.121	15.43
226.505	8.26
226.889	4.62
227.273	6.95
227.657	9.35
228.041	4.31
228.425	7.53
228.809	3.13
229.193	6.16
229.577	6.53
229.961	4.16
230.344	3.34
230.728	2.92
231.112	3.02
231.495	3.26
231.879	1.97
232.263	4.54
232.646	4.47
233.03	4.73
233.413	4.93
233.797	5.32
234.18	7.77
234.563	2.63
234.946	6.94
235.33	2.8
235.713	6.13
236.096	1.14
236.479	3.59
236.862	4.25
237.245	5.7
237.628	4.57
238.011	5.48
238.394	3.18
238.777	3.48
239.16	5.78
239.543	4.47
239.925	5.17
240.308	5.83
240.691	4.31
241.073	4.79
241.456	4.07
241.838	4.95
242.221	4.57
242.603	4.66
242.986	3.37
243.368	3.56
243.75	3.86
244.133	3.83
244.515	3.65
244.897	3.66
245.279	4.26
245.661	4.51
246.043	4.78
246.425	3.93
246.807	4.06
247.189	5.04
247.571	4.3
247.953	3.79
248.335	4.06
248.717	3.84
249.098	3.76
249.48	3.77
249.862	4.04
250.243	4.1
250.625	3.76
251.006	4.44
251.388	4.89
251.769	4.58
252.151	3.6
252.532	5.54
252.913	4.59
253.295	4.16
253.676	5
254.057	3.79
254.438	3.95
254.819	4.24
255.2	3.95
255.581	5.59
255.962	3.59
256.343	4.99
256.724	4.58
257.105	4.53
257.486	4.21
257.867	4.33
258.247	5.47
258.628	4.21
259.009	3.86
259.389	4.48
259.77	3.97
260.15	4.36
260.531	3.94
260.911	3.64
261.292	3.87
261.672	3.71
262.052	3.71
262.432	3.68
262.813	4.27
263.193	4.09
263.573	3.82
263.953	3.87
264.333	4.06
264.713	4.35
265.093	3.98
265.473	4.42
265.853	3.22
266.233	4.01
266.612	4.95
266.992	5.05
267.372	4.46
267.752	3.92
268.131	4.21
268.511	3.76
268.89	4.13
269.27	3.36
269.649	3.94
270.029	4.04
270.408	4.12
270.787	3.68
271.167	3.77
271.546	3.71
271.925	3.48
272.304	3.76
272.683	3.56
273.062	3.53
273.441	3.86
273.82	3.78
274.199	3.67
274.578	3.28
274.957	3.7
275.336	3.52
275.715	3.94
276.093	4.69
276.472	4.36
276.851	4.24
277.229	3.76
277.608	3.93
277.986	3.4
278.365	3.88
278.743	3.9
279.122	3.85
279.5	4.01
279.878	3.16
280.257	3.76
280.635	3.78
281.013	3.51
281.391	3.58
281.769	3.62
282.147	3.9
282.525	3.78
282.903	3.44
283.281	3.8
283.659	3.55
284.037	3.66
284.415	3.7
284.792	3.47
285.17	3.38
285.548	2.79
285.925	3.78
286.303	4.02
286.68	3.91
287.058	3.81
287.435	3.48
287.813	3.76
288.19	3.69
288.567	3.91
288.945	3.73
289.322	3.47
289.699	4.22
290.076	3.63
290.453	3.69
290.83	4.33
291.207	3.9
291.584	3.76
291.961	4.02
292.338	4.25
292.715	3.8
293.092	3.84
293.469	4.16
293.845	4.19
294.222	4.41
294.599	4.01
294.975	4.32
295.352	4.06
295.728	4.43
296.105	4.68
296.481	4.45
296.858	4.61
297.234	4.17
297.61	3.67
297.986	4.17
298.363	4.63
298.739	4.9
299.115	4.63
299.491	4.49
299.867	4.42
300.243	4.64
300.619	5.2
300.995	5.08
301.371	4.23
301.746	5.73
302.122	4.68
302.498	5.36
302.874	4.5
303.249	5.39
303.625	4.85
304	5.79
304.376	5.47
304.751	5.86
305.127	5.72
305.502	5.7
305.878	5.85
306.253	5.67
306.628	5.43
307.003	5.35
307.378	6.16
307.754	6.34
308.129	5.92
308.504	6.41
308.879	6.41
309.254	6.36
309.629	6.57
310.003	6.65
310.378	6.22
310.753	6.24
311.128	6.63
311.502	6.5
311.877	6.6
312.252	6.81
312.626	6.66
313.001	6.88
313.375	6.97
313.75	6.67
314.124	6.91
314.498	7.53
314.873	7.65
315.247	7.86
315.621	7.99
315.995	7.86
316.369	7.71
316.743	7.85
317.117	7.42
317.491	8.08
317.865	8.11
318.239	8.61
318.613	7.82
318.987	8.02
319.361	8.21
319.734	8.5
320.108	8.49
320.482	8.72
320.855	8.96
321.229	9.4
321.602	8.93
321.976	9.48
322.349	9.43
322.723	9.72
323.096	9.79
323.469	9.44
323.843	9.43
324.216	10.22
324.589	10.04
324.962	9.94
325.335	9.95
325.708	9.93
326.081	9.89
326.454	10.18
326.827	10.01
327.2	9.68
327.573	10.18
327.945	10.45
328.318	10.16
328.691	10.71
329.063	10.98
329.436	11
329.809	11.84
330.181	10.87
330.553	10.25
330.926	11.16
331.298	11.47
331.671	11.36
332.043	11.52
332.415	11.4
332.787	10.55
333.159	11.04
333.532	11.56
333.904	11.12
334.276	10.67
334.648	11.42
335.02	11.87
335.391	11.67
335.763	11.62
336.135	12.3
336.507	12
336.879	12.02
337.25	12.12
337.622	12.33
337.993	12.44
338.365	12.13
338.736	12.24
339.108	13.12
339.479	12.27
339.851	13.11
340.222	13.11
340.593	12.5
340.964	13.13
341.336	12.53
341.707	13.3
342.078	13.25
342.449	13.26
342.82	13.39
343.191	13.54
343.562	13.5
343.933	13.78
344.303	13.24
344.674	13.81
345.045	13.69
345.416	13.46
345.786	14.26
346.157	13.84
346.527	13.91
346.898	13.98
347.268	14.07
347.639	14.01
348.009	13.8
348.38	13.99
348.75	14.27
349.12	14.24
349.49	14.51
349.861	14.42
350.231	14.33
350.601	14.65
350.971	15
351.341	14.43
351.711	14.9
352.081	14.7
352.45	14.88
352.82	14.54
353.19	15
353.56	15.6
353.929	15.12
354.299	15.19
354.669	15.1
355.038	15.73
355.408	15.2
355.777	15.46
356.147	15.64
356.516	15.92
356.885	15.61
357.254	15.56
357.624	15.59
357.993	16.1
358.362	15.86
358.731	15.93
359.1	15.83
359.469	15.88
359.838	16.07
360.207	16.26
360.576	16.22
360.945	16.09
361.314	16.12
361.682	16.18
362.051	16.46
362.42	16.83
362.788	16.46
363.157	16.5
363.525	16.62
363.894	16.66
364.262	16.63
364.631	16.87
364.999	16.95
365.367	16.85
365.735	17.19
366.104	17.37
366.472	17.37
366.84	17.28
367.208	17.43
367.576	17.53
367.944	17.48
368.312	17.7
368.68	17.61
369.048	17.75
369.416	17.52
369.783	17.96
370.151	17.91
370.519	17.47
370.886	17.89
371.254	18.48
371.621	18.2
371.989	18.3
372.356	18.59
372.724	18.07
373.091	18.14
373.458	18.08
373.826	18.36
374.193	18.57
374.56	18.78
374.927	19.04
375.294	19.39
375.661	19.08
376.028	18.99
376.395	19.14
376.762	18.77
377.129	18.81
377.496	19.37
377.863	19.27
378.229	19.35
378.596	19
378.963	19.46
379.329	19.5
379.696	19.44
380.062	19.49
380.429	19.69
380.795	19.62
381.161	19.88
381.528	19.97
381.894	19.88
382.26	19.72
382.626	19.96
382.993	20.22
383.359	20.18
383.725	20.53
384.091	20.55
384.457	20.69
384.823	20.41
385.188	20.74
385.554	20.56
385.92	20.96
386.286	20.88
386.651	20.7
387.017	20.92
387.383	21.14
387.748	20.96
388.114	21.07
388.479	21.12
388.845	21.47
389.21	20.96
389.575	21.21
389.94	21.23
390.306	21.4
390.671	21.39
391.036	21.77
391.401	21.76
391.766	22.12
392.131	21.56
392.496	21.69
392.861	21.55
393.226	21.68
393.591	22.01
393.956	22.08
394.32	22.06
394.685	22.12
395.05	22.23
395.414	22.05
395.779	22.29
396.143	22.1
396.508	22.49
396.872	22.55
397.236	22.59
397.601	22.85
397.965	22.8
398.329	22.96
398.694	22.52
399.058	22.84
399.422	23.05
399.786	23.05
400.15	22.84
400.514	22.93
400.878	22.99
401.242	23.22
401.605	23.47
401.969	23.37
402.333	23.58
402.697	23.48
403.06	23.56
403.424	23.67
403.787	23.79
404.151	23.86
404.514	23.98
404.878	23.69
405.241	23.85
405.604	23.72
405.968	23.79
406.331	23.66
406.694	24.03
407.057	24.05
407.42	24.12
407.783	24.32
408.146	24.4
408.509	24.19
408.872	24.34
409.235	24.69
409.598	24.52
409.961	24.49
410.323	24.53
410.686	24.7
411.049	24.66
411.411	24.78
411.774	25.02
412.136	24.83
412.499	25.11
412.861	24.82
413.223	25.19
413.586	25.13
413.948	25.35
414.31	25.29
414.672	25.56
415.035	25.44
415.397	25.72
415.759	25.79
416.121	25.75
416.483	25.75
416.845	25.7
417.206	25.7
417.568	25.7
417.93	25.59
418.292	25.95
418.653	25.85
419.015	25.72
419.377	25.8
419.738	25.93
420.1	25.92
420.461	25.87
420.822	26.15
421.184	26.01
421.545	25.93
421.906	25.97
422.267	25.96
422.629	25.97
422.99	25.88
423.351	25.97
423.712	25.95
424.073	26.24
424.434	26.26
424.795	26.52
425.155	26.58
425.516	26.37
425.877	26.35
426.238	26.59
426.598	26.6
426.959	26.69
427.32	26.8
427.68	26.95
428.041	27.1
428.401	27.25
428.761	27.11
429.122	27.25
429.482	27.38
429.842	27.72
430.202	27.75
430.563	27.8
430.923	27.82
431.283	28.04
431.643	27.84
432.003	27.94
432.363	27.83
432.722	28.09
433.082	27.89
433.442	28.02
433.802	27.95
434.161	28.07
434.521	28.28
434.881	28.18
435.24	28.19
435.6	28.44
435.959	28.26
436.319	28.38
436.678	28.34
437.037	28.66
437.396	28.81
437.756	28.48
438.115	28.46
438.474	28.82
438.833	28.84
439.192	28.82
439.551	29.02
439.91	28.94
440.269	28.9
440.628	28.72
440.987	28.76
441.345	28.86
441.704	28.85
442.063	29.04
442.421	28.88
442.78	28.98
443.138	29.04
443.497	29.22
443.855	29.35
444.214	29.54
444.572	29.42
444.93	29.43
445.288	29.78
445.647	29.78
446.005	29.76
446.363	29.74
446.721	29.48
447.079	29.7
447.437	29.67
447.795	29.64
448.153	29.5
448.51	29.6
448.868	29.69
449.226	29.98
449.584	29.91
449.941	30.24
450.299	30.31
450.656	30.28
451.014	30.5
451.371	30.44
451.729	30.44
452.086	30.77
452.443	30.79
452.801	30.82
453.158	30.96
453.515	31
453.872	30.97
454.229	30.94
454.586	30.98
454.943	30.96
455.3	31.16
455.657	31.22
456.014	31.4
456.371	31.3
456.727	31.31
457.084	31.39
457.441	31.67
457.797	31.37
458.154	31.71
458.51	31.43
458.867	32.02
459.223	31.82
459.58	31.69
459.936	31.87
460.292	31.56
460.648	31.76
461.005	31.69
461.361	31.57
461.717	31.46
462.073	31.53
462.429	31.6
462.785	32.04
463.141	32.05
463.496	32.3
463.852	32.45
464.208	32.6
464.564	32.46
464.919	32.76
465.275	32.98
465.631	32.95
465.986	32.74
466.342	32.76
466.697	33.05
467.052	32.99
467.408	32.92
467.763	33.27
468.118	33.11
468.473	33.22
468.829	33.04
469.184	33.36
469.539	33.12
469.894	33.26
470.249	33.53
470.603	33.34
470.958	33.57
471.313	33.53
471.668	33.63
472.023	33.58
472.377	33.87
472.732	33.85
473.086	33.67
473.441	34.24
473.795	33.87
474.15	34.09
474.504	34.02
474.859	33.96
475.213	34.37
475.567	33.98
475.921	34.36
476.275	34.24
476.63	34.21
476.984	34.77
477.338	34.44
477.692	34.49
478.045	34.45
478.399	34.71
478.753	34.54
479.107	34.4
479.461	34.64
479.814	34.59
480.168	34.68
480.521	34.7
480.875	34.9
481.228	34.81
481.582	34.86
481.935	34.86
482.289	35.05
482.642	35.11
482.995	35.15
483.348	34.74
483.701	34.79
484.055	34.73
484.408	34.59
484.761	34.57
485.114	34.13
485.466	34.01
485.819	34.11
486.172	34.27
486.525	34.4
486.878	34.52
487.23	34.57
487.583	34.81
487.936	34.84
488.288	35.05
488.641	34.76
488.993	34.77
489.345	34.73
489.698	34.75
490.05	34.86
490.402	34.88
490.754	35.18
491.107	35.29
491.459	35.54
491.811	35.58
492.163	35.97
492.515	35.82
492.866	35.55
493.218	35.21
493.57	35.32
493.922	35.38
494.274	35.73
494.625	35.91
494.977	36.12
495.328	36.46
495.68	36.38
496.031	36.57
496.383	36.93
496.734	36.75
497.086	37.2
497.437	37.11
497.788	37.08
498.139	37.11
498.49	36.84
498.842	37.07
499.193	36.77
499.544	37.03
499.894	37.03
500.245	37.19
500.596	37.07
500.947	37.48
501.298	37.36
501.648	37.81
501.999	37.81
502.35	37.82
502.7	38.06
503.051	37.88
503.401	38.06
503.752	37.92
504.102	38.18
504.452	38.01
504.803	38.3
505.153	38.28
505.503	38.15
505.853	38.2
506.203	38.18
506.553	38.23
506.903	38.27
507.253	38.56
507.603	38.39
507.953	38.41
508.303	38.51
508.652	38.6
509.002	38.98
509.352	38.75
509.701	38.77
510.051	38.74
510.4	38.72
510.75	38.51
511.099	38.53
511.449	38.62
511.798	38.73
512.147	38.95
512.496	39.06
512.846	39.03
513.195	39.08
513.544	39.26
513.893	39.22
514.242	39.03
514.591	39.19
514.939	39.3
515.288	39.37
515.637	39.52
515.986	39.63
516.334	39.64
516.683	39.68
517.032	39.73
517.38	39.77
517.729	39.91
518.077	39.85
518.426	40.16
518.774	39.89
519.122	39.9
519.47	39.73
519.819	39.75
520.167	39.44
520.515	39.71
520.863	39.74
521.211	39.61
521.559	39.95
521.907	40.11
522.255	39.94
522.602	40.26
522.95	40.41
523.298	40.57
523.645	40.54
523.993	40.6
524.341	40.7
524.688	40.75
525.036	40.83
525.383	40.61
525.73	40.76
526.078	41.04
526.425	40.88
526.772	40.84
527.119	40.69
527.466	40.62
527.814	40.59
528.161	40.63
528.508	40.9
528.854	40.81
529.201	40.87
529.548	40.73
529.895	40.4
530.242	40.19
530.588	40.45
530.935	40.55
531.282	40.61
531.628	40.48
531.975	40.71
532.321	40.9
532.667	41.15
533.014	41.28
533.36	41.46
533.706	41.5
534.052	41.49
534.399	41.44
534.745	41.16
535.091	41.24
535.437	41.07
535.783	41.24
536.129	41.37
536.474	41.73
536.82	41.9
537.166	42.03
537.512	42.09
537.857	41.96
538.203	41.94
538.549	41.98
538.894	42.04
539.239	42.14
539.585	42.32
539.93	42.18
540.276	42.7
540.621	42.74
540.966	42.88
541.311	42.95
541.656	42.78
542.001	42.93
542.346	42.61
542.691	42.39
543.036	42.12
543.381	42.2
543.726	42.29
544.071	42.33
544.415	42.47
544.76	42.53
545.105	42.86
545.449	42.92
545.794	42.83
546.138	43.06
546.483	43.18
546.827	43.35
547.171	43.39
547.516	43.57
547.86	43.61
548.204	43.56
548.548	43.33
548.892	43.41
549.236	43.74
549.58	43.7
549.924	43.7
550.268	44.16
550.612	43.92
550.956	44.56
551.3	44.2
551.643	44.42
551.987	44.59
552.33	44.53
552.674	44.62
553.017	44.71
553.361	44.82
553.704	44.84
554.048	44.82
554.391	44.84
554.734	44.82
555.077	44.87
555.42	44.83
555.764	44.86
556.107	45.12
556.45	45.19
556.793	45.18
557.135	45.45
557.478	45.3
557.821	45.37
558.164	45.45
558.507	45.63
558.849	45.62
559.192	45.74
559.534	45.62
559.877	45.67
560.219	45.63
560.562	45.72
560.904	45.81
561.246	45.96
561.589	45.86
561.931	45.98
562.273	46.37
562.615	46.17
562.957	45.99
563.299	46.06
563.641	46.16
563.983	46.09
564.325	46.23
564.667	46.4
565.008	46.5
565.35	46.49
565.692	46.63
566.033	46.64
566.375	46.29
566.716	46.51
567.058	46.24
567.399	46.32
567.741	46.23
568.082	46.2
568.423	46.32
568.764	46.54
569.105	46.5
569.447	46.57
569.788	46.46
570.129	47.03
570.47	46.98
570.811	47.04
571.151	47.04
571.492	46.94
571.833	47.13
572.174	46.93
572.514	47.28
572.855	47.08
573.195	47.04
573.536	47.3
573.876	47.19
574.217	46.96
574.557	46.94
574.898	47.27
575.238	47.44
575.578	47.21
575.918	47.27
576.258	47.43
576.598	47.72
576.938	47.78
577.278	47.6
577.618	47.55
577.958	47.91
578.298	47.89
578.638	47.89
578.977	47.9
579.317	48
579.657	47.97
579.996	47.92
580.336	48.04
580.675	48.2
581.014	48.52
581.354	48.57
581.693	48.53
582.032	48.64
582.372	48.78
582.711	48.49
583.05	48.38
583.389	48.96
583.728	48.67
584.067	48.58
584.406	48.75
584.745	49.07
585.083	48.86
585.422	48.78
585.761	49.24
586.1	49.09
586.438	48.69
586.777	49.36
587.115	48.83
587.454	48.97
587.792	49.21
588.13	49.07
588.469	49.31
588.807	49.7
589.145	49.21
589.483	49.24
589.821	49.5
590.159	49.25
590.497	49.6
590.835	49.52
591.173	49.58
591.511	49.84
591.849	49.94
592.187	49.76
592.524	50.04
592.862	49.86
593.2	49.88
593.537	49.87
593.875	49.69
594.212	49.79
594.55	49.97
594.887	50.42
595.224	50.02
595.561	50.4
595.899	50.05
596.236	50.19
596.573	50.13
596.91	50.33
597.247	50.26
597.584	50.51
597.921	50.32
598.258	50.08
598.594	50.29
598.931	50.02
599.268	49.96
599.604	50.27
599.941	50.49
600.277	50.35
600.614	50.54
600.95	50.78
601.287	50.74
601.623	50.59
601.959	50.67
602.296	50.71
602.632	51.17
602.968	51.09
603.304	51.38
603.64	51.13
603.976	51
604.312	50.96
604.648	50.95
604.984	50.97
605.319	51.13
605.655	50.72
605.991	50.8
606.326	50.78
606.662	50.8
606.998	51.14
607.333	50.85
607.668	50.94
608.004	51.06
608.339	50.92
608.674	51.35
609.01	51.6
609.345	51.73
609.68	51.29
610.015	51.7
610.35	51.6
610.685	51.83
611.02	51.97
611.355	51.44
611.689	51.31
612.024	51.63
612.359	51.54
612.694	51.87
613.028	51.76
613.363	52.29
613.697	52.33
614.032	51.94
614.366	52.04
614.7	51.92
615.035	51.84
615.369	52.83
615.703	52.14
616.037	52.23
616.371	52.67
616.705	52.4
617.039	52.43
617.373	52.61
617.707	52.96
618.041	52.75
618.375	52.86
618.709	52.85
619.042	52.59
619.376	52.83
619.71	53.04
620.043	52.63
620.377	52.49
620.71	52.87
621.043	52.78
621.377	52.63
621.71	53.45
622.043	53.38
622.376	53.24
622.709	53.13
623.043	53.07
623.376	53.45
623.709	53.03
624.041	53.31
624.374	53.66
624.707	53.31
625.04	53.89
625.373	53.52
625.705	53.33
626.038	53.63
626.37	53.49
626.703	53.75
627.035	53.92
627.368	53.95
627.7	53.76
628.032	53.38
628.365	53.54
628.697	53.48
629.029	53.66
629.361	53.8
629.693	53.65
630.025	53.64
630.357	54
630.689	53.81
631.021	53.96
631.353	54.13
631.684	53.92
632.016	54.13
632.348	54.38
632.679	54.67
633.011	54.24
633.342	54.36
633.674	54.59
634.005	54.58
634.336	54.65
634.668	54.28
634.999	54.75
635.33	54.52
635.661	54.5
635.992	54.77
636.323	54.13
636.654	54.62
636.985	54.48
637.316	54.45
637.647	54.69
637.977	55.36
638.308	54.54
638.639	54.37
638.969	54.72
639.3	54.69
639.63	54.61
639.961	55.3
640.291	55.45
640.622	55.35
640.952	54.7
641.282	54.7
641.612	54.77
641.943	55.79
642.273	55.44
642.603	55.77
642.933	55.48
643.263	55.12
643.592	55.14
643.922	55.84
644.252	55.53
644.582	55.07
644.911	55.06
645.241	55.56
645.571	55.43
645.9	55.22
646.23	55.96
646.559	55.81
646.888	55.39
647.218	56.05
647.547	55.64
647.876	55.64
648.205	55.83
648.534	56
648.863	56.11
649.192	55.75
649.521	56.08
649.85	56.01
650.179	55.9
650.508	55.86
650.837	56.27
651.165	55.28
651.494	55.74
651.822	56
652.151	56
652.479	56.13
652.808	56.23
653.136	56.59
653.465	56.12
653.793	56.25
654.121	56.4
654.449	56.9
654.777	56.27
655.105	56.76
655.433	56.81
655.761	56.62
656.089	55.94
656.417	56.22
656.745	56.76
657.073	56.72
657.4	56.68
657.728	56.47
658.056	56.43
658.383	56.66
658.711	56.72
659.038	57.06
659.365	56.66
659.693	56.91
660.02	56.86
660.347	56.81
660.674	57.27
661.001	56.8
661.329	56.48
661.656	56.94
661.982	56.97
662.309	56.97
662.636	56.59
662.963	56.97
663.29	57.16
663.616	57.06
663.943	57.1
664.27	57.06
664.596	57.36
664.923	57.43
665.249	57.28
665.576	57.46
665.902	57.17
666.228	57.41
666.554	57.13
666.881	57.55
667.207	57.49
667.533	57.62
667.859	57.44
668.185	57.69
668.511	57.7
668.837	57.61
669.162	56.9
669.488	58.03
669.814	57.88
670.139	57.72
