Data from 97282_forehead_Reflection__0__96.txt Node

Date: Fri Sep 23 20:27:26 CDT 2022
User: ToomeyLab
Spectrometer: FLMS14357
Trigger mode: 0
Integration Time (sec): 1.000000E-2
Scans to average: 100
Electric dark correction enabled: true
Nonlinearity correction enabled: false
Boxcar width: 0
XAxis mode: Wavelengths
Number of Pixels in Spectrum: 2048
>>>>>Begin Spectral Data<<<<<
189.047	-364.38
189.435	-364.38
189.823	-364.38
190.211	117.68
190.599	-3.78
190.987	-46.65
191.375	342.72
191.763	103.89
192.151	37.2
192.538	-158.24
192.926	124.23
193.314	-21.28
193.702	116.91
194.089	11.06
194.477	62.94
194.864	-168.01
195.252	-10.92
195.639	-19.59
196.027	181.82
196.414	35120
196.801	96.98
197.189	-2941.18
197.576	-574.55
197.963	4067.33
198.351	45.61
198.738	15.11
199.125	40.38
199.512	47.91
199.899	1.82
200.286	55.29
200.673	22.07
201.06	29.1
201.447	45.17
201.833	25.37
202.22	10.11
202.607	29.84
202.994	1.97
203.38	-27.97
203.767	-12.74
204.154	42.72
204.54	46.03
204.927	16
205.313	9.5
205.699	-33.58
206.086	12.62
206.472	25.9
206.858	27.03
207.245	-1.55
207.631	5.03
208.017	29.4
208.403	31.79
208.789	32.09
209.175	32.99
209.561	32.69
209.947	51.47
210.333	70.58
210.719	20.8
211.105	2.88
211.491	28.54
211.876	41.99
212.262	8.03
212.648	-17.49
213.034	-28.59
213.419	14.48
213.805	24.33
214.19	20.25
214.576	30.31
214.961	25.17
215.346	14.01
215.732	24.02
216.117	-1.27
216.502	-8.77
216.888	12.48
217.273	8.4
217.658	1.01
218.043	29.01
218.428	11.65
218.813	32.97
219.198	-0.92
219.583	17.16
219.968	12.21
220.353	5.78
220.738	27.21
221.122	6.44
221.507	17.59
221.892	19.63
222.276	5.06
222.661	16.04
223.046	9.78
223.43	4.83
223.815	6.64
224.199	5.04
224.583	13.82
224.968	11.52
225.352	8.2
225.736	3.24
226.121	11.05
226.505	5.12
226.889	7.82
227.273	2.19
227.657	3.23
228.041	9.14
228.425	8.53
228.809	1.17
229.193	3.15
229.577	4.49
229.961	2.6
230.344	2.82
230.728	1.54
231.112	1.59
231.495	1.45
231.879	-0.1
232.263	2.39
232.646	3.11
233.03	3.54
233.413	3.1
233.797	2.18
234.18	4.17
234.563	3.83
234.946	5.93
235.33	1.3
235.713	2.94
236.096	0.84
236.479	1.92
236.862	2.87
237.245	3.57
237.628	3.46
238.011	4.36
238.394	1.28
238.777	2.71
239.16	2.53
239.543	4.27
239.925	2.21
240.308	3.36
240.691	4.51
241.073	1.1
241.456	2.16
241.838	3.63
242.221	2.78
242.603	3.58
242.986	2.24
243.368	2.68
243.75	2.35
244.133	2.56
244.515	2.34
244.897	2.94
245.279	3.5
245.661	3.22
246.043	3.53
246.425	3.59
246.807	1.97
247.189	2.96
247.571	2.71
247.953	2.93
248.335	2.66
248.717	2.86
249.098	2.72
249.48	2.62
249.862	2.84
250.243	2.67
250.625	3.22
251.006	3.38
251.388	2.81
251.769	2.56
252.151	2
252.532	3.27
252.913	3.85
253.295	3.21
253.676	3.1
254.057	3.05
254.438	2.94
254.819	3.5
255.2	2.67
255.581	4.29
255.962	3.31
256.343	3.54
256.724	2.81
257.105	3.08
257.486	2.5
257.867	4.28
258.247	3.48
258.628	2.35
259.009	2.62
259.389	3.21
259.77	1.93
260.15	3.09
260.531	2.5
260.911	2.88
261.292	2.92
261.672	2.63
262.052	2.66
262.432	2.55
262.813	2.89
263.193	2.63
263.573	3.16
263.953	2.93
264.333	2.92
264.713	3.38
265.093	2.94
265.473	3.12
265.853	2.39
266.233	2.92
266.612	2.86
266.992	3.39
267.372	2.57
267.752	2.61
268.131	3.08
268.511	2.91
268.89	2.6
269.27	2.89
269.649	2.49
270.029	2.68
270.408	3.41
270.787	2.77
271.167	2.43
271.546	2.83
271.925	2.16
272.304	2.49
272.683	2.39
273.062	2.4
273.441	2.67
273.82	2.31
274.199	2.26
274.578	2.46
274.957	2.78
275.336	2.7
275.715	2.51
276.093	2.95
276.472	3.12
276.851	2.92
277.229	2.02
277.608	2.12
277.986	2.81
278.365	2.83
278.743	3.07
279.122	2.21
279.5	2.65
279.878	2.36
280.257	2.46
280.635	2.43
281.013	2.03
281.391	2.64
281.769	2.31
282.147	2.52
282.525	2.21
282.903	2.35
283.281	2.37
283.659	2.15
284.037	2.79
284.415	2.54
284.792	2.5
285.17	2.14
285.548	2.43
285.925	2.47
286.303	3.25
286.68	2.74
287.058	2.74
287.435	2.43
287.813	2.82
288.19	2.8
288.567	2.84
288.945	2.81
289.322	3.04
289.699	2.64
290.076	2.42
290.453	3
290.83	2.75
291.207	2.78
291.584	3.42
291.961	2.76
292.338	2.87
292.715	2.8
293.092	2.81
293.469	3.09
293.845	3.48
294.222	3.2
294.599	2.73
294.975	3.41
295.352	3.03
295.728	3.36
296.105	3.15
296.481	3.38
296.858	3.27
297.234	3.03
297.61	2.76
297.986	3.44
298.363	3.26
298.739	3.25
299.115	3.29
299.491	3.21
299.867	3.29
300.243	3.8
300.619	3.98
300.995	3.69
301.371	3.33
301.746	4.03
302.122	3.75
302.498	4.04
302.874	3.72
303.249	3.74
303.625	3.68
304	3.94
304.376	4.02
304.751	3.75
305.127	4.23
305.502	4.03
305.878	4.06
306.253	4.48
306.628	3.9
307.003	4.01
307.378	4.61
307.754	5.39
308.129	4.1
308.504	4.82
308.879	4.75
309.254	4.64
309.629	4.93
310.003	5.01
310.378	5.06
310.753	4.85
311.128	4.88
311.502	4.97
311.877	4.91
312.252	5.04
312.626	5.13
313.001	5.19
313.375	5.18
313.75	4.92
314.124	5.39
314.498	5.86
314.873	5.39
315.247	6.02
315.621	5.75
315.995	6.16
316.369	5.61
316.743	5.37
317.117	5.23
317.491	5.63
317.865	6.63
318.239	6.9
318.613	5.84
318.987	5.99
319.361	6.21
319.734	6.48
320.108	5.91
320.482	6.99
320.855	6.03
321.229	7.16
321.602	6.39
321.976	7.32
322.349	7.02
322.723	7.96
323.096	7.38
323.469	7.14
323.843	6.99
324.216	7.53
324.589	7.28
324.962	7.6
325.335	6.83
325.708	7.42
326.081	7.4
326.454	7.54
326.827	7.36
327.2	7.39
327.573	7.77
327.945	8.01
328.318	7.35
328.691	7.95
329.063	8.22
329.436	7.93
329.809	8.81
330.181	8.26
330.553	8.18
330.926	8.01
331.298	8.77
331.671	9.12
332.043	8.28
332.415	8.49
332.787	9.1
333.159	8.63
333.532	8.54
333.904	8.65
334.276	8.07
334.648	9.08
335.02	8.64
335.391	8.5
335.763	8.89
336.135	9.41
336.507	9.07
336.879	9.27
337.25	9.5
337.622	9.36
337.993	9.51
338.365	9.34
338.736	9.84
339.108	9.95
339.479	9.83
339.851	9.7
340.222	9.97
340.593	9.64
340.964	9.77
341.336	9.92
341.707	10.68
342.078	9.64
342.449	9.78
342.82	10.36
343.191	10.2
343.562	10.23
343.933	10.68
344.303	10.2
344.674	10.53
345.045	10.75
345.416	10.67
345.786	10.82
346.157	10.34
346.527	10.64
346.898	10.76
347.268	10.52
347.639	10.66
348.009	10.63
348.38	10.4
348.75	11.17
349.12	10.92
349.49	11.35
349.861	11.5
350.231	10.93
350.601	10.99
350.971	11.59
351.341	11.26
351.711	11.37
352.081	11.04
352.45	11.21
352.82	11.6
353.19	11.83
353.56	11.7
353.929	11.27
354.299	11.9
354.669	11.9
355.038	12.29
355.408	11.43
355.777	11.59
356.147	11.79
356.516	12.2
356.885	11.71
357.254	11.74
357.624	11.65
357.993	12.24
358.362	11.78
358.731	11.95
359.1	12.19
359.469	12.18
359.838	12.05
360.207	12.4
360.576	12.35
360.945	12.49
361.314	12.24
361.682	12.34
362.051	12.66
362.42	12.42
362.788	12.6
363.157	12.66
363.525	12.79
363.894	12.73
364.262	12.56
364.631	13.06
364.999	12.96
365.367	12.92
365.735	12.93
366.104	13.13
366.472	13.2
366.84	13.07
367.208	13.51
367.576	13.48
367.944	13.46
368.312	13.57
368.68	13.24
369.048	13.4
369.416	13.56
369.783	13.62
370.151	13.76
370.519	13.76
370.886	13.96
371.254	14.15
371.621	13.9
371.989	13.57
372.356	14.54
372.724	13.78
373.091	14.01
373.458	13.96
373.826	13.85
374.193	14.59
374.56	14.39
374.927	14.63
375.294	14.69
375.661	14.39
376.028	14.67
376.395	14.67
376.762	14.31
377.129	14.74
377.496	14.9
377.863	14.72
378.229	14.85
378.596	14.63
378.963	15.06
379.329	15.18
379.696	14.96
380.062	15.1
380.429	15.07
380.795	15.13
381.161	15.22
381.528	15.36
381.894	15.32
382.26	15.46
382.626	15.44
382.993	15.72
383.359	15.63
383.725	15.7
384.091	15.89
384.457	15.93
384.823	15.75
385.188	15.78
385.554	15.83
385.92	15.86
386.286	16.35
386.651	16.25
387.017	16.31
387.383	15.99
387.748	16.1
388.114	16.25
388.479	16.28
388.845	16.5
389.21	15.96
389.575	16.13
389.94	16.19
390.306	16.26
390.671	16.31
391.036	16.58
391.401	16.63
391.766	16.91
392.131	16.65
392.496	16.68
392.861	16.87
393.226	16.67
393.591	16.75
393.956	17.13
394.32	16.92
394.685	17.06
395.05	17.16
395.414	17.03
395.779	17.15
396.143	17.17
396.508	17.38
396.872	17.23
397.236	17.36
397.601	17.22
397.965	17.76
398.329	17.78
398.694	17.47
399.058	17.63
399.422	17.78
399.786	17.76
400.15	17.66
400.514	17.8
400.878	18.11
401.242	17.71
401.605	17.97
401.969	18.08
402.333	18.17
402.697	18.09
403.06	18.31
403.424	18.3
403.787	18.29
404.151	18.45
404.514	18.31
404.878	18.39
405.241	18.22
405.604	18.31
405.968	18.35
406.331	18.27
406.694	18.39
407.057	18.51
407.42	18.63
407.783	18.81
408.146	18.63
408.509	18.97
408.872	18.73
409.235	18.87
409.598	19.03
409.961	19.22
410.323	19.12
410.686	19.21
411.049	19.25
411.411	19.04
411.774	19.13
412.136	19.09
412.499	19.37
412.861	19.37
413.223	19.46
413.586	19.55
413.948	19.46
414.31	19.54
414.672	19.65
415.035	19.65
415.397	19.9
415.759	19.97
416.121	20.02
416.483	19.79
416.845	19.71
417.206	19.86
417.568	19.65
417.93	19.68
418.292	19.86
418.653	20
419.015	19.86
419.377	19.83
419.738	20.11
420.1	19.94
420.461	19.84
420.822	20.05
421.184	20.02
421.545	20.05
421.906	20.03
422.267	19.98
422.629	20
422.99	19.89
423.351	20
423.712	20.07
424.073	20.17
424.434	20.23
424.795	20.28
425.155	20.45
425.516	20.3
425.877	20.26
426.238	20.4
426.598	20.46
426.959	20.46
427.32	20.68
427.68	20.61
428.041	20.79
428.401	20.81
428.761	21.07
429.122	21.1
429.482	21.21
429.842	21.62
430.202	21.37
430.563	21.28
430.923	21.59
431.283	21.57
431.643	21.48
432.003	21.5
432.363	21.85
432.722	21.83
433.082	21.71
433.442	21.72
433.802	21.68
434.161	21.68
434.521	21.77
434.881	21.74
435.24	21.62
435.6	21.72
435.959	21.82
436.319	22.02
436.678	21.98
437.037	22.23
437.396	22.29
437.756	22.37
438.115	22.1
438.474	22.41
438.833	22.3
439.192	22.57
439.551	22.61
439.91	22.46
440.269	22.35
440.628	22.37
440.987	22.3
441.345	22.23
441.704	22.37
442.063	22.38
442.421	22.34
442.78	22.37
443.138	22.47
443.497	22.77
443.855	22.72
444.214	22.85
444.572	22.88
444.93	22.78
445.288	22.98
445.647	23
446.005	23.14
446.363	23.2
446.721	22.72
447.079	22.89
447.437	22.93
447.795	22.74
448.153	22.78
448.51	22.69
448.868	22.84
449.226	23.06
449.584	23.19
449.941	23.36
450.299	23.36
450.656	23.62
451.014	23.59
451.371	23.57
451.729	23.74
452.086	23.93
452.443	23.77
452.801	23.92
453.158	24.01
453.515	23.89
453.872	24.06
454.229	24.06
454.586	24.13
454.943	24.09
455.3	24.14
455.657	24.18
456.014	24.43
456.371	24.32
456.727	24.45
457.084	24.44
457.441	24.58
457.797	24.46
458.154	24.43
458.51	24.8
458.867	24.99
459.223	24.77
459.58	24.7
459.936	24.77
460.292	24.6
460.648	24.49
461.005	24.52
461.361	24.47
461.717	24.24
462.073	24.51
462.429	24.58
462.785	24.94
463.141	24.93
463.496	24.99
463.852	25.31
464.208	25.29
464.564	25.38
464.919	25.58
465.275	25.37
465.631	25.64
465.986	25.23
466.342	25.49
466.697	25.77
467.052	25.67
467.408	25.75
467.763	25.71
468.118	25.58
468.473	25.62
468.829	25.66
469.184	26.08
469.539	25.86
469.894	26.03
470.249	25.87
470.603	26.21
470.958	25.99
471.313	26.15
471.668	26.18
472.023	26.24
472.377	26.31
472.732	26.38
473.086	26.38
473.441	26.54
473.795	26.41
474.15	26.64
474.504	26.4
474.859	26.68
475.213	26.81
475.567	26.57
475.921	26.7
476.275	26.71
476.63	26.67
476.984	27.11
477.338	26.94
477.692	26.94
478.045	26.84
478.399	27.04
478.753	26.91
479.107	26.92
479.461	26.95
479.814	26.99
480.168	26.99
480.521	27.1
480.875	27.25
481.228	27.36
481.582	27.4
481.935	27.23
482.289	27.23
482.642	26.96
482.995	27.45
483.348	27.1
483.701	27.11
484.055	26.92
484.408	26.8
484.761	26.69
485.114	26.28
485.466	26.18
485.819	26.12
486.172	26.32
486.525	26.7
486.878	26.95
487.23	27.08
487.583	27.04
487.936	27.28
488.288	27.14
488.641	26.92
488.993	26.85
489.345	26.75
489.698	26.85
490.05	27.07
490.402	27.12
490.754	27.44
491.107	27.53
491.459	27.8
491.811	27.81
492.163	28.11
492.515	27.97
492.866	27.64
493.218	27.23
493.57	27.26
493.922	27.46
494.274	27.83
494.625	28.03
494.977	28.16
495.328	28.57
495.68	28.64
496.031	28.75
496.383	28.88
496.734	29
497.086	29.06
497.437	29.06
497.788	29.03
498.139	29.08
498.49	28.71
498.842	28.73
499.193	28.86
499.544	28.92
499.894	29.06
500.245	29.13
500.596	29.15
500.947	29.4
501.298	29.3
501.648	29.53
501.999	29.56
502.35	29.48
502.7	29.81
503.051	29.73
503.401	29.81
503.752	29.78
504.102	29.99
504.452	29.98
504.803	29.86
505.153	29.9
505.503	29.82
505.853	29.94
506.203	29.96
506.553	30.14
506.903	30.21
507.253	30.39
507.603	30.11
507.953	30.35
508.303	30.31
508.652	30.27
509.002	30.4
509.352	30.41
509.701	30.41
510.051	30.36
510.4	30.5
510.75	30.34
511.099	30.2
511.449	30.29
511.798	30.43
512.147	30.58
512.496	30.49
512.846	30.71
513.195	30.72
513.544	30.8
513.893	30.62
514.242	30.65
514.591	30.78
514.939	31.05
515.288	30.9
515.637	30.92
515.986	31.13
516.334	31.12
516.683	31.31
517.032	31.25
517.38	31.36
517.729	31.45
518.077	31.35
518.426	31.43
518.774	31.37
519.122	31.38
519.47	31.22
519.819	31.2
520.167	30.82
520.515	31.04
520.863	31.23
521.211	31.18
521.559	31.41
521.907	31.54
522.255	31.58
522.602	31.62
522.95	31.76
523.298	31.86
523.645	31.9
523.993	31.91
524.341	32.1
524.688	32.08
525.036	32.1
525.383	32.03
525.73	32.24
526.078	32.07
526.425	32.11
526.772	32.01
527.119	31.76
527.466	31.53
527.814	31.65
528.161	31.78
528.508	31.92
528.854	31.89
529.201	31.89
529.548	31.93
529.895	31.52
530.242	31.15
530.588	31.28
530.935	31.5
531.282	31.7
531.628	31.89
531.975	32.07
532.321	32.16
532.667	32.38
533.014	32.45
533.36	32.51
533.706	32.49
534.052	32.54
534.399	32.46
534.745	32.17
535.091	32.11
535.437	32.17
535.783	32.48
536.129	32.7
536.474	32.81
536.82	32.97
537.166	33.14
537.512	33.02
537.857	33.22
538.203	32.87
538.549	32.78
538.894	32.98
539.239	33.11
539.585	33.29
539.93	33.56
540.276	33.74
540.621	33.71
540.966	33.79
541.311	33.97
541.656	33.79
542.001	33.84
542.346	33.32
542.691	32.98
543.036	32.75
543.381	32.77
543.726	33.13
544.071	33.26
544.415	33.4
544.76	33.55
545.105	33.62
545.449	33.71
545.794	33.86
546.138	34.15
546.483	33.96
546.827	34.36
547.171	34.27
547.516	34.35
547.86	34.26
548.204	34.29
548.548	34.11
548.892	33.92
549.236	34.48
549.58	34.69
549.924	34.61
550.268	35.18
550.612	35.16
550.956	35.27
551.3	35.04
551.643	35.17
551.987	35.25
552.33	35.28
552.674	35.26
553.017	35.39
553.361	35.44
553.704	35.37
554.048	35.29
554.391	35.21
554.734	35.47
555.077	35.28
555.42	35.35
555.764	35.69
556.107	35.72
556.45	35.78
556.793	35.82
557.135	36
557.478	35.98
557.821	35.76
558.164	36.04
558.507	35.99
558.849	36.43
559.192	36.22
559.534	36.35
559.877	36.33
560.219	36.54
560.562	36.45
560.904	36.3
561.246	36.32
561.589	36.31
561.931	36.48
562.273	36.56
562.615	36.62
562.957	36.53
563.299	36.47
563.641	36.62
563.983	36.63
564.325	36.68
564.667	37.13
565.008	36.72
565.35	36.79
565.692	36.9
566.033	36.81
566.375	36.81
566.716	36.82
567.058	36.71
567.399	36.67
567.741	36.75
568.082	36.53
568.423	36.56
568.764	36.81
569.105	37.1
569.447	37.05
569.788	37.28
570.129	36.98
570.47	37.11
570.811	37.19
571.151	37.28
571.492	37.44
571.833	37.24
572.174	37.27
572.514	37.24
572.855	37.32
573.195	37.2
573.536	37.58
573.876	37.37
574.217	37.39
574.557	37.29
574.898	37.36
575.238	37.52
575.578	37.57
575.918	37.36
576.258	37.84
576.598	37.64
576.938	37.55
577.278	37.78
577.618	37.64
577.958	38
578.298	37.9
578.638	38.31
578.977	38.2
579.317	38.28
579.657	38.05
579.996	38.18
580.336	38.38
580.675	38.24
581.014	38.19
581.354	38.8
581.693	38.28
582.032	38.93
582.372	38.93
582.711	38.69
583.05	38.43
583.389	38.82
583.728	38.8
584.067	38.61
584.406	38.78
584.745	38.98
585.083	38.84
585.422	39.03
585.761	38.95
586.1	39.12
586.438	38.97
586.777	39.49
587.115	39.22
587.454	39.13
587.792	39.3
588.13	39.19
588.469	39.31
588.807	39.38
589.145	39.36
589.483	39.19
589.821	39.37
590.159	39.58
590.497	39.42
590.835	39.36
591.173	39.57
591.511	39.56
591.849	39.17
592.187	39.65
592.524	39.98
592.862	39.84
593.2	39.68
593.537	40.17
593.875	39.74
594.212	39.73
594.55	40.04
594.887	40.08
595.224	39.63
595.561	39.9
595.899	40
596.236	39.93
596.573	39.83
596.91	39.95
597.247	40.02
597.584	40.02
597.921	39.92
598.258	39.81
598.594	39.64
598.931	39.51
599.268	39.53
599.604	40.06
599.941	40.23
600.277	40.23
600.614	40.37
600.95	40.56
601.287	40.43
601.623	40.5
601.959	40.79
602.296	40.45
602.632	40.45
602.968	40.66
603.304	40.93
603.64	40.66
603.976	40.75
604.312	40.91
604.648	40.76
604.984	40.35
605.319	40.6
605.655	40.29
605.991	40.62
606.326	40.35
606.662	40.26
606.998	40.36
607.333	40.36
607.668	40.63
608.004	40.89
608.339	40.67
608.674	40.93
609.01	41.3
609.345	41.09
609.68	41.08
610.015	41.23
610.35	41.3
610.685	41.06
611.02	41.06
611.355	40.86
611.689	40.8
612.024	41.05
612.359	41.28
612.694	41.51
613.028	41.45
613.363	41.5
613.697	41.63
614.032	41.56
614.366	41.88
614.7	41.41
615.035	41.68
615.369	42.14
615.703	41.96
616.037	41.84
616.371	41.86
616.705	42.01
617.039	42.29
617.373	42.04
617.707	42.09
618.041	41.89
618.375	42.43
618.709	41.97
619.042	41.79
619.376	42.61
619.71	42.21
620.043	42.06
620.377	42.05
620.71	42.25
621.043	42.69
621.377	41.87
621.71	42.57
622.043	42.35
622.376	42.07
622.709	42.33
623.043	42.59
623.376	42.65
623.709	42.27
624.041	42.66
624.374	42.7
624.707	42.91
625.04	43.05
625.373	42.82
625.705	42.61
626.038	42.91
626.37	42.9
626.703	43
627.035	43.05
627.368	43.15
627.7	42.8
628.032	42.27
628.365	42.68
628.697	42.88
629.029	42.91
629.361	42.8
629.693	42.8
630.025	43.11
630.357	43.14
630.689	43.04
631.021	43.2
631.353	43.23
631.684	43.58
632.016	43.16
632.348	43.1
632.679	43.26
633.011	43.43
633.342	43.4
633.674	43.73
634.005	43.2
634.336	43.79
634.668	43.58
634.999	44.09
635.33	43.42
635.661	43.39
635.992	43.66
636.323	44.02
636.654	43.91
636.985	43.62
637.316	43.46
637.647	43.73
637.977	43.85
638.308	43.27
638.639	43.65
638.969	43.77
639.3	43.73
639.63	44.01
639.961	44.41
640.291	44.15
640.622	44.25
640.952	44.11
641.282	43.84
641.612	44.29
641.943	44.91
642.273	44.38
642.603	43.84
642.933	44.55
643.263	44.12
643.592	44.23
643.922	44.45
644.252	44.62
644.582	44.59
644.911	44.06
645.241	44.58
645.571	44.7
645.9	44
646.23	44.75
646.559	44.25
646.888	44.65
647.218	44.88
647.547	44.55
647.876	44.5
648.205	44.43
648.534	44.36
648.863	45.03
649.192	44.64
649.521	44.99
649.85	44.41
650.179	44.78
650.508	44.63
650.837	44.76
651.165	44.97
651.494	44.82
651.822	44.87
652.151	44.92
652.479	44.95
652.808	45.2
653.136	44.96
653.465	45.03
653.793	44.83
654.121	45.04
654.449	44.95
654.777	45.07
655.105	45.12
655.433	44.9
655.761	45.02
656.089	45.07
656.417	45.26
656.745	45.23
657.073	44.89
657.4	45.54
657.728	45.18
658.056	45.53
658.383	44.98
658.711	45.07
659.038	44.92
659.365	45.63
659.693	45.48
660.02	45.11
660.347	45.17
660.674	44.98
661.001	45.07
661.329	44.97
661.656	45.63
661.982	45.53
662.309	45.92
662.636	45.26
662.963	46.04
663.29	45.81
663.616	45.47
663.943	45.5
664.27	45.96
664.596	45.91
664.923	46.14
665.249	46.22
665.576	45.84
665.902	46.01
666.228	45.57
666.554	45.99
666.881	45.77
667.207	46.43
667.533	46.09
667.859	46.15
668.185	46.12
668.511	45.61
668.837	46.21
669.162	45.86
669.488	46.54
669.814	46.67
670.139	45.89
670.465	46.38
670.791	46.44
