Data from 97282_crown_Reflection__0__101.txt Node

Date: Fri Sep 23 20:28:50 CDT 2022
User: ToomeyLab
Spectrometer: FLMS14357
Trigger mode: 0
Integration Time (sec): 1.000000E-2
Scans to average: 100
Electric dark correction enabled: true
Nonlinearity correction enabled: false
Boxcar width: 0
XAxis mode: Wavelengths
Number of Pixels in Spectrum: 2048
>>>>>Begin Spectral Data<<<<<
189.047	-420.04
189.435	-420.04
189.823	-420.04
190.211	-2.43
190.599	-15.43
190.987	2.67
191.375	890.86
191.763	83.05
192.151	-219.75
192.538	-63.19
192.926	101.89
193.314	28.53
193.702	89.38
194.089	262.71
194.477	45.59
194.864	-160.76
195.252	-33.94
195.639	110.17
196.027	180.55
196.414	95840
196.801	8.29
197.189	1477.65
197.576	4184.24
197.963	-1908.91
198.351	28.27
198.738	-322.13
199.125	29.42
199.512	-5.8
199.899	25.27
200.286	-2.44
200.673	27.8
201.06	10.7
201.447	56.99
201.833	18.06
202.22	-30.31
202.607	0.49
202.994	-2.56
203.38	-41.13
203.767	-50.4
204.154	10.78
204.54	44.11
204.927	22.77
205.313	38.9
205.699	-2.36
206.086	-25.06
206.472	28.05
206.858	-7.16
207.245	14.2
207.631	-31.44
208.017	-11.02
208.403	22.85
208.789	3.45
209.175	41.75
209.561	-1.48
209.947	4.31
210.333	0.94
210.719	-12.95
211.105	11.72
211.491	-6.68
211.876	37.27
212.262	-28.9
212.648	-57.68
213.034	-36.71
213.419	-30.69
213.805	41.11
214.19	17.76
214.576	18.22
214.961	-1.95
215.346	-6.68
215.732	23.3
216.117	-9.63
216.502	2.59
216.888	24.96
217.273	32.89
217.658	-35.83
218.043	13.83
218.428	9.03
218.813	5.24
219.198	0.04
219.583	0.98
219.968	0.66
220.353	-8.32
220.738	3.22
221.122	4.52
221.507	11.76
221.892	-5.59
222.276	-17.17
222.661	-18.11
223.046	2.3
223.43	-9.19
223.815	12.11
224.199	-6.05
224.583	10.59
224.968	-2.78
225.352	-2.77
225.736	-2.7
226.121	7.75
226.505	3.66
226.889	5.47
227.273	2.13
227.657	-1.78
228.041	1.67
228.425	2.75
228.809	2.44
229.193	2.61
229.577	3.42
229.961	3.29
230.344	3.51
230.728	2.16
231.112	3.37
231.495	3.2
231.879	1.31
232.263	4.49
232.646	4.22
233.03	3.88
233.413	4.02
233.797	3.33
234.18	4.9
234.563	1.54
234.946	4.3
235.33	4.03
235.713	3.47
236.096	1.81
236.479	3.26
236.862	2.97
237.245	3.4
237.628	5.21
238.011	4.57
238.394	4.98
238.777	4.42
239.16	4.75
239.543	4.19
239.925	3.68
240.308	4.81
240.691	2.73
241.073	2.02
241.456	2.36
241.838	6.1
242.221	5.12
242.603	3.5
242.986	3.61
243.368	2.98
243.75	3.92
244.133	4.07
244.515	3.45
244.897	4.19
245.279	4.66
245.661	4.72
246.043	4.3
246.425	3.86
246.807	3.34
247.189	5.16
247.571	3.84
247.953	3.78
248.335	4.16
248.717	3.9
249.098	4.06
249.48	3.97
249.862	3.89
250.243	4.45
250.625	3.96
251.006	3.78
251.388	3.49
251.769	3.39
252.151	2.97
252.532	4.05
252.913	3.94
253.295	4.13
253.676	4.2
254.057	4.1
254.438	3.77
254.819	4.58
255.2	3.92
255.581	4.62
255.962	3.63
256.343	4.18
256.724	3.87
257.105	4.24
257.486	4.32
257.867	4.09
258.247	4.22
258.628	3.09
259.009	3.8
259.389	3.56
259.77	3.11
260.15	3.71
260.531	3.64
260.911	3.67
261.292	3.8
261.672	3.66
262.052	3.71
262.432	3.94
262.813	3.77
263.193	3.44
263.573	3.93
263.953	3.64
264.333	3.67
264.713	3.62
265.093	3.78
265.473	4.2
265.853	3.46
266.233	3.25
266.612	3.42
266.992	4.35
267.372	3.41
267.752	3.9
268.131	4.27
268.511	3.67
268.89	3.7
269.27	3.72
269.649	3.88
270.029	3.83
270.408	3.32
270.787	3.19
271.167	3.15
271.546	3.49
271.925	3.72
272.304	3.36
272.683	3.26
273.062	3.04
273.441	3.58
273.82	3.28
274.199	3.53
274.578	3.11
274.957	3.59
275.336	3.52
275.715	3.33
276.093	3.45
276.472	4.1
276.851	3.77
277.229	2.99
277.608	3.2
277.986	3.19
278.365	3.53
278.743	3.74
279.122	2.91
279.5	3.57
279.878	3.3
280.257	3.49
280.635	3.64
281.013	2.9
281.391	3.11
281.769	3.43
282.147	3.43
282.525	2.97
282.903	2.99
283.281	3.49
283.659	3.39
284.037	3.6
284.415	3.17
284.792	3.12
285.17	3.08
285.548	2.96
285.925	3.63
286.303	3.67
286.68	3.65
287.058	3.68
287.435	2.85
287.813	3.79
288.19	3.23
288.567	3.5
288.945	3.26
289.322	3.68
289.699	3.62
290.076	3.6
290.453	3.33
290.83	3.37
291.207	3.21
291.584	3.33
291.961	3.44
292.338	3.34
292.715	2.94
293.092	3.2
293.469	3.67
293.845	3.95
294.222	3.46
294.599	3.08
294.975	3.32
295.352	3.22
295.728	3.17
296.105	3.51
296.481	3.55
296.858	3.68
297.234	3.28
297.61	3.16
297.986	3.69
298.363	3.49
298.739	3.71
299.115	3.61
299.491	3.6
299.867	3.13
300.243	3.64
300.619	3.77
300.995	4
301.371	3.64
301.746	4.3
302.122	3.59
302.498	3.85
302.874	3.37
303.249	3.91
303.625	3.28
304	4.17
304.376	3.48
304.751	3.65
305.127	3.46
305.502	3.2
305.878	3.66
306.253	3.69
306.628	3.75
307.003	3.28
307.378	3.8
307.754	3.87
308.129	3.74
308.504	3.66
308.879	3.51
309.254	3.8
309.629	4.11
310.003	3.78
310.378	3.63
310.753	3.6
311.128	3.51
311.502	3.38
311.877	3.59
312.252	3.56
312.626	3.66
313.001	3.91
313.375	3.78
313.75	3.44
314.124	3.49
314.498	4.16
314.873	3.72
315.247	4.07
315.621	3.99
315.995	3.71
316.369	3.71
316.743	3.35
317.117	3.58
317.491	3.49
317.865	3.85
318.239	3.8
318.613	3.53
318.987	2.89
319.361	3.76
319.734	4.18
320.108	3.26
320.482	3.69
320.855	3.69
321.229	3.63
321.602	3.83
321.976	4.76
322.349	3.93
322.723	4.19
323.096	3.95
323.469	3.38
323.843	3.29
324.216	4.33
324.589	3.53
324.962	4.12
325.335	3.47
325.708	3.98
326.081	4.02
326.454	4.07
326.827	3.77
327.2	3.41
327.573	3.72
327.945	4.17
328.318	3.49
328.691	4.18
329.063	4.03
329.436	3.94
329.809	4.48
330.181	3.93
330.553	3.51
330.926	3.64
331.298	4.04
331.671	4.43
332.043	4.28
332.415	3.82
332.787	3.78
333.159	3.98
333.532	3.67
333.904	3.4
334.276	3.83
334.648	3.93
335.02	3.44
335.391	3.92
335.763	3.44
336.135	4.49
336.507	4.16
336.879	3.39
337.25	4.23
337.622	3.94
337.993	3.79
338.365	4.21
338.736	3.9
339.108	4.83
339.479	3.91
339.851	4.05
340.222	4.3
340.593	3.7
340.964	3.92
341.336	4
341.707	4.48
342.078	3.89
342.449	3.76
342.82	3.54
343.191	4.14
343.562	4.18
343.933	4.59
344.303	4.32
344.674	4.12
345.045	4.17
345.416	3.94
345.786	4.29
346.157	4.07
346.527	4.18
346.898	4.2
347.268	4.11
347.639	3.87
348.009	3.99
348.38	4.09
348.75	3.8
349.12	4.09
349.49	4.18
349.861	3.99
350.231	3.87
350.601	3.61
350.971	3.85
351.341	4.08
351.711	4.08
352.081	3.88
352.45	3.95
352.82	3.88
353.19	4.03
353.56	4.29
353.929	3.82
354.299	4.15
354.669	4.27
355.038	4.29
355.408	3.67
355.777	4
356.147	4.04
356.516	4.44
356.885	4.02
357.254	3.93
357.624	4.22
357.993	4.37
358.362	3.91
358.731	3.99
359.1	4.03
359.469	3.85
359.838	3.72
360.207	3.92
360.576	4.02
360.945	3.94
361.314	4.03
361.682	3.86
362.051	4.21
362.42	4.43
362.788	4.02
363.157	4.16
363.525	4.08
363.894	4.12
364.262	3.96
364.631	4.17
364.999	4.36
365.367	4.1
365.735	4.21
366.104	4.19
366.472	4.19
366.84	3.86
367.208	4.44
367.576	4.29
367.944	4.25
368.312	4.18
368.68	4.12
369.048	4.01
369.416	4.3
369.783	4.09
370.151	4.47
370.519	3.93
370.886	4.3
371.254	4.06
371.621	4.36
371.989	4.42
372.356	4.53
372.724	3.84
373.091	4.19
373.458	4.41
373.826	3.88
374.193	4.07
374.56	4.33
374.927	4.22
375.294	4.54
375.661	4.09
376.028	4.27
376.395	4.21
376.762	3.81
377.129	4
377.496	4.53
377.863	4.36
378.229	4.4
378.596	4.36
378.963	4.23
379.329	4.63
379.696	4.23
380.062	4.11
380.429	4.16
380.795	3.96
381.161	4.47
381.528	4.36
381.894	4.44
382.26	4.36
382.626	4.06
382.993	4.6
383.359	4.46
383.725	4.57
384.091	4.27
384.457	4.38
384.823	4.2
385.188	4.32
385.554	4.18
385.92	4.57
386.286	4.42
386.651	4.58
387.017	4.47
387.383	4.36
387.748	4.62
388.114	4.44
388.479	4.25
388.845	4.3
389.21	4.33
389.575	4.22
389.94	4.34
390.306	4.18
390.671	4.04
391.036	4.3
391.401	4.41
391.766	4.56
392.131	4.34
392.496	4.29
392.861	4.38
393.226	4.01
393.591	4.37
393.956	4.35
394.32	4.47
394.685	4.23
395.05	4.34
395.414	4.46
395.779	4.42
396.143	4.33
396.508	4.53
396.872	4.27
397.236	4.58
397.601	4.37
397.965	4.84
398.329	4.62
398.694	4.33
399.058	4.61
399.422	4.45
399.786	4.61
400.15	4.29
400.514	4.2
400.878	4.43
401.242	4.39
401.605	4.58
401.969	4.5
402.333	4.42
402.697	4.17
403.06	4.56
403.424	4.53
403.787	4.25
404.151	4.46
404.514	4.44
404.878	4.34
405.241	4.34
405.604	4.33
405.968	4.29
406.331	4.33
406.694	4.48
407.057	4.44
407.42	4.55
407.783	4.4
408.146	4.4
408.509	4.47
408.872	4.39
409.235	4.6
409.598	4.52
409.961	4.5
410.323	4.59
410.686	4.58
411.049	4.47
411.411	4.69
411.774	4.42
412.136	4.35
412.499	4.51
412.861	4.62
413.223	4.51
413.586	4.64
413.948	4.63
414.31	4.63
414.672	4.62
415.035	4.44
415.397	4.55
415.759	4.8
416.121	4.58
416.483	4.55
416.845	4.17
417.206	4.29
417.568	4.6
417.93	4.59
418.292	4.63
418.653	4.48
419.015	4.59
419.377	4.44
419.738	4.5
420.1	4.5
420.461	4.58
420.822	4.54
421.184	4.48
421.545	4.44
421.906	4.56
422.267	4.39
422.629	4.48
422.99	4.47
423.351	4.52
423.712	4.43
424.073	4.51
424.434	4.49
424.795	4.51
425.155	4.46
425.516	4.54
425.877	4.41
426.238	4.6
426.598	4.56
426.959	4.52
427.32	4.66
427.68	4.62
428.041	4.52
428.401	4.6
428.761	4.63
429.122	4.74
429.482	4.8
429.842	4.81
430.202	4.71
430.563	4.78
430.923	4.68
431.283	4.73
431.643	4.62
432.003	4.63
432.363	4.69
432.722	4.87
433.082	4.59
433.442	4.66
433.802	4.62
434.161	4.6
434.521	4.7
434.881	4.57
435.24	4.6
435.6	4.64
435.959	4.71
436.319	4.65
436.678	4.74
437.037	4.79
437.396	4.7
437.756	4.75
438.115	4.7
438.474	4.71
438.833	4.67
439.192	4.92
439.551	4.78
439.91	4.66
440.269	4.65
440.628	4.69
440.987	4.59
441.345	4.56
441.704	4.66
442.063	4.74
442.421	4.5
442.78	4.6
443.138	4.56
443.497	4.7
443.855	4.58
444.214	4.78
444.572	4.65
444.93	4.6
445.288	4.78
445.647	4.84
446.005	4.81
446.363	4.66
446.721	4.54
447.079	4.64
447.437	4.68
447.795	4.58
448.153	4.5
448.51	4.65
448.868	4.6
449.226	4.66
449.584	4.67
449.941	4.72
450.299	4.85
450.656	4.81
451.014	4.85
451.371	4.58
451.729	4.73
452.086	4.86
452.443	4.69
452.801	4.73
453.158	4.71
453.515	4.68
453.872	4.77
454.229	4.8
454.586	4.78
454.943	4.8
455.3	4.72
455.657	4.77
456.014	4.84
456.371	4.72
456.727	4.86
457.084	4.82
457.441	4.9
457.797	4.62
458.154	4.71
458.51	4.76
458.867	4.91
459.223	4.74
459.58	4.67
459.936	4.83
460.292	4.76
460.648	4.9
461.005	4.73
461.361	4.6
461.717	4.64
462.073	4.69
462.429	4.77
462.785	4.8
463.141	4.77
463.496	4.73
463.852	4.91
464.208	4.92
464.564	4.85
464.919	4.96
465.275	4.96
465.631	4.85
465.986	4.77
466.342	4.82
466.697	4.87
467.052	4.95
467.408	5.01
467.763	4.94
468.118	4.86
468.473	4.75
468.829	4.77
469.184	4.87
469.539	4.93
469.894	4.8
470.249	4.84
470.603	4.87
470.958	4.99
471.313	5.01
471.668	4.77
472.023	4.88
472.377	4.88
472.732	4.98
473.086	4.85
473.441	4.85
473.795	4.95
474.15	5.03
474.504	4.95
474.859	4.82
475.213	5.03
475.567	4.72
475.921	4.86
476.275	4.81
476.63	4.88
476.984	4.95
477.338	4.81
477.692	4.9
478.045	4.68
478.399	4.85
478.753	4.87
479.107	4.82
479.461	4.89
479.814	4.77
480.168	4.7
480.521	4.7
480.875	4.85
481.228	5.13
481.582	4.91
481.935	4.92
482.289	4.83
482.642	4.71
482.995	4.99
483.348	4.7
483.701	4.84
484.055	4.76
484.408	4.73
484.761	4.69
485.114	4.5
485.466	4.44
485.819	4.43
486.172	4.6
486.525	4.73
486.878	4.81
487.23	4.83
487.583	4.83
487.936	4.89
488.288	4.73
488.641	4.62
488.993	4.63
489.345	4.61
489.698	4.58
490.05	4.71
490.402	4.69
490.754	4.88
491.107	4.88
491.459	4.88
491.811	4.85
492.163	4.96
492.515	4.87
492.866	4.7
493.218	4.59
493.57	4.58
493.922	4.71
494.274	4.86
494.625	4.96
494.977	4.99
495.328	5.09
495.68	5.06
496.031	4.94
496.383	5.05
496.734	5.03
497.086	5.03
497.437	5.1
497.788	5.04
498.139	4.97
498.49	4.85
498.842	4.84
499.193	4.95
499.544	4.95
499.894	4.93
500.245	4.95
500.596	5.02
500.947	4.96
501.298	5.05
501.648	5.12
501.999	5.16
502.35	5.19
502.7	5.05
503.051	5.03
503.401	4.98
503.752	4.95
504.102	5
504.452	4.87
504.803	4.99
505.153	5.06
505.503	4.87
505.853	5.12
506.203	4.98
506.553	4.99
506.903	5.06
507.253	5.07
507.603	4.98
507.953	4.94
508.303	5
508.652	4.9
509.002	5.06
509.352	5.04
509.701	4.98
510.051	5.01
510.4	5.05
510.75	5
511.099	4.98
511.449	4.91
511.798	5.02
512.147	4.98
512.496	4.98
512.846	5.05
513.195	4.96
513.544	5.11
513.893	4.96
514.242	4.95
514.591	5
514.939	5.06
515.288	5.08
515.637	5.05
515.986	5.04
516.334	4.92
516.683	5.02
517.032	5.09
517.38	5.09
517.729	4.99
518.077	4.86
518.426	5.05
518.774	5.1
519.122	5.07
519.47	4.99
519.819	5
520.167	4.85
520.515	4.95
520.863	5.06
521.211	5.03
521.559	5.16
521.907	5.04
522.255	5.05
522.602	5.01
522.95	5.07
523.298	5.13
523.645	5.07
523.993	5.11
524.341	5.25
524.688	5.17
525.036	5.15
525.383	5.06
525.73	5.13
526.078	5.11
526.425	5.11
526.772	5.09
527.119	5.08
527.466	4.86
527.814	5.04
528.161	5.07
528.508	5.08
528.854	5.11
529.201	5.08
529.548	4.95
529.895	4.79
530.242	4.68
530.588	4.73
530.935	4.88
531.282	4.94
531.628	5
531.975	5.01
532.321	5.08
532.667	5.11
533.014	5.06
533.36	5.2
533.706	5.09
534.052	5.07
534.399	4.94
534.745	4.93
535.091	4.87
535.437	4.98
535.783	5
536.129	5.09
536.474	5.14
536.82	5.06
537.166	5.2
537.512	5.13
537.857	5.15
538.203	4.94
538.549	5.02
538.894	5.12
539.239	5.22
539.585	5.26
539.93	5.27
540.276	5.4
540.621	5.22
540.966	5.25
541.311	5.27
541.656	5.11
542.001	5.23
542.346	5.03
542.691	4.99
543.036	4.91
543.381	4.94
543.726	5.09
544.071	5.12
544.415	5.19
544.76	5.14
545.105	5.15
545.449	5.21
545.794	5.2
546.138	5.25
546.483	5.2
546.827	5.31
547.171	5.17
547.516	5.3
547.86	5.17
548.204	5.23
548.548	5.13
548.892	5.24
549.236	5.24
549.58	5.27
549.924	5.49
550.268	5.4
550.612	5.31
550.956	5.42
551.3	5.32
551.643	5.29
551.987	5.49
552.33	5.35
552.674	5.27
553.017	5.33
553.361	5.44
553.704	5.16
554.048	5.37
554.391	5.3
554.734	5.37
555.077	5.1
555.42	5.19
555.764	5.33
556.107	5.33
556.45	5.44
556.793	5.25
557.135	5.3
557.478	5.55
557.821	5.36
558.164	5.38
558.507	5.38
558.849	5.65
559.192	5.32
559.534	5.56
559.877	5.63
560.219	5.4
560.562	5.67
560.904	5.45
561.246	5.47
561.589	5.43
561.931	5.38
562.273	5.53
562.615	5.43
562.957	5.36
563.299	5.55
563.641	5.44
563.983	5.34
564.325	5.54
564.667	5.61
565.008	5.5
565.35	5.42
565.692	5.52
566.033	5.31
566.375	5.69
566.716	5.41
567.058	5.4
567.399	5.16
567.741	5.34
568.082	5.35
568.423	5.3
568.764	5.37
569.105	5.46
569.447	5.46
569.788	5.53
570.129	5.49
570.47	5.47
570.811	5.65
571.151	5.62
571.492	5.5
571.833	5.5
572.174	5.47
572.514	5.72
572.855	5.45
573.195	5.48
573.536	5.45
573.876	5.26
574.217	5.4
574.557	5.49
574.898	5.52
575.238	5.58
575.578	5.59
575.918	5.51
576.258	5.47
576.598	5.48
576.938	5.52
577.278	5.47
577.618	5.5
577.958	5.84
578.298	5.52
578.638	5.54
578.977	5.7
579.317	5.63
579.657	5.66
579.996	5.39
580.336	5.61
580.675	5.58
581.014	5.77
581.354	5.64
581.693	5.66
582.032	5.73
582.372	5.81
582.711	5.51
583.05	5.67
583.389	5.78
583.728	5.69
584.067	5.5
584.406	5.65
584.745	5.72
585.083	5.48
585.422	5.57
585.761	5.76
586.1	5.72
586.438	5.58
586.777	5.42
587.115	5.91
587.454	5.55
587.792	5.77
588.13	5.63
588.469	5.43
588.807	5.36
589.145	5.59
589.483	5.64
589.821	5.92
590.159	5.56
590.497	5.52
590.835	5.47
591.173	5.79
591.511	5.72
591.849	5.46
592.187	5.71
592.524	5.97
592.862	5.85
593.2	5.79
593.537	5.82
593.875	5.84
594.212	5.84
594.55	5.66
594.887	5.66
595.224	5.62
595.561	5.59
595.899	5.48
596.236	5.51
596.573	5.79
596.91	5.69
597.247	5.94
597.584	5.6
597.921	5.71
598.258	5.46
598.594	5.51
598.931	5.65
599.268	5.7
599.604	5.74
599.941	5.97
600.277	5.83
600.614	5.66
600.95	5.7
601.287	5.67
601.623	5.53
601.959	5.77
602.296	5.8
602.632	5.68
602.968	5.52
603.304	5.76
603.64	5.85
603.976	5.77
604.312	5.95
604.648	5.7
604.984	5.49
605.319	5.92
605.655	5.73
605.991	5.67
606.326	5.78
606.662	5.77
606.998	5.89
607.333	5.76
607.668	5.73
608.004	5.87
608.339	5.75
608.674	5.84
609.01	6.04
609.345	6.05
609.68	5.95
610.015	6.02
610.35	6.01
610.685	5.54
611.02	5.72
611.355	5.6
611.689	5.84
612.024	5.97
612.359	5.76
612.694	5.97
613.028	5.97
613.363	6
613.697	5.95
614.032	5.98
614.366	5.82
614.7	5.8
615.035	5.93
615.369	5.84
615.703	5.98
616.037	5.72
616.371	5.89
616.705	5.82
617.039	5.81
617.373	5.73
617.707	6.37
618.041	6.2
618.375	6.02
618.709	5.54
619.042	5.79
619.376	6.03
619.71	5.83
620.043	5.55
620.377	5.72
620.71	5.86
621.043	5.9
621.377	5.65
621.71	6.06
622.043	6.01
622.376	5.67
622.709	5.76
623.043	6.12
623.376	5.84
623.709	6.17
624.041	5.84
624.374	5.6
624.707	5.66
625.04	6.18
625.373	5.71
625.705	5.89
626.038	5.74
626.37	5.8
626.703	5.89
627.035	6.24
627.368	6.16
627.7	6.05
628.032	5.6
628.365	5.62
628.697	5.58
629.029	6.03
629.361	5.99
629.693	6.04
630.025	6.31
630.357	5.97
630.689	6.13
631.021	5.88
631.353	6.23
631.684	5.87
632.016	5.9
632.348	5.94
632.679	6
633.011	5.95
633.342	6.03
633.674	6.23
634.005	5.63
634.336	6.26
634.668	6.54
634.999	6.21
635.33	5.98
635.661	6.12
635.992	6.23
636.323	6.09
636.654	6.06
636.985	6.04
637.316	5.99
637.647	6.17
637.977	6.19
638.308	5.89
638.639	6.06
638.969	6.41
639.3	5.87
639.63	5.96
639.961	6.12
640.291	6.11
640.622	5.89
640.952	6.05
641.282	6.49
641.612	6.29
641.943	6.36
642.273	6.25
642.603	6.1
642.933	6.35
643.263	6
643.592	5.88
643.922	6.11
644.252	6.6
644.582	6.52
644.911	5.6
645.241	6.05
645.571	6.84
645.9	6.17
646.23	6.47
646.559	5.94
646.888	6.49
647.218	6.65
647.547	6.4
647.876	6.34
648.205	6.51
648.534	6.35
648.863	6.38
649.192	6.79
649.521	6.16
649.85	6.11
650.179	5.85
650.508	6.23
650.837	6.11
651.165	6.53
651.494	6.34
651.822	6.17
652.151	6.54
652.479	6.47
652.808	6.24
653.136	6.11
653.465	5.87
653.793	6.49
654.121	6.03
654.449	6.03
654.777	6.2
655.105	6.32
655.433	6.74
655.761	6.29
656.089	6.56
656.417	6.53
656.745	6.36
657.073	5.7
657.4	6.38
657.728	6.32
658.056	6.28
658.383	6.72
658.711	6.18
659.038	6.39
659.365	5.8
659.693	6.32
660.02	6.2
660.347	6.41
660.674	5.77
661.001	6.61
661.329	6.14
661.656	6.62
661.982	6.41
662.309	6.5
662.636	6.24
662.963	6.58
663.29	6.68
663.616	6.38
663.943	6.35
664.27	6.73
664.596	6.29
664.923	6.93
665.249	6.42
665.576	6.56
665.902	6.48
666.228	7.07
666.554	6.41
666.881	6.23
667.207	6.15
667.533	6.58
667.859	6.66
668.185	6.58
668.511	5.53
668.837	6.69
669.162	6.58
669.488	6.31
669.814	7.08
670.139	6.46
670.465	6.7
670.791	6.44
671.116	6.61
671.442	6.52
671.767	6.26
672.092	6
672.418	6.82
672.743	6.83
673.068	6.22
673.393	6.51
673.718	6.32
674.043	6.86
674.368	6.51
674.693	6.46
675.018	6.82
675.343	6.8
675.667	6.77
675.992	6.62
676.317	6.69
676.641	6.4
676.966	6.32
677.29	6.56
677.615	6.65
677.939	6.54
678.264	6.23
678.588	6.43
678.912	6.03
679.236	6.71
679.56	6.22
679.885	6.82
680.209	7.14
680.532	6.27
680.856	6.56
681.18	6.81
681.504	6.77
681.828	7.15
682.152	6.71
682.475	6.71
682.799	7.19
683.122	6.53
683.446	6.69
683.769	6.61
684.093	6.85
684.416	7.18
684.739	7.1
685.062	7
685.386	6.71
685.709	6.35
686.032	6.33
686.355	6.83
686.678	6.84
687.001	6.37
687.324	6.87
687.646	6.98
687.969	6.94
688.292	6.85
688.614	6.71
688.937	6.65
689.26	6.77
689.582	6.8
689.904	7.58
690.227	6.66
690.549	6.12
690.871	7.09
691.194	6.68
691.516	6.78
691.838	6.5
692.16	7.09
692.482	6.77
692.804	6.73
693.126	7.39
