Data from 97282_forehead_Reflection__1__97.txt Node

Date: Fri Sep 23 20:27:38 CDT 2022
User: ToomeyLab
Spectrometer: FLMS14357
Trigger mode: 0
Integration Time (sec): 1.000000E-2
Scans to average: 100
Electric dark correction enabled: true
Nonlinearity correction enabled: false
Boxcar width: 0
XAxis mode: Wavelengths
Number of Pixels in Spectrum: 2048
>>>>>Begin Spectral Data<<<<<
189.047	705.01
189.435	705.01
189.823	705.01
190.211	-105.45
190.599	-93.46
190.987	-189.28
191.375	432.59
191.763	57.19
192.151	-408.94
192.538	-200.59
192.926	130.81
193.314	125.12
193.702	81.08
194.089	284.29
194.477	92.35
194.864	-144.37
195.252	104.84
195.639	21.1
196.027	57.47
196.414	75360
196.801	36.63
197.189	1552.94
197.576	-809.7
197.963	-499.01
198.351	45.46
198.738	-73.41
199.125	55.03
199.512	38.58
199.899	28.98
200.286	-0.21
200.673	17.02
201.06	24.45
201.447	34.99
201.833	42.53
202.22	27.53
202.607	9.56
202.994	33.83
203.38	5.86
203.767	2.72
204.154	39.56
204.54	46.58
204.927	21.45
205.313	35.72
205.699	-20.22
206.086	22.4
206.472	37.26
206.858	29.9
207.245	2.5
207.631	27.08
208.017	30.35
208.403	12.38
208.789	36.24
209.175	36.01
209.561	17.55
209.947	30.73
210.333	46.59
210.719	18.6
211.105	30.87
211.491	2.96
211.876	53.83
212.262	-8.05
212.648	-24.84
213.034	-6.89
213.419	2.49
213.805	37.22
214.19	10.11
214.576	3.86
214.961	11.22
215.346	-23.35
215.732	21.62
216.117	26.56
216.502	31.64
216.888	33.17
217.273	41.19
217.658	35.07
218.043	8.61
218.428	14.42
218.813	20.93
219.198	3.95
219.583	28.72
219.968	9.03
220.353	0.81
220.738	14.86
221.122	7.7
221.507	7.66
221.892	13.04
222.276	-18.02
222.661	8.66
223.046	13.17
223.43	-1.53
223.815	11.3
224.199	0.86
224.583	9.9
224.968	-0.75
225.352	9.54
225.736	5.75
226.121	12.54
226.505	-0.87
226.889	7.32
227.273	-0.7
227.657	-1.73
228.041	0.72
228.425	7.82
228.809	4.74
229.193	3.58
229.577	5.61
229.961	3.1
230.344	2.01
230.728	1.76
231.112	1.92
231.495	1.64
231.879	1.11
232.263	4.53
232.646	3.33
233.03	2.81
233.413	2.2
233.797	2.13
234.18	5.64
234.563	2.98
234.946	4.68
235.33	1.94
235.713	4.28
236.096	1.14
236.479	2.97
236.862	1.09
237.245	2.85
237.628	2.43
238.011	3.09
238.394	2.57
238.777	2.54
239.16	2.33
239.543	3.44
239.925	3.38
240.308	4.55
240.691	4.74
241.073	1.1
241.456	3.04
241.838	3.14
242.221	3.44
242.603	3.96
242.986	2.32
243.368	2.72
243.75	2.82
244.133	2.81
244.515	2.24
244.897	2.5
245.279	2.93
245.661	2.88
246.043	3.03
246.425	3.36
246.807	3.28
247.189	3.15
247.571	3.48
247.953	2.9
248.335	2.89
248.717	2.74
249.098	2.73
249.48	2.63
249.862	2.91
250.243	3.06
250.625	2.92
251.006	3.51
251.388	2.63
251.769	3.14
252.151	1.1
252.532	3.51
252.913	3.59
253.295	3.32
253.676	2.96
254.057	2.95
254.438	3.3
254.819	3.6
255.2	3.87
255.581	3.84
255.962	2.68
256.343	3.52
256.724	2.95
257.105	3.5
257.486	3.71
257.867	2.63
258.247	3.52
258.628	3.4
259.009	2.07
259.389	3.21
259.77	3.23
260.15	2.93
260.531	3.27
260.911	2.93
261.292	2.72
261.672	2.56
262.052	2.62
262.432	2.41
262.813	2.63
263.193	2.76
263.573	2.94
263.953	3.04
264.333	2.96
264.713	3.44
265.093	3.35
265.473	2.55
265.853	3
266.233	2.85
266.612	2.65
266.992	4.25
267.372	2.98
267.752	2.3
268.131	3.26
268.511	3.03
268.89	2.6
269.27	2.58
269.649	2.25
270.029	2.82
270.408	3.17
270.787	2.34
271.167	2.9
271.546	3.07
271.925	2.72
272.304	2.68
272.683	2.63
273.062	2.42
273.441	2.72
273.82	2.64
274.199	2.47
274.578	2.4
274.957	2.44
275.336	2.72
275.715	2.53
276.093	3.26
276.472	3.3
276.851	3.12
277.229	2.74
277.608	2.65
277.986	2.06
278.365	2.74
278.743	3.14
279.122	2.13
279.5	2.76
279.878	2.55
280.257	2.38
280.635	2.44
281.013	2.62
281.391	2.41
281.769	2.33
282.147	2.37
282.525	2.4
282.903	2.44
283.281	2.7
283.659	2.51
284.037	2.52
284.415	2.48
284.792	2.54
285.17	2.62
285.548	2.3
285.925	2.61
286.303	2.9
286.68	2.83
287.058	2.93
287.435	2.62
287.813	2.97
288.19	2.47
288.567	2.81
288.945	2.57
289.322	2.58
289.699	3.21
290.076	2.9
290.453	3.09
290.83	3.27
291.207	2.8
291.584	2.79
291.961	2.61
292.338	2.67
292.715	2.7
293.092	2.76
293.469	3.27
293.845	3.52
294.222	3.65
294.599	3.17
294.975	3.14
295.352	3.57
295.728	2.86
296.105	3.23
296.481	3.31
296.858	3.06
297.234	3.42
297.61	2.77
297.986	3.29
298.363	3.44
298.739	3.69
299.115	3.37
299.491	3.39
299.867	3.35
300.243	3.54
300.619	4.19
300.995	4.26
301.371	3.52
301.746	3.95
302.122	3.72
302.498	4.08
302.874	3.81
303.249	4.1
303.625	3.9
304	3.87
304.376	3.87
304.751	4.08
305.127	4.41
305.502	4.09
305.878	4.64
306.253	4.45
306.628	4.13
307.003	4.15
307.378	4.82
307.754	4.71
308.129	4.64
308.504	4.73
308.879	5.09
309.254	4.94
309.629	5.11
310.003	4.81
310.378	5.26
310.753	4.44
311.128	4.65
311.502	4.73
311.877	5.3
312.252	5.14
312.626	5.1
313.001	5.24
313.375	5.33
313.75	5.08
314.124	4.88
314.498	5.98
314.873	5.68
315.247	5.96
315.621	5.64
315.995	6.38
316.369	6.2
316.743	5.5
317.117	5.6
317.491	6.06
317.865	6.62
318.239	6.35
318.613	6.27
318.987	6.55
319.361	6.04
319.734	6.5
320.108	5.69
320.482	7.04
320.855	6.54
321.229	6.75
321.602	6.97
321.976	7.2
322.349	6.71
322.723	7.21
323.096	6.96
323.469	6.74
323.843	6.43
324.216	7.64
324.589	7.27
324.962	7.93
325.335	7.28
325.708	7.5
326.081	7.62
326.454	7.65
326.827	7.59
327.2	7.68
327.573	7.51
327.945	7.95
328.318	7.44
328.691	8.05
329.063	8.23
329.436	8.07
329.809	8.71
330.181	8.43
330.553	8.05
330.926	7.96
331.298	8.3
331.671	8.57
332.043	8.69
332.415	8.48
332.787	8.27
333.159	8.08
333.532	8.55
333.904	8.78
334.276	8.91
334.648	8.91
335.02	8.75
335.391	9.33
335.763	9.01
336.135	9.22
336.507	9.54
336.879	9.23
337.25	9.52
337.622	9.52
337.993	9.27
338.365	9.34
338.736	9.6
339.108	10.02
339.479	9.18
339.851	9.89
340.222	10.23
340.593	9.63
340.964	10.16
341.336	9.81
341.707	10.35
342.078	9.57
342.449	9.94
342.82	9.59
343.191	9.93
343.562	10.14
343.933	10.8
344.303	10.41
344.674	10.33
345.045	10.52
345.416	10.43
345.786	11.25
346.157	10.6
346.527	10.76
346.898	10.51
347.268	10.7
347.639	10.7
348.009	10.53
348.38	10.73
348.75	10.92
349.12	10.78
349.49	11.05
349.861	11.64
350.231	10.82
350.601	10.6
350.971	11.26
351.341	11.02
351.711	11.36
352.081	11.33
352.45	11.15
352.82	10.89
353.19	11.64
353.56	11.94
353.929	10.97
354.299	12.05
354.669	11.56
355.038	11.64
355.408	11.53
355.777	11.8
356.147	11.44
356.516	12.11
356.885	11.99
357.254	11.87
357.624	11.69
357.993	12.08
358.362	12.04
358.731	11.9
359.1	12.21
359.469	12.17
359.838	12.01
360.207	12.41
360.576	12.6
360.945	12.24
361.314	12.24
361.682	12.12
362.051	12.61
362.42	12.52
362.788	12.44
363.157	12.79
363.525	12.59
363.894	12.61
364.262	12.33
364.631	12.66
364.999	12.64
365.367	12.92
365.735	13.01
366.104	13.12
366.472	12.73
366.84	12.99
367.208	13.34
367.576	13.15
367.944	12.89
368.312	13.3
368.68	13.23
369.048	13.18
369.416	13.42
369.783	13.59
370.151	13.59
370.519	13.22
370.886	13.4
371.254	13.51
371.621	13.6
371.989	13.47
372.356	14.19
372.724	13.69
373.091	13.55
373.458	13.64
373.826	13.78
374.193	14.07
374.56	13.92
374.927	14.41
375.294	14.24
375.661	14.18
376.028	14.14
376.395	14.11
376.762	14.22
377.129	14.21
377.496	14.36
377.863	14.59
378.229	14.52
378.596	14.38
378.963	14.54
379.329	15.04
379.696	14.54
380.062	14.64
380.429	14.71
380.795	14.86
381.161	14.87
381.528	15.08
381.894	15.18
382.26	14.81
382.626	15.02
382.993	15.13
383.359	15.06
383.725	15.33
384.091	15.23
384.457	15.55
384.823	15.2
385.188	15.68
385.554	15.44
385.92	15.55
386.286	15.44
386.651	15.68
387.017	15.77
387.383	15.77
387.748	15.76
388.114	15.66
388.479	15.76
388.845	15.78
389.21	15.81
389.575	15.83
389.94	15.72
390.306	16.07
390.671	15.88
391.036	15.91
391.401	16.12
391.766	16.13
392.131	16.14
392.496	16.35
392.861	16.26
393.226	16.36
393.591	16.03
393.956	16.39
394.32	16.2
394.685	16.38
395.05	16.57
395.414	16.75
395.779	16.71
396.143	16.6
396.508	16.64
396.872	16.52
397.236	16.93
397.601	16.89
397.965	17.23
398.329	17.19
398.694	16.91
399.058	16.88
399.422	17.39
399.786	17.21
400.15	17.12
400.514	17.05
400.878	17.09
401.242	17.14
401.605	17.48
401.969	17.65
402.333	17.49
402.697	17.37
403.06	17.49
403.424	17.65
403.787	17.7
404.151	17.39
404.514	17.42
404.878	17.56
405.241	17.52
405.604	17.63
405.968	17.67
406.331	17.61
406.694	17.91
407.057	17.65
407.42	17.67
407.783	17.95
408.146	18.17
408.509	18.15
408.872	18.08
409.235	18.27
409.598	18.65
409.961	18.38
410.323	18.19
410.686	18.11
411.049	18.38
411.411	18.53
411.774	18.3
412.136	18.4
412.499	18.42
412.861	18.61
413.223	18.67
413.586	18.4
413.948	18.62
414.31	18.86
414.672	18.73
415.035	18.94
415.397	18.83
415.759	19.05
416.121	19.12
416.483	18.84
416.845	18.87
417.206	18.99
417.568	18.78
417.93	18.93
418.292	18.99
418.653	19.24
419.015	19
419.377	19.08
419.738	19.04
420.1	19.02
420.461	18.93
420.822	19.23
421.184	19.3
421.545	19.16
421.906	19.15
422.267	19.12
422.629	19.22
422.99	19.09
423.351	19.06
423.712	19.22
424.073	19.22
424.434	19.27
424.795	19.49
425.155	19.57
425.516	19.46
425.877	19.34
426.238	19.48
426.598	19.47
426.959	19.59
427.32	19.71
427.68	19.79
428.041	19.93
428.401	19.98
428.761	20.14
429.122	20.18
429.482	20.25
429.842	20.38
430.202	20.5
430.563	20.5
430.923	20.55
431.283	20.59
431.643	20.43
432.003	20.54
432.363	20.64
432.722	20.74
433.082	20.51
433.442	20.81
433.802	20.86
434.161	20.75
434.521	20.78
434.881	20.84
435.24	20.65
435.6	20.72
435.959	20.94
436.319	20.96
436.678	20.96
437.037	21.06
437.396	21.25
437.756	21.02
438.115	21.25
438.474	21.21
438.833	21.22
439.192	21.2
439.551	21.51
439.91	21.41
440.269	21.31
440.628	21.24
440.987	21.11
441.345	21.28
441.704	21.2
442.063	21.37
442.421	21.25
442.78	21.27
443.138	21.17
443.497	21.42
443.855	21.4
444.214	21.65
444.572	21.53
444.93	21.61
445.288	21.67
445.647	21.8
446.005	21.82
446.363	21.99
446.721	21.77
447.079	21.67
447.437	21.6
447.795	21.71
448.153	21.6
448.51	21.56
448.868	21.75
449.226	21.8
449.584	21.9
449.941	22.13
450.299	22.08
450.656	22.2
451.014	22.25
451.371	22.17
451.729	22.28
452.086	22.52
452.443	22.46
452.801	22.59
453.158	22.62
453.515	22.61
453.872	22.64
454.229	22.59
454.586	22.64
454.943	22.75
455.3	22.83
455.657	23.02
456.014	23.02
456.371	22.92
456.727	22.85
457.084	23.04
457.441	23.02
457.797	23.02
458.154	23.07
458.51	23.05
458.867	23.44
459.223	23.38
459.58	23.14
459.936	23.22
460.292	22.89
460.648	23.33
461.005	23.28
461.361	23.01
461.717	22.96
462.073	22.88
462.429	23.07
462.785	23.36
463.141	23.39
463.496	23.39
463.852	23.5
464.208	23.72
464.564	24.02
464.919	23.94
465.275	24.04
465.631	23.92
465.986	23.83
466.342	23.86
466.697	23.97
467.052	23.9
467.408	24.15
467.763	24
468.118	24.01
468.473	24.13
468.829	23.98
469.184	24.12
469.539	24.2
469.894	24.11
470.249	24.41
470.603	24.33
470.958	24.32
471.313	24.61
471.668	24.45
472.023	24.5
472.377	24.69
472.732	24.53
473.086	24.57
473.441	24.66
473.795	24.81
474.15	24.72
474.504	24.93
474.859	24.67
475.213	25.1
475.567	24.86
475.921	24.98
476.275	24.85
476.63	24.94
476.984	25.22
477.338	25.21
477.692	25.08
478.045	24.87
478.399	24.97
478.753	25.12
479.107	24.94
479.461	24.98
479.814	25.09
480.168	24.96
480.521	25.18
480.875	25.45
481.228	25.2
481.582	25.14
481.935	25.27
482.289	25.44
482.642	25.25
482.995	25.46
483.348	25.01
483.701	25.12
484.055	24.96
484.408	25.05
484.761	24.8
485.114	24.46
485.466	24.25
485.819	24.28
486.172	24.37
486.525	24.7
486.878	24.84
487.23	24.99
487.583	25.08
487.936	25.22
488.288	25.16
488.641	24.99
488.993	24.78
489.345	24.87
489.698	24.85
490.05	25
490.402	24.97
490.754	25.32
491.107	25.37
491.459	25.49
491.811	25.76
492.163	25.82
492.515	25.68
492.866	25.58
493.218	25.14
493.57	25.23
493.922	25.34
494.274	25.56
494.625	25.78
494.977	25.98
495.328	26.19
495.68	26.32
496.031	26.33
496.383	26.73
496.734	26.46
497.086	26.75
497.437	26.7
497.788	26.87
498.139	26.75
498.49	26.47
498.842	26.55
499.193	26.58
499.544	26.72
499.894	26.71
500.245	26.74
500.596	26.77
500.947	26.9
501.298	26.99
501.648	27.22
501.999	27.04
502.35	27.33
502.7	27.29
503.051	27.43
503.401	27.4
503.752	27.37
504.102	27.47
504.452	27.47
504.803	27.51
505.153	27.54
505.503	27.49
505.853	27.63
506.203	27.54
506.553	27.67
506.903	27.61
507.253	27.62
507.603	27.73
507.953	27.69
508.303	27.59
508.652	27.77
509.002	27.96
509.352	27.82
509.701	27.73
510.051	27.81
510.4	27.67
510.75	27.77
511.099	27.66
511.449	27.58
511.798	27.63
512.147	27.93
512.496	27.94
512.846	28.04
513.195	27.99
513.544	28.1
513.893	27.98
514.242	27.85
514.591	28.11
514.939	28.2
515.288	28.2
515.637	28.3
515.986	28.34
516.334	28.25
516.683	28.44
517.032	28.42
517.38	28.55
517.729	28.57
518.077	28.58
518.426	28.58
518.774	28.63
519.122	28.48
519.47	28.42
519.819	28.38
520.167	28.19
520.515	28.08
520.863	28.32
521.211	28.29
521.559	28.52
521.907	28.51
522.255	28.56
522.602	28.67
522.95	28.92
523.298	28.93
523.645	28.92
523.993	29.01
524.341	29.01
524.688	29.24
525.036	29.23
525.383	29.04
525.73	29.09
526.078	29.24
526.425	29.1
526.772	28.98
527.119	28.81
527.466	28.59
527.814	28.67
528.161	28.84
528.508	28.97
528.854	28.85
529.201	28.86
529.548	28.74
529.895	28.52
530.242	28.1
530.588	28.19
530.935	28.39
531.282	28.69
531.628	28.68
531.975	28.88
532.321	29.11
532.667	29.12
533.014	29.3
533.36	29.39
533.706	29.44
534.052	29.43
534.399	29.26
534.745	29.03
535.091	28.89
535.437	28.95
535.783	29.26
536.129	29.39
536.474	29.61
536.82	29.64
537.166	29.76
537.512	29.78
537.857	29.79
538.203	29.52
538.549	29.59
538.894	29.78
539.239	29.87
539.585	30.05
539.93	30
540.276	30.29
540.621	30.43
540.966	30.51
541.311	30.45
541.656	30.37
542.001	30.26
542.346	29.9
542.691	29.76
543.036	29.49
543.381	29.49
543.726	29.74
544.071	29.85
544.415	30.08
544.76	30.07
545.105	30.28
545.449	30.16
545.794	30.4
546.138	30.51
546.483	30.52
546.827	30.6
547.171	30.69
547.516	30.76
547.86	30.78
548.204	30.8
548.548	30.65
548.892	30.57
549.236	30.89
549.58	31.01
549.924	31.23
550.268	31.43
550.612	31.23
550.956	31.58
551.3	31.25
551.643	31.75
551.987	31.68
552.33	31.67
552.674	31.5
553.017	31.68
553.361	31.86
553.704	31.6
554.048	31.6
554.391	31.56
554.734	31.64
555.077	31.73
555.42	31.74
555.764	31.76
556.107	32.06
556.45	31.84
556.793	31.82
557.135	32.11
557.478	32.3
557.821	32.11
558.164	32.03
558.507	32.25
558.849	32.32
559.192	32.29
559.534	32.22
559.877	32.34
560.219	32.52
560.562	32.5
560.904	32.44
561.246	32.42
561.589	32.48
561.931	32.54
562.273	32.63
562.615	32.57
562.957	32.47
563.299	32.59
563.641	32.6
563.983	32.42
564.325	32.47
564.667	32.64
565.008	32.67
565.35	33.12
565.692	32.92
566.033	32.8
566.375	32.84
566.716	32.66
567.058	32.88
567.399	32.53
567.741	32.39
568.082	32.7
568.423	32.39
568.764	32.78
569.105	32.93
569.447	32.96
569.788	32.97
570.129	33.09
570.47	33.13
570.811	32.99
571.151	33.17
571.492	33.22
571.833	32.99
572.174	33.02
572.514	33.2
572.855	33.24
573.195	33.21
573.536	33.07
573.876	33.17
574.217	33.17
574.557	33.15
574.898	33.11
575.238	33.25
575.578	33.35
575.918	33.23
576.258	33.3
576.598	33.34
576.938	33.73
577.278	33.59
577.618	33.47
577.958	33.56
578.298	33.75
578.638	33.78
578.977	33.68
579.317	34.06
579.657	34.14
579.996	33.86
580.336	33.96
580.675	33.94
581.014	33.97
581.354	34.61
581.693	34.21
582.032	34.28
582.372	34.18
582.711	34.36
583.05	34.25
583.389	34.36
583.728	34.27
584.067	34.35
584.406	34.34
584.745	34.35
585.083	34.49
585.422	34.52
585.761	34.44
586.1	34.66
586.438	34.44
586.777	34.83
587.115	34.22
587.454	34.54
587.792	34.81
588.13	34.66
588.469	34.62
588.807	34.65
589.145	34.64
589.483	34.74
589.821	34.8
590.159	34.83
590.497	34.69
590.835	34.8
591.173	34.73
591.511	34.96
591.849	34.88
592.187	34.69
592.524	35.15
592.862	35.04
593.2	35.27
593.537	35.2
593.875	35.19
594.212	35.34
594.55	35.1
594.887	35.4
595.224	35.23
595.561	34.76
595.899	34.93
596.236	35.04
596.573	35.25
596.91	35.21
597.247	34.95
597.584	35.28
597.921	35.31
598.258	35.16
598.594	34.92
598.931	34.92
599.268	34.86
599.604	35.24
599.941	35.34
600.277	35.31
600.614	35.16
600.95	35.4
601.287	35.57
601.623	35.37
601.959	35.93
602.296	35.64
602.632	35.82
602.968	35.75
603.304	36.01
603.64	35.87
603.976	35.79
604.312	35.91
604.648	35.62
604.984	35.55
605.319	35.77
605.655	35.53
605.991	35.42
606.326	35.46
606.662	35.27
606.998	35.72
607.333	35.57
607.668	35.51
608.004	36
608.339	35.75
608.674	36.17
609.01	36.27
609.345	36.38
609.68	36.06
610.015	36.21
610.35	36.19
610.685	35.9
611.02	35.75
611.355	35.76
611.689	35.99
612.024	36.04
612.359	35.84
612.694	36.38
613.028	36.37
613.363	36.54
613.697	36.19
614.032	36.6
614.366	36.44
614.7	36.07
615.035	36.76
615.369	37.12
615.703	36.67
616.037	36.49
616.371	36.9
616.705	36.72
617.039	36.88
617.373	37.11
617.707	37.14
618.041	36.98
618.375	37.29
618.709	36.8
619.042	36.72
619.376	37.33
619.71	37.05
620.043	37.02
620.377	37.16
620.71	37.13
621.043	37.02
621.377	36.87
621.71	37.23
622.043	37.07
622.376	36.97
622.709	36.74
623.043	37.06
623.376	37.37
623.709	37.11
624.041	37.11
624.374	37.49
624.707	37.01
625.04	37.35
625.373	37.37
625.705	37.3
626.038	37.6
626.37	37.25
626.703	37.53
627.035	37.61
627.368	37.47
627.7	37.37
628.032	37.2
628.365	37.09
628.697	37.07
629.029	37.47
629.361	37.61
629.693	37.28
630.025	37.78
630.357	37.95
630.689	37.7
631.021	37.88
631.353	37.99
631.684	37.8
632.016	37.7
632.348	37.34
632.679	37.92
633.011	37.57
633.342	37.84
633.674	38.14
634.005	37.47
634.336	38.46
634.668	37.86
634.999	38.38
635.33	37.57
635.661	37.9
635.992	38.06
636.323	37.87
636.654	37.72
636.985	38.3
637.316	38.02
637.647	38.36
637.977	38.37
638.308	38.19
638.639	38.01
638.969	38.15
639.3	37.97
639.63	38.15
639.961	38.23
640.291	38.37
640.622	38.25
640.952	37.99
641.282	38.43
641.612	38.17
641.943	38.42
642.273	38.57
642.603	38.53
642.933	38.98
643.263	38.56
643.592	38.23
643.922	38.34
644.252	38.94
644.582	38.93
644.911	38.66
645.241	38.48
645.571	38.99
645.9	38.46
646.23	38.66
646.559	38.51
646.888	38.88
647.218	38.84
647.547	38.45
647.876	38.55
648.205	39.04
648.534	39.09
648.863	39.09
649.192	38.83
649.521	38.87
649.85	38.75
650.179	38.69
650.508	39.3
650.837	39.07
651.165	39.22
651.494	38.85
651.822	39.16
652.151	39.16
652.479	38.82
652.808	39.4
653.136	39.15
653.465	38.65
653.793	38.76
654.121	38.89
654.449	39.22
654.777	39.15
655.105	39.38
655.433	38.95
655.761	39.06
656.089	39.33
656.417	39.4
656.745	39.26
657.073	39.2
657.4	39.5
657.728	39.03
658.056	39.18
658.383	39.11
658.711	39.37
659.038	39.15
659.365	39.21
659.693	39.48
660.02	39.65
660.347	39.18
660.674	39.22
661.001	39.16
661.329	38.8
661.656	39.46
661.982	39.15
662.309	40.17
662.636	39.82
662.963	40.29
663.29	39.53
663.616	39.53
663.943	40
664.27	39.66
664.596	39.51
664.923	39.83
665.249	39.72
665.576	40.22
665.902	39.4
666.228	40.22
666.554	39.47
666.881	39.49
667.207	39.81
667.533	39.77
667.859	40.35
668.185	40.63
668.511	39.46
668.837	39.89
669.162	40.03
669.488	40.05
669.814	40.9
670.139	39.96
670.465	39.96
