Data from 97282_chest_Reflection__3__94.txt Node

Date: Fri Sep 23 20:24:30 CDT 2022
User: ToomeyLab
Spectrometer: FLMS14357
Trigger mode: 0
Integration Time (sec): 1.000000E-2
Scans to average: 100
Electric dark correction enabled: true
Nonlinearity correction enabled: false
Boxcar width: 0
XAxis mode: Wavelengths
Number of Pixels in Spectrum: 2048
>>>>>Begin Spectral Data<<<<<
189.047	354.17
189.435	354.17
189.823	354.17
190.211	4.31
190.599	-46.77
190.987	-1.12
191.375	449.14
191.763	93.36
192.151	18.82
192.538	-77.97
192.926	28.7
193.314	62.26
193.702	155.14
194.089	-244.57
194.477	62.28
194.864	-161.78
195.252	28.83
195.639	145.12
196.027	-94.91
196.414	7260
196.801	44.84
197.189	784.71
197.576	-2213.94
197.963	-4139.6
198.351	22.78
198.738	-11.91
199.125	15.14
199.512	9.39
199.899	46.29
200.286	17.21
200.673	-1.54
201.06	55.04
201.447	46.08
201.833	33.5
202.22	7.93
202.607	16.24
202.994	-12.69
203.38	-4.13
203.767	-45.36
204.154	22.97
204.54	13.03
204.927	37.92
205.313	8.86
205.699	-15.22
206.086	-20.84
206.472	8.19
206.858	20.92
207.245	15.39
207.631	27.89
208.017	1.52
208.403	10.67
208.789	15.19
209.175	43.79
209.561	28.42
209.947	5.7
210.333	13.78
210.719	-5.09
211.105	34.18
211.491	13.85
211.876	15.66
212.262	3.19
212.648	-13.87
213.034	-14.4
213.419	-10.43
213.805	33.54
214.19	1.24
214.576	6.28
214.961	29.37
215.346	25.05
215.732	27.32
216.117	-14.24
216.502	3.65
216.888	37.03
217.273	-4.12
217.658	4.6
218.043	15.38
218.428	4.26
218.813	34.86
219.198	13.13
219.583	7.04
219.968	25.5
220.353	13.49
220.738	8.32
221.122	5.89
221.507	12.36
221.892	3.69
222.276	-13.47
222.661	10.35
223.046	3.59
223.43	-0.71
223.815	15.76
224.199	17.43
224.583	19.42
224.968	-1.67
225.352	-2.56
225.736	-0.81
226.121	10.57
226.505	9.33
226.889	2.13
227.273	3.32
227.657	0.69
228.041	3.35
228.425	4.81
228.809	4.17
229.193	7.06
229.577	7.51
229.961	4.88
230.344	3.94
230.728	3.42
231.112	4.07
231.495	3.71
231.879	2.92
232.263	4.46
232.646	5.14
233.03	4.56
233.413	4.38
233.797	4.32
234.18	7.49
234.563	3.3
234.946	4.79
235.33	3.19
235.713	5.38
236.096	3.05
236.479	3.92
236.862	4
237.245	5.69
237.628	7.09
238.011	4.99
238.394	3.79
238.777	4.44
239.16	3.2
239.543	4.27
239.925	6.62
240.308	3.61
240.691	5.45
241.073	3.35
241.456	5.45
241.838	5.79
242.221	4.49
242.603	5.85
242.986	3.45
243.368	3.22
243.75	4.1
244.133	4.12
244.515	4.01
244.897	4.53
245.279	4.27
245.661	5.14
246.043	5.73
246.425	4.31
246.807	4.08
247.189	5
247.571	4.71
247.953	4.04
248.335	4.32
248.717	4.3
249.098	4.15
249.48	4.19
249.862	4.48
250.243	4.47
250.625	3.99
251.006	4.36
251.388	3.81
251.769	4.96
252.151	2.85
252.532	4.71
252.913	4.76
253.295	4.63
253.676	3.87
254.057	4.5
254.438	4.06
254.819	4.06
255.2	3.45
255.581	5.06
255.962	3.17
256.343	4.97
256.724	4.45
257.105	4.84
257.486	4.04
257.867	4.51
258.247	4.93
258.628	4
259.009	4.46
259.389	4.55
259.77	3.74
260.15	4.54
260.531	4.5
260.911	3.93
261.292	4.04
261.672	3.7
262.052	3.55
262.432	3.53
262.813	3.77
263.193	3.83
263.573	4.34
263.953	3.78
264.333	3.93
264.713	4.54
265.093	4.36
265.473	3.61
265.853	2.98
266.233	3.47
266.612	4.09
266.992	4.27
267.372	3.59
267.752	4.54
268.131	4.13
268.511	4.27
268.89	4.07
269.27	3.73
269.649	3.91
270.029	3.72
270.408	3.92
270.787	3.71
271.167	3.48
271.546	3.76
271.925	4.05
272.304	3.73
272.683	3.42
273.062	3.69
273.441	3.81
273.82	3.65
274.199	3.63
274.578	3.59
274.957	3.52
275.336	3.89
275.715	3.46
276.093	4.62
276.472	4.26
276.851	4.34
277.229	4.05
277.608	3.92
277.986	3.58
278.365	3.72
278.743	4.02
279.122	3.62
279.5	3.62
279.878	3.35
280.257	3.73
280.635	3.22
281.013	3.82
281.391	3.32
281.769	3.62
282.147	3.68
282.525	3.75
282.903	3.21
283.281	3.81
283.659	3.67
284.037	3.71
284.415	3.78
284.792	3.5
285.17	3.6
285.548	3.68
285.925	4.06
286.303	4.23
286.68	3.66
287.058	3.37
287.435	3.69
287.813	3.74
288.19	3.85
288.567	3.69
288.945	3.76
289.322	3.51
289.699	4.05
290.076	3.89
290.453	3.9
290.83	3.62
291.207	3.7
291.584	3.55
291.961	3.62
292.338	3.73
292.715	3.54
293.092	3.39
293.469	4.16
293.845	4.19
294.222	3.92
294.599	3.52
294.975	3.92
295.352	3.79
295.728	4.23
296.105	3.73
296.481	3.62
296.858	3.62
297.234	4.37
297.61	3.06
297.986	3.79
298.363	3.64
298.739	3.91
299.115	3.7
299.491	3.64
299.867	3.7
300.243	3.92
300.619	4.35
300.995	4.26
301.371	3.33
301.746	4.55
302.122	3.8
302.498	3.74
302.874	3.74
303.249	3.96
303.625	3.97
304	4.08
304.376	3.86
304.751	3.42
305.127	3.84
305.502	4.3
305.878	3.84
306.253	4.39
306.628	3.77
307.003	3.49
307.378	4.32
307.754	4.27
308.129	3.7
308.504	3.85
308.879	4
309.254	4.38
309.629	3.99
310.003	4.26
310.378	4.16
310.753	4.16
311.128	3.78
311.502	3.72
311.877	3.63
312.252	3.86
312.626	3.92
313.001	4.2
313.375	4.13
313.75	3.94
314.124	3.7
314.498	4.32
314.873	4.57
315.247	4.33
315.621	4.05
315.995	4.79
316.369	4.17
316.743	3.69
317.117	3.35
317.491	4.05
317.865	4.6
318.239	4.95
318.613	3.72
318.987	4.05
319.361	3.87
319.734	4.15
320.108	4.05
320.482	4.05
320.855	4.05
321.229	3.97
321.602	4.18
321.976	3.96
322.349	3.94
322.723	4.08
323.096	4.49
323.469	4.24
323.843	3.91
324.216	3.91
324.589	4.43
324.962	4.15
325.335	3.8
325.708	4.21
326.081	3.95
326.454	4.23
326.827	3.97
327.2	4.15
327.573	4.22
327.945	4.45
328.318	3.54
328.691	3.79
329.063	4.52
329.436	4.43
329.809	4.55
330.181	4.4
330.553	3.73
330.926	4.45
331.298	4.25
331.671	4.63
332.043	4.62
332.415	4.24
332.787	3.85
333.159	4.33
333.532	3.84
333.904	4.02
334.276	3.96
334.648	4.06
335.02	3.72
335.391	3.84
335.763	4.39
336.135	4.3
336.507	4.14
336.879	3.92
337.25	3.99
337.622	4.14
337.993	4.08
338.365	4.33
338.736	4.08
339.108	4.7
339.479	4.05
339.851	4.17
340.222	4.13
340.593	3.72
340.964	4.13
341.336	3.97
341.707	4.7
342.078	4.16
342.449	4.46
342.82	4.26
343.191	4.35
343.562	4
343.933	4.62
344.303	4.09
344.674	4.76
345.045	4.52
345.416	4.39
345.786	4.41
346.157	4.21
346.527	4.33
346.898	4.77
347.268	4.15
347.639	4.1
348.009	3.93
348.38	3.96
348.75	4.26
349.12	4.36
349.49	4.7
349.861	4.21
350.231	3.74
350.601	3.72
350.971	4.19
351.341	4.53
351.711	4.44
352.081	4.2
352.45	3.97
352.82	4.21
353.19	4.82
353.56	4.48
353.929	3.97
354.299	4.13
354.669	4.25
355.038	4.51
355.408	3.88
355.777	4.24
356.147	4.04
356.516	4.35
356.885	4.25
357.254	4.05
357.624	4.51
357.993	4.32
358.362	4.11
358.731	4.15
359.1	4.3
359.469	4.16
359.838	4.24
360.207	4.21
360.576	4.38
360.945	4.16
361.314	3.87
361.682	3.82
362.051	4.24
362.42	4.18
362.788	4.14
363.157	4.4
363.525	4.41
363.894	4.31
364.262	4.32
364.631	4.24
364.999	4.09
365.367	3.97
365.735	4.31
366.104	4.39
366.472	4.52
366.84	4.2
367.208	4.45
367.576	4.52
367.944	4.33
368.312	4.48
368.68	4.16
369.048	4.32
369.416	4.49
369.783	4.37
370.151	4.51
370.519	4.15
370.886	4.53
371.254	4.73
371.621	4.53
371.989	4.41
372.356	4.86
372.724	4.26
373.091	4.41
373.458	4.32
373.826	4.16
374.193	4.38
374.56	4.2
374.927	4.23
375.294	4.56
375.661	4.08
376.028	4.39
376.395	4.62
376.762	4.06
377.129	4.03
377.496	4.54
377.863	4.36
378.229	4.53
378.596	4.22
378.963	4.43
379.329	4.69
379.696	4.49
380.062	4.46
380.429	4.17
380.795	4.25
381.161	4.42
381.528	4.44
381.894	4.27
382.26	4.41
382.626	4.42
382.993	4.49
383.359	4.51
383.725	4.94
384.091	4.43
384.457	4.44
384.823	4.25
385.188	4.77
385.554	4.27
385.92	4.5
386.286	4.66
386.651	4.61
387.017	4.56
387.383	4.29
387.748	4.51
388.114	4.45
388.479	4.29
388.845	4.49
389.21	4.29
389.575	4.28
389.94	4.38
390.306	4.18
390.671	4.62
391.036	4.51
391.401	4.48
391.766	4.65
392.131	4.68
392.496	4.49
392.861	4.44
393.226	4.34
393.591	4.31
393.956	4.36
394.32	4.37
394.685	4.25
395.05	4.77
395.414	4.43
395.779	4.26
396.143	4.28
396.508	4.6
396.872	4.55
397.236	4.45
397.601	4.54
397.965	4.58
398.329	4.73
398.694	4.37
399.058	4.35
399.422	4.47
399.786	4.68
400.15	4.51
400.514	4.42
400.878	4.56
401.242	4.34
401.605	4.78
401.969	4.65
402.333	4.67
402.697	4.36
403.06	4.58
403.424	4.54
403.787	4.62
404.151	4.71
404.514	4.27
404.878	4.52
405.241	4.58
405.604	4.3
405.968	4.53
406.331	4.68
406.694	4.56
407.057	4.43
407.42	4.6
407.783	4.5
408.146	4.52
408.509	4.57
408.872	4.46
409.235	4.72
409.598	4.65
409.961	4.75
410.323	4.42
410.686	4.58
411.049	4.73
411.411	4.53
411.774	4.51
412.136	4.53
412.499	4.61
412.861	4.42
413.223	4.47
413.586	4.57
413.948	4.47
414.31	4.43
414.672	4.59
415.035	4.46
415.397	4.71
415.759	5.09
416.121	4.69
416.483	4.67
416.845	4.46
417.206	4.5
417.568	4.63
417.93	4.53
418.292	4.67
418.653	4.61
419.015	4.47
419.377	4.46
419.738	4.55
420.1	4.5
420.461	4.56
420.822	4.56
421.184	4.56
421.545	4.45
421.906	4.57
422.267	4.54
422.629	4.49
422.99	4.53
423.351	4.51
423.712	4.5
424.073	4.42
424.434	4.54
424.795	4.65
425.155	4.57
425.516	4.62
425.877	4.5
426.238	4.57
426.598	4.56
426.959	4.56
427.32	4.6
427.68	4.71
428.041	4.58
428.401	4.56
428.761	4.61
429.122	4.57
429.482	4.58
429.842	4.75
430.202	4.79
430.563	4.59
430.923	4.69
431.283	4.77
431.643	4.49
432.003	4.65
432.363	4.77
432.722	4.68
433.082	4.69
433.442	4.62
433.802	4.6
434.161	4.79
434.521	4.75
434.881	4.66
435.24	4.62
435.6	4.65
435.959	4.74
436.319	4.72
436.678	4.66
437.037	4.67
437.396	4.89
437.756	4.85
438.115	4.63
438.474	4.72
438.833	4.91
439.192	4.96
439.551	4.88
439.91	4.78
440.269	4.84
440.628	4.71
440.987	4.73
441.345	4.67
441.704	4.68
442.063	4.87
442.421	4.65
442.78	4.7
443.138	4.64
443.497	4.78
443.855	4.66
444.214	4.85
444.572	4.7
444.93	4.7
445.288	4.86
445.647	4.86
446.005	4.93
446.363	4.96
446.721	4.74
447.079	4.74
447.437	4.89
447.795	4.82
448.153	4.6
448.51	4.69
448.868	4.78
449.226	4.75
449.584	4.67
449.941	4.79
450.299	4.82
450.656	4.82
451.014	4.74
451.371	4.71
451.729	4.76
452.086	5.02
452.443	4.95
452.801	4.96
453.158	4.86
453.515	4.9
453.872	4.84
454.229	4.8
454.586	4.82
454.943	4.76
455.3	4.78
455.657	4.81
456.014	5.02
456.371	4.83
456.727	4.83
457.084	4.86
457.441	4.97
457.797	4.73
458.154	4.8
458.51	4.89
458.867	4.93
459.223	4.82
459.58	4.92
459.936	4.93
460.292	4.79
460.648	4.95
461.005	5.07
461.361	4.95
461.717	4.98
462.073	4.86
462.429	4.81
462.785	4.9
463.141	4.9
463.496	4.93
463.852	5.02
464.208	4.89
464.564	5.03
464.919	5.2
465.275	5.11
465.631	4.92
465.986	4.94
466.342	4.97
466.697	5.04
467.052	5.09
467.408	5
467.763	4.95
468.118	4.96
468.473	5.01
468.829	5.07
469.184	5.04
469.539	5.04
469.894	5.08
470.249	5.17
470.603	5.23
470.958	4.96
471.313	5.03
471.668	5.03
472.023	5.08
472.377	5.13
472.732	5.15
473.086	5.02
473.441	5.05
473.795	5.12
474.15	5.13
474.504	5.02
474.859	5.04
475.213	5.34
475.567	4.99
475.921	5.09
476.275	5.14
476.63	5
476.984	5.32
477.338	5.01
477.692	5.17
478.045	5.04
478.399	5.13
478.753	5.13
479.107	4.96
479.461	5.13
479.814	5.09
480.168	5.06
480.521	5.01
480.875	5.21
481.228	5.18
481.582	5.23
481.935	5.26
482.289	5.35
482.642	5
482.995	5.27
483.348	5.01
483.701	5.08
484.055	5.1
484.408	5.02
484.761	5.07
485.114	4.95
485.466	4.88
485.819	4.82
486.172	4.88
486.525	4.92
486.878	4.91
487.23	4.96
487.583	4.97
487.936	5.06
488.288	5.09
488.641	5.05
488.993	5.04
489.345	4.99
489.698	4.98
490.05	4.99
490.402	4.92
490.754	5.06
491.107	5.12
491.459	5.06
491.811	5.05
492.163	5.25
492.515	5.2
492.866	5.06
493.218	5.01
493.57	5.04
493.922	5.07
494.274	5.12
494.625	5.15
494.977	5.21
495.328	5.28
495.68	5.34
496.031	5.28
496.383	5.41
496.734	5.38
497.086	5.4
497.437	5.49
497.788	5.44
498.139	5.36
498.49	5.28
498.842	5.31
499.193	5.27
499.544	5.29
499.894	5.3
500.245	5.31
500.596	5.44
500.947	5.28
501.298	5.41
501.648	5.47
501.999	5.46
502.35	5.45
502.7	5.46
503.051	5.5
503.401	5.41
503.752	5.42
504.102	5.54
504.452	5.49
504.803	5.48
505.153	5.59
505.503	5.41
505.853	5.64
506.203	5.6
506.553	5.52
506.903	5.58
507.253	5.5
507.603	5.54
507.953	5.54
508.303	5.64
508.652	5.57
509.002	5.64
509.352	5.67
509.701	5.6
510.051	5.68
510.4	5.62
510.75	5.51
511.099	5.61
511.449	5.44
511.798	5.66
512.147	5.64
512.496	5.58
512.846	5.76
513.195	5.55
513.544	5.83
513.893	5.69
514.242	5.67
514.591	5.66
514.939	5.75
515.288	5.73
515.637	5.76
515.986	5.7
516.334	5.64
516.683	5.84
517.032	5.78
517.38	5.86
517.729	5.8
518.077	5.75
518.426	5.85
518.774	5.94
519.122	5.73
519.47	5.79
519.819	5.88
520.167	5.81
520.515	5.77
520.863	5.89
521.211	5.84
521.559	5.8
521.907	5.84
522.255	5.76
522.602	5.84
522.95	5.96
523.298	5.88
523.645	6.01
523.993	5.92
524.341	6.03
524.688	5.95
525.036	6.02
525.383	5.92
525.73	6.12
526.078	5.98
526.425	6.16
526.772	6.03
527.119	6.13
527.466	5.99
527.814	5.96
528.161	6
528.508	6.03
528.854	6.03
529.201	6.05
529.548	6.1
529.895	5.94
530.242	5.82
530.588	5.87
530.935	5.87
531.282	5.9
531.628	5.92
531.975	6
532.321	6.02
532.667	6.16
533.014	6.15
533.36	6.23
533.706	6.28
534.052	6.26
534.399	6.16
534.745	6.25
535.091	6.16
535.437	6.1
535.783	6.21
536.129	6.23
536.474	6.33
536.82	6.3
537.166	6.43
537.512	6.32
537.857	6.4
538.203	6.38
538.549	6.34
538.894	6.36
539.239	6.49
539.585	6.54
539.93	6.54
540.276	6.58
540.621	6.6
540.966	6.59
541.311	6.65
541.656	6.71
542.001	6.68
542.346	6.58
542.691	6.47
543.036	6.46
543.381	6.49
543.726	6.48
544.071	6.5
544.415	6.52
544.76	6.51
545.105	6.6
545.449	6.67
545.794	6.64
546.138	6.68
546.483	6.81
546.827	6.81
547.171	6.86
547.516	6.94
547.86	6.75
548.204	6.86
548.548	6.8
548.892	6.93
549.236	6.94
549.58	6.98
549.924	7.04
550.268	7.07
550.612	7.13
550.956	7.07
551.3	7.07
551.643	7.15
551.987	7.28
552.33	7.18
552.674	7.23
553.017	7.19
553.361	7.32
553.704	7.3
554.048	7.34
554.391	7.19
554.734	7.35
555.077	7.36
555.42	7.37
555.764	7.34
556.107	7.52
556.45	7.46
556.793	7.49
557.135	7.57
557.478	7.79
557.821	7.59
558.164	7.58
558.507	7.41
558.849	7.63
559.192	7.67
559.534	7.72
559.877	7.93
560.219	7.7
560.562	7.86
560.904	7.61
561.246	7.95
561.589	7.84
561.931	7.79
562.273	8.04
562.615	7.87
562.957	7.74
563.299	7.71
563.641	7.97
563.983	7.91
564.325	7.97
564.667	8.14
565.008	8.03
565.35	7.98
565.692	8.07
566.033	8.1
566.375	8.29
566.716	8.13
567.058	8.24
567.399	8.03
567.741	8.13
568.082	8.04
568.423	8
568.764	8.15
569.105	8.24
569.447	8.21
569.788	8.23
570.129	8.35
570.47	8.4
570.811	8.4
571.151	8.61
571.492	8.38
571.833	8.35
572.174	8.41
572.514	8.79
572.855	8.45
573.195	8.47
573.536	8.65
573.876	8.31
574.217	8.58
574.557	8.47
574.898	8.58
575.238	8.74
575.578	8.71
575.918	8.63
576.258	8.7
576.598	8.69
576.938	8.8
577.278	8.78
577.618	8.73
577.958	8.98
578.298	8.9
578.638	8.93
578.977	9
579.317	9.17
579.657	9.18
579.996	8.97
580.336	9.11
580.675	9.18
581.014	9.29
581.354	9.42
581.693	9.42
582.032	9.32
582.372	9.46
582.711	9.43
583.05	9.35
583.389	9.47
583.728	9.46
584.067	9.56
584.406	9.59
584.745	9.51
585.083	9.46
585.422	9.54
585.761	9.37
586.1	9.56
586.438	9.67
586.777	9.72
587.115	9.9
587.454	9.84
587.792	9.88
588.13	10.08
588.469	10
588.807	9.72
589.145	10.13
589.483	9.95
589.821	9.99
590.159	10.12
590.497	10.02
590.835	10.11
591.173	10.35
591.511	10.12
591.849	10.11
592.187	10.24
592.524	10.45
592.862	10.48
593.2	10.58
593.537	10.53
593.875	10.37
594.212	10.52
594.55	10.46
594.887	10.67
595.224	10.63
595.561	10.56
595.899	10.3
596.236	10.44
596.573	10.64
596.91	10.73
597.247	10.69
597.584	10.75
597.921	10.85
598.258	10.64
598.594	10.61
598.931	10.84
599.268	10.83
599.604	10.83
599.941	10.89
600.277	10.82
600.614	10.97
600.95	10.96
601.287	10.97
601.623	10.88
601.959	11.21
602.296	11.03
602.632	11.41
602.968	10.98
603.304	11.08
603.64	11.44
603.976	11.25
604.312	11.38
604.648	11.43
604.984	11.29
605.319	11.63
605.655	11.47
605.991	11.34
606.326	11.31
606.662	11.39
606.998	11.69
607.333	11.48
607.668	11.57
608.004	11.74
608.339	11.72
608.674	11.76
609.01	11.7
609.345	11.84
609.68	11.77
610.015	12.02
610.35	12.05
610.685	11.69
611.02	12.12
611.355	11.89
611.689	12.08
612.024	12.05
612.359	11.94
612.694	12.07
613.028	12.49
613.363	12.23
613.697	12.53
614.032	12.35
614.366	12.53
614.7	12.62
615.035	12.55
615.369	12.81
615.703	12.52
616.037	12.41
616.371	12.78
616.705	12.57
617.039	12.56
617.373	12.74
617.707	12.97
618.041	12.81
618.375	13.07
618.709	12.61
619.042	12.75
619.376	13.19
619.71	12.93
620.043	12.87
620.377	12.78
620.71	13.08
621.043	12.94
621.377	12.67
621.71	13.1
622.043	12.9
622.376	12.87
622.709	13.44
623.043	13.21
623.376	13.26
623.709	13.55
624.041	13.14
624.374	13.39
624.707	13.27
625.04	13.9
625.373	13.73
625.705	13.79
626.038	13.98
626.37	13.64
626.703	13.8
627.035	13.87
627.368	14.19
627.7	13.7
628.032	13.92
628.365	13.72
628.697	13.9
629.029	14.06
629.361	14.17
629.693	14.03
630.025	13.99
630.357	14.15
630.689	14.29
631.021	14.01
631.353	14.51
631.684	14.39
632.016	14.33
632.348	14.66
632.679	14.36
633.011	14.45
633.342	14.51
633.674	14.69
634.005	14.27
634.336	14.84
634.668	14.92
634.999	14.6
635.33	14.76
635.661	14.98
635.992	15.03
636.323	15.04
636.654	15.14
636.985	15.07
637.316	14.63
637.647	14.98
637.977	15.02
638.308	15.07
638.639	14.85
638.969	15.05
639.3	15.21
639.63	14.93
639.961	15.58
640.291	15.19
640.622	15.93
640.952	15.07
641.282	15.49
641.612	15.67
641.943	15.43
642.273	15.63
642.603	15.64
642.933	15.95
643.263	15.16
643.592	15.72
643.922	16.07
644.252	16.14
644.582	16.13
644.911	15.52
645.241	15.96
645.571	16.41
645.9	15.71
646.23	16.05
646.559	15.71
646.888	16.43
647.218	16.27
647.547	16.17
647.876	15.81
648.205	15.98
648.534	16.2
648.863	16.55
649.192	16.88
649.521	16.49
649.85	16.14
650.179	16.29
650.508	16.48
650.837	16.6
651.165	16.63
651.494	16.43
651.822	16.6
652.151	16.64
652.479	16.76
652.808	17.08
653.136	16.75
653.465	16.59
653.793	17.17
654.121	16.8
654.449	16.99
654.777	16.87
655.105	17.06
655.433	17.44
655.761	16.69
656.089	17.55
656.417	17.13
656.745	16.91
657.073	16.85
657.4	17.3
657.728	17.36
658.056	17.75
658.383	17.61
658.711	17.55
659.038	17.59
659.365	17.07
659.693	17.54
660.02	17.86
660.347	17.56
660.674	17.42
661.001	18.01
661.329	17.49
661.656	17.79
661.982	17.62
662.309	17.94
662.636	17.69
662.963	17.92
663.29	18.32
663.616	18.1
663.943	18.55
664.27	17.95
664.596	18
664.923	18.67
665.249	18.46
665.576	18.55
665.902	18.26
666.228	18.4
666.554	18.34
666.881	18
667.207	18.15
667.533	18.4
667.859	18.41
668.185	18.76
668.511	18.39
668.837	19.12
669.162	18.22
669.488	18.36
669.814	19.17
670.139	18.92
670.465	18.54
670.791	18.61
671.116	18.85
671.442	19.02
671.767	18.58
672.092	19
672.418	18.95
672.743	19.26
673.068	18.91
673.393	18.79
673.718	19.17
674.043	19.71
674.368	19.35
674.693	19.23
675.018	19.4
675.343	19.65
675.667	19.95
675.992	19.68
676.317	19.63
676.641	19.99
676.966	19.54
677.29	19.44
677.615	20.16
677.939	19.69
678.264	19.69
678.588	19.79
678.912	19.51
679.236	20.22
679.56	20.08
679.885	20.1
680.209	20.04
680.532	19.66
680.856	20.22
681.18	20.34
681.504	20.43
681.828	20.81
682.152	20.9
682.475	20.51
682.799	20.34
683.122	20.36
683.446	20.49
683.769	20.41
684.093	20.29
684.416	21.52
684.739	20.7
685.062	20.3
685.386	20.73
685.709	20.88
686.032	20.69
