Data from 97282_crown_Reflection__1__102.txt Node

Date: Fri Sep 23 20:29:01 CDT 2022
User: ToomeyLab
Spectrometer: FLMS14357
Trigger mode: 0
Integration Time (sec): 1.000000E-2
Scans to average: 100
Electric dark correction enabled: true
Nonlinearity correction enabled: false
Boxcar width: 0
XAxis mode: Wavelengths
Number of Pixels in Spectrum: 2048
>>>>>Begin Spectral Data<<<<<
189.047	-112.06
189.435	-112.06
189.823	-112.06
190.211	-99.37
190.599	-50.36
190.987	-109.18
191.375	998.52
191.763	75.44
192.151	-14.71
192.538	-114.72
192.926	169.73
193.314	52.68
193.702	248.63
194.089	-12.68
194.477	108.42
194.864	24.9
195.252	114.02
195.639	132.44
196.027	27.21
196.414	46960
196.801	19.88
197.189	-1472.94
197.576	-962.42
197.963	-1968.32
198.351	34.49
198.738	-129.4
199.125	10.3
199.512	-24.53
199.899	5.97
200.286	29.89
200.673	18.44
201.06	-43.81
201.447	25.55
201.833	12.36
202.22	-30.34
202.607	-5.81
202.994	9.03
203.38	-21.11
203.767	-12.62
204.154	-2.1
204.54	21.73
204.927	10.46
205.313	9.5
205.699	-26.11
206.086	31.57
206.472	22.59
206.858	38.84
207.245	-28.97
207.631	-4.34
208.017	-21.08
208.403	18.02
208.789	18.04
209.175	34.71
209.561	-0.18
209.947	3
210.333	-9.22
210.719	-4.7
211.105	10.85
211.491	7.37
211.876	19.47
212.262	-27.46
212.648	-49.3
213.034	-35.81
213.419	-42.08
213.805	31.07
214.19	18.11
214.576	11.06
214.961	4.58
215.346	-35.77
215.732	15.09
216.117	-10.3
216.502	7.98
216.888	0.48
217.273	6.69
217.658	-29
218.043	4.27
218.428	2.14
218.813	16.1
219.198	4.36
219.583	22.42
219.968	-2.25
220.353	-7.56
220.738	11.95
221.122	8.02
221.507	-11.82
221.892	-6.64
222.276	-10.19
222.661	-2.45
223.046	9.2
223.43	-13.71
223.815	11.5
224.199	-4.98
224.583	3.35
224.968	1.72
225.352	-3.95
225.736	-1.08
226.121	13.7
226.505	0.22
226.889	5.21
227.273	2.19
227.657	2.37
228.041	1.2
228.425	6.21
228.809	1.88
229.193	2.75
229.577	5.52
229.961	4.11
230.344	4.35
230.728	3.43
231.112	3.79
231.495	4.2
231.879	2.65
232.263	3.73
232.646	3.42
233.03	4.52
233.413	6.01
233.797	4.8
234.18	4.16
234.563	0.96
234.946	4.15
235.33	2.82
235.713	5.09
236.096	2.56
236.479	2
236.862	5.41
237.245	5.36
237.628	4.98
238.011	6.28
238.394	3.07
238.777	4.5
239.16	2.55
239.543	4.22
239.925	5.44
240.308	4.69
240.691	6.61
241.073	4.04
241.456	4.79
241.838	6.57
242.221	5.3
242.603	4.88
242.986	3.61
243.368	3.98
243.75	4.76
244.133	4.8
244.515	4.8
244.897	4.86
245.279	4.95
245.661	5.37
246.043	4.77
246.425	4.27
246.807	3.77
247.189	4.71
247.571	4.51
247.953	4.6
248.335	5.08
248.717	4.92
249.098	4.88
249.48	4.83
249.862	4.99
250.243	4.87
250.625	4.97
251.006	5.03
251.388	4.16
251.769	4.71
252.151	3.81
252.532	4.92
252.913	5.29
253.295	4.56
253.676	4.74
254.057	4.59
254.438	4.8
254.819	4.89
255.2	5.24
255.581	5.07
255.962	4.41
256.343	5.04
256.724	3.64
257.105	4.35
257.486	4.07
257.867	4.45
258.247	4.92
258.628	4.73
259.009	4.98
259.389	4.83
259.77	3.66
260.15	4.83
260.531	4.68
260.911	4.7
261.292	4.34
261.672	4.39
262.052	4.43
262.432	4.43
262.813	4.86
263.193	4.02
263.573	4.51
263.953	4.52
264.333	4.22
264.713	4.33
265.093	4.81
265.473	4.72
265.853	4.03
266.233	3.88
266.612	3.89
266.992	5.06
267.372	4.39
267.752	4.65
268.131	4.51
268.511	3.98
268.89	4.71
269.27	4.07
269.649	4.13
270.029	4.66
270.408	4.53
270.787	4.09
271.167	4.45
271.546	4.61
271.925	4.38
272.304	4.39
272.683	4.05
273.062	4.01
273.441	4.22
273.82	4.31
274.199	3.96
274.578	4.04
274.957	3.78
275.336	4.46
275.715	4.12
276.093	4.94
276.472	4.3
276.851	4.2
277.229	4.56
277.608	3.96
277.986	3.88
278.365	4.1
278.743	4.43
279.122	3.78
279.5	4.34
279.878	4.16
280.257	4.24
280.635	4.04
281.013	3.82
281.391	3.93
281.769	4.55
282.147	3.9
282.525	4.05
282.903	4.25
283.281	4.43
283.659	4.22
284.037	3.9
284.415	3.9
284.792	4.34
285.17	3.95
285.548	3.98
285.925	4.12
286.303	4.35
286.68	4.03
287.058	3.92
287.435	3.7
287.813	4.08
288.19	3.99
288.567	4.16
288.945	4.17
289.322	3.99
289.699	4.48
290.076	4.63
290.453	4.38
290.83	4.2
291.207	4.1
291.584	4.17
291.961	4.23
292.338	4.3
292.715	4.07
293.092	3.79
293.469	4.68
293.845	4.51
294.222	4.42
294.599	4.15
294.975	4.51
295.352	4.32
295.728	3.96
296.105	4.02
296.481	4.09
296.858	4.35
297.234	4.53
297.61	3.85
297.986	4.1
298.363	3.9
298.739	4.15
299.115	4.05
299.491	4.35
299.867	4.17
300.243	3.94
300.619	4.5
300.995	4.19
301.371	4.33
301.746	4.85
302.122	4.26
302.498	4.36
302.874	4.15
303.249	4.12
303.625	4.4
304	3.82
304.376	4.13
304.751	4.09
305.127	4.27
305.502	4.12
305.878	4.2
306.253	4.49
306.628	3.87
307.003	3.59
307.378	4.74
307.754	4.35
308.129	4.54
308.504	4.33
308.879	4.43
309.254	4.44
309.629	4.29
310.003	4.31
310.378	4.23
310.753	4.44
311.128	4.05
311.502	4.35
311.877	4.07
312.252	4.23
312.626	3.81
313.001	4.43
313.375	4.04
313.75	4.03
314.124	3.95
314.498	4.47
314.873	4.6
315.247	4.31
315.621	4.22
315.995	4.75
316.369	4.27
316.743	3.89
317.117	4.08
317.491	4.19
317.865	4.22
318.239	4.68
318.613	4.15
318.987	4.37
319.361	4.24
319.734	4.25
320.108	3.78
320.482	4.44
320.855	4.29
321.229	4.64
321.602	4.45
321.976	4.29
322.349	4.42
322.723	4.7
323.096	4.36
323.469	3.55
323.843	3.87
324.216	4.97
324.589	4.92
324.962	4.25
325.335	3.89
325.708	4.27
326.081	4.17
326.454	4.47
326.827	4.38
327.2	4.55
327.573	4.46
327.945	4.16
328.318	3.77
328.691	4.29
329.063	4.38
329.436	4.21
329.809	4.64
330.181	4.31
330.553	4.03
330.926	4.51
331.298	4.38
331.671	4.2
332.043	4.37
332.415	4.24
332.787	3.99
333.159	4.37
333.532	4.22
333.904	4.06
334.276	3.84
334.648	4.15
335.02	4.48
335.391	4.46
335.763	3.61
336.135	4.88
336.507	4.57
336.879	4.27
337.25	4.28
337.622	4.43
337.993	4.27
338.365	4.18
338.736	4.79
339.108	5.33
339.479	3.99
339.851	4.37
340.222	4.6
340.593	4.65
340.964	4.67
341.336	4.49
341.707	5.09
342.078	4.25
342.449	4.29
342.82	4.29
343.191	4.35
343.562	4.53
343.933	5.09
344.303	4.2
344.674	4.66
345.045	4.59
345.416	4.15
345.786	4.63
346.157	4.59
346.527	4.8
346.898	4.48
347.268	4.61
347.639	4.27
348.009	4.18
348.38	4.26
348.75	4.88
349.12	4.48
349.49	4.52
349.861	4.61
350.231	4.03
350.601	4.48
350.971	4.53
351.341	4.1
351.711	4.43
352.081	4.35
352.45	3.86
352.82	4.08
353.19	4.86
353.56	5.08
353.929	4.07
354.299	4.54
354.669	4.55
355.038	4.36
355.408	4.07
355.777	4.46
356.147	4.15
356.516	4.43
356.885	4.28
357.254	4.13
357.624	4.2
357.993	4.54
358.362	4.23
358.731	4.51
359.1	4.14
359.469	4.04
359.838	4.43
360.207	4.65
360.576	4.51
360.945	4.39
361.314	4.19
361.682	4.07
362.051	4.77
362.42	4.7
362.788	4.6
363.157	4.5
363.525	4.6
363.894	4.32
364.262	4.63
364.631	4.75
364.999	4.63
365.367	4.27
365.735	4.49
366.104	4.66
366.472	4.59
366.84	4.55
367.208	4.89
367.576	4.58
367.944	4.47
368.312	4.66
368.68	4.3
369.048	4.32
369.416	4.57
369.783	4.59
370.151	4.91
370.519	4.39
370.886	4.53
371.254	4.51
371.621	4.99
371.989	4.53
372.356	4.75
372.724	4.61
373.091	4.64
373.458	4.68
373.826	4.33
374.193	4.46
374.56	4.43
374.927	4.58
375.294	4.63
375.661	4.73
376.028	4.49
376.395	4.72
376.762	4.46
377.129	4.44
377.496	4.92
377.863	4.76
378.229	4.49
378.596	4.37
378.963	4.79
379.329	4.73
379.696	4.61
380.062	4.55
380.429	4.35
380.795	4.44
381.161	4.61
381.528	4.61
381.894	4.82
382.26	4.52
382.626	4.86
382.993	4.76
383.359	4.76
383.725	5.02
384.091	4.71
384.457	4.6
384.823	4.69
385.188	4.58
385.554	4.65
385.92	4.89
386.286	4.53
386.651	4.68
387.017	4.85
387.383	4.64
387.748	4.85
388.114	4.76
388.479	4.91
388.845	4.81
389.21	4.78
389.575	4.53
389.94	4.69
390.306	4.43
390.671	4.55
391.036	4.85
391.401	4.99
391.766	4.9
392.131	4.84
392.496	4.88
392.861	4.78
393.226	4.52
393.591	4.7
393.956	4.78
394.32	4.87
394.685	4.9
395.05	4.75
395.414	4.74
395.779	4.75
396.143	4.77
396.508	4.78
396.872	4.77
397.236	4.91
397.601	4.99
397.965	4.74
398.329	4.84
398.694	4.8
399.058	4.83
399.422	4.95
399.786	5.09
400.15	4.72
400.514	4.7
400.878	4.88
401.242	4.73
401.605	5.22
401.969	4.99
402.333	4.72
402.697	4.68
403.06	4.73
403.424	4.69
403.787	4.72
404.151	4.85
404.514	4.66
404.878	4.89
405.241	5.04
405.604	4.76
405.968	4.84
406.331	4.84
406.694	4.93
407.057	4.8
407.42	4.83
407.783	4.92
408.146	4.97
408.509	5.02
408.872	4.82
409.235	5.02
409.598	5.14
409.961	4.86
410.323	4.85
410.686	5.18
411.049	4.89
411.411	4.86
411.774	5.08
412.136	4.84
412.499	4.82
412.861	4.7
413.223	4.9
413.586	4.9
413.948	4.98
414.31	4.81
414.672	5.07
415.035	4.78
415.397	5.26
415.759	5.01
416.121	5.29
416.483	4.94
416.845	4.77
417.206	5.03
417.568	4.99
417.93	4.83
418.292	5.06
418.653	5.1
419.015	4.8
419.377	4.82
419.738	5.03
420.1	4.91
420.461	4.95
420.822	4.95
421.184	4.94
421.545	5.01
421.906	5.06
422.267	4.93
422.629	4.89
422.99	4.94
423.351	4.95
423.712	4.84
424.073	4.88
424.434	4.96
424.795	4.96
425.155	4.92
425.516	5.04
425.877	4.89
426.238	5
426.598	4.92
426.959	4.98
427.32	4.97
427.68	5.07
428.041	5
428.401	4.97
428.761	5.04
429.122	5.07
429.482	5.02
429.842	5.27
430.202	5.17
430.563	5.08
430.923	5.19
431.283	5.34
431.643	5.06
432.003	5
432.363	5.38
432.722	5.13
433.082	5.07
433.442	5.08
433.802	4.88
434.161	4.97
434.521	5.13
434.881	4.89
435.24	5.04
435.6	5.04
435.959	5.04
436.319	5.11
436.678	5.1
437.037	5.21
437.396	5.25
437.756	5.14
438.115	5.07
438.474	5.14
438.833	5.15
439.192	5.19
439.551	5.16
439.91	5.1
440.269	5.12
440.628	5.02
440.987	4.92
441.345	5.07
441.704	4.91
442.063	5.1
442.421	4.99
442.78	5.02
443.138	4.93
443.497	5.18
443.855	5.06
444.214	5.23
444.572	4.97
444.93	5.02
445.288	5.17
445.647	5.25
446.005	5.11
446.363	5.12
446.721	5.01
447.079	5.13
447.437	5.1
447.795	5.07
448.153	4.9
448.51	5.1
448.868	5.07
449.226	5.15
449.584	5.01
449.941	5.14
450.299	5.3
450.656	5.14
451.014	5.24
451.371	5.09
451.729	5.14
452.086	5.22
452.443	5.1
452.801	5.01
453.158	5.03
453.515	5.18
453.872	5.12
454.229	5.35
454.586	5.13
454.943	5.29
455.3	5.24
455.657	5.19
456.014	5.38
456.371	5.24
456.727	5.33
457.084	5.07
457.441	5.45
457.797	5.11
458.154	5.18
458.51	5.24
458.867	5.21
459.223	5.23
459.58	5.12
459.936	5.26
460.292	5.16
460.648	5.18
461.005	5.19
461.361	5
461.717	5.12
462.073	5.15
462.429	5.15
462.785	5.24
463.141	5.19
463.496	5.34
463.852	5.29
464.208	5.23
464.564	5.42
464.919	5.34
465.275	5.51
465.631	5.2
465.986	5.11
466.342	5.29
466.697	5.23
467.052	5.27
467.408	5.43
467.763	5.36
468.118	5.17
468.473	5.35
468.829	5.24
469.184	5.4
469.539	5.2
469.894	5.34
470.249	5.07
470.603	5.37
470.958	5.45
471.313	5.32
471.668	5.41
472.023	4.98
472.377	5.19
472.732	5.33
473.086	5.35
473.441	5.37
473.795	5.51
474.15	5.47
474.504	5.26
474.859	5.25
475.213	5.45
475.567	5.27
475.921	5.45
476.275	5.19
476.63	5.22
476.984	5.43
477.338	5.34
477.692	5.15
478.045	5.08
478.399	5.39
478.753	5.38
479.107	5.26
479.461	5.29
479.814	5.21
480.168	5.32
480.521	5.28
480.875	5.25
481.228	5.34
481.582	5.35
481.935	5.31
482.289	5.36
482.642	5.27
482.995	5.45
483.348	5.16
483.701	5.24
484.055	5.15
484.408	5.21
484.761	5.12
485.114	4.99
485.466	4.88
485.819	4.91
486.172	5.01
486.525	5.17
486.878	5.23
487.23	5.31
487.583	5.26
487.936	5.28
488.288	5.23
488.641	5.16
488.993	5.09
489.345	5.13
489.698	5.07
490.05	5.17
490.402	5.12
490.754	5.27
491.107	5.31
491.459	5.25
491.811	5.28
492.163	5.4
492.515	5.24
492.866	5.17
493.218	5.08
493.57	5.07
493.922	5.2
494.274	5.21
494.625	5.37
494.977	5.34
495.328	5.48
495.68	5.51
496.031	5.41
496.383	5.42
496.734	5.42
497.086	5.47
497.437	5.48
497.788	5.44
498.139	5.49
498.49	5.39
498.842	5.3
499.193	5.49
499.544	5.23
499.894	5.38
500.245	5.36
500.596	5.4
500.947	5.33
501.298	5.52
501.648	5.61
501.999	5.54
502.35	5.63
502.7	5.52
503.051	5.44
503.401	5.45
503.752	5.37
504.102	5.57
504.452	5.4
504.803	5.48
505.153	5.46
505.503	5.31
505.853	5.44
506.203	5.43
506.553	5.51
506.903	5.39
507.253	5.46
507.603	5.34
507.953	5.45
508.303	5.43
508.652	5.48
509.002	5.54
509.352	5.45
509.701	5.36
510.051	5.48
510.4	5.46
510.75	5.46
511.099	5.55
511.449	5.43
511.798	5.5
512.147	5.52
512.496	5.48
512.846	5.5
513.195	5.44
513.544	5.51
513.893	5.45
514.242	5.47
514.591	5.41
514.939	5.67
515.288	5.56
515.637	5.57
515.986	5.6
516.334	5.48
516.683	5.49
517.032	5.56
517.38	5.57
517.729	5.4
518.077	5.44
518.426	5.63
518.774	5.5
519.122	5.43
519.47	5.47
519.819	5.43
520.167	5.41
520.515	5.51
520.863	5.51
521.211	5.46
521.559	5.58
521.907	5.56
522.255	5.52
522.602	5.44
522.95	5.58
523.298	5.7
523.645	5.66
523.993	5.56
524.341	5.67
524.688	5.53
525.036	5.59
525.383	5.52
525.73	5.6
526.078	5.68
526.425	5.62
526.772	5.51
527.119	5.5
527.466	5.45
527.814	5.47
528.161	5.52
528.508	5.61
528.854	5.52
529.201	5.48
529.548	5.54
529.895	5.33
530.242	5.21
530.588	5.26
530.935	5.37
531.282	5.46
531.628	5.47
531.975	5.56
532.321	5.56
532.667	5.62
533.014	5.57
533.36	5.52
533.706	5.6
534.052	5.55
534.399	5.53
534.745	5.48
535.091	5.42
535.437	5.46
535.783	5.57
536.129	5.59
536.474	5.63
536.82	5.67
537.166	5.65
537.512	5.57
537.857	5.64
538.203	5.67
538.549	5.51
538.894	5.68
539.239	5.71
539.585	5.69
539.93	5.79
540.276	5.86
540.621	5.77
540.966	5.78
541.311	5.84
541.656	5.68
542.001	5.77
542.346	5.61
542.691	5.53
543.036	5.49
543.381	5.48
543.726	5.56
544.071	5.6
544.415	5.64
544.76	5.68
545.105	5.69
545.449	5.67
545.794	5.72
546.138	5.76
546.483	5.62
546.827	5.91
547.171	5.89
547.516	5.87
547.86	5.66
548.204	5.82
548.548	5.62
548.892	5.62
549.236	5.78
549.58	5.76
549.924	6.01
550.268	5.93
550.612	5.93
550.956	5.89
551.3	5.87
551.643	5.89
551.987	5.83
552.33	5.89
552.674	5.95
553.017	5.85
553.361	5.86
553.704	5.78
554.048	5.82
554.391	5.78
554.734	5.89
555.077	5.86
555.42	5.91
555.764	5.85
556.107	5.8
556.45	5.93
556.793	5.87
557.135	6.04
557.478	6
557.821	6
558.164	5.99
558.507	5.93
558.849	5.99
559.192	5.98
559.534	6.12
559.877	6.3
560.219	6.04
560.562	6.15
560.904	5.98
561.246	5.99
561.589	6.18
561.931	5.95
562.273	6.15
562.615	6.04
562.957	5.91
563.299	6
563.641	6.11
563.983	5.98
564.325	6.05
564.667	6.05
565.008	5.99
565.35	6.1
565.692	5.95
566.033	5.96
566.375	6.03
566.716	6.12
567.058	5.94
567.399	5.91
567.741	6.08
568.082	5.92
568.423	5.9
568.764	5.97
569.105	6.03
569.447	5.94
569.788	6.04
570.129	6.07
570.47	6.03
570.811	5.99
571.151	6.2
571.492	6.13
571.833	6.05
572.174	6.04
572.514	6.1
572.855	5.87
573.195	6.06
573.536	6.04
573.876	5.93
574.217	6.02
574.557	5.99
574.898	5.95
575.238	6.13
575.578	6.13
575.918	6.15
576.258	6.07
576.598	6.15
576.938	6.08
577.278	6.12
577.618	6.01
577.958	6.14
578.298	6.01
578.638	6.28
578.977	6.13
579.317	6.17
579.657	6.13
579.996	6.03
580.336	6.04
580.675	6.11
581.014	6.1
581.354	6.25
581.693	6.14
582.032	6.5
582.372	6.31
582.711	6.09
583.05	6.1
583.389	6.16
583.728	6.34
584.067	6.32
584.406	6.12
584.745	6.28
585.083	6.08
585.422	6.14
585.761	6.25
586.1	6.05
586.438	6.14
586.777	6.19
587.115	6.13
587.454	6.24
587.792	6.41
588.13	6.38
588.469	6.15
588.807	6.24
589.145	6.29
589.483	6.33
589.821	6.15
590.159	6.48
590.497	6.13
590.835	6.1
591.173	6.26
591.511	6.21
591.849	6.2
592.187	6.4
592.524	6.58
592.862	6.39
593.2	6.41
593.537	6.32
593.875	6.36
594.212	6.55
594.55	6.08
594.887	6.29
595.224	6.43
595.561	6.21
595.899	6.31
596.236	6.07
596.573	6.43
596.91	6.23
597.247	6.5
597.584	6.23
597.921	6.24
598.258	6.27
598.594	6.29
598.931	6.34
599.268	6.23
599.604	6.34
599.941	6.45
600.277	6.5
600.614	6.15
600.95	6.32
601.287	6.21
601.623	6.37
601.959	6.34
602.296	6.17
602.632	6.33
602.968	6.08
603.304	6.51
603.64	6.33
603.976	6.3
604.312	6.61
604.648	6.52
604.984	6.28
605.319	6.24
605.655	6.16
605.991	6.26
606.326	6.25
606.662	6.35
606.998	6.4
607.333	6.25
607.668	6.15
608.004	6.31
608.339	6.31
608.674	6.58
609.01	6.45
609.345	6.41
609.68	6.33
610.015	6.64
610.35	6.66
610.685	6.21
611.02	6.45
611.355	6.39
611.689	6.5
612.024	6.49
612.359	6.35
612.694	6.79
613.028	6.66
613.363	6.61
613.697	6.35
614.032	6.56
614.366	6.69
614.7	6.58
615.035	6.68
615.369	6.7
615.703	6.42
616.037	6.45
616.371	6.62
616.705	6.21
617.039	6.42
617.373	6.61
617.707	7.06
618.041	6.6
618.375	6.72
618.709	6.2
619.042	6.49
619.376	6.99
619.71	6.59
620.043	6.26
620.377	6.34
620.71	6.51
621.043	6.63
621.377	6.08
621.71	6.72
622.043	6.35
622.376	6.49
622.709	6.7
623.043	6.42
623.376	6.6
623.709	6.39
624.041	6.29
624.374	6.33
624.707	6.59
625.04	6.9
625.373	6.67
625.705	6.78
626.038	6.7
626.37	6.55
626.703	6.28
627.035	6.79
627.368	6.8
627.7	6.85
628.032	6.65
628.365	6.57
628.697	6.46
629.029	6.71
629.361	6.86
629.693	6.65
630.025	6.81
630.357	6.75
630.689	6.72
631.021	6.68
631.353	6.83
631.684	6.54
632.016	6.68
632.348	6.55
632.679	6.86
633.011	6.89
633.342	6.83
633.674	6.52
634.005	6.45
634.336	7.09
634.668	6.77
634.999	6.52
635.33	6.58
635.661	6.66
635.992	6.82
636.323	6.51
636.654	6.83
636.985	6.85
637.316	6.89
637.647	6.81
637.977	6.83
638.308	6.86
638.639	6.61
638.969	6.91
639.3	6.53
639.63	6.38
639.961	6.97
640.291	6.85
640.622	6.82
640.952	6.68
641.282	6.76
641.612	6.77
641.943	6.93
642.273	7.2
642.603	6.87
642.933	6.98
643.263	6.57
643.592	7.09
643.922	6.81
644.252	6.96
644.582	7.27
644.911	6.77
645.241	7.23
645.571	7.14
645.9	6.68
646.23	7.36
646.559	6.31
646.888	7.1
647.218	6.85
647.547	6.85
647.876	6.64
648.205	6.58
648.534	7.08
648.863	7.13
649.192	7.07
649.521	6.96
649.85	6.78
650.179	6.43
650.508	7.16
650.837	7.18
651.165	7.18
651.494	6.93
651.822	6.97
652.151	6.45
652.479	6.96
652.808	6.9
653.136	6.83
653.465	6.54
653.793	7.11
654.121	6.75
654.449	6.56
654.777	7.16
655.105	7.06
655.433	7.37
655.761	7.04
656.089	7.01
656.417	7.25
656.745	6.91
657.073	6.52
657.4	7.44
657.728	6.84
658.056	7.17
658.383	7.12
658.711	7.13
659.038	6.89
659.365	6.9
659.693	7.4
660.02	7.61
660.347	7.17
660.674	6.96
661.001	7.25
661.329	6.71
661.656	7.3
661.982	6.9
662.309	7.2
662.636	7.15
662.963	7.21
663.29	7.46
663.616	6.93
663.943	7.14
664.27	7.2
664.596	7.1
664.923	7.38
665.249	7.6
665.576	7.34
665.902	6.92
666.228	7.91
666.554	6.99
666.881	6.88
667.207	7
667.533	6.99
667.859	7.18
668.185	7.91
668.511	6.81
668.837	7.41
669.162	6.91
669.488	7.32
669.814	7.51
670.139	6.96
670.465	7.35
670.791	7.27
671.116	7.27
671.442	7.72
671.767	7.24
672.092	6.9
672.418	6.91
672.743	7.51
673.068	6.81
673.393	7.32
673.718	7.33
674.043	7.49
674.368	7.03
674.693	6.9
675.018	7.22
675.343	7.85
675.667	7.07
675.992	7.79
676.317	8
676.641	7.18
676.966	7.62
677.29	7.63
677.615	7.38
677.939	6.89
678.264	7.12
678.588	7.61
678.912	7.11
679.236	6.83
679.56	7.57
679.885	7.29
680.209	7.35
680.532	7.36
680.856	7.43
681.18	7.12
681.504	7.66
681.828	7.58
682.152	7.88
682.475	7.49
682.799	7.66
683.122	6.83
683.446	7.29
683.769	7.23
684.093	7.43
684.416	7.56
684.739	8.09
685.062	7.25
685.386	7.24
685.709	7.42
686.032	7.44
686.355	7.15
686.678	6.97
687.001	7.6
687.324	7.97
687.646	8.16
687.969	8.02
688.292	7.28
688.614	8.07
688.937	6.91
689.26	7.37
689.582	6.57
689.904	8.02
690.227	7.4
690.549	7.09
690.871	7.62
691.194	7.34
691.516	7.51
691.838	7.17
692.16	7.7
692.482	7.56
