Data from 97282_chest_Reflection__2__93.txt Node

Date: Fri Sep 23 20:24:19 CDT 2022
User: ToomeyLab
Spectrometer: FLMS14357
Trigger mode: 0
Integration Time (sec): 1.000000E-2
Scans to average: 100
Electric dark correction enabled: true
Nonlinearity correction enabled: false
Boxcar width: 0
XAxis mode: Wavelengths
Number of Pixels in Spectrum: 2048
>>>>>Begin Spectral Data<<<<<
189.047	527.83
189.435	527.83
189.823	527.83
190.211	30.71
190.599	135.01
190.987	-52.26
191.375	-414.07
191.763	40.15
192.151	-50.97
192.538	5.67
192.926	-22.49
193.314	40.75
193.702	90.11
194.089	105.53
194.477	80.33
194.864	-157.37
195.252	115.94
195.639	118.67
196.027	-60.84
196.414	-13700
196.801	25.51
197.189	-2914.12
197.576	-1220
197.963	-1391.09
198.351	41.19
198.738	-148.65
199.125	14.48
199.512	27.24
199.899	36.29
200.286	33.74
200.673	39.82
201.06	18.93
201.447	59.18
201.833	7.13
202.22	-10.1
202.607	-8.45
202.994	22.53
203.38	-5.28
203.767	-15.83
204.154	13.36
204.54	3.61
204.927	32.97
205.313	11.77
205.699	-49.08
206.086	11.65
206.472	27.5
206.858	24.8
207.245	4.24
207.631	6.64
208.017	-14.52
208.403	23.64
208.789	34.36
209.175	35.81
209.561	30.2
209.947	20.46
210.333	31.37
210.719	4.58
211.105	16.27
211.491	2.59
211.876	5.47
212.262	23.41
212.648	68.39
213.034	-39.88
213.419	18.88
213.805	16.52
214.19	5.86
214.576	0.67
214.961	12.93
215.346	-0.02
215.732	38.18
216.117	6.84
216.502	15.65
216.888	10.32
217.273	9.5
217.658	-26.01
218.043	16.23
218.428	4.73
218.813	10.7
219.198	12.08
219.583	15.17
219.968	18.97
220.353	-5.26
220.738	-6.53
221.122	-7.74
221.507	4.09
221.892	2.86
222.276	-11.68
222.661	-3.77
223.046	6.08
223.43	4.34
223.815	2.26
224.199	2.39
224.583	10.14
224.968	7.64
225.352	4.44
225.736	4.67
226.121	15.73
226.505	10.14
226.889	5.86
227.273	5.53
227.657	3.63
228.041	5.9
228.425	9.14
228.809	8.42
229.193	6.12
229.577	6.96
229.961	5.03
230.344	4.53
230.728	4.72
231.112	4.76
231.495	4.8
231.879	2.82
232.263	5.4
232.646	6.42
233.03	5
233.413	5.7
233.797	5.58
234.18	5.46
234.563	4.56
234.946	6.63
235.33	3.86
235.713	6.04
236.096	2.96
236.479	5.66
236.862	5
237.245	6.01
237.628	4.45
238.011	6.45
238.394	4.21
238.777	5.37
239.16	4.18
239.543	5.81
239.925	4.6
240.308	6.35
240.691	5.95
241.073	3.01
241.456	4.38
241.838	6.71
242.221	6.04
242.603	6.62
242.986	3.96
243.368	4.78
243.75	4.98
244.133	4.87
244.515	4.82
244.897	4.94
245.279	5.03
245.661	5.61
246.043	5.84
246.425	4.72
246.807	4.31
247.189	6.59
247.571	5
247.953	5.04
248.335	5.14
248.717	5.12
249.098	5.09
249.48	4.84
249.862	4.88
250.243	4.84
250.625	5.05
251.006	5.43
251.388	5.02
251.769	4.89
252.151	3.79
252.532	5.68
252.913	5.24
253.295	5.15
253.676	5.22
254.057	4.71
254.438	4.7
254.819	5.18
255.2	4.66
255.581	6.19
255.962	4.16
256.343	5.12
256.724	4.31
257.105	4.37
257.486	4.48
257.867	4.49
258.247	6.24
258.628	5.04
259.009	4.59
259.389	4.74
259.77	4.25
260.15	4.54
260.531	4.7
260.911	4.91
261.292	4.75
261.672	4.48
262.052	4.48
262.432	4.46
262.813	4.66
263.193	4.37
263.573	4.61
263.953	3.65
264.333	4.79
264.713	4.56
265.093	4.23
265.473	4.32
265.853	4.27
266.233	3.77
266.612	4.42
266.992	5.27
267.372	4.45
267.752	4.53
268.131	4.88
268.511	4.14
268.89	4.61
269.27	4.4
269.649	4.33
270.029	4.36
270.408	4.83
270.787	4.33
271.167	3.67
271.546	4.6
271.925	3.84
272.304	4.39
272.683	4.53
273.062	4.29
273.441	4.62
273.82	4.4
274.199	4.26
274.578	4.19
274.957	4.44
275.336	3.96
275.715	4.36
276.093	4.24
276.472	4.61
276.851	4.93
277.229	4.27
277.608	4.84
277.986	4.25
278.365	4.12
278.743	4.55
279.122	3.97
279.5	4.37
279.878	3.76
280.257	4.05
280.635	4.38
281.013	3.91
281.391	3.94
281.769	4.3
282.147	4.07
282.525	4.51
282.903	4.22
283.281	4.55
283.659	4.26
284.037	3.81
284.415	4.21
284.792	3.96
285.17	3.92
285.548	3.96
285.925	3.99
286.303	4.3
286.68	4.22
287.058	4.31
287.435	4
287.813	4.42
288.19	3.79
288.567	4.21
288.945	4.25
289.322	4.29
289.699	4.64
290.076	4.35
290.453	3.91
290.83	4.17
291.207	4.1
291.584	4.2
291.961	4.16
292.338	4.31
292.715	4.12
293.092	3.92
293.469	4.08
293.845	4.27
294.222	4.32
294.599	4.26
294.975	4.06
295.352	4.3
295.728	3.96
296.105	4.27
296.481	3.87
296.858	3.84
297.234	4.4
297.61	4.38
297.986	4
298.363	4.16
298.739	4.2
299.115	4.05
299.491	4.19
299.867	3.99
300.243	4.37
300.619	4.61
300.995	4.26
301.371	4.18
301.746	4.88
302.122	4.19
302.498	3.89
302.874	3.73
303.249	4.17
303.625	3.74
304	4.1
304.376	4.06
304.751	3.76
305.127	4.36
305.502	4.56
305.878	4.27
306.253	4.34
306.628	4.05
307.003	3.76
307.378	4.08
307.754	4.29
308.129	4
308.504	3.86
308.879	4.47
309.254	4.02
309.629	4.24
310.003	4.18
310.378	4.12
310.753	3.73
311.128	3.99
311.502	4.11
311.877	4
312.252	4.11
312.626	3.96
313.001	4.13
313.375	4.19
313.75	4.04
314.124	3.64
314.498	4.55
314.873	4.82
315.247	4.22
315.621	4.5
315.995	4.47
316.369	4.26
316.743	4.07
317.117	3.82
317.491	4.36
317.865	4.38
318.239	4.2
318.613	3.72
318.987	3.74
319.361	3.7
319.734	3.81
320.108	3.83
320.482	4.08
320.855	4.07
321.229	4.95
321.602	4.53
321.976	4.52
322.349	3.89
322.723	4.26
323.096	3.83
323.469	3.55
323.843	3.69
324.216	4.71
324.589	4.65
324.962	4.13
325.335	4.13
325.708	4.43
326.081	4.03
326.454	3.95
326.827	4.03
327.2	3.91
327.573	4.57
327.945	4.89
328.318	4.25
328.691	4.05
329.063	4.06
329.436	4.45
329.809	4.96
330.181	4.43
330.553	3.63
330.926	4.04
331.298	4.34
331.671	4.93
332.043	4.08
332.415	3.98
332.787	4.29
333.159	4.31
333.532	3.92
333.904	3.76
334.276	3.97
334.648	3.91
335.02	4.44
335.391	4.28
335.763	3.97
336.135	4.43
336.507	4.52
336.879	4.45
337.25	4.5
337.622	4.58
337.993	4.55
338.365	4.02
338.736	4.68
339.108	4.73
339.479	4.32
339.851	4.56
340.222	4.53
340.593	4.28
340.964	4.84
341.336	4
341.707	4.81
342.078	4.1
342.449	4.29
342.82	4.44
343.191	4.49
343.562	4.18
343.933	4.72
344.303	4.44
344.674	4.38
345.045	4.17
345.416	4.38
345.786	4.45
346.157	4.13
346.527	4.49
346.898	4.56
347.268	4.37
347.639	4.1
348.009	4.08
348.38	4.28
348.75	4.18
349.12	4.41
349.49	4.35
349.861	4.49
350.231	4.07
350.601	4.36
350.971	4.49
351.341	4.27
351.711	4.02
352.081	3.87
352.45	4.12
352.82	4.04
353.19	4.41
353.56	4.76
353.929	4.18
354.299	4.65
354.669	4.23
355.038	4.71
355.408	3.89
355.777	4.22
356.147	4.02
356.516	4.29
356.885	4.27
357.254	4.4
357.624	4.03
357.993	4.58
358.362	4.4
358.731	4.37
359.1	4.49
359.469	4.13
359.838	4.45
360.207	4.54
360.576	4.29
360.945	4.37
361.314	4.21
361.682	4.3
362.051	4.29
362.42	4.42
362.788	4.47
363.157	4.56
363.525	4.57
363.894	4.28
364.262	4.33
364.631	4.2
364.999	4.72
365.367	4.49
365.735	4.32
366.104	4.44
366.472	4.34
366.84	4.4
367.208	4.46
367.576	4.64
367.944	4.52
368.312	4.68
368.68	4.39
369.048	4.38
369.416	4.53
369.783	4.45
370.151	4.68
370.519	4.37
370.886	4.79
371.254	4.95
371.621	4.61
371.989	4.48
372.356	4.67
372.724	4.55
373.091	4.56
373.458	4.4
373.826	4.25
374.193	4.63
374.56	4.62
374.927	4.46
375.294	4.65
375.661	4.46
376.028	4.82
376.395	4.37
376.762	4.17
377.129	4.27
377.496	4.54
377.863	4.56
378.229	4.57
378.596	4.59
378.963	4.81
379.329	4.85
379.696	4.42
380.062	4.66
380.429	4.57
380.795	4.41
381.161	4.83
381.528	4.43
381.894	4.65
382.26	4.34
382.626	4.49
382.993	4.66
383.359	4.58
383.725	4.64
384.091	4.64
384.457	4.68
384.823	4.76
385.188	4.73
385.554	4.53
385.92	4.7
386.286	4.6
386.651	4.65
387.017	4.83
387.383	4.45
387.748	4.78
388.114	4.63
388.479	4.66
388.845	4.48
389.21	4.56
389.575	4.62
389.94	4.31
390.306	4.62
390.671	4.41
391.036	4.55
391.401	4.83
391.766	4.63
392.131	4.43
392.496	4.62
392.861	4.78
393.226	4.57
393.591	4.48
393.956	4.8
394.32	4.75
394.685	4.59
395.05	4.61
395.414	4.52
395.779	4.65
396.143	4.57
396.508	4.81
396.872	4.49
397.236	4.81
397.601	4.53
397.965	4.87
398.329	4.88
398.694	4.43
399.058	4.78
399.422	4.92
399.786	4.92
400.15	4.45
400.514	4.45
400.878	4.69
401.242	4.49
401.605	4.9
401.969	4.76
402.333	4.61
402.697	4.37
403.06	4.84
403.424	4.71
403.787	4.65
404.151	4.72
404.514	4.58
404.878	4.7
405.241	4.86
405.604	4.57
405.968	4.49
406.331	4.78
406.694	4.79
407.057	4.6
407.42	4.61
407.783	4.67
408.146	4.78
408.509	4.59
408.872	4.78
409.235	5.01
409.598	4.92
409.961	4.8
410.323	4.79
410.686	4.69
411.049	4.7
411.411	4.89
411.774	4.78
412.136	4.63
412.499	4.8
412.861	4.82
413.223	4.72
413.586	4.77
413.948	4.75
414.31	4.67
414.672	4.94
415.035	4.92
415.397	4.83
415.759	4.88
416.121	4.86
416.483	4.82
416.845	4.65
417.206	4.81
417.568	4.88
417.93	4.65
418.292	4.85
418.653	4.72
419.015	4.89
419.377	4.79
419.738	4.77
420.1	4.72
420.461	4.72
420.822	4.76
421.184	4.76
421.545	4.82
421.906	4.77
422.267	4.72
422.629	4.76
422.99	4.72
423.351	4.71
423.712	4.65
424.073	4.61
424.434	4.81
424.795	4.77
425.155	4.79
425.516	4.78
425.877	4.71
426.238	4.81
426.598	4.72
426.959	4.76
427.32	4.82
427.68	4.69
428.041	4.72
428.401	4.78
428.761	4.75
429.122	4.79
429.482	4.83
429.842	5
430.202	4.91
430.563	4.79
430.923	4.9
431.283	5.05
431.643	4.79
432.003	4.79
432.363	4.97
432.722	4.95
433.082	4.81
433.442	4.83
433.802	4.84
434.161	4.85
434.521	4.93
434.881	4.85
435.24	4.81
435.6	4.92
435.959	4.86
436.319	4.8
436.678	4.83
437.037	5.06
437.396	4.95
437.756	4.82
438.115	4.9
438.474	4.82
438.833	4.98
439.192	4.94
439.551	5.05
439.91	4.93
440.269	4.87
440.628	4.77
440.987	4.82
441.345	4.78
441.704	4.89
442.063	4.87
442.421	4.73
442.78	4.85
443.138	4.8
443.497	5
443.855	4.97
444.214	5.02
444.572	4.85
444.93	4.96
445.288	4.88
445.647	5.01
446.005	4.92
446.363	5.02
446.721	4.95
447.079	4.85
447.437	4.93
447.795	4.86
448.153	4.78
448.51	4.72
448.868	4.87
449.226	4.89
449.584	4.85
449.941	4.89
450.299	4.89
450.656	4.84
451.014	5.04
451.371	4.87
451.729	4.92
452.086	5.08
452.443	4.78
452.801	4.98
453.158	4.91
453.515	4.91
453.872	4.97
454.229	5.05
454.586	4.96
454.943	4.96
455.3	4.98
455.657	5.02
456.014	5.08
456.371	4.87
456.727	5.04
457.084	5.03
457.441	5.02
457.797	4.85
458.154	5.04
458.51	5.03
458.867	5.19
459.223	4.92
459.58	4.89
459.936	5.04
460.292	5.01
460.648	5.11
461.005	5.03
461.361	4.98
461.717	4.94
462.073	4.92
462.429	4.88
462.785	5.03
463.141	4.92
463.496	5.03
463.852	5.14
464.208	5.04
464.564	4.99
464.919	5.07
465.275	5.13
465.631	4.92
465.986	4.97
466.342	4.98
466.697	5.09
467.052	5.17
467.408	5.01
467.763	5.09
468.118	4.93
468.473	4.88
468.829	5.03
469.184	5.13
469.539	5.04
469.894	5.02
470.249	5.06
470.603	5.16
470.958	5.03
471.313	5.06
471.668	5.07
472.023	4.97
472.377	4.97
472.732	5.21
473.086	4.94
473.441	5.1
473.795	5.17
474.15	5.02
474.504	5.21
474.859	5.02
475.213	5.25
475.567	4.88
475.921	5.06
476.275	5.11
476.63	5.07
476.984	5.13
477.338	5.18
477.692	5.1
478.045	5.03
478.399	5.06
478.753	5.08
479.107	5.04
479.461	5.02
479.814	5.1
480.168	4.96
480.521	5
480.875	4.95
481.228	5.2
481.582	4.97
481.935	4.99
482.289	5.12
482.642	5.08
482.995	5.19
483.348	5
483.701	5.09
484.055	4.96
484.408	4.99
484.761	5.01
485.114	4.88
485.466	4.82
485.819	4.77
486.172	4.78
486.525	4.84
486.878	4.81
487.23	4.84
487.583	4.91
487.936	4.96
488.288	4.92
488.641	4.93
488.993	4.94
489.345	4.91
489.698	4.82
490.05	4.9
490.402	4.85
490.754	4.95
491.107	4.98
491.459	4.98
491.811	4.98
492.163	5.08
492.515	5
492.866	4.94
493.218	4.87
493.57	4.86
493.922	4.92
494.274	4.98
494.625	4.96
494.977	5.02
495.328	5.1
495.68	5.1
496.031	5.11
496.383	5.17
496.734	5.23
497.086	5.18
497.437	5.34
497.788	5.23
498.139	5.2
498.49	5.04
498.842	5.13
499.193	5.22
499.544	5.03
499.894	5.1
500.245	5.11
500.596	5.11
500.947	5.06
501.298	5.2
501.648	5.26
501.999	5.13
502.35	5.15
502.7	5.15
503.051	5.08
503.401	5.23
503.752	5.12
504.102	5.39
504.452	5.17
504.803	5.19
505.153	5.26
505.503	5.08
505.853	5.3
506.203	5.27
506.553	5.29
506.903	5.27
507.253	5.17
507.603	5.24
507.953	5.23
508.303	5.23
508.652	5.21
509.002	5.29
509.352	5.33
509.701	5.26
510.051	5.28
510.4	5.3
510.75	5.14
511.099	5.17
511.449	5.18
511.798	5.2
512.147	5.19
512.496	5.28
512.846	5.24
513.195	5.21
513.544	5.25
513.893	5.23
514.242	5.19
514.591	5.21
514.939	5.21
515.288	5.23
515.637	5.17
515.986	5.25
516.334	5.2
516.683	5.3
517.032	5.3
517.38	5.36
517.729	5.32
518.077	5.24
518.426	5.36
518.774	5.25
519.122	5.32
519.47	5.31
519.819	5.29
520.167	5.23
520.515	5.26
520.863	5.33
521.211	5.23
521.559	5.24
521.907	5.32
522.255	5.33
522.602	5.35
522.95	5.35
523.298	5.27
523.645	5.43
523.993	5.32
524.341	5.51
524.688	5.32
525.036	5.46
525.383	5.37
525.73	5.46
526.078	5.48
526.425	5.57
526.772	5.41
527.119	5.44
527.466	5.27
527.814	5.38
528.161	5.37
528.508	5.38
528.854	5.41
529.201	5.34
529.548	5.39
529.895	5.29
530.242	5.19
530.588	5.23
530.935	5.24
531.282	5.26
531.628	5.23
531.975	5.23
532.321	5.3
532.667	5.35
533.014	5.38
533.36	5.49
533.706	5.43
534.052	5.43
534.399	5.4
534.745	5.44
535.091	5.39
535.437	5.4
535.783	5.44
536.129	5.46
536.474	5.45
536.82	5.44
537.166	5.47
537.512	5.56
537.857	5.6
538.203	5.58
538.549	5.44
538.894	5.49
539.239	5.65
539.585	5.7
539.93	5.6
540.276	5.68
540.621	5.65
540.966	5.72
541.311	5.68
541.656	5.62
542.001	5.76
542.346	5.68
542.691	5.61
543.036	5.57
543.381	5.52
543.726	5.52
544.071	5.5
544.415	5.63
544.76	5.57
545.105	5.69
545.449	5.72
545.794	5.7
546.138	5.74
546.483	5.64
546.827	5.74
547.171	5.63
547.516	5.8
547.86	5.8
548.204	5.77
548.548	5.76
548.892	5.69
549.236	5.84
549.58	5.81
549.924	5.98
550.268	6.04
550.612	5.8
550.956	5.91
551.3	5.92
551.643	5.93
551.987	5.97
552.33	5.88
552.674	5.87
553.017	5.99
553.361	6.08
553.704	6.04
554.048	6.02
554.391	6.01
554.734	6.13
555.077	5.92
555.42	5.83
555.764	6.13
556.107	6.02
556.45	6.09
556.793	6.18
557.135	6.2
557.478	6.19
557.821	6.3
558.164	6.09
558.507	6.19
558.849	6.3
559.192	6.27
559.534	6.32
559.877	6.38
560.219	6.22
560.562	6.35
560.904	6.38
561.246	6.34
561.589	6.42
561.931	6.36
562.273	6.52
562.615	6.46
562.957	6.45
563.299	6.32
563.641	6.54
563.983	6.39
564.325	6.36
564.667	6.4
565.008	6.39
565.35	6.6
565.692	6.28
566.033	6.45
566.375	6.48
566.716	6.39
567.058	6.39
567.399	6.37
567.741	6.64
568.082	6.41
568.423	6.35
568.764	6.49
569.105	6.57
569.447	6.4
569.788	6.43
570.129	6.64
570.47	6.64
570.811	6.51
571.151	6.84
571.492	6.72
571.833	6.63
572.174	6.67
572.514	6.75
572.855	6.65
573.195	6.89
573.536	6.81
573.876	6.63
574.217	6.7
574.557	6.76
574.898	6.69
575.238	6.81
575.578	6.76
575.918	6.68
576.258	6.95
576.598	6.87
576.938	6.92
577.278	6.94
577.618	6.78
577.958	7.06
578.298	6.89
578.638	7.01
578.977	7.21
579.317	7.12
579.657	7.16
579.996	6.84
580.336	7.11
580.675	7.06
581.014	7.22
581.354	7.31
581.693	7.3
582.032	7.34
582.372	7.51
582.711	7.25
583.05	7.16
583.389	7.42
583.728	7.22
584.067	7.41
584.406	7.24
584.745	7.48
585.083	7.36
585.422	7.4
585.761	7.41
586.1	7.36
586.438	7.3
586.777	7.37
587.115	7.53
587.454	7.66
587.792	7.69
588.13	7.57
588.469	7.58
588.807	7.49
589.145	7.75
589.483	7.53
589.821	7.51
590.159	7.52
590.497	7.44
590.835	7.65
591.173	7.61
591.511	7.7
591.849	7.69
592.187	7.75
592.524	7.83
592.862	7.82
593.2	8
593.537	7.64
593.875	7.78
594.212	7.92
594.55	7.74
594.887	7.95
595.224	7.86
595.561	7.81
595.899	7.84
596.236	7.69
596.573	8.12
596.91	7.93
597.247	8.02
597.584	7.74
597.921	7.81
598.258	8.06
598.594	7.92
598.931	8.25
599.268	7.96
599.604	8.05
599.941	8.21
600.277	8.36
600.614	8.09
600.95	8.16
601.287	8.08
601.623	8.15
601.959	8.43
602.296	8.12
602.632	8.29
602.968	8.2
603.304	8.39
603.64	8.44
603.976	8.54
604.312	8.62
604.648	8.51
604.984	8.32
605.319	8.52
605.655	8.45
605.991	8.33
606.326	8.48
606.662	8.57
606.998	8.67
607.333	8.47
607.668	8.41
608.004	8.57
608.339	8.53
608.674	8.7
609.01	8.88
609.345	8.79
609.68	8.82
610.015	8.92
610.35	8.79
610.685	8.43
611.02	8.81
611.355	8.71
611.689	8.79
612.024	8.76
612.359	8.8
612.694	9.07
613.028	8.9
613.363	9.12
613.697	9.11
614.032	9.01
614.366	9.18
614.7	8.98
615.035	9.3
615.369	9.13
615.703	9.05
616.037	9.06
616.371	9.26
616.705	9.39
617.039	9.28
617.373	9.43
617.707	9.64
618.041	9.37
618.375	9.41
618.709	9.3
619.042	9.17
619.376	9.68
619.71	9.22
620.043	9.04
620.377	9.11
620.71	9.39
621.043	9.59
621.377	8.98
621.71	9.72
622.043	9.34
622.376	9.28
622.709	9.88
623.043	9.44
623.376	9.55
623.709	9.79
624.041	9.63
624.374	9.78
624.707	9.76
625.04	9.91
625.373	9.8
625.705	9.99
626.038	9.75
626.37	9.42
626.703	9.74
627.035	9.96
627.368	10.08
627.7	9.88
628.032	9.85
628.365	10.04
628.697	9.97
629.029	10.27
629.361	10.13
629.693	9.92
630.025	10.27
630.357	10
630.689	10.24
631.021	10.25
631.353	10.31
631.684	10.25
632.016	10.31
632.348	9.96
632.679	10.13
633.011	10.49
633.342	10.37
633.674	10.16
634.005	10.19
634.336	10.65
634.668	10.2
634.999	10.43
635.33	10.42
635.661	10.49
635.992	10.89
636.323	10.73
636.654	10.66
636.985	10.95
637.316	10.47
637.647	10.74
637.977	10.9
638.308	10.73
638.639	10.5
638.969	10.75
639.3	10.64
639.63	10.55
639.961	10.59
640.291	10.84
640.622	10.98
640.952	11.11
641.282	11.1
641.612	10.92
641.943	11.05
642.273	10.94
642.603	11.54
642.933	11.1
643.263	10.87
643.592	11.14
643.922	11.21
644.252	11.19
644.582	11.15
644.911	11.14
645.241	11.23
645.571	11.81
645.9	11.07
646.23	11.63
646.559	10.81
646.888	11.45
647.218	11.49
647.547	10.85
647.876	11.3
648.205	11.24
648.534	11.48
648.863	11.71
649.192	11.81
649.521	11.03
649.85	11.67
650.179	11.13
650.508	11.5
650.837	12.04
651.165	12.03
651.494	11.41
651.822	11.85
652.151	11.69
652.479	11.65
652.808	11.42
653.136	11.63
653.465	11.77
653.793	11.73
654.121	11.1
654.449	11.31
654.777	11.83
655.105	11.87
655.433	12.17
655.761	12.03
656.089	11.93
656.417	12.18
656.745	11.9
657.073	11.68
657.4	12.39
657.728	11.88
658.056	12.27
658.383	12.28
658.711	11.79
659.038	11.97
659.365	12.19
659.693	12.3
660.02	12.44
660.347	12.14
660.674	12.23
661.001	12.68
661.329	12.2
661.656	12.6
661.982	12.4
662.309	12.37
662.636	12.62
662.963	12.94
663.29	12.46
663.616	12.89
663.943	12.54
664.27	12.54
664.596	12.87
664.923	13.13
665.249	12.99
665.576	12.85
665.902	12.74
666.228	13
666.554	12.67
666.881	12.53
667.207	13.19
667.533	13.43
667.859	12.66
668.185	13.2
668.511	11.98
668.837	13.02
669.162	12.74
669.488	12.42
669.814	13.56
670.139	12.72
670.465	13.24
670.791	12.91
671.116	13.1
671.442	13.63
671.767	13.04
672.092	12.75
672.418	13.12
672.743	13.58
673.068	12.91
673.393	13.24
673.718	13.13
674.043	13.31
674.368	13.07
674.693	13.04
675.018	13.4
675.343	13.29
675.667	13.58
675.992	13.7
676.317	13.74
676.641	13.62
676.966	14.2
677.29	12.97
677.615	14.3
677.939	13.96
678.264	13.73
678.588	13.48
678.912	14.1
679.236	14.14
679.56	13.91
679.885	14.17
680.209	14
680.532	13.32
680.856	14.67
681.18	14.15
681.504	14.46
681.828	14.19
682.152	14.63
682.475	13.63
682.799	13.72
683.122	14.09
683.446	14.76
683.769	13.72
684.093	14.41
684.416	14.68
684.739	14.59
685.062	14.39
685.386	14.11
685.709	14.41
686.032	13.99
686.355	14.37
686.678	14.66
687.001	14.26
687.324	14.79
687.646	14.75
687.969	14.98
688.292	13.79
688.614	14.15
