Data from 97282_forehead_Reflection__4__100.txt Node

Date: Fri Sep 23 20:28:12 CDT 2022
User: ToomeyLab
Spectrometer: FLMS14357
Trigger mode: 0
Integration Time (sec): 1.000000E-2
Scans to average: 100
Electric dark correction enabled: true
Nonlinearity correction enabled: false
Boxcar width: 0
XAxis mode: Wavelengths
Number of Pixels in Spectrum: 2048
>>>>>Begin Spectral Data<<<<<
189.047	434.32
189.435	434.32
189.823	434.32
190.211	97.61
190.599	-2.61
190.987	-41.35
191.375	540
191.763	56.36
192.151	-108.07
192.538	-11.37
192.926	125.23
193.314	42.5
193.702	171.74
194.089	38.1
194.477	78.51
194.864	-184.48
195.252	112.7
195.639	202.05
196.027	51.56
196.414	39900
196.801	5.21
197.189	-8231.76
197.576	-2805.45
197.963	-2412.87
198.351	50.67
198.738	202.27
199.125	16.83
199.512	66.05
199.899	7.16
200.286	23.9
200.673	44.73
201.06	71.92
201.447	64.91
201.833	8.15
202.22	41.23
202.607	24.88
202.994	45.01
203.38	9.74
203.767	-25.25
204.154	45.7
204.54	50.84
204.927	35.68
205.313	21.85
205.699	29.94
206.086	31.93
206.472	48.22
206.858	48.36
207.245	37.32
207.631	32.16
208.017	35.82
208.403	43.7
208.789	20.82
209.175	18.76
209.561	50
209.947	9.79
210.333	43.64
210.719	15.95
211.105	23.35
211.491	18.67
211.876	36.32
212.262	30
212.648	50.08
213.034	-2.77
213.419	-9.23
213.805	27.85
214.19	19.33
214.576	32.07
214.961	37.97
215.346	21.37
215.732	32.8
216.117	19.61
216.502	24.99
216.888	43.31
217.273	45.32
217.658	-3.01
218.043	15.38
218.428	38.59
218.813	21.7
219.198	5.38
219.583	24.79
219.968	17.68
220.353	20.02
220.738	9.21
221.122	7.68
221.507	0.48
221.892	17.98
222.276	7.74
222.661	-0.57
223.046	11.71
223.43	15.13
223.815	18.56
224.199	11.12
224.583	9.53
224.968	0.93
225.352	11.65
225.736	7.98
226.121	13.75
226.505	5.89
226.889	9.11
227.273	6.77
227.657	5.82
228.041	7.12
228.425	7.04
228.809	3.43
229.193	3.63
229.577	3.74
229.961	2.74
230.344	2.17
230.728	1.86
231.112	1.34
231.495	2.01
231.879	1.62
232.263	4.01
232.646	5.08
233.03	2.36
233.413	3.97
233.797	2.04
234.18	5.79
234.563	4.34
234.946	6.11
235.33	0.91
235.713	3.81
236.096	1.42
236.479	3.39
236.862	1.48
237.245	4.59
237.628	3.67
238.011	4.38
238.394	3.28
238.777	2.33
239.16	4.73
239.543	4.24
239.925	4.59
240.308	3.49
240.691	3.79
241.073	3.46
241.456	2.85
241.838	5
242.221	3.09
242.603	3.34
242.986	1.23
243.368	2.49
243.75	2.79
244.133	3.04
244.515	2.19
244.897	2.36
245.279	2.98
245.661	3.28
246.043	3.79
246.425	3.26
246.807	2.53
247.189	3.58
247.571	3.15
247.953	2.32
248.335	2.85
248.717	2.92
249.098	2.62
249.48	2.59
249.862	3.02
250.243	3.33
250.625	2.75
251.006	3.43
251.388	2.7
251.769	3.34
252.151	1.65
252.532	3.72
252.913	3.82
253.295	3.27
253.676	3.4
254.057	2.95
254.438	2.53
254.819	3.38
255.2	3.64
255.581	3.97
255.962	3.4
256.343	3.82
256.724	3.86
257.105	4.04
257.486	1.79
257.867	2.49
258.247	3.92
258.628	2.59
259.009	3.12
259.389	3.23
259.77	2.83
260.15	3.18
260.531	3.09
260.911	2.78
261.292	2.68
261.672	2.74
262.052	2.6
262.432	2.58
262.813	2.97
263.193	2.75
263.573	3.06
263.953	2.51
264.333	2.67
264.713	3.27
265.093	3.01
265.473	3.13
265.853	2.99
266.233	2.93
266.612	3.15
266.992	4.41
267.372	3.03
267.752	3.01
268.131	3.47
268.511	2.36
268.89	2.78
269.27	2.63
269.649	2.34
270.029	3.04
270.408	2.52
270.787	2.79
271.167	2.66
271.546	2.88
271.925	3.02
272.304	2.55
272.683	2.54
273.062	2.54
273.441	2.28
273.82	2.61
274.199	2.61
274.578	2.49
274.957	2.65
275.336	2.2
275.715	2.83
276.093	2.9
276.472	2.92
276.851	2.93
277.229	2.29
277.608	2.58
277.986	2.53
278.365	2.91
278.743	3.62
279.122	2.58
279.5	2.8
279.878	2.63
280.257	2.56
280.635	2.58
281.013	2.64
281.391	2.45
281.769	2.71
282.147	2.4
282.525	2.6
282.903	2.92
283.281	2.74
283.659	2.7
284.037	2.47
284.415	2.25
284.792	2.27
285.17	2.38
285.548	2.68
285.925	2.79
286.303	2.88
286.68	2.47
287.058	3.15
287.435	2.56
287.813	2.93
288.19	2.32
288.567	2.67
288.945	2.75
289.322	2.89
289.699	2.38
290.076	2.82
290.453	2.8
290.83	2.59
291.207	2.75
291.584	3.03
291.961	2.77
292.338	2.73
292.715	2.69
293.092	2.9
293.469	3.5
293.845	3.22
294.222	3.47
294.599	3.01
294.975	3.49
295.352	3.26
295.728	3.14
296.105	3.19
296.481	3.22
296.858	3.17
297.234	3.05
297.61	3.26
297.986	3.12
298.363	3.16
298.739	3.32
299.115	3.32
299.491	3.23
299.867	3.41
300.243	3.56
300.619	4.01
300.995	3.75
301.371	3.61
301.746	3.87
302.122	3.6
302.498	3.97
302.874	3.36
303.249	3.66
303.625	3.58
304	3.57
304.376	3.64
304.751	3.57
305.127	3.72
305.502	4
305.878	4.54
306.253	4.53
306.628	3.88
307.003	4.23
307.378	4.48
307.754	4.73
308.129	4.53
308.504	4.43
308.879	4.94
309.254	4.85
309.629	4.37
310.003	4.91
310.378	4.74
310.753	4.85
311.128	4.58
311.502	4.6
311.877	4.99
312.252	4.91
312.626	5.06
313.001	5.29
313.375	5.06
313.75	5.25
314.124	5.01
314.498	5.52
314.873	5.48
315.247	5.72
315.621	5.77
315.995	6.46
316.369	5.33
316.743	5.03
317.117	5.64
317.491	6.01
317.865	6.27
318.239	6.54
318.613	5.96
318.987	5.83
319.361	6.62
319.734	6.29
320.108	6.04
320.482	6.51
320.855	6.44
321.229	6.79
321.602	6.47
321.976	6.93
322.349	6.76
322.723	7.22
323.096	6.96
323.469	7.22
323.843	7.13
324.216	7.46
324.589	7.43
324.962	7.37
325.335	7.23
325.708	7.26
326.081	7.34
326.454	7.66
326.827	7.6
327.2	7.42
327.573	8.05
327.945	8.07
328.318	7.66
328.691	7.86
329.063	7.87
329.436	7.72
329.809	9.12
330.181	8.59
330.553	7.5
330.926	7.83
331.298	8.09
331.671	9.02
332.043	8.48
332.415	8.79
332.787	8.82
333.159	8.77
333.532	8.77
333.904	8.58
334.276	8.48
334.648	8.75
335.02	8.89
335.391	9.18
335.763	9.06
336.135	8.96
336.507	10.01
336.879	9.04
337.25	10.01
337.622	9.47
337.993	9.32
338.365	9.11
338.736	9.76
339.108	9.9
339.479	9.21
339.851	10.11
340.222	10.5
340.593	9.87
340.964	10.21
341.336	9.83
341.707	10.93
342.078	9.86
342.449	10.2
342.82	10.14
343.191	10.2
343.562	10.26
343.933	10.85
344.303	10.22
344.674	10.51
345.045	11.02
345.416	10.78
345.786	11.02
346.157	10.45
346.527	10.64
346.898	10.78
347.268	11.27
347.639	10.95
348.009	11.05
348.38	10.69
348.75	11.24
349.12	11.23
349.49	11.26
349.861	11.13
350.231	11.11
350.601	11.18
350.971	11.32
351.341	11.5
351.711	11.49
352.081	11.81
352.45	11.57
352.82	11.07
353.19	12.27
353.56	11.79
353.929	11.55
354.299	11.81
354.669	12.18
355.038	12.24
355.408	11.68
355.777	12.53
356.147	11.8
356.516	12.48
356.885	11.91
357.254	12.09
357.624	12.01
357.993	12.4
358.362	12.49
358.731	12.22
359.1	12.6
359.469	12.32
359.838	12.33
360.207	12.72
360.576	12.78
360.945	12.62
361.314	12.92
361.682	12.61
362.051	12.97
362.42	12.83
362.788	12.77
363.157	13.17
363.525	13.11
363.894	12.88
364.262	12.98
364.631	13.01
364.999	13.53
365.367	13.1
365.735	13.26
366.104	13.5
366.472	13.39
366.84	13.48
367.208	13.89
367.576	13.99
367.944	13.77
368.312	13.97
368.68	13.63
369.048	14
369.416	14.01
369.783	14.05
370.151	13.92
370.519	14.31
370.886	14.18
371.254	14.39
371.621	14.24
371.989	14.3
372.356	14.8
372.724	13.84
373.091	14.46
373.458	14.57
373.826	14.42
374.193	14.73
374.56	14.87
374.927	15.23
375.294	15.01
375.661	14.81
376.028	15.13
376.395	15.07
376.762	14.75
377.129	14.9
377.496	15.04
377.863	15.32
378.229	15.15
378.596	15.18
378.963	15.53
379.329	15.34
379.696	15.11
380.062	15.62
380.429	15.59
380.795	15.48
381.161	15.84
381.528	15.82
381.894	15.96
382.26	15.66
382.626	16.18
382.993	16.22
383.359	16.04
383.725	16.18
384.091	16.22
384.457	16.51
384.823	16.36
385.188	16.36
385.554	16.25
385.92	16.51
386.286	16.42
386.651	16.48
387.017	16.67
387.383	16.9
387.748	16.73
388.114	16.57
388.479	16.48
388.845	17.03
389.21	16.81
389.575	17.05
389.94	16.8
390.306	17.07
390.671	17.14
391.036	17.14
391.401	17.13
391.766	17.24
392.131	17.47
392.496	17.25
392.861	17.2
393.226	17.34
393.591	17.2
393.956	17.44
394.32	17.43
394.685	17.52
395.05	17.68
395.414	17.56
395.779	17.57
396.143	17.81
396.508	17.84
396.872	18.02
397.236	17.91
397.601	18.04
397.965	18.23
398.329	18.36
398.694	18.28
399.058	17.91
399.422	18.63
399.786	18.64
400.15	18.35
400.514	18.17
400.878	18.58
401.242	18.57
401.605	18.73
401.969	18.73
402.333	18.68
402.697	18.55
403.06	18.82
403.424	18.93
403.787	18.7
404.151	19.11
404.514	18.93
404.878	19.03
405.241	18.95
405.604	18.91
405.968	19.2
406.331	19.06
406.694	19.09
407.057	19.2
407.42	19.23
407.783	19.54
408.146	19.3
408.509	19.27
408.872	19.33
409.235	19.69
409.598	19.71
409.961	19.63
410.323	19.77
410.686	19.95
411.049	19.88
411.411	20.1
411.774	20.04
412.136	19.78
412.499	19.97
412.861	19.99
413.223	20.18
413.586	20.05
413.948	20.25
414.31	20.24
414.672	20.25
415.035	20.13
415.397	20.51
415.759	20.62
416.121	20.61
416.483	20.76
416.845	20.52
417.206	20.55
417.568	20.6
417.93	20.6
418.292	20.59
418.653	20.65
419.015	20.74
419.377	20.65
419.738	20.58
420.1	20.76
420.461	20.79
420.822	20.93
421.184	21.04
421.545	20.8
421.906	20.72
422.267	20.76
422.629	20.76
422.99	20.8
423.351	20.84
423.712	20.8
424.073	20.88
424.434	21.01
424.795	21.16
425.155	21.26
425.516	21.25
425.877	21.17
426.238	21.1
426.598	21.24
426.959	21.23
427.32	21.35
427.68	21.55
428.041	21.63
428.401	21.68
428.761	21.85
429.122	21.72
429.482	21.84
429.842	22.17
430.202	22.22
430.563	22.16
430.923	22.32
431.283	22.53
431.643	22.34
432.003	22.24
432.363	22.29
432.722	22.55
433.082	22.43
433.442	22.42
433.802	22.85
434.161	22.74
434.521	22.72
434.881	22.55
435.24	22.44
435.6	22.64
435.959	22.86
436.319	22.59
436.678	22.87
437.037	23.13
437.396	22.91
437.756	23.11
438.115	23.19
438.474	23.17
438.833	23.07
439.192	23.33
439.551	23.4
439.91	23.49
440.269	23.39
440.628	23.33
440.987	23.14
441.345	23.3
441.704	23.38
442.063	23.41
442.421	23.33
442.78	23.33
443.138	23.39
443.497	23.4
443.855	23.52
444.214	23.7
444.572	23.77
444.93	23.78
445.288	23.91
445.647	23.97
446.005	23.96
446.363	23.97
446.721	23.9
447.079	24.02
447.437	23.88
447.795	23.97
448.153	23.67
448.51	23.68
448.868	23.89
449.226	23.92
449.584	23.85
449.941	24.14
450.299	24.19
450.656	24.31
451.014	24.42
451.371	24.36
451.729	24.57
452.086	24.8
452.443	24.92
452.801	24.88
453.158	25.01
453.515	25
453.872	25
454.229	24.96
454.586	25.08
454.943	24.93
455.3	25.08
455.657	25.09
456.014	25.33
456.371	25.13
456.727	25.33
457.084	25.54
457.441	25.52
457.797	25.46
458.154	25.61
458.51	25.59
458.867	25.89
459.223	25.65
459.58	25.73
459.936	25.67
460.292	25.66
460.648	25.6
461.005	25.64
461.361	25.64
461.717	25.5
462.073	25.42
462.429	25.25
462.785	25.59
463.141	25.71
463.496	25.87
463.852	26.08
464.208	26.23
464.564	26.22
464.919	26.4
465.275	26.46
465.631	26.51
465.986	26.47
466.342	26.57
466.697	26.8
467.052	26.58
467.408	26.53
467.763	26.62
468.118	26.76
468.473	26.83
468.829	26.8
469.184	26.83
469.539	26.89
469.894	26.8
470.249	26.87
470.603	26.95
470.958	27.18
471.313	27.2
471.668	27.27
472.023	27.16
472.377	27.23
472.732	27.05
473.086	27.24
473.441	27.6
473.795	27.53
474.15	27.69
474.504	27.56
474.859	27.74
475.213	27.71
475.567	27.53
475.921	27.63
476.275	27.74
476.63	27.69
476.984	27.99
477.338	27.56
477.692	28.1
478.045	27.8
478.399	27.88
478.753	27.93
479.107	27.8
479.461	27.93
479.814	27.9
480.168	28.04
480.521	27.91
480.875	28.14
481.228	28.18
481.582	28.18
481.935	28.28
482.289	28.15
482.642	28.08
482.995	28.5
483.348	28.02
483.701	28.1
484.055	28.04
484.408	27.99
484.761	27.94
485.114	27.64
485.466	27.51
485.819	27.47
486.172	27.41
486.525	27.36
486.878	27.41
487.23	27.61
487.583	27.82
487.936	28.01
488.288	28.09
488.641	28.05
488.993	28.09
489.345	27.97
489.698	27.92
490.05	27.92
490.402	27.81
490.754	28.14
491.107	28.2
491.459	28.45
491.811	28.6
492.163	28.82
492.515	28.87
492.866	28.78
493.218	28.58
493.57	28.41
493.922	28.5
494.274	28.54
494.625	28.66
494.977	28.82
495.328	29.25
495.68	29.26
496.031	29.49
496.383	29.89
496.734	29.8
497.086	30.05
497.437	29.95
497.788	30.1
498.139	29.97
498.49	29.74
498.842	29.78
499.193	29.75
499.544	29.83
499.894	29.92
500.245	30.08
500.596	30.16
500.947	30.28
501.298	30.37
501.648	30.4
501.999	30.41
502.35	30.34
502.7	30.6
503.051	30.7
503.401	30.67
503.752	30.61
504.102	30.9
504.452	30.87
504.803	30.87
505.153	30.93
505.503	30.84
505.853	31.03
506.203	30.86
506.553	30.97
506.903	30.99
507.253	31.07
507.603	31.07
507.953	31.13
508.303	31.05
508.652	31.27
509.002	31.21
509.352	31.36
509.701	31.34
510.051	31.29
510.4	31.52
510.75	31.15
511.099	31.07
511.449	31.23
511.798	31.26
512.147	31.46
512.496	31.48
512.846	31.56
513.195	31.62
513.544	31.69
513.893	31.59
514.242	31.48
514.591	31.57
514.939	31.68
515.288	31.85
515.637	31.91
515.986	31.86
516.334	31.89
516.683	32.22
517.032	32.08
517.38	32.09
517.729	32.3
518.077	32.16
518.426	32.25
518.774	32.26
519.122	32.11
519.47	31.93
519.819	31.98
520.167	31.91
520.515	31.95
520.863	32.05
521.211	31.88
521.559	32
521.907	32.18
522.255	32.16
522.602	32.58
522.95	32.62
523.298	32.66
523.645	32.8
523.993	32.7
524.341	32.86
524.688	33
525.036	32.83
525.383	32.9
525.73	32.96
526.078	33.14
526.425	33
526.772	32.88
527.119	32.75
527.466	32.61
527.814	32.61
528.161	32.61
528.508	32.72
528.854	32.69
529.201	32.68
529.548	32.76
529.895	32.62
530.242	32.41
530.588	32.5
530.935	32.44
531.282	32.26
531.628	32.26
531.975	32.33
532.321	32.57
532.667	32.87
533.014	33.07
533.36	33.06
533.706	33.24
534.052	33.27
534.399	33.31
534.745	33.29
535.091	33.1
535.437	33.02
535.783	33.18
536.129	33.16
536.474	33.18
536.82	33.37
537.166	33.74
537.512	33.59
537.857	33.78
538.203	33.74
538.549	33.79
538.894	33.79
539.239	33.84
539.585	33.82
539.93	33.95
540.276	34.19
540.621	34.33
540.966	34.28
541.311	34.45
541.656	34.44
542.001	34.46
542.346	34.25
542.691	34.13
543.036	33.87
543.381	33.83
543.726	33.8
544.071	33.77
544.415	33.91
544.76	34.09
545.105	34.25
545.449	34.3
545.794	34.39
546.138	34.46
546.483	34.68
546.827	34.79
547.171	34.87
547.516	35.02
547.86	34.98
548.204	35.05
548.548	34.88
548.892	34.83
549.236	35.07
549.58	35.04
549.924	35.26
550.268	35.4
550.612	35.27
550.956	35.93
551.3	35.6
551.643	35.99
551.987	35.85
552.33	35.77
552.674	36.08
553.017	35.98
553.361	36.01
553.704	35.98
554.048	36.13
554.391	36.08
554.734	36.28
555.077	36.11
555.42	36.14
555.764	36.17
556.107	36.36
556.45	36.38
556.793	36.16
557.135	36.47
557.478	36.55
557.821	36.46
558.164	36.88
558.507	36.69
558.849	36.62
559.192	36.8
559.534	36.82
559.877	36.82
560.219	36.89
560.562	36.99
560.904	36.94
561.246	36.7
561.589	36.84
561.931	36.98
562.273	37.05
562.615	37.04
562.957	37
563.299	37.25
563.641	37.17
563.983	36.91
564.325	37.12
564.667	37.14
565.008	37.28
565.35	37.47
565.692	37.23
566.033	37.38
566.375	37.49
566.716	37.35
567.058	37.25
567.399	37.47
567.741	37.22
568.082	37.4
568.423	37.23
568.764	37.24
569.105	37.16
569.447	37.33
569.788	37.46
570.129	37.36
570.47	37.71
570.811	37.63
571.151	37.71
571.492	37.94
571.833	37.62
572.174	37.62
572.514	37.8
572.855	37.89
573.195	37.87
573.536	37.91
573.876	37.71
574.217	37.85
574.557	37.55
574.898	37.87
575.238	37.96
575.578	38.01
575.918	37.88
576.258	38
576.598	38.29
576.938	38.23
577.278	38.23
577.618	38.09
577.958	38.26
578.298	38.34
578.638	38.3
578.977	38.47
579.317	38.57
579.657	38.32
579.996	38.62
580.336	38.78
580.675	38.61
581.014	38.82
581.354	38.93
581.693	38.88
582.032	39.06
582.372	39.02
582.711	39.11
583.05	39.01
583.389	38.93
583.728	39.29
584.067	39.29
584.406	39.22
584.745	39.25
585.083	39.44
585.422	39.21
585.761	39.67
586.1	39.53
586.438	39.4
586.777	39.46
587.115	39.12
587.454	39.54
587.792	39.68
588.13	39.47
588.469	39.37
588.807	39.61
589.145	39.66
589.483	39.55
589.821	39.9
590.159	39.84
590.497	39.83
590.835	39.49
591.173	39.95
591.511	39.86
591.849	39.78
592.187	39.89
592.524	40.03
592.862	39.99
593.2	40.15
593.537	40.16
593.875	40.28
594.212	40.11
594.55	40.29
594.887	40.5
595.224	40.02
595.561	40.03
595.899	40.46
596.236	39.95
596.573	40.37
596.91	40.11
597.247	39.94
597.584	40.27
597.921	40.24
598.258	40.04
598.594	40.36
598.931	40.29
599.268	40.1
599.604	40.28
599.941	40.17
600.277	40.22
600.614	40.52
600.95	40.51
601.287	40.67
601.623	40.71
601.959	40.68
602.296	40.7
602.632	41.18
602.968	40.74
603.304	41.15
603.64	40.88
603.976	41.23
604.312	41.14
604.648	41.02
604.984	40.75
605.319	41.04
605.655	40.62
605.991	40.6
606.326	40.76
606.662	40.79
606.998	41
607.333	40.6
607.668	40.92
608.004	40.89
608.339	40.9
608.674	41.27
609.01	41.47
609.345	41.34
609.68	41.2
610.015	41.34
610.35	41.25
610.685	41.27
611.02	41.32
611.355	41.28
611.689	41.51
612.024	41.23
612.359	41.36
612.694	41.46
613.028	41.57
613.363	41.65
613.697	41.88
614.032	41.71
614.366	41.87
614.7	41.38
615.035	41.93
615.369	42.27
615.703	41.77
616.037	41.99
616.371	42.03
616.705	41.97
617.039	42.3
617.373	42.41
617.707	42.39
618.041	42.09
618.375	42.53
618.709	42.14
619.042	41.98
619.376	42.63
619.71	42.59
620.043	42.18
620.377	42.37
620.71	42.11
621.043	42.56
621.377	42.22
621.71	42.96
622.043	42.39
622.376	42.06
622.709	42.5
623.043	42.46
623.376	42.76
623.709	42.85
624.041	42.74
624.374	42.54
624.707	42.97
625.04	43.01
625.373	42.99
625.705	42.84
626.038	42.97
626.37	43.05
626.703	43.07
627.035	43.45
627.368	43.13
627.7	43.35
628.032	42.94
628.365	42.91
628.697	42.93
629.029	43.06
629.361	43
629.693	43.13
630.025	43.16
630.357	43.19
630.689	43.23
631.021	43.12
631.353	43.52
631.684	43.37
632.016	43.27
632.348	43.49
632.679	43.32
633.011	43.35
633.342	43.28
633.674	43.72
634.005	43.49
634.336	44.11
634.668	43.41
634.999	43.78
635.33	43.61
635.661	43.9
635.992	43.82
636.323	43.68
636.654	43.64
636.985	43.71
637.316	43.5
637.647	43.61
637.977	44.21
638.308	43.7
638.639	43.34
638.969	43.71
639.3	43.76
639.63	43.72
639.961	44.13
640.291	44.44
640.622	44.51
640.952	43.69
641.282	43.71
641.612	43.81
641.943	44.72
642.273	44.34
642.603	44.79
642.933	44.23
643.263	44.52
643.592	43.78
643.922	44.55
644.252	44.11
644.582	44.41
644.911	44.53
645.241	44.37
645.571	44.37
645.9	44.17
646.23	44.42
646.559	44.32
646.888	44.6
647.218	44.51
647.547	43.88
647.876	44.44
648.205	44.72
648.534	44.45
648.863	44.6
649.192	44.71
649.521	45.02
649.85	44.8
650.179	44.65
650.508	44.89
650.837	44.79
651.165	44.87
651.494	44.62
651.822	44.43
652.151	44.35
652.479	45.25
652.808	45.24
653.136	45.05
653.465	44.67
653.793	44.65
654.121	44.57
654.449	44.93
654.777	45.64
655.105	45.4
655.433	45.03
655.761	44.96
656.089	45.16
656.417	45.11
656.745	45.03
657.073	45.21
657.4	45.03
657.728	45.26
658.056	45.78
658.383	45.34
658.711	45.66
659.038	45.51
659.365	45.72
659.693	45.15
660.02	45.88
660.347	45.39
660.674	45.2
661.001	45.62
661.329	45.07
661.656	45.65
661.982	45.14
662.309	45.88
662.636	45.4
662.963	45.64
663.29	45.62
663.616	45.43
663.943	45.73
664.27	45.82
664.596	45.58
664.923	45.81
665.249	46.28
665.576	45.73
665.902	46.2
666.228	46.08
666.554	45.74
666.881	46.21
667.207	46.3
667.533	46.3
667.859	45.88
668.185	46.35
668.511	46.11
668.837	46.18
669.162	45.84
669.488	46.64
669.814	46.14
670.139	45.96
670.465	46.02
670.791	46.22
