Data from 97282_forehead_Reflection__3__99.txt Node

Date: Fri Sep 23 20:28:01 CDT 2022
User: ToomeyLab
Spectrometer: FLMS14357
Trigger mode: 0
Integration Time (sec): 1.000000E-2
Scans to average: 100
Electric dark correction enabled: true
Nonlinearity correction enabled: false
Boxcar width: 0
XAxis mode: Wavelengths
Number of Pixels in Spectrum: 2048
>>>>>Begin Spectral Data<<<<<
189.047	179.04
189.435	179.04
189.823	179.04
190.211	-3.79
190.599	-2.61
190.987	-68.49
191.375	524.2
191.763	85.6
192.151	-225.74
192.538	-122.03
192.926	161.95
193.314	66.09
193.702	194.43
194.089	-43.9
194.477	36.23
194.864	-350.91
195.252	154.2
195.639	13.19
196.027	340.43
196.414	40860
196.801	71.27
197.189	-2829.41
197.576	481.82
197.963	-1066.34
198.351	58.34
198.738	-36.67
199.125	49.57
199.512	28.42
199.899	31.02
200.286	12.6
200.673	48.6
201.06	53.3
201.447	65.59
201.833	56.51
202.22	14.65
202.607	57.83
202.994	12.91
203.38	48.11
203.767	-7.55
204.154	59.29
204.54	28.23
204.927	83.58
205.313	25.27
205.699	-7.91
206.086	-28.28
206.472	57.2
206.858	44.86
207.245	13.2
207.631	23.29
208.017	29.96
208.403	35.76
208.789	27.65
209.175	49.54
209.561	59.97
209.947	54.02
210.333	18.25
210.719	12.66
211.105	31.56
211.491	18.67
211.876	44.6
212.262	9.39
212.648	28.42
213.034	-25.9
213.419	33.92
213.805	45.28
214.19	5.62
214.576	17.52
214.961	22.6
215.346	-6.95
215.732	40.85
216.117	30.9
216.502	65.12
216.888	26.33
217.273	41.09
217.658	12.54
218.043	47.28
218.428	33.84
218.813	34
219.198	10.52
219.583	22.63
219.968	14.72
220.353	24.3
220.738	23.14
221.122	9.62
221.507	17.59
221.892	20.43
222.276	15.09
222.661	23.03
223.046	11.71
223.43	-3.09
223.815	10.19
224.199	10.76
224.583	14.21
224.968	-0.78
225.352	14.01
225.736	3.93
226.121	16.12
226.505	9.4
226.889	6.19
227.273	6.79
227.657	3.49
228.041	5.88
228.425	5.87
228.809	1.09
229.193	5.56
229.577	6.46
229.961	3.56
230.344	3.37
230.728	2.57
231.112	1.75
231.495	2.19
231.879	1.38
232.263	2.58
232.646	4.59
233.03	2.98
233.413	3.32
233.797	3.49
234.18	6.59
234.563	0.48
234.946	5.42
235.33	3.76
235.713	4.83
236.096	1.89
236.479	3.92
236.862	3.76
237.245	3.86
237.628	5.95
238.011	4.42
238.394	3.13
238.777	5.14
239.16	3.24
239.543	3.93
239.925	3.68
240.308	4
240.691	4.24
241.073	2.76
241.456	3.76
241.838	4.59
242.221	4.44
242.603	3.75
242.986	2.46
243.368	2.69
243.75	3.08
244.133	3.36
244.515	2.71
244.897	3.14
245.279	3.95
245.661	4.47
246.043	5.29
246.425	3.25
246.807	3.33
247.189	4.34
247.571	2.78
247.953	2.93
248.335	3.43
248.717	3.36
249.098	3.13
249.48	3.06
249.862	3.55
250.243	3.67
250.625	3.61
251.006	3.98
251.388	3.51
251.769	4.27
252.151	2.83
252.532	3.95
252.913	4.54
253.295	4.6
253.676	3.8
254.057	3.49
254.438	3.53
254.819	4.05
255.2	3.83
255.581	4.77
255.962	3.18
256.343	3.9
256.724	3.51
257.105	3.27
257.486	4
257.867	4.25
258.247	5.05
258.628	4.04
259.009	3.2
259.389	3.25
259.77	3.21
260.15	3.95
260.531	3.3
260.911	3.3
261.292	3.41
261.672	3.14
262.052	3.04
262.432	2.98
262.813	3.27
263.193	3.75
263.573	3.74
263.953	3.12
264.333	3.69
264.713	3.37
265.093	3.83
265.473	3.02
265.853	3.15
266.233	3.28
266.612	3.35
266.992	4.17
267.372	3.55
267.752	3.56
268.131	3.57
268.511	3.16
268.89	3.07
269.27	3.59
269.649	3.37
270.029	3.45
270.408	3.29
270.787	2.68
271.167	3.22
271.546	3.6
271.925	2.78
272.304	3.71
272.683	3.32
273.062	2.54
273.441	2.84
273.82	3.11
274.199	2.96
274.578	2.95
274.957	2.86
275.336	3.42
275.715	2.98
276.093	3.99
276.472	3.82
276.851	3.59
277.229	3.69
277.608	2.92
277.986	3
278.365	2.99
278.743	3.49
279.122	2.49
279.5	3.21
279.878	2.81
280.257	2.94
280.635	3.34
281.013	3.24
281.391	3.33
281.769	3.16
282.147	3
282.525	3.24
282.903	3.02
283.281	2.95
283.659	3.03
284.037	2.65
284.415	2.93
284.792	3.37
285.17	3.43
285.548	2.89
285.925	3.33
286.303	3.78
286.68	2.96
287.058	3.29
287.435	2.87
287.813	3.42
288.19	2.87
288.567	3.25
288.945	3.39
289.322	3.28
289.699	3.65
290.076	3.5
290.453	3.08
290.83	3.49
291.207	3.25
291.584	3.74
291.961	3.53
292.338	3.32
292.715	3.09
293.092	3.4
293.469	3.68
293.845	3.73
294.222	3.82
294.599	3.22
294.975	3.95
295.352	3.87
295.728	3.36
296.105	3.55
296.481	3.74
296.858	3.84
297.234	3.95
297.61	3.58
297.986	3.67
298.363	3.83
298.739	4.05
299.115	3.98
299.491	3.88
299.867	3.91
300.243	3.63
300.619	4.48
300.995	4.49
301.371	3.82
301.746	4.78
302.122	4.08
302.498	4.53
302.874	4.24
303.249	4.59
303.625	4.31
304	4.79
304.376	4.31
304.751	4.67
305.127	4.89
305.502	5.07
305.878	5.08
306.253	4.98
306.628	4.82
307.003	4.74
307.378	5.4
307.754	5.37
308.129	5.02
308.504	5.63
308.879	5.45
309.254	5.5
309.629	5.51
310.003	5.78
310.378	5.7
310.753	5.49
311.128	5.48
311.502	5.34
311.877	5.48
312.252	5.79
312.626	5.99
313.001	5.96
313.375	6.18
313.75	5.89
314.124	5.71
314.498	6.51
314.873	6.29
315.247	6.79
315.621	6.83
315.995	6.52
316.369	7.04
316.743	6.52
317.117	6.3
317.491	6.89
317.865	7.37
318.239	8.26
318.613	7.24
318.987	7.34
319.361	6.86
319.734	7.48
320.108	7.03
320.482	7.3
320.855	7.68
321.229	8.38
321.602	8.45
321.976	8.62
322.349	7.9
322.723	8.1
323.096	8.19
323.469	8.15
323.843	8.21
324.216	8.88
324.589	9.06
324.962	8.48
325.335	8.62
325.708	8.67
326.081	8.67
326.454	8.96
326.827	8.94
327.2	8.93
327.573	9.34
327.945	9.63
328.318	8.94
328.691	9.14
329.063	9.56
329.436	9.45
329.809	10.24
330.181	10.08
330.553	9.36
330.926	9.82
331.298	9.72
331.671	10.54
332.043	10.14
332.415	10.16
332.787	10.13
333.159	10.37
333.532	10.08
333.904	10.24
334.276	10.48
334.648	10.55
335.02	10.74
335.391	11.09
335.763	10.67
336.135	10.92
336.507	11.02
336.879	11.08
337.25	11.22
337.622	11.26
337.993	11.49
338.365	11.27
338.736	11.56
339.108	12.1
339.479	11.33
339.851	12.26
340.222	11.84
340.593	11.57
340.964	11.75
341.336	11.61
341.707	12.68
342.078	11.26
342.449	11.48
342.82	11.94
343.191	12.16
343.562	11.59
343.933	12.49
344.303	12.18
344.674	12.41
345.045	12.43
345.416	12.08
345.786	13
346.157	12.48
346.527	12.89
346.898	12.94
347.268	12.65
347.639	12.97
348.009	12.75
348.38	13.01
348.75	12.97
349.12	13.36
349.49	13.19
349.861	13.43
350.231	13.33
350.601	13.48
350.971	13.6
351.341	13.32
351.711	13.44
352.081	13.8
352.45	13.48
352.82	13.38
353.19	14.05
353.56	14.23
353.929	13.56
354.299	14.02
354.669	14.04
355.038	14.3
355.408	14.01
355.777	14.13
356.147	14.15
356.516	14.51
356.885	14.47
357.254	14.48
357.624	14.17
357.993	14.85
358.362	14.72
358.731	14.68
359.1	14.67
359.469	14.57
359.838	14.54
360.207	14.86
360.576	15.05
360.945	14.79
361.314	14.83
361.682	14.88
362.051	15.15
362.42	15.2
362.788	15.11
363.157	15.42
363.525	15.4
363.894	15.21
364.262	15.13
364.631	15.53
364.999	15.48
365.367	15.59
365.735	16.11
366.104	16
366.472	16.08
366.84	15.9
367.208	16.16
367.576	16.04
367.944	15.7
368.312	16.15
368.68	16.09
369.048	16.09
369.416	16.16
369.783	16.41
370.151	16.33
370.519	16.76
370.886	16.77
371.254	16.75
371.621	16.74
371.989	16.74
372.356	17.05
372.724	16.7
373.091	16.84
373.458	16.92
373.826	17.18
374.193	17.44
374.56	17.39
374.927	17.54
375.294	17.64
375.661	17.16
376.028	17.74
376.395	17.4
376.762	17.41
377.129	17.54
377.496	18.18
377.863	17.8
378.229	18.06
378.596	17.57
378.963	18.25
379.329	18.06
379.696	18.25
380.062	18.07
380.429	18.14
380.795	17.96
381.161	18.55
381.528	18.53
381.894	18.34
382.26	18.4
382.626	18.54
382.993	18.7
383.359	18.92
383.725	19.26
384.091	18.8
384.457	18.75
384.823	18.82
385.188	19.21
385.554	19.04
385.92	19.01
386.286	19.2
386.651	19.32
387.017	19.6
387.383	19.7
387.748	19.47
388.114	19.67
388.479	19.58
388.845	19.59
389.21	19.59
389.575	19.82
389.94	19.69
390.306	19.86
390.671	19.97
391.036	19.86
391.401	20.3
391.766	20.37
392.131	20.15
392.496	20.09
392.861	20.08
393.226	20.13
393.591	20.3
393.956	20.49
394.32	20.19
394.685	20.48
395.05	20.62
395.414	20.6
395.779	20.65
396.143	20.76
396.508	20.75
396.872	20.9
397.236	20.86
397.601	20.84
397.965	21.51
398.329	21.26
398.694	21.24
399.058	20.94
399.422	21.58
399.786	21.5
400.15	21.59
400.514	21.19
400.878	21.51
401.242	21.72
401.605	21.79
401.969	21.83
402.333	22.07
402.697	21.55
403.06	22.04
403.424	22.15
403.787	21.72
404.151	22
404.514	22.12
404.878	22.22
405.241	22.17
405.604	22.16
405.968	22.29
406.331	22.19
406.694	22.4
407.057	22.44
407.42	22.37
407.783	22.58
408.146	22.54
408.509	22.72
408.872	22.35
409.235	22.74
409.598	23.06
409.961	23.14
410.323	23.27
410.686	23.2
411.049	23.42
411.411	23.23
411.774	23.46
412.136	23.23
412.499	23.17
412.861	23.25
413.223	23.33
413.586	23.5
413.948	23.55
414.31	23.68
414.672	24.02
415.035	23.67
415.397	23.89
415.759	23.94
416.121	23.94
416.483	24.17
416.845	24.04
417.206	24.17
417.568	23.8
417.93	23.92
418.292	24.14
418.653	24.36
419.015	24.13
419.377	24.13
419.738	24.09
420.1	24.22
420.461	24.15
420.822	24.26
421.184	24.32
421.545	24.21
421.906	24.39
422.267	24.32
422.629	24.26
422.99	24.26
423.351	24.52
423.712	24.36
424.073	24.63
424.434	24.5
424.795	24.64
425.155	24.81
425.516	24.76
425.877	24.7
426.238	24.8
426.598	24.62
426.959	24.85
427.32	24.99
427.68	25.04
428.041	25.14
428.401	25.29
428.761	25.51
429.122	25.56
429.482	25.83
429.842	25.89
430.202	26.01
430.563	26.04
430.923	25.89
431.283	26.2
431.643	26.15
432.003	26.14
432.363	26.15
432.722	26.36
433.082	26.32
433.442	26.12
433.802	26.34
434.161	26.36
434.521	26.34
434.881	26.28
435.24	26.47
435.6	26.48
435.959	26.6
436.319	26.47
436.678	26.57
437.037	26.73
437.396	26.82
437.756	26.91
438.115	26.73
438.474	27.11
438.833	27.03
439.192	27.3
439.551	27.18
439.91	27.51
440.269	27.17
440.628	27.06
440.987	27.14
441.345	27.2
441.704	27.1
442.063	27.23
442.421	27.07
442.78	27.14
443.138	27.51
443.497	27.53
443.855	27.52
444.214	27.54
444.572	27.71
444.93	27.71
445.288	27.95
445.647	27.96
446.005	27.97
446.363	27.96
446.721	27.81
447.079	27.92
447.437	27.94
447.795	27.82
448.153	27.64
448.51	27.83
448.868	27.89
449.226	27.97
449.584	28.09
449.941	28.25
450.299	28.39
450.656	28.5
451.014	28.6
451.371	28.69
451.729	28.62
452.086	28.92
452.443	28.84
452.801	29.16
453.158	29.2
453.515	29.21
453.872	29.14
454.229	29.26
454.586	29.21
454.943	29.32
455.3	29.36
455.657	29.34
456.014	29.52
456.371	29.56
456.727	29.63
457.084	29.73
457.441	29.91
457.797	29.5
458.154	29.67
458.51	29.94
458.867	30.17
459.223	30.07
459.58	29.88
459.936	30.09
460.292	29.96
460.648	30.03
461.005	30.09
461.361	29.87
461.717	29.62
462.073	29.68
462.429	29.71
462.785	30.13
463.141	30.26
463.496	30.45
463.852	30.6
464.208	30.86
464.564	30.83
464.919	30.86
465.275	30.92
465.631	30.96
465.986	30.86
466.342	30.99
466.697	31.03
467.052	31.03
467.408	31.09
467.763	31.16
468.118	31.33
468.473	31.25
468.829	31.27
469.184	31.39
469.539	31.35
469.894	31.4
470.249	31.42
470.603	31.39
470.958	31.56
471.313	31.82
471.668	31.84
472.023	31.81
472.377	31.83
472.732	31.92
473.086	31.84
473.441	32.23
473.795	32.1
474.15	32.17
474.504	32.18
474.859	32.24
475.213	32.37
475.567	32.21
475.921	32.42
476.275	32.27
476.63	32.47
476.984	32.75
477.338	32.69
477.692	32.82
478.045	32.6
478.399	32.65
478.753	32.69
479.107	32.54
479.461	32.63
479.814	32.88
480.168	32.76
480.521	32.76
480.875	32.98
481.228	33.14
481.582	32.98
481.935	33.19
482.289	33.02
482.642	32.85
482.995	33.25
483.348	32.81
483.701	33.03
484.055	32.75
484.408	32.79
484.761	32.65
485.114	32.32
485.466	32.38
485.819	32.31
486.172	32.37
486.525	32.42
486.878	32.49
487.23	32.73
487.583	32.8
487.936	33.06
488.288	33.11
488.641	33
488.993	32.91
489.345	32.92
489.698	32.83
490.05	32.91
490.402	32.98
490.754	33.2
491.107	33.28
491.459	33.54
491.811	33.6
492.163	34.01
492.515	33.98
492.866	33.88
493.218	33.43
493.57	33.49
493.922	33.53
494.274	33.66
494.625	33.96
494.977	34.03
495.328	34.4
495.68	34.58
496.031	34.85
496.383	35.08
496.734	35.07
497.086	35.19
497.437	35.24
497.788	35.35
498.139	35.13
498.49	35
498.842	35.02
499.193	34.8
499.544	35.06
499.894	35.06
500.245	35.38
500.596	35.37
500.947	35.52
501.298	35.71
501.648	35.76
501.999	35.6
502.35	36.01
502.7	36.06
503.051	35.97
503.401	36.09
503.752	36.25
504.102	36.49
504.452	36.23
504.803	36.22
505.153	36.46
505.503	36.21
505.853	36.45
506.203	36.53
506.553	36.56
506.903	36.57
507.253	36.63
507.603	36.6
507.953	36.74
508.303	36.75
508.652	36.85
509.002	36.82
509.352	36.89
509.701	37.1
510.051	37.1
510.4	36.95
510.75	36.67
511.099	36.73
511.449	36.77
511.798	36.87
512.147	37.06
512.496	37.12
512.846	37.26
513.195	37.25
513.544	37.13
513.893	37.49
514.242	37.21
514.591	37.29
514.939	37.44
515.288	37.49
515.637	37.47
515.986	37.62
516.334	37.64
516.683	37.96
517.032	37.81
517.38	38.08
517.729	38.05
518.077	38.01
518.426	38.15
518.774	38.09
519.122	38.14
519.47	37.9
519.819	38.09
520.167	37.83
520.515	37.84
520.863	37.94
521.211	37.83
521.559	37.93
521.907	38.17
522.255	38.14
522.602	38.46
522.95	38.61
523.298	38.61
523.645	38.64
523.993	38.82
524.341	38.91
524.688	38.85
525.036	38.9
525.383	38.88
525.73	39
526.078	39.2
526.425	39.16
526.772	38.96
527.119	38.78
527.466	38.94
527.814	38.73
528.161	38.79
528.508	38.9
528.854	38.77
529.201	38.85
529.548	38.8
529.895	38.7
530.242	38.56
530.588	38.69
530.935	38.74
531.282	38.55
531.628	38.63
531.975	38.67
532.321	38.87
532.667	39.28
533.014	39.39
533.36	39.53
533.706	39.63
534.052	39.72
534.399	39.67
534.745	39.48
535.091	39.44
535.437	39.36
535.783	39.45
536.129	39.54
536.474	39.76
536.82	39.95
537.166	39.96
537.512	40.11
537.857	40.04
538.203	40.12
538.549	40.11
538.894	40.2
539.239	40.28
539.585	40.22
539.93	40.48
540.276	40.69
540.621	40.76
540.966	40.88
541.311	41.03
541.656	40.88
542.001	41.05
542.346	40.82
542.691	40.72
543.036	40.4
543.381	40.41
543.726	40.49
544.071	40.5
544.415	40.59
544.76	40.75
545.105	40.9
545.449	40.99
545.794	41.17
546.138	41.31
546.483	41.29
546.827	41.58
547.171	41.58
547.516	41.59
547.86	41.64
548.204	41.63
548.548	41.63
548.892	41.54
549.236	41.89
549.58	41.77
549.924	42.19
550.268	42.27
550.612	42.32
550.956	42.48
551.3	42.29
551.643	42.72
551.987	42.76
552.33	42.77
552.674	42.86
553.017	43.02
553.361	42.74
553.704	42.97
554.048	42.84
554.391	43.12
554.734	43.07
555.077	43.09
555.42	42.88
555.764	43.08
556.107	43.44
556.45	43.1
556.793	43.31
557.135	43.69
557.478	43.8
557.821	43.34
558.164	43.64
558.507	43.93
558.849	43.79
559.192	43.88
559.534	44.05
559.877	43.97
560.219	44.2
560.562	44.15
560.904	44.18
561.246	44.04
561.589	44.06
561.931	44.36
562.273	44.68
562.615	44.03
562.957	44.07
563.299	44.62
563.641	44.05
563.983	44.14
564.325	44.66
564.667	44.59
565.008	44.61
565.35	44.71
565.692	44.82
566.033	44.75
566.375	44.79
566.716	44.77
567.058	44.73
567.399	44.56
567.741	44.75
568.082	44.57
568.423	44.61
568.764	44.79
569.105	44.85
569.447	44.6
569.788	45.06
570.129	45.24
570.47	44.86
570.811	45.29
571.151	45.24
571.492	45.39
571.833	45.46
572.174	45.35
572.514	45.25
572.855	45.22
573.195	45.54
573.536	45.4
573.876	45.39
574.217	45.58
574.557	45.36
574.898	45.15
575.238	45.31
575.578	45.52
575.918	45.42
576.258	45.89
576.598	45.81
576.938	45.93
577.278	45.92
577.618	45.94
577.958	45.87
578.298	46.02
578.638	46.35
578.977	45.79
579.317	46.17
579.657	46.13
579.996	46.4
580.336	46.29
580.675	46.58
581.014	46.47
581.354	46.78
581.693	46.72
582.032	47.01
582.372	46.88
582.711	46.96
583.05	46.52
583.389	47.01
583.728	47.09
584.067	46.87
584.406	46.97
584.745	47.5
585.083	47.08
585.422	47.25
585.761	47.49
586.1	47.39
586.438	47.17
586.777	47.37
587.115	47.45
587.454	47.54
587.792	47.52
588.13	47.32
588.469	47.38
588.807	47.32
589.145	47.63
589.483	47.78
589.821	48.09
590.159	47.92
590.497	47.72
590.835	47.71
591.173	47.86
591.511	48.06
591.849	47.67
592.187	48.03
592.524	48.31
592.862	48.13
593.2	48.23
593.537	48.38
593.875	48.19
594.212	48.2
594.55	48.5
594.887	48.59
595.224	48.28
595.561	48.36
595.899	48.45
596.236	48.22
596.573	48.47
596.91	48.32
597.247	48.56
597.584	48.4
597.921	48.13
598.258	48.38
598.594	48.2
598.931	48.55
599.268	48.44
599.604	48.49
599.941	48.75
600.277	48.55
600.614	48.73
600.95	48.84
601.287	48.82
601.623	48.9
601.959	49.21
602.296	49.38
602.632	49.49
602.968	49.57
603.304	49.47
603.64	49.38
603.976	49.47
604.312	49.34
604.648	49.27
604.984	48.95
605.319	49.48
605.655	49.04
605.991	49.37
606.326	49.08
606.662	49.21
606.998	49.39
607.333	49.14
607.668	49.42
608.004	49.18
608.339	49.63
608.674	49.74
609.01	50.04
609.345	50.2
609.68	49.91
610.015	49.78
610.35	49.87
610.685	50.36
611.02	49.94
611.355	49.95
611.689	49.64
612.024	50.02
612.359	49.87
612.694	50
613.028	50.23
613.363	50.05
613.697	50.87
614.032	50.23
614.366	50.37
614.7	50.34
615.035	50.75
615.369	51.26
615.703	51.03
616.037	50.71
616.371	50.79
616.705	50.94
617.039	50.93
617.373	50.83
617.707	51.25
618.041	51.19
618.375	51.52
618.709	51.06
619.042	50.92
619.376	51.49
619.71	51.44
620.043	51.09
620.377	51.05
620.71	51.27
621.043	50.98
621.377	51.11
621.71	51.32
622.043	51.55
622.376	51.72
622.709	51.46
623.043	51.86
623.376	51.94
623.709	51.45
624.041	51.03
624.374	51.82
624.707	51.55
625.04	51.71
625.373	51.95
625.705	51.8
626.038	52.41
626.37	51.94
626.703	52.37
627.035	52.04
627.368	52.22
627.7	52.57
628.032	52.23
628.365	51.92
628.697	51.88
629.029	52.11
629.361	52.15
629.693	51.99
630.025	52.34
630.357	52.79
630.689	52.24
631.021	52.69
631.353	52.51
631.684	52.29
632.016	52.49
632.348	52.5
632.679	52.68
633.011	52.74
633.342	52.75
633.674	53.11
634.005	52.76
634.336	53.01
634.668	53.19
634.999	52.89
635.33	53.25
635.661	52.78
635.992	53.43
636.323	53.09
636.654	53.19
636.985	53.1
637.316	52.29
637.647	53.26
637.977	53.11
638.308	53.26
638.639	53.28
638.969	53.18
639.3	53.64
639.63	53.32
639.961	53.57
640.291	53.96
640.622	53.4
640.952	53.32
641.282	53.3
641.612	53.59
641.943	54.31
642.273	53.78
642.603	53.64
642.933	54.01
643.263	53.71
643.592	53.97
643.922	54.35
644.252	54.13
644.582	54.2
644.911	53.78
645.241	54.24
645.571	54.23
645.9	53.78
646.23	54.36
646.559	54.12
646.888	54.37
647.218	54.73
647.547	54.15
647.876	54.34
648.205	54.38
648.534	54.15
648.863	54.68
649.192	54.62
649.521	54.89
649.85	54.4
650.179	54.74
650.508	53.72
650.837	54.63
651.165	53.81
651.494	54.33
651.822	54.66
652.151	54.61
652.479	54.8
652.808	54.45
653.136	54.61
653.465	54.68
653.793	54.7
654.121	54.87
654.449	55.03
654.777	55.1
655.105	55.07
655.433	54.65
655.761	54.89
656.089	54.65
656.417	55.19
656.745	55.22
657.073	54.72
657.4	55.22
657.728	55.2
658.056	55.38
658.383	54.66
658.711	55.19
659.038	55.2
659.365	55.64
659.693	54.89
660.02	55.33
660.347	55.02
660.674	55.11
661.001	55.26
661.329	55.18
661.656	55.58
661.982	55.05
662.309	55.6
662.636	55.13
662.963	55.33
663.29	55.11
663.616	55.46
663.943	55.67
664.27	56.27
664.596	55.49
664.923	55.71
665.249	56.64
665.576	56.35
665.902	55.98
666.228	55.75
666.554	55.21
666.881	55.61
667.207	56.11
667.533	55.87
667.859	56.5
668.185	56.51
668.511	55.7
668.837	56.08
669.162	56.06
669.488	56.15
669.814	56.94
