Data from 97282_crown_Reflection__2__103.txt Node

Date: Fri Sep 23 20:29:14 CDT 2022
User: ToomeyLab
Spectrometer: FLMS14357
Trigger mode: 0
Integration Time (sec): 1.000000E-2
Scans to average: 100
Electric dark correction enabled: true
Nonlinearity correction enabled: false
Boxcar width: 0
XAxis mode: Wavelengths
Number of Pixels in Spectrum: 2048
>>>>>Begin Spectral Data<<<<<
189.047	114.84
189.435	114.84
189.823	114.84
190.211	30.35
190.599	242.16
190.987	-95.33
191.375	52.59
191.763	58.82
192.151	-99.57
192.538	-158.01
192.926	29.8
193.314	121.36
193.702	125.46
194.089	64.4
194.477	12.24
194.864	-430.81
195.252	116.43
195.639	109.38
196.027	278
196.414	108580
196.801	21.45
197.189	1492.94
197.576	1186.06
197.963	1557.43
198.351	11.43
198.738	-221.27
199.125	10.96
199.512	-38
199.899	-21.69
200.286	9.3
200.673	29.51
201.06	24.13
201.447	40.68
201.833	10.93
202.22	-6.91
202.607	6.77
202.994	-16.79
203.38	-42.86
203.767	-22.8
204.154	0.29
204.54	13.99
204.927	48.92
205.313	15.98
205.699	-15.48
206.086	-4.66
206.472	34.45
206.858	37.14
207.245	-16.49
207.631	9.84
208.017	19.12
208.403	-5.01
208.789	25.3
209.175	8.23
209.561	28.05
209.947	-12.62
210.333	-54.8
210.719	-25.41
211.105	16.73
211.491	-6.82
211.876	-5.24
212.262	-15.36
212.648	-39.77
213.034	-71.33
213.419	-39.25
213.805	24.29
214.19	-6.93
214.576	-1.79
214.961	19.83
215.346	-38.53
215.732	-10.85
216.117	17.3
216.502	0.32
216.888	3.02
217.273	1.11
217.658	-43.42
218.043	4.9
218.428	-9.65
218.813	-1.92
219.198	-9.58
219.583	-8.05
219.968	17.01
220.353	-15.43
220.738	-0.47
221.122	-4.58
221.507	0.39
221.892	-16.82
222.276	4.17
222.661	13.72
223.046	10.76
223.43	10.34
223.815	12.44
224.199	-7.4
224.583	4.57
224.968	-3.18
225.352	3.98
225.736	2.71
226.121	4.05
226.505	3.13
226.889	4.47
227.273	4.78
227.657	-0.74
228.041	6.02
228.425	5.99
228.809	5.85
229.193	7.64
229.577	6.23
229.961	6.91
230.344	6.36
230.728	5.67
231.112	6.2
231.495	6.05
231.879	4.64
232.263	7.89
232.646	5.56
233.03	5.39
233.413	6.51
233.797	4.83
234.18	8.13
234.563	4.91
234.946	7.76
235.33	4.42
235.713	7.1
236.096	4.7
236.479	5.64
236.862	5.86
237.245	6.19
237.628	6.58
238.011	6.34
238.394	6
238.777	7.09
239.16	7.26
239.543	5.54
239.925	4.86
240.308	7.11
240.691	7.95
241.073	6.98
241.456	6.73
241.838	8.25
242.221	6.99
242.603	7.13
242.986	6
243.368	6.19
243.75	6.84
244.133	6.58
244.515	6.45
244.897	6.67
245.279	6.52
245.661	6.34
246.043	7.48
246.425	7.08
246.807	6.14
247.189	7.09
247.571	6.79
247.953	6.58
248.335	6.47
248.717	6.64
249.098	6.41
249.48	6.33
249.862	6.26
250.243	7.02
250.625	6.38
251.006	6.76
251.388	5.6
251.769	5.66
252.151	5.19
252.532	6.5
252.913	6.9
253.295	7.05
253.676	6.63
254.057	6.12
254.438	6.54
254.819	6.63
255.2	5.8
255.581	6.99
255.962	5.73
256.343	7.16
256.724	5.89
257.105	6.88
257.486	5.95
257.867	5.73
258.247	7.81
258.628	5.09
259.009	6.14
259.389	5.85
259.77	5.82
260.15	5.63
260.531	5.77
260.911	5.84
261.292	6.02
261.672	6.18
262.052	5.83
262.432	5.71
262.813	5.77
263.193	5.45
263.573	6.06
263.953	5.61
264.333	5.91
264.713	5.93
265.093	6.27
265.473	6.44
265.853	5.78
266.233	5.24
266.612	6.14
266.992	6.76
267.372	5.6
267.752	5.51
268.131	6.23
268.511	6.01
268.89	5.48
269.27	6.09
269.649	5.59
270.029	5.39
270.408	5.82
270.787	5.51
271.167	5.82
271.546	5.45
271.925	5.03
272.304	5.72
272.683	5.99
273.062	5.4
273.441	5.41
273.82	5.35
274.199	5.7
274.578	5.46
274.957	5.37
275.336	5.49
275.715	5.2
276.093	5.6
276.472	5.65
276.851	5.53
277.229	5.59
277.608	5.69
277.986	5.13
278.365	5.69
278.743	5.87
279.122	4.86
279.5	5.08
279.878	5.13
280.257	5.54
280.635	5.2
281.013	5.13
281.391	5.24
281.769	5.25
282.147	5.54
282.525	5.49
282.903	4.64
283.281	5.15
283.659	5.13
284.037	5.24
284.415	5.37
284.792	4.85
285.17	5.26
285.548	4.99
285.925	5.03
286.303	5.43
286.68	5.25
287.058	5.39
287.435	5.36
287.813	5.37
288.19	5.12
288.567	5.06
288.945	4.97
289.322	5.44
289.699	5.12
290.076	5.32
290.453	5.1
290.83	5.22
291.207	4.74
291.584	5.15
291.961	4.94
292.338	5.24
292.715	4.65
293.092	4.68
293.469	5.02
293.845	5.19
294.222	4.97
294.599	5.35
294.975	4.99
295.352	5.46
295.728	5.11
296.105	4.95
296.481	4.95
296.858	5.05
297.234	4.86
297.61	4.64
297.986	4.89
298.363	4.84
298.739	5.04
299.115	5.14
299.491	5.11
299.867	4.76
300.243	5.2
300.619	5.45
300.995	5.12
301.371	4.78
301.746	5.58
302.122	5.07
302.498	5.25
302.874	4.69
303.249	4.67
303.625	4.55
304	4.89
304.376	4.98
304.751	4.89
305.127	5.08
305.502	4.94
305.878	5.07
306.253	4.92
306.628	5.08
307.003	4.79
307.378	4.75
307.754	5.29
308.129	4.55
308.504	5.16
308.879	5.16
309.254	5.07
309.629	5.39
310.003	5.16
310.378	4.85
310.753	4.89
311.128	4.93
311.502	4.87
311.877	4.69
312.252	4.99
312.626	4.87
313.001	4.99
313.375	5.08
313.75	4.83
314.124	4.6
314.498	5.26
314.873	5.35
315.247	5.2
315.621	5.04
315.995	4.85
316.369	4.36
316.743	4.64
317.117	4.55
317.491	4.88
317.865	5.31
318.239	5.42
318.613	4.73
318.987	4.61
319.361	4.76
319.734	4.94
320.108	4.46
320.482	5.37
320.855	5.04
321.229	4.93
321.602	4.51
321.976	5.01
322.349	4.78
322.723	4.93
323.096	5.09
323.469	4.62
323.843	4.91
324.216	5.07
324.589	5.69
324.962	4.91
325.335	4.67
325.708	4.89
326.081	4.62
326.454	5.07
326.827	4.72
327.2	4.43
327.573	5.42
327.945	5.29
328.318	4.9
328.691	4.99
329.063	4.89
329.436	4.93
329.809	5.86
330.181	5.09
330.553	4.51
330.926	4.54
331.298	4.81
331.671	5.27
332.043	5.44
332.415	4.56
332.787	4.67
333.159	5.02
333.532	4.72
333.904	4.85
334.276	4.52
334.648	5.15
335.02	4.95
335.391	4.86
335.763	4.95
336.135	5.11
336.507	5.5
336.879	5.15
337.25	5.56
337.622	5.3
337.993	5.08
338.365	4.95
338.736	5.42
339.108	5.36
339.479	4.92
339.851	5.33
340.222	5.2
340.593	5.14
340.964	4.84
341.336	4.81
341.707	5.67
342.078	5.03
342.449	5.26
342.82	4.74
343.191	5.06
343.562	4.93
343.933	5.62
344.303	4.88
344.674	5.14
345.045	5.44
345.416	5.07
345.786	5.44
346.157	5.27
346.527	5.22
346.898	5.47
347.268	5.22
347.639	5.02
348.009	5.33
348.38	5.25
348.75	5.44
349.12	4.85
349.49	5.41
349.861	5.44
350.231	4.8
350.601	5.13
350.971	5.28
351.341	4.83
351.711	5.4
352.081	5.23
352.45	4.96
352.82	4.94
353.19	5.57
353.56	5.51
353.929	5.03
354.299	5.5
354.669	5.37
355.038	5.37
355.408	4.76
355.777	5.42
356.147	5.16
356.516	5.38
356.885	5.2
357.254	5
357.624	5.24
357.993	5.56
358.362	5.17
358.731	5.09
359.1	5.44
359.469	5.05
359.838	5.36
360.207	5.65
360.576	5.58
360.945	5.35
361.314	5.08
361.682	5.15
362.051	5.52
362.42	5.6
362.788	5.35
363.157	5.46
363.525	5.49
363.894	5.57
364.262	5.2
364.631	5.44
364.999	5.34
365.367	5.42
365.735	5.74
366.104	5.47
366.472	5.61
366.84	5.28
367.208	5.43
367.576	5.87
367.944	5.4
368.312	5.52
368.68	5.37
369.048	5.53
369.416	5.51
369.783	5.5
370.151	5.74
370.519	5.55
370.886	5.56
371.254	5.83
371.621	5.78
371.989	5.56
372.356	5.94
372.724	5.43
373.091	5.5
373.458	5.64
373.826	5.63
374.193	5.69
374.56	5.59
374.927	5.74
375.294	5.79
375.661	5.62
376.028	5.45
376.395	5.33
376.762	5.56
377.129	5.66
377.496	5.82
377.863	5.84
378.229	5.66
378.596	5.56
378.963	5.98
379.329	6.11
379.696	5.66
380.062	5.64
380.429	5.66
380.795	5.84
381.161	5.82
381.528	5.65
381.894	5.59
382.26	5.71
382.626	5.63
382.993	6
383.359	5.77
383.725	6
384.091	5.59
384.457	5.7
384.823	5.74
385.188	5.98
385.554	5.9
385.92	6.25
386.286	5.75
386.651	5.83
387.017	6.08
387.383	5.87
387.748	6.07
388.114	5.88
388.479	5.79
388.845	5.88
389.21	5.93
389.575	5.7
389.94	5.62
390.306	5.66
390.671	5.62
391.036	5.86
391.401	6.01
391.766	5.94
392.131	5.91
392.496	5.85
392.861	6.04
393.226	5.79
393.591	5.83
393.956	5.91
394.32	5.88
394.685	5.74
395.05	6.03
395.414	5.97
395.779	5.89
396.143	5.85
396.508	5.93
396.872	6.04
397.236	5.93
397.601	5.81
397.965	5.83
398.329	6.07
398.694	5.84
399.058	5.83
399.422	6.21
399.786	6.16
400.15	5.64
400.514	6.02
400.878	5.98
401.242	5.96
401.605	6.33
401.969	6.01
402.333	5.98
402.697	5.71
403.06	6.02
403.424	5.92
403.787	6.12
404.151	5.88
404.514	6.12
404.878	6.12
405.241	6.17
405.604	5.89
405.968	6.12
406.331	6.06
406.694	6.14
407.057	6.1
407.42	6.08
407.783	6.09
408.146	6.16
408.509	6.19
408.872	6.17
409.235	6.24
409.598	6.28
409.961	6.04
410.323	6.3
410.686	6.11
411.049	5.99
411.411	6.14
411.774	6.07
412.136	6.06
412.499	6.08
412.861	5.95
413.223	6.15
413.586	6.11
413.948	6.26
414.31	6.04
414.672	6.14
415.035	6.05
415.397	6.33
415.759	6.32
416.121	6.3
416.483	6.05
416.845	5.86
417.206	6.11
417.568	6.22
417.93	5.98
418.292	6.19
418.653	5.99
419.015	6.05
419.377	5.99
419.738	6.19
420.1	6.23
420.461	6.14
420.822	6.19
421.184	6.18
421.545	6.15
421.906	6.17
422.267	6.07
422.629	6.13
422.99	6.04
423.351	6.03
423.712	6.04
424.073	6.07
424.434	6.05
424.795	6.15
425.155	6.09
425.516	6.08
425.877	6.12
426.238	6.13
426.598	6.07
426.959	6.05
427.32	6.05
427.68	6.14
428.041	6.09
428.401	6.05
428.761	6.32
429.122	6.13
429.482	6.26
429.842	6.34
430.202	6.25
430.563	6.2
430.923	6.33
431.283	6.38
431.643	6.26
432.003	6.05
432.363	6.23
432.722	6.44
433.082	6.26
433.442	6.35
433.802	6.16
434.161	6.32
434.521	6.22
434.881	6.28
435.24	6.18
435.6	6.12
435.959	6.31
436.319	6.1
436.678	6.18
437.037	6.28
437.396	6.25
437.756	6.27
438.115	6.15
438.474	6.14
438.833	6.34
439.192	6.35
439.551	6.19
439.91	6.18
440.269	6.31
440.628	6.1
440.987	6.17
441.345	6.34
441.704	6.16
442.063	6.29
442.421	6.1
442.78	6.15
443.138	6.07
443.497	6.25
443.855	6.25
444.214	6.27
444.572	6.14
444.93	6.18
445.288	6.33
445.647	6.36
446.005	6.34
446.363	6.41
446.721	6.25
447.079	6.28
447.437	6.29
447.795	6.29
448.153	6.12
448.51	6.2
448.868	6.17
449.226	6.15
449.584	6.2
449.941	6.17
450.299	6.26
450.656	6.27
451.014	6.3
451.371	6.06
451.729	6.16
452.086	6.44
452.443	6.16
452.801	6.22
453.158	6.24
453.515	6.09
453.872	6.24
454.229	6.32
454.586	6.27
454.943	6.28
455.3	6.25
455.657	6.28
456.014	6.42
456.371	6.26
456.727	6.37
457.084	6.31
457.441	6.34
457.797	6.26
458.154	6.32
458.51	6.22
458.867	6.47
459.223	6.31
459.58	6.23
459.936	6.4
460.292	6.14
460.648	6.43
461.005	6.32
461.361	6.17
461.717	6.24
462.073	6.15
462.429	6.16
462.785	6.27
463.141	6.21
463.496	6.21
463.852	6.28
464.208	6.08
464.564	6.28
464.919	6.3
465.275	6.25
465.631	6.04
465.986	6.16
466.342	6.2
466.697	6.26
467.052	6.2
467.408	6.21
467.763	6.27
468.118	6.17
468.473	6.3
468.829	6.24
469.184	6.36
469.539	6.11
469.894	6.24
470.249	6.14
470.603	6.33
470.958	6.16
471.313	6.34
471.668	6.34
472.023	6.15
472.377	6.31
472.732	6.23
473.086	6.3
473.441	6.23
473.795	6.29
474.15	6.31
474.504	6.26
474.859	6.24
475.213	6.45
475.567	6.12
475.921	6.08
476.275	6
476.63	6.26
476.984	6.36
477.338	6.2
477.692	6.19
478.045	6.14
478.399	6.32
478.753	6.2
479.107	6.13
479.461	6.21
479.814	6.15
480.168	6.21
480.521	6.24
480.875	6.28
481.228	6.26
481.582	6.12
481.935	6.19
482.289	6.22
482.642	6.13
482.995	6.32
483.348	6.06
483.701	6.15
484.055	6.09
484.408	6.1
484.761	6.13
485.114	5.97
485.466	5.92
485.819	5.84
486.172	5.87
486.525	5.9
486.878	5.88
487.23	5.93
487.583	6.01
487.936	6.01
488.288	6.01
488.641	6
488.993	6.02
489.345	6
489.698	5.9
490.05	5.94
490.402	5.89
490.754	6.03
491.107	5.95
491.459	5.98
491.811	6.02
492.163	6.13
492.515	6.03
492.866	6
493.218	5.89
493.57	5.92
493.922	5.95
494.274	5.94
494.625	5.97
494.977	6.07
495.328	6.12
495.68	6.14
496.031	6.09
496.383	6.21
496.734	6.19
497.086	6.13
497.437	6.25
497.788	6.31
498.139	6.22
498.49	6.1
498.842	6.18
499.193	6.04
499.544	6.05
499.894	6.07
500.245	6.14
500.596	6.12
500.947	6.01
501.298	6.13
501.648	6.31
501.999	6.13
502.35	6.27
502.7	6.09
503.051	5.98
503.401	6.24
503.752	6.12
504.102	6.24
504.452	6.08
504.803	6.05
505.153	6.14
505.503	6.08
505.853	6.22
506.203	6.19
506.553	6.2
506.903	6.1
507.253	6.09
507.603	6.1
507.953	6.07
508.303	6.03
508.652	6.09
509.002	6.26
509.352	6.2
509.701	6.17
510.051	6.21
510.4	6.16
510.75	6.06
511.099	5.99
511.449	6.02
511.798	6.13
512.147	6.13
512.496	6.02
512.846	6.05
513.195	6.13
513.544	6.16
513.893	6.1
514.242	6
514.591	6.12
514.939	6.17
515.288	6.06
515.637	6.01
515.986	6.08
516.334	6.04
516.683	6.15
517.032	6.09
517.38	6.16
517.729	6.1
518.077	5.99
518.426	6.14
518.774	6.13
519.122	5.93
519.47	6.04
519.819	6.1
520.167	6.05
520.515	6.01
520.863	6.1
521.211	6.03
521.559	6.02
521.907	6.04
522.255	5.94
522.602	6.04
522.95	6.02
523.298	5.94
523.645	6.1
523.993	6.02
524.341	6.16
524.688	5.99
525.036	6.15
525.383	6.03
525.73	6.13
526.078	6.09
526.425	6.09
526.772	6
527.119	6.05
527.466	5.93
527.814	6.03
528.161	6.06
528.508	5.98
528.854	6
529.201	5.99
529.548	6.05
529.895	5.89
530.242	5.85
530.588	5.82
530.935	5.83
531.282	5.82
531.628	5.81
531.975	5.83
532.321	5.87
532.667	5.96
533.014	5.91
533.36	6.02
533.706	6
534.052	6
534.399	5.9
534.745	5.93
535.091	5.88
535.437	5.88
535.783	5.94
536.129	5.89
536.474	5.94
536.82	5.92
537.166	5.96
537.512	5.88
537.857	6.01
538.203	5.96
538.549	6.03
538.894	6.08
539.239	5.99
539.585	6.01
539.93	5.99
540.276	6.11
540.621	5.91
540.966	6.09
541.311	6.05
541.656	5.98
542.001	6.09
542.346	5.98
542.691	5.96
543.036	5.88
543.381	5.9
543.726	5.88
544.071	5.81
544.415	5.9
544.76	5.93
545.105	5.87
545.449	5.99
545.794	5.97
546.138	5.93
546.483	5.92
546.827	6.02
547.171	6.03
547.516	6.01
547.86	6
548.204	5.93
548.548	5.97
548.892	5.96
549.236	6.09
549.58	6
549.924	6.14
550.268	6.06
550.612	6
550.956	6.09
551.3	6.07
551.643	6.12
551.987	6.23
552.33	6.05
552.674	6.09
553.017	5.99
553.361	5.92
553.704	6.04
554.048	5.9
554.391	6
554.734	6.01
555.077	6.01
555.42	5.99
555.764	5.98
556.107	6.07
556.45	6.05
556.793	6.11
557.135	6.26
557.478	6.12
557.821	5.91
558.164	6.08
558.507	5.95
558.849	6.12
559.192	6.01
559.534	6.19
559.877	6.08
560.219	5.99
560.562	6.44
560.904	6.14
561.246	5.94
561.589	6.07
561.931	6.04
562.273	6.36
562.615	6.18
562.957	6.05
563.299	5.96
563.641	6.14
563.983	6.01
564.325	6.02
564.667	6
565.008	6.01
565.35	6.14
565.692	5.99
566.033	5.94
566.375	6.12
566.716	6.04
567.058	6.03
567.399	5.76
567.741	5.91
568.082	5.93
568.423	6
568.764	6.02
569.105	6.09
569.447	5.86
569.788	5.82
570.129	5.95
570.47	5.99
570.811	6.09
571.151	6.29
571.492	6.16
571.833	5.91
572.174	5.89
572.514	6.26
572.855	5.89
573.195	5.98
573.536	6.04
573.876	5.69
574.217	5.9
574.557	5.87
574.898	5.96
575.238	5.96
575.578	6
575.918	5.79
576.258	5.92
576.598	5.92
576.938	6.06
577.278	6
577.618	5.94
577.958	6.11
578.298	5.9
578.638	5.9
578.977	5.91
579.317	6.05
579.657	6.15
579.996	5.96
580.336	6.12
580.675	5.99
581.014	6.01
581.354	6.04
581.693	5.91
582.032	6.14
582.372	6.21
582.711	6.08
583.05	6.1
583.389	5.88
583.728	5.97
584.067	6.01
584.406	5.72
584.745	6.02
585.083	5.9
585.422	5.94
585.761	5.95
586.1	6.11
586.438	5.93
586.777	5.81
587.115	6.01
587.454	6.24
587.792	6.04
588.13	6.06
588.469	5.8
588.807	5.92
589.145	5.8
589.483	6.11
589.821	5.98
590.159	6.04
590.497	5.89
590.835	5.85
591.173	6.34
591.511	6.03
591.849	5.85
592.187	6.06
592.524	6.13
592.862	6.13
593.2	6.04
593.537	5.95
593.875	5.94
594.212	6.16
594.55	5.88
594.887	5.79
595.224	5.8
595.561	5.83
595.899	5.76
596.236	5.85
596.573	6.11
596.91	5.77
597.247	5.9
597.584	5.96
597.921	5.94
598.258	5.71
598.594	5.72
598.931	5.78
599.268	5.91
599.604	5.89
599.941	5.89
600.277	5.85
600.614	5.79
600.95	5.84
601.287	5.97
601.623	5.91
601.959	5.89
602.296	5.97
602.632	5.98
602.968	5.73
603.304	5.87
603.64	5.93
603.976	5.78
604.312	6.11
604.648	5.98
604.984	5.98
605.319	5.96
605.655	5.81
605.991	5.71
606.326	5.94
606.662	5.85
606.998	6.07
607.333	5.8
607.668	5.78
608.004	5.74
608.339	5.64
608.674	5.95
609.01	5.87
609.345	5.83
609.68	5.89
610.015	5.9
610.35	5.75
610.685	5.72
611.02	5.96
611.355	5.8
611.689	5.92
612.024	5.78
612.359	5.8
612.694	6.17
613.028	5.87
613.363	5.97
613.697	5.93
614.032	5.88
614.366	5.95
614.7	5.9
615.035	5.82
615.369	5.82
615.703	5.51
616.037	5.53
616.371	5.79
616.705	5.86
617.039	5.5
617.373	5.8
617.707	6.09
618.041	6
618.375	6.18
618.709	5.5
619.042	5.7
619.376	6.13
619.71	5.74
620.043	5.56
620.377	5.63
620.71	5.59
621.043	5.76
621.377	5.19
621.71	6
622.043	5.61
622.376	5.57
622.709	5.73
623.043	5.71
623.376	5.61
623.709	5.53
624.041	5.92
624.374	5.44
624.707	5.48
625.04	6.06
625.373	5.59
625.705	5.79
626.038	5.47
626.37	5.76
626.703	5.44
627.035	5.94
627.368	5.73
627.7	5.69
628.032	5.88
628.365	5.6
628.697	5.51
629.029	5.83
629.361	5.88
629.693	5.89
630.025	5.83
630.357	6.02
630.689	5.66
631.021	5.61
631.353	5.99
631.684	5.76
632.016	5.83
632.348	5.76
632.679	5.82
633.011	5.5
633.342	5.5
633.674	5.66
634.005	5.5
634.336	5.92
634.668	5.74
634.999	5.67
635.33	6.15
635.661	5.83
635.992	5.85
636.323	5.92
636.654	5.86
636.985	5.78
637.316	5.66
637.647	5.8
637.977	5.49
638.308	5.59
638.639	5.37
638.969	5.68
639.3	5.61
639.63	5.74
639.961	6.18
640.291	5.84
640.622	5.51
640.952	5.57
641.282	5.64
641.612	5.85
641.943	5.78
642.273	5.81
642.603	6.03
642.933	5.84
643.263	5.52
643.592	5.68
643.922	5.55
644.252	5.74
644.582	6.22
644.911	5.33
645.241	5.73
645.571	6.1
645.9	5.89
646.23	6.08
646.559	5.56
646.888	5.94
647.218	5.9
647.547	5.51
647.876	5.38
648.205	5.64
648.534	5.8
648.863	5.5
649.192	6.09
649.521	5.83
649.85	5.49
650.179	5.6
650.508	5.63
650.837	5.82
651.165	5.79
651.494	5.65
651.822	5.56
652.151	5.55
652.479	5.54
652.808	5.72
653.136	5.79
653.465	5.46
653.793	5.55
654.121	5.48
654.449	5.32
654.777	5.71
655.105	5.62
655.433	5.73
655.761	6.01
656.089	5.81
656.417	5.84
656.745	5.95
657.073	4.98
657.4	5.97
657.728	5.5
658.056	5.99
658.383	5.69
658.711	5.05
659.038	5.64
659.365	5.11
659.693	5.88
660.02	5.65
660.347	5.63
660.674	5.29
661.001	5.99
661.329	5.42
661.656	5.83
661.982	5.6
662.309	5.63
662.636	5.21
662.963	5.7
663.29	5.73
663.616	5.69
663.943	5.53
664.27	5.48
664.596	5.59
664.923	5.67
665.249	6.38
665.576	6.2
665.902	5.23
666.228	6.13
666.554	5.54
666.881	5.5
667.207	4.88
667.533	5.53
667.859	5.19
668.185	5.63
668.511	5.35
668.837	5.92
669.162	5.72
669.488	5.87
669.814	5.54
670.139	5.69
670.465	5.89
670.791	5.9
671.116	5.11
671.442	5.71
671.767	5.16
672.092	5.29
672.418	5.53
672.743	5.62
673.068	4.71
673.393	6.06
673.718	5.55
674.043	5.69
674.368	5.67
674.693	5.08
675.018	5.5
675.343	5.62
675.667	6.01
675.992	5.8
676.317	5.61
676.641	5.78
676.966	6.06
677.29	5.18
677.615	5.58
677.939	5.51
678.264	5.42
678.588	5.54
678.912	5.39
679.236	5.88
679.56	5.45
679.885	6.13
680.209	5.92
680.532	5.48
680.856	5.9
681.18	5.78
681.504	5.83
681.828	5.95
682.152	6.31
682.475	5.29
682.799	5.72
683.122	5.67
683.446	5.68
683.769	5.45
684.093	5.68
684.416	5.38
684.739	5.6
685.062	5.26
685.386	5.47
685.709	5.86
686.032	5.76
686.355	5.57
686.678	5.19
687.001	5.6
687.324	6.42
687.646	5.68
687.969	6.17
688.292	5.03
688.614	5.49
688.937	5.31
689.26	5.24
689.582	5.13
689.904	5.68
690.227	5.82
690.549	5.69
690.871	6
691.194	5.47
691.516	5.32
691.838	5.03
692.16	5.66
692.482	5.76
692.804	5.57
693.126	6.31
