Data from 97282_crown_Reflection__4__105.txt Node

Date: Fri Sep 23 20:29:35 CDT 2022
User: ToomeyLab
Spectrometer: FLMS14357
Trigger mode: 0
Integration Time (sec): 1.000000E-2
Scans to average: 100
Electric dark correction enabled: true
Nonlinearity correction enabled: false
Boxcar width: 0
XAxis mode: Wavelengths
Number of Pixels in Spectrum: 2048
>>>>>Begin Spectral Data<<<<<
189.047	-307.24
189.435	-307.24
189.823	-307.24
190.211	-18.3
190.599	-8.77
190.987	55.5
191.375	752.59
191.763	100.56
192.151	0.58
192.538	-21.76
192.926	2.76
193.314	101.22
193.702	98.24
194.089	155.9
194.477	80.18
194.864	-517.57
195.252	27.45
195.639	138.3
196.027	133.76
196.414	77920
196.801	47.44
197.189	630.59
197.576	1139.39
197.963	530.69
198.351	50.86
198.738	-49.23
199.125	12.63
199.512	26.08
199.899	-20.82
200.286	-8.02
200.673	6.12
201.06	14.01
201.447	15.25
201.833	19.62
202.22	43.6
202.607	3.4
202.994	-12.38
203.38	-23.09
203.767	-58.75
204.154	32.55
204.54	52.94
204.927	14.72
205.313	16.92
205.699	-18.6
206.086	-25.94
206.472	27.34
206.858	64.12
207.245	6.52
207.631	12.45
208.017	2.93
208.403	16.43
208.789	17.42
209.175	14.07
209.561	12.26
209.947	6.43
210.333	-46.77
210.719	-12.69
211.105	21.23
211.491	29.83
211.876	26.01
212.262	-1.41
212.648	-42.72
213.034	-9.03
213.419	-24.15
213.805	28.69
214.19	-8.62
214.576	-13.33
214.961	16.22
215.346	-16.61
215.732	16.21
216.117	10.12
216.502	17.42
216.888	16.47
217.273	-15.65
217.658	-37.35
218.043	17.11
218.428	36.92
218.813	25.58
219.198	-2.28
219.583	7.86
219.968	-5.04
220.353	0.74
220.738	-5.45
221.122	0.38
221.507	18.27
221.892	9.26
222.276	6.29
222.661	15.64
223.046	-1.38
223.43	3.34
223.815	6.4
224.199	-5.53
224.583	7.54
224.968	6.71
225.352	-1.07
225.736	0.95
226.121	5.18
226.505	10.24
226.889	4.97
227.273	0.49
227.657	3.58
228.041	1.6
228.425	5.06
228.809	1.46
229.193	2.65
229.577	3.85
229.961	4.3
230.344	3.16
230.728	2.62
231.112	2.47
231.495	2.78
231.879	1.88
232.263	3.52
232.646	3.53
233.03	4.32
233.413	4.39
233.797	2.23
234.18	4.71
234.563	2.69
234.946	3.84
235.33	2.18
235.713	4.75
236.096	1.2
236.479	3.35
236.862	3.57
237.245	5.69
237.628	4.97
238.011	5.79
238.394	4.51
238.777	4.08
239.16	3.6
239.543	4.2
239.925	2.65
240.308	4.24
240.691	3.48
241.073	2.93
241.456	3.04
241.838	5.64
242.221	4.02
242.603	4.16
242.986	3.21
243.368	3.82
243.75	3.77
244.133	4.23
244.515	3.46
244.897	3.75
245.279	3.97
245.661	4.17
246.043	4.65
246.425	4.12
246.807	3.7
247.189	4.13
247.571	3.73
247.953	3.63
248.335	3.81
248.717	3.84
249.098	3.69
249.48	3.88
249.862	3.75
250.243	4.4
250.625	3.89
251.006	4.28
251.388	3.51
251.769	3.56
252.151	2.73
252.532	3.9
252.913	4.54
253.295	4.11
253.676	3.76
254.057	3.68
254.438	3.99
254.819	4.46
255.2	4.6
255.581	4.73
255.962	3.26
256.343	4.18
256.724	3.51
257.105	4.48
257.486	3.16
257.867	4.24
258.247	4.46
258.628	3.58
259.009	3
259.389	4.16
259.77	3.08
260.15	3.7
260.531	3.73
260.911	3.64
261.292	3.59
261.672	3.39
262.052	3.5
262.432	3.81
262.813	3.91
263.193	3.44
263.573	3.62
263.953	3.25
264.333	3.31
264.713	3.2
265.093	3.99
265.473	4.1
265.853	2.69
266.233	2.19
266.612	3.65
266.992	4.6
267.372	3.35
267.752	3.79
268.131	4.02
268.511	3.21
268.89	3.73
269.27	3.01
269.649	3.1
270.029	3.66
270.408	3.68
270.787	3.63
271.167	3.39
271.546	3.3
271.925	3.15
272.304	3.3
272.683	3.34
273.062	3.26
273.441	3.69
273.82	3.23
274.199	3.33
274.578	3.19
274.957	3.4
275.336	3.08
275.715	3.31
276.093	3.74
276.472	4.09
276.851	3.79
277.229	3.59
277.608	3.42
277.986	2.66
278.365	3.77
278.743	3.71
279.122	3.14
279.5	3.01
279.878	3.09
280.257	3.35
280.635	3.17
281.013	3
281.391	3.35
281.769	3.59
282.147	3.11
282.525	2.71
282.903	3.5
283.281	3.18
283.659	3.19
284.037	2.83
284.415	2.84
284.792	3.12
285.17	3.34
285.548	2.77
285.925	3.62
286.303	3.88
286.68	3.09
287.058	3.51
287.435	3.27
287.813	3.42
288.19	3.18
288.567	3.38
288.945	3.46
289.322	3.19
289.699	3.86
290.076	3.38
290.453	3.29
290.83	3.15
291.207	3.44
291.584	3.32
291.961	3.25
292.338	3.64
292.715	3.26
293.092	3.37
293.469	3.66
293.845	3.62
294.222	3.59
294.599	3.17
294.975	4.3
295.352	3.33
295.728	3.74
296.105	3.33
296.481	3.57
296.858	3.8
297.234	3.67
297.61	3.32
297.986	3.64
298.363	3.23
298.739	3.76
299.115	3.41
299.491	3.52
299.867	3.67
300.243	3.73
300.619	3.66
300.995	3.82
301.371	3.5
301.746	3.82
302.122	3.8
302.498	3.83
302.874	3.23
303.249	3.92
303.625	3.24
304	4.15
304.376	3.59
304.751	4.09
305.127	3.98
305.502	4.06
305.878	3.38
306.253	3.75
306.628	3.38
307.003	3.65
307.378	4.26
307.754	3.84
308.129	3.84
308.504	3.84
308.879	4.21
309.254	4.07
309.629	4.26
310.003	4.18
310.378	3.9
310.753	3.95
311.128	3.69
311.502	3.86
311.877	3.73
312.252	3.87
312.626	3.96
313.001	3.89
313.375	4.31
313.75	3.69
314.124	3.84
314.498	4
314.873	4.69
315.247	4.36
315.621	4.2
315.995	4.05
316.369	3.86
316.743	3.35
317.117	3.05
317.491	3.62
317.865	4.55
318.239	4.07
318.613	3.56
318.987	3.57
319.361	3.37
319.734	4.35
320.108	3.57
320.482	4.34
320.855	3.62
321.229	4.43
321.602	4.33
321.976	4.52
322.349	4.06
322.723	4.22
323.096	4.09
323.469	3.6
323.843	3.39
324.216	4.44
324.589	4.39
324.962	3.79
325.335	4.19
325.708	4.27
326.081	3.9
326.454	4.34
326.827	4.1
327.2	3.55
327.573	4.15
327.945	4.58
328.318	3.75
328.691	4
329.063	4.21
329.436	4.28
329.809	4.92
330.181	4.06
330.553	3.65
330.926	4.22
331.298	4.45
331.671	4.47
332.043	3.87
332.415	3.99
332.787	3.98
333.159	4.39
333.532	3.99
333.904	3.92
334.276	4.02
334.648	3.76
335.02	4.04
335.391	4.41
335.763	4.1
336.135	4.41
336.507	4.15
336.879	4.08
337.25	4.42
337.622	3.86
337.993	4.14
338.365	4.12
338.736	4.46
339.108	5.07
339.479	3.83
339.851	4.26
340.222	4.69
340.593	4.22
340.964	4.18
341.336	4.09
341.707	4.58
342.078	4.12
342.449	4.5
342.82	4.3
343.191	4.33
343.562	4.22
343.933	4.55
344.303	4.34
344.674	4.57
345.045	4.74
345.416	4.3
345.786	4.5
346.157	4.19
346.527	4.34
346.898	4.35
347.268	4.49
347.639	4.02
348.009	4.47
348.38	4.07
348.75	4.46
349.12	4.36
349.49	4.51
349.861	4.52
350.231	4.42
350.601	4.03
350.971	4.47
351.341	4.06
351.711	3.94
352.081	4.08
352.45	3.91
352.82	4.13
353.19	4.55
353.56	4.37
353.929	4.18
354.299	4.31
354.669	4.64
355.038	4.9
355.408	4.23
355.777	4.11
356.147	4.07
356.516	4.25
356.885	4.14
357.254	4.1
357.624	3.93
357.993	4.52
358.362	4.04
358.731	4.25
359.1	4.22
359.469	4.18
359.838	4.36
360.207	4.38
360.576	4.35
360.945	4.18
361.314	4.05
361.682	4.18
362.051	4.37
362.42	4.22
362.788	4.07
363.157	4.39
363.525	4.34
363.894	4.42
364.262	4.09
364.631	4.34
364.999	4.4
365.367	4.14
365.735	4.46
366.104	4.43
366.472	4.5
366.84	3.92
367.208	4.56
367.576	4.48
367.944	4.38
368.312	4.64
368.68	4.27
369.048	4.27
369.416	4.26
369.783	4.62
370.151	4.35
370.519	4.23
370.886	4.63
371.254	4.55
371.621	4.39
371.989	4.34
372.356	4.67
372.724	4.43
373.091	4.16
373.458	4.29
373.826	4.23
374.193	4.55
374.56	4.51
374.927	4.76
375.294	4.56
375.661	4.28
376.028	4.48
376.395	4.51
376.762	4.33
377.129	4.02
377.496	4.82
377.863	4.5
378.229	4.43
378.596	4.19
378.963	4.29
379.329	4.81
379.696	4.46
380.062	4.53
380.429	4.7
380.795	4.34
381.161	4.62
381.528	4.53
381.894	4.52
382.26	4.38
382.626	4.41
382.993	4.64
383.359	4.43
383.725	4.9
384.091	4.45
384.457	4.36
384.823	4.33
385.188	4.66
385.554	4.81
385.92	4.66
386.286	4.74
386.651	4.57
387.017	4.81
387.383	4.47
387.748	4.58
388.114	4.67
388.479	4.54
388.845	4.59
389.21	4.62
389.575	4.47
389.94	4.52
390.306	4.49
390.671	4.55
391.036	4.43
391.401	4.75
391.766	4.78
392.131	4.67
392.496	4.39
392.861	4.62
393.226	4.52
393.591	4.4
393.956	4.73
394.32	4.69
394.685	4.65
395.05	4.67
395.414	4.66
395.779	4.55
396.143	4.41
396.508	4.65
396.872	4.67
397.236	4.62
397.601	4.49
397.965	4.82
398.329	4.75
398.694	4.74
399.058	4.7
399.422	4.78
399.786	4.81
400.15	4.57
400.514	4.55
400.878	4.57
401.242	4.56
401.605	4.77
401.969	4.79
402.333	4.6
402.697	4.36
403.06	4.67
403.424	4.55
403.787	4.7
404.151	4.54
404.514	4.6
404.878	4.58
405.241	4.46
405.604	4.65
405.968	4.66
406.331	4.4
406.694	4.66
407.057	4.64
407.42	4.76
407.783	4.59
408.146	4.68
408.509	4.74
408.872	4.65
409.235	4.58
409.598	4.92
409.961	4.7
410.323	4.67
410.686	4.91
411.049	4.72
411.411	4.73
411.774	4.73
412.136	4.78
412.499	4.71
412.861	4.52
413.223	4.66
413.586	4.69
413.948	4.84
414.31	4.78
414.672	4.86
415.035	4.8
415.397	4.86
415.759	4.91
416.121	4.98
416.483	4.66
416.845	4.56
417.206	4.62
417.568	4.8
417.93	4.72
418.292	4.96
418.653	4.76
419.015	4.68
419.377	4.64
419.738	4.59
420.1	4.69
420.461	4.68
420.822	4.78
421.184	4.83
421.545	4.75
421.906	4.64
422.267	4.62
422.629	4.63
422.99	4.62
423.351	4.58
423.712	4.63
424.073	4.61
424.434	4.62
424.795	4.79
425.155	4.8
425.516	4.71
425.877	4.69
426.238	4.66
426.598	4.6
426.959	4.78
427.32	4.78
427.68	4.73
428.041	4.78
428.401	4.87
428.761	4.85
429.122	4.84
429.482	4.69
429.842	4.97
430.202	4.91
430.563	4.74
430.923	5.01
431.283	5.04
431.643	4.86
432.003	4.76
432.363	5
432.722	4.95
433.082	4.72
433.442	4.8
433.802	4.91
434.161	4.85
434.521	4.9
434.881	4.88
435.24	4.74
435.6	4.79
435.959	4.83
436.319	4.79
436.678	4.79
437.037	4.89
437.396	4.94
437.756	4.99
438.115	4.69
438.474	4.85
438.833	5.09
439.192	4.95
439.551	4.95
439.91	4.86
440.269	4.99
440.628	4.8
440.987	4.8
441.345	4.82
441.704	4.81
442.063	4.91
442.421	4.83
442.78	4.75
443.138	4.78
443.497	4.88
443.855	4.78
444.214	5.05
444.572	4.98
444.93	4.87
445.288	4.84
445.647	5
446.005	5.01
446.363	4.89
446.721	4.74
447.079	4.8
447.437	4.87
447.795	4.89
448.153	4.67
448.51	4.84
448.868	4.77
449.226	4.88
449.584	4.9
449.941	4.93
450.299	4.86
450.656	4.98
451.014	5.06
451.371	4.8
451.729	4.96
452.086	5.1
452.443	4.91
452.801	4.95
453.158	5.14
453.515	4.94
453.872	4.93
454.229	5.03
454.586	4.93
454.943	5.03
455.3	4.86
455.657	5.09
456.014	5.26
456.371	4.94
456.727	4.95
457.084	5.07
457.441	5.18
457.797	5.06
458.154	5.07
458.51	5.07
458.867	5.09
459.223	5.09
459.58	5.07
459.936	4.99
460.292	4.88
460.648	5.14
461.005	5.03
461.361	4.87
461.717	4.91
462.073	4.92
462.429	4.87
462.785	5.02
463.141	5.04
463.496	5.03
463.852	5.13
464.208	5.01
464.564	5.08
464.919	5.31
465.275	5.28
465.631	4.99
465.986	5.01
466.342	5.15
466.697	5.1
467.052	5.17
467.408	5.17
467.763	5.12
468.118	5.06
468.473	5.12
468.829	5.03
469.184	5.16
469.539	5.15
469.894	5.08
470.249	5.03
470.603	5.14
470.958	5.27
471.313	5.13
471.668	5.11
472.023	5.17
472.377	5.15
472.732	5.19
473.086	5.13
473.441	5.15
473.795	5.29
474.15	5.13
474.504	5.32
474.859	5.3
475.213	5.36
475.567	5.05
475.921	5.18
476.275	5.19
476.63	5.04
476.984	5.2
477.338	5.19
477.692	5.21
478.045	5.06
478.399	5.11
478.753	5.22
479.107	5.16
479.461	5.16
479.814	5.13
480.168	5.11
480.521	5.15
480.875	5.3
481.228	5.19
481.582	5.13
481.935	5.15
482.289	5.18
482.642	5.04
482.995	5.28
483.348	5.02
483.701	5.12
484.055	5.06
484.408	5.03
484.761	4.94
485.114	4.77
485.466	4.68
485.819	4.73
486.172	4.85
486.525	4.99
486.878	5.04
487.23	5.1
487.583	5.1
487.936	5.16
488.288	5.01
488.641	4.9
488.993	4.95
489.345	4.9
489.698	4.92
490.05	4.96
490.402	5
490.754	5.12
491.107	5.14
491.459	5.14
491.811	5.17
492.163	5.21
492.515	5.12
492.866	4.98
493.218	4.88
493.57	4.88
493.922	5.04
494.274	5.14
494.625	5.23
494.977	5.19
495.328	5.39
495.68	5.36
496.031	5.37
496.383	5.38
496.734	5.19
497.086	5.42
497.437	5.44
497.788	5.32
498.139	5.31
498.49	5.24
498.842	5.16
499.193	5.3
499.544	5.29
499.894	5.21
500.245	5.26
500.596	5.4
500.947	5.23
501.298	5.31
501.648	5.49
501.999	5.43
502.35	5.39
502.7	5.37
503.051	5.27
503.401	5.37
503.752	5.13
504.102	5.46
504.452	5.31
504.803	5.34
505.153	5.38
505.503	5.23
505.853	5.4
506.203	5.32
506.553	5.45
506.903	5.36
507.253	5.34
507.603	5.38
507.953	5.34
508.303	5.53
508.652	5.41
509.002	5.44
509.352	5.5
509.701	5.38
510.051	5.49
510.4	5.48
510.75	5.39
511.099	5.39
511.449	5.31
511.798	5.4
512.147	5.31
512.496	5.38
512.846	5.4
513.195	5.41
513.544	5.43
513.893	5.41
514.242	5.43
514.591	5.41
514.939	5.55
515.288	5.43
515.637	5.44
515.986	5.47
516.334	5.46
516.683	5.51
517.032	5.48
517.38	5.56
517.729	5.46
518.077	5.42
518.426	5.46
518.774	5.52
519.122	5.45
519.47	5.46
519.819	5.41
520.167	5.38
520.515	5.29
520.863	5.42
521.211	5.42
521.559	5.41
521.907	5.48
522.255	5.4
522.602	5.51
522.95	5.48
523.298	5.5
523.645	5.54
523.993	5.64
524.341	5.66
524.688	5.52
525.036	5.67
525.383	5.49
525.73	5.64
526.078	5.48
526.425	5.5
526.772	5.56
527.119	5.41
527.466	5.34
527.814	5.35
528.161	5.53
528.508	5.58
528.854	5.54
529.201	5.39
529.548	5.41
529.895	5.28
530.242	5.12
530.588	5.16
530.935	5.31
531.282	5.36
531.628	5.43
531.975	5.49
532.321	5.43
532.667	5.57
533.014	5.58
533.36	5.55
533.706	5.49
534.052	5.56
534.399	5.4
534.745	5.42
535.091	5.32
535.437	5.4
535.783	5.5
536.129	5.52
536.474	5.61
536.82	5.63
537.166	5.63
537.512	5.57
537.857	5.64
538.203	5.52
538.549	5.5
538.894	5.59
539.239	5.68
539.585	5.74
539.93	5.64
540.276	5.71
540.621	5.69
540.966	5.72
541.311	5.67
541.656	5.62
542.001	5.74
542.346	5.56
542.691	5.46
543.036	5.5
543.381	5.46
543.726	5.52
544.071	5.62
544.415	5.6
544.76	5.54
545.105	5.71
545.449	5.66
545.794	5.64
546.138	5.82
546.483	5.69
546.827	5.81
547.171	5.71
547.516	5.8
547.86	5.7
548.204	5.76
548.548	5.6
548.892	5.61
549.236	5.81
549.58	5.78
549.924	5.87
550.268	6.04
550.612	5.91
550.956	5.91
551.3	5.87
551.643	5.81
551.987	5.85
552.33	5.72
552.674	5.96
553.017	5.94
553.361	5.92
553.704	5.9
554.048	5.8
554.391	5.75
554.734	5.99
555.077	5.9
555.42	5.91
555.764	5.9
556.107	5.92
556.45	6.01
556.793	5.93
557.135	5.91
557.478	5.97
557.821	5.84
558.164	6
558.507	5.98
558.849	6.22
559.192	6.17
559.534	6.2
559.877	6.05
560.219	6.04
560.562	6.19
560.904	6.02
561.246	5.92
561.589	6.05
561.931	6.09
562.273	6.26
562.615	5.96
562.957	6.07
563.299	6.03
563.641	6.09
563.983	6.04
564.325	6.15
564.667	6.23
565.008	6.1
565.35	6.1
565.692	6.14
566.033	6.04
566.375	6.14
566.716	6.05
567.058	6.15
567.399	5.97
567.741	5.99
568.082	5.91
568.423	5.97
568.764	6.09
569.105	6.18
569.447	6.07
569.788	6.03
570.129	6.04
570.47	6.4
570.811	6.24
571.151	6.36
571.492	6.16
571.833	6.02
572.174	6.16
572.514	6.24
572.855	6.02
573.195	6.14
573.536	6.29
573.876	6.07
574.217	6.2
574.557	6.14
574.898	6.06
575.238	6.23
575.578	6.2
575.918	6.13
576.258	6.1
576.598	6.2
576.938	6.23
577.278	6.14
577.618	6.09
577.958	6.16
578.298	6.31
578.638	6.23
578.977	6.31
579.317	6.35
579.657	6.36
579.996	6.17
580.336	6.37
580.675	6.3
581.014	6.21
581.354	6.36
581.693	6.28
582.032	6.54
582.372	6.43
582.711	6.34
583.05	6.44
583.389	6.51
583.728	6.45
584.067	6.38
584.406	6.48
584.745	6.2
585.083	6.33
585.422	6.32
585.761	6.48
586.1	6.43
586.438	6.24
586.777	6.16
587.115	6.41
587.454	6.35
587.792	6.72
588.13	6.34
588.469	6.39
588.807	6.54
589.145	6.46
589.483	6.49
589.821	6.54
590.159	6.53
590.497	6.43
590.835	6.39
591.173	6.5
591.511	6.29
591.849	6.29
592.187	6.45
592.524	6.8
592.862	6.6
593.2	6.61
593.537	6.6
593.875	6.52
594.212	6.64
594.55	6.44
594.887	6.49
595.224	6.49
595.561	6.57
595.899	6.48
596.236	6.16
596.573	6.6
596.91	6.58
597.247	6.66
597.584	6.69
597.921	6.42
598.258	6.5
598.594	6.46
598.931	6.46
599.268	6.38
599.604	6.64
599.941	6.61
600.277	6.75
600.614	6.47
600.95	6.66
601.287	6.83
601.623	6.67
601.959	6.51
602.296	6.55
602.632	6.77
602.968	6.64
603.304	6.67
603.64	6.86
603.976	6.77
604.312	6.68
604.648	6.71
604.984	6.47
605.319	6.65
605.655	6.57
605.991	6.37
606.326	6.62
606.662	6.52
606.998	6.85
607.333	6.57
607.668	6.78
608.004	6.58
608.339	6.62
608.674	6.75
609.01	6.73
609.345	6.81
609.68	6.85
610.015	6.93
610.35	6.81
610.685	6.44
611.02	6.78
611.355	6.63
611.689	6.71
612.024	6.71
612.359	6.64
612.694	7.02
613.028	6.77
613.363	6.93
613.697	6.89
614.032	6.65
614.366	6.69
614.7	6.78
615.035	7.14
615.369	7.02
615.703	6.58
616.037	6.79
616.371	6.96
616.705	6.89
617.039	6.85
617.373	6.66
617.707	7.02
618.041	6.67
618.375	7.14
618.709	6.72
619.042	6.64
619.376	7.12
619.71	7.18
620.043	6.88
620.377	7.15
620.71	6.63
621.043	7.13
621.377	6.47
621.71	7.57
622.043	6.76
622.376	6.72
622.709	7.1
623.043	6.73
623.376	7.19
623.709	7.03
624.041	7.08
624.374	6.64
624.707	7.15
625.04	7.32
625.373	7.15
625.705	6.94
626.038	7.08
626.37	6.6
626.703	6.87
627.035	7.18
627.368	7.04
627.7	6.95
628.032	7.05
628.365	6.98
628.697	7.04
629.029	6.96
629.361	6.99
629.693	7.03
630.025	7.37
630.357	7.29
630.689	7.03
631.021	7.04
631.353	7.47
631.684	7.29
632.016	7.13
632.348	7.11
632.679	7.1
633.011	7.3
633.342	7.25
633.674	7.29
634.005	7.1
634.336	7.44
634.668	7.14
634.999	7.27
635.33	7.04
635.661	7.21
635.992	7.31
636.323	7.29
636.654	7.29
636.985	7.24
637.316	7.03
637.647	7.45
637.977	7.31
638.308	7.25
638.639	6.93
638.969	7.21
639.3	7.09
639.63	7.29
639.961	6.96
640.291	7.32
640.622	7.46
640.952	7.21
641.282	7.03
641.612	7.27
641.943	7.42
642.273	7.23
642.603	7.23
642.933	7.37
643.263	7.12
643.592	7.71
643.922	7.18
644.252	7.54
644.582	7.94
644.911	7.28
645.241	7.07
645.571	8.06
645.9	7.5
646.23	7.87
646.559	7.05
646.888	7.7
647.218	7.35
647.547	7.56
647.876	6.88
648.205	7.31
648.534	7.75
648.863	7.5
649.192	7.5
649.521	7.32
649.85	7.34
650.179	7.15
650.508	7.74
650.837	7.99
651.165	7.3
651.494	7.36
651.822	7.4
652.151	7.37
652.479	7.8
652.808	7.87
653.136	7.92
653.465	7.38
653.793	7.86
654.121	7.42
654.449	7.66
654.777	7.61
655.105	7.36
655.433	7.88
655.761	7.71
656.089	7.64
656.417	7.98
656.745	7.56
657.073	6.87
657.4	7.89
657.728	7.57
658.056	7.81
658.383	7.64
658.711	7.56
659.038	7.5
659.365	7.53
659.693	7.87
660.02	7.76
660.347	7.44
660.674	7.55
661.001	7.85
661.329	7.46
661.656	7.91
661.982	7.84
662.309	7.68
662.636	7.77
662.963	8.25
663.29	8.01
663.616	7.9
663.943	7.3
664.27	8.1
664.596	7.99
664.923	8.18
665.249	8
665.576	8.39
665.902	8.14
666.228	7.76
666.554	7.5
666.881	7.92
667.207	8.19
667.533	8.27
667.859	7.58
668.185	8.12
668.511	7.7
668.837	8.14
669.162	8.01
669.488	8.25
669.814	7.96
670.139	7.55
670.465	7.86
670.791	7.38
671.116	7.82
671.442	8.01
671.767	7.34
672.092	7.91
672.418	8.17
672.743	7.98
673.068	7.4
673.393	7.71
673.718	8.27
674.043	8.2
674.368	8.1
674.693	8.25
675.018	8.31
675.343	8.41
675.667	7.58
675.992	8.36
676.317	7.91
676.641	8.16
676.966	8.41
677.29	8.48
677.615	7.9
677.939	8.45
678.264	8.26
678.588	7.72
678.912	8.11
679.236	7.9
679.56	8.05
679.885	8.21
680.209	8.01
680.532	7.75
680.856	8.53
681.18	7.94
681.504	8.42
681.828	8.41
682.152	8.53
682.475	8.22
682.799	8.5
683.122	8.6
683.446	8.32
683.769	7.8
684.093	8.45
684.416	8.53
684.739	8.43
685.062	8.1
685.386	8.59
685.709	8.59
686.032	8.05
686.355	8.88
686.678	8.4
687.001	8.6
687.324	8.92
687.646	9.12
687.969	8.61
688.292	8.22
688.614	9.35
688.937	8.3
689.26	8.38
689.582	8.24
689.904	9.17
690.227	8.58
690.549	8.03
690.871	9.06
691.194	8.13
691.516	8.22
691.838	8.23
692.16	8.69
692.482	8.86
692.804	8.18
