Data from 97282_chest_Reflection__0__91.txt Node

Date: Fri Sep 23 20:23:55 CDT 2022
User: ToomeyLab
Spectrometer: FLMS14357
Trigger mode: 0
Integration Time (sec): 1.000000E-2
Scans to average: 100
Electric dark correction enabled: true
Nonlinearity correction enabled: false
Boxcar width: 0
XAxis mode: Wavelengths
Number of Pixels in Spectrum: 2048
>>>>>Begin Spectral Data<<<<<
189.047	-1257.33
189.435	-1257.33
189.823	-1257.33
190.211	-59.47
190.599	-5.71
190.987	-68.07
191.375	500
191.763	123.23
192.151	-132.16
192.538	-93.12
192.926	45.32
193.314	37.76
193.702	98.75
194.089	111.6
194.477	85.53
194.864	68.79
195.252	9.75
195.639	76.06
196.027	129.75
196.414	-6860
196.801	44.09
197.189	-328.24
197.576	-973.94
197.963	5252.48
198.351	24.47
198.738	-228.9
199.125	42.1
199.512	17.29
199.899	-22.02
200.286	-20.31
200.673	31.66
201.06	17.3
201.447	30.45
201.833	-0.84
202.22	-6.07
202.607	13.23
202.994	20.12
203.38	-8.69
203.767	-28.78
204.154	12.26
204.54	42.02
204.927	72.12
205.313	15.17
205.699	-25.43
206.086	14.78
206.472	-4.91
206.858	12.62
207.245	13.94
207.631	-1.44
208.017	-3.03
208.403	-20.83
208.789	21.47
209.175	13.37
209.561	49.7
209.947	-1.35
210.333	9.69
210.719	-36.09
211.105	-7.08
211.491	0.67
211.876	14.09
212.262	-16.62
212.648	-54.94
213.034	-20.81
213.419	-19.18
213.805	29.88
214.19	3.21
214.576	27.1
214.961	4.59
215.346	-36.23
215.732	12.1
216.117	22.76
216.502	1.02
216.888	-4.3
217.273	-7.93
217.658	-31.38
218.043	9.65
218.428	6.38
218.813	9.34
219.198	-11.05
219.583	-4.96
219.968	11.13
220.353	-2.3
220.738	-2.49
221.122	14.94
221.507	8.68
221.892	-18.43
222.276	-33.45
222.661	-7.02
223.046	1.71
223.43	-16.39
223.815	0.16
224.199	0.5
224.583	0.08
224.968	-5.44
225.352	0.86
225.736	2.37
226.121	13.65
226.505	3.79
226.889	3.54
227.273	2.11
227.657	4.46
228.041	4.53
228.425	1.53
228.809	1.91
229.193	2.56
229.577	3.28
229.961	2.21
230.344	2.6
230.728	2.37
231.112	2.19
231.495	2.54
231.879	1.83
232.263	3.91
232.646	2.33
233.03	2.58
233.413	3.25
233.797	3.22
234.18	2.97
234.563	1.52
234.946	2.2
235.33	2.73
235.713	3.14
236.096	1.29
236.479	0.85
236.862	2.65
237.245	2.53
237.628	3.43
238.011	2.54
238.394	4.28
238.777	3.53
239.16	4.3
239.543	3.18
239.925	2.74
240.308	4.41
240.691	2.69
241.073	1.66
241.456	3.57
241.838	3.92
242.221	2.96
242.603	3.69
242.986	2.05
243.368	3.03
243.75	3.29
244.133	3.1
244.515	3.34
244.897	3.28
245.279	3.47
245.661	3.76
246.043	3.74
246.425	3.28
246.807	3.06
247.189	4.48
247.571	3.27
247.953	3.16
248.335	3.51
248.717	3.3
249.098	3.36
249.48	3.33
249.862	3.04
250.243	3.58
250.625	3.19
251.006	3.4
251.388	3.33
251.769	3.36
252.151	1.9
252.532	3.55
252.913	3.76
253.295	4.03
253.676	3.54
254.057	3.24
254.438	3.14
254.819	3.83
255.2	3.62
255.581	4.2
255.962	2.48
256.343	3
256.724	3.16
257.105	3.58
257.486	2.07
257.867	3.06
258.247	4.13
258.628	2.18
259.009	2.15
259.389	3.42
259.77	2.62
260.15	3.54
260.531	3.15
260.911	3.12
261.292	3.45
261.672	3.3
262.052	3.12
262.432	3.31
262.813	3.63
263.193	2.99
263.573	3.55
263.953	2.75
264.333	3.29
264.713	2.87
265.093	3.85
265.473	3.82
265.853	2.97
266.233	1.81
266.612	3.24
266.992	4.13
267.372	3.18
267.752	3
268.131	3.36
268.511	3.04
268.89	3.48
269.27	3.01
269.649	2.82
270.029	3.18
270.408	3.56
270.787	2.64
271.167	2.92
271.546	2.88
271.925	3.27
272.304	3.22
272.683	2.94
273.062	2.91
273.441	3.14
273.82	2.8
274.199	2.73
274.578	2.76
274.957	2.97
275.336	3.12
275.715	2.51
276.093	3.6
276.472	3.09
276.851	3.37
277.229	3.04
277.608	3
277.986	2.81
278.365	3.2
278.743	3.38
279.122	2.8
279.5	2.44
279.878	2.63
280.257	2.73
280.635	2.74
281.013	2.65
281.391	3.3
281.769	2.83
282.147	3.16
282.525	2.62
282.903	2.76
283.281	3.15
283.659	2.82
284.037	2.86
284.415	3.13
284.792	2.98
285.17	3.36
285.548	2.69
285.925	3.45
286.303	3.35
286.68	2.93
287.058	3.21
287.435	2.91
287.813	3.24
288.19	3.16
288.567	3.4
288.945	3.15
289.322	3.24
289.699	3.62
290.076	3.28
290.453	3.21
290.83	3.43
291.207	3.2
291.584	3.61
291.961	3.22
292.338	3.17
292.715	3.12
293.092	2.84
293.469	3.16
293.845	3.56
294.222	3.78
294.599	3.63
294.975	3.58
295.352	3.47
295.728	3.52
296.105	3.69
296.481	3.84
296.858	3.77
297.234	3.93
297.61	3.47
297.986	3.38
298.363	3.74
298.739	3.89
299.115	3.65
299.491	3.9
299.867	3.81
300.243	3.77
300.619	3.96
300.995	3.87
301.371	3.73
301.746	4.28
302.122	4.25
302.498	3.86
302.874	3.72
303.249	4.36
303.625	3.59
304	3.97
304.376	3.63
304.751	3.73
305.127	3.62
305.502	4.08
305.878	4.21
306.253	4.22
306.628	3.64
307.003	3.6
307.378	3.99
307.754	4.44
308.129	4.25
308.504	4.05
308.879	4.75
309.254	4.53
309.629	4.84
310.003	4.63
310.378	4.1
310.753	3.8
311.128	4.07
311.502	3.89
311.877	4.23
312.252	3.97
312.626	3.93
313.001	4.33
313.375	4.11
313.75	4.49
314.124	3.86
314.498	4.39
314.873	4.74
315.247	4.08
315.621	4.62
315.995	4.85
316.369	4.47
316.743	4.12
317.117	3.89
317.491	4.28
317.865	4.45
318.239	4.87
318.613	4.49
318.987	4.03
319.361	4.28
319.734	4.27
320.108	3.84
320.482	4.39
320.855	4.24
321.229	4.87
321.602	4.77
321.976	4.09
322.349	4.78
322.723	5.3
323.096	4.58
323.469	4.45
323.843	4.83
324.216	5.41
324.589	4.97
324.962	4.97
325.335	4.64
325.708	5.04
326.081	4.58
326.454	4.97
326.827	4.3
327.2	4.43
327.573	4.67
327.945	5
328.318	4.42
328.691	5
329.063	4.72
329.436	4.8
329.809	5.37
330.181	4.56
330.553	4.64
330.926	4.9
331.298	4.25
331.671	4.85
332.043	5.01
332.415	5.19
332.787	4.54
333.159	5.01
333.532	4.27
333.904	4.79
334.276	4.96
334.648	4.9
335.02	4.99
335.391	5.1
335.763	4.9
336.135	5.19
336.507	4.99
336.879	5.08
337.25	5.27
337.622	4.76
337.993	5.19
338.365	4.92
338.736	5.09
339.108	5.67
339.479	4.75
339.851	5.29
340.222	4.94
340.593	4.85
340.964	5.3
341.336	4.85
341.707	5.11
342.078	4.99
342.449	4.77
342.82	4.62
343.191	5.1
343.562	4.71
343.933	5.48
344.303	5.21
344.674	5.08
345.045	5.25
345.416	5
345.786	5.51
346.157	4.84
346.527	5.2
346.898	5.51
347.268	4.94
347.639	5.12
348.009	4.86
348.38	5.6
348.75	4.82
349.12	5.19
349.49	5.59
349.861	5.15
350.231	5.22
350.601	4.9
350.971	4.65
351.341	4.86
351.711	5.09
352.081	4.98
352.45	4.86
352.82	4.69
353.19	5.43
353.56	5.45
353.929	4.87
354.299	5.44
354.669	5.2
355.038	5.69
355.408	4.97
355.777	5.22
356.147	4.92
356.516	5.34
356.885	5.27
357.254	5.37
357.624	5
357.993	5.64
358.362	4.99
358.731	5.09
359.1	5.34
359.469	5.16
359.838	5.18
360.207	5.42
360.576	5
360.945	5.29
361.314	5.18
361.682	5.01
362.051	5.27
362.42	5.23
362.788	5.23
363.157	5.35
363.525	5.49
363.894	5.26
364.262	5.18
364.631	5.46
364.999	5.45
365.367	5.14
365.735	5.09
366.104	5.32
366.472	5.26
366.84	5.23
367.208	5.37
367.576	5.22
367.944	5.16
368.312	5.49
368.68	5.27
369.048	5.21
369.416	5.47
369.783	5.33
370.151	5.4
370.519	4.99
370.886	5.46
371.254	5.43
371.621	5.57
371.989	5.22
372.356	5.73
372.724	5.14
373.091	5.15
373.458	5.21
373.826	5.26
374.193	5.42
374.56	5.53
374.927	5.83
375.294	5.49
375.661	5.37
376.028	5.72
376.395	5.37
376.762	5.32
377.129	5.28
377.496	5.6
377.863	5.69
378.229	5.49
378.596	5.33
378.963	5.82
379.329	5.63
379.696	5.41
380.062	5.46
380.429	5.48
380.795	5.18
381.161	5.6
381.528	5.74
381.894	5.31
382.26	5.41
382.626	5.3
382.993	5.83
383.359	5.53
383.725	6.06
384.091	5.39
384.457	5.64
384.823	5.63
385.188	5.81
385.554	5.76
385.92	5.7
386.286	5.6
386.651	5.63
387.017	5.8
387.383	5.57
387.748	5.56
388.114	5.74
388.479	5.61
388.845	5.65
389.21	5.58
389.575	5.62
389.94	5.47
390.306	5.38
390.671	5.52
391.036	5.77
391.401	5.95
391.766	5.88
392.131	5.53
392.496	5.85
392.861	5.89
393.226	5.77
393.591	5.76
393.956	5.94
394.32	5.69
394.685	5.59
395.05	5.57
395.414	5.66
395.779	5.5
396.143	5.64
396.508	5.71
396.872	5.69
397.236	5.81
397.601	5.63
397.965	5.97
398.329	6
398.694	5.76
399.058	5.65
399.422	6.13
399.786	6.12
400.15	5.8
400.514	5.63
400.878	5.82
401.242	5.74
401.605	6
401.969	5.71
402.333	5.87
402.697	5.36
403.06	5.93
403.424	5.89
403.787	5.95
404.151	5.91
404.514	5.99
404.878	5.9
405.241	5.9
405.604	5.84
405.968	5.7
406.331	6.02
406.694	6.01
407.057	5.81
407.42	5.87
407.783	5.98
408.146	5.87
408.509	5.92
408.872	6.12
409.235	6.16
409.598	6.28
409.961	5.99
410.323	5.81
410.686	6.1
411.049	5.94
411.411	6.24
411.774	5.98
412.136	5.86
412.499	5.84
412.861	5.84
413.223	6.08
413.586	6.03
413.948	5.91
414.31	5.99
414.672	5.92
415.035	6.07
415.397	6.35
415.759	6.01
416.121	6.26
416.483	5.95
416.845	5.91
417.206	6.01
417.568	6.12
417.93	5.92
418.292	6.03
418.653	6.06
419.015	6.04
419.377	5.9
419.738	6
420.1	6.13
420.461	6.07
420.822	6.19
421.184	6.1
421.545	6.16
421.906	6
422.267	6.06
422.629	6.04
422.99	6.07
423.351	6.11
423.712	6.06
424.073	6.05
424.434	6.1
424.795	6.15
425.155	6.1
425.516	6.12
425.877	5.96
426.238	6.14
426.598	6.1
426.959	6.13
427.32	6.07
427.68	6.21
428.041	6.13
428.401	6.16
428.761	6.26
429.122	6.13
429.482	6.38
429.842	6.43
430.202	6.36
430.563	6.37
430.923	6.4
431.283	6.43
431.643	6.4
432.003	6.21
432.363	6.48
432.722	6.58
433.082	6.18
433.442	6.37
433.802	6.32
434.161	6.47
434.521	6.33
434.881	6.25
435.24	6.4
435.6	6.33
435.959	6.38
436.319	6.4
436.678	6.35
437.037	6.59
437.396	6.45
437.756	6.58
438.115	6.46
438.474	6.47
438.833	6.66
439.192	6.47
439.551	6.39
439.91	6.49
440.269	6.48
440.628	6.39
440.987	6.33
441.345	6.41
441.704	6.46
442.063	6.49
442.421	6.33
442.78	6.56
443.138	6.37
443.497	6.57
443.855	6.57
444.214	6.65
444.572	6.47
444.93	6.48
445.288	6.6
445.647	6.65
446.005	6.72
446.363	6.51
446.721	6.49
447.079	6.44
447.437	6.56
447.795	6.56
448.153	6.38
448.51	6.47
448.868	6.52
449.226	6.51
449.584	6.43
449.941	6.59
450.299	6.64
450.656	6.56
451.014	6.66
451.371	6.51
451.729	6.53
452.086	6.77
452.443	6.81
452.801	6.75
453.158	6.55
453.515	6.83
453.872	6.76
454.229	6.79
454.586	6.7
454.943	6.7
455.3	6.78
455.657	6.8
456.014	6.89
456.371	6.87
456.727	6.79
457.084	6.81
457.441	6.99
457.797	6.54
458.154	6.91
458.51	6.87
458.867	7.23
459.223	6.82
459.58	6.88
459.936	6.84
460.292	6.73
460.648	6.98
461.005	6.78
461.361	6.76
461.717	6.79
462.073	6.82
462.429	6.79
462.785	6.87
463.141	6.82
463.496	7.01
463.852	6.94
464.208	6.94
464.564	7.16
464.919	6.92
465.275	7.09
465.631	6.92
465.986	6.8
466.342	7.17
466.697	7.12
467.052	7.11
467.408	7.12
467.763	7.01
468.118	7.01
468.473	7.05
468.829	6.9
469.184	6.97
469.539	7.13
469.894	6.96
470.249	7.15
470.603	7.11
470.958	7.07
471.313	7.17
471.668	7.1
472.023	7
472.377	7.13
472.732	7.08
473.086	7.09
473.441	7.31
473.795	7.26
474.15	7.24
474.504	7.31
474.859	7.28
475.213	7.41
475.567	7.09
475.921	7.32
476.275	7.22
476.63	7.32
476.984	7.44
477.338	7.39
477.692	7.39
478.045	7.1
478.399	7.43
478.753	7.32
479.107	7.21
479.461	7.2
479.814	7.27
480.168	7.31
480.521	7.31
480.875	7.39
481.228	7.47
481.582	7.47
481.935	7.41
482.289	7.45
482.642	7.35
482.995	7.68
483.348	7.22
483.701	7.34
484.055	7.34
484.408	7.25
484.761	7.22
485.114	7.11
485.466	6.96
485.819	7
486.172	7.04
486.525	7.19
486.878	7.19
487.23	7.21
487.583	7.31
487.936	7.36
488.288	7.36
488.641	7.22
488.993	7.23
489.345	7.27
489.698	7.26
490.05	7.27
490.402	7.26
490.754	7.4
491.107	7.49
491.459	7.44
491.811	7.49
492.163	7.62
492.515	7.53
492.866	7.44
493.218	7.34
493.57	7.35
493.922	7.38
494.274	7.51
494.625	7.51
494.977	7.64
495.328	7.66
495.68	7.71
496.031	7.71
496.383	7.88
496.734	7.82
497.086	7.8
497.437	7.86
497.788	8.01
498.139	7.81
498.49	7.71
498.842	7.8
499.193	7.87
499.544	7.77
499.894	7.77
500.245	7.92
500.596	7.88
500.947	7.88
501.298	7.9
501.648	8.13
501.999	7.96
502.35	7.99
502.7	8.08
503.051	8
503.401	7.97
503.752	7.85
504.102	7.99
504.452	8.04
504.803	8.01
505.153	8.14
505.503	7.88
505.853	8.26
506.203	8.11
506.553	8.12
506.903	8.19
507.253	8.11
507.603	8.21
507.953	8.2
508.303	8.18
508.652	8.22
509.002	8.35
509.352	8.24
509.701	8.13
510.051	8.24
510.4	8.28
510.75	8.22
511.099	8.21
511.449	8.09
511.798	8.23
512.147	8.36
512.496	8.19
512.846	8.35
513.195	8.29
513.544	8.31
513.893	8.37
514.242	8.37
514.591	8.37
514.939	8.41
515.288	8.5
515.637	8.49
515.986	8.59
516.334	8.49
516.683	8.56
517.032	8.52
517.38	8.57
517.729	8.64
518.077	8.48
518.426	8.63
518.774	8.55
519.122	8.59
519.47	8.52
519.819	8.49
520.167	8.49
520.515	8.48
520.863	8.6
521.211	8.59
521.559	8.68
521.907	8.58
522.255	8.62
522.602	8.72
522.95	8.8
523.298	8.59
523.645	8.69
523.993	8.8
524.341	8.99
524.688	8.8
525.036	8.87
525.383	8.73
525.73	8.96
526.078	9.02
526.425	8.94
526.772	8.85
527.119	8.94
527.466	8.73
527.814	8.94
528.161	8.96
528.508	8.86
528.854	9
529.201	8.96
529.548	8.99
529.895	8.88
530.242	8.7
530.588	8.7
530.935	8.77
531.282	8.77
531.628	8.82
531.975	8.88
532.321	8.95
532.667	9.08
533.014	9.15
533.36	9.22
533.706	9.16
534.052	9.19
534.399	9.08
534.745	9.14
535.091	9.05
535.437	9.11
535.783	9.14
536.129	9.21
536.474	9.22
536.82	9.31
537.166	9.41
537.512	9.35
537.857	9.36
538.203	9.33
538.549	9.26
538.894	9.44
539.239	9.46
539.585	9.54
539.93	9.6
540.276	9.62
540.621	9.59
540.966	9.75
541.311	9.63
541.656	9.64
542.001	9.79
542.346	9.58
542.691	9.58
543.036	9.5
543.381	9.46
543.726	9.45
544.071	9.54
544.415	9.64
544.76	9.62
545.105	9.77
545.449	9.75
545.794	9.82
546.138	9.83
546.483	9.89
546.827	10.03
547.171	9.99
547.516	9.96
547.86	9.95
548.204	10.11
548.548	9.86
548.892	9.98
549.236	10.1
549.58	10.24
549.924	10.14
550.268	10.26
550.612	10.26
550.956	10.3
551.3	10.34
551.643	10.37
551.987	10.53
552.33	10.38
552.674	10.52
553.017	10.39
553.361	10.37
553.704	10.4
554.048	10.48
554.391	10.47
554.734	10.46
555.077	10.57
555.42	10.44
555.764	10.53
556.107	10.67
556.45	10.7
556.793	10.62
557.135	10.84
557.478	10.78
557.821	10.92
558.164	10.85
558.507	10.84
558.849	11.08
559.192	11.02
559.534	10.88
559.877	11.05
560.219	10.9
560.562	11.09
560.904	10.95
561.246	10.99
561.589	10.99
561.931	11.08
562.273	11.42
562.615	10.97
562.957	11.1
563.299	11.07
563.641	11.2
563.983	11.15
564.325	11.3
564.667	11.35
565.008	11.18
565.35	11.54
565.692	11.38
566.033	11.46
566.375	11.58
566.716	11.25
567.058	11.44
567.399	11.27
567.741	11.39
568.082	11.43
568.423	11.4
568.764	11.65
569.105	11.45
569.447	11.59
569.788	11.56
570.129	11.51
570.47	11.66
570.811	11.89
571.151	11.89
571.492	11.76
571.833	11.77
572.174	11.68
572.514	11.95
572.855	11.74
573.195	11.89
573.536	12
573.876	11.77
574.217	12.02
574.557	11.87
574.898	11.96
575.238	12.1
575.578	11.96
575.918	11.95
576.258	11.9
576.598	12.06
576.938	12.27
577.278	12.1
577.618	12.26
577.958	12.25
578.298	12.22
578.638	12.24
578.977	12.24
579.317	12.51
579.657	12.51
579.996	12.32
580.336	12.48
580.675	12.57
581.014	12.55
581.354	12.84
581.693	12.49
582.032	12.61
582.372	12.94
582.711	12.82
583.05	12.74
583.389	12.87
583.728	12.86
584.067	12.95
584.406	12.71
584.745	12.99
585.083	12.91
585.422	12.89
585.761	13.13
586.1	13.01
586.438	12.9
586.777	12.84
587.115	13
587.454	13.21
587.792	13.37
588.13	12.95
588.469	13.14
588.807	13.28
589.145	13.35
589.483	13.29
589.821	13.27
590.159	13.15
590.497	13.42
590.835	13.29
591.173	13.54
591.511	13.48
591.849	13.42
592.187	13.39
592.524	13.7
592.862	13.58
593.2	13.57
593.537	13.66
593.875	13.75
594.212	13.63
594.55	13.69
594.887	13.71
595.224	13.6
595.561	13.75
595.899	13.6
596.236	13.62
596.573	13.81
596.91	13.93
597.247	13.96
597.584	13.86
597.921	13.94
598.258	13.78
598.594	14.03
598.931	14.04
599.268	13.92
599.604	14.05
599.941	14.13
600.277	14.1
600.614	14.17
600.95	13.9
601.287	14.21
601.623	13.98
601.959	14.11
602.296	14.27
602.632	14.27
602.968	13.93
603.304	14.18
603.64	14.47
603.976	14.37
604.312	14.64
604.648	14.26
604.984	14.3
605.319	14.29
605.655	14.55
605.991	14.41
606.326	14.45
606.662	14.55
606.998	14.6
607.333	14.44
607.668	14.52
608.004	14.38
608.339	14.62
608.674	14.84
609.01	14.73
609.345	15.04
609.68	15.14
610.015	15.03
610.35	15.05
610.685	14.75
611.02	14.91
611.355	14.8
611.689	14.92
612.024	14.98
612.359	14.98
612.694	15.19
613.028	15.36
613.363	15.45
613.697	15.21
614.032	15.17
614.366	15.27
614.7	15.32
615.035	15.51
615.369	15.71
615.703	15.56
616.037	15.48
616.371	15.77
616.705	15.49
617.039	15.36
617.373	15.75
617.707	15.67
618.041	15.71
618.375	15.94
618.709	15.59
619.042	15.45
619.376	16.05
619.71	15.56
620.043	15.73
620.377	15.77
620.71	15.98
621.043	16
621.377	15.69
621.71	15.98
622.043	15.83
622.376	15.67
622.709	16.08
623.043	16.02
623.376	15.99
623.709	15.9
624.041	16.01
624.374	16.22
624.707	16.18
625.04	16.42
625.373	16.2
625.705	15.98
626.038	16.1
626.37	16.33
626.703	16.6
627.035	16.9
627.368	16.88
627.7	16.58
628.032	16.37
628.365	16.42
628.697	16.33
629.029	16.74
629.361	16.63
629.693	16.47
630.025	16.77
630.357	16.9
630.689	16.9
631.021	16.59
631.353	16.96
631.684	16.93
632.016	16.53
632.348	16.82
632.679	16.79
633.011	17.09
633.342	17.15
633.674	17.01
634.005	16.78
634.336	17.33
634.668	17.18
634.999	17.22
635.33	17.14
635.661	17.12
635.992	17.24
636.323	17.43
636.654	17.49
636.985	17.39
637.316	17.17
637.647	17.37
637.977	17.43
638.308	17.27
638.639	16.98
638.969	17.39
639.3	17.62
639.63	17.33
639.961	17.83
640.291	17.7
640.622	17.49
640.952	17.59
641.282	17.51
641.612	17.62
641.943	17.55
642.273	18.06
642.603	17.84
642.933	17.63
643.263	17.57
643.592	17.78
643.922	17.58
644.252	17.78
644.582	18.12
644.911	17.66
645.241	17.57
645.571	17.95
645.9	17.78
646.23	18.48
646.559	17.67
646.888	18.28
647.218	18.39
647.547	18.41
647.876	17.74
648.205	18.53
648.534	18.3
648.863	18.31
649.192	18.29
649.521	18.4
649.85	17.79
650.179	18.23
650.508	18.35
650.837	18.69
651.165	18.37
651.494	18.03
651.822	18.45
652.151	18.81
652.479	18.28
652.808	18.42
653.136	18.64
653.465	18.43
653.793	18.85
654.121	18.67
654.449	18.92
654.777	18.74
655.105	18.73
655.433	18.62
655.761	18.78
656.089	18.88
656.417	19.12
656.745	18.89
657.073	18.18
657.4	18.82
657.728	18.76
658.056	18.98
658.383	18.89
658.711	18.68
659.038	18.98
659.365	19.25
659.693	18.92
660.02	19.05
660.347	18.97
660.674	18.74
661.001	19.34
661.329	19.29
661.656	19.5
661.982	19.54
662.309	19.45
662.636	19.03
662.963	19.57
663.29	19.24
663.616	19.18
663.943	19.51
664.27	19.52
664.596	19.39
664.923	19.58
665.249	19.24
665.576	19.99
665.902	19.59
666.228	19.66
666.554	19.78
666.881	19.34
667.207	19.44
667.533	19.62
667.859	19.58
668.185	19.69
668.511	18.64
668.837	20.12
669.162	19.93
669.488	19.63
669.814	19.99
670.139	20.23
670.465	19.94
670.791	20.06
671.116	20
671.442	20.21
671.767	19.63
672.092	20.06
672.418	19.97
672.743	20.43
673.068	19.66
673.393	19.97
673.718	20.14
674.043	20
674.368	20.2
674.693	20.27
675.018	19.85
675.343	20.65
675.667	20.6
675.992	20.86
676.317	20.38
676.641	20.23
676.966	20.62
677.29	20.35
677.615	20.11
677.939	20.64
678.264	20.76
678.588	20.6
678.912	20.52
679.236	20.19
679.56	20.76
679.885	20.55
680.209	20.93
680.532	20.07
680.856	20.48
681.18	21.15
681.504	20.61
681.828	20.84
682.152	20.81
682.475	20.88
682.799	20.99
683.122	20.48
683.446	21.34
683.769	20.56
