Data from 97282_chest_Reflection__1__92.txt Node

Date: Fri Sep 23 20:24:05 CDT 2022
User: ToomeyLab
Spectrometer: FLMS14357
Trigger mode: 0
Integration Time (sec): 1.000000E-2
Scans to average: 100
Electric dark correction enabled: true
Nonlinearity correction enabled: false
Boxcar width: 0
XAxis mode: Wavelengths
Number of Pixels in Spectrum: 2048
>>>>>Begin Spectral Data<<<<<
189.047	-543.6
189.435	-543.6
189.823	-543.6
190.211	67.34
190.599	0.68
190.987	-58.1
191.375	336.3
191.763	137.44
192.151	-27.83
192.538	-126.97
192.926	106.24
193.314	74.56
193.702	3.8
194.089	-73.5
194.477	32.48
194.864	0.16
195.252	75.28
195.639	-27.38
196.027	238.14
196.414	97320
196.801	32.46
197.189	-2595.29
197.576	-3606.06
197.963	-2437.62
198.351	26.03
198.738	-203.31
199.125	40.46
199.512	26.8
199.899	-24.77
200.286	-1.97
200.673	20.57
201.06	-7.5
201.447	33.33
201.833	27.39
202.22	-30.54
202.607	36.18
202.994	14.93
203.38	-5.27
203.767	-38.72
204.154	35.56
204.54	15.31
204.927	64.65
205.313	41.72
205.699	-3.92
206.086	-21.98
206.472	26.32
206.858	20.87
207.245	-14.52
207.631	20.78
208.017	20.16
208.403	25.17
208.789	34.52
209.175	17.9
209.561	14.03
209.947	-1.43
210.333	-2.08
210.719	-0.81
211.105	37.22
211.491	21.48
211.876	14.88
212.262	7.98
212.648	-3.98
213.034	-14.06
213.419	-17.21
213.805	51.84
214.19	-0.76
214.576	-20.14
214.961	6.83
215.346	-53.1
215.732	43.53
216.117	2.57
216.502	9.87
216.888	18.54
217.273	1.45
217.658	-23.17
218.043	29.36
218.428	-15.12
218.813	0.62
219.198	6.94
219.583	24.49
219.968	28.12
220.353	7.76
220.738	-23.13
221.122	0.06
221.507	-3.13
221.892	6.9
222.276	-9.12
222.661	5.92
223.046	-0.88
223.43	6.41
223.815	17.27
224.199	2.43
224.583	8.93
224.968	1.8
225.352	7.07
225.736	-2.24
226.121	5.42
226.505	10.25
226.889	6.63
227.273	2.89
227.657	-1.26
228.041	-0.54
228.425	4.25
228.809	-0.29
229.193	5.05
229.577	4.57
229.961	3.06
230.344	2.75
230.728	1.85
231.112	1.85
231.495	1.15
231.879	0.59
232.263	3.02
232.646	3.35
233.03	2.12
233.413	2.59
233.797	1.91
234.18	4.17
234.563	2.57
234.946	2.92
235.33	1.55
235.713	3.54
236.096	-0.2
236.479	1.75
236.862	1.51
237.245	4.3
237.628	3.21
238.011	2.59
238.394	1.23
238.777	3.28
239.16	1.7
239.543	3.48
239.925	3.07
240.308	3.01
240.691	4.09
241.073	1.75
241.456	2.45
241.838	4.53
242.221	2.35
242.603	3.18
242.986	1.2
243.368	2.07
243.75	2.25
244.133	2.51
244.515	2.62
244.897	2.88
245.279	3.06
245.661	3.07
246.043	3.44
246.425	2.21
246.807	1.8
247.189	2.72
247.571	3.02
247.953	2.85
248.335	2.83
248.717	2.95
249.098	2.64
249.48	2.3
249.862	2.44
250.243	2.86
250.625	2.89
251.006	2.7
251.388	2.04
251.769	2.05
252.151	1.68
252.532	2.18
252.913	2.89
253.295	2.68
253.676	2.95
254.057	2.91
254.438	2.59
254.819	3.29
255.2	2.9
255.581	4.04
255.962	1.43
256.343	3.25
256.724	2.47
257.105	2.7
257.486	1
257.867	2.42
258.247	2.13
258.628	2.66
259.009	2.23
259.389	3.32
259.77	1.89
260.15	2.55
260.531	2.95
260.911	2.73
261.292	2.83
261.672	2.33
262.052	2.48
262.432	2.45
262.813	2.45
263.193	2.75
263.573	3
263.953	2.47
264.333	2.34
264.713	2.81
265.093	3.13
265.473	2.99
265.853	1.95
266.233	1.92
266.612	2.66
266.992	3.14
267.372	2.37
267.752	2.58
268.131	2.77
268.511	2.03
268.89	2.57
269.27	2.18
269.649	2.53
270.029	2.51
270.408	2.3
270.787	2.54
271.167	2.17
271.546	2.33
271.925	1.95
272.304	2.22
272.683	1.84
273.062	2.01
273.441	2.18
273.82	2.39
274.199	2.27
274.578	2.12
274.957	2.4
275.336	2.27
275.715	1.93
276.093	2.61
276.472	3.07
276.851	2.7
277.229	2.11
277.608	2.38
277.986	1.58
278.365	2.68
278.743	2.63
279.122	1.65
279.5	2.29
279.878	2.03
280.257	2.06
280.635	2.16
281.013	2.08
281.391	2.63
281.769	2.49
282.147	2.42
282.525	2.55
282.903	1.82
283.281	2.45
283.659	2.08
284.037	2.27
284.415	2.39
284.792	1.97
285.17	2.06
285.548	1.95
285.925	2.38
286.303	2.73
286.68	2.27
287.058	2.24
287.435	2.02
287.813	2.34
288.19	2.22
288.567	2.6
288.945	2.26
289.322	2.39
289.699	2.67
290.076	2.57
290.453	2.32
290.83	2.44
291.207	2.23
291.584	2.47
291.961	2.52
292.338	2.44
292.715	2.25
293.092	2.39
293.469	2.44
293.845	3.18
294.222	2.54
294.599	2.47
294.975	2.49
295.352	2.42
295.728	2.62
296.105	2.42
296.481	2.3
296.858	2.71
297.234	2.71
297.61	1.91
297.986	2.34
298.363	2.28
298.739	2.89
299.115	2.47
299.491	2.52
299.867	2.55
300.243	2.46
300.619	2.78
300.995	2.96
301.371	2.49
301.746	3.15
302.122	2.65
302.498	2.53
302.874	1.86
303.249	2.89
303.625	2.47
304	2.51
304.376	2.42
304.751	2.44
305.127	2.81
305.502	2.99
305.878	2.44
306.253	2.63
306.628	2.53
307.003	2.25
307.378	3.21
307.754	2.87
308.129	3
308.504	2.82
308.879	3.08
309.254	3.19
309.629	3.25
310.003	2.86
310.378	2.96
310.753	2.54
311.128	2.72
311.502	2.36
311.877	2.62
312.252	2.38
312.626	2.73
313.001	2.67
313.375	2.45
313.75	2.69
314.124	2.72
314.498	2.73
314.873	2.92
315.247	3.17
315.621	2.84
315.995	2.94
316.369	2.88
316.743	2.54
317.117	2.49
317.491	2.66
317.865	2.81
318.239	3.09
318.613	2.59
318.987	2.4
319.361	2.28
319.734	2.77
320.108	2.86
320.482	3.43
320.855	2.78
321.229	3.33
321.602	2.67
321.976	3.23
322.349	3.04
322.723	2.94
323.096	2.67
323.469	2.71
323.843	2.36
324.216	3.52
324.589	2.93
324.962	2.75
325.335	2.63
325.708	2.77
326.081	2.82
326.454	2.67
326.827	2.77
327.2	2.72
327.573	3.11
327.945	3.05
328.318	2.8
328.691	2.93
329.063	2.66
329.436	2.74
329.809	3.42
330.181	2.72
330.553	2.41
330.926	2.69
331.298	3.04
331.671	3.16
332.043	2.95
332.415	2.76
332.787	2.5
333.159	3.17
333.532	2.49
333.904	2.85
334.276	2.38
334.648	3.01
335.02	3.37
335.391	3.24
335.763	2.47
336.135	2.9
336.507	3.37
336.879	2.4
337.25	3.05
337.622	2.97
337.993	2.55
338.365	3.33
338.736	3.06
339.108	3.16
339.479	2.55
339.851	3.34
340.222	3.57
340.593	3.17
340.964	3.11
341.336	2.86
341.707	3.69
342.078	2.64
342.449	2.61
342.82	3.04
343.191	3.31
343.562	3.16
343.933	3.35
344.303	2.78
344.674	3.07
345.045	3.34
345.416	2.61
345.786	3.47
346.157	2.68
346.527	3.12
346.898	3.21
347.268	3.05
347.639	2.64
348.009	2.85
348.38	2.84
348.75	2.75
349.12	3.07
349.49	3.22
349.861	3.33
350.231	2.61
350.601	3.27
350.971	3.06
351.341	2.8
351.711	2.97
352.081	2.84
352.45	2.52
352.82	2.79
353.19	3.59
353.56	3.37
353.929	3.06
354.299	3.06
354.669	3.55
355.038	3.08
355.408	2.61
355.777	3.24
356.147	3.17
356.516	3.24
356.885	3.18
357.254	2.71
357.624	2.89
357.993	3.11
358.362	2.81
358.731	2.99
359.1	2.95
359.469	2.92
359.838	3.07
360.207	3.17
360.576	3.08
360.945	3
361.314	3.09
361.682	2.8
362.051	3.23
362.42	3.06
362.788	3.04
363.157	3.25
363.525	3.38
363.894	2.89
364.262	3.01
364.631	2.96
364.999	3.06
365.367	2.88
365.735	3.15
366.104	3.16
366.472	2.83
366.84	3.15
367.208	3.13
367.576	3.13
367.944	3.11
368.312	3.28
368.68	2.95
369.048	3.05
369.416	3.22
369.783	3.1
370.151	3.41
370.519	3.02
370.886	3.09
371.254	3.22
371.621	3.43
371.989	2.85
372.356	3.37
372.724	2.97
373.091	3.1
373.458	3.19
373.826	2.94
374.193	3.41
374.56	3.16
374.927	3.09
375.294	3.16
375.661	2.75
376.028	3.02
376.395	3.24
376.762	3.06
377.129	2.93
377.496	3.35
377.863	3.12
378.229	3.06
378.596	3.12
378.963	3.17
379.329	3.43
379.696	3.19
380.062	2.9
380.429	3.17
380.795	2.97
381.161	3.42
381.528	3.25
381.894	3.2
382.26	3.11
382.626	2.97
382.993	3.23
383.359	3.14
383.725	3.12
384.091	3.23
384.457	3.18
384.823	3.03
385.188	3.49
385.554	3.39
385.92	3.37
386.286	3.19
386.651	3.08
387.017	3.68
387.383	3.11
387.748	3.26
388.114	2.98
388.479	3.15
388.845	3.36
389.21	3.17
389.575	3.32
389.94	2.94
390.306	2.97
390.671	3.02
391.036	3.18
391.401	3.38
391.766	3.43
392.131	3.21
392.496	3.27
392.861	3.18
393.226	2.93
393.591	3.09
393.956	3.19
394.32	3.13
394.685	3.37
395.05	3.15
395.414	3.2
395.779	3.1
396.143	2.99
396.508	3.02
396.872	3.02
397.236	3.35
397.601	3.11
397.965	3.62
398.329	3.47
398.694	3.21
399.058	3.32
399.422	3.43
399.786	3.28
400.15	3.27
400.514	3.11
400.878	3.2
401.242	3.02
401.605	3.34
401.969	3.37
402.333	3.16
402.697	2.96
403.06	3.32
403.424	3.33
403.787	3.28
404.151	3.32
404.514	3.32
404.878	3.37
405.241	3.31
405.604	3.15
405.968	3.1
406.331	3.1
406.694	3.27
407.057	3.21
407.42	3.35
407.783	3.2
408.146	3.22
408.509	3.3
408.872	3.2
409.235	3.27
409.598	3.52
409.961	3.29
410.323	3.29
410.686	3.33
411.049	3.13
411.411	3.4
411.774	3.23
412.136	3.31
412.499	3.17
412.861	3.07
413.223	3.31
413.586	3.31
413.948	3.22
414.31	3.16
414.672	3.34
415.035	3.34
415.397	3.28
415.759	3.42
416.121	3.51
416.483	3.31
416.845	3.12
417.206	3.37
417.568	3.5
417.93	3.44
418.292	3.46
418.653	3.3
419.015	3.28
419.377	3.16
419.738	3.25
420.1	3.27
420.461	3.33
420.822	3.23
421.184	3.35
421.545	3.32
421.906	3.28
422.267	3.29
422.629	3.17
422.99	3.16
423.351	3.25
423.712	3.22
424.073	3.25
424.434	3.25
424.795	3.3
425.155	3.2
425.516	3.36
425.877	3.26
426.238	3.31
426.598	3.3
426.959	3.3
427.32	3.41
427.68	3.31
428.041	3.39
428.401	3.46
428.761	3.39
429.122	3.34
429.482	3.4
429.842	3.46
430.202	3.46
430.563	3.4
430.923	3.56
431.283	3.53
431.643	3.31
432.003	3.46
432.363	3.47
432.722	3.4
433.082	3.27
433.442	3.37
433.802	3.32
434.161	3.42
434.521	3.51
434.881	3.33
435.24	3.33
435.6	3.4
435.959	3.48
436.319	3.39
436.678	3.35
437.037	3.55
437.396	3.4
437.756	3.45
438.115	3.39
438.474	3.36
438.833	3.51
439.192	3.64
439.551	3.59
439.91	3.42
440.269	3.38
440.628	3.45
440.987	3.37
441.345	3.44
441.704	3.38
442.063	3.38
442.421	3.32
442.78	3.38
443.138	3.32
443.497	3.49
443.855	3.34
444.214	3.6
444.572	3.45
444.93	3.43
445.288	3.55
445.647	3.48
446.005	3.36
446.363	3.54
446.721	3.35
447.079	3.35
447.437	3.43
447.795	3.4
448.153	3.32
448.51	3.35
448.868	3.34
449.226	3.44
449.584	3.39
449.941	3.49
450.299	3.5
450.656	3.44
451.014	3.51
451.371	3.45
451.729	3.27
452.086	3.64
452.443	3.56
452.801	3.42
453.158	3.53
453.515	3.47
453.872	3.48
454.229	3.52
454.586	3.62
454.943	3.55
455.3	3.46
455.657	3.51
456.014	3.5
456.371	3.39
456.727	3.62
457.084	3.58
457.441	3.72
457.797	3.33
458.154	3.45
458.51	3.42
458.867	3.66
459.223	3.52
459.58	3.6
459.936	3.64
460.292	3.43
460.648	3.56
461.005	3.48
461.361	3.41
461.717	3.47
462.073	3.49
462.429	3.42
462.785	3.64
463.141	3.45
463.496	3.58
463.852	3.63
464.208	3.53
464.564	3.72
464.919	3.72
465.275	3.59
465.631	3.47
465.986	3.39
466.342	3.57
466.697	3.56
467.052	3.67
467.408	3.52
467.763	3.58
468.118	3.6
468.473	3.61
468.829	3.49
469.184	3.69
469.539	3.6
469.894	3.55
470.249	3.68
470.603	3.71
470.958	3.6
471.313	3.57
471.668	3.64
472.023	3.52
472.377	3.53
472.732	3.53
473.086	3.46
473.441	3.69
473.795	3.78
474.15	3.61
474.504	3.78
474.859	3.63
475.213	3.85
475.567	3.57
475.921	3.62
476.275	3.57
476.63	3.59
476.984	3.82
477.338	3.56
477.692	3.66
478.045	3.49
478.399	3.66
478.753	3.68
479.107	3.53
479.461	3.7
479.814	3.66
480.168	3.64
480.521	3.71
480.875	3.74
481.228	3.78
481.582	3.7
481.935	3.8
482.289	3.64
482.642	3.57
482.995	3.78
483.348	3.57
483.701	3.59
484.055	3.61
484.408	3.6
484.761	3.54
485.114	3.41
485.466	3.38
485.819	3.37
486.172	3.46
486.525	3.53
486.878	3.56
487.23	3.58
487.583	3.56
487.936	3.64
488.288	3.59
488.641	3.57
488.993	3.53
489.345	3.52
489.698	3.51
490.05	3.57
490.402	3.52
490.754	3.61
491.107	3.62
491.459	3.62
491.811	3.62
492.163	3.79
492.515	3.69
492.866	3.59
493.218	3.5
493.57	3.52
493.922	3.59
494.274	3.7
494.625	3.73
494.977	3.77
495.328	3.84
495.68	3.83
496.031	3.8
496.383	3.9
496.734	3.81
497.086	3.83
497.437	3.92
497.788	3.82
498.139	3.86
498.49	3.73
498.842	3.76
499.193	3.85
499.544	3.82
499.894	3.76
500.245	3.82
500.596	3.83
500.947	3.77
501.298	3.88
501.648	4
501.999	3.9
502.35	4
502.7	3.85
503.051	3.9
503.401	3.9
503.752	3.83
504.102	4.09
504.452	3.84
504.803	3.95
505.153	3.97
505.503	3.79
505.853	4.01
506.203	3.91
506.553	4
506.903	3.94
507.253	3.93
507.603	3.9
507.953	3.94
508.303	3.93
508.652	3.92
509.002	4.08
509.352	4.1
509.701	3.95
510.051	3.96
510.4	3.97
510.75	3.95
511.099	3.89
511.449	3.83
511.798	3.93
512.147	3.97
512.496	4.02
512.846	4.08
513.195	4
513.544	4.07
513.893	4.11
514.242	3.99
514.591	4.05
514.939	4.07
515.288	4.05
515.637	4.09
515.986	4.09
516.334	4.09
516.683	4.09
517.032	4.01
517.38	4.15
517.729	4.07
518.077	4.02
518.426	4.22
518.774	4.11
519.122	4.07
519.47	4.04
519.819	4.08
520.167	4.02
520.515	3.99
520.863	4.09
521.211	4.04
521.559	4.16
521.907	4.11
522.255	4.12
522.602	4.1
522.95	4.26
523.298	4.01
523.645	4.21
523.993	4.23
524.341	4.29
524.688	4.14
525.036	4.31
525.383	4.25
525.73	4.26
526.078	4.2
526.425	4.2
526.772	4.23
527.119	4.19
527.466	4.13
527.814	4.16
528.161	4.22
528.508	4.22
528.854	4.18
529.201	4.23
529.548	4.25
529.895	4.07
530.242	4.03
530.588	4.06
530.935	4.09
531.282	4.18
531.628	4.21
531.975	4.18
532.321	4.22
532.667	4.37
533.014	4.34
533.36	4.35
533.706	4.35
534.052	4.27
534.399	4.27
534.745	4.28
535.091	4.28
535.437	4.3
535.783	4.4
536.129	4.37
536.474	4.33
536.82	4.35
537.166	4.42
537.512	4.4
537.857	4.46
538.203	4.35
538.549	4.41
538.894	4.44
539.239	4.5
539.585	4.51
539.93	4.6
540.276	4.63
540.621	4.59
540.966	4.63
541.311	4.67
541.656	4.54
542.001	4.68
542.346	4.51
542.691	4.43
543.036	4.46
543.381	4.43
543.726	4.52
544.071	4.59
544.415	4.54
544.76	4.62
545.105	4.65
545.449	4.69
545.794	4.65
546.138	4.76
546.483	4.77
546.827	4.82
547.171	4.8
547.516	4.92
547.86	4.8
548.204	4.87
548.548	4.72
548.892	4.77
549.236	4.93
549.58	4.95
549.924	4.93
550.268	5.09
550.612	4.86
550.956	5.03
551.3	4.94
551.643	4.84
551.987	5.16
552.33	4.92
552.674	5.01
553.017	5.15
553.361	5.01
553.704	5.07
554.048	5.04
554.391	5.02
554.734	5.14
555.077	5.12
555.42	5.1
555.764	5.07
556.107	5.26
556.45	5.17
556.793	5.15
557.135	5.33
557.478	5.12
557.821	5.1
558.164	5.32
558.507	5.32
558.849	5.51
559.192	5.47
559.534	5.38
559.877	5.57
560.219	5.46
560.562	5.57
560.904	5.47
561.246	5.22
561.589	5.44
561.931	5.59
562.273	5.48
562.615	5.5
562.957	5.35
563.299	5.44
563.641	5.61
563.983	5.55
564.325	5.61
564.667	5.63
565.008	5.45
565.35	5.64
565.692	5.56
566.033	5.6
566.375	5.71
566.716	5.48
567.058	5.42
567.399	5.59
567.741	5.63
568.082	5.7
568.423	5.67
568.764	5.71
569.105	5.73
569.447	5.64
569.788	5.77
570.129	5.83
570.47	5.79
570.811	5.95
571.151	5.99
571.492	5.83
571.833	5.85
572.174	5.76
572.514	6.02
572.855	5.74
573.195	6.04
573.536	6.07
573.876	5.78
574.217	6.11
574.557	5.97
574.898	5.93
575.238	6.08
575.578	6.31
575.918	6.04
576.258	6.17
576.598	6.09
576.938	6.23
577.278	6.13
577.618	6.17
577.958	6.26
578.298	6.29
578.638	6.32
578.977	6.42
579.317	6.55
579.657	6.6
579.996	6.24
580.336	6.46
580.675	6.58
581.014	6.54
581.354	6.74
581.693	6.68
582.032	6.69
582.372	6.68
582.711	6.65
583.05	6.53
583.389	6.66
583.728	6.77
584.067	6.95
584.406	6.65
584.745	6.78
585.083	6.63
585.422	6.77
585.761	6.95
586.1	6.92
586.438	6.9
586.777	6.62
587.115	6.93
587.454	7.09
587.792	7.07
588.13	6.85
588.469	6.96
588.807	7.14
589.145	6.96
589.483	6.97
589.821	7.26
590.159	6.98
590.497	6.79
590.835	6.93
591.173	7.1
591.511	7.22
591.849	7.09
592.187	7.35
592.524	7.48
592.862	7.35
593.2	7.31
593.537	7.39
593.875	7.59
594.212	7.64
594.55	7.2
594.887	7.48
595.224	7.47
595.561	7.31
595.899	7.39
596.236	7.27
596.573	7.54
596.91	7.63
597.247	7.49
597.584	7.52
597.921	7.84
598.258	7.57
598.594	7.56
598.931	7.61
599.268	7.75
599.604	7.55
599.941	7.85
600.277	7.76
600.614	7.73
600.95	7.69
601.287	7.69
601.623	7.85
601.959	7.76
602.296	7.96
602.632	7.97
602.968	8
603.304	7.99
603.64	8.14
603.976	8.05
604.312	7.95
604.648	8.16
604.984	8.01
605.319	8.24
605.655	7.94
605.991	7.97
606.326	8.04
606.662	8.09
606.998	8.25
607.333	8.08
607.668	8.18
608.004	8.17
608.339	8.29
608.674	8.38
609.01	8.45
609.345	8.41
609.68	8.21
610.015	8.54
610.35	8.48
610.685	8.24
611.02	8.44
611.355	8.43
611.689	8.41
612.024	8.52
612.359	8.58
612.694	8.82
613.028	8.73
613.363	8.87
613.697	8.68
614.032	8.57
614.366	8.76
614.7	9
615.035	9.05
615.369	9.16
615.703	9.08
616.037	8.77
616.371	8.88
616.705	8.88
617.039	9.25
617.373	9.17
617.707	9.32
618.041	9.4
618.375	9.4
618.709	9.22
619.042	9.31
619.376	9.79
619.71	9.15
620.043	9.3
620.377	9.04
620.71	9.26
621.043	9.52
621.377	8.95
621.71	9.44
622.043	9.35
622.376	9.19
622.709	9.4
623.043	9.08
623.376	9.42
623.709	9.55
624.041	9.51
624.374	9.08
624.707	9.84
625.04	9.87
625.373	9.49
625.705	9.82
626.038	9.78
626.37	9.47
626.703	9.93
627.035	10.08
627.368	9.95
627.7	9.87
628.032	9.67
628.365	9.73
628.697	9.78
629.029	10.02
629.361	10.18
629.693	9.86
630.025	9.96
630.357	10.12
630.689	10.1
631.021	9.99
631.353	10.44
631.684	10.33
632.016	10.34
632.348	10.09
632.679	10.27
633.011	10.6
633.342	10.47
633.674	10.36
634.005	10.36
634.336	10.77
634.668	10.49
634.999	10.35
635.33	10.5
635.661	10.56
635.992	10.82
636.323	10.99
636.654	10.69
636.985	10.66
637.316	10.59
637.647	11.09
637.977	10.81
638.308	10.78
638.639	10.72
638.969	10.71
639.3	10.56
639.63	10.67
639.961	11.16
640.291	10.52
640.622	11.04
640.952	10.88
641.282	11.16
641.612	10.88
641.943	11.37
642.273	11.36
642.603	11.35
642.933	11.21
643.263	11.02
643.592	11.19
643.922	11.61
644.252	11.38
644.582	11.66
644.911	11.52
645.241	11.34
645.571	11.65
645.9	11.48
646.23	11.46
646.559	11.31
646.888	11.68
647.218	11.53
647.547	11.3
647.876	11.15
648.205	11.6
648.534	11.8
648.863	12.02
649.192	12.25
649.521	11.37
649.85	11.48
650.179	11.53
650.508	11.99
650.837	11.96
651.165	12.11
651.494	12.04
651.822	11.86
652.151	11.66
652.479	11.63
652.808	12.1
653.136	11.64
653.465	11.86
653.793	11.99
654.121	11.55
654.449	12
654.777	12.04
655.105	12.03
655.433	12.15
655.761	12.19
656.089	12.68
656.417	12.5
656.745	12.37
657.073	11.84
657.4	12.5
657.728	12.26
658.056	12.82
658.383	12.51
658.711	11.88
659.038	12.4
659.365	12.35
659.693	12.71
660.02	12.74
660.347	12.25
660.674	12.42
661.001	12.8
661.329	12.15
661.656	13.06
661.982	12.8
662.309	12.85
662.636	12.59
662.963	12.95
663.29	13.22
663.616	12.89
663.943	12.56
664.27	12.57
664.596	12.86
664.923	13.05
665.249	13.79
665.576	13.3
665.902	13.21
666.228	13.36
666.554	13.59
666.881	12.66
667.207	12.66
667.533	12.87
667.859	12.93
668.185	13.28
668.511	13.01
668.837	13.47
669.162	13.77
669.488	13.47
669.814	13.59
670.139	13.32
670.465	13
670.791	13.39
671.116	13.27
671.442	13.73
671.767	13.01
672.092	12.74
672.418	13.68
672.743	14.13
673.068	12.84
673.393	13.37
673.718	13.7
674.043	14.13
674.368	13.39
674.693	13.98
675.018	14.33
675.343	14.06
675.667	13.85
675.992	13.8
676.317	13.78
676.641	13.58
676.966	13.98
677.29	14.11
677.615	14.44
677.939	14.17
678.264	14.34
678.588	14.16
678.912	14.14
679.236	14.09
679.56	14.48
679.885	14.07
680.209	14.09
680.532	14.08
680.856	14.37
681.18	14.53
681.504	14.53
681.828	14.31
682.152	14.48
682.475	14.74
682.799	14.22
683.122	14.33
683.446	14.73
683.769	14.65
684.093	15.01
684.416	15.33
684.739	14.88
685.062	14.38
685.386	14.4
685.709	14.54
686.032	14.58
686.355	15.29
686.678	14.38
687.001	15.32
687.324	15.4
687.646	15.45
687.969	15.32
688.292	14.94
