Data from 97279_forehead_Reflection__3__09.txt Node

Date: Fri Sep 23 19:30:36 CDT 2022
User: ToomeyLab
Spectrometer: FLMS14357
Trigger mode: 0
Integration Time (sec): 1.000000E-2
Scans to average: 100
Electric dark correction enabled: true
Nonlinearity correction enabled: false
Boxcar width: 0
XAxis mode: Wavelengths
Number of Pixels in Spectrum: 2048
>>>>>Begin Spectral Data<<<<<
189.047	-75.79
189.435	-75.79
189.823	-75.79
190.211	-794.19
190.599	139.39
190.987	-12.97
191.375	18.15
191.763	46.85
192.151	45.89
192.538	61.42
192.926	67.44
193.314	260.61
193.702	11505.56
194.089	171.2
194.477	98.7
194.864	135.93
195.252	-52.25
195.639	-56.26
196.027	31.95
196.414	-360.5
196.801	271.81
197.189	761.13
197.576	77.22
197.963	50.95
198.351	30.22
198.738	-15.83
199.125	-3.4
199.512	28.56
199.899	57.27
200.286	-55.98
200.673	28.94
201.06	61.3
201.447	46.28
201.833	20.86
202.22	-0.25
202.607	12.67
202.994	2.19
203.38	-1.2
203.767	17.24
204.154	27.09
204.54	37
204.927	7.14
205.313	30.08
205.699	1.05
206.086	-21.9
206.472	35.68
206.858	19.33
207.245	14.54
207.631	38.8
208.017	23.34
208.403	22.63
208.789	35.81
209.175	45.85
209.561	14.93
209.947	1.74
210.333	45.18
210.719	-3.41
211.105	35.93
211.491	15.44
211.876	45.67
212.262	20.86
212.648	29.11
213.034	-4.77
213.419	-19.76
213.805	27.15
214.19	30.48
214.576	20.9
214.961	27.46
215.346	15.2
215.732	34.4
216.117	2.86
216.502	22.64
216.888	24.36
217.273	20.42
217.658	-1.57
218.043	35.65
218.428	17.52
218.813	32.34
219.198	8.99
219.583	21.2
219.968	28.9
220.353	-4.76
220.738	22.13
221.122	1.69
221.507	22.63
221.892	0.37
222.276	-11.82
222.661	-8.63
223.046	5.43
223.43	-7.98
223.815	4.22
224.199	10.77
224.583	11.95
224.968	7.25
225.352	9.84
225.736	6.18
226.121	6.46
226.505	6.98
226.889	13.65
227.273	9.51
227.657	1.73
228.041	5.04
228.425	6.08
228.809	5.42
229.193	6.15
229.577	4.31
229.961	4.06
230.344	4.36
230.728	3.41
231.112	4.05
231.495	3.87
231.879	2.39
232.263	4.72
232.646	5.02
233.03	4.54
233.413	3.54
233.797	6.12
234.18	6.47
234.563	2.04
234.946	7.47
235.33	4.23
235.713	5.9
236.096	3.83
236.479	3.11
236.862	4.32
237.245	6.26
237.628	5.22
238.011	5.13
238.394	4.35
238.777	4.34
239.16	5.19
239.543	4.78
239.925	2.99
240.308	4.83
240.691	5.36
241.073	4.49
241.456	3.73
241.838	5.73
242.221	4.35
242.603	4.82
242.986	3.79
243.368	3.94
243.75	3.83
244.133	4.23
244.515	3.68
244.897	4.21
245.279	4.65
245.661	5.18
246.043	5.71
246.425	4.64
246.807	3.5
247.189	4.18
247.571	4.62
247.953	4.19
248.335	4.45
248.717	4.26
249.098	3.97
249.48	4.38
249.862	4.28
250.243	4.6
250.625	4.64
251.006	4.45
251.388	4.32
251.769	4.74
252.151	3.02
252.532	4.72
252.913	4.81
253.295	4.82
253.676	4.45
254.057	4.17
254.438	4.25
254.819	4.94
255.2	4.71
255.581	6.2
255.962	4.96
256.343	4.83
256.724	4.71
257.105	4.54
257.486	4.52
257.867	4.53
258.247	4.94
258.628	3.83
259.009	4.61
259.389	4.08
259.77	3.55
260.15	4.37
260.531	4.14
260.911	4.33
261.292	4.17
261.672	3.94
262.052	3.97
262.432	4.04
262.813	4.22
263.193	4.26
263.573	4.33
263.953	4.23
264.333	4.37
264.713	4.27
265.093	4.45
265.473	4.14
265.853	3.22
266.233	4.56
266.612	4.81
266.992	4.39
267.372	3.83
267.752	4.11
268.131	4.3
268.511	3.92
268.89	3.65
269.27	4.16
269.649	4.03
270.029	4.11
270.408	4.19
270.787	3.84
271.167	3.9
271.546	3.96
271.925	4.39
272.304	3.97
272.683	3.87
273.062	3.57
273.441	3.8
273.82	3.86
274.199	3.88
274.578	3.88
274.957	3.83
275.336	4.22
275.715	3.69
276.093	4.12
276.472	4.86
276.851	4.52
277.229	4
277.608	3.79
277.986	4.22
278.365	4.29
278.743	4.29
279.122	4.04
279.5	4.22
279.878	3.58
280.257	3.44
280.635	3.41
281.013	3.86
281.391	3.5
281.769	3.99
282.147	4.15
282.525	3.78
282.903	3.78
283.281	3.95
283.659	4.27
284.037	4.07
284.415	3.93
284.792	4.25
285.17	4.15
285.548	3.66
285.925	4.12
286.303	4.35
286.68	4.19
287.058	3.94
287.435	3.8
287.813	4.2
288.19	4.03
288.567	4.19
288.945	4.32
289.322	4.24
289.699	4.51
290.076	3.94
290.453	4.14
290.83	4.32
291.207	4.08
291.584	4.43
291.961	4.1
292.338	4.3
292.715	4.14
293.092	4.17
293.469	4.5
293.845	4.79
294.222	4.58
294.599	4.64
294.975	4.61
295.352	4.66
295.728	4.48
296.105	4.4
296.481	4.5
296.858	4.51
297.234	4.73
297.61	4.22
297.986	4.58
298.363	4.34
298.739	4.84
299.115	4.56
299.491	4.56
299.867	4.62
300.243	4.71
300.619	4.8
300.995	5.09
301.371	4.67
301.746	5.16
302.122	5
302.498	5.28
302.874	4.87
303.249	4.78
303.625	4.74
304	4.96
304.376	4.82
304.751	4.77
305.127	4.83
305.502	5.09
305.878	5.05
306.253	5.57
306.628	5.3
307.003	4.83
307.378	5.75
307.754	6.3
308.129	5.76
308.504	5.81
308.879	5.61
309.254	5.46
309.629	5.8
310.003	5.82
310.378	5.63
310.753	5.88
311.128	5.22
311.502	5.76
311.877	5.83
312.252	5.46
312.626	5.69
313.001	5.84
313.375	5.61
313.75	5.84
314.124	5.66
314.498	6.22
314.873	6.44
315.247	6.28
315.621	6.19
315.995	6.34
316.369	6.09
316.743	5.67
317.117	5.38
317.491	6.01
317.865	6.7
318.239	7.01
318.613	6.22
318.987	5.92
319.361	6.06
319.734	6.28
320.108	6.45
320.482	6.79
320.855	6.36
321.229	6.74
321.602	6.85
321.976	7.38
322.349	7.19
322.723	7.06
323.096	6.88
323.469	6.73
323.843	6.53
324.216	7.48
324.589	7.19
324.962	7.44
325.335	6.6
325.708	7.03
326.081	6.88
326.454	7.16
326.827	6.81
327.2	6.5
327.573	7.3
327.945	7.41
328.318	6.51
328.691	7.1
329.063	6.88
329.436	7.53
329.809	7.84
330.181	7.17
330.553	6.95
330.926	7.31
331.298	7.34
331.671	7.04
332.043	8.07
332.415	7.36
332.787	7.06
333.159	7.66
333.532	7.6
333.904	7.19
334.276	7.27
334.648	7.63
335.02	7.68
335.391	7.4
335.763	7.29
336.135	7.7
336.507	7.57
336.879	7.44
337.25	7.8
337.622	8.03
337.993	7.81
338.365	7.94
338.736	8.37
339.108	8.18
339.479	7.45
339.851	8.05
340.222	8.24
340.593	8.06
340.964	7.86
341.336	8.03
341.707	8.63
342.078	7.79
342.449	8.14
342.82	7.98
343.191	7.96
343.562	8.05
343.933	8.62
344.303	8.36
344.674	8.16
345.045	8.45
345.416	8.45
345.786	8.83
346.157	8.19
346.527	8.28
346.898	8.57
347.268	8.54
347.639	8.29
348.009	8.44
348.38	8.3
348.75	8.48
349.12	8.61
349.49	8.72
349.861	8.82
350.231	8.51
350.601	8.66
350.971	8.92
351.341	8.88
351.711	8.74
352.081	8.53
352.45	8.5
352.82	8.67
353.19	9.35
353.56	9.22
353.929	8.65
354.299	9.1
354.669	8.68
355.038	9.16
355.408	8.6
355.777	8.78
356.147	9.01
356.516	8.87
356.885	9.14
357.254	8.74
357.624	9.02
357.993	9.4
358.362	9.32
358.731	9.25
359.1	9.31
359.469	9.18
359.838	9.04
360.207	9.49
360.576	9.6
360.945	9.27
361.314	9.39
361.682	9.26
362.051	9.66
362.42	9.64
362.788	9.48
363.157	9.51
363.525	9.61
363.894	9.41
364.262	9.23
364.631	9.84
364.999	9.6
365.367	9.78
365.735	9.61
366.104	9.66
366.472	9.79
366.84	9.87
367.208	10.07
367.576	10.11
367.944	10.06
368.312	10.02
368.68	9.87
369.048	10.01
369.416	10.03
369.783	9.97
370.151	10.3
370.519	10.25
370.886	10.43
371.254	10.35
371.621	10.2
371.989	10.34
372.356	10.51
372.724	10.07
373.091	10.13
373.458	10.26
373.826	10.25
374.193	10.59
374.56	10.5
374.927	10.4
375.294	10.66
375.661	10.48
376.028	10.56
376.395	10.78
376.762	10.46
377.129	10.41
377.496	10.56
377.863	10.95
378.229	10.66
378.596	10.62
378.963	10.86
379.329	10.8
379.696	10.83
380.062	10.65
380.429	11.14
380.795	10.73
381.161	11.1
381.528	11.16
381.894	10.99
382.26	11.03
382.626	10.88
382.993	11.25
383.359	11.36
383.725	11.23
384.091	11.3
384.457	11.28
384.823	11.02
385.188	11.27
385.554	11.23
385.92	11.28
386.286	11.45
386.651	11.34
387.017	11.68
387.383	11.41
387.748	11.64
388.114	11.57
388.479	11.86
388.845	11.53
389.21	11.61
389.575	11.62
389.94	11.55
390.306	11.5
390.671	11.53
391.036	11.8
391.401	11.78
391.766	11.78
392.131	11.71
392.496	11.52
392.861	11.79
393.226	11.73
393.591	11.65
393.956	11.97
394.32	11.91
394.685	11.72
395.05	12.12
395.414	12
395.779	11.99
396.143	12.06
396.508	11.94
396.872	12
397.236	12.16
397.601	12.19
397.965	12.44
398.329	12.75
398.694	12.12
399.058	12.42
399.422	12.7
399.786	12.6
400.15	12.36
400.514	12.61
400.878	12.27
401.242	12.26
401.605	12.82
401.969	12.71
402.333	12.66
402.697	12.47
403.06	12.68
403.424	12.49
403.787	12.73
404.151	12.82
404.514	12.53
404.878	12.51
405.241	12.58
405.604	12.41
405.968	12.59
406.331	12.77
406.694	12.76
407.057	12.59
407.42	13.17
407.783	12.93
408.146	13.05
408.509	13.05
408.872	12.92
409.235	13.13
409.598	12.99
409.961	13.18
410.323	13.21
410.686	13.28
411.049	13.18
411.411	13.2
411.774	13.11
412.136	13.18
412.499	13.05
412.861	13.29
413.223	13.54
413.586	13.5
413.948	13.5
414.31	13.3
414.672	13.37
415.035	13.63
415.397	13.44
415.759	13.5
416.121	13.71
416.483	13.49
416.845	13.57
417.206	13.6
417.568	13.65
417.93	13.64
418.292	13.63
418.653	13.56
419.015	13.67
419.377	13.57
419.738	13.53
420.1	13.64
420.461	13.53
420.822	13.66
421.184	13.64
421.545	13.73
421.906	13.85
422.267	13.63
422.629	13.61
422.99	13.67
423.351	13.65
423.712	13.83
424.073	13.85
424.434	14.04
424.795	14.11
425.155	13.98
425.516	13.89
425.877	13.97
426.238	13.92
426.598	14.06
426.959	14.2
427.32	14.33
427.68	14.48
428.041	14.54
428.401	14.67
428.761	14.75
429.122	14.96
429.482	14.98
429.842	15.12
430.202	15.23
430.563	14.81
430.923	15.02
431.283	15.04
431.643	15.04
432.003	15.07
432.363	15.13
432.722	15.16
433.082	15.02
433.442	15.06
433.802	15.06
434.161	14.99
434.521	15.1
434.881	14.83
435.24	14.95
435.6	15.09
435.959	15.23
436.319	15.19
436.678	15.52
437.037	15.62
437.396	15.61
437.756	15.7
438.115	15.55
438.474	15.56
438.833	15.62
439.192	15.82
439.551	15.73
439.91	15.73
440.269	15.9
440.628	15.63
440.987	15.55
441.345	15.47
441.704	15.59
442.063	15.57
442.421	15.55
442.78	15.74
443.138	15.83
443.497	16.04
443.855	16.13
444.214	16.23
444.572	16.2
444.93	16.23
445.288	16.46
445.647	16.53
446.005	16.38
446.363	16.1
446.721	16.1
447.079	15.85
447.437	15.88
447.795	15.97
448.153	15.79
448.51	15.92
448.868	16.16
449.226	16.3
449.584	16.36
449.941	16.6
450.299	16.64
450.656	16.76
451.014	16.99
451.371	16.85
451.729	16.86
452.086	17.08
452.443	17.12
452.801	17.05
453.158	17
453.515	17.05
453.872	17.03
454.229	16.99
454.586	17.09
454.943	17.24
455.3	17.17
455.657	17.36
456.014	17.41
456.371	17.17
456.727	17.38
457.084	17.29
457.441	17.43
457.797	17.42
458.154	17.62
458.51	17.61
458.867	17.76
459.223	17.54
459.58	17.64
459.936	17.63
460.292	17.36
460.648	17.49
461.005	17.4
461.361	17.15
461.717	17.19
462.073	17.43
462.429	17.61
462.785	17.91
463.141	18.08
463.496	18.25
463.852	18.42
464.208	18.18
464.564	18.31
464.919	18.42
465.275	18.17
465.631	18.31
465.986	18.4
466.342	18.21
466.697	18.34
467.052	18.48
467.408	18.56
467.763	18.45
468.118	18.43
468.473	18.44
468.829	18.39
469.184	18.56
469.539	18.58
469.894	18.63
470.249	18.79
470.603	18.71
470.958	18.75
471.313	18.82
471.668	18.81
472.023	18.83
472.377	18.81
472.732	18.84
473.086	19.03
473.441	19.06
473.795	19.11
474.15	19.06
474.504	19.09
474.859	19.01
475.213	19.31
475.567	19.2
475.921	19.45
476.275	19.37
476.63	19.43
476.984	19.43
477.338	19.38
477.692	19.48
478.045	19.29
478.399	19.4
478.753	19.64
479.107	19.35
479.461	19.43
479.814	19.49
480.168	19.51
480.521	19.71
480.875	19.71
481.228	19.9
481.582	19.76
481.935	19.79
482.289	19.71
482.642	19.63
482.995	19.76
483.348	19.57
483.701	19.75
484.055	19.63
484.408	19.58
484.761	19.29
485.114	18.91
485.466	18.61
485.819	18.87
486.172	19.18
486.525	19.46
486.878	19.86
487.23	19.89
487.583	20.12
487.936	20.07
488.288	19.91
488.641	19.62
488.993	19.52
489.345	19.54
489.698	19.6
490.05	19.84
490.402	19.97
490.754	20.21
491.107	20.41
491.459	20.56
491.811	20.72
492.163	20.72
492.515	20.47
492.866	20.19
493.218	19.77
493.57	19.98
493.922	20.2
494.274	20.48
494.625	20.85
494.977	21.04
495.328	21.24
495.68	21.16
496.031	21.31
496.383	21.43
496.734	21.5
497.086	21.42
497.437	21.48
497.788	21.2
498.139	21.25
498.49	21.19
498.842	21.2
499.193	21.36
499.544	21.42
499.894	21.47
500.245	21.42
500.596	21.7
500.947	21.63
501.298	21.76
501.648	21.92
501.999	21.89
502.35	22.04
502.7	21.94
503.051	22.04
503.401	22.08
503.752	22.01
504.102	22.18
504.452	22.16
504.803	22.2
505.153	22.13
505.503	22.16
505.853	22.2
506.203	22.15
506.553	22.31
506.903	22.39
507.253	22.33
507.603	22.53
507.953	22.5
508.303	22.42
508.652	22.46
509.002	22.44
509.352	22.56
509.701	22.33
510.051	22.39
510.4	22.37
510.75	22.34
511.099	22.51
511.449	22.54
511.798	22.56
512.147	22.71
512.496	22.77
512.846	22.79
513.195	22.89
513.544	22.9
513.893	22.86
514.242	22.89
514.591	22.97
514.939	23.19
515.288	23.19
515.637	23.15
515.986	23.37
516.334	23.39
516.683	23.34
517.032	23.44
517.38	23.52
517.729	23.71
518.077	23.53
518.426	23.69
518.774	23.41
519.122	23.52
519.47	23.49
519.819	23.32
520.167	23.13
520.515	23.13
520.863	23.34
521.211	23.57
521.559	23.69
521.907	23.66
522.255	23.93
522.602	24.03
522.95	24.22
523.298	24.25
523.645	24.31
523.993	24.31
524.341	24.37
524.688	24.19
525.036	24.51
525.383	24.36
525.73	24.59
526.078	24.39
526.425	24.4
526.772	24.23
527.119	24.06
527.466	23.91
527.814	24.03
528.161	24.32
528.508	24.5
528.854	24.56
529.201	24.51
529.548	24.33
529.895	23.77
530.242	23.43
530.588	23.68
530.935	24.03
531.282	24.34
531.628	24.52
531.975	24.72
532.321	24.86
532.667	24.98
533.014	25.04
533.36	25.22
533.706	24.96
534.052	24.99
534.399	24.74
534.745	24.5
535.091	24.35
535.437	24.74
535.783	25.04
536.129	25.25
536.474	25.44
536.82	25.63
537.166	25.73
537.512	25.79
537.857	25.57
538.203	25.22
538.549	25.2
538.894	25.58
539.239	25.64
539.585	25.93
539.93	26.05
540.276	26.06
540.621	26.19
540.966	26.37
541.311	26.3
541.656	26.03
542.001	26.14
542.346	25.78
542.691	25.34
543.036	25.1
543.381	25.37
543.726	25.68
544.071	25.89
544.415	26.02
544.76	26.16
545.105	26.15
545.449	26.39
545.794	26.56
546.138	26.65
546.483	26.73
546.827	26.74
547.171	26.7
547.516	26.81
547.86	26.89
548.204	26.65
548.548	26.49
548.892	26.56
549.236	26.91
549.58	27.11
549.924	27.29
550.268	27.55
550.612	27.57
550.956	27.62
551.3	27.6
551.643	27.58
551.987	27.71
552.33	27.8
552.674	27.73
553.017	27.88
553.361	27.76
553.704	27.65
554.048	27.52
554.391	27.62
554.734	27.82
555.077	27.79
555.42	27.9
555.764	28
556.107	28.08
556.45	28.21
556.793	28.24
557.135	28.35
557.478	28.26
557.821	28.51
558.164	28.31
558.507	28.48
558.849	28.56
559.192	28.43
559.534	28.61
559.877	28.51
560.219	28.46
560.562	28.72
560.904	28.77
561.246	28.72
561.589	28.81
561.931	28.94
562.273	29.11
562.615	28.87
562.957	28.84
563.299	28.9
563.641	28.99
563.983	29.11
564.325	29.05
564.667	29.22
565.008	29.08
565.35	29.37
565.692	29.12
566.033	29.42
566.375	29.62
566.716	29.53
567.058	29.27
567.399	29.24
567.741	29.08
568.082	29.2
568.423	29.23
568.764	29.47
569.105	29.77
569.447	29.8
569.788	29.98
570.129	29.94
570.47	30
570.811	30.05
571.151	30.09
571.492	29.95
571.833	29.86
572.174	30.33
572.514	30.25
572.855	30
573.195	30.02
573.536	30.15
573.876	29.88
574.217	30.17
574.557	30.18
574.898	30.4
575.238	30.47
575.578	30.62
575.918	30.51
576.258	30.59
576.598	30.59
576.938	30.51
577.278	30.52
577.618	30.61
577.958	30.98
578.298	30.96
578.638	30.89
578.977	30.84
579.317	31.32
579.657	31.21
579.996	31.11
580.336	31.17
580.675	31.37
581.014	31.28
581.354	31.4
581.693	31.3
582.032	31.54
582.372	31.83
582.711	31.38
583.05	31.38
583.389	31.77
583.728	31.77
584.067	31.93
584.406	31.87
584.745	31.78
585.083	31.58
585.422	31.88
585.761	31.91
586.1	31.96
586.438	31.9
586.777	31.88
587.115	31.95
587.454	31.84
587.792	32.36
588.13	32.11
588.469	31.89
588.807	32.05
589.145	32.22
589.483	32.27
589.821	32.37
590.159	32.43
590.497	32.18
590.835	32.33
591.173	32.47
591.511	32.58
591.849	32.34
592.187	32.73
592.524	32.69
592.862	33.15
593.2	32.88
593.537	32.94
593.875	32.86
594.212	33
594.55	33.18
594.887	33.11
595.224	32.84
595.561	32.84
595.899	32.82
596.236	33.01
596.573	33.04
596.91	33.32
597.247	33.48
597.584	33.27
597.921	33.56
598.258	32.93
598.594	32.98
598.931	32.82
599.268	33.2
599.604	33.51
599.941	33.63
600.277	33.64
600.614	33.66
600.95	33.82
601.287	34.11
601.623	34.1
601.959	33.78
602.296	34.18
602.632	34.04
602.968	33.97
603.304	34.42
603.64	33.93
603.976	34.2
604.312	34.14
604.648	34.05
604.984	33.83
605.319	33.82
605.655	33.88
605.991	33.73
606.326	33.72
606.662	33.94
606.998	34.36
607.333	34.48
607.668	34.64
608.004	34.94
608.339	34.77
608.674	35.13
609.01	34.9
609.345	34.92
609.68	35.22
610.015	35.18
610.35	35.07
610.685	34.78
611.02	34.46
611.355	34.53
611.689	34.8
612.024	34.88
612.359	35.1
612.694	35.08
613.028	35.41
613.363	35.69
613.697	35.63
614.032	35.32
614.366	35.77
614.7	35.91
615.035	35.99
615.369	35.57
615.703	35.79
616.037	35.94
616.371	35.89
616.705	35.59
617.039	35.53
617.373	35.75
617.707	36.08
618.041	36.05
618.375	36.01
618.709	35.71
619.042	35.81
619.376	35.86
619.71	36.21
620.043	36.11
620.377	36.28
620.71	36.24
621.043	36.15
621.377	35.92
621.71	36.53
622.043	36.46
622.376	36.44
622.709	36.38
623.043	36.64
623.376	36.8
623.709	36.53
624.041	36.73
624.374	36.51
624.707	36.79
625.04	36.67
625.373	36.76
625.705	36.87
626.038	36.93
626.37	37.03
626.703	36.92
627.035	36.99
627.368	37.27
627.7	36.93
628.032	36.84
628.365	37.01
628.697	36.74
629.029	37.01
629.361	36.96
629.693	37.16
630.025	37.26
630.357	37.31
630.689	37.32
631.021	37.2
631.353	37.75
631.684	37.33
632.016	38.1
632.348	37.33
632.679	37.75
633.011	37.85
633.342	37.64
633.674	37.87
634.005	37.92
634.336	37.99
634.668	37.83
634.999	37.77
635.33	38.01
635.661	37.53
635.992	37.84
636.323	38.1
636.654	38.54
636.985	38.1
637.316	38.12
637.647	38.27
637.977	37.99
638.308	38.42
638.639	38.02
638.969	38.41
639.3	38.4
639.63	38.76
639.961	38.59
640.291	38.62
640.622	38.81
640.952	38.73
641.282	38.97
641.612	39.16
641.943	38.8
642.273	38.63
642.603	38.88
642.933	38.68
643.263	38.9
643.592	39.6
643.922	39.26
644.252	39.36
644.582	39.6
644.911	39.31
645.241	39.1
645.571	39.74
645.9	39.14
646.23	39.28
646.559	38.68
646.888	39.18
647.218	39.56
647.547	39.59
647.876	38.78
648.205	39.41
648.534	39.96
648.863	39.76
649.192	39.34
649.521	38.96
649.85	39.33
650.179	39.17
650.508	39.28
650.837	39.87
651.165	39.8
651.494	39.91
651.822	39.88
652.151	39.39
652.479	39.8
652.808	39.93
653.136	40.21
653.465	40
653.793	39.73
654.121	39.76
654.449	39.98
654.777	40.25
655.105	40.65
655.433	40.5
655.761	40.37
656.089	40.28
656.417	40.58
656.745	40.6
657.073	39.68
657.4	40.74
657.728	40.58
658.056	41.05
658.383	40.95
658.711	40.66
659.038	40.97
659.365	40.71
659.693	41.35
660.02	41.24
660.347	40.51
660.674	39.87
661.001	40.64
661.329	40.54
661.656	40.88
661.982	41.41
662.309	41.01
662.636	41.39
662.963	41.61
663.29	41.63
663.616	41.58
663.943	41.5
664.27	41.25
664.596	41.03
664.923	41.58
665.249	41.44
665.576	41.97
665.902	41.63
666.228	41.57
666.554	41.45
666.881	41.44
667.207	41.17
667.533	41.4
667.859	42.09
668.185	41.21
668.511	41.52
668.837	42.06
669.162	41.42
669.488	40.97
669.814	40.94
670.139	41.18
670.465	41.88
670.791	41.87
671.116	41.73
671.442	41.71
671.767	42.32
672.092	42.23
672.418	42.3
