Data from 97279_crown_Reflection__0__11.txt Node

Date: Fri Sep 23 19:31:32 CDT 2022
User: ToomeyLab
Spectrometer: FLMS14357
Trigger mode: 0
Integration Time (sec): 1.000000E-2
Scans to average: 100
Electric dark correction enabled: true
Nonlinearity correction enabled: false
Boxcar width: 0
XAxis mode: Wavelengths
Number of Pixels in Spectrum: 2048
>>>>>Begin Spectral Data<<<<<
189.047	-370.99
189.435	-370.99
189.823	-370.99
190.211	1033.72
190.599	-112.24
190.987	27.14
191.375	-181.85
191.763	106.13
192.151	-147
192.538	90.95
192.926	-71.95
193.314	239.39
193.702	6090.74
194.089	-147.99
194.477	75.7
194.864	185.99
195.252	-16.19
195.639	108.26
196.027	31.21
196.414	-666.44
196.801	3.11
197.189	394.97
197.576	73.12
197.963	-216.74
198.351	27.57
198.738	-60.39
199.125	28.66
199.512	14.12
199.899	28.93
200.286	22.99
200.673	20.25
201.06	9.08
201.447	49.79
201.833	8.04
202.22	-12.48
202.607	26.66
202.994	-26.94
203.38	-35.88
203.767	-20.23
204.154	22.42
204.54	16.76
204.927	32.08
205.313	33.97
205.699	-19.72
206.086	13.73
206.472	29.62
206.858	17.62
207.245	-2.01
207.631	28.35
208.017	-0.76
208.403	16.3
208.789	21.2
209.175	22.36
209.561	16.29
209.947	18.81
210.333	-15.74
210.719	-22.45
211.105	27.55
211.491	-20.95
211.876	8.64
212.262	0.54
212.648	19.81
213.034	-28.32
213.419	-11.47
213.805	47.37
214.19	-3.05
214.576	6.24
214.961	21.53
215.346	-6.96
215.732	7.84
216.117	7.01
216.502	13.67
216.888	4.22
217.273	28.41
217.658	-24.82
218.043	17.5
218.428	-12.3
218.813	19.47
219.198	-0.24
219.583	18.45
219.968	25.79
220.353	-3.73
220.738	2.24
221.122	9.71
221.507	10.34
221.892	7.13
222.276	5.14
222.661	-1.12
223.046	7.87
223.43	10.96
223.815	11.93
224.199	2.32
224.583	5.88
224.968	3.25
225.352	1.91
225.736	6.33
226.121	6.88
226.505	11.3
226.889	3.64
227.273	7.6
227.657	4.35
228.041	6.25
228.425	6.17
228.809	8.73
229.193	7.64
229.577	7.76
229.961	6.6
230.344	7.48
230.728	5.89
231.112	6.21
231.495	6.61
231.879	5.37
232.263	6
232.646	8.25
233.03	8.29
233.413	7.11
233.797	8.12
234.18	7.31
234.563	6.18
234.946	7.34
235.33	6.81
235.713	6.87
236.096	5.35
236.479	6.69
236.862	7.76
237.245	7.13
237.628	6.95
238.011	8.26
238.394	6.47
238.777	7.24
239.16	5.87
239.543	5.72
239.925	7.22
240.308	7.46
240.691	6.68
241.073	5.41
241.456	7.11
241.838	8.04
242.221	6.75
242.603	7.26
242.986	5.78
243.368	5.77
243.75	6.4
244.133	6.36
244.515	6.23
244.897	6.82
245.279	6.82
245.661	7.34
246.043	7.23
246.425	6.35
246.807	5.45
247.189	6.5
247.571	6.19
247.953	6.06
248.335	6.32
248.717	6.3
249.098	6.13
249.48	6.38
249.862	6.31
250.243	6.47
250.625	6.04
251.006	6.59
251.388	5.81
251.769	6.22
252.151	5.55
252.532	6.27
252.913	6.76
253.295	5.84
253.676	6.39
254.057	6.27
254.438	6.38
254.819	6.78
255.2	5.82
255.581	5.95
255.962	6.31
256.343	6.35
256.724	5.37
257.105	6.26
257.486	5.86
257.867	5.91
258.247	6.64
258.628	6.1
259.009	5.98
259.389	6.18
259.77	5.01
260.15	5.7
260.531	5.71
260.911	5.58
261.292	5.63
261.672	5.43
262.052	5.42
262.432	5.69
262.813	5.93
263.193	6.14
263.573	5.92
263.953	5.42
264.333	5.43
264.713	6.1
265.093	5.7
265.473	6.34
265.853	5.15
266.233	5.17
266.612	5.72
266.992	6.37
267.372	5.51
267.752	6.19
268.131	5.21
268.511	5.62
268.89	5.68
269.27	5.65
269.649	5.27
270.029	5.57
270.408	5.42
270.787	4.85
271.167	5.31
271.546	4.92
271.925	5.21
272.304	5.34
272.683	5.23
273.062	5.09
273.441	5.75
273.82	5.34
274.199	5.1
274.578	5.12
274.957	5.08
275.336	5.46
275.715	5.25
276.093	5.92
276.472	5.84
276.851	5.22
277.229	5.35
277.608	5.22
277.986	4.57
278.365	5.51
278.743	5.52
279.122	4.98
279.5	5.52
279.878	4.94
280.257	4.53
280.635	4.93
281.013	5.34
281.391	4.96
281.769	5.3
282.147	4.98
282.525	4.87
282.903	5
283.281	5.29
283.659	5.18
284.037	4.82
284.415	4.94
284.792	4.97
285.17	5.01
285.548	4.49
285.925	5.17
286.303	4.9
286.68	5.08
287.058	4.75
287.435	4.74
287.813	5.14
288.19	4.77
288.567	5.23
288.945	5.38
289.322	4.93
289.699	5.05
290.076	4.87
290.453	4.59
290.83	4.86
291.207	4.76
291.584	5.07
291.961	4.89
292.338	4.69
292.715	4.53
293.092	4.52
293.469	4.74
293.845	4.96
294.222	4.81
294.599	4.3
294.975	4.73
295.352	4.82
295.728	4.46
296.105	4.41
296.481	4.68
296.858	4.59
297.234	4.39
297.61	4.29
297.986	4.64
298.363	4.32
298.739	4.57
299.115	4.48
299.491	4.32
299.867	4.43
300.243	4.6
300.619	5.22
300.995	4.89
301.371	4.1
301.746	4.64
302.122	4.43
302.498	4.49
302.874	4.23
303.249	4.76
303.625	4.45
304	4.46
304.376	4.53
304.751	4.44
305.127	4.52
305.502	4.8
305.878	4.2
306.253	4.3
306.628	4.29
307.003	4.06
307.378	4.28
307.754	5.19
308.129	4.34
308.504	4.49
308.879	4.05
309.254	4.63
309.629	4.56
310.003	4.32
310.378	4.63
310.753	4.11
311.128	4.15
311.502	4.05
311.877	4.58
312.252	4.26
312.626	4
313.001	4.43
313.375	4.43
313.75	4.01
314.124	3.95
314.498	4.76
314.873	4.19
315.247	4.51
315.621	4.18
315.995	4.13
316.369	4.17
316.743	3.68
317.117	3.99
317.491	4.25
317.865	4.16
318.239	5.06
318.613	3.72
318.987	4.23
319.361	4.26
319.734	3.83
320.108	4.28
320.482	3.99
320.855	4.3
321.229	4.04
321.602	4.34
321.976	4.51
322.349	4.13
322.723	4.06
323.096	4.43
323.469	3.69
323.843	4.15
324.216	4.56
324.589	4.3
324.962	3.85
325.335	3.85
325.708	4.57
326.081	3.95
326.454	4.23
326.827	4.16
327.2	4.03
327.573	4.21
327.945	4.53
328.318	3.83
328.691	4.23
329.063	4.33
329.436	4.44
329.809	4.39
330.181	3.81
330.553	3.97
330.926	4.22
331.298	4.46
331.671	4.19
332.043	4.04
332.415	4.17
332.787	4.06
333.159	4.15
333.532	3.64
333.904	3.89
334.276	3.44
334.648	4
335.02	4.26
335.391	4.05
335.763	3.7
336.135	4.01
336.507	4.05
336.879	3.72
337.25	4.43
337.622	4.23
337.993	4.13
338.365	3.97
338.736	4.32
339.108	4.18
339.479	3.94
339.851	4.18
340.222	4.31
340.593	4.19
340.964	4.17
341.336	4.09
341.707	4.71
342.078	4.31
342.449	4.16
342.82	4.12
343.191	4.07
343.562	3.93
343.933	4.32
344.303	4.19
344.674	4.03
345.045	4.45
345.416	3.94
345.786	4.68
346.157	3.96
346.527	4.04
346.898	4.67
347.268	4.06
347.639	4.06
348.009	4.12
348.38	4.34
348.75	4.33
349.12	4.21
349.49	4.16
349.861	4.08
350.231	3.65
350.601	3.5
350.971	4.47
351.341	4
351.711	4.13
352.081	4.05
352.45	3.79
352.82	4.15
353.19	4.22
353.56	4.49
353.929	4.34
354.299	4.18
354.669	4.28
355.038	4.44
355.408	4.17
355.777	4.29
356.147	4
356.516	4.46
356.885	4.25
357.254	4.13
357.624	4.1
357.993	4.46
358.362	4.01
358.731	4.42
359.1	4.09
359.469	3.98
359.838	4.24
360.207	4.43
360.576	4.24
360.945	4.04
361.314	4.06
361.682	4.26
362.051	4.32
362.42	4.62
362.788	4.25
363.157	4.46
363.525	4.43
363.894	4.33
364.262	4.19
364.631	4.29
364.999	4.47
365.367	4.04
365.735	4.39
366.104	4.42
366.472	4.36
366.84	4.39
367.208	4.31
367.576	4.53
367.944	4.43
368.312	4.8
368.68	4.44
369.048	4.47
369.416	4.6
369.783	4.46
370.151	4.64
370.519	4.3
370.886	4.61
371.254	4.59
371.621	4.52
371.989	4.5
372.356	4.7
372.724	4.27
373.091	4.42
373.458	4.36
373.826	4.31
374.193	4.44
374.56	4.69
374.927	4.49
375.294	4.56
375.661	4.55
376.028	4.25
376.395	4.59
376.762	4.2
377.129	4.23
377.496	4.7
377.863	4.59
378.229	4.33
378.596	4.41
378.963	4.42
379.329	4.49
379.696	4.48
380.062	4.51
380.429	4.63
380.795	4.33
381.161	4.46
381.528	4.69
381.894	4.29
382.26	4.69
382.626	4.55
382.993	4.74
383.359	4.44
383.725	4.89
384.091	4.63
384.457	4.52
384.823	4.35
385.188	4.76
385.554	4.61
385.92	4.78
386.286	4.67
386.651	4.81
387.017	4.69
387.383	4.71
387.748	4.52
388.114	4.64
388.479	4.63
388.845	4.56
389.21	4.52
389.575	4.48
389.94	4.49
390.306	4.33
390.671	4.74
391.036	4.97
391.401	4.92
391.766	4.62
392.131	4.58
392.496	4.66
392.861	4.68
393.226	4.63
393.591	4.59
393.956	4.66
394.32	4.68
394.685	4.46
395.05	4.84
395.414	4.64
395.779	4.5
396.143	4.77
396.508	4.61
396.872	4.71
397.236	4.92
397.601	4.71
397.965	4.97
398.329	4.82
398.694	4.83
399.058	4.85
399.422	4.91
399.786	4.98
400.15	4.69
400.514	4.74
400.878	4.72
401.242	4.67
401.605	4.9
401.969	4.76
402.333	4.66
402.697	4.65
403.06	4.91
403.424	4.65
403.787	4.95
404.151	4.72
404.514	4.88
404.878	4.87
405.241	4.87
405.604	4.63
405.968	4.73
406.331	4.74
406.694	4.78
407.057	4.7
407.42	4.81
407.783	4.88
408.146	4.95
408.509	4.8
408.872	4.77
409.235	4.96
409.598	4.85
409.961	5.05
410.323	4.73
410.686	4.93
411.049	4.89
411.411	4.96
411.774	4.61
412.136	4.73
412.499	4.72
412.861	4.71
413.223	4.61
413.586	4.87
413.948	5.02
414.31	4.75
414.672	5.01
415.035	4.98
415.397	5.02
415.759	5.14
416.121	5.1
416.483	4.79
416.845	4.8
417.206	4.99
417.568	5.05
417.93	4.79
418.292	4.81
418.653	5
419.015	5.03
419.377	4.8
419.738	4.91
420.1	4.89
420.461	4.83
420.822	4.95
421.184	4.88
421.545	4.87
421.906	4.85
422.267	4.79
422.629	4.73
422.99	4.86
423.351	4.9
423.712	4.87
424.073	4.75
424.434	4.88
424.795	4.91
425.155	4.9
425.516	4.89
425.877	4.79
426.238	4.85
426.598	4.8
426.959	4.88
427.32	5
427.68	4.93
428.041	4.93
428.401	5.07
428.761	5.02
429.122	5.06
429.482	5.11
429.842	5.21
430.202	5.24
430.563	5.08
430.923	4.95
431.283	5.16
431.643	5.06
432.003	4.96
432.363	5.2
432.722	5.17
433.082	4.98
433.442	4.96
433.802	4.99
434.161	4.99
434.521	4.98
434.881	4.99
435.24	4.85
435.6	4.97
435.959	5.06
436.319	5.05
436.678	5.09
437.037	5.21
437.396	5.13
437.756	5.14
438.115	5.16
438.474	5.09
438.833	5.18
439.192	5.12
439.551	5.07
439.91	5.12
440.269	5.06
440.628	5
440.987	4.93
441.345	4.99
441.704	4.99
442.063	5.01
442.421	4.92
442.78	4.97
443.138	5.01
443.497	5.09
443.855	5.09
444.214	5.11
444.572	5.08
444.93	4.98
445.288	5.19
445.647	5.22
446.005	5.15
446.363	5.19
446.721	5
447.079	5
447.437	5.02
447.795	5.03
448.153	4.77
448.51	4.92
448.868	4.93
449.226	5.1
449.584	5.11
449.941	5.11
450.299	5.19
450.656	5.06
451.014	5.17
451.371	4.95
451.729	5.11
452.086	5.28
452.443	5.08
452.801	5.17
453.158	5.16
453.515	5.16
453.872	5.19
454.229	5.29
454.586	5.15
454.943	5.17
455.3	5.05
455.657	5.08
456.014	5.14
456.371	5.16
456.727	5.19
457.084	5.13
457.441	5.49
457.797	5.13
458.154	5.19
458.51	5.12
458.867	5.35
459.223	5.15
459.58	5.28
459.936	5.09
460.292	5.08
460.648	5.22
461.005	5.1
461.361	5
461.717	5.04
462.073	5.07
462.429	4.99
462.785	5.22
463.141	5.14
463.496	5.21
463.852	5.3
464.208	5.16
464.564	5.37
464.919	5.28
465.275	5.23
465.631	5.09
465.986	5.09
466.342	5.22
466.697	5.14
467.052	5.13
467.408	5.16
467.763	5.13
468.118	5.31
468.473	5.32
468.829	5.06
469.184	5.19
469.539	5.1
469.894	5.17
470.249	5.19
470.603	5.24
470.958	5.2
471.313	5.25
471.668	5.16
472.023	5.23
472.377	5.2
472.732	5.2
473.086	5.1
473.441	5.21
473.795	5.38
474.15	5.2
474.504	5.28
474.859	5.29
475.213	5.37
475.567	5.19
475.921	5.3
476.275	5.11
476.63	5.37
476.984	5.37
477.338	5.09
477.692	5.19
478.045	5.1
478.399	5.28
478.753	5.37
479.107	5.1
479.461	5.11
479.814	5.18
480.168	5.14
480.521	5.25
480.875	5.18
481.228	5.3
481.582	5.21
481.935	5.28
482.289	5.13
482.642	5.12
482.995	5.42
483.348	5.05
483.701	5.19
484.055	5.18
484.408	4.97
484.761	5.01
485.114	4.86
485.466	4.77
485.819	4.81
486.172	4.86
486.525	4.96
486.878	4.98
487.23	5.06
487.583	5.15
487.936	5.16
488.288	5.07
488.641	4.99
488.993	4.94
489.345	4.96
489.698	4.89
490.05	5.06
490.402	5.02
490.754	5.13
491.107	5.16
491.459	5.08
491.811	5.16
492.163	5.22
492.515	5.26
492.866	5.05
493.218	4.91
493.57	4.91
493.922	4.99
494.274	5.06
494.625	5.15
494.977	5.18
495.328	5.33
495.68	5.28
496.031	5.21
496.383	5.37
496.734	5.29
497.086	5.33
497.437	5.3
497.788	5.18
498.139	5.22
498.49	5.09
498.842	5.16
499.193	5.23
499.544	5.17
499.894	5.22
500.245	5.32
500.596	5.26
500.947	5.17
501.298	5.25
501.648	5.39
501.999	5.23
502.35	5.26
502.7	5.21
503.051	5.08
503.401	5.19
503.752	5.2
504.102	5.32
504.452	5.2
504.803	5.21
505.153	5.23
505.503	5.15
505.853	5.28
506.203	5.26
506.553	5.22
506.903	5.28
507.253	5.22
507.603	5.14
507.953	5.19
508.303	5.19
508.652	5.25
509.002	5.25
509.352	5.13
509.701	5.11
510.051	5.16
510.4	5.17
510.75	5.05
511.099	5.17
511.449	5.08
511.798	5.26
512.147	5.23
512.496	5.07
512.846	5.17
513.195	5.11
513.544	5.22
513.893	5.26
514.242	5.14
514.591	5.17
514.939	5.16
515.288	5.3
515.637	5.12
515.986	5.13
516.334	5.26
516.683	5.32
517.032	5.21
517.38	5.26
517.729	5.2
518.077	5.19
518.426	5.27
518.774	5.17
519.122	5.18
519.47	5.13
519.819	5.14
520.167	5.06
520.515	5.1
520.863	5.15
521.211	5.07
521.559	5.18
521.907	5.18
522.255	5.14
522.602	5.22
522.95	5.29
523.298	5.26
523.645	5.26
523.993	5.22
524.341	5.27
524.688	5.22
525.036	5.17
525.383	5.2
525.73	5.28
526.078	5.21
526.425	5.18
526.772	5.13
527.119	5.02
527.466	4.99
527.814	5.02
528.161	5.11
528.508	5.18
528.854	5.23
529.201	5.06
529.548	5.04
529.895	4.89
530.242	4.8
530.588	4.83
530.935	4.88
531.282	4.94
531.628	4.93
531.975	5.04
532.321	5.07
532.667	5.13
533.014	5.16
533.36	5.18
533.706	5.02
534.052	5.09
534.399	5.05
534.745	4.96
535.091	4.93
535.437	5
535.783	5
536.129	5.09
536.474	5.11
536.82	5.17
537.166	5.17
537.512	5.13
537.857	5.11
538.203	5.03
538.549	4.95
538.894	5.12
539.239	5.05
539.585	5.12
539.93	5.17
540.276	5.24
540.621	5.14
540.966	5.18
541.311	5.2
541.656	4.99
542.001	5.2
542.346	5.06
542.691	4.92
543.036	4.84
543.381	4.88
543.726	4.94
544.071	4.93
544.415	5
544.76	4.92
545.105	5.02
545.449	5.11
545.794	5.14
546.138	5.2
546.483	5.2
546.827	5.23
547.171	5.11
547.516	5.13
547.86	5.08
548.204	5.11
548.548	4.94
548.892	5.02
549.236	5.11
549.58	5.13
549.924	5.13
550.268	5.21
550.612	5.24
550.956	5.17
551.3	5.16
551.643	5.08
551.987	5.23
552.33	5.16
552.674	5.12
553.017	5.09
553.361	5.09
553.704	5.04
554.048	5.11
554.391	5.12
554.734	5.08
555.077	5.03
555.42	4.97
555.764	5.01
556.107	5.1
556.45	5.26
556.793	5.12
557.135	5.24
557.478	5.32
557.821	5.25
558.164	5.15
558.507	4.99
558.849	5.25
559.192	4.98
559.534	5.27
559.877	5.14
560.219	5.02
560.562	5.25
560.904	5.14
561.246	5.08
561.589	5.16
561.931	5.21
562.273	5.24
562.615	5.15
562.957	5.01
563.299	5.1
563.641	5.16
563.983	5.23
564.325	5.2
564.667	5.17
565.008	5.16
565.35	5.04
565.692	5.12
566.033	4.98
566.375	5.08
566.716	5.13
567.058	5.11
567.399	4.9
567.741	5.02
568.082	5.03
568.423	4.8
568.764	4.94
569.105	5.09
569.447	5.03
569.788	5.08
570.129	5.07
570.47	5.04
570.811	5
571.151	5.12
571.492	4.92
571.833	4.98
572.174	5
572.514	5
572.855	4.98
573.195	4.96
573.536	5
573.876	4.84
574.217	5.01
574.557	4.95
574.898	4.88
575.238	5.09
575.578	5.04
575.918	4.83
576.258	4.98
576.598	4.95
576.938	5.01
577.278	4.91
577.618	4.92
577.958	5.12
578.298	5.05
578.638	5.04
578.977	5.02
579.317	5.06
579.657	5.11
579.996	4.83
580.336	4.98
580.675	4.98
581.014	4.99
581.354	5.31
581.693	5.01
582.032	5.23
582.372	5.27
582.711	5.01
583.05	5.02
583.389	5.06
583.728	4.9
584.067	5.17
584.406	4.97
584.745	5.07
585.083	4.92
585.422	4.76
585.761	4.91
586.1	4.92
586.438	4.92
586.777	4.99
587.115	5.06
587.454	5.06
587.792	5
588.13	5.03
588.469	4.75
588.807	4.82
589.145	4.97
589.483	5.01
589.821	4.89
590.159	5.13
590.497	4.93
590.835	4.98
591.173	5.03
591.511	5.07
591.849	4.85
592.187	4.81
592.524	5
592.862	5.04
593.2	4.77
593.537	5.09
593.875	4.92
594.212	5.05
594.55	4.64
594.887	4.86
595.224	4.71
595.561	4.91
595.899	4.71
596.236	4.77
596.573	4.97
596.91	4.94
597.247	5.01
597.584	4.92
597.921	4.89
598.258	4.74
598.594	4.69
598.931	4.85
599.268	4.79
599.604	4.85
599.941	4.94
600.277	4.96
600.614	4.78
600.95	4.94
601.287	4.92
601.623	4.73
601.959	4.64
602.296	4.81
602.632	4.81
602.968	4.72
603.304	4.68
603.64	4.95
603.976	4.93
604.312	5.05
604.648	4.95
604.984	4.79
605.319	4.9
605.655	4.84
605.991	4.77
606.326	4.69
606.662	4.65
606.998	5
607.333	4.75
607.668	4.81
608.004	4.77
608.339	4.69
608.674	5.02
609.01	4.94
609.345	4.83
609.68	4.79
610.015	5.03
610.35	5.12
610.685	4.62
611.02	4.76
611.355	4.89
611.689	4.64
612.024	4.95
612.359	4.74
612.694	4.8
613.028	4.99
613.363	4.9
613.697	4.66
614.032	4.73
614.366	4.9
614.7	4.92
615.035	4.77
615.369	5
615.703	4.86
616.037	4.84
616.371	4.75
616.705	4.63
617.039	4.85
617.373	4.87
617.707	5.1
618.041	4.65
618.375	5.1
618.709	4.69
619.042	4.73
619.376	5.04
619.71	4.82
620.043	4.75
620.377	4.77
620.71	4.8
621.043	4.8
621.377	4.61
621.71	5.06
622.043	4.85
622.376	4.55
622.709	4.78
623.043	4.52
623.376	5.04
623.709	4.95
624.041	4.82
624.374	4.97
624.707	4.69
625.04	5.17
625.373	4.88
625.705	4.71
626.038	4.62
626.37	4.63
626.703	4.85
627.035	4.82
627.368	4.95
627.7	4.71
628.032	4.76
628.365	4.67
628.697	4.76
629.029	5.03
629.361	4.95
629.693	4.83
630.025	5.02
630.357	4.97
630.689	4.76
631.021	4.56
631.353	5.03
631.684	4.89
632.016	4.95
632.348	4.78
632.679	4.85
633.011	4.77
633.342	4.73
633.674	4.69
634.005	4.78
634.336	5.09
634.668	4.75
634.999	5.03
635.33	4.72
635.661	4.91
635.992	5.09
636.323	4.72
636.654	4.87
636.985	4.87
637.316	5.09
637.647	4.85
637.977	4.74
638.308	4.6
638.639	4.76
638.969	4.67
639.3	4.7
639.63	4.54
639.961	4.81
640.291	4.77
640.622	4.68
640.952	4.79
641.282	4.93
641.612	4.97
641.943	4.68
642.273	4.93
642.603	4.77
642.933	4.96
643.263	4.5
643.592	4.65
643.922	4.74
644.252	5.08
644.582	5.13
644.911	4.59
645.241	4.71
645.571	5.2
645.9	4.58
646.23	5.02
646.559	4.4
646.888	5.15
647.218	5.16
647.547	4.71
647.876	4.58
648.205	4.85
648.534	5.02
648.863	4.84
649.192	5.17
649.521	4.59
649.85	4.56
650.179	4.52
650.508	4.57
650.837	5.12
651.165	5.24
651.494	4.37
651.822	4.8
652.151	4.57
652.479	4.59
652.808	4.67
653.136	4.76
653.465	4.68
653.793	4.72
654.121	4.46
654.449	4.63
654.777	4.78
655.105	4.88
655.433	4.84
655.761	4.67
656.089	4.97
656.417	4.63
656.745	4.9
657.073	4.33
657.4	5.01
657.728	4.8
658.056	5
658.383	4.74
658.711	4.61
659.038	4.62
659.365	4.86
659.693	5.05
660.02	5.14
660.347	4.65
660.674	4.59
661.001	4.87
661.329	4.51
661.656	4.88
661.982	4.89
662.309	4.77
662.636	4.52
662.963	5.12
663.29	5.29
663.616	4.75
663.943	4.74
664.27	4.42
664.596	4.81
664.923	4.61
665.249	4.98
665.576	5.24
665.902	4.63
666.228	5.16
666.554	4.84
666.881	4.69
667.207	4.97
667.533	4.95
667.859	4.7
668.185	4.79
668.511	4.86
668.837	5.21
669.162	4.86
669.488	5.01
669.814	5.23
670.139	4.1
670.465	4.64
670.791	4.72
671.116	4.44
671.442	4.81
671.767	4.49
672.092	4.67
672.418	5.32
672.743	4.66
673.068	4.15
673.393	4.73
673.718	4.8
674.043	5.45
674.368	4.88
674.693	5.07
675.018	5.07
675.343	5.39
675.667	5.08
675.992	4.93
676.317	4.54
676.641	4.56
676.966	5.39
677.29	5.09
677.615	5.17
677.939	4.87
678.264	4.88
678.588	4.68
678.912	4.97
679.236	4.71
679.56	4.49
679.885	4.97
680.209	4.81
680.532	4.38
680.856	4.94
681.18	4.93
681.504	5.27
681.828	4.84
682.152	5.02
682.475	4.73
682.799	4.88
683.122	4.97
683.446	5.08
683.769	5.03
684.093	4.69
684.416	5.15
684.739	5.27
685.062	4.44
685.386	4.87
685.709	5.27
686.032	4.44
686.355	4.75
686.678	5.35
687.001	4.79
687.324	4.85
687.646	5.26
687.969	5.17
688.292	4.39
688.614	5.2
688.937	4.62
689.26	4.71
689.582	4.42
689.904	4.98
690.227	5.38
690.549	4.68
690.871	5.48
691.194	5.02
691.516	4.95
691.838	5.04
692.16	4.9
692.482	5.31
692.804	5.02
