Data from 97279_crown_Reflection__4__15.txt Node

Date: Fri Sep 23 19:32:21 CDT 2022
User: ToomeyLab
Spectrometer: FLMS14357
Trigger mode: 0
Integration Time (sec): 1.000000E-2
Scans to average: 100
Electric dark correction enabled: true
Nonlinearity correction enabled: false
Boxcar width: 0
XAxis mode: Wavelengths
Number of Pixels in Spectrum: 2048
>>>>>Begin Spectral Data<<<<<
189.047	-83.88
189.435	-83.88
189.823	-83.88
190.211	4417.44
190.599	-180.67
190.987	33.08
191.375	-349.74
191.763	114.59
192.151	-36.79
192.538	184.63
192.926	85.77
193.314	283.78
193.702	4605.56
194.089	-159.17
194.477	103.7
194.864	299.37
195.252	-160.48
195.639	60.09
196.027	-74.49
196.414	-681.51
196.801	112.6
197.189	-230.51
197.576	47.37
197.963	64.44
198.351	25.95
198.738	-37.47
199.125	23.18
199.512	54.46
199.899	4.54
200.286	26.04
200.673	22.67
201.06	32.19
201.447	43.6
201.833	39.2
202.22	8.25
202.607	18
202.994	-17.52
203.38	11.17
203.767	-64.49
204.154	11.73
204.54	32.79
204.927	23.96
205.313	22.18
205.699	-14.06
206.086	6.4
206.472	14.1
206.858	23.63
207.245	4.68
207.631	17.95
208.017	-2.4
208.403	18.41
208.789	23.24
209.175	51.41
209.561	49.84
209.947	-8.02
210.333	12.86
210.719	0.15
211.105	2.7
211.491	12.71
211.876	12.74
212.262	-6.35
212.648	-4.72
213.034	2.76
213.419	-24.97
213.805	37.49
214.19	26.99
214.576	9.18
214.961	10.02
215.346	-20.34
215.732	31.85
216.117	15.84
216.502	20.02
216.888	14.52
217.273	0.16
217.658	5.58
218.043	40.56
218.428	0.35
218.813	20.13
219.198	22.17
219.583	17.93
219.968	11.4
220.353	12.1
220.738	2.23
221.122	12.92
221.507	-0.35
221.892	13.83
222.276	-2.8
222.661	8.48
223.046	9.9
223.43	-1.37
223.815	5.71
224.199	6
224.583	12.27
224.968	4.31
225.352	12.24
225.736	4.08
226.121	10.77
226.505	3.16
226.889	4.58
227.273	9.78
227.657	3.39
228.041	3.55
228.425	6.72
228.809	4.12
229.193	6.47
229.577	5.52
229.961	4.31
230.344	3.74
230.728	3.96
231.112	4.25
231.495	3.83
231.879	3.31
232.263	5.17
232.646	4.31
233.03	4.34
233.413	5.11
233.797	6.11
234.18	8.13
234.563	1.97
234.946	5.71
235.33	4.34
235.713	4.94
236.096	1.39
236.479	4.56
236.862	4.28
237.245	5.51
237.628	5.13
238.011	4.61
238.394	4.29
238.777	4.58
239.16	4.14
239.543	4.62
239.925	5.28
240.308	5.26
240.691	4.45
241.073	3.5
241.456	2.5
241.838	5.61
242.221	5.21
242.603	5.16
242.986	3.88
243.368	3.92
243.75	4.34
244.133	4.57
244.515	3.98
244.897	4.44
245.279	4.72
245.661	5.06
246.043	4.82
246.425	3.67
246.807	3.15
247.189	4.87
247.571	4.26
247.953	4.17
248.335	4.1
248.717	4.11
249.098	4.06
249.48	4.25
249.862	4.1
250.243	4.36
250.625	4.55
251.006	4.97
251.388	4.16
251.769	4.27
252.151	2.37
252.532	4.44
252.913	4.42
253.295	3.68
253.676	4.32
254.057	3.66
254.438	4.34
254.819	4.41
255.2	4.69
255.581	5.17
255.962	3.54
256.343	4.79
256.724	2.86
257.105	4.5
257.486	3.49
257.867	4.51
258.247	4.21
258.628	3.69
259.009	3.01
259.389	3.63
259.77	3.53
260.15	4.18
260.531	3.79
260.911	4.01
261.292	3.76
261.672	3.51
262.052	3.53
262.432	3.95
262.813	4.47
263.193	3.42
263.573	4.09
263.953	3.2
264.333	3.86
264.713	4.1
265.093	3.95
265.473	4.51
265.853	3.95
266.233	2.86
266.612	3.87
266.992	4.13
267.372	3.67
267.752	3.85
268.131	4.23
268.511	3.57
268.89	3.78
269.27	3.61
269.649	3.89
270.029	3.78
270.408	3.8
270.787	3.12
271.167	3.4
271.546	3.15
271.925	3.23
272.304	3.92
272.683	3.51
273.062	3.36
273.441	3.4
273.82	3.72
274.199	2.95
274.578	3.33
274.957	3.43
275.336	3.17
275.715	3.33
276.093	4.2
276.472	4.48
276.851	3.88
277.229	3.35
277.608	3.94
277.986	3.33
278.365	3.62
278.743	3.98
279.122	3.33
279.5	3.43
279.878	3.41
280.257	3.16
280.635	3.78
281.013	3.91
281.391	3.24
281.769	3.49
282.147	3.14
282.525	3.51
282.903	3.57
283.281	3.33
283.659	3.34
284.037	3.66
284.415	3.4
284.792	3.11
285.17	3.6
285.548	3.17
285.925	3.58
286.303	3.78
286.68	3.5
287.058	3.27
287.435	3.22
287.813	3.44
288.19	3.08
288.567	3.21
288.945	3.47
289.322	3.2
289.699	3.2
290.076	3.36
290.453	3.27
290.83	3.39
291.207	3.33
291.584	3.46
291.961	3.17
292.338	3.41
292.715	3.11
293.092	3.11
293.469	3.4
293.845	3.47
294.222	3.45
294.599	2.79
294.975	3.38
295.352	3.32
295.728	2.85
296.105	3.13
296.481	3.35
296.858	3.12
297.234	3.14
297.61	2.73
297.986	3.05
298.363	3.01
298.739	3.14
299.115	2.99
299.491	2.88
299.867	3.12
300.243	3.26
300.619	3.61
300.995	3.08
301.371	2.8
301.746	3.5
302.122	3.53
302.498	3.04
302.874	2.89
303.249	3.02
303.625	3.16
304	2.97
304.376	2.72
304.751	2.67
305.127	2.94
305.502	3.45
305.878	2.85
306.253	3.2
306.628	2.92
307.003	2.37
307.378	3.01
307.754	3.47
308.129	2.96
308.504	3.23
308.879	2.55
309.254	3.25
309.629	3.19
310.003	3.08
310.378	3.08
310.753	2.94
311.128	2.67
311.502	2.93
311.877	2.81
312.252	2.73
312.626	2.89
313.001	2.98
313.375	3.09
313.75	3.01
314.124	3.01
314.498	3.13
314.873	3.34
315.247	2.73
315.621	3.52
315.995	3.08
316.369	2.84
316.743	2.41
317.117	2.36
317.491	2.5
317.865	2.98
318.239	3.42
318.613	2.54
318.987	2.78
319.361	2.23
319.734	2.96
320.108	2.63
320.482	2.86
320.855	2.41
321.229	3.18
321.602	2.91
321.976	3.62
322.349	3.07
322.723	3.01
323.096	3.04
323.469	2.78
323.843	2.41
324.216	3.24
324.589	3.15
324.962	2.67
325.335	2.93
325.708	2.81
326.081	2.6
326.454	2.43
326.827	2.78
327.2	2.77
327.573	2.9
327.945	3.34
328.318	2.38
328.691	2.93
329.063	2.95
329.436	2.81
329.809	3.56
330.181	2.89
330.553	2.41
330.926	2.88
331.298	3.26
331.671	2.86
332.043	3.22
332.415	2.56
332.787	2.92
333.159	3.09
333.532	2.63
333.904	2.95
334.276	2.79
334.648	2.82
335.02	2.79
335.391	2.95
335.763	3.01
336.135	2.77
336.507	3.16
336.879	3
337.25	3.44
337.622	3.34
337.993	2.73
338.365	2.65
338.736	3.05
339.108	3.25
339.479	2.9
339.851	3.26
340.222	3.05
340.593	2.43
340.964	3.35
341.336	2.78
341.707	3.38
342.078	2.62
342.449	2.73
342.82	2.87
343.191	2.82
343.562	2.98
343.933	3.43
344.303	2.61
344.674	3.22
345.045	3.01
345.416	3.19
345.786	3.25
346.157	3.03
346.527	2.8
346.898	3.02
347.268	2.74
347.639	2.97
348.009	2.82
348.38	2.84
348.75	2.92
349.12	2.72
349.49	2.88
349.861	3.33
350.231	2.83
350.601	2.68
350.971	3
351.341	2.57
351.711	3.02
352.081	2.87
352.45	2.67
352.82	2.52
353.19	3.31
353.56	2.89
353.929	2.43
354.299	2.88
354.669	2.99
355.038	3.24
355.408	2.4
355.777	2.94
356.147	2.72
356.516	3.05
356.885	2.99
357.254	2.94
357.624	2.96
357.993	3.26
358.362	2.73
358.731	2.93
359.1	2.95
359.469	2.49
359.838	2.79
360.207	2.88
360.576	2.92
360.945	2.73
361.314	2.69
361.682	2.76
362.051	2.99
362.42	3.15
362.788	2.88
363.157	3.04
363.525	2.9
363.894	3.14
364.262	2.6
364.631	3.08
364.999	2.94
365.367	2.8
365.735	3
366.104	3.16
366.472	3.03
366.84	2.83
367.208	3.18
367.576	3.28
367.944	2.93
368.312	3.28
368.68	3.12
369.048	2.84
369.416	2.81
369.783	3.22
370.151	3.06
370.519	2.87
370.886	3.08
371.254	3.33
371.621	3.05
371.989	2.99
372.356	3.21
372.724	2.9
373.091	3.08
373.458	3.06
373.826	2.88
374.193	3.07
374.56	3.05
374.927	3.2
375.294	3.29
375.661	2.88
376.028	2.83
376.395	3.02
376.762	3.05
377.129	2.7
377.496	2.99
377.863	3.13
378.229	3.17
378.596	2.94
378.963	3.35
379.329	3.3
379.696	3.15
380.062	3.15
380.429	2.82
380.795	3.34
381.161	3.3
381.528	3.21
381.894	3.02
382.26	3.01
382.626	3.03
382.993	3.46
383.359	3.15
383.725	3.27
384.091	3.1
384.457	3.21
384.823	2.88
385.188	3.25
385.554	3.14
385.92	3.15
386.286	3.19
386.651	3.35
387.017	3.53
387.383	3.39
387.748	3.06
388.114	3.21
388.479	3.28
388.845	3.17
389.21	3.25
389.575	3.15
389.94	3.1
390.306	3
390.671	3.16
391.036	3.04
391.401	3.29
391.766	3.32
392.131	3.42
392.496	3.16
392.861	3.32
393.226	2.92
393.591	3.15
393.956	3.35
394.32	3.35
394.685	3.28
395.05	3.41
395.414	3.12
395.779	3.1
396.143	3.06
396.508	3.25
396.872	3.19
397.236	3.3
397.601	3.13
397.965	3.48
398.329	3.42
398.694	3.27
399.058	3.18
399.422	3.32
399.786	3.43
400.15	3.1
400.514	3.28
400.878	3.42
401.242	3.24
401.605	3.64
401.969	3.38
402.333	3.34
402.697	3.14
403.06	3.29
403.424	3.47
403.787	3.45
404.151	3.36
404.514	3.22
404.878	3.21
405.241	3.26
405.604	3.24
405.968	3.11
406.331	3.28
406.694	3.36
407.057	3.34
407.42	3.45
407.783	3.33
408.146	3.23
408.509	3.3
408.872	3.32
409.235	3.44
409.598	3.27
409.961	3.42
410.323	3.28
410.686	3.48
411.049	3.3
411.411	3.33
411.774	3.23
412.136	3.41
412.499	3.24
412.861	3.26
413.223	3.31
413.586	3.51
413.948	3.35
414.31	3.34
414.672	3.4
415.035	3.34
415.397	3.59
415.759	3.46
416.121	3.54
416.483	3.26
416.845	3.3
417.206	3.35
417.568	3.46
417.93	3.39
418.292	3.38
418.653	3.49
419.015	3.46
419.377	3.28
419.738	3.3
420.1	3.36
420.461	3.31
420.822	3.35
421.184	3.36
421.545	3.27
421.906	3.35
422.267	3.22
422.629	3.21
422.99	3.28
423.351	3.35
423.712	3.35
424.073	3.27
424.434	3.3
424.795	3.38
425.155	3.41
425.516	3.31
425.877	3.36
426.238	3.35
426.598	3.39
426.959	3.41
427.32	3.39
427.68	3.39
428.041	3.61
428.401	3.56
428.761	3.54
429.122	3.59
429.482	3.46
429.842	3.5
430.202	3.64
430.563	3.47
430.923	3.53
431.283	3.61
431.643	3.51
432.003	3.38
432.363	3.59
432.722	3.59
433.082	3.4
433.442	3.43
433.802	3.41
434.161	3.46
434.521	3.5
434.881	3.41
435.24	3.39
435.6	3.42
435.959	3.45
436.319	3.43
436.678	3.49
437.037	3.49
437.396	3.57
437.756	3.59
438.115	3.44
438.474	3.53
438.833	3.53
439.192	3.67
439.551	3.51
439.91	3.51
440.269	3.48
440.628	3.49
440.987	3.37
441.345	3.43
441.704	3.42
442.063	3.6
442.421	3.31
442.78	3.38
443.138	3.46
443.497	3.59
443.855	3.53
444.214	3.62
444.572	3.6
444.93	3.54
445.288	3.54
445.647	3.66
446.005	3.59
446.363	3.48
446.721	3.4
447.079	3.35
447.437	3.47
447.795	3.44
448.153	3.37
448.51	3.43
448.868	3.48
449.226	3.53
449.584	3.56
449.941	3.53
450.299	3.6
450.656	3.64
451.014	3.61
451.371	3.51
451.729	3.61
452.086	3.75
452.443	3.57
452.801	3.7
453.158	3.52
453.515	3.77
453.872	3.61
454.229	3.65
454.586	3.57
454.943	3.6
455.3	3.53
455.657	3.66
456.014	3.63
456.371	3.7
456.727	3.58
457.084	3.71
457.441	3.72
457.797	3.55
458.154	3.74
458.51	3.62
458.867	3.79
459.223	3.51
459.58	3.55
459.936	3.57
460.292	3.5
460.648	3.5
461.005	3.58
461.361	3.43
461.717	3.53
462.073	3.54
462.429	3.6
462.785	3.67
463.141	3.64
463.496	3.61
463.852	3.67
464.208	3.7
464.564	3.85
464.919	3.69
465.275	3.67
465.631	3.57
465.986	3.59
466.342	3.61
466.697	3.64
467.052	3.6
467.408	3.6
467.763	3.7
468.118	3.61
468.473	3.68
468.829	3.57
469.184	3.7
469.539	3.58
469.894	3.77
470.249	3.66
470.603	3.74
470.958	3.82
471.313	3.82
471.668	3.86
472.023	3.57
472.377	3.65
472.732	3.69
473.086	3.67
473.441	3.71
473.795	3.83
474.15	3.63
474.504	3.66
474.859	3.58
475.213	3.83
475.567	3.68
475.921	3.74
476.275	3.59
476.63	3.62
476.984	3.85
477.338	3.63
477.692	3.62
478.045	3.66
478.399	3.69
478.753	3.73
479.107	3.59
479.461	3.71
479.814	3.62
480.168	3.69
480.521	3.68
480.875	3.79
481.228	3.91
481.582	3.65
481.935	3.7
482.289	3.61
482.642	3.49
482.995	3.68
483.348	3.46
483.701	3.56
484.055	3.56
484.408	3.52
484.761	3.5
485.114	3.33
485.466	3.21
485.819	3.3
486.172	3.48
486.525	3.62
486.878	3.64
487.23	3.68
487.583	3.65
487.936	3.67
488.288	3.58
488.641	3.41
488.993	3.42
489.345	3.46
489.698	3.43
490.05	3.58
490.402	3.57
490.754	3.69
491.107	3.73
491.459	3.71
491.811	3.69
492.163	3.74
492.515	3.63
492.866	3.45
493.218	3.31
493.57	3.4
493.922	3.56
494.274	3.64
494.625	3.76
494.977	3.77
495.328	3.76
495.68	3.84
496.031	3.72
496.383	3.83
496.734	3.71
497.086	3.82
497.437	3.79
497.788	3.67
498.139	3.7
498.49	3.63
498.842	3.65
499.193	3.69
499.544	3.68
499.894	3.71
500.245	3.69
500.596	3.76
500.947	3.65
501.298	3.81
501.648	3.99
501.999	3.81
502.35	3.84
502.7	3.82
503.051	3.61
503.401	3.69
503.752	3.66
504.102	3.81
504.452	3.81
504.803	3.75
505.153	3.74
505.503	3.66
505.853	3.78
506.203	3.71
506.553	3.69
506.903	3.73
507.253	3.74
507.603	3.77
507.953	3.66
508.303	3.86
508.652	3.67
509.002	3.82
509.352	3.86
509.701	3.66
510.051	3.7
510.4	3.73
510.75	3.65
511.099	3.68
511.449	3.61
511.798	3.76
512.147	3.81
512.496	3.66
512.846	3.73
513.195	3.6
513.544	3.77
513.893	3.68
514.242	3.68
514.591	3.66
514.939	3.75
515.288	3.82
515.637	3.79
515.986	3.8
516.334	3.8
516.683	3.8
517.032	3.72
517.38	3.88
517.729	3.79
518.077	3.64
518.426	3.82
518.774	3.69
519.122	3.56
519.47	3.64
519.819	3.52
520.167	3.63
520.515	3.62
520.863	3.66
521.211	3.64
521.559	3.76
521.907	3.78
522.255	3.75
522.602	3.75
522.95	3.74
523.298	3.7
523.645	3.71
523.993	3.69
524.341	3.85
524.688	3.74
525.036	3.76
525.383	3.66
525.73	3.88
526.078	3.88
526.425	3.72
526.772	3.61
527.119	3.56
527.466	3.55
527.814	3.65
528.161	3.7
528.508	3.72
528.854	3.75
529.201	3.68
529.548	3.64
529.895	3.42
530.242	3.31
530.588	3.37
530.935	3.53
531.282	3.6
531.628	3.68
531.975	3.67
532.321	3.78
532.667	3.75
533.014	3.76
533.36	3.79
533.706	3.66
534.052	3.67
534.399	3.63
534.745	3.49
535.091	3.49
535.437	3.6
535.783	3.71
536.129	3.77
536.474	3.78
536.82	3.73
537.166	3.77
537.512	3.69
537.857	3.7
538.203	3.53
538.549	3.55
538.894	3.63
539.239	3.73
539.585	3.83
539.93	3.78
540.276	3.95
540.621	3.75
540.966	3.85
541.311	3.9
541.656	3.69
542.001	3.74
542.346	3.58
542.691	3.47
543.036	3.39
543.381	3.51
543.726	3.57
544.071	3.66
544.415	3.7
544.76	3.67
545.105	3.71
545.449	3.68
545.794	3.73
546.138	3.81
546.483	3.73
546.827	3.8
547.171	3.73
547.516	3.75
547.86	3.78
548.204	3.65
548.548	3.61
548.892	3.64
549.236	3.78
549.58	3.79
549.924	3.79
550.268	3.86
550.612	3.85
550.956	3.86
551.3	3.82
551.643	3.75
551.987	3.82
552.33	3.69
552.674	3.77
553.017	3.79
553.361	3.72
553.704	3.71
554.048	3.71
554.391	3.64
554.734	3.75
555.077	3.65
555.42	3.65
555.764	3.66
556.107	3.83
556.45	3.73
556.793	3.65
557.135	3.97
557.478	3.92
557.821	3.95
558.164	3.8
558.507	3.78
558.849	3.86
559.192	3.94
559.534	3.79
559.877	3.84
560.219	3.93
560.562	3.93
560.904	3.69
561.246	3.77
561.589	3.84
561.931	3.82
562.273	3.82
562.615	3.77
562.957	3.76
563.299	3.7
563.641	3.84
563.983	3.71
564.325	3.87
564.667	3.82
565.008	3.75
565.35	3.78
565.692	3.69
566.033	3.82
566.375	3.97
566.716	3.84
567.058	3.82
567.399	3.6
567.741	3.7
568.082	3.71
568.423	3.7
568.764	3.7
569.105	3.79
569.447	3.76
569.788	3.77
570.129	3.79
570.47	3.86
570.811	3.75
571.151	3.86
571.492	3.74
571.833	3.59
572.174	3.6
572.514	3.82
572.855	3.62
573.195	3.63
573.536	3.73
573.876	3.6
574.217	3.58
574.557	3.7
574.898	3.71
575.238	3.78
575.578	3.78
575.918	3.72
576.258	3.74
576.598	3.6
576.938	3.74
577.278	3.83
577.618	3.66
577.958	3.87
578.298	3.76
578.638	3.62
578.977	3.73
579.317	3.82
579.657	3.89
579.996	3.77
580.336	3.72
580.675	3.69
581.014	3.68
581.354	3.92
581.693	3.66
582.032	3.95
582.372	3.9
582.711	3.75
583.05	3.85
583.389	3.9
583.728	3.88
584.067	3.94
584.406	3.72
584.745	3.92
585.083	3.61
585.422	3.86
585.761	4.01
586.1	3.74
586.438	3.54
586.777	3.56
587.115	3.98
587.454	3.69
587.792	3.91
588.13	3.84
588.469	3.5
588.807	3.58
589.145	3.95
589.483	3.72
589.821	3.62
590.159	3.74
590.497	3.72
590.835	3.75
591.173	3.76
591.511	3.73
591.849	3.51
592.187	3.71
592.524	4.2
592.862	3.92
593.2	3.99
593.537	3.9
593.875	3.7
594.212	3.66
594.55	3.66
594.887	3.72
595.224	3.51
595.561	3.68
595.899	3.63
596.236	3.67
596.573	3.75
596.91	3.82
597.247	3.79
597.584	3.85
597.921	3.8
598.258	3.6
598.594	3.58
598.931	3.55
599.268	3.55
599.604	3.6
599.941	3.77
600.277	3.69
600.614	3.77
600.95	3.76
601.287	3.76
601.623	3.74
601.959	3.67
602.296	3.8
602.632	3.69
602.968	3.62
603.304	3.7
603.64	3.76
603.976	3.68
604.312	3.64
604.648	3.95
604.984	3.53
605.319	3.68
605.655	3.66
605.991	3.58
606.326	3.69
606.662	3.65
606.998	3.76
607.333	3.58
607.668	3.8
608.004	3.86
608.339	3.63
608.674	3.95
609.01	3.9
609.345	3.79
609.68	3.69
610.015	3.86
610.35	3.71
610.685	3.47
611.02	3.66
611.355	3.66
611.689	3.63
612.024	3.62
612.359	3.62
612.694	3.97
613.028	3.79
613.363	3.92
613.697	3.6
614.032	3.51
614.366	3.92
614.7	3.75
615.035	3.75
615.369	3.97
615.703	3.85
616.037	3.51
616.371	3.6
616.705	3.79
617.039	3.87
617.373	3.95
617.707	3.85
618.041	4.07
618.375	4.05
618.709	3.52
619.042	3.51
619.376	4.01
619.71	3.63
620.043	3.68
620.377	3.67
620.71	3.59
621.043	4.11
621.377	3.84
621.71	4.01
622.043	3.88
622.376	3.58
622.709	3.73
623.043	3.66
623.376	3.85
623.709	3.66
624.041	3.79
624.374	3.6
624.707	3.81
625.04	4.13
625.373	3.99
625.705	3.61
626.038	3.68
626.37	3.52
626.703	3.77
627.035	4.26
627.368	4.06
627.7	4.02
628.032	3.8
628.365	3.67
628.697	3.41
629.029	3.68
629.361	3.86
629.693	3.76
630.025	3.73
630.357	3.93
630.689	3.8
631.021	3.61
631.353	4
631.684	3.83
632.016	3.98
632.348	3.48
632.679	3.88
633.011	4
633.342	3.69
633.674	3.91
634.005	3.47
634.336	3.85
634.668	3.9
634.999	3.88
635.33	3.66
635.661	3.77
635.992	3.95
636.323	3.96
636.654	3.79
636.985	3.99
637.316	3.87
637.647	3.86
637.977	3.93
638.308	3.87
638.639	3.67
638.969	3.75
639.3	3.59
639.63	3.73
639.961	3.94
640.291	3.91
640.622	3.98
640.952	3.76
641.282	4.05
641.612	3.82
641.943	3.74
642.273	4.24
642.603	4.43
642.933	3.87
643.263	3.95
643.592	3.68
643.922	3.95
644.252	4.36
644.582	4.52
644.911	3.87
645.241	3.97
645.571	3.88
645.9	3.76
646.23	4.06
646.559	3.63
646.888	4.04
647.218	4.17
647.547	3.99
647.876	3.75
648.205	3.9
648.534	3.9
648.863	4.16
649.192	4.19
649.521	3.85
649.85	3.72
650.179	3.37
650.508	3.85
650.837	4.25
651.165	4.18
651.494	3.92
651.822	3.87
652.151	3.63
652.479	3.78
652.808	4.04
653.136	3.88
653.465	3.69
653.793	3.93
654.121	3.69
654.449	3.84
654.777	4.1
655.105	3.7
655.433	3.99
655.761	4.06
656.089	4.03
656.417	4.2
656.745	3.67
657.073	3.27
657.4	4.3
657.728	3.71
658.056	4.06
658.383	4.09
658.711	3.9
659.038	4.13
659.365	3.64
659.693	3.99
660.02	3.62
660.347	3.8
660.674	3.58
661.001	4.09
661.329	3.88
661.656	4.07
661.982	3.83
662.309	3.89
662.636	4.2
662.963	4.13
663.29	4.35
663.616	4.32
663.943	4.12
664.27	3.99
664.596	4.04
664.923	4.31
665.249	4.02
665.576	4.52
665.902	3.82
666.228	4.27
666.554	3.67
666.881	3.49
667.207	3.83
667.533	4.1
667.859	3.89
668.185	4.52
668.511	3.38
668.837	4.53
669.162	3.94
669.488	3.93
669.814	4.22
670.139	4.09
670.465	4.47
670.791	3.87
671.116	4.23
671.442	4.49
671.767	3.92
672.092	3.9
672.418	4.39
672.743	3.85
673.068	4.13
673.393	4.2
673.718	3.66
674.043	4.32
674.368	3.88
674.693	4.17
675.018	3.78
675.343	4.55
675.667	4.39
675.992	4.34
676.317	4.13
676.641	4.08
676.966	4.16
677.29	3.76
677.615	4.63
677.939	4.13
678.264	4.07
678.588	3.85
678.912	3.99
679.236	4.38
679.56	3.98
679.885	4.07
680.209	4.19
680.532	3.68
680.856	4.06
681.18	4.05
681.504	4.3
681.828	4.07
682.152	4.14
682.475	3.92
682.799	4.03
683.122	4.11
683.446	4.4
683.769	3.91
684.093	4.13
684.416	4.42
684.739	4.19
685.062	3.96
685.386	3.87
685.709	3.83
686.032	4.15
686.355	4.04
686.678	4.47
687.001	4.35
687.324	4.26
687.646	4.28
687.969	3.55
688.292	3.6
688.614	3.97
688.937	4.21
689.26	4.12
689.582	4.14
689.904	4.6
690.227	4.36
690.549	4.01
690.871	4.36
691.194	3.38
691.516	4.16
691.838	4.23
692.16	4.59
692.482	4.07
692.804	4.22
