Data from 97279_chest_Reflection__0__01.txt Node

Date: Fri Sep 23 19:26:58 CDT 2022
User: ToomeyLab
Spectrometer: FLMS14357
Trigger mode: 0
Integration Time (sec): 1.000000E-2
Scans to average: 100
Electric dark correction enabled: true
Nonlinearity correction enabled: false
Boxcar width: 0
XAxis mode: Wavelengths
Number of Pixels in Spectrum: 2048
>>>>>Begin Spectral Data<<<<<
189.047	539.17
189.435	539.17
189.823	539.17
190.211	3465.12
190.599	24.92
190.987	-148.39
191.375	-157.01
191.763	132.45
192.151	-97.89
192.538	22.84
192.926	127.58
193.314	328.94
193.702	6081.48
194.089	-48.71
194.477	66.59
194.864	247.52
195.252	-152.59
195.639	68.06
196.027	28
196.414	-1175.34
196.801	-12.88
197.189	7.28
197.576	130.28
197.963	7.15
198.351	49.6
198.738	-48.89
199.125	26.6
199.512	4.1
199.899	6.67
200.286	-66.24
200.673	-3.06
201.06	14.31
201.447	38.4
201.833	34.78
202.22	-38.39
202.607	22.1
202.994	7.61
203.38	-20.61
203.767	-91.19
204.154	8.58
204.54	19.61
204.927	32.35
205.313	11.52
205.699	-0.22
206.086	9.86
206.472	0.84
206.858	14.12
207.245	-4.87
207.631	5.91
208.017	25.27
208.403	5.35
208.789	3.8
209.175	17.22
209.561	-4.8
209.947	-11.56
210.333	-2.3
210.719	11.23
211.105	-11.78
211.491	33.47
211.876	20
212.262	-5.69
212.648	-15.07
213.034	-7.8
213.419	-0.37
213.805	57.36
214.19	15.75
214.576	7.99
214.961	5.9
215.346	-29.26
215.732	15.89
216.117	-0.48
216.502	4.93
216.888	24.62
217.273	-2.48
217.658	-2.87
218.043	20.25
218.428	0.26
218.813	19.32
219.198	-2.23
219.583	-8.33
219.968	13.17
220.353	5.09
220.738	6.55
221.122	11.8
221.507	3.27
221.892	0.61
222.276	-3.11
222.661	4.27
223.046	2.04
223.43	-3.85
223.815	4.38
224.199	-0.73
224.583	2.93
224.968	-2.85
225.352	1.17
225.736	1.07
226.121	4.79
226.505	6.34
226.889	3.97
227.273	2.98
227.657	-0.47
228.041	3.76
228.425	2.42
228.809	2.15
229.193	0.55
229.577	5
229.961	2.52
230.344	2.26
230.728	1.72
231.112	1.92
231.495	1.29
231.879	1.01
232.263	3.81
232.646	1.5
233.03	2.42
233.413	3.65
233.797	2.26
234.18	6.24
234.563	2.54
234.946	4.35
235.33	0.3
235.713	1.9
236.096	0.59
236.479	2.44
236.862	3.02
237.245	5.17
237.628	3.03
238.011	2.65
238.394	2.95
238.777	3
239.16	2.07
239.543	-0.28
239.925	3
240.308	3.19
240.691	3.11
241.073	2.21
241.456	2.29
241.838	4.44
242.221	3.08
242.603	3.28
242.986	1.9
243.368	1.82
243.75	2.63
244.133	2.62
244.515	2.5
244.897	3
245.279	2.65
245.661	3.13
246.043	3.93
246.425	3.36
246.807	2.28
247.189	3.55
247.571	2.35
247.953	2.69
248.335	2.81
248.717	2.62
249.098	2.57
249.48	2.44
249.862	2.94
250.243	3.01
250.625	2.7
251.006	2.88
251.388	2.75
251.769	3.14
252.151	1.27
252.532	2.78
252.913	3.53
253.295	3.06
253.676	2.6
254.057	2.58
254.438	2.72
254.819	2.91
255.2	2.79
255.581	3.92
255.962	2.8
256.343	2.8
256.724	1.75
257.105	3.5
257.486	2.63
257.867	2.42
258.247	3.86
258.628	2.55
259.009	2.18
259.389	2.76
259.77	2.06
260.15	2.49
260.531	2.66
260.911	2.74
261.292	2.55
261.672	2.39
262.052	2.42
262.432	2.29
262.813	2.96
263.193	2.6
263.573	3.08
263.953	2.58
264.333	2.45
264.713	2.65
265.093	2.31
265.473	2.38
265.853	2.23
266.233	2.37
266.612	2.14
266.992	3.3
267.372	2.53
267.752	2.51
268.131	2.93
268.511	2.76
268.89	2.07
269.27	1.98
269.649	2.37
270.029	2.37
270.408	2.83
270.787	2.57
271.167	2.81
271.546	2.4
271.925	2.34
272.304	2.6
272.683	2.12
273.062	2.22
273.441	2.48
273.82	2.2
274.199	2.24
274.578	2.16
274.957	2.55
275.336	2.62
275.715	2.26
276.093	2.73
276.472	2.96
276.851	2.45
277.229	2.41
277.608	2.78
277.986	2.09
278.365	2.4
278.743	2.85
279.122	2.01
279.5	2.4
279.878	2.34
280.257	2.48
280.635	2.21
281.013	2.45
281.391	2.59
281.769	2.14
282.147	2.34
282.525	2.45
282.903	2.45
283.281	2.3
283.659	2.24
284.037	2.44
284.415	2
284.792	2.4
285.17	2.39
285.548	2.54
285.925	2.4
286.303	2.55
286.68	2.25
287.058	2.61
287.435	2.27
287.813	2.45
288.19	2.32
288.567	2.42
288.945	2.66
289.322	2.45
289.699	2.72
290.076	2.27
290.453	2.62
290.83	2.24
291.207	2.62
291.584	2.39
291.961	2.47
292.338	2.48
292.715	2.28
293.092	2.24
293.469	2.68
293.845	2.99
294.222	2.67
294.599	2.19
294.975	2.78
295.352	2.93
295.728	2.61
296.105	2.27
296.481	2.41
296.858	2.59
297.234	2.76
297.61	2.37
297.986	2.61
298.363	2.55
298.739	2.56
299.115	2.54
299.491	2.58
299.867	2.42
300.243	2.54
300.619	2.97
300.995	2.74
301.371	2.55
301.746	3.24
302.122	2.45
302.498	3.06
302.874	2.76
303.249	3.16
303.625	2.55
304	3.04
304.376	2.65
304.751	2.87
305.127	2.4
305.502	2.56
305.878	3.06
306.253	2.7
306.628	2.72
307.003	2.52
307.378	2.88
307.754	2.99
308.129	2.92
308.504	2.96
308.879	2.55
309.254	2.74
309.629	2.98
310.003	2.83
310.378	2.82
310.753	2.82
311.128	2.65
311.502	2.79
311.877	2.81
312.252	2.46
312.626	2.82
313.001	2.88
313.375	2.92
313.75	2.9
314.124	2.55
314.498	3.19
314.873	3.23
315.247	2.95
315.621	3.04
315.995	3.16
316.369	3.04
316.743	2.86
317.117	2.59
317.491	2.52
317.865	3.13
318.239	3.76
318.613	2.87
318.987	2.63
319.361	2.58
319.734	2.56
320.108	2.72
320.482	3.32
320.855	3.17
321.229	3.19
321.602	3.18
321.976	3.62
322.349	3.47
322.723	3.23
323.096	2.96
323.469	2.46
323.843	2.68
324.216	3.48
324.589	3.06
324.962	2.88
325.335	3.22
325.708	3.13
326.081	2.78
326.454	3.19
326.827	3.03
327.2	2.94
327.573	3.22
327.945	3.26
328.318	2.81
328.691	3.15
329.063	2.87
329.436	3.24
329.809	3.35
330.181	2.98
330.553	2.62
330.926	2.85
331.298	3.1
331.671	3.37
332.043	3.27
332.415	2.9
332.787	2.67
333.159	3.06
333.532	3.04
333.904	2.58
334.276	2.47
334.648	3.43
335.02	3.18
335.391	3.12
335.763	2.77
336.135	2.98
336.507	3.36
336.879	3.46
337.25	3.19
337.622	3.1
337.993	3.18
338.365	2.99
338.736	3.68
339.108	3.27
339.479	2.89
339.851	3.3
340.222	3.58
340.593	2.9
340.964	3.25
341.336	2.82
341.707	3.76
342.078	3.05
342.449	3.19
342.82	3.3
343.191	2.67
343.562	3.16
343.933	3.77
344.303	3.1
344.674	3.45
345.045	3.18
345.416	2.9
345.786	3.47
346.157	3.22
346.527	3.23
346.898	3.15
347.268	3.23
347.639	3.12
348.009	3.11
348.38	2.91
348.75	3.3
349.12	2.99
349.49	3.27
349.861	3.04
350.231	2.8
350.601	3.11
350.971	3.38
351.341	3.24
351.711	3.39
352.081	3.2
352.45	3.01
352.82	2.95
353.19	3.75
353.56	3.38
353.929	3.09
354.299	3.37
354.669	3.01
355.038	3.22
355.408	2.85
355.777	3.14
356.147	2.95
356.516	3.49
356.885	3.15
357.254	2.87
357.624	2.8
357.993	3.45
358.362	3.23
358.731	3.2
359.1	3.18
359.469	3.19
359.838	3.31
360.207	3.16
360.576	3.2
360.945	3.04
361.314	3.06
361.682	3.17
362.051	3.24
362.42	3.2
362.788	3.09
363.157	3.25
363.525	3.46
363.894	3.25
364.262	3.05
364.631	3.02
364.999	3.28
365.367	3.26
365.735	3.34
366.104	3.38
366.472	3.31
366.84	3.38
367.208	3.48
367.576	3.39
367.944	3.14
368.312	3.44
368.68	3.35
369.048	3.26
369.416	3.2
369.783	3.6
370.151	3.47
370.519	3.28
370.886	3.38
371.254	3.38
371.621	3.45
371.989	3.2
372.356	3.48
372.724	3.37
373.091	3.31
373.458	3.33
373.826	3.42
374.193	3.48
374.56	3.18
374.927	3.57
375.294	3.64
375.661	3.28
376.028	3.52
376.395	3.22
376.762	3.08
377.129	3.18
377.496	3.34
377.863	3.59
378.229	3.22
378.596	3.25
378.963	3.57
379.329	3.44
379.696	3.33
380.062	3.18
380.429	3.34
380.795	3.21
381.161	3.57
381.528	3.38
381.894	3.26
382.26	3.17
382.626	3.51
382.993	3.52
383.359	3.3
383.725	3.79
384.091	3.67
384.457	3.58
384.823	3.32
385.188	3.56
385.554	3.54
385.92	3.62
386.286	3.64
386.651	3.59
387.017	3.48
387.383	3.48
387.748	3.62
388.114	3.51
388.479	3.6
388.845	3.32
389.21	3.45
389.575	3.4
389.94	3.32
390.306	3.35
390.671	3.72
391.036	3.35
391.401	3.76
391.766	3.48
392.131	3.57
392.496	3.47
392.861	3.49
393.226	3.48
393.591	3.53
393.956	3.54
394.32	3.64
394.685	3.39
395.05	3.57
395.414	3.61
395.779	3.27
396.143	3.3
396.508	3.63
396.872	3.59
397.236	3.55
397.601	3.61
397.965	3.68
398.329	3.73
398.694	3.3
399.058	3.51
399.422	3.51
399.786	3.59
400.15	3.44
400.514	3.47
400.878	3.61
401.242	3.51
401.605	3.7
401.969	3.53
402.333	3.52
402.697	3.4
403.06	3.54
403.424	3.58
403.787	3.68
404.151	3.82
404.514	3.39
404.878	3.64
405.241	3.49
405.604	3.49
405.968	3.61
406.331	3.7
406.694	3.7
407.057	3.52
407.42	3.61
407.783	3.56
408.146	3.5
408.509	3.55
408.872	3.38
409.235	3.73
409.598	3.77
409.961	3.59
410.323	3.62
410.686	3.62
411.049	3.5
411.411	3.65
411.774	3.45
412.136	3.59
412.499	3.66
412.861	3.47
413.223	3.39
413.586	3.64
413.948	3.7
414.31	3.67
414.672	3.82
415.035	3.73
415.397	3.69
415.759	3.82
416.121	3.89
416.483	3.79
416.845	3.54
417.206	3.61
417.568	3.66
417.93	3.55
418.292	3.77
418.653	3.67
419.015	3.58
419.377	3.6
419.738	3.63
420.1	3.65
420.461	3.67
420.822	3.62
421.184	3.67
421.545	3.56
421.906	3.77
422.267	3.53
422.629	3.48
422.99	3.55
423.351	3.54
423.712	3.6
424.073	3.62
424.434	3.68
424.795	3.73
425.155	3.65
425.516	3.69
425.877	3.59
426.238	3.6
426.598	3.63
426.959	3.64
427.32	3.67
427.68	3.68
428.041	3.73
428.401	3.75
428.761	3.69
429.122	3.84
429.482	3.81
429.842	3.95
430.202	3.81
430.563	3.76
430.923	3.89
431.283	3.94
431.643	3.85
432.003	3.95
432.363	4.09
432.722	3.97
433.082	3.75
433.442	3.79
433.802	3.84
434.161	3.82
434.521	3.87
434.881	3.75
435.24	3.82
435.6	3.77
435.959	3.84
436.319	3.81
436.678	3.82
437.037	3.86
437.396	3.92
437.756	3.92
438.115	3.97
438.474	3.83
438.833	4.02
439.192	3.96
439.551	3.91
439.91	3.93
440.269	3.98
440.628	3.85
440.987	3.78
441.345	3.66
441.704	3.78
442.063	3.9
442.421	3.8
442.78	3.87
443.138	3.86
443.497	3.94
443.855	3.95
444.214	4.14
444.572	3.88
444.93	3.95
445.288	3.97
445.647	4.06
446.005	4.05
446.363	4.04
446.721	3.93
447.079	3.95
447.437	3.9
447.795	3.92
448.153	3.83
448.51	3.85
448.868	3.88
449.226	4
449.584	3.88
449.941	4.01
450.299	4.1
450.656	4.06
451.014	4.08
451.371	3.99
451.729	4.09
452.086	4.23
452.443	3.96
452.801	4.17
453.158	4.01
453.515	4.12
453.872	4.06
454.229	4.25
454.586	4.11
454.943	4.15
455.3	3.99
455.657	4.26
456.014	4.26
456.371	4.05
456.727	4.19
457.084	4.22
457.441	4.3
457.797	4.16
458.154	4.21
458.51	4.14
458.867	4.25
459.223	4.11
459.58	4.18
459.936	4.15
460.292	4.07
460.648	4.14
461.005	4.17
461.361	3.94
461.717	4.1
462.073	4.15
462.429	4.03
462.785	4.25
463.141	4.15
463.496	4.24
463.852	4.26
464.208	4.17
464.564	4.36
464.919	4.34
465.275	4.35
465.631	4.18
465.986	4.21
466.342	4.26
466.697	4.24
467.052	4.37
467.408	4.27
467.763	4.25
468.118	4.19
468.473	4.3
468.829	4.27
469.184	4.26
469.539	4.32
469.894	4.32
470.249	4.36
470.603	4.45
470.958	4.37
471.313	4.41
471.668	4.27
472.023	4.33
472.377	4.32
472.732	4.39
473.086	4.31
473.441	4.44
473.795	4.47
474.15	4.39
474.504	4.36
474.859	4.34
475.213	4.38
475.567	4.29
475.921	4.38
476.275	4.26
476.63	4.45
476.984	4.53
477.338	4.29
477.692	4.47
478.045	4.41
478.399	4.39
478.753	4.52
479.107	4.42
479.461	4.39
479.814	4.34
480.168	4.42
480.521	4.34
480.875	4.45
481.228	4.61
481.582	4.37
481.935	4.51
482.289	4.41
482.642	4.38
482.995	4.5
483.348	4.36
483.701	4.47
484.055	4.41
484.408	4.36
484.761	4.3
485.114	4.15
485.466	4.12
485.819	4.11
486.172	4.18
486.525	4.3
486.878	4.29
487.23	4.37
487.583	4.43
487.936	4.47
488.288	4.39
488.641	4.29
488.993	4.28
489.345	4.26
489.698	4.26
490.05	4.32
490.402	4.33
490.754	4.42
491.107	4.51
491.459	4.44
491.811	4.59
492.163	4.62
492.515	4.51
492.866	4.39
493.218	4.35
493.57	4.37
493.922	4.44
494.274	4.44
494.625	4.5
494.977	4.64
495.328	4.75
495.68	4.8
496.031	4.67
496.383	4.77
496.734	4.74
497.086	4.74
497.437	4.79
497.788	4.76
498.139	4.66
498.49	4.61
498.842	4.63
499.193	4.68
499.544	4.66
499.894	4.66
500.245	4.67
500.596	4.81
500.947	4.67
501.298	4.75
501.648	4.84
501.999	4.76
502.35	4.89
502.7	4.82
503.051	4.87
503.401	4.8
503.752	4.76
504.102	4.96
504.452	4.85
504.803	4.84
505.153	4.84
505.503	4.76
505.853	4.92
506.203	4.79
506.553	4.91
506.903	4.84
507.253	4.87
507.603	4.97
507.953	4.87
508.303	4.89
508.652	4.85
509.002	4.95
509.352	5
509.701	4.79
510.051	4.87
510.4	4.87
510.75	4.83
511.099	4.97
511.449	4.93
511.798	4.99
512.147	5.06
512.496	4.96
512.846	4.94
513.195	4.93
513.544	5.03
513.893	5
514.242	5.05
514.591	4.96
514.939	5.1
515.288	5.07
515.637	5.07
515.986	5.19
516.334	5.07
516.683	5.16
517.032	5.14
517.38	5.19
517.729	5.17
518.077	5.03
518.426	5.17
518.774	5.15
519.122	5.17
519.47	5.1
519.819	5.12
520.167	4.99
520.515	5.05
520.863	5.17
521.211	5.06
521.559	5.09
521.907	5.21
522.255	5.12
522.602	5.27
522.95	5.29
523.298	5.26
523.645	5.26
523.993	5.33
524.341	5.32
524.688	5.32
525.036	5.35
525.383	5.34
525.73	5.47
526.078	5.41
526.425	5.37
526.772	5.29
527.119	5.3
527.466	5.19
527.814	5.24
528.161	5.29
528.508	5.4
528.854	5.38
529.201	5.33
529.548	5.31
529.895	5.17
530.242	5.11
530.588	5.13
530.935	5.2
531.282	5.25
531.628	5.26
531.975	5.34
532.321	5.39
532.667	5.43
533.014	5.49
533.36	5.52
533.706	5.5
534.052	5.43
534.399	5.44
534.745	5.4
535.091	5.4
535.437	5.41
535.783	5.46
536.129	5.58
536.474	5.62
536.82	5.63
537.166	5.73
537.512	5.68
537.857	5.73
538.203	5.67
538.549	5.56
538.894	5.74
539.239	5.66
539.585	5.86
539.93	5.84
540.276	5.78
540.621	5.85
540.966	5.99
541.311	5.96
541.656	5.84
542.001	5.97
542.346	5.71
542.691	5.68
543.036	5.66
543.381	5.64
543.726	5.73
544.071	5.76
544.415	5.87
544.76	5.78
545.105	5.88
545.449	5.94
545.794	5.87
546.138	6.06
546.483	5.99
546.827	6.11
547.171	5.97
547.516	6.08
547.86	6.06
548.204	6.05
548.548	6.02
548.892	6.04
549.236	6.26
549.58	6.26
549.924	6.35
550.268	6.41
550.612	6.37
550.956	6.39
551.3	6.31
551.643	6.28
551.987	6.46
552.33	6.46
552.674	6.34
553.017	6.46
553.361	6.44
553.704	6.34
554.048	6.5
554.391	6.44
554.734	6.68
555.077	6.48
555.42	6.45
555.764	6.45
556.107	6.54
556.45	6.7
556.793	6.76
557.135	6.7
557.478	6.77
557.821	6.65
558.164	6.67
558.507	6.59
558.849	6.75
559.192	6.87
559.534	6.85
559.877	6.95
560.219	6.84
560.562	6.99
560.904	6.96
561.246	6.79
561.589	7.04
561.931	7.01
562.273	7.01
562.615	7.04
562.957	6.97
563.299	6.9
563.641	7.03
563.983	7.07
564.325	6.96
564.667	7.12
565.008	7.01
565.35	7.29
565.692	7.06
566.033	7.06
566.375	7.29
566.716	7.32
567.058	7.18
567.399	7.08
567.741	7.16
568.082	7.22
568.423	7.13
568.764	7.31
569.105	7.38
569.447	7.37
569.788	7.48
570.129	7.29
570.47	7.52
570.811	7.53
571.151	7.61
571.492	7.58
571.833	7.52
572.174	7.55
572.514	7.66
572.855	7.52
573.195	7.5
573.536	7.64
573.876	7.41
574.217	7.56
574.557	7.54
574.898	7.65
575.238	7.9
575.578	7.75
575.918	7.74
576.258	7.75
576.598	7.84
576.938	7.79
577.278	7.84
577.618	7.86
577.958	7.93
578.298	7.93
578.638	7.81
578.977	7.95
579.317	8.01
579.657	8.16
579.996	8.06
580.336	8.17
580.675	8.21
581.014	8.3
581.354	8.25
581.693	8.19
582.032	8.17
582.372	8.33
582.711	8.29
583.05	8.35
583.389	8.44
583.728	8.54
584.067	8.61
584.406	8.31
584.745	8.46
585.083	8.59
585.422	8.62
585.761	8.47
586.1	8.66
586.438	8.54
586.777	8.46
587.115	8.58
587.454	8.79
587.792	8.86
588.13	8.85
588.469	8.65
588.807	8.8
589.145	8.67
589.483	8.87
589.821	9.01
590.159	8.85
590.497	8.79
590.835	8.71
591.173	9
591.511	8.92
591.849	8.79
592.187	9.06
592.524	9.22
592.862	9.1
593.2	9.16
593.537	9.18
593.875	9.16
594.212	9.2
594.55	9.1
594.887	9.25
595.224	9.2
595.561	9.18
595.899	8.84
596.236	9.14
596.573	9.51
596.91	9.54
597.247	9.41
597.584	9.43
597.921	9.47
598.258	9.33
598.594	9.31
598.931	9.41
599.268	9.41
599.604	9.47
599.941	9.51
600.277	9.48
600.614	9.48
600.95	9.68
601.287	9.69
601.623	9.69
601.959	9.68
602.296	9.69
602.632	9.84
602.968	9.75
603.304	9.87
603.64	9.7
603.976	9.96
604.312	9.99
604.648	9.79
604.984	9.75
605.319	9.99
605.655	9.87
605.991	9.94
606.326	10.05
606.662	9.97
606.998	10.13
607.333	10.16
607.668	10.09
608.004	10.17
608.339	10.11
608.674	10.36
609.01	10.27
609.345	10.55
609.68	10.4
610.015	10.57
610.35	10.52
610.685	10.17
611.02	10.26
611.355	10.36
611.689	10.47
612.024	10.45
612.359	10.44
612.694	10.5
613.028	10.43
613.363	10.88
613.697	10.69
614.032	10.58
614.366	10.71
614.7	10.58
615.035	10.98
615.369	11
615.703	11.08
616.037	10.85
616.371	10.88
616.705	10.83
617.039	10.89
617.373	11.09
617.707	11.23
618.041	10.88
618.375	11
618.709	11.31
619.042	11.08
619.376	11.14
619.71	11.03
620.043	11.12
620.377	11.1
620.71	11.27
621.043	11.49
621.377	10.89
621.71	11.49
622.043	11.41
622.376	11.6
622.709	11.6
623.043	11.26
623.376	11.35
623.709	11.45
624.041	11.56
624.374	11.32
624.707	11.77
625.04	11.8
625.373	11.67
625.705	11.77
626.038	11.84
626.37	11.59
626.703	11.72
627.035	11.79
627.368	11.89
627.7	11.84
628.032	11.66
628.365	11.97
628.697	11.77
629.029	11.88
629.361	11.8
629.693	12.07
630.025	12.09
630.357	12.01
630.689	11.91
631.021	11.84
631.353	12.25
631.684	12.01
632.016	12.21
632.348	11.73
632.679	12.1
633.011	12.51
633.342	12.19
633.674	12.5
634.005	12.1
634.336	12.56
634.668	12.44
634.999	12.39
635.33	12.48
635.661	12.53
635.992	12.6
636.323	12.5
636.654	12.7
636.985	12.84
637.316	12.5
637.647	12.77
637.977	12.6
638.308	12.58
638.639	12.67
638.969	12.83
639.3	12.86
639.63	12.8
639.961	13
640.291	12.9
640.622	12.86
640.952	13.05
641.282	13.29
641.612	12.99
641.943	12.97
642.273	13.26
642.603	13.48
642.933	13.07
643.263	13.12
643.592	13.13
643.922	13.43
644.252	13.98
644.582	13.42
644.911	13.34
645.241	13.2
645.571	13.23
645.9	13.53
646.23	14.06
646.559	13.46
646.888	13.54
647.218	13.66
647.547	13.25
647.876	13.37
648.205	13.9
648.534	13.78
648.863	13.68
649.192	13.81
649.521	13.67
649.85	13.73
650.179	13.59
650.508	14.15
650.837	13.81
651.165	14.36
651.494	14.21
651.822	13.93
652.151	13.77
652.479	13.74
652.808	13.88
653.136	13.94
653.465	13.89
653.793	14.26
654.121	13.82
654.449	14.14
654.777	14.15
655.105	14.1
655.433	14.63
655.761	14.3
656.089	14.25
656.417	14.46
656.745	14.57
657.073	13.94
657.4	14.7
657.728	14.6
658.056	15.09
658.383	14.29
658.711	14.71
659.038	14.41
659.365	14.22
659.693	14.62
660.02	14.45
660.347	14.35
660.674	14.67
661.001	14.83
661.329	14.57
661.656	14.86
661.982	14.67
662.309	15.06
662.636	15.22
662.963	15.52
663.29	15.1
663.616	14.97
663.943	15
664.27	15.02
664.596	15
664.923	15.31
665.249	15.23
665.576	15.44
665.902	14.81
666.228	15.2
666.554	15.22
666.881	15.58
667.207	15.51
667.533	15.48
667.859	15.08
668.185	15.56
668.511	14.98
668.837	15.73
669.162	15.61
669.488	15.47
669.814	15.35
670.139	14.91
670.465	15.51
670.791	15.53
671.116	15.6
671.442	15.93
671.767	15.44
672.092	15.93
672.418	16.26
672.743	15.76
673.068	15.73
673.393	16.09
673.718	15.53
674.043	16.16
674.368	16.21
674.693	15.91
675.018	16.3
675.343	16.42
675.667	16.55
675.992	16.31
676.317	16.62
676.641	16.16
676.966	16.7
677.29	16.29
677.615	16.29
677.939	16.39
678.264	16.1
678.588	16.33
678.912	16.64
679.236	16.52
679.56	15.96
679.885	17
680.209	16.28
680.532	16.69
680.856	16.56
681.18	16.68
681.504	16.77
681.828	16.98
682.152	16.68
682.475	16.5
682.799	16.81
683.122	16.86
683.446	16.66
683.769	16.75
684.093	17.47
684.416	17.15
684.739	17.09
685.062	17.1
685.386	17.03
685.709	17.1
686.032	16.98
686.355	17.66
686.678	17.44
687.001	17.11
687.324	17.74
687.646	17.3
