Data from 97279_crown_Reflection__2__13.txt Node

Date: Fri Sep 23 19:31:59 CDT 2022
User: ToomeyLab
Spectrometer: FLMS14357
Trigger mode: 0
Integration Time (sec): 1.000000E-2
Scans to average: 100
Electric dark correction enabled: true
Nonlinearity correction enabled: false
Boxcar width: 0
XAxis mode: Wavelengths
Number of Pixels in Spectrum: 2048
>>>>>Begin Spectral Data<<<<<
189.047	-26.78
189.435	-26.78
189.823	-26.78
190.211	-106.98
190.599	-87.03
190.987	115.66
191.375	-150.72
191.763	68.99
192.151	80.58
192.538	25.81
192.926	125.79
193.314	426.16
193.702	3118.52
194.089	297.42
194.477	13.28
194.864	61.13
195.252	8.11
195.639	124.64
196.027	146.3
196.414	-72.15
196.801	300.79
197.189	-280.51
197.576	-75.72
197.963	118.02
198.351	40.67
198.738	-26.27
199.125	-2.41
199.512	7.46
199.899	22.56
200.286	-0.47
200.673	24.74
201.06	4.18
201.447	44.77
201.833	38.82
202.22	-26.85
202.607	30.07
202.994	31.21
203.38	-3.25
203.767	-90.79
204.154	5.73
204.54	16.44
204.927	11.83
205.313	29.98
205.699	-10.93
206.086	-0.21
206.472	48.92
206.858	20.55
207.245	-10.97
207.631	26.94
208.017	0.64
208.403	17.12
208.789	11.03
209.175	50.06
209.561	25.28
209.947	-3.83
210.333	23.06
210.719	-16.45
211.105	11.9
211.491	12.21
211.876	36.21
212.262	32.96
212.648	-10.59
213.034	-17.71
213.419	-10.81
213.805	24.86
214.19	17.25
214.576	11.82
214.961	29.65
215.346	-3.94
215.732	39.04
216.117	13.23
216.502	1.26
216.888	9.32
217.273	8.73
217.658	7.24
218.043	25.34
218.428	4.77
218.813	16.38
219.198	0.12
219.583	17.91
219.968	1.8
220.353	20.81
220.738	-8.18
221.122	5.46
221.507	-3.93
221.892	-8.89
222.276	-8.95
222.661	5.87
223.046	9.37
223.43	-6.28
223.815	2.27
224.199	7.08
224.583	11.6
224.968	-2.9
225.352	0.8
225.736	8.22
226.121	8.71
226.505	6.65
226.889	9.81
227.273	0.72
227.657	-0.32
228.041	5.55
228.425	3.79
228.809	1.2
229.193	4.53
229.577	6.55
229.961	4.85
230.344	3.99
230.728	4.37
231.112	4.19
231.495	4.93
231.879	2.97
232.263	3.81
232.646	5.56
233.03	4.52
233.413	3.63
233.797	4.26
234.18	6.71
234.563	5.53
234.946	5.79
235.33	4.5
235.713	4.66
236.096	2.55
236.479	4.21
236.862	4.3
237.245	6.3
237.628	4.42
238.011	4.48
238.394	5.26
238.777	5.04
239.16	4.38
239.543	5.1
239.925	5.35
240.308	5.35
240.691	4.85
241.073	3.34
241.456	3.05
241.838	5.44
242.221	5.31
242.603	5.06
242.986	3.67
243.368	3.5
243.75	4.2
244.133	4.24
244.515	4.35
244.897	4.56
245.279	5.15
245.661	4.76
246.043	4.65
246.425	4.34
246.807	4.57
247.189	4.65
247.571	4.24
247.953	4.31
248.335	4.29
248.717	4.2
249.098	4.22
249.48	4.16
249.862	4.14
250.243	4.3
250.625	4.57
251.006	4.8
251.388	4.37
251.769	4.35
252.151	3.36
252.532	4.11
252.913	4.59
253.295	4.32
253.676	4.09
254.057	4.39
254.438	3.94
254.819	4.02
255.2	5.04
255.581	4.74
255.962	4.68
256.343	4.65
256.724	3.51
257.105	4.03
257.486	3.71
257.867	4.09
258.247	4.88
258.628	3.93
259.009	3.72
259.389	4.3
259.77	3.39
260.15	4.07
260.531	3.93
260.911	3.92
261.292	3.89
261.672	3.7
262.052	3.85
262.432	3.9
262.813	3.96
263.193	3.85
263.573	3.87
263.953	3.8
264.333	3.59
264.713	3.78
265.093	4.1
265.473	4.4
265.853	3.38
266.233	3.84
266.612	4.59
266.992	3.87
267.372	3.8
267.752	3.74
268.131	3.82
268.511	3.76
268.89	3.74
269.27	3.69
269.649	3.42
270.029	3.23
270.408	3.91
270.787	3.56
271.167	3.41
271.546	3.68
271.925	3.5
272.304	3.48
272.683	3.35
273.062	3.29
273.441	3.71
273.82	3.75
274.199	3.43
274.578	3.55
274.957	3.6
275.336	3.65
275.715	3.62
276.093	4.18
276.472	4.65
276.851	3.68
277.229	3.42
277.608	3.92
277.986	3.04
278.365	3.56
278.743	4.14
279.122	3.38
279.5	3.57
279.878	3.27
280.257	3.56
280.635	3.5
281.013	3.45
281.391	3.15
281.769	3.49
282.147	3.42
282.525	3.38
282.903	3.27
283.281	3.75
283.659	3.43
284.037	3.47
284.415	3.57
284.792	3.54
285.17	3.04
285.548	3.38
285.925	3.44
286.303	3.62
286.68	3.25
287.058	3.54
287.435	3.16
287.813	3.61
288.19	3.41
288.567	3.49
288.945	3.37
289.322	3.54
289.699	3.78
290.076	3.33
290.453	3.48
290.83	3.55
291.207	3.36
291.584	3.44
291.961	3.41
292.338	3.64
292.715	3.41
293.092	3.33
293.469	3.72
293.845	3.52
294.222	3.34
294.599	3.2
294.975	3.26
295.352	3.65
295.728	3.32
296.105	3.07
296.481	3.49
296.858	3.19
297.234	3.54
297.61	3.09
297.986	3.4
298.363	3.44
298.739	3.2
299.115	3.38
299.491	3.16
299.867	3.46
300.243	3.3
300.619	3.68
300.995	3.58
301.371	2.92
301.746	3.7
302.122	3.08
302.498	3.68
302.874	3.3
303.249	3.27
303.625	3.48
304	3.52
304.376	3.43
304.751	3.22
305.127	3.59
305.502	3.46
305.878	3.48
306.253	3.52
306.628	3.52
307.003	2.96
307.378	3.74
307.754	3.6
308.129	3.47
308.504	3.4
308.879	2.94
309.254	3.52
309.629	3.75
310.003	3.58
310.378	3.23
310.753	3.23
311.128	3.14
311.502	3.45
311.877	3.43
312.252	3.32
312.626	3.3
313.001	3.57
313.375	3.14
313.75	3.22
314.124	3.12
314.498	3.63
314.873	3.45
315.247	3.87
315.621	3.57
315.995	3.81
316.369	3.2
316.743	3.07
317.117	3.1
317.491	3.34
317.865	3.57
318.239	3.82
318.613	2.97
318.987	3.3
319.361	3.36
319.734	3.08
320.108	3.07
320.482	3.55
320.855	3.15
321.229	3.69
321.602	2.85
321.976	3.46
322.349	3.56
322.723	3.26
323.096	3.51
323.469	3.3
323.843	3.07
324.216	3.57
324.589	3.13
324.962	3.65
325.335	3.55
325.708	4.01
326.081	3.37
326.454	3.23
326.827	3.02
327.2	3.06
327.573	3.65
327.945	3.4
328.318	2.87
328.691	3.51
329.063	3.63
329.436	3.29
329.809	4.06
330.181	3.38
330.553	2.96
330.926	3.02
331.298	3.68
331.671	3.31
332.043	3.59
332.415	3.09
332.787	3.47
333.159	3.38
333.532	3.15
333.904	2.98
334.276	3.2
334.648	3.44
335.02	3.49
335.391	3.35
335.763	3.24
336.135	3.57
336.507	3.8
336.879	3.4
337.25	3.89
337.622	3.42
337.993	3.46
338.365	3.62
338.736	3.69
339.108	3.76
339.479	3.15
339.851	3.85
340.222	3.95
340.593	3.09
340.964	3.51
341.336	3.37
341.707	4.13
342.078	3.36
342.449	3.46
342.82	3.44
343.191	3.42
343.562	3.6
343.933	3.85
344.303	3.46
344.674	3.72
345.045	3.79
345.416	3.34
345.786	3.74
346.157	3.38
346.527	3.46
346.898	3.76
347.268	3.63
347.639	3.32
348.009	3.51
348.38	3.64
348.75	3.8
349.12	3.9
349.49	3.75
349.861	3.65
350.231	3.59
350.601	3.52
350.971	3.48
351.341	3.45
351.711	3.92
352.081	3.52
352.45	3.49
352.82	3.34
353.19	3.67
353.56	3.67
353.929	3.35
354.299	3.62
354.669	3.71
355.038	3.96
355.408	3.37
355.777	3.72
356.147	3.46
356.516	3.66
356.885	3.61
357.254	3.4
357.624	3.46
357.993	3.56
358.362	3.33
358.731	3.72
359.1	3.82
359.469	3.42
359.838	3.52
360.207	3.83
360.576	3.8
360.945	3.6
361.314	3.26
361.682	3.36
362.051	3.81
362.42	3.57
362.788	3.49
363.157	3.95
363.525	3.63
363.894	3.59
364.262	3.45
364.631	3.76
364.999	3.83
365.367	3.8
365.735	3.81
366.104	3.92
366.472	3.9
366.84	3.7
367.208	4.03
367.576	3.82
367.944	3.68
368.312	4.01
368.68	3.78
369.048	3.78
369.416	3.88
369.783	3.77
370.151	3.87
370.519	3.76
370.886	3.72
371.254	4.02
371.621	4.05
371.989	3.91
372.356	4.11
372.724	3.3
373.091	3.81
373.458	3.88
373.826	3.95
374.193	3.84
374.56	3.68
374.927	4.04
375.294	3.74
375.661	3.86
376.028	3.82
376.395	3.95
376.762	3.57
377.129	3.59
377.496	3.97
377.863	4.02
378.229	3.57
378.596	3.64
378.963	4.05
379.329	3.78
379.696	3.6
380.062	4.01
380.429	3.81
380.795	3.85
381.161	3.79
381.528	3.9
381.894	3.68
382.26	3.82
382.626	3.8
382.993	4.02
383.359	4.19
383.725	4.17
384.091	3.99
384.457	4.41
384.823	3.81
385.188	4.06
385.554	4.03
385.92	4.09
386.286	3.89
386.651	3.96
387.017	4.16
387.383	4.05
387.748	4.22
388.114	4.01
388.479	4.02
388.845	4.02
389.21	3.8
389.575	3.93
389.94	3.71
390.306	3.9
390.671	3.99
391.036	4.06
391.401	4.03
391.766	4.02
392.131	4.24
392.496	4.05
392.861	4.12
393.226	3.84
393.591	3.69
393.956	4.1
394.32	4.01
394.685	4.06
395.05	4.19
395.414	4.23
395.779	3.81
396.143	3.87
396.508	3.89
396.872	4.25
397.236	4.07
397.601	3.87
397.965	4.35
398.329	4.34
398.694	4.03
399.058	4.26
399.422	4.09
399.786	4.24
400.15	3.95
400.514	4.02
400.878	3.81
401.242	3.93
401.605	4.4
401.969	4.3
402.333	4.06
402.697	3.86
403.06	4.03
403.424	4.15
403.787	4.14
404.151	4.16
404.514	3.9
404.878	3.97
405.241	4.12
405.604	4.07
405.968	3.92
406.331	4.14
406.694	4.13
407.057	4.07
407.42	4.27
407.783	4.13
408.146	4.08
408.509	4.08
408.872	4.06
409.235	4.31
409.598	4.47
409.961	4.26
410.323	4.34
410.686	4.25
411.049	4.25
411.411	4.35
411.774	4.15
412.136	4.25
412.499	4.07
412.861	3.97
413.223	4.33
413.586	4.23
413.948	4.16
414.31	4.23
414.672	4.23
415.035	3.99
415.397	4.39
415.759	4.19
416.121	4.43
416.483	4.18
416.845	4.1
417.206	4.13
417.568	4.35
417.93	4.18
418.292	4.29
418.653	4.15
419.015	4.33
419.377	4.12
419.738	4.08
420.1	4.08
420.461	4.12
420.822	4.23
421.184	4.19
421.545	4.14
421.906	4.15
422.267	4.11
422.629	4.07
422.99	4.1
423.351	4.18
423.712	4.16
424.073	4.13
424.434	4.21
424.795	4.24
425.155	4.14
425.516	4.15
425.877	4.17
426.238	4.18
426.598	4.15
426.959	4.24
427.32	4.3
427.68	4.2
428.041	4.36
428.401	4.29
428.761	4.5
429.122	4.37
429.482	4.38
429.842	4.44
430.202	4.48
430.563	4.38
430.923	4.41
431.283	4.51
431.643	4.43
432.003	4.39
432.363	4.47
432.722	4.57
433.082	4.29
433.442	4.34
433.802	4.4
434.161	4.34
434.521	4.38
434.881	4.16
435.24	4.19
435.6	4.23
435.959	4.43
436.319	4.36
436.678	4.43
437.037	4.54
437.396	4.5
437.756	4.46
438.115	4.41
438.474	4.46
438.833	4.57
439.192	4.5
439.551	4.51
439.91	4.45
440.269	4.46
440.628	4.32
440.987	4.16
441.345	4.3
441.704	4.35
442.063	4.32
442.421	4.16
442.78	4.3
443.138	4.27
443.497	4.47
443.855	4.56
444.214	4.44
444.572	4.48
444.93	4.42
445.288	4.53
445.647	4.45
446.005	4.49
446.363	4.32
446.721	4.21
447.079	4.31
447.437	4.24
447.795	4.23
448.153	4.2
448.51	4.21
448.868	4.35
449.226	4.4
449.584	4.38
449.941	4.51
450.299	4.53
450.656	4.55
451.014	4.51
451.371	4.25
451.729	4.38
452.086	4.7
452.443	4.56
452.801	4.47
453.158	4.55
453.515	4.45
453.872	4.56
454.229	4.49
454.586	4.46
454.943	4.49
455.3	4.44
455.657	4.51
456.014	4.56
456.371	4.57
456.727	4.53
457.084	4.6
457.441	4.64
457.797	4.39
458.154	4.56
458.51	4.41
458.867	4.75
459.223	4.51
459.58	4.56
459.936	4.53
460.292	4.38
460.648	4.46
461.005	4.31
461.361	4.29
461.717	4.37
462.073	4.46
462.429	4.51
462.785	4.51
463.141	4.54
463.496	4.77
463.852	4.67
464.208	4.68
464.564	4.82
464.919	4.63
465.275	4.7
465.631	4.55
465.986	4.44
466.342	4.58
466.697	4.71
467.052	4.51
467.408	4.61
467.763	4.72
468.118	4.67
468.473	4.56
468.829	4.45
469.184	4.71
469.539	4.51
469.894	4.62
470.249	4.68
470.603	4.67
470.958	4.63
471.313	4.59
471.668	4.65
472.023	4.61
472.377	4.63
472.732	4.6
473.086	4.61
473.441	4.72
473.795	4.64
474.15	4.68
474.504	4.58
474.859	4.76
475.213	4.82
475.567	4.59
475.921	4.72
476.275	4.69
476.63	4.7
476.984	4.74
477.338	4.67
477.692	4.68
478.045	4.58
478.399	4.55
478.753	4.72
479.107	4.53
479.461	4.66
479.814	4.6
480.168	4.59
480.521	4.63
480.875	4.68
481.228	4.82
481.582	4.74
481.935	4.66
482.289	4.61
482.642	4.59
482.995	4.68
483.348	4.43
483.701	4.61
484.055	4.45
484.408	4.49
484.761	4.42
485.114	4.21
485.466	4.1
485.819	4.18
486.172	4.35
486.525	4.54
486.878	4.58
487.23	4.67
487.583	4.69
487.936	4.66
488.288	4.51
488.641	4.42
488.993	4.37
489.345	4.37
489.698	4.38
490.05	4.47
490.402	4.5
490.754	4.65
491.107	4.76
491.459	4.69
491.811	4.72
492.163	4.71
492.515	4.63
492.866	4.44
493.218	4.25
493.57	4.28
493.922	4.51
494.274	4.59
494.625	4.71
494.977	4.73
495.328	4.85
495.68	4.85
496.031	4.8
496.383	4.87
496.734	4.93
497.086	4.82
497.437	4.79
497.788	4.8
498.139	4.69
498.49	4.53
498.842	4.57
499.193	4.71
499.544	4.66
499.894	4.82
500.245	4.82
500.596	4.7
500.947	4.65
501.298	4.74
501.648	4.9
501.999	4.8
502.35	4.83
502.7	4.83
503.051	4.77
503.401	4.77
503.752	4.77
504.102	4.91
504.452	4.85
504.803	4.83
505.153	4.84
505.503	4.71
505.853	4.85
506.203	4.77
506.553	4.76
506.903	4.76
507.253	4.77
507.603	4.74
507.953	4.86
508.303	4.85
508.652	4.81
509.002	4.8
509.352	4.85
509.701	4.71
510.051	4.81
510.4	4.76
510.75	4.74
511.099	4.76
511.449	4.71
511.798	4.8
512.147	4.78
512.496	4.8
512.846	4.79
513.195	4.72
513.544	4.79
513.893	4.84
514.242	4.66
514.591	4.76
514.939	4.77
515.288	4.88
515.637	4.88
515.986	4.83
516.334	4.86
516.683	4.9
517.032	4.86
517.38	4.96
517.729	4.91
518.077	4.82
518.426	4.97
518.774	4.9
519.122	4.76
519.47	4.8
519.819	4.7
520.167	4.7
520.515	4.68
520.863	4.78
521.211	4.7
521.559	4.81
521.907	4.8
522.255	4.92
522.602	4.84
522.95	4.96
523.298	4.93
523.645	4.8
523.993	4.87
524.341	4.98
524.688	4.79
525.036	4.84
525.383	4.91
525.73	5.05
526.078	4.94
526.425	4.85
526.772	4.84
527.119	4.73
527.466	4.69
527.814	4.73
528.161	4.79
528.508	4.88
528.854	4.85
529.201	4.73
529.548	4.73
529.895	4.53
530.242	4.36
530.588	4.46
530.935	4.63
531.282	4.7
531.628	4.76
531.975	4.77
532.321	4.83
532.667	4.93
533.014	4.85
533.36	4.95
533.706	4.9
534.052	4.75
534.399	4.71
534.745	4.62
535.091	4.58
535.437	4.65
535.783	4.79
536.129	4.9
536.474	4.89
536.82	5.02
537.166	4.92
537.512	4.81
537.857	4.86
538.203	4.77
538.549	4.63
538.894	4.86
539.239	4.84
539.585	5.04
539.93	5
540.276	5.02
540.621	4.97
540.966	4.97
541.311	5.01
541.656	5.01
542.001	4.95
542.346	4.72
542.691	4.57
543.036	4.51
543.381	4.62
543.726	4.77
544.071	4.78
544.415	4.88
544.76	4.83
545.105	4.89
545.449	4.92
545.794	5
546.138	4.96
546.483	5.07
546.827	5.02
547.171	4.96
547.516	4.95
547.86	4.94
548.204	4.93
548.548	4.84
548.892	4.8
549.236	4.96
549.58	4.94
549.924	5.13
550.268	5.18
550.612	5.13
550.956	5.14
551.3	5.06
551.643	5.08
551.987	5.17
552.33	5.05
552.674	5.05
553.017	5.06
553.361	4.99
553.704	5.03
554.048	5.04
554.391	4.91
554.734	5.02
555.077	4.96
555.42	4.99
555.764	4.94
556.107	5.07
556.45	5.1
556.793	5.1
557.135	5.23
557.478	5.17
557.821	5.05
558.164	4.99
558.507	5.03
558.849	5.16
559.192	5.17
559.534	5.21
559.877	5.21
560.219	5.06
560.562	5.36
560.904	5.07
561.246	4.9
561.589	5.14
561.931	5.19
562.273	5.18
562.615	5.22
562.957	5.17
563.299	5.04
563.641	5.19
563.983	5.1
564.325	5.06
564.667	5.12
565.008	5.13
565.35	5.22
565.692	5.15
566.033	5.08
566.375	5.2
566.716	5.09
567.058	5.01
567.399	4.87
567.741	4.96
568.082	4.9
568.423	4.96
568.764	5.04
569.105	5.2
569.447	5.1
569.788	5.24
570.129	5.17
570.47	5.26
570.811	5.12
571.151	5.29
571.492	5.14
571.833	5.25
572.174	5.12
572.514	5.15
572.855	5.12
573.195	5
573.536	5.12
573.876	4.94
574.217	4.99
574.557	5.14
574.898	5.16
575.238	5.24
575.578	5.07
575.918	5.05
576.258	5.18
576.598	5.05
576.938	5.22
577.278	5.14
577.618	4.93
577.958	5.26
578.298	5.06
578.638	5.13
578.977	5.17
579.317	5.35
579.657	5.29
579.996	5.08
580.336	5.31
580.675	5.33
581.014	5.34
581.354	5.4
581.693	5.32
582.032	5.35
582.372	5.35
582.711	5.31
583.05	5.17
583.389	5.31
583.728	5.37
584.067	5.34
584.406	5.36
584.745	5.23
585.083	5.13
585.422	5.25
585.761	5.2
586.1	5.15
586.438	5.07
586.777	5.22
587.115	5.48
587.454	5.41
587.792	5.65
588.13	5.22
588.469	5.23
588.807	5.19
589.145	5.2
589.483	5.49
589.821	5.45
590.159	5.31
590.497	5.03
590.835	5.04
591.173	5.32
591.511	5.15
591.849	5.13
592.187	5.04
592.524	5.52
592.862	5.49
593.2	5.34
593.537	5.25
593.875	5.54
594.212	5.35
594.55	5.1
594.887	5.28
595.224	5.23
595.561	5.36
595.899	5.13
596.236	5.16
596.573	5.33
596.91	5.28
597.247	5.2
597.584	5.32
597.921	5.16
598.258	5.08
598.594	5.09
598.931	5.25
599.268	5.14
599.604	5.3
599.941	5.43
600.277	5.37
600.614	5.29
600.95	5.27
601.287	5.2
601.623	5.24
601.959	5.3
602.296	5.33
602.632	5.41
602.968	5.2
603.304	5.37
603.64	5.54
603.976	5.27
604.312	5.34
604.648	5.25
604.984	5.23
605.319	5.3
605.655	5.41
605.991	5.06
606.326	5.12
606.662	5.13
606.998	5.24
607.333	5.3
607.668	5.28
608.004	5.38
608.339	5.45
608.674	5.44
609.01	5.39
609.345	5.52
609.68	5.43
610.015	5.41
610.35	5.29
610.685	5.02
611.02	5.2
611.355	5.17
611.689	5.3
612.024	5.22
612.359	5.2
612.694	5.37
613.028	5.68
613.363	5.59
613.697	5.4
614.032	5.52
614.366	5.48
614.7	5.45
615.035	5.65
615.369	5.48
615.703	5.47
616.037	5.4
616.371	5.4
616.705	5.37
617.039	5.39
617.373	5.51
617.707	5.65
618.041	5.53
618.375	5.78
618.709	5.34
619.042	5.26
619.376	5.66
619.71	5.45
620.043	5.28
620.377	5.44
620.71	5.5
621.043	5.41
621.377	5.23
621.71	5.72
622.043	5.42
622.376	5.03
622.709	5.26
623.043	4.9
623.376	5.78
623.709	5.59
624.041	5.37
624.374	5.19
624.707	5.74
625.04	5.61
625.373	5.39
625.705	5.24
626.038	5.47
626.37	5.5
626.703	5.52
627.035	5.6
627.368	5.48
627.7	5.48
628.032	5.44
628.365	5.33
628.697	5.28
629.029	5.42
629.361	5.75
629.693	5.59
630.025	5.56
630.357	5.64
630.689	5.79
631.021	5.36
631.353	5.73
631.684	5.44
632.016	5.82
632.348	5.53
632.679	5.58
633.011	5.86
633.342	5.56
633.674	5.67
634.005	5.38
634.336	6
634.668	5.86
634.999	5.7
635.33	5.73
635.661	5.56
635.992	5.83
636.323	5.64
636.654	5.94
636.985	5.96
637.316	5.59
637.647	5.89
637.977	5.35
638.308	5.41
638.639	5.41
638.969	5.94
639.3	5.78
639.63	5.64
639.961	5.8
640.291	5.69
640.622	5.58
640.952	5.8
641.282	5.95
641.612	5.5
641.943	5.74
642.273	6.08
642.603	5.85
642.933	5.83
643.263	5.85
643.592	5.53
643.922	5.7
644.252	6.21
644.582	5.82
644.911	5.57
645.241	6.12
645.571	6.16
645.9	5.9
646.23	6.09
646.559	5.43
646.888	5.89
647.218	5.88
647.547	5.51
647.876	5.43
648.205	5.43
648.534	6.02
648.863	5.74
649.192	6.14
649.521	5.58
649.85	5.77
650.179	5.52
650.508	5.79
650.837	6.18
651.165	6.13
651.494	5.95
651.822	5.49
652.151	5.97
652.479	5.8
652.808	5.89
653.136	5.84
653.465	5.84
653.793	5.85
654.121	5.33
654.449	5.52
654.777	5.92
655.105	5.95
655.433	5.71
655.761	6.38
656.089	6.14
656.417	5.97
656.745	6.01
657.073	5.37
657.4	5.99
657.728	5.81
658.056	6.31
658.383	5.74
658.711	5.55
659.038	6.11
659.365	5.4
659.693	5.84
660.02	5.95
660.347	5.73
660.674	5.41
661.001	5.88
661.329	5.49
661.656	6.03
661.982	5.76
662.309	6.09
662.636	5.77
662.963	6.1
663.29	6.11
663.616	6.13
663.943	5.95
664.27	6.07
664.596	6.08
664.923	6.41
665.249	6.21
665.576	6.32
665.902	5.73
666.228	5.89
666.554	5.77
666.881	5.99
667.207	5.79
667.533	5.99
667.859	6.35
668.185	6.15
668.511	5.82
668.837	6.41
669.162	5.61
669.488	5.42
669.814	6.11
670.139	5.77
670.465	6.3
670.791	5.78
671.116	6.64
671.442	6.3
671.767	5.62
672.092	5.62
672.418	6.43
672.743	6.29
673.068	5.92
673.393	5.83
673.718	5.71
674.043	6.49
674.368	6.38
674.693	6.1
675.018	6.51
675.343	6.77
675.667	6.46
675.992	6.38
676.317	5.89
676.641	6.32
676.966	6.39
677.29	6.33
677.615	6.19
677.939	6.15
678.264	5.48
678.588	6.03
678.912	6.35
679.236	5.99
679.56	5.33
679.885	6.41
680.209	6.13
680.532	6.13
680.856	6.25
681.18	5.8
681.504	6.21
681.828	6.52
682.152	6.35
682.475	5.68
682.799	5.95
683.122	6.16
683.446	6.52
683.769	6.29
684.093	5.84
684.416	6.39
684.739	6.61
685.062	6.02
685.386	6.55
685.709	6.64
686.032	6.61
686.355	6.46
686.678	6.16
687.001	6.39
687.324	6.52
687.646	6.74
687.969	6
688.292	5.58
688.614	6.23
688.937	5.93
689.26	6.34
689.582	5.26
689.904	6.72
690.227	6.49
690.549	6.37
690.871	6.77
691.194	5.62
691.516	6.44
691.838	6.07
692.16	6.1
692.482	7.06
692.804	6.44
