Data from 97279_forehead_Reflection__0__06.txt Node

Date: Fri Sep 23 19:29:58 CDT 2022
User: ToomeyLab
Spectrometer: FLMS14357
Trigger mode: 0
Integration Time (sec): 1.000000E-2
Scans to average: 100
Electric dark correction enabled: true
Nonlinearity correction enabled: false
Boxcar width: 0
XAxis mode: Wavelengths
Number of Pixels in Spectrum: 2048
>>>>>Begin Spectral Data<<<<<
189.047	384.96
189.435	384.96
189.823	384.96
190.211	3941.86
190.599	-5.05
190.987	47.08
191.375	-9.57
191.763	108.96
192.151	137.74
192.538	165
192.926	44.96
193.314	282.49
193.702	144.44
194.089	240.97
194.477	30.18
194.864	213.96
195.252	-76.42
195.639	99.77
196.027	-19.45
196.414	-197.72
196.801	155.59
197.189	152.25
197.576	-10.58
197.963	167.4
198.351	19.73
198.738	-20.39
199.125	29.71
199.512	-4.09
199.899	49.8
200.286	-21.03
200.673	14.66
201.06	27.25
201.447	25.3
201.833	39.02
202.22	26.72
202.607	0.78
202.994	-45.06
203.38	40.8
203.767	-41.1
204.154	37.08
204.54	-3.56
204.927	32.11
205.313	16.85
205.699	27.46
206.086	-5.17
206.472	43.08
206.858	13.06
207.245	19.4
207.631	25.61
208.017	13.32
208.403	24.54
208.789	35.07
209.175	28.94
209.561	36.41
209.947	-6.26
210.333	14.95
210.719	40.92
211.105	2.81
211.491	21.84
211.876	54.66
212.262	-0.98
212.648	-9.89
213.034	-16.92
213.419	-5.43
213.805	34.77
214.19	19.12
214.576	12.53
214.961	13.13
215.346	-18.98
215.732	46.48
216.117	7.71
216.502	17.1
216.888	6.19
217.273	2.96
217.658	15.04
218.043	23.75
218.428	-8.64
218.813	21.36
219.198	8.2
219.583	17.43
219.968	-3.91
220.353	7.16
220.738	-0.51
221.122	13.95
221.507	12.3
221.892	-0.86
222.276	-5.07
222.661	5.62
223.046	-4.98
223.43	0.13
223.815	10.36
224.199	0.79
224.583	4.55
224.968	8.08
225.352	-0.5
225.736	2.15
226.121	2.66
226.505	0.98
226.889	4
227.273	2.97
227.657	-0.92
228.041	2.28
228.425	1.12
228.809	3.48
229.193	2.36
229.577	3.65
229.961	1.79
230.344	1.29
230.728	1.15
231.112	0.59
231.495	1.06
231.879	0.65
232.263	2.75
232.646	2.9
233.03	1.07
233.413	1.75
233.797	1.26
234.18	3.23
234.563	0.29
234.946	4.72
235.33	1.69
235.713	2.44
236.096	-0.48
236.479	1.21
236.862	1.16
237.245	3.65
237.628	2.94
238.011	2.6
238.394	2.27
238.777	2.2
239.16	2.92
239.543	1.81
239.925	2.78
240.308	2.65
240.691	2.16
241.073	0.25
241.456	1.49
241.838	2.28
242.221	1.86
242.603	2.75
242.986	0.8
243.368	1.63
243.75	1.45
244.133	1.3
244.515	1.11
244.897	1.58
245.279	1.67
245.661	2.32
246.043	2.21
246.425	1.51
246.807	0.27
247.189	1.46
247.571	2.02
247.953	1.35
248.335	1.56
248.717	1.43
249.098	1.18
249.48	1.29
249.862	1.26
250.243	1.69
250.625	1.75
251.006	1.74
251.388	2.13
251.769	1.78
252.151	1.06
252.532	1.74
252.913	2.08
253.295	2.13
253.676	1.41
254.057	1.31
254.438	1.57
254.819	1.75
255.2	1.51
255.581	2.63
255.962	1.09
256.343	1.97
256.724	0.56
257.105	2.61
257.486	1.54
257.867	1.69
258.247	2.29
258.628	1.79
259.009	1.72
259.389	2.38
259.77	0.86
260.15	1.15
260.531	1.66
260.911	1.49
261.292	1.42
261.672	1.36
262.052	1.21
262.432	1.24
262.813	1.96
263.193	1.85
263.573	1.92
263.953	1.12
264.333	1.51
264.713	1.77
265.093	1.81
265.473	2.08
265.853	1.06
266.233	1.7
266.612	1.28
266.992	2.17
267.372	1.35
267.752	1.25
268.131	1.78
268.511	1.53
268.89	1.3
269.27	1.69
269.649	1.02
270.029	2.01
270.408	1.53
270.787	1.88
271.167	1.42
271.546	1.15
271.925	1.31
272.304	1.44
272.683	1.13
273.062	1.45
273.441	1.43
273.82	1.12
274.199	1.43
274.578	1.42
274.957	1.12
275.336	1.1
275.715	1.28
276.093	2.09
276.472	1.74
276.851	1.51
277.229	0.96
277.608	1.53
277.986	1
278.365	1.42
278.743	2.07
279.122	1.15
279.5	1.69
279.878	1.48
280.257	1.52
280.635	1.62
281.013	1.36
281.391	1.44
281.769	1.84
282.147	1.25
282.525	1.8
282.903	1.54
283.281	1.08
283.659	1.65
284.037	1.46
284.415	1.57
284.792	1.29
285.17	1.59
285.548	1.03
285.925	1.54
286.303	1.58
286.68	1.58
287.058	1.38
287.435	1.17
287.813	1.69
288.19	1.2
288.567	1.72
288.945	1.72
289.322	1.5
289.699	1.55
290.076	1.57
290.453	1.77
290.83	1.66
291.207	1.72
291.584	1.58
291.961	1.42
292.338	1.54
292.715	1.36
293.092	1.17
293.469	1.54
293.845	1.95
294.222	1.85
294.599	1.22
294.975	1.88
295.352	1.63
295.728	1.52
296.105	1.31
296.481	1.75
296.858	2.16
297.234	1.65
297.61	1.3
297.986	1.61
298.363	1.49
298.739	1.74
299.115	1.66
299.491	1.56
299.867	1.49
300.243	1.75
300.619	2.02
300.995	2.06
301.371	1.88
301.746	2.18
302.122	1.59
302.498	1.87
302.874	1.68
303.249	1.89
303.625	1.52
304	1.73
304.376	1.95
304.751	1.61
305.127	1.52
305.502	1.99
305.878	2.1
306.253	2.11
306.628	2.02
307.003	1.29
307.378	2.14
307.754	2.34
308.129	2.02
308.504	2.35
308.879	2.58
309.254	2.49
309.629	2.09
310.003	2.21
310.378	2.68
310.753	1.9
311.128	2.21
311.502	2.14
311.877	2.02
312.252	2.2
312.626	2.47
313.001	2.35
313.375	2.24
313.75	2.36
314.124	2.13
314.498	2.28
314.873	2.77
315.247	2.8
315.621	2.65
315.995	2.56
316.369	2.58
316.743	2.32
317.117	1.97
317.491	3.05
317.865	2.95
318.239	2.98
318.613	2.16
318.987	2.36
319.361	2.33
319.734	2.56
320.108	2.67
320.482	2.34
320.855	2.98
321.229	3.22
321.602	2.52
321.976	3.43
322.349	3.03
322.723	3.27
323.096	3.01
323.469	2.89
323.843	2.72
324.216	3.29
324.589	3.18
324.962	2.81
325.335	3.06
325.708	3.29
326.081	2.86
326.454	3.22
326.827	3.41
327.2	3.19
327.573	3.57
327.945	3.43
328.318	3.28
328.691	3.48
329.063	3.38
329.436	3.68
329.809	4.19
330.181	3.93
330.553	3.36
330.926	3.59
331.298	3.43
331.671	3.91
332.043	3.73
332.415	3.56
332.787	3.55
333.159	3.74
333.532	3.43
333.904	3.27
334.276	3.32
334.648	3.2
335.02	3.87
335.391	3.49
335.763	3.66
336.135	4
336.507	4.29
336.879	3.48
337.25	4.45
337.622	4.34
337.993	3.56
338.365	3.92
338.736	4.48
339.108	4.38
339.479	4.08
339.851	4.3
340.222	4.6
340.593	3.83
340.964	3.86
341.336	4.09
341.707	4.62
342.078	4.01
342.449	4.29
342.82	4.03
343.191	4.13
343.562	4.23
343.933	4.58
344.303	4.21
344.674	4.49
345.045	4.78
345.416	4.23
345.786	4.64
346.157	4.35
346.527	4.53
346.898	4.77
347.268	4.48
347.639	4.64
348.009	4.22
348.38	4.45
348.75	4.37
349.12	4.67
349.49	4.85
349.861	4.68
350.231	4.17
350.601	4.59
350.971	5.01
351.341	4.53
351.711	4.57
352.081	4.65
352.45	4.56
352.82	4.86
353.19	4.94
353.56	5.12
353.929	4.81
354.299	5.01
354.669	5.14
355.038	5.03
355.408	4.88
355.777	4.91
356.147	4.58
356.516	5.26
356.885	5.01
357.254	4.95
357.624	5.16
357.993	5.33
358.362	4.96
358.731	5.08
359.1	5.18
359.469	4.86
359.838	5.18
360.207	5.3
360.576	5.36
360.945	5.09
361.314	5.06
361.682	5.34
362.051	5.51
362.42	5.19
362.788	5.26
363.157	5.44
363.525	5.42
363.894	5.54
364.262	5.27
364.631	5.52
364.999	5.56
365.367	5.59
365.735	5.69
366.104	5.65
366.472	5.68
366.84	5.64
367.208	5.76
367.576	5.83
367.944	5.64
368.312	6.07
368.68	5.71
369.048	5.84
369.416	6.01
369.783	6
370.151	5.98
370.519	5.81
370.886	6.16
371.254	6.12
371.621	6.1
371.989	5.92
372.356	6.12
372.724	5.95
373.091	6.21
373.458	6.09
373.826	6.31
374.193	6.54
374.56	6.5
374.927	6.52
375.294	6.15
375.661	6.22
376.028	6.35
376.395	6.38
376.762	6.27
377.129	6.13
377.496	6.69
377.863	6.58
378.229	6.27
378.596	6.47
378.963	6.56
379.329	6.8
379.696	6.62
380.062	6.77
380.429	6.7
380.795	6.66
381.161	6.72
381.528	6.76
381.894	6.47
382.26	6.85
382.626	6.71
382.993	6.99
383.359	6.97
383.725	7.2
384.091	7.05
384.457	7.03
384.823	6.86
385.188	7.34
385.554	7.35
385.92	7.25
386.286	7.27
386.651	7.37
387.017	7.1
387.383	7.1
387.748	7.31
388.114	7.14
388.479	7.19
388.845	7.13
389.21	7.31
389.575	7.25
389.94	7.25
390.306	7.42
390.671	7.35
391.036	7.33
391.401	7.55
391.766	7.71
392.131	7.74
392.496	7.61
392.861	7.71
393.226	7.54
393.591	7.58
393.956	7.81
394.32	7.69
394.685	7.72
395.05	7.97
395.414	7.69
395.779	7.78
396.143	7.79
396.508	7.96
396.872	7.94
397.236	8.06
397.601	7.94
397.965	8.33
398.329	8.27
398.694	8.03
399.058	8.21
399.422	8.18
399.786	8.2
400.15	8.01
400.514	8.12
400.878	8.26
401.242	8.18
401.605	8.5
401.969	8.41
402.333	8.41
402.697	8.17
403.06	8.59
403.424	8.31
403.787	8.55
404.151	8.45
404.514	8.46
404.878	8.34
405.241	8.38
405.604	8.45
405.968	8.49
406.331	8.6
406.694	8.72
407.057	8.79
407.42	8.78
407.783	8.75
408.146	8.75
408.509	8.95
408.872	8.9
409.235	9.15
409.598	9.17
409.961	9.1
410.323	9.04
410.686	9.13
411.049	9.16
411.411	9.16
411.774	8.89
412.136	9.11
412.499	9.06
412.861	9.27
413.223	9.19
413.586	9.32
413.948	9.37
414.31	9.23
414.672	9.36
415.035	9.52
415.397	9.54
415.759	9.75
416.121	9.59
416.483	9.66
416.845	9.43
417.206	9.49
417.568	9.47
417.93	9.48
418.292	9.62
418.653	9.51
419.015	9.52
419.377	9.46
419.738	9.52
420.1	9.47
420.461	9.67
420.822	9.56
421.184	9.74
421.545	9.66
421.906	9.69
422.267	9.56
422.629	9.66
422.99	9.69
423.351	9.75
423.712	9.84
424.073	9.93
424.434	9.98
424.795	10.09
425.155	9.97
425.516	9.93
425.877	9.83
426.238	10.06
426.598	10.1
426.959	10.2
427.32	10.44
427.68	10.28
428.041	10.45
428.401	10.6
428.761	10.72
429.122	10.68
429.482	10.66
429.842	10.88
430.202	10.76
430.563	10.87
430.923	11.01
431.283	10.93
431.643	10.81
432.003	10.94
432.363	11.08
432.722	11.12
433.082	10.92
433.442	10.84
433.802	10.98
434.161	10.96
434.521	10.83
434.881	10.88
435.24	10.95
435.6	10.97
435.959	11.14
436.319	11.3
436.678	11.3
437.037	11.43
437.396	11.36
437.756	11.51
438.115	11.52
438.474	11.51
438.833	11.56
439.192	11.62
439.551	11.59
439.91	11.4
440.269	11.6
440.628	11.38
440.987	11.33
441.345	11.43
441.704	11.59
442.063	11.6
442.421	11.39
442.78	11.49
443.138	11.68
443.497	11.93
443.855	12
444.214	12.04
444.572	12.01
444.93	12.18
445.288	12.03
445.647	12.1
446.005	12
446.363	12.02
446.721	11.84
447.079	11.87
447.437	11.87
447.795	11.77
448.153	11.8
448.51	11.89
448.868	12.11
449.226	12.16
449.584	12.14
449.941	12.38
450.299	12.43
450.656	12.59
451.014	12.64
451.371	12.56
451.729	12.76
452.086	12.92
452.443	12.81
452.801	12.9
453.158	12.77
453.515	12.78
453.872	12.77
454.229	12.77
454.586	12.85
454.943	12.99
455.3	12.86
455.657	13.06
456.014	13.12
456.371	13.11
456.727	13.11
457.084	13.33
457.441	13.36
457.797	13.28
458.154	13.35
458.51	13.45
458.867	13.41
459.223	13.35
459.58	13.27
459.936	13.3
460.292	13.27
460.648	13.39
461.005	13.2
461.361	12.94
461.717	13.08
462.073	13.35
462.429	13.34
462.785	13.63
463.141	13.73
463.496	13.81
463.852	13.86
464.208	13.75
464.564	13.86
464.919	14.03
465.275	14.06
465.631	14.02
465.986	13.88
466.342	13.97
466.697	13.93
467.052	14.26
467.408	14.22
467.763	13.97
468.118	14.19
468.473	14.05
468.829	13.88
469.184	14.15
469.539	14
469.894	14.07
470.249	14.33
470.603	14.27
470.958	14.45
471.313	14.5
471.668	14.44
472.023	14.41
472.377	14.54
472.732	14.58
473.086	14.57
473.441	14.74
473.795	14.83
474.15	14.61
474.504	14.69
474.859	14.71
475.213	14.72
475.567	14.63
475.921	14.87
476.275	15.04
476.63	14.89
476.984	15.15
477.338	14.97
477.692	15.04
478.045	14.94
478.399	14.97
478.753	15.08
479.107	14.9
479.461	15.12
479.814	15.05
480.168	15.07
480.521	15.25
480.875	15.27
481.228	15.54
481.582	15.31
481.935	15.43
482.289	15.32
482.642	15.17
482.995	15.35
483.348	15.24
483.701	15.2
484.055	15.17
484.408	15.12
484.761	14.88
485.114	14.44
485.466	14.2
485.819	14.35
486.172	14.78
486.525	15.07
486.878	15.25
487.23	15.4
487.583	15.51
487.936	15.46
488.288	15.45
488.641	15.05
488.993	15.02
489.345	15.14
489.698	15.04
490.05	15.23
490.402	15.37
490.754	15.73
491.107	15.84
491.459	15.95
491.811	16.11
492.163	16.16
492.515	15.91
492.866	15.51
493.218	15.27
493.57	15.33
493.922	15.68
494.274	15.98
494.625	16.24
494.977	16.34
495.328	16.52
495.68	16.7
496.031	16.62
496.383	16.74
496.734	16.79
497.086	16.67
497.437	16.84
497.788	16.78
498.139	16.56
498.49	16.44
498.842	16.42
499.193	16.54
499.544	16.76
499.894	16.62
500.245	16.75
500.596	16.85
500.947	16.81
501.298	16.95
501.648	17.07
501.999	17.18
502.35	17.28
502.7	17.39
503.051	17.27
503.401	17.34
503.752	17.14
504.102	17.45
504.452	17.37
504.803	17.34
505.153	17.36
505.503	17.32
505.853	17.45
506.203	17.23
506.553	17.42
506.903	17.48
507.253	17.58
507.603	17.61
507.953	17.55
508.303	17.65
508.652	17.62
509.002	17.62
509.352	17.64
509.701	17.45
510.051	17.43
510.4	17.53
510.75	17.49
511.099	17.56
511.449	17.61
511.798	17.77
512.147	17.85
512.496	17.92
512.846	17.96
513.195	17.86
513.544	18.03
513.893	17.99
514.242	17.95
514.591	18.07
514.939	18.01
515.288	18.25
515.637	18.27
515.986	18.31
516.334	18.38
516.683	18.56
517.032	18.48
517.38	18.6
517.729	18.5
518.077	18.54
518.426	18.58
518.774	18.52
519.122	18.34
519.47	18.37
519.819	18.24
520.167	18.12
520.515	18.09
520.863	18.4
521.211	18.47
521.559	18.53
521.907	18.59
522.255	18.71
522.602	18.77
522.95	18.82
523.298	18.95
523.645	18.93
523.993	19.19
524.341	19.2
524.688	19.19
525.036	19.04
525.383	19.09
525.73	19.29
526.078	19.19
526.425	19.11
526.772	18.81
527.119	18.8
527.466	18.64
527.814	18.81
528.161	19.06
528.508	19.21
528.854	19.25
529.201	19.16
529.548	18.98
529.895	18.54
530.242	18.18
530.588	18.3
530.935	18.7
531.282	18.95
531.628	19.11
531.975	19.25
532.321	19.35
532.667	19.67
533.014	19.62
533.36	19.61
533.706	19.44
534.052	19.6
534.399	19.28
534.745	19.09
535.091	18.87
535.437	19.3
535.783	19.53
536.129	19.75
536.474	19.86
536.82	20.07
537.166	20.05
537.512	20.16
537.857	19.94
538.203	19.73
538.549	19.52
538.894	19.92
539.239	20.04
539.585	20.24
539.93	20.31
540.276	20.51
540.621	20.55
540.966	20.6
541.311	20.6
541.656	20.45
542.001	20.52
542.346	20.08
542.691	19.61
543.036	19.4
543.381	19.62
543.726	19.97
544.071	20.08
544.415	20.34
544.76	20.3
545.105	20.41
545.449	20.59
545.794	20.72
546.138	20.82
546.483	20.99
546.827	20.91
547.171	20.76
547.516	20.82
547.86	20.89
548.204	20.66
548.548	20.6
548.892	20.7
549.236	21.09
549.58	21.14
549.924	21.37
550.268	21.51
550.612	21.3
550.956	21.58
551.3	21.78
551.643	21.57
551.987	21.8
552.33	21.68
552.674	21.58
553.017	21.59
553.361	21.73
553.704	21.59
554.048	21.73
554.391	21.4
554.734	21.59
555.077	21.48
555.42	21.58
555.764	21.7
556.107	21.92
556.45	22.05
556.793	21.9
557.135	22.04
557.478	22.24
557.821	22.16
558.164	22.1
558.507	22.18
558.849	22.17
559.192	22.13
559.534	22.31
559.877	22.42
560.219	22.28
560.562	22.63
560.904	22.4
561.246	22.38
561.589	22.54
561.931	22.3
562.273	22.61
562.615	22.48
562.957	22.45
563.299	22.45
563.641	22.59
563.983	22.8
564.325	22.7
564.667	22.71
565.008	22.58
565.35	22.82
565.692	22.78
566.033	22.65
566.375	22.84
566.716	22.84
567.058	22.57
567.399	22.74
567.741	22.61
568.082	22.52
568.423	22.53
568.764	22.86
569.105	23.02
569.447	22.99
569.788	23.07
570.129	23.16
570.47	23.14
570.811	23.2
571.151	23.27
571.492	23.03
571.833	23.1
572.174	23.46
572.514	23.37
572.855	23.24
573.195	23.24
573.536	23.31
573.876	23.02
574.217	23.24
574.557	23.32
574.898	23.49
575.238	23.56
575.578	23.55
575.918	23.34
576.258	23.58
576.598	23.39
576.938	23.43
577.278	23.58
577.618	23.59
577.958	23.73
578.298	23.78
578.638	23.9
578.977	23.89
579.317	24
579.657	24.16
579.996	23.93
580.336	24.16
580.675	23.98
581.014	24
581.354	24.33
581.693	24.21
582.032	24.16
582.372	24.36
582.711	24.12
583.05	24.36
583.389	24.36
583.728	24.33
584.067	24.37
584.406	24.44
584.745	24.35
585.083	24.43
585.422	24.51
585.761	24.64
586.1	24.6
586.438	24.43
586.777	24.36
587.115	24.49
587.454	24.7
587.792	24.55
588.13	24.66
588.469	24.44
588.807	24.62
589.145	24.68
589.483	24.86
589.821	24.85
590.159	24.76
590.497	24.68
590.835	24.72
591.173	24.79
591.511	24.9
591.849	24.71
592.187	24.8
592.524	25.1
592.862	25.18
593.2	25.21
593.537	25.05
593.875	24.99
594.212	25.29
594.55	25.04
594.887	25.09
595.224	25.05
595.561	25.15
595.899	25.05
596.236	24.97
596.573	25.21
596.91	25.53
597.247	25.37
597.584	25.37
597.921	25.32
598.258	25.32
598.594	25.24
598.931	24.91
599.268	25.15
599.604	25.46
599.941	25.53
600.277	25.39
600.614	25.67
600.95	25.9
601.287	25.77
601.623	25.76
601.959	25.55
602.296	25.91
602.632	25.98
602.968	25.77
603.304	25.88
603.64	26
603.976	25.87
604.312	26
604.648	25.87
604.984	25.69
605.319	25.82
605.655	25.75
605.991	25.87
606.326	25.57
606.662	25.43
606.998	25.98
607.333	26.04
607.668	26.13
608.004	26.2
608.339	26.3
608.674	26.5
609.01	26.41
609.345	26.3
609.68	26.47
610.015	26.67
610.35	26.36
610.685	25.93
611.02	26.13
611.355	26.06
611.689	26.27
612.024	26.27
612.359	26.46
612.694	26.52
613.028	26.56
613.363	26.66
613.697	26.91
614.032	26.79
614.366	27
614.7	26.84
615.035	27.05
615.369	26.88
615.703	26.97
616.037	26.94
616.371	27.29
616.705	26.77
617.039	27.16
617.373	27.02
617.707	27.42
618.041	27.09
618.375	27.17
618.709	26.99
619.042	27.03
619.376	27.43
619.71	27.18
620.043	27.17
620.377	27.21
620.71	27.29
621.043	27.12
621.377	27
621.71	27.48
622.043	27.37
622.376	27.25
622.709	27.47
623.043	27.11
623.376	27.45
623.709	27.64
624.041	27.74
624.374	27.11
624.707	27.46
625.04	27.67
625.373	27.51
625.705	27.8
626.038	27.5
626.37	28.02
626.703	27.83
627.035	27.76
627.368	27.73
627.7	27.86
628.032	27.56
628.365	27.5
628.697	27.75
629.029	28.04
629.361	27.8
629.693	27.93
630.025	28.01
630.357	28.03
630.689	27.98
631.021	28
631.353	28.45
631.684	28.18
632.016	28.46
632.348	27.54
632.679	28.3
633.011	28.27
633.342	28.35
633.674	28.49
634.005	28.33
634.336	28.35
634.668	28.08
634.999	28.4
635.33	27.88
635.661	28.36
635.992	27.96
636.323	28.59
636.654	28.41
636.985	28.41
637.316	28.86
637.647	28.71
637.977	28.48
638.308	28.43
638.639	28.31
638.969	28.91
639.3	28.58
639.63	28.64
639.961	28.85
640.291	28.7
640.622	28.73
640.952	28.97
641.282	28.78
641.612	29.15
641.943	28.75
642.273	28.77
642.603	28.86
642.933	28.85
643.263	28.85
643.592	28.91
643.922	29.39
644.252	29.49
644.582	29.37
644.911	28.74
645.241	29.3
645.571	29.43
645.9	28.85
646.23	29.26
646.559	29.02
646.888	29.24
647.218	29.36
647.547	29.18
647.876	28.99
648.205	28.9
648.534	29.48
648.863	28.96
649.192	29.47
649.521	28.84
649.85	29.3
650.179	28.91
650.508	29.34
650.837	29.73
651.165	29.51
651.494	29.72
651.822	29.47
652.151	29.46
652.479	29.61
652.808	29.02
653.136	29.76
653.465	29.3
653.793	29.81
654.121	29.44
654.449	29.02
654.777	29.8
655.105	29.95
655.433	30.45
655.761	30.04
656.089	30.1
656.417	29.89
656.745	30.01
657.073	29.27
657.4	30.28
657.728	30.11
658.056	30.44
658.383	30.04
658.711	29.85
659.038	30.28
659.365	29.87
659.693	30.4
660.02	30.41
660.347	29.71
660.674	29.78
661.001	29.84
661.329	30.01
661.656	30.23
661.982	30.51
662.309	30.38
662.636	30.64
662.963	30.71
663.29	30.95
663.616	30.64
663.943	30.62
664.27	30.67
664.596	30.75
664.923	30.38
665.249	31.01
665.576	30.75
665.902	30.46
666.228	30.7
666.554	30.04
666.881	30.7
667.207	30.88
667.533	30.53
667.859	30.51
668.185	30.85
668.511	29.98
668.837	30.75
669.162	30.6
669.488	30.72
669.814	30.38
670.139	30.74
670.465	30.88
670.791	30.29
671.116	30.96
671.442	30.81
671.767	30.72
672.092	30.56
672.418	31.28
672.743	30.94
673.068	30.79
673.393	30.78
673.718	31.15
674.043	30.8
674.368	31.3
674.693	31.12
675.018	31.31
675.343	31.35
675.667	31.13
