Data from 97279_chest_Reflection__1__02.txt Node

Date: Fri Sep 23 19:27:14 CDT 2022
User: ToomeyLab
Spectrometer: FLMS14357
Trigger mode: 0
Integration Time (sec): 1.000000E-2
Scans to average: 100
Electric dark correction enabled: true
Nonlinearity correction enabled: false
Boxcar width: 0
XAxis mode: Wavelengths
Number of Pixels in Spectrum: 2048
>>>>>Begin Spectral Data<<<<<
189.047	-158.51
189.435	-158.51
189.823	-158.51
190.211	-2979.07
190.599	-78.66
190.987	-22.86
191.375	5.11
191.763	122.01
192.151	151.94
192.538	245.22
192.926	178.22
193.314	423.38
193.702	1033.33
194.089	-22.64
194.477	46.35
194.864	177.05
195.252	-131.32
195.639	-56.06
196.027	94.55
196.414	-471.69
196.801	203.5
197.189	376.66
197.576	192.89
197.963	-98.1
198.351	37.33
198.738	-25.53
199.125	-0.31
199.512	13.74
199.899	17.87
200.286	3.57
200.673	18.63
201.06	0.55
201.447	31.18
201.833	7.12
202.22	31.54
202.607	35.47
202.994	15
203.38	-27.86
203.767	-80.99
204.154	18.4
204.54	6.61
204.927	28.51
205.313	-4.06
205.699	-11.23
206.086	9.09
206.472	6.34
206.858	25.41
207.245	7.38
207.631	3.71
208.017	18.51
208.403	-9.83
208.789	30.04
209.175	-7.67
209.561	42.03
209.947	2.83
210.333	3.7
210.719	-2.71
211.105	23.84
211.491	28.17
211.876	-2.9
212.262	29.05
212.648	7.49
213.034	-25.06
213.419	-15.77
213.805	30.07
214.19	7.7
214.576	-12.7
214.961	19.15
215.346	-11.31
215.732	30.06
216.117	10.12
216.502	8.51
216.888	6.8
217.273	7.83
217.658	16.72
218.043	27.14
218.428	20.57
218.813	20.16
219.198	7.38
219.583	8.11
219.968	8.08
220.353	8.42
220.738	15.27
221.122	4.72
221.507	-12.94
221.892	7.85
222.276	-3.76
222.661	-8.42
223.046	10.58
223.43	-0.39
223.815	13.57
224.199	3.65
224.583	5.28
224.968	-2.94
225.352	2.92
225.736	-2.11
226.121	5.91
226.505	4.99
226.889	2.9
227.273	5.01
227.657	0.5
228.041	1.95
228.425	3.16
228.809	2
229.193	3.77
229.577	5.47
229.961	3.35
230.344	3.12
230.728	2.67
231.112	2.5
231.495	2.11
231.879	1.64
232.263	3.79
232.646	3.39
233.03	2.96
233.413	3.79
233.797	3.08
234.18	4.58
234.563	1.47
234.946	4.23
235.33	1.52
235.713	4.33
236.096	2.11
236.479	2.53
236.862	2.27
237.245	4.39
237.628	4.19
238.011	4.48
238.394	2.66
238.777	3.08
239.16	2.98
239.543	3.86
239.925	1.74
240.308	4.32
240.691	4.13
241.073	2.35
241.456	3.13
241.838	4.84
242.221	3.57
242.603	4.13
242.986	2.82
243.368	3.4
243.75	3.82
244.133	3.24
244.515	3.23
244.897	3.44
245.279	3.75
245.661	3.53
246.043	4.31
246.425	3.61
246.807	3.11
247.189	3.77
247.571	3.61
247.953	3.04
248.335	3.58
248.717	3.71
249.098	3.32
249.48	3.53
249.862	3.95
250.243	3.72
250.625	3.75
251.006	4.06
251.388	3.74
251.769	4.79
252.151	2.11
252.532	3.75
252.913	4.45
253.295	3.96
253.676	3.69
254.057	3.61
254.438	3.81
254.819	4.5
255.2	4.27
255.581	4.41
255.962	2.72
256.343	4.15
256.724	3.65
257.105	3.99
257.486	2.35
257.867	2.95
258.247	4.62
258.628	2.94
259.009	3.41
259.389	3.74
259.77	3.19
260.15	3.8
260.531	3.44
260.911	3.38
261.292	3.3
261.672	3.04
262.052	3.23
262.432	3.41
262.813	3.68
263.193	3.47
263.573	3.68
263.953	3.21
264.333	2.89
264.713	3.8
265.093	3.87
265.473	3.81
265.853	3.28
266.233	3.28
266.612	3.46
266.992	4.15
267.372	3.15
267.752	3.33
268.131	3.84
268.511	3.14
268.89	3.38
269.27	2.96
269.649	3.46
270.029	3.26
270.408	3.39
270.787	3.03
271.167	3.37
271.546	3.58
271.925	3.12
272.304	3
272.683	3.15
273.062	3.07
273.441	3.37
273.82	3.26
274.199	3.31
274.578	3.16
274.957	3.02
275.336	3.13
275.715	3.51
276.093	3.95
276.472	3.87
276.851	3.19
277.229	3.14
277.608	3.61
277.986	2.98
278.365	3.58
278.743	4.12
279.122	2.92
279.5	2.79
279.878	2.78
280.257	3.31
280.635	2.83
281.013	3.05
281.391	3.11
281.769	2.89
282.147	2.96
282.525	2.68
282.903	2.8
283.281	3.09
283.659	3.23
284.037	3.04
284.415	2.95
284.792	3.35
285.17	3.06
285.548	3.14
285.925	3.53
286.303	3.57
286.68	3.31
287.058	3.61
287.435	2.95
287.813	3.46
288.19	3.08
288.567	3.3
288.945	3.31
289.322	3.75
289.699	3.41
290.076	3.57
290.453	3.43
290.83	3.25
291.207	3.55
291.584	3.46
291.961	3.27
292.338	3.48
292.715	3.52
293.092	3.27
293.469	3.97
293.845	3.89
294.222	4.13
294.599	3.33
294.975	3.9
295.352	3.55
295.728	3.28
296.105	3.57
296.481	3.46
296.858	3.88
297.234	3.71
297.61	3.29
297.986	3.88
298.363	3.68
298.739	4
299.115	3.76
299.491	3.64
299.867	3.94
300.243	3.97
300.619	4.33
300.995	4.31
301.371	3.51
301.746	4.18
302.122	3.89
302.498	4.14
302.874	3.65
303.249	4.08
303.625	3.39
304	4.21
304.376	3.85
304.751	3.9
305.127	4.27
305.502	4.29
305.878	3.97
306.253	4.34
306.628	3.95
307.003	3.63
307.378	4.45
307.754	4.39
308.129	3.96
308.504	4.02
308.879	4.68
309.254	4.58
309.629	4.45
310.003	4.28
310.378	4.12
310.753	4.05
311.128	4.07
311.502	3.97
311.877	4.14
312.252	4.12
312.626	4.26
313.001	4.15
313.375	4.2
313.75	4.46
314.124	4.21
314.498	4.5
314.873	4.6
315.247	4.66
315.621	4.03
315.995	4.73
316.369	4.44
316.743	3.88
317.117	4.31
317.491	4.1
317.865	4.68
318.239	5.24
318.613	4.26
318.987	4.22
319.361	4.35
319.734	4.68
320.108	4.36
320.482	4.51
320.855	4.65
321.229	4.69
321.602	4.31
321.976	4.83
322.349	4.7
322.723	4.68
323.096	4.82
323.469	4.01
323.843	4.61
324.216	4.59
324.589	5.14
324.962	4.59
325.335	4.46
325.708	4.73
326.081	4.42
326.454	4.64
326.827	4.16
327.2	4.38
327.573	4.67
327.945	4.76
328.318	4.43
328.691	4.68
329.063	4.67
329.436	4.86
329.809	5.53
330.181	4.25
330.553	4.44
330.926	4.33
331.298	4.61
331.671	4.47
332.043	5.01
332.415	4.69
332.787	4.39
333.159	4.59
333.532	4.57
333.904	4.27
334.276	3.92
334.648	4.58
335.02	4.47
335.391	4.84
335.763	4.68
336.135	4.66
336.507	5.04
336.879	4.89
337.25	4.83
337.622	4.98
337.993	4.9
338.365	4.87
338.736	5.09
339.108	5.14
339.479	4.78
339.851	4.92
340.222	4.99
340.593	4.85
340.964	4.9
341.336	4.7
341.707	5.27
342.078	4.78
342.449	4.85
342.82	4.57
343.191	4.6
343.562	4.53
343.933	5.01
344.303	4.86
344.674	5.18
345.045	5.44
345.416	5.01
345.786	5.03
346.157	4.57
346.527	4.53
346.898	4.8
347.268	4.9
347.639	4.54
348.009	4.91
348.38	4.9
348.75	4.94
349.12	5.1
349.49	5
349.861	4.9
350.231	4.51
350.601	4.68
350.971	4.93
351.341	5.01
351.711	5.15
352.081	4.61
352.45	4.66
352.82	4.54
353.19	5.18
353.56	5.08
353.929	4.72
354.299	5.04
354.669	4.85
355.038	5.44
355.408	4.58
355.777	4.98
356.147	4.88
356.516	5.34
356.885	4.98
357.254	4.66
357.624	4.72
357.993	5.1
358.362	5.07
358.731	4.69
359.1	5.15
359.469	4.94
359.838	4.88
360.207	5.12
360.576	5.35
360.945	5.2
361.314	4.93
361.682	4.88
362.051	4.86
362.42	5.02
362.788	5.03
363.157	5.1
363.525	5.12
363.894	5.07
364.262	4.83
364.631	5.14
364.999	4.94
365.367	5.06
365.735	5.2
366.104	5.36
366.472	5.27
366.84	5.07
367.208	5.39
367.576	5.19
367.944	5.16
368.312	5.17
368.68	5.22
369.048	5.03
369.416	5.06
369.783	5.17
370.151	5.32
370.519	5.24
370.886	5.42
371.254	5.41
371.621	5.31
371.989	5.33
372.356	5.72
372.724	5.19
373.091	5.1
373.458	5.35
373.826	5.33
374.193	5.28
374.56	5.25
374.927	5.25
375.294	5.27
375.661	5.06
376.028	5.21
376.395	5.53
376.762	5.42
377.129	5.18
377.496	5.44
377.863	5.24
378.229	5.29
378.596	5.33
378.963	5.33
379.329	5.48
379.696	5.21
380.062	5.31
380.429	5.35
380.795	5.19
381.161	5.51
381.528	5.45
381.894	5.43
382.26	5.24
382.626	5.1
382.993	5.59
383.359	5.47
383.725	5.78
384.091	5.44
384.457	5.42
384.823	4.97
385.188	5.5
385.554	5.4
385.92	5.62
386.286	5.5
386.651	5.51
387.017	5.72
387.383	5.58
387.748	5.57
388.114	5.41
388.479	5.59
388.845	5.64
389.21	5.38
389.575	5.52
389.94	5.37
390.306	5.41
390.671	5.47
391.036	5.47
391.401	5.66
391.766	5.5
392.131	5.48
392.496	5.72
392.861	5.54
393.226	5.4
393.591	5.42
393.956	5.67
394.32	5.62
394.685	5.64
395.05	5.78
395.414	5.48
395.779	5.35
396.143	5.48
396.508	5.57
396.872	5.65
397.236	5.55
397.601	5.65
397.965	5.97
398.329	5.87
398.694	5.59
399.058	5.62
399.422	5.75
399.786	5.87
400.15	5.62
400.514	5.69
400.878	5.62
401.242	5.48
401.605	5.97
401.969	5.89
402.333	5.53
402.697	5.63
403.06	5.78
403.424	5.56
403.787	5.76
404.151	5.78
404.514	5.72
404.878	5.59
405.241	5.71
405.604	5.51
405.968	5.5
406.331	5.67
406.694	5.77
407.057	5.88
407.42	5.79
407.783	5.69
408.146	5.66
408.509	5.8
408.872	5.79
409.235	6.24
409.598	6.11
409.961	6.08
410.323	5.71
410.686	5.79
411.049	5.74
411.411	5.92
411.774	5.76
412.136	5.86
412.499	5.68
412.861	5.73
413.223	5.81
413.586	5.94
413.948	5.91
414.31	5.6
414.672	5.91
415.035	5.77
415.397	6.18
415.759	6.01
416.121	5.93
416.483	5.86
416.845	5.82
417.206	5.95
417.568	5.85
417.93	5.94
418.292	5.94
418.653	5.95
419.015	6.05
419.377	5.72
419.738	5.79
420.1	5.9
420.461	5.99
420.822	5.91
421.184	5.91
421.545	5.87
421.906	5.85
422.267	5.68
422.629	5.75
422.99	5.77
423.351	5.87
423.712	5.77
424.073	5.8
424.434	5.94
424.795	5.99
425.155	5.86
425.516	5.92
425.877	5.84
426.238	5.95
426.598	5.89
426.959	6.05
427.32	6.04
427.68	6
428.041	6.06
428.401	6.1
428.761	6.14
429.122	6.16
429.482	6.19
429.842	6.33
430.202	6.34
430.563	6.12
430.923	6.44
431.283	6.32
431.643	6.24
432.003	6.16
432.363	6.41
432.722	6.46
433.082	6.18
433.442	6.24
433.802	6.18
434.161	6.28
434.521	6.12
434.881	6.21
435.24	6.17
435.6	6.24
435.959	6.18
436.319	6.3
436.678	6.27
437.037	6.44
437.396	6.49
437.756	6.38
438.115	6.17
438.474	6.3
438.833	6.45
439.192	6.47
439.551	6.32
439.91	6.48
440.269	6.43
440.628	6.34
440.987	6.33
441.345	6.26
441.704	6.29
442.063	6.32
442.421	6.2
442.78	6.34
443.138	6.36
443.497	6.57
443.855	6.41
444.214	6.59
444.572	6.48
444.93	6.43
445.288	6.56
445.647	6.64
446.005	6.51
446.363	6.44
446.721	6.39
447.079	6.41
447.437	6.35
447.795	6.31
448.153	6.19
448.51	6.38
448.868	6.46
449.226	6.58
449.584	6.57
449.941	6.63
450.299	6.7
450.656	6.62
451.014	6.68
451.371	6.5
451.729	6.62
452.086	6.82
452.443	6.66
452.801	6.68
453.158	6.63
453.515	6.83
453.872	6.76
454.229	6.8
454.586	6.69
454.943	6.78
455.3	6.63
455.657	6.73
456.014	6.96
456.371	6.81
456.727	6.92
457.084	6.86
457.441	6.93
457.797	6.79
458.154	6.83
458.51	6.91
458.867	7.02
459.223	6.89
459.58	6.99
459.936	6.87
460.292	6.73
460.648	6.81
461.005	6.77
461.361	6.68
461.717	6.72
462.073	6.79
462.429	6.91
462.785	6.96
463.141	6.9
463.496	7.05
463.852	7.05
464.208	6.98
464.564	7.16
464.919	7.13
465.275	7.18
465.631	6.91
465.986	6.93
466.342	7.06
466.697	7.06
467.052	7.22
467.408	7.08
467.763	7.03
468.118	7.07
468.473	7.01
468.829	6.94
469.184	7.14
469.539	6.99
469.894	7.1
470.249	7.18
470.603	7.05
470.958	7.12
471.313	7.13
471.668	7.25
472.023	7.09
472.377	7.01
472.732	7.17
473.086	7.2
473.441	7.36
473.795	7.36
474.15	7.23
474.504	7.31
474.859	7.29
475.213	7.31
475.567	7.23
475.921	7.35
476.275	7.3
476.63	7.32
476.984	7.4
477.338	7.32
477.692	7.4
478.045	7.2
478.399	7.39
478.753	7.3
479.107	7.37
479.461	7.36
479.814	7.34
480.168	7.36
480.521	7.43
480.875	7.46
481.228	7.45
481.582	7.41
481.935	7.51
482.289	7.44
482.642	7.39
482.995	7.48
483.348	7.31
483.701	7.46
484.055	7.39
484.408	7.35
484.761	7.23
485.114	7.06
485.466	6.89
485.819	6.9
486.172	7.09
486.525	7.25
486.878	7.29
487.23	7.4
487.583	7.42
487.936	7.49
488.288	7.38
488.641	7.28
488.993	7.25
489.345	7.28
489.698	7.25
490.05	7.34
490.402	7.38
490.754	7.52
491.107	7.53
491.459	7.55
491.811	7.72
492.163	7.68
492.515	7.53
492.866	7.46
493.218	7.29
493.57	7.34
493.922	7.5
494.274	7.57
494.625	7.75
494.977	7.78
495.328	7.93
495.68	7.98
496.031	7.96
496.383	7.97
496.734	8.01
497.086	7.97
497.437	8.05
497.788	7.84
498.139	7.84
498.49	7.77
498.842	7.73
499.193	7.95
499.544	7.99
499.894	7.92
500.245	7.95
500.596	7.96
500.947	7.97
501.298	8.02
501.648	8.2
501.999	8.13
502.35	8.13
502.7	8.12
503.051	8.01
503.401	8.11
503.752	7.97
504.102	8.19
504.452	8.19
504.803	8.17
505.153	8.26
505.503	8.09
505.853	8.15
506.203	8.25
506.553	8.25
506.903	8.15
507.253	8.3
507.603	8.31
507.953	8.33
508.303	8.31
508.652	8.23
509.002	8.31
509.352	8.35
509.701	8.19
510.051	8.27
510.4	8.31
510.75	8.29
511.099	8.32
511.449	8.32
511.798	8.47
512.147	8.36
512.496	8.29
512.846	8.42
513.195	8.47
513.544	8.53
513.893	8.43
514.242	8.4
514.591	8.52
514.939	8.52
515.288	8.53
515.637	8.64
515.986	8.68
516.334	8.6
516.683	8.75
517.032	8.62
517.38	8.64
517.729	8.58
518.077	8.62
518.426	8.71
518.774	8.68
519.122	8.71
519.47	8.55
519.819	8.65
520.167	8.6
520.515	8.54
520.863	8.7
521.211	8.74
521.559	8.73
521.907	8.7
522.255	8.86
522.602	8.88
522.95	8.92
523.298	8.86
523.645	8.94
523.993	8.97
524.341	9.11
524.688	8.9
525.036	8.94
525.383	8.85
525.73	9.07
526.078	8.98
526.425	9.03
526.772	8.98
527.119	8.83
527.466	8.79
527.814	8.86
528.161	9.03
528.508	9.09
528.854	9.01
529.201	9.07
529.548	9.01
529.895	8.8
530.242	8.59
530.588	8.65
530.935	8.79
531.282	8.9
531.628	9.03
531.975	9.11
532.321	9.17
532.667	9.22
533.014	9.26
533.36	9.41
533.706	9.27
534.052	9.3
534.399	9.24
534.745	9.04
535.091	9
535.437	9.18
535.783	9.28
536.129	9.34
536.474	9.42
536.82	9.47
537.166	9.57
537.512	9.52
537.857	9.54
538.203	9.4
538.549	9.48
538.894	9.58
539.239	9.59
539.585	9.72
539.93	9.69
540.276	9.77
540.621	9.87
540.966	9.93
541.311	9.95
541.656	9.76
542.001	9.81
542.346	9.6
542.691	9.41
543.036	9.35
543.381	9.51
543.726	9.55
544.071	9.67
544.415	9.8
544.76	9.72
545.105	9.9
545.449	9.91
545.794	10
546.138	10.1
546.483	10.04
546.827	10.14
547.171	10.05
547.516	10.08
547.86	10.08
548.204	10.04
548.548	9.98
548.892	10.17
549.236	10.3
549.58	10.22
549.924	10.43
550.268	10.53
550.612	10.43
550.956	10.58
551.3	10.52
551.643	10.53
551.987	10.54
552.33	10.46
552.674	10.51
553.017	10.51
553.361	10.48
553.704	10.51
554.048	10.6
554.391	10.53
554.734	10.57
555.077	10.5
555.42	10.65
555.764	10.68
556.107	10.79
556.45	10.71
556.793	10.75
557.135	10.9
557.478	10.84
557.821	10.92
558.164	10.9
558.507	10.9
558.849	11.03
559.192	11.1
559.534	11.01
559.877	11.08
560.219	10.78
560.562	11.28
560.904	11.04
561.246	11.12
561.589	11.19
561.931	11.12
562.273	11.25
562.615	11.2
562.957	11.12
563.299	11.23
563.641	11.24
563.983	11.38
564.325	11.29
564.667	11.44
565.008	11.34
565.35	11.45
565.692	11.4
566.033	11.37
566.375	11.55
566.716	11.34
567.058	11.46
567.399	11.39
567.741	11.48
568.082	11.54
568.423	11.44
568.764	11.63
569.105	11.72
569.447	11.58
569.788	11.65
570.129	11.66
570.47	11.91
570.811	11.9
571.151	11.92
571.492	11.71
571.833	11.81
572.174	11.83
572.514	12.04
572.855	11.84
573.195	11.87
573.536	11.91
573.876	11.82
574.217	11.92
574.557	12.04
574.898	12.12
575.238	12.12
575.578	12.18
575.918	11.99
576.258	12.21
576.598	12.17
576.938	12.13
577.278	12.21
577.618	12.28
577.958	12.39
578.298	12.41
578.638	12.45
578.977	12.41
579.317	12.51
579.657	12.63
579.996	12.37
580.336	12.66
580.675	12.69
581.014	12.49
581.354	12.77
581.693	12.73
582.032	12.73
582.372	12.78
582.711	12.56
583.05	12.71
583.389	12.9
583.728	12.89
584.067	12.87
584.406	12.84
584.745	12.92
585.083	12.69
585.422	12.87
585.761	13.07
586.1	13.03
586.438	12.86
586.777	12.84
587.115	13.26
587.454	13.15
587.792	13.24
588.13	13.09
588.469	12.93
588.807	13.12
589.145	13.39
589.483	13.33
589.821	13.41
590.159	13.2
590.497	13.27
590.835	13.24
591.173	13.47
591.511	13.38
591.849	13.4
592.187	13.35
592.524	13.73
592.862	13.56
593.2	13.47
593.537	13.45
593.875	13.7
594.212	13.66
594.55	13.34
594.887	13.7
595.224	13.6
595.561	13.59
595.899	13.56
596.236	13.47
596.573	13.78
596.91	13.69
597.247	13.96
597.584	14.01
597.921	13.92
598.258	14.01
598.594	13.79
598.931	13.79
599.268	13.88
599.604	14.09
599.941	14.19
600.277	14.08
600.614	14.05
600.95	14.31
601.287	14.25
601.623	14.13
601.959	14.16
602.296	14.25
602.632	14.25
602.968	14.28
603.304	14.45
603.64	14.44
603.976	14.54
604.312	14.44
604.648	14.58
604.984	14.39
605.319	14.52
605.655	14.28
605.991	14.28
606.326	14.48
606.662	14.45
606.998	14.81
607.333	14.56
607.668	14.55
608.004	14.79
608.339	14.67
608.674	14.91
609.01	15.05
609.345	14.95
609.68	14.88
610.015	15.37
610.35	15.22
610.685	14.75
611.02	14.86
611.355	14.96
611.689	14.96
612.024	15.05
612.359	14.94
612.694	15.07
613.028	15.21
613.363	15.49
613.697	15.39
614.032	15.32
614.366	15.59
614.7	15.4
615.035	15.49
615.369	15.69
615.703	15.59
616.037	15.88
616.371	15.83
616.705	15.5
617.039	15.44
617.373	15.89
617.707	15.94
618.041	15.87
618.375	15.72
618.709	15.42
619.042	15.64
619.376	15.94
619.71	15.94
620.043	15.68
620.377	15.84
620.71	16.06
621.043	15.9
621.377	15.63
621.71	16.13
622.043	15.86
622.376	15.68
622.709	15.79
623.043	15.97
623.376	16.49
623.709	16.61
624.041	16.17
624.374	16.06
624.707	16.13
625.04	16.24
625.373	16.42
625.705	16.36
626.038	16.05
626.37	16.39
626.703	16.3
627.035	16.53
627.368	16.4
627.7	16.49
628.032	16.33
628.365	16.54
628.697	16.42
629.029	16.56
629.361	16.6
629.693	16.72
630.025	16.9
630.357	16.83
630.689	16.87
631.021	16.86
631.353	16.95
631.684	16.78
632.016	17.15
632.348	16.68
632.679	17.18
633.011	17.17
633.342	17.06
633.674	17.05
634.005	16.87
634.336	17.48
634.668	16.65
634.999	17.12
635.33	16.9
635.661	17.19
635.992	17.08
636.323	17.35
636.654	17.3
636.985	17.53
637.316	17.18
637.647	17.34
637.977	17.29
638.308	17.33
638.639	17.27
638.969	17.66
639.3	17.56
639.63	17.31
639.961	17.38
640.291	17.49
640.622	17.54
640.952	17.76
641.282	17.62
641.612	17.54
641.943	17.4
642.273	18.02
642.603	17.87
642.933	17.79
643.263	17.83
643.592	18.07
643.922	18.08
644.252	18.14
644.582	18.29
644.911	18.23
645.241	18.28
645.571	18.68
645.9	18.21
646.23	18.38
646.559	17.45
646.888	18.08
647.218	18.35
647.547	18.09
647.876	17.97
648.205	18.22
648.534	18.49
648.863	18.24
649.192	18.45
649.521	18.17
649.85	18.27
650.179	18.12
650.508	18.14
650.837	18.8
651.165	18.89
651.494	18.52
651.822	18.57
652.151	18.35
652.479	18.57
652.808	18.51
653.136	18.41
653.465	18.76
653.793	18.75
654.121	18.52
654.449	18.6
654.777	18.7
655.105	19.09
655.433	19.14
655.761	19.15
656.089	19.06
656.417	18.96
656.745	18.82
657.073	18.87
657.4	19.16
657.728	19.16
658.056	19.64
658.383	19.69
658.711	19.72
659.038	19.44
659.365	19.66
659.693	19.8
660.02	19.12
660.347	19.05
660.674	19.03
661.001	19.33
661.329	18.93
661.656	19.55
661.982	19.52
662.309	19.58
662.636	20.01
662.963	19.74
663.29	19.85
663.616	19.97
663.943	19.38
664.27	19.85
664.596	19.88
664.923	19.95
665.249	20.08
665.576	19.84
665.902	19.66
666.228	19.81
666.554	19.52
666.881	19.87
667.207	20.03
667.533	19.32
667.859	19.92
668.185	19.95
668.511	19.46
668.837	20.45
669.162	19.94
669.488	19.98
669.814	20.19
670.139	20.07
670.465	20.33
670.791	19.97
671.116	20.14
671.442	20.36
671.767	19.72
672.092	20.26
672.418	20.64
672.743	20.9
673.068	20.43
673.393	20.44
673.718	20.38
674.043	20.96
674.368	20.93
674.693	20.75
675.018	20.88
675.343	20.63
675.667	20.16
675.992	20.5
676.317	20.61
676.641	21.08
676.966	20.8
677.29	21
677.615	20.98
677.939	20.78
678.264	20.33
678.588	20.78
678.912	21.1
679.236	21.52
679.56	20.56
679.885	20.83
680.209	21.01
680.532	20.5
680.856	20.99
681.18	20.89
681.504	21.22
681.828	21.22
682.152	21.16
682.475	21.35
682.799	21.51
683.122	21.61
