Data from 97279_forehead_Reflection__2__08.txt Node

Date: Fri Sep 23 19:30:23 CDT 2022
User: ToomeyLab
Spectrometer: FLMS14357
Trigger mode: 0
Integration Time (sec): 1.000000E-2
Scans to average: 100
Electric dark correction enabled: true
Nonlinearity correction enabled: false
Boxcar width: 0
XAxis mode: Wavelengths
Number of Pixels in Spectrum: 2048
>>>>>Begin Spectral Data<<<<<
189.047	351.57
189.435	351.57
189.823	351.57
190.211	-1039.53
190.599	-63.45
190.987	-39.97
191.375	193.05
191.763	80.19
192.151	60.27
192.538	34.08
192.926	23.68
193.314	-140.78
193.702	13959.26
194.089	-477.08
194.477	111.2
194.864	290.77
195.252	-15.41
195.639	146.96
196.027	-18.55
196.414	-1051.6
196.801	14.35
197.189	152.68
197.576	87.68
197.963	1.24
198.351	35.48
198.738	5.47
199.125	5.76
199.512	37.31
199.899	-3.99
200.286	1.73
200.673	3.43
201.06	22.01
201.447	45.16
201.833	29.64
202.22	18.28
202.607	14.77
202.994	50.63
203.38	0.65
203.767	11.68
204.154	42.17
204.54	22.39
204.927	40.74
205.313	48.35
205.699	18.54
206.086	-12.93
206.472	33.39
206.858	47.8
207.245	6.71
207.631	43.29
208.017	22.51
208.403	13.38
208.789	27.7
209.175	44.72
209.561	27.86
209.947	1.04
210.333	0.38
210.719	0.98
211.105	-5.64
211.491	29.03
211.876	33.92
212.262	6.79
212.648	2.94
213.034	12.64
213.419	21.29
213.805	46.94
214.19	12.83
214.576	13.36
214.961	20.33
215.346	-23.17
215.732	44.82
216.117	7.66
216.502	2.17
216.888	13.22
217.273	22.3
217.658	-7.74
218.043	22.13
218.428	12.12
218.813	0.48
219.198	34.96
219.583	29.07
219.968	26.83
220.353	13.39
220.738	3.73
221.122	5.62
221.507	4.42
221.892	12.11
222.276	-1.5
222.661	-2.6
223.046	16.26
223.43	4.24
223.815	11.15
224.199	7.28
224.583	8.76
224.968	2.78
225.352	16.29
225.736	2.23
226.121	8.72
226.505	5.11
226.889	8.54
227.273	3.54
227.657	2.07
228.041	3.56
228.425	7.56
228.809	4.03
229.193	3.53
229.577	3.66
229.961	3.87
230.344	2.84
230.728	2.62
231.112	2.68
231.495	2.49
231.879	1.88
232.263	3
232.646	4.87
233.03	3.6
233.413	4.67
233.797	4.02
234.18	4.48
234.563	3.25
234.946	3.58
235.33	2.95
235.713	3.27
236.096	2.74
236.479	2.43
236.862	3.85
237.245	4.63
237.628	3.5
238.011	4.19
238.394	3.38
238.777	4.17
239.16	4.13
239.543	3.57
239.925	4.58
240.308	4.04
240.691	4.36
241.073	3.01
241.456	2.97
241.838	5.14
242.221	3.24
242.603	4.42
242.986	2.51
243.368	2.55
243.75	2.86
244.133	3.1
244.515	2.68
244.897	3.3
245.279	3.25
245.661	4.14
246.043	4.18
246.425	3.99
246.807	2.35
247.189	3.58
247.571	3.39
247.953	3.06
248.335	3.33
248.717	3.03
249.098	2.76
249.48	3.16
249.862	3.27
250.243	3.44
250.625	3.21
251.006	3.79
251.388	3.09
251.769	4.24
252.151	2.34
252.532	3.56
252.913	4
253.295	3.75
253.676	3.49
254.057	3.22
254.438	2.93
254.819	4.35
255.2	3.78
255.581	4.77
255.962	3.34
256.343	3.32
256.724	2.66
257.105	3.63
257.486	3.79
257.867	2.84
258.247	4.51
258.628	3.62
259.009	3.08
259.389	3.8
259.77	2.08
260.15	3.26
260.531	2.86
260.911	3.04
261.292	2.88
261.672	2.89
262.052	2.84
262.432	3.17
262.813	3.53
263.193	3.19
263.573	3.03
263.953	2.78
264.333	3.34
264.713	3.53
265.093	3.48
265.473	3.31
265.853	2.49
266.233	2.91
266.612	3.09
266.992	3.7
267.372	3.09
267.752	3.47
268.131	3.46
268.511	2.77
268.89	3.02
269.27	3.06
269.649	2.85
270.029	3.29
270.408	3.62
270.787	2.98
271.167	2.92
271.546	2.89
271.925	2.54
272.304	3.08
272.683	2.79
273.062	2.41
273.441	2.92
273.82	3.04
274.199	2.93
274.578	2.74
274.957	2.81
275.336	3.26
275.715	3.2
276.093	3.59
276.472	3.76
276.851	3.18
277.229	2.92
277.608	2.69
277.986	3.03
278.365	3.16
278.743	3.46
279.122	2.54
279.5	3.16
279.878	3
280.257	3.11
280.635	2.67
281.013	3.03
281.391	2.69
281.769	2.82
282.147	3.21
282.525	2.92
282.903	2.99
283.281	3.02
283.659	3.06
284.037	2.9
284.415	2.84
284.792	3.06
285.17	3.21
285.548	2.94
285.925	3.08
286.303	3.28
286.68	2.97
287.058	3.05
287.435	3.04
287.813	3.17
288.19	2.92
288.567	3.16
288.945	3.41
289.322	3.28
289.699	3.13
290.076	3.13
290.453	3.21
290.83	3.17
291.207	3.15
291.584	3.07
291.961	3.04
292.338	3.39
292.715	3.03
293.092	3.1
293.469	3.61
293.845	3.72
294.222	3.79
294.599	3.28
294.975	3.76
295.352	3.47
295.728	3.1
296.105	3.72
296.481	3.38
296.858	3.67
297.234	3.73
297.61	3.22
297.986	3.38
298.363	3.26
298.739	3.67
299.115	3.47
299.491	3.4
299.867	3.59
300.243	3.78
300.619	4.09
300.995	4.14
301.371	3.16
301.746	4.34
302.122	3.94
302.498	3.87
302.874	3.68
303.249	4.26
303.625	3.96
304	3.8
304.376	4.18
304.751	3.69
305.127	4.13
305.502	4.49
305.878	4.07
306.253	4.38
306.628	3.8
307.003	4.01
307.378	4.5
307.754	5.15
308.129	4.44
308.504	4.47
308.879	4.53
309.254	4.43
309.629	4.19
310.003	4.71
310.378	4.77
310.753	4.64
311.128	4.51
311.502	4.4
311.877	4.49
312.252	4.47
312.626	4.89
313.001	4.86
313.375	4.85
313.75	4.72
314.124	4.78
314.498	5.23
314.873	5.47
315.247	5.38
315.621	5.37
315.995	4.9
316.369	5.11
316.743	4.96
317.117	4.86
317.491	5.18
317.865	5.99
318.239	5.71
318.613	5.25
318.987	5.55
319.361	5.54
319.734	5.47
320.108	5.11
320.482	6.09
320.855	5.54
321.229	5.77
321.602	5.64
321.976	6.54
322.349	5.8
322.723	5.98
323.096	5.88
323.469	5.69
323.843	5.7
324.216	6.35
324.589	6.24
324.962	6.06
325.335	5.74
325.708	5.93
326.081	6.07
326.454	6.23
326.827	5.49
327.2	6.13
327.573	6.38
327.945	6.66
328.318	6.13
328.691	6.16
329.063	6.41
329.436	6.51
329.809	7.12
330.181	6.43
330.553	5.95
330.926	6.64
331.298	6.84
331.671	7.02
332.043	6.75
332.415	6.1
332.787	6.43
333.159	7.25
333.532	6.33
333.904	6.29
334.276	6.32
334.648	7.24
335.02	6.66
335.391	6.78
335.763	6.79
336.135	6.77
336.507	7.29
336.879	7.15
337.25	7.18
337.622	7.21
337.993	6.93
338.365	6.98
338.736	7.54
339.108	7.31
339.479	7.11
339.851	7.67
340.222	7.75
340.593	6.82
340.964	7.78
341.336	7.07
341.707	7.78
342.078	7.41
342.449	7.41
342.82	7.64
343.191	7.26
343.562	7.35
343.933	8.13
344.303	7.5
344.674	7.83
345.045	8.15
345.416	7.69
345.786	8.09
346.157	7.51
346.527	7.97
346.898	7.87
347.268	7.88
347.639	7.64
348.009	7.86
348.38	7.84
348.75	7.95
349.12	7.87
349.49	8.1
349.861	8.31
350.231	7.81
350.601	8.05
350.971	8.11
351.341	8.2
351.711	8
352.081	8.13
352.45	7.87
352.82	8.61
353.19	8.57
353.56	8.63
353.929	8.16
354.299	8.46
354.669	8.66
355.038	8.76
355.408	8.31
355.777	8.34
356.147	8.26
356.516	8.71
356.885	8.59
357.254	8.67
357.624	8.49
357.993	8.85
358.362	8.71
358.731	8.64
359.1	8.71
359.469	8.79
359.838	8.76
360.207	8.97
360.576	8.94
360.945	8.89
361.314	8.77
361.682	8.69
362.051	9.27
362.42	9.2
362.788	9
363.157	9.22
363.525	9.26
363.894	9.1
364.262	9.13
364.631	9.45
364.999	9.36
365.367	9.3
365.735	9.52
366.104	9.48
366.472	9.59
366.84	9.59
367.208	9.55
367.576	9.77
367.944	9.57
368.312	10.02
368.68	9.81
369.048	9.65
369.416	9.62
369.783	9.93
370.151	10.15
370.519	10.03
370.886	10.03
371.254	10.22
371.621	10.22
371.989	10.13
372.356	10.4
372.724	9.72
373.091	10.22
373.458	9.97
373.826	10.12
374.193	10.5
374.56	10.35
374.927	10.56
375.294	10.69
375.661	10.36
376.028	10.36
376.395	10.38
376.762	10.31
377.129	10.41
377.496	10.71
377.863	10.75
378.229	10.35
378.596	10.61
378.963	10.67
379.329	10.64
379.696	10.6
380.062	10.71
380.429	10.71
380.795	10.93
381.161	10.63
381.528	10.79
381.894	10.83
382.26	11.14
382.626	11.08
382.993	11.11
383.359	11.21
383.725	11.32
384.091	11.14
384.457	11.43
384.823	11.36
385.188	11.44
385.554	11.37
385.92	11.81
386.286	11.45
386.651	11.49
387.017	11.56
387.383	11.36
387.748	11.69
388.114	11.43
388.479	11.4
388.845	11.64
389.21	11.56
389.575	11.7
389.94	11.37
390.306	11.47
390.671	11.69
391.036	11.76
391.401	11.85
391.766	11.81
392.131	11.8
392.496	11.91
392.861	11.73
393.226	11.88
393.591	11.83
393.956	11.98
394.32	11.98
394.685	12.01
395.05	12.23
395.414	12.3
395.779	12.14
396.143	12.2
396.508	12.2
396.872	12.17
397.236	12.46
397.601	12.53
397.965	12.65
398.329	12.46
398.694	12.46
399.058	12.39
399.422	12.65
399.786	12.67
400.15	12.44
400.514	12.87
400.878	12.76
401.242	12.63
401.605	12.84
401.969	12.77
402.333	12.86
402.697	12.88
403.06	13.11
403.424	13.06
403.787	13.03
404.151	13.07
404.514	12.99
404.878	13.11
405.241	13.13
405.604	12.86
405.968	13.03
406.331	12.98
406.694	13.09
407.057	13.41
407.42	13.26
407.783	13.28
408.146	13.18
408.509	13.44
408.872	13.49
409.235	13.77
409.598	13.57
409.961	13.45
410.323	13.43
410.686	13.64
411.049	13.62
411.411	13.66
411.774	13.77
412.136	13.65
412.499	13.88
412.861	13.69
413.223	13.83
413.586	13.64
413.948	14.01
414.31	13.88
414.672	14.02
415.035	14.05
415.397	14.13
415.759	14.08
416.121	14.36
416.483	14.17
416.845	14.04
417.206	14.13
417.568	14.2
417.93	14.06
418.292	14.22
418.653	14.15
419.015	14.19
419.377	14.05
419.738	14.07
420.1	14
420.461	14.26
420.822	14.19
421.184	14.23
421.545	14.13
421.906	14.4
422.267	14.2
422.629	14.15
422.99	14.13
423.351	14.2
423.712	14.34
424.073	14.5
424.434	14.54
424.795	14.7
425.155	14.56
425.516	14.51
425.877	14.49
426.238	14.61
426.598	14.57
426.959	14.66
427.32	14.84
427.68	14.95
428.041	15.16
428.401	15.31
428.761	15.24
429.122	15.41
429.482	15.39
429.842	15.68
430.202	15.47
430.563	15.46
430.923	15.68
431.283	15.47
431.643	15.43
432.003	15.65
432.363	15.81
432.722	15.73
433.082	15.82
433.442	15.59
433.802	15.65
434.161	15.79
434.521	15.61
434.881	15.48
435.24	15.54
435.6	15.62
435.959	15.62
436.319	16.01
436.678	15.9
437.037	16.33
437.396	16.26
437.756	16.08
438.115	16.18
438.474	16.17
438.833	16.31
439.192	16.38
439.551	16.45
439.91	16.42
440.269	16.33
440.628	16.17
440.987	16.11
441.345	16.05
441.704	16.23
442.063	16.17
442.421	16.2
442.78	16.29
443.138	16.21
443.497	16.57
443.855	16.59
444.214	16.87
444.572	16.77
444.93	16.87
445.288	17.06
445.647	16.91
446.005	16.77
446.363	16.69
446.721	16.62
447.079	16.56
447.437	16.6
447.795	16.47
448.153	16.34
448.51	16.47
448.868	16.67
449.226	16.87
449.584	16.93
449.941	17.02
450.299	17.28
450.656	17.3
451.014	17.45
451.371	17.24
451.729	17.57
452.086	17.71
452.443	17.64
452.801	17.7
453.158	17.55
453.515	17.64
453.872	17.69
454.229	17.55
454.586	17.58
454.943	17.72
455.3	17.58
455.657	17.7
456.014	17.94
456.371	17.87
456.727	17.82
457.084	18.01
457.441	18.15
457.797	17.9
458.154	18.08
458.51	18.24
458.867	18.28
459.223	18.03
459.58	18.25
459.936	18.15
460.292	17.88
460.648	17.99
461.005	18.05
461.361	17.77
461.717	17.77
462.073	17.96
462.429	18.09
462.785	18.35
463.141	18.32
463.496	18.6
463.852	18.65
464.208	18.68
464.564	18.83
464.919	18.87
465.275	18.9
465.631	18.68
465.986	18.87
466.342	18.77
466.697	18.95
467.052	19
467.408	18.94
467.763	19.07
468.118	19.24
468.473	18.95
468.829	18.82
469.184	19.07
469.539	18.93
469.894	19.12
470.249	19.25
470.603	19.23
470.958	19.34
471.313	19.3
471.668	19.36
472.023	19.28
472.377	19.3
472.732	19.49
473.086	19.43
473.441	19.63
473.795	19.85
474.15	19.57
474.504	19.46
474.859	19.61
475.213	19.7
475.567	19.65
475.921	19.93
476.275	19.85
476.63	19.92
476.984	20
477.338	19.99
477.692	20.05
478.045	19.88
478.399	20.05
478.753	20.08
479.107	20.02
479.461	19.97
479.814	20.06
480.168	20.1
480.521	20.33
480.875	20.21
481.228	20.5
481.582	20.26
481.935	20.44
482.289	20.33
482.642	20.4
482.995	20.35
483.348	20.08
483.701	20.15
484.055	20.24
484.408	20.04
484.761	19.91
485.114	19.48
485.466	19.23
485.819	19.41
486.172	19.7
486.525	19.93
486.878	20.18
487.23	20.33
487.583	20.53
487.936	20.59
488.288	20.4
488.641	20.13
488.993	20
489.345	20.1
489.698	20.1
490.05	20.33
490.402	20.38
490.754	20.6
491.107	20.89
491.459	20.98
491.811	21.15
492.163	21.33
492.515	21.15
492.866	20.73
493.218	20.41
493.57	20.53
493.922	20.75
494.274	20.85
494.625	21.22
494.977	21.43
495.328	21.63
495.68	21.76
496.031	21.82
496.383	21.86
496.734	22.01
497.086	22.01
497.437	22.13
497.788	21.77
498.139	21.73
498.49	21.74
498.842	21.85
499.193	21.92
499.544	21.98
499.894	21.99
500.245	22.14
500.596	22.16
500.947	22.13
501.298	22.3
501.648	22.43
501.999	22.39
502.35	22.51
502.7	22.47
503.051	22.53
503.401	22.49
503.752	22.51
504.102	22.79
504.452	22.67
504.803	22.76
505.153	22.88
505.503	22.61
505.853	22.74
506.203	22.7
506.553	22.96
506.903	22.87
507.253	23.06
507.603	23.18
507.953	23.23
508.303	23.23
508.652	23.01
509.002	23.19
509.352	23.22
509.701	22.89
510.051	23
510.4	23.07
510.75	23.01
511.099	23.15
511.449	23.06
511.798	23.3
512.147	23.27
512.496	23.5
512.846	23.46
513.195	23.58
513.544	23.69
513.893	23.5
514.242	23.61
514.591	23.5
514.939	23.63
515.288	23.8
515.637	23.96
515.986	24.06
516.334	24.03
516.683	24.13
517.032	24.11
517.38	24.32
517.729	24.29
518.077	24.24
518.426	24.43
518.774	24.2
519.122	24.12
519.47	24.09
519.819	23.96
520.167	23.82
520.515	23.85
520.863	23.92
521.211	24.15
521.559	24.15
521.907	24.3
522.255	24.48
522.602	24.61
522.95	24.68
523.298	24.75
523.645	24.8
523.993	24.93
524.341	25.01
524.688	25.08
525.036	24.97
525.383	25.06
525.73	25.2
526.078	25.17
526.425	25.1
526.772	24.87
527.119	24.77
527.466	24.62
527.814	24.69
528.161	24.82
528.508	25.03
528.854	25.1
529.201	24.98
529.548	24.89
529.895	24.48
530.242	24.13
530.588	24.35
530.935	24.61
531.282	24.79
531.628	24.95
531.975	25.14
532.321	25.37
532.667	25.44
533.014	25.6
533.36	25.62
533.706	25.57
534.052	25.65
534.399	25.36
534.745	25.27
535.091	24.99
535.437	25.46
535.783	25.55
536.129	25.72
536.474	25.91
536.82	26.04
537.166	26.3
537.512	26.29
537.857	26.07
538.203	25.85
538.549	25.83
538.894	26.1
539.239	26.11
539.585	26.54
539.93	26.55
540.276	26.79
540.621	26.7
540.966	26.86
541.311	27.07
541.656	26.79
542.001	26.79
542.346	26.46
542.691	26.05
543.036	25.89
543.381	26.06
543.726	26.17
544.071	26.32
544.415	26.52
544.76	26.48
545.105	26.67
545.449	26.95
545.794	27.05
546.138	27.32
546.483	27.32
546.827	27.34
547.171	27.33
547.516	27.41
547.86	27.37
548.204	27.18
548.548	27.03
548.892	27.21
549.236	27.41
549.58	27.64
549.924	27.87
550.268	27.89
550.612	28.07
550.956	28.23
551.3	28.24
551.643	28.07
551.987	28.41
552.33	28.4
552.674	28.35
553.017	28.38
553.361	28.38
553.704	28.3
554.048	28.51
554.391	28.11
554.734	28.27
555.077	28.44
555.42	28.58
555.764	28.46
556.107	28.8
556.45	28.82
556.793	28.87
557.135	29.15
557.478	29.13
557.821	29.01
558.164	28.94
558.507	28.97
558.849	29.15
559.192	29.23
559.534	29.19
559.877	29.27
560.219	29.22
560.562	29.41
560.904	29.49
561.246	29.29
561.589	29.6
561.931	29.31
562.273	29.66
562.615	29.57
562.957	29.47
563.299	29.63
563.641	29.62
563.983	29.84
564.325	29.76
564.667	29.57
565.008	29.93
565.35	29.76
565.692	29.85
566.033	29.77
566.375	30.16
566.716	29.99
567.058	29.91
567.399	29.84
567.741	29.69
568.082	29.62
568.423	29.84
568.764	29.84
569.105	30.14
569.447	30.36
569.788	30.4
570.129	30.47
570.47	30.66
570.811	30.44
571.151	30.67
571.492	30.45
571.833	30.47
572.174	30.7
572.514	30.83
572.855	30.47
573.195	30.46
573.536	30.51
573.876	30.45
574.217	30.65
574.557	30.72
574.898	30.86
575.238	31.02
575.578	31.02
575.918	31.05
576.258	31.19
576.598	31.04
576.938	30.98
577.278	31.12
577.618	31.17
577.958	31.31
578.298	31.44
578.638	31.18
578.977	31.43
579.317	31.39
579.657	31.74
579.996	31.38
580.336	31.76
580.675	31.86
581.014	31.69
581.354	31.96
581.693	31.63
582.032	31.86
582.372	32.24
582.711	31.98
583.05	32.06
583.389	32.25
583.728	32.19
584.067	32.11
584.406	31.9
584.745	32.06
585.083	32.3
585.422	32.26
585.761	32.28
586.1	32.26
586.438	32.41
586.777	32.4
587.115	32.4
587.454	32.58
587.792	32.78
588.13	32.37
588.469	32.52
588.807	32.39
589.145	32.52
589.483	32.54
589.821	32.72
590.159	32.95
590.497	32.6
590.835	32.6
591.173	33.05
591.511	32.87
591.849	32.69
592.187	33.01
592.524	33.07
592.862	33.23
593.2	33.14
593.537	33.05
593.875	33.59
594.212	33.2
594.55	33.16
594.887	33.29
595.224	33.46
595.561	33.44
595.899	33.31
596.236	33.17
596.573	33.3
596.91	33.57
597.247	33.67
597.584	33.78
597.921	33.59
598.258	33.59
598.594	33.17
598.931	33.41
599.268	33.46
599.604	33.58
599.941	33.87
600.277	33.8
600.614	33.93
600.95	34.07
601.287	34.24
601.623	34.16
601.959	34.2
602.296	34.26
602.632	34.45
602.968	34.19
603.304	34.57
603.64	34.35
603.976	34.38
604.312	34.32
604.648	34.3
604.984	34.03
605.319	34.24
605.655	34.36
605.991	34.51
606.326	34.2
606.662	34.14
606.998	34.54
607.333	34.41
607.668	34.77
608.004	34.69
608.339	34.88
608.674	34.91
609.01	35.16
609.345	34.89
609.68	35.18
610.015	35.46
610.35	35.21
610.685	34.93
611.02	34.71
611.355	34.81
611.689	34.96
612.024	34.92
612.359	35.26
612.694	35.21
613.028	35.52
613.363	35.44
613.697	35.59
614.032	35.38
614.366	35.48
614.7	35.89
615.035	35.72
615.369	35.69
615.703	35.84
616.037	35.75
616.371	35.94
616.705	35.52
617.039	35.79
617.373	36.07
617.707	36.2
618.041	36.04
618.375	36.26
618.709	35.9
619.042	35.92
619.376	36.24
619.71	36.54
620.043	36.27
620.377	36.1
620.71	36.34
621.043	36.34
621.377	36.17
621.71	36.64
622.043	36.42
622.376	36.62
622.709	36.8
623.043	36.61
623.376	36.74
623.709	36.69
624.041	36.88
624.374	36.26
624.707	37.11
625.04	37.25
625.373	37.33
625.705	36.96
626.038	36.82
626.37	37.1
626.703	36.84
627.035	36.97
627.368	37.27
627.7	37.17
628.032	36.91
628.365	37.01
628.697	36.94
629.029	36.96
629.361	36.7
629.693	37.37
630.025	37.19
630.357	37.19
630.689	37.37
631.021	37.26
631.353	37.47
631.684	37.34
632.016	37.81
632.348	37.59
632.679	37.9
633.011	37.62
633.342	37.64
633.674	37.68
634.005	37.9
634.336	37.89
634.668	37.65
634.999	37.93
635.33	38.04
635.661	37.73
635.992	38.04
636.323	37.77
636.654	38.07
636.985	37.95
637.316	38.09
637.647	38.13
637.977	37.97
638.308	38.19
638.639	38.15
638.969	38.29
639.3	38.16
639.63	38.04
639.961	37.71
640.291	38.69
640.622	38.72
640.952	38.53
641.282	38.9
641.612	38.63
641.943	38.34
642.273	38.4
642.603	38.94
642.933	38.68
643.263	38.47
643.592	38.85
643.922	38.67
644.252	38.9
644.582	39.05
644.911	38.99
645.241	38.66
645.571	39.46
645.9	38.64
646.23	39.28
646.559	38.55
646.888	39.12
647.218	39.35
647.547	38.83
647.876	39.17
648.205	38.8
648.534	39.52
648.863	39.68
649.192	39.27
649.521	38.8
649.85	38.76
650.179	39.06
650.508	39.03
650.837	39.56
651.165	39.42
651.494	39.37
651.822	39.08
652.151	39.13
652.479	39.39
652.808	39.47
653.136	39.41
653.465	39.53
653.793	39.71
654.121	39.59
654.449	39.58
654.777	39.76
655.105	40.32
655.433	40.07
655.761	40.14
656.089	40.23
656.417	40.22
656.745	39.9
657.073	39.65
657.4	40.14
657.728	39.95
658.056	40.25
658.383	40.11
658.711	40.14
659.038	39.99
659.365	40.41
659.693	40.6
660.02	40.49
660.347	39.59
660.674	39.44
661.001	39.83
661.329	39.7
661.656	40.1
661.982	40.57
662.309	40.62
662.636	40.95
662.963	40.92
663.29	40.96
663.616	40.83
663.943	40.97
664.27	40.57
664.596	40.95
664.923	40.96
665.249	40.83
665.576	41.05
665.902	40.97
666.228	40.89
666.554	40.37
666.881	40.53
667.207	40.79
667.533	41.16
667.859	41.03
668.185	40.85
668.511	40.65
668.837	41.28
669.162	41.12
669.488	40.95
669.814	40.48
670.139	41.21
670.465	41.52
670.791	41.13
671.116	40.76
671.442	41.08
671.767	40.72
672.092	40.81
672.418	41.83
