Data from 97279_forehead_Reflection__4__10.txt Node

Date: Fri Sep 23 19:30:54 CDT 2022
User: ToomeyLab
Spectrometer: FLMS14357
Trigger mode: 0
Integration Time (sec): 1.000000E-2
Scans to average: 100
Electric dark correction enabled: true
Nonlinearity correction enabled: false
Boxcar width: 0
XAxis mode: Wavelengths
Number of Pixels in Spectrum: 2048
>>>>>Begin Spectral Data<<<<<
189.047	-171.57
189.435	-171.57
189.823	-171.57
190.211	-618.6
190.599	-116.42
190.987	94.53
191.375	-296.99
191.763	161.44
192.151	-39.73
192.538	55.9
192.926	107.3
193.314	223.89
193.702	3074.07
194.089	-636.68
194.477	123.08
194.864	16.38
195.252	-53.52
195.639	72
196.027	46.67
196.414	-121.46
196.801	345.54
197.189	359.31
197.576	50.87
197.963	-18.82
198.351	41.7
198.738	30.12
199.125	12.89
199.512	14.65
199.899	55.02
200.286	-22.76
200.673	28.77
201.06	10.96
201.447	36.05
201.833	30.91
202.22	-3.84
202.607	12.99
202.994	-14.91
203.38	44.22
203.767	-12.29
204.154	44.07
204.54	53.94
204.927	45.9
205.313	17.31
205.699	4.76
206.086	13.27
206.472	35.45
206.858	49.6
207.245	7.54
207.631	33.13
208.017	24.2
208.403	19.96
208.789	19.33
209.175	48.79
209.561	47.19
209.947	10.19
210.333	44.76
210.719	26.9
211.105	23.66
211.491	15.85
211.876	19.43
212.262	17.12
212.648	25.59
213.034	11.45
213.419	-24.65
213.805	37.31
214.19	30.52
214.576	0.5
214.961	27.9
215.346	21.18
215.732	35.77
216.117	32.16
216.502	9.1
216.888	37.4
217.273	32
217.658	12.83
218.043	13.31
218.428	15.57
218.813	29.3
219.198	17.27
219.583	13.22
219.968	28.2
220.353	26.94
220.738	-3.68
221.122	11.66
221.507	5.82
221.892	11.99
222.276	0.62
222.661	11.24
223.046	15.7
223.43	7.88
223.815	9.56
224.199	5.06
224.583	11.99
224.968	1.22
225.352	6.74
225.736	4.89
226.121	9.91
226.505	9.16
226.889	6.19
227.273	8.01
227.657	2.29
228.041	4.64
228.425	5.98
228.809	2.46
229.193	6.49
229.577	4.4
229.961	4.31
230.344	3.86
230.728	3.17
231.112	3.16
231.495	3.3
231.879	2.45
232.263	4.79
232.646	4.3
233.03	3.84
233.413	4.59
233.797	3.93
234.18	3.81
234.563	4.04
234.946	5.65
235.33	4.41
235.713	4.3
236.096	3.1
236.479	3.7
236.862	3.69
237.245	6.17
237.628	4.37
238.011	4.5
238.394	3.03
238.777	2.82
239.16	5.16
239.543	4.6
239.925	3.53
240.308	4.69
240.691	4.32
241.073	4.2
241.456	4.08
241.838	4.68
242.221	4.8
242.603	5.24
242.986	3.72
243.368	3.6
243.75	3.92
244.133	3.98
244.515	3.65
244.897	4.57
245.279	4.24
245.661	4.57
246.043	4.17
246.425	3.59
246.807	3.39
247.189	4.58
247.571	4.35
247.953	3.81
248.335	3.95
248.717	4
249.098	3.67
249.48	3.71
249.862	4.07
250.243	4.24
250.625	3.77
251.006	4.44
251.388	4.13
251.769	4.11
252.151	2.97
252.532	4.54
252.913	4.68
253.295	4.44
253.676	4.11
254.057	4.08
254.438	4.25
254.819	4.36
255.2	4.23
255.581	4.97
255.962	3.82
256.343	4.49
256.724	3.89
257.105	4.43
257.486	4.13
257.867	3.84
258.247	4.6
258.628	3.98
259.009	3.56
259.389	3.34
259.77	3.1
260.15	4.17
260.531	3.93
260.911	3.79
261.292	3.87
261.672	3.69
262.052	3.65
262.432	3.74
262.813	3.72
263.193	3.79
263.573	4.07
263.953	3.9
264.333	3.83
264.713	4.2
265.093	4.11
265.473	4.07
265.853	4.25
266.233	4
266.612	3.91
266.992	4.74
267.372	3.75
267.752	4.26
268.131	4.14
268.511	4.04
268.89	3.62
269.27	3.62
269.649	3.88
270.029	4.22
270.408	4.22
270.787	3.95
271.167	3.72
271.546	4.05
271.925	3.55
272.304	3.79
272.683	3.45
273.062	3.45
273.441	3.8
273.82	3.86
274.199	3.69
274.578	3.41
274.957	3.54
275.336	3.95
275.715	3.62
276.093	4.03
276.472	4.42
276.851	3.9
277.229	3.95
277.608	3.67
277.986	3.5
278.365	3.86
278.743	4.37
279.122	3.37
279.5	3.91
279.878	3.52
280.257	3.23
280.635	3.64
281.013	3.54
281.391	3.69
281.769	3.71
282.147	3.81
282.525	3.72
282.903	3.69
283.281	3.96
283.659	4.08
284.037	3.54
284.415	3.71
284.792	3.86
285.17	3.54
285.548	3.57
285.925	3.68
286.303	4.26
286.68	3.77
287.058	3.65
287.435	3.54
287.813	3.95
288.19	3.9
288.567	3.87
288.945	3.97
289.322	4.37
289.699	4.36
290.076	3.87
290.453	3.72
290.83	4.06
291.207	3.79
291.584	3.91
291.961	3.86
292.338	3.91
292.715	3.77
293.092	3.87
293.469	4.21
293.845	4.28
294.222	4.56
294.599	3.93
294.975	4.47
295.352	4.2
295.728	4.13
296.105	4.06
296.481	4.34
296.858	3.95
297.234	4.23
297.61	3.81
297.986	4.4
298.363	4.16
298.739	4.39
299.115	4.06
299.491	4.22
299.867	3.99
300.243	4.36
300.619	4.69
300.995	4.66
301.371	4.26
301.746	4.92
302.122	4.27
302.498	4.26
302.874	4.15
303.249	4.35
303.625	4.57
304	4.91
304.376	4.88
304.751	4.61
305.127	4.34
305.502	4.94
305.878	4.81
306.253	4.65
306.628	4.78
307.003	4.56
307.378	5.14
307.754	5.04
308.129	5.04
308.504	5.15
308.879	5.09
309.254	4.96
309.629	5.78
310.003	5.59
310.378	5.02
310.753	4.97
311.128	4.83
311.502	5.03
311.877	5.13
312.252	5.1
312.626	5.29
313.001	5.52
313.375	5.42
313.75	5.37
314.124	4.81
314.498	5.59
314.873	5.63
315.247	6.02
315.621	5.25
315.995	5.83
316.369	5.69
316.743	5.28
317.117	5.65
317.491	5.39
317.865	6.11
318.239	6.58
318.613	5.88
318.987	5.22
319.361	5.71
319.734	5.5
320.108	5.68
320.482	6.28
320.855	6.37
321.229	6.07
321.602	6.16
321.976	6.74
322.349	6.4
322.723	6.02
323.096	6.31
323.469	6.47
323.843	5.91
324.216	6.63
324.589	6.76
324.962	7.03
325.335	6.37
325.708	6.55
326.081	6.51
326.454	6.54
326.827	6.36
327.2	6.39
327.573	6.62
327.945	6.99
328.318	6.4
328.691	6.43
329.063	6.96
329.436	6.82
329.809	7.06
330.181	7.11
330.553	6.21
330.926	7.14
331.298	7.3
331.671	7.16
332.043	6.97
332.415	7.27
332.787	6.82
333.159	7.31
333.532	6.8
333.904	7.1
334.276	6.5
334.648	6.95
335.02	7.1
335.391	7.02
335.763	7.03
336.135	7.87
336.507	7.31
336.879	7.14
337.25	7.85
337.622	7.44
337.993	7.29
338.365	7.85
338.736	7.7
339.108	8.16
339.479	7.64
339.851	7.56
340.222	7.71
340.593	7.48
340.964	7.55
341.336	7.69
341.707	8.44
342.078	7.68
342.449	7.98
342.82	7.67
343.191	7.59
343.562	7.62
343.933	8.23
344.303	8.01
344.674	7.88
345.045	8.32
345.416	7.99
345.786	8.14
346.157	8.07
346.527	7.91
346.898	8.11
347.268	8.25
347.639	8.01
348.009	8.26
348.38	8.06
348.75	8.36
349.12	8.17
349.49	8.26
349.861	8.58
350.231	8.41
350.601	8.13
350.971	8.44
351.341	8.4
351.711	8.48
352.081	8.38
352.45	8.47
352.82	8.37
353.19	9.03
353.56	8.81
353.929	8.39
354.299	8.76
354.669	8.76
355.038	8.95
355.408	8.58
355.777	8.69
356.147	8.92
356.516	9.12
356.885	8.89
357.254	8.96
357.624	8.82
357.993	8.78
358.362	8.82
358.731	8.95
359.1	9.01
359.469	8.8
359.838	8.9
360.207	8.95
360.576	9.21
360.945	9.15
361.314	9.17
361.682	8.91
362.051	9.43
362.42	9.26
362.788	9.33
363.157	9.48
363.525	9.39
363.894	9.31
364.262	9.11
364.631	9.53
364.999	9.7
365.367	9.77
365.735	9.43
366.104	9.63
366.472	9.56
366.84	9.9
367.208	9.79
367.576	9.66
367.944	9.4
368.312	9.99
368.68	9.9
369.048	9.89
369.416	10.01
369.783	10.02
370.151	10.14
370.519	9.89
370.886	10.19
371.254	10.03
371.621	10.11
371.989	10.01
372.356	10.53
372.724	10.01
373.091	10.1
373.458	10.11
373.826	10.26
374.193	10.32
374.56	10.46
374.927	10.39
375.294	10.38
375.661	10.42
376.028	10.41
376.395	10.39
376.762	10.29
377.129	10.54
377.496	10.57
377.863	10.71
378.229	10.4
378.596	10.54
378.963	10.74
379.329	10.73
379.696	10.58
380.062	10.66
380.429	10.82
380.795	10.66
381.161	11.11
381.528	10.85
381.894	10.81
382.26	10.88
382.626	10.77
382.993	11.31
383.359	10.9
383.725	11.31
384.091	11.06
384.457	11
384.823	11.1
385.188	11.44
385.554	11.16
385.92	11.42
386.286	11.4
386.651	11.38
387.017	11.6
387.383	11.23
387.748	11.55
388.114	11.32
388.479	11.49
388.845	11.57
389.21	11.43
389.575	11.45
389.94	11.08
390.306	11.42
390.671	11.69
391.036	11.54
391.401	11.74
391.766	11.77
392.131	11.83
392.496	11.68
392.861	11.78
393.226	11.6
393.591	11.79
393.956	11.79
394.32	11.96
394.685	11.93
395.05	12.08
395.414	11.89
395.779	12.03
396.143	11.88
396.508	12.04
396.872	11.87
397.236	12.34
397.601	12.23
397.965	12.39
398.329	12.56
398.694	12.22
399.058	12.51
399.422	12.4
399.786	12.61
400.15	12.4
400.514	12.25
400.878	12.41
401.242	12.31
401.605	12.71
401.969	12.49
402.333	12.55
402.697	12.5
403.06	12.74
403.424	12.6
403.787	12.69
404.151	12.6
404.514	12.53
404.878	12.76
405.241	12.69
405.604	12.65
405.968	12.7
406.331	12.6
406.694	12.72
407.057	12.74
407.42	12.92
407.783	12.98
408.146	12.89
408.509	12.98
408.872	12.96
409.235	13.22
409.598	13.31
409.961	13.33
410.323	13.19
410.686	13.22
411.049	13.2
411.411	13.07
411.774	13.1
412.136	13.14
412.499	13.12
412.861	13.3
413.223	13.41
413.586	13.37
413.948	13.37
414.31	13.48
414.672	13.52
415.035	13.35
415.397	13.67
415.759	13.76
416.121	13.62
416.483	13.55
416.845	13.4
417.206	13.57
417.568	13.75
417.93	13.68
418.292	13.71
418.653	13.63
419.015	13.6
419.377	13.46
419.738	13.47
420.1	13.6
420.461	13.66
420.822	13.69
421.184	13.67
421.545	13.72
421.906	13.79
422.267	13.59
422.629	13.53
422.99	13.62
423.351	13.71
423.712	13.85
424.073	13.85
424.434	14.02
424.795	14.02
425.155	14.01
425.516	13.94
425.877	13.89
426.238	13.9
426.598	13.94
426.959	14.24
427.32	14.27
427.68	14.33
428.041	14.51
428.401	14.68
428.761	14.79
429.122	14.7
429.482	15.01
429.842	14.99
430.202	15.09
430.563	14.85
430.923	14.94
431.283	14.82
431.643	14.94
432.003	14.89
432.363	15
432.722	15.14
433.082	14.86
433.442	14.92
433.802	14.87
434.161	15.01
434.521	15
434.881	14.81
435.24	14.96
435.6	15.04
435.959	15.15
436.319	15.26
436.678	15.35
437.037	15.53
437.396	15.46
437.756	15.72
438.115	15.55
438.474	15.61
438.833	15.63
439.192	15.61
439.551	15.48
439.91	15.56
440.269	15.62
440.628	15.47
440.987	15.35
441.345	15.27
441.704	15.5
442.063	15.52
442.421	15.47
442.78	15.65
443.138	15.62
443.497	15.94
443.855	15.97
444.214	16.17
444.572	16.07
444.93	16.14
445.288	16.3
445.647	16.25
446.005	16.03
446.363	16.03
446.721	15.93
447.079	15.83
447.437	15.85
447.795	15.88
448.153	15.7
448.51	15.8
448.868	15.95
449.226	16.02
449.584	16.27
449.941	16.39
450.299	16.5
450.656	16.64
451.014	16.65
451.371	16.45
451.729	16.66
452.086	16.93
452.443	17.02
452.801	16.88
453.158	16.89
453.515	16.9
453.872	16.84
454.229	16.95
454.586	16.73
454.943	17.02
455.3	16.94
455.657	17.01
456.014	17.13
456.371	17.01
456.727	17.18
457.084	17.26
457.441	17.2
457.797	17.32
458.154	17.4
458.51	17.34
458.867	17.49
459.223	17.38
459.58	17.3
459.936	17.29
460.292	17.33
460.648	17.38
461.005	17.02
461.361	16.87
461.717	17.1
462.073	17.08
462.429	17.39
462.785	17.7
463.141	17.69
463.496	17.83
463.852	17.86
464.208	17.85
464.564	18.1
464.919	17.92
465.275	18.02
465.631	17.97
465.986	17.95
466.342	18.09
466.697	18.1
467.052	18.31
467.408	18.42
467.763	18.12
468.118	18.09
468.473	18.17
468.829	18.08
469.184	18.28
469.539	18.18
469.894	18.27
470.249	18.38
470.603	18.47
470.958	18.45
471.313	18.42
471.668	18.5
472.023	18.49
472.377	18.46
472.732	18.46
473.086	18.7
473.441	18.79
473.795	18.82
474.15	18.88
474.504	18.75
474.859	18.76
475.213	18.9
475.567	18.75
475.921	18.93
476.275	19.03
476.63	19.1
476.984	19.35
477.338	19.04
477.692	19.15
478.045	19.01
478.399	19.06
478.753	19.12
479.107	19.15
479.461	19.2
479.814	19.16
480.168	19.29
480.521	19.37
480.875	19.23
481.228	19.43
481.582	19.42
481.935	19.52
482.289	19.49
482.642	19.41
482.995	19.41
483.348	19.26
483.701	19.37
484.055	19.34
484.408	19.21
484.761	19
485.114	18.55
485.466	18.32
485.819	18.52
486.172	18.83
486.525	19.15
486.878	19.29
487.23	19.44
487.583	19.64
487.936	19.65
488.288	19.55
488.641	19.27
488.993	19.12
489.345	19.19
489.698	19.25
490.05	19.44
490.402	19.51
490.754	19.73
491.107	19.99
491.459	20.02
491.811	20.27
492.163	20.39
492.515	20.14
492.866	19.69
493.218	19.4
493.57	19.52
493.922	19.73
494.274	20
494.625	20.25
494.977	20.52
495.328	20.77
495.68	20.81
496.031	20.75
496.383	20.85
496.734	21.12
497.086	20.88
497.437	20.95
497.788	20.81
498.139	20.74
498.49	20.58
498.842	20.71
499.193	20.93
499.544	20.97
499.894	21.01
500.245	21.06
500.596	21.01
500.947	21.17
501.298	21.29
501.648	21.45
501.999	21.3
502.35	21.57
502.7	21.53
503.051	21.54
503.401	21.6
503.752	21.63
504.102	21.74
504.452	21.67
504.803	21.78
505.153	21.83
505.503	21.65
505.853	21.68
506.203	21.55
506.553	21.74
506.903	21.77
507.253	21.83
507.603	21.93
507.953	22.15
508.303	21.99
508.652	21.91
509.002	22.08
509.352	22
509.701	21.83
510.051	21.83
510.4	21.75
510.75	21.79
511.099	21.97
511.449	21.88
511.798	22.17
512.147	22.18
512.496	22.32
512.846	22.5
513.195	22.44
513.544	22.43
513.893	22.46
514.242	22.33
514.591	22.47
514.939	22.55
515.288	22.68
515.637	22.63
515.986	22.88
516.334	22.83
516.683	23
517.032	22.95
517.38	23.19
517.729	23.15
518.077	22.89
518.426	23.04
518.774	22.9
519.122	22.91
519.47	22.91
519.819	22.84
520.167	22.58
520.515	22.57
520.863	22.84
521.211	22.96
521.559	22.98
521.907	23.22
522.255	23.26
522.602	23.38
522.95	23.58
523.298	23.73
523.645	23.59
523.993	23.65
524.341	23.74
524.688	23.76
525.036	23.83
525.383	23.72
525.73	23.91
526.078	23.76
526.425	23.78
526.772	23.66
527.119	23.51
527.466	23.37
527.814	23.56
528.161	23.69
528.508	23.84
528.854	23.86
529.201	23.9
529.548	23.65
529.895	23.22
530.242	22.92
530.588	23.13
530.935	23.37
531.282	23.65
531.628	23.77
531.975	23.98
532.321	24.08
532.667	24.24
533.014	24.32
533.36	24.5
533.706	24.31
534.052	24.31
534.399	24.15
534.745	23.94
535.091	23.75
535.437	24.17
535.783	24.39
536.129	24.48
536.474	24.63
536.82	24.83
537.166	25.02
537.512	25.02
537.857	24.85
538.203	24.55
538.549	24.47
538.894	24.8
539.239	24.87
539.585	25.18
539.93	25.3
540.276	25.43
540.621	25.5
540.966	25.6
541.311	25.65
541.656	25.38
542.001	25.42
542.346	25.2
542.691	24.81
543.036	24.49
543.381	24.72
543.726	24.91
544.071	25.12
544.415	25.18
544.76	25.27
545.105	25.36
545.449	25.57
545.794	25.69
546.138	25.8
546.483	26.02
546.827	26.14
547.171	25.92
547.516	25.9
547.86	26.02
548.204	25.87
548.548	25.77
548.892	25.84
549.236	26.22
549.58	26.21
549.924	26.44
550.268	26.67
550.612	26.62
550.956	26.78
551.3	26.68
551.643	26.84
551.987	26.92
552.33	26.85
552.674	26.75
553.017	27.09
553.361	26.91
553.704	26.8
554.048	26.9
554.391	26.68
554.734	26.89
555.077	26.92
555.42	27.1
555.764	27.13
556.107	27.26
556.45	27.45
556.793	27.52
557.135	27.62
557.478	27.53
557.821	27.62
558.164	27.47
558.507	27.51
558.849	27.52
559.192	27.8
559.534	27.84
559.877	27.85
560.219	27.63
560.562	27.96
560.904	27.87
561.246	27.76
561.589	28
561.931	28.01
562.273	28.2
562.615	27.88
562.957	27.98
563.299	27.86
563.641	28.28
563.983	28.44
564.325	28.21
564.667	28.13
565.008	28.36
565.35	28.59
565.692	28.28
566.033	28.34
566.375	28.67
566.716	28.24
567.058	28.21
567.399	28.46
567.741	28.33
568.082	28.35
568.423	28.27
568.764	28.44
569.105	28.52
569.447	28.8
569.788	28.75
570.129	28.81
570.47	29.13
570.811	28.99
571.151	29.01
571.492	28.97
571.833	29.09
572.174	29.08
572.514	29.23
572.855	29.04
573.195	29.11
573.536	29.14
573.876	28.86
574.217	29.15
574.557	29.21
574.898	29.41
575.238	29.6
575.578	29.55
575.918	29.38
576.258	29.49
576.598	29.35
576.938	29.59
577.278	29.68
577.618	29.65
577.958	29.88
578.298	29.87
578.638	29.79
578.977	29.9
579.317	30.15
579.657	30.32
579.996	29.92
580.336	30.23
580.675	30.06
581.014	30.3
581.354	30.39
581.693	30.41
582.032	30.45
582.372	30.5
582.711	30.18
583.05	30.54
583.389	30.68
583.728	30.69
584.067	30.68
584.406	30.78
584.745	30.61
585.083	30.62
585.422	30.69
585.761	30.84
586.1	30.74
586.438	30.6
586.777	30.92
587.115	30.94
587.454	30.91
587.792	31.15
588.13	30.96
588.469	30.87
588.807	30.95
589.145	30.98
589.483	31.3
589.821	31.27
590.159	31.26
590.497	31.1
590.835	31.16
591.173	31.4
591.511	31.33
591.849	31.2
592.187	31.35
592.524	31.72
592.862	31.74
593.2	31.88
593.537	31.57
593.875	31.79
594.212	31.92
594.55	31.67
594.887	31.91
595.224	31.97
595.561	31.92
595.899	31.73
596.236	31.54
596.573	31.92
596.91	32.02
597.247	32.19
597.584	32.31
597.921	31.98
598.258	32.08
598.594	31.71
598.931	31.88
599.268	31.9
599.604	32.12
599.941	32.38
600.277	32.27
600.614	32.26
600.95	32.49
601.287	32.67
601.623	32.44
601.959	32.8
602.296	32.71
602.632	32.97
602.968	32.82
603.304	32.76
603.64	32.89
603.976	32.72
604.312	32.99
604.648	32.86
604.984	32.63
605.319	32.72
605.655	32.68
605.991	32.65
606.326	32.59
606.662	32.7
606.998	33.06
607.333	33
607.668	33.11
608.004	33.24
608.339	33.42
608.674	33.58
609.01	33.53
609.345	33.42
609.68	33.73
610.015	33.65
610.35	33.66
610.685	33.45
611.02	33.07
611.355	33.22
611.689	33.34
612.024	33.42
612.359	33.77
612.694	33.64
613.028	33.96
613.363	34.04
613.697	34.03
614.032	34.1
614.366	34.08
614.7	34.33
615.035	34.41
615.369	34.56
615.703	34.3
616.037	34.51
616.371	34.7
616.705	34.16
617.039	34.24
617.373	34.61
617.707	34.67
618.041	34.57
618.375	34.65
618.709	34.43
619.042	34.37
619.376	34.95
619.71	34.74
620.043	34.76
620.377	34.57
620.71	34.78
621.043	35.01
621.377	34.7
621.71	35.05
622.043	35.08
622.376	34.99
622.709	34.89
623.043	35.27
623.376	34.95
623.709	35.39
624.041	35.24
624.374	34.8
624.707	35.23
625.04	35.66
625.373	35.39
625.705	35.11
626.038	35.28
626.37	35.54
626.703	35.51
627.035	35.48
627.368	35.4
627.7	35.54
628.032	35.52
628.365	35.27
628.697	35.45
629.029	35.49
629.361	35.49
629.693	36.05
630.025	35.96
630.357	35.95
630.689	36.07
631.021	35.92
631.353	36.01
631.684	35.79
632.016	36.15
632.348	35.94
632.679	36.31
633.011	36.22
633.342	36.33
633.674	35.97
634.005	36.35
634.336	36.4
634.668	35.94
634.999	36.47
635.33	36.22
635.661	36.14
635.992	36.09
636.323	36.37
636.654	36.6
636.985	36.6
637.316	36.4
637.647	36.66
637.977	36.47
638.308	36.88
638.639	36.35
638.969	37
639.3	36.94
639.63	36.91
639.961	36.93
640.291	37.02
640.622	36.8
640.952	37.11
641.282	37.01
641.612	37.3
641.943	36.91
642.273	37.28
642.603	37.2
642.933	37.17
643.263	37.23
643.592	37.76
643.922	37.45
644.252	37.73
644.582	37.71
644.911	37.6
645.241	37.39
645.571	37.79
645.9	37.39
646.23	37.91
646.559	36.92
646.888	37.79
647.218	37.98
647.547	37.56
647.876	37.71
648.205	37.86
648.534	37.73
648.863	37.84
649.192	37.88
649.521	37.57
649.85	37.38
650.179	37.46
650.508	37.79
650.837	37.9
651.165	38.18
651.494	38
651.822	38.28
652.151	37.88
652.479	37.95
652.808	37.76
653.136	38.37
653.465	38.32
653.793	38.13
654.121	37.78
654.449	38.08
654.777	38.44
655.105	38.9
655.433	38.87
655.761	38.53
656.089	38.51
656.417	38.43
656.745	38.52
657.073	38.43
657.4	38.97
657.728	38.76
658.056	38.65
658.383	38.85
658.711	38.8
659.038	39.26
659.365	38.95
659.693	38.64
660.02	39.04
660.347	38.76
660.674	38.3
661.001	38.59
661.329	38.85
661.656	39.22
661.982	39.56
662.309	39.21
662.636	39.59
662.963	39.51
663.29	39.44
663.616	39.68
663.943	39.52
664.27	39.09
664.596	39.46
664.923	39.18
665.249	39.75
665.576	39.69
665.902	39.66
666.228	39.27
666.554	39.38
666.881	40.22
667.207	39.32
667.533	39.32
667.859	39.37
668.185	39.76
668.511	39.18
668.837	40.09
669.162	40.01
669.488	39.35
669.814	39.63
670.139	39.86
670.465	39.84
670.791	39.91
671.116	39.64
671.442	40.25
671.767	39.52
672.092	40.47
672.418	40.39
672.743	40.4
673.068	39.77
