Data from 97279_chest_Reflection__4__05.txt Node

Date: Fri Sep 23 19:28:04 CDT 2022
User: ToomeyLab
Spectrometer: FLMS14357
Trigger mode: 0
Integration Time (sec): 1.000000E-2
Scans to average: 100
Electric dark correction enabled: true
Nonlinearity correction enabled: false
Boxcar width: 0
XAxis mode: Wavelengths
Number of Pixels in Spectrum: 2048
>>>>>Begin Spectral Data<<<<<
189.047	18.26
189.435	18.26
189.823	18.26
190.211	-1596.51
190.599	-77.8
190.987	100.68
191.375	-168.61
191.763	83.55
192.151	-139.57
192.538	-34.31
192.926	115.07
193.314	220.96
193.702	4509.26
194.089	-406.16
194.477	111.62
194.864	14.01
195.252	-145.13
195.639	19.39
196.027	144.67
196.414	-1098.86
196.801	-112.26
197.189	574.2
197.576	-51.32
197.963	-30.23
198.351	45.85
198.738	0.99
199.125	10.22
199.512	6.74
199.899	27.64
200.286	5.33
200.673	-9.69
201.06	-13.54
201.447	23.84
201.833	33.22
202.22	25.16
202.607	-0.11
202.994	-14.13
203.38	-47.05
203.767	-59.21
204.154	29.57
204.54	32.38
204.927	44.85
205.313	9.06
205.699	31.41
206.086	7.33
206.472	8.73
206.858	37.19
207.245	4.83
207.631	6.68
208.017	10.1
208.403	15.51
208.789	33.52
209.175	27.98
209.561	14.65
209.947	32.51
210.333	15.16
210.719	-9.78
211.105	40.07
211.491	29.88
211.876	14.82
212.262	12.51
212.648	30.02
213.034	8.37
213.419	-4.91
213.805	30.16
214.19	11.44
214.576	4.51
214.961	13.01
215.346	-1.55
215.732	35.47
216.117	6.87
216.502	24.86
216.888	19.23
217.273	16.7
217.658	5.87
218.043	13.15
218.428	5.4
218.813	38.68
219.198	9.36
219.583	19.7
219.968	13.56
220.353	4.67
220.738	10.72
221.122	11.24
221.507	12.37
221.892	16.66
222.276	-14.07
222.661	-0.36
223.046	3.95
223.43	-9.83
223.815	10.25
224.199	10.97
224.583	12.55
224.968	2.94
225.352	0.43
225.736	3.54
226.121	2.89
226.505	-0.81
226.889	7.04
227.273	9.3
227.657	1.83
228.041	2.29
228.425	1.58
228.809	4.49
229.193	3.58
229.577	4.47
229.961	4
230.344	3.48
230.728	2.99
231.112	3.3
231.495	2.72
231.879	1.52
232.263	5.05
232.646	4.39
233.03	4.34
233.413	3.95
233.797	3.79
234.18	5.78
234.563	2.42
234.946	4.84
235.33	3.18
235.713	4.33
236.096	2.47
236.479	2.51
236.862	3.29
237.245	4.98
237.628	4.43
238.011	4.38
238.394	3.17
238.777	3.9
239.16	3.08
239.543	2.52
239.925	4.74
240.308	4.48
240.691	4.1
241.073	2.82
241.456	3.66
241.838	5.44
242.221	4.6
242.603	5.06
242.986	3.32
243.368	3.61
243.75	3.93
244.133	3.83
244.515	3.47
244.897	4.04
245.279	4.76
245.661	4.77
246.043	4.41
246.425	4.29
246.807	3.6
247.189	3.99
247.571	4.21
247.953	3.91
248.335	4.01
248.717	3.97
249.098	3.77
249.48	4.05
249.862	4.02
250.243	3.98
250.625	3.77
251.006	4.37
251.388	4.18
251.769	4.65
252.151	2.83
252.532	3.6
252.913	4.43
253.295	4.37
253.676	4.34
254.057	4.2
254.438	3.75
254.819	4.38
255.2	4.46
255.581	5.02
255.962	3.93
256.343	4.35
256.724	4.05
257.105	3.84
257.486	3.93
257.867	4.15
258.247	4.29
258.628	3.85
259.009	3.85
259.389	4.23
259.77	2.84
260.15	3.26
260.531	4.06
260.911	3.76
261.292	3.66
261.672	3.63
262.052	3.49
262.432	3.53
262.813	3.87
263.193	3.91
263.573	4.31
263.953	3.53
264.333	3.82
264.713	3.95
265.093	4.05
265.473	4.24
265.853	3.11
266.233	4.08
266.612	3.99
266.992	4.82
267.372	3.58
267.752	3.62
268.131	3.94
268.511	3.31
268.89	3.87
269.27	3.73
269.649	3.8
270.029	3.76
270.408	3.88
270.787	3.37
271.167	3.62
271.546	3.53
271.925	3.11
272.304	3.13
272.683	3.73
273.062	3.36
273.441	3.62
273.82	3.74
274.199	3.5
274.578	3.53
274.957	3.42
275.336	3.96
275.715	3.71
276.093	4.09
276.472	4.18
276.851	4
277.229	3.71
277.608	3.91
277.986	3.36
278.365	3.56
278.743	3.74
279.122	3.29
279.5	3.25
279.878	3.27
280.257	3.55
280.635	3.5
281.013	3.16
281.391	3.8
281.769	3.37
282.147	3.67
282.525	3.68
282.903	3.51
283.281	3.46
283.659	3.86
284.037	3.46
284.415	3.52
284.792	3.62
285.17	3.42
285.548	3.37
285.925	3.4
286.303	3.84
286.68	3.62
287.058	3.55
287.435	3.31
287.813	4
288.19	3.35
288.567	3.7
288.945	4.11
289.322	3.82
289.699	3.9
290.076	3.66
290.453	3.85
290.83	3.37
291.207	3.89
291.584	4.02
291.961	3.95
292.338	3.95
292.715	3.69
293.092	4.08
293.469	4.15
293.845	4.31
294.222	4.05
294.599	4.04
294.975	4.34
295.352	4.16
295.728	4.16
296.105	4
296.481	3.81
296.858	3.96
297.234	4.05
297.61	4.1
297.986	4.13
298.363	3.91
298.739	4.29
299.115	4.11
299.491	3.99
299.867	3.95
300.243	4.31
300.619	4.77
300.995	4.62
301.371	3.98
301.746	4.94
302.122	4.37
302.498	4.7
302.874	4.54
303.249	4.51
303.625	4.43
304	4.55
304.376	4.52
304.751	4.19
305.127	4.29
305.502	4.28
305.878	4.53
306.253	4.65
306.628	4.56
307.003	4.27
307.378	4.8
307.754	4.9
308.129	4.3
308.504	4.49
308.879	5.04
309.254	4.6
309.629	4.7
310.003	4.51
310.378	5.1
310.753	4.92
311.128	4.57
311.502	4.38
311.877	4.48
312.252	4.43
312.626	4.75
313.001	4.56
313.375	4.87
313.75	4.73
314.124	4.34
314.498	5.12
314.873	5.18
315.247	4.91
315.621	5.03
315.995	5.31
316.369	4.92
316.743	3.98
317.117	4.25
317.491	4.51
317.865	5.47
318.239	5.41
318.613	4.78
318.987	4.22
319.361	4.54
319.734	5.29
320.108	4.85
320.482	5.01
320.855	4.96
321.229	5.54
321.602	5.08
321.976	5.33
322.349	4.87
322.723	4.99
323.096	5.11
323.469	4.72
323.843	4.59
324.216	5.48
324.589	5.02
324.962	4.99
325.335	4.74
325.708	5.13
326.081	4.94
326.454	5.01
326.827	4.8
327.2	4.78
327.573	5.14
327.945	5.32
328.318	4.61
328.691	5.01
329.063	4.93
329.436	5.24
329.809	5.66
330.181	4.72
330.553	4.6
330.926	4.69
331.298	5.19
331.671	5.44
332.043	5.41
332.415	4.82
332.787	5.08
333.159	5.13
333.532	4.86
333.904	4.94
334.276	4.86
334.648	4.94
335.02	5.23
335.391	5.02
335.763	4.9
336.135	5.03
336.507	5.6
336.879	4.8
337.25	5.48
337.622	5.43
337.993	5.24
338.365	5.15
338.736	5.43
339.108	5.51
339.479	5.07
339.851	5.28
340.222	5.41
340.593	4.96
340.964	5.2
341.336	5.19
341.707	6.15
342.078	4.95
342.449	5.49
342.82	5.01
343.191	5.43
343.562	5.51
343.933	5.38
344.303	5.21
344.674	5.61
345.045	5.44
345.416	5.19
345.786	5.4
346.157	5.08
346.527	5.35
346.898	5.24
347.268	5.1
347.639	5.22
348.009	5.34
348.38	5.35
348.75	5.36
349.12	5.2
349.49	5.3
349.861	5
350.231	5.02
350.601	5.33
350.971	5.2
351.341	5.39
351.711	5.51
352.081	5.04
352.45	5.26
352.82	5.2
353.19	5.68
353.56	5.8
353.929	5.18
354.299	5.39
354.669	5.17
355.038	5.54
355.408	4.87
355.777	5.37
356.147	5.25
356.516	5.61
356.885	5.23
357.254	5.29
357.624	5.17
357.993	5.48
358.362	5.39
358.731	5.36
359.1	5.43
359.469	5.18
359.838	5.45
360.207	5.46
360.576	5.17
360.945	5.38
361.314	5.26
361.682	4.96
362.051	5.35
362.42	5.51
362.788	5.26
363.157	5.65
363.525	5.56
363.894	5.23
364.262	5.21
364.631	5.45
364.999	5.48
365.367	5.45
365.735	5.59
366.104	5.54
366.472	5.36
366.84	5.25
367.208	5.66
367.576	5.68
367.944	5.46
368.312	5.85
368.68	5.43
369.048	5.53
369.416	5.78
369.783	5.62
370.151	5.76
370.519	5.39
370.886	5.78
371.254	5.81
371.621	5.47
371.989	5.56
372.356	5.78
372.724	5.58
373.091	5.36
373.458	5.56
373.826	5.51
374.193	5.34
374.56	5.27
374.927	5.72
375.294	5.59
375.661	5.66
376.028	5.44
376.395	5.45
376.762	5.2
377.129	5.17
377.496	5.61
377.863	5.69
378.229	5.25
378.596	5.64
378.963	5.77
379.329	5.76
379.696	5.67
380.062	5.54
380.429	5.62
380.795	5.65
381.161	5.69
381.528	5.73
381.894	5.67
382.26	5.7
382.626	5.38
382.993	5.61
383.359	5.86
383.725	5.89
384.091	5.84
384.457	5.77
384.823	5.61
385.188	5.83
385.554	5.68
385.92	5.86
386.286	5.37
386.651	5.76
387.017	5.78
387.383	5.68
387.748	5.93
388.114	5.68
388.479	5.65
388.845	5.57
389.21	5.83
389.575	5.63
389.94	5.57
390.306	5.46
390.671	5.9
391.036	5.89
391.401	5.91
391.766	5.8
392.131	5.93
392.496	5.9
392.861	5.78
393.226	5.78
393.591	5.83
393.956	5.69
394.32	5.83
394.685	5.7
395.05	5.7
395.414	5.78
395.779	5.65
396.143	5.65
396.508	5.8
396.872	5.87
397.236	5.81
397.601	5.73
397.965	6.12
398.329	5.86
398.694	5.74
399.058	5.96
399.422	6.02
399.786	5.93
400.15	5.99
400.514	5.69
400.878	5.86
401.242	5.68
401.605	6.01
401.969	6
402.333	5.82
402.697	5.68
403.06	5.87
403.424	5.96
403.787	5.85
404.151	5.91
404.514	5.71
404.878	5.74
405.241	5.81
405.604	5.91
405.968	5.99
406.331	5.9
406.694	5.92
407.057	5.96
407.42	5.9
407.783	5.75
408.146	5.95
408.509	5.94
408.872	5.83
409.235	6.19
409.598	6.23
409.961	6.06
410.323	5.95
410.686	6.08
411.049	6.03
411.411	5.94
411.774	6.04
412.136	5.98
412.499	5.8
412.861	5.91
413.223	5.75
413.586	6.02
413.948	5.82
414.31	5.99
414.672	5.98
415.035	6
415.397	6.21
415.759	6.29
416.121	6.12
416.483	5.95
416.845	5.82
417.206	5.93
417.568	6.17
417.93	5.89
418.292	6.18
418.653	5.9
419.015	6.02
419.377	5.91
419.738	5.8
420.1	5.89
420.461	5.9
420.822	5.97
421.184	5.95
421.545	5.97
421.906	6
422.267	5.89
422.629	5.82
422.99	5.82
423.351	5.86
423.712	5.96
424.073	5.93
424.434	5.96
424.795	6.01
425.155	5.93
425.516	6
425.877	5.91
426.238	5.97
426.598	5.96
426.959	6.07
427.32	6
427.68	6.02
428.041	6.1
428.401	6.15
428.761	6.21
429.122	6.28
429.482	6.24
429.842	6.34
430.202	6.3
430.563	6.29
430.923	6.44
431.283	6.38
431.643	6.21
432.003	6.25
432.363	6.37
432.722	6.26
433.082	6.27
433.442	6.35
433.802	6.29
434.161	6.28
434.521	6.14
434.881	6.1
435.24	6.04
435.6	6.21
435.959	6.26
436.319	6.31
436.678	6.24
437.037	6.49
437.396	6.26
437.756	6.32
438.115	6.26
438.474	6.35
438.833	6.52
439.192	6.33
439.551	6.53
439.91	6.37
440.269	6.44
440.628	6.46
440.987	6.24
441.345	6.15
441.704	6.36
442.063	6.36
442.421	6.3
442.78	6.27
443.138	6.28
443.497	6.43
443.855	6.37
444.214	6.5
444.572	6.45
444.93	6.49
445.288	6.57
445.647	6.56
446.005	6.51
446.363	6.51
446.721	6.42
447.079	6.3
447.437	6.35
447.795	6.38
448.153	6.14
448.51	6.31
448.868	6.35
449.226	6.34
449.584	6.4
449.941	6.57
450.299	6.39
450.656	6.5
451.014	6.72
451.371	6.54
451.729	6.59
452.086	6.66
452.443	6.67
452.801	6.59
453.158	6.69
453.515	6.54
453.872	6.54
454.229	6.6
454.586	6.56
454.943	6.65
455.3	6.58
455.657	6.71
456.014	6.77
456.371	6.69
456.727	6.65
457.084	6.68
457.441	6.67
457.797	6.62
458.154	6.74
458.51	6.75
458.867	6.86
459.223	6.68
459.58	6.73
459.936	6.75
460.292	6.66
460.648	6.79
461.005	6.71
461.361	6.64
461.717	6.55
462.073	6.59
462.429	6.6
462.785	6.71
463.141	6.72
463.496	6.83
463.852	6.86
464.208	6.74
464.564	6.84
464.919	6.81
465.275	6.9
465.631	6.66
465.986	6.82
466.342	6.79
466.697	6.82
467.052	6.88
467.408	6.9
467.763	6.82
468.118	6.86
468.473	6.78
468.829	6.75
469.184	6.87
469.539	6.9
469.894	6.89
470.249	7.02
470.603	7
470.958	6.98
471.313	6.77
471.668	7.04
472.023	6.91
472.377	7
472.732	6.92
473.086	6.88
473.441	7.01
473.795	7.03
474.15	7
474.504	6.97
474.859	7.01
475.213	7.1
475.567	6.91
475.921	7.09
476.275	6.9
476.63	7.01
476.984	7.15
477.338	7
477.692	7.11
478.045	6.9
478.399	7.07
478.753	7.08
479.107	6.94
479.461	6.95
479.814	7.02
480.168	7.02
480.521	7.06
480.875	7.13
481.228	7.24
481.582	7.18
481.935	7.26
482.289	7.23
482.642	7.08
482.995	7.2
483.348	6.91
483.701	7.02
484.055	7.05
484.408	6.98
484.761	6.98
485.114	6.75
485.466	6.63
485.819	6.67
486.172	6.73
486.525	6.79
486.878	6.85
487.23	6.94
487.583	7.06
487.936	7
488.288	7.04
488.641	6.94
488.993	6.92
489.345	6.89
489.698	6.87
490.05	6.92
490.402	6.93
490.754	7.05
491.107	7.14
491.459	7.07
491.811	7.2
492.163	7.28
492.515	7.24
492.866	7.06
493.218	6.96
493.57	6.99
493.922	7.06
494.274	7.07
494.625	7.14
494.977	7.25
495.328	7.4
495.68	7.43
496.031	7.37
496.383	7.44
496.734	7.35
497.086	7.54
497.437	7.49
497.788	7.37
498.139	7.45
498.49	7.45
498.842	7.36
499.193	7.43
499.544	7.41
499.894	7.4
500.245	7.46
500.596	7.35
500.947	7.42
501.298	7.43
501.648	7.68
501.999	7.6
502.35	7.58
502.7	7.68
503.051	7.54
503.401	7.6
503.752	7.6
504.102	7.67
504.452	7.63
504.803	7.63
505.153	7.68
505.503	7.61
505.853	7.65
506.203	7.71
506.553	7.79
506.903	7.71
507.253	7.68
507.603	7.69
507.953	7.71
508.303	7.73
508.652	7.79
509.002	7.75
509.352	7.87
509.701	7.66
510.051	7.68
510.4	7.74
510.75	7.67
511.099	7.76
511.449	7.72
511.798	7.95
512.147	7.69
512.496	7.79
512.846	7.76
513.195	7.8
513.544	7.82
513.893	7.87
514.242	7.84
514.591	7.88
514.939	7.83
515.288	7.89
515.637	8.01
515.986	7.98
516.334	7.89
516.683	8.08
517.032	8.03
517.38	8.1
517.729	8.06
518.077	7.96
518.426	8.07
518.774	8.09
519.122	7.97
519.47	7.96
519.819	7.97
520.167	7.85
520.515	7.9
520.863	7.95
521.211	8.01
521.559	7.92
521.907	8.02
522.255	8.1
522.602	8.06
522.95	8.22
523.298	8.17
523.645	8.18
523.993	8.12
524.341	8.33
524.688	8.25
525.036	8.26
525.383	8.31
525.73	8.27
526.078	8.33
526.425	8.36
526.772	8.3
527.119	8.13
527.466	8.16
527.814	8.18
528.161	8.19
528.508	8.23
528.854	8.33
529.201	8.23
529.548	8.24
529.895	8.02
530.242	7.95
530.588	7.97
530.935	7.98
531.282	8.06
531.628	8.09
531.975	8.19
532.321	8.24
532.667	8.3
533.014	8.35
533.36	8.43
533.706	8.42
534.052	8.44
534.399	8.39
534.745	8.33
535.091	8.2
535.437	8.34
535.783	8.37
536.129	8.41
536.474	8.48
536.82	8.54
537.166	8.7
537.512	8.64
537.857	8.61
538.203	8.58
538.549	8.44
538.894	8.56
539.239	8.58
539.585	8.73
539.93	8.8
540.276	8.74
540.621	8.92
540.966	8.95
541.311	8.81
541.656	8.79
542.001	8.86
542.346	8.71
542.691	8.59
543.036	8.54
543.381	8.54
543.726	8.58
544.071	8.58
544.415	8.72
544.76	8.67
545.105	8.79
545.449	8.82
545.794	8.85
546.138	8.97
546.483	9.03
546.827	9.05
547.171	9.03
547.516	9.08
547.86	9
548.204	8.97
548.548	9.03
548.892	9.04
549.236	9.14
549.58	9.17
549.924	9.26
550.268	9.43
550.612	9.34
550.956	9.38
551.3	9.44
551.643	9.37
551.987	9.58
552.33	9.35
552.674	9.55
553.017	9.62
553.361	9.48
553.704	9.58
554.048	9.44
554.391	9.45
554.734	9.47
555.077	9.4
555.42	9.45
555.764	9.49
556.107	9.63
556.45	9.55
556.793	9.5
557.135	9.7
557.478	9.74
557.821	9.7
558.164	9.77
558.507	9.68
558.849	9.76
559.192	9.84
559.534	9.69
559.877	9.89
560.219	9.79
560.562	10.02
560.904	9.86
561.246	9.82
561.589	10.02
561.931	10.1
562.273	10.15
562.615	9.91
562.957	9.97
563.299	9.88
563.641	10.15
563.983	10.14
564.325	10.09
564.667	9.97
565.008	10.22
565.35	10.28
565.692	10.09
566.033	10.03
566.375	10.37
566.716	10.34
567.058	10.18
567.399	10.1
567.741	10.21
568.082	10.24
568.423	10.12
568.764	10.22
569.105	10.24
569.447	10.29
569.788	10.35
570.129	10.29
570.47	10.39
570.811	10.45
571.151	10.56
571.492	10.51
571.833	10.6
572.174	10.56
572.514	10.56
572.855	10.56
573.195	10.51
573.536	10.51
573.876	10.34
574.217	10.5
574.557	10.56
574.898	10.62
575.238	10.67
575.578	10.68
575.918	10.49
576.258	10.62
576.598	10.71
576.938	10.68
577.278	10.79
577.618	10.68
577.958	10.86
578.298	10.71
578.638	10.78
578.977	10.81
579.317	10.84
579.657	11.11
579.996	10.83
580.336	11.07
580.675	10.98
581.014	11.11
581.354	11.14
581.693	11.17
582.032	11.17
582.372	11.39
582.711	10.97
583.05	11.35
583.389	11.27
583.728	11.29
584.067	11.39
584.406	11.32
584.745	11.22
585.083	11.16
585.422	11.42
585.761	11.41
586.1	11.13
586.438	11.24
586.777	11.49
587.115	11.62
587.454	11.46
587.792	11.43
588.13	11.51
588.469	11.5
588.807	11.58
589.145	11.61
589.483	11.72
589.821	11.64
590.159	11.94
590.497	11.61
590.835	11.59
591.173	11.75
591.511	11.79
591.849	11.63
592.187	11.51
592.524	11.96
592.862	12.01
593.2	11.96
593.537	11.94
593.875	11.8
594.212	12.22
594.55	11.87
594.887	12.05
595.224	11.89
595.561	11.96
595.899	11.69
596.236	11.91
596.573	12.11
596.91	12.04
597.247	12.02
597.584	12.26
597.921	12.06
598.258	12.01
598.594	12.08
598.931	12.11
599.268	12.05
599.604	12.18
599.941	12.22
600.277	12.43
600.614	12.28
600.95	12.37
601.287	12.28
601.623	12.38
601.959	12.45
602.296	12.51
602.632	12.67
602.968	12.27
603.304	12.33
603.64	12.58
603.976	12.58
604.312	12.68
604.648	12.41
604.984	12.26
605.319	12.66
605.655	12.58
605.991	12.55
606.326	12.5
606.662	12.56
606.998	12.69
607.333	12.61
607.668	12.65
608.004	12.79
608.339	12.68
608.674	12.8
609.01	13.17
609.345	12.8
609.68	12.93
610.015	13.19
610.35	13.19
610.685	12.88
611.02	12.99
611.355	12.81
611.689	12.99
612.024	12.99
612.359	12.85
612.694	13.11
613.028	13.37
613.363	13.33
613.697	13.04
614.032	13.11
614.366	13.4
614.7	13.51
615.035	13.32
615.369	13.34
615.703	13.29
616.037	13.53
616.371	13.42
616.705	13.48
617.039	13.27
617.373	13.34
617.707	13.65
618.041	13.78
618.375	13.9
618.709	13.03
619.042	13.59
619.376	13.77
619.71	13.56
620.043	13.63
620.377	13.45
620.71	13.87
621.043	13.83
621.377	13.17
621.71	14.06
622.043	13.65
622.376	13.7
622.709	14.04
623.043	13.73
623.376	13.76
623.709	14.17
624.041	13.94
624.374	13.66
624.707	14.01
625.04	14.09
625.373	14.19
625.705	14.05
626.038	14.21
626.37	13.87
626.703	13.96
627.035	14.15
627.368	14.32
627.7	14.32
628.032	13.92
628.365	14.15
628.697	14.06
629.029	14.48
629.361	14.17
629.693	14.42
630.025	14.48
630.357	14.61
630.689	14.65
631.021	14.28
631.353	14.75
631.684	14.72
632.016	14.81
632.348	14.28
632.679	14.53
633.011	14.64
633.342	14.62
633.674	14.97
634.005	14.67
634.336	14.83
634.668	14.73
634.999	14.54
635.33	14.59
635.661	14.85
635.992	15.04
636.323	14.97
636.654	15.11
636.985	14.61
637.316	14.97
637.647	14.82
637.977	15.06
638.308	15.2
638.639	14.85
638.969	15.14
639.3	14.76
639.63	15.01
639.961	15.07
640.291	15
640.622	15.16
640.952	15.04
641.282	15.3
641.612	15.07
641.943	15.4
642.273	15.33
642.603	15.25
642.933	15.3
643.263	15.24
643.592	15.32
643.922	15.4
644.252	15.83
644.582	15.85
644.911	15.21
645.241	15.53
645.571	15.66
645.9	15.31
646.23	15.64
646.559	15.28
646.888	15.67
647.218	15.87
647.547	15.62
647.876	15.71
648.205	16.14
648.534	15.57
648.863	16.13
649.192	15.94
649.521	15.6
649.85	16.03
650.179	15.55
650.508	15.96
650.837	15.91
651.165	16.1
651.494	15.86
651.822	15.67
652.151	16.15
652.479	16.07
652.808	16.1
653.136	16.12
653.465	15.76
653.793	16.06
654.121	15.73
654.449	16.09
654.777	16.48
655.105	16.36
655.433	16.32
655.761	16.54
656.089	16.53
656.417	16.21
656.745	16.52
657.073	15.51
657.4	16.41
657.728	16.67
658.056	16.76
658.383	16.29
658.711	16.51
659.038	16.38
659.365	16.47
659.693	16.33
660.02	16.56
660.347	16.48
660.674	16.4
661.001	16.38
661.329	16.48
661.656	16.98
661.982	16.72
662.309	16.79
662.636	16.84
662.963	17.48
663.29	17.17
663.616	16.96
663.943	16.91
664.27	17.25
664.596	17.32
664.923	17.2
665.249	17.43
665.576	17.44
665.902	17.1
666.228	16.98
666.554	16.9
666.881	17.07
667.207	17.43
667.533	16.84
667.859	17.14
668.185	17.04
668.511	17.21
668.837	17.61
669.162	16.97
669.488	17.02
669.814	17.02
670.139	16.9
670.465	17.35
670.791	17.09
671.116	17.2
671.442	17.5
671.767	17.2
672.092	17.14
672.418	17.28
672.743	17.88
673.068	17.56
673.393	17.56
673.718	17.62
674.043	17.78
674.368	17.94
674.693	17.9
675.018	17.88
675.343	18.31
675.667	18.08
675.992	18.06
676.317	18.31
676.641	18.16
676.966	17.58
677.29	17.94
677.615	17.94
677.939	18.19
678.264	17.73
678.588	17.47
678.912	18.01
679.236	17.91
679.56	17.5
679.885	18.37
680.209	18.22
680.532	17.88
680.856	18.06
681.18	18.19
681.504	18.25
681.828	18.68
682.152	18.39
682.475	18.02
682.799	18.3
683.122	18.17
683.446	18.97
683.769	18.6
684.093	18.13
684.416	18.43
684.739	18.6
