Data from 97279_chest_Reflection__3__04.txt Node

Date: Fri Sep 23 19:27:45 CDT 2022
User: ToomeyLab
Spectrometer: FLMS14357
Trigger mode: 0
Integration Time (sec): 1.000000E-2
Scans to average: 100
Electric dark correction enabled: true
Nonlinearity correction enabled: false
Boxcar width: 0
XAxis mode: Wavelengths
Number of Pixels in Spectrum: 2048
>>>>>Begin Spectral Data<<<<<
189.047	182.81
189.435	182.81
189.823	182.81
190.211	590.7
190.599	106.96
190.987	62.37
191.375	-29.62
191.763	113.17
192.151	-49.5
192.538	106.41
192.926	135.82
193.314	205.77
193.702	3607.41
194.089	323.78
194.477	61.24
194.864	226.76
195.252	-158.83
195.639	52.06
196.027	36.76
196.414	-760.73
196.801	157.51
197.189	25.27
197.576	124.17
197.963	4.52
198.351	41.34
198.738	-25.23
199.125	14.75
199.512	-20.2
199.899	-23.64
200.286	-47.7
200.673	23.8
201.06	17.67
201.447	63.86
201.833	6.51
202.22	-20.79
202.607	38.91
202.994	-13.33
203.38	-3.95
203.767	-30.07
204.154	51.98
204.54	7.85
204.927	-4.33
205.313	1.39
205.699	-17.3
206.086	-16.09
206.472	47.78
206.858	49.9
207.245	2.3
207.631	1.71
208.017	38.45
208.403	-8.06
208.789	28.53
209.175	27.15
209.561	14.08
209.947	20.53
210.333	10.38
210.719	-8.97
211.105	17.01
211.491	26.36
211.876	11.02
212.262	3.27
212.648	-20.6
213.034	-17.97
213.419	-15.19
213.805	32.41
214.19	11.79
214.576	14.44
214.961	16.88
215.346	-47.12
215.732	7.25
216.117	8.01
216.502	16.77
216.888	9.22
217.273	4.58
217.658	-13.55
218.043	24.87
218.428	1.17
218.813	13.74
219.198	8.52
219.583	15.35
219.968	16.38
220.353	-4.44
220.738	10.34
221.122	14.83
221.507	-5.43
221.892	0.74
222.276	-1.23
222.661	12.29
223.046	-4.47
223.43	-10.81
223.815	4.34
224.199	6.92
224.583	10.46
224.968	0.27
225.352	12.01
225.736	-0.51
226.121	8.67
226.505	3.55
226.889	-1.27
227.273	0.87
227.657	2.43
228.041	0.69
228.425	2.98
228.809	3.68
229.193	2.4
229.577	2.94
229.961	1.77
230.344	1.78
230.728	1.07
231.112	1.39
231.495	1.21
231.879	-0.11
232.263	2.59
232.646	1.2
233.03	2.04
233.413	2.69
233.797	1.99
234.18	4.11
234.563	1.35
234.946	1.14
235.33	0.71
235.713	3.24
236.096	1.06
236.479	3.05
236.862	0.92
237.245	1.82
237.628	3.1
238.011	3.16
238.394	2.9
238.777	4.8
239.16	1.27
239.543	1.98
239.925	1.92
240.308	1.41
240.691	2.12
241.073	1.27
241.456	2.19
241.838	3.51
242.221	2.38
242.603	3.28
242.986	1.87
243.368	1.74
243.75	1.94
244.133	2.24
244.515	2.09
244.897	2.58
245.279	2.37
245.661	2.52
246.043	3.12
246.425	1.62
246.807	1.91
247.189	2.17
247.571	2.21
247.953	2.05
248.335	2.16
248.717	2.4
249.098	2.09
249.48	2.37
249.862	2.2
250.243	2.35
250.625	2.49
251.006	2.2
251.388	1.58
251.769	3.01
252.151	1.56
252.532	1.64
252.913	2.22
253.295	2.17
253.676	2.52
254.057	1.99
254.438	2.63
254.819	3.01
255.2	2.55
255.581	2.55
255.962	2.4
256.343	2.96
256.724	2.37
257.105	2.2
257.486	1.55
257.867	2.45
258.247	2.24
258.628	2.54
259.009	1.91
259.389	2.43
259.77	1.19
260.15	1.7
260.531	2.29
260.911	2.06
261.292	1.95
261.672	2.18
262.052	2.04
262.432	2.14
262.813	2.22
263.193	2.05
263.573	2.63
263.953	2.02
264.333	2.23
264.713	1.75
265.093	2.24
265.473	1.91
265.853	1.79
266.233	1.97
266.612	2.33
266.992	3.17
267.372	1.85
267.752	2.4
268.131	2.58
268.511	1.79
268.89	2.34
269.27	1.61
269.649	1.94
270.029	2.2
270.408	2.43
270.787	2.16
271.167	2.28
271.546	2.07
271.925	2.14
272.304	1.94
272.683	2.16
273.062	1.97
273.441	1.96
273.82	1.96
274.199	1.84
274.578	1.83
274.957	2.01
275.336	1.92
275.715	1.76
276.093	2.68
276.472	2.4
276.851	2.55
277.229	1.93
277.608	2.11
277.986	1.94
278.365	2.31
278.743	2.55
279.122	1.64
279.5	2.14
279.878	1.54
280.257	1.97
280.635	1.81
281.013	2.07
281.391	2.17
281.769	2.32
282.147	2.04
282.525	2.36
282.903	2.09
283.281	1.65
283.659	1.93
284.037	1.65
284.415	1.9
284.792	1.86
285.17	1.84
285.548	1.86
285.925	2.15
286.303	2.22
286.68	2.08
287.058	1.85
287.435	1.98
287.813	2.28
288.19	2.02
288.567	2.14
288.945	2.34
289.322	2.15
289.699	2.36
290.076	2.18
290.453	2
290.83	2.21
291.207	2.25
291.584	2.68
291.961	2.17
292.338	2.3
292.715	1.91
293.092	2.27
293.469	2.42
293.845	3.08
294.222	2.64
294.599	1.91
294.975	2.83
295.352	2.26
295.728	2.38
296.105	2.19
296.481	2.39
296.858	2.45
297.234	2.41
297.61	2.08
297.986	2.59
298.363	2.13
298.739	2.3
299.115	2.18
299.491	2.34
299.867	2.53
300.243	2.59
300.619	2.89
300.995	2.79
301.371	2.08
301.746	3.07
302.122	2.39
302.498	2.6
302.874	2.03
303.249	2.7
303.625	2.36
304	3.08
304.376	2.34
304.751	2.5
305.127	2.75
305.502	2.49
305.878	2.97
306.253	2.5
306.628	2.58
307.003	2.26
307.378	3.03
307.754	2.69
308.129	2.81
308.504	2.47
308.879	2.85
309.254	2.84
309.629	3.07
310.003	2.65
310.378	2.79
310.753	2.66
311.128	2.25
311.502	2.53
311.877	2.69
312.252	2.69
312.626	2.87
313.001	2.51
313.375	2.8
313.75	2.45
314.124	2.6
314.498	3.07
314.873	2.88
315.247	2.94
315.621	2.95
315.995	2.88
316.369	2.65
316.743	1.88
317.117	2.51
317.491	2.32
317.865	2.89
318.239	3.21
318.613	2.69
318.987	2.57
319.361	2.71
319.734	2.71
320.108	2.53
320.482	2.76
320.855	2.3
321.229	3.25
321.602	2.77
321.976	3.21
322.349	3.31
322.723	2.85
323.096	2.95
323.469	2.19
323.843	2.71
324.216	3.58
324.589	2.81
324.962	2.88
325.335	2.86
325.708	3.02
326.081	2.63
326.454	3.36
326.827	3.29
327.2	2.81
327.573	2.87
327.945	3.1
328.318	2.62
328.691	3.01
329.063	3.06
329.436	3.21
329.809	3.77
330.181	2.83
330.553	2.67
330.926	2.9
331.298	2.83
331.671	3.05
332.043	2.87
332.415	2.86
332.787	2.63
333.159	3.12
333.532	3.11
333.904	2.86
334.276	2.33
334.648	3.01
335.02	2.92
335.391	3.15
335.763	2.79
336.135	3.42
336.507	3.24
336.879	3.12
337.25	3.4
337.622	3.06
337.993	3.22
338.365	3.09
338.736	3.63
339.108	3.49
339.479	2.65
339.851	3.02
340.222	3.42
340.593	2.87
340.964	3.23
341.336	2.86
341.707	3.41
342.078	2.64
342.449	2.79
342.82	3.03
343.191	3.07
343.562	2.9
343.933	3.34
344.303	3.21
344.674	3.18
345.045	3.68
345.416	3.15
345.786	3.22
346.157	3.02
346.527	3.18
346.898	3.12
347.268	3.05
347.639	2.88
348.009	2.77
348.38	3.22
348.75	2.97
349.12	3.22
349.49	2.94
349.861	3.11
350.231	3.06
350.601	3.1
350.971	3.23
351.341	3.01
351.711	3.2
352.081	2.76
352.45	2.83
352.82	2.96
353.19	3.35
353.56	3.11
353.929	2.83
354.299	3.21
354.669	3.11
355.038	3.39
355.408	2.84
355.777	3.13
356.147	2.83
356.516	3.1
356.885	2.88
357.254	2.86
357.624	2.88
357.993	3.31
358.362	3.03
358.731	3.21
359.1	3.25
359.469	2.7
359.838	3.12
360.207	3.19
360.576	3.22
360.945	2.99
361.314	2.9
361.682	3.11
362.051	3.07
362.42	3.29
362.788	3
363.157	3.29
363.525	3.35
363.894	3.23
364.262	3
364.631	3.22
364.999	3.09
365.367	3.18
365.735	3.32
366.104	3.27
366.472	3.18
366.84	3.2
367.208	3.25
367.576	3.27
367.944	3.12
368.312	3.27
368.68	2.99
369.048	3.1
369.416	3.44
369.783	2.96
370.151	3.4
370.519	3
370.886	3.26
371.254	3.27
371.621	3.41
371.989	3.1
372.356	3.33
372.724	3.2
373.091	3.34
373.458	3.29
373.826	3.17
374.193	3.41
374.56	3.18
374.927	3.08
375.294	3.47
375.661	3.41
376.028	3.34
376.395	3.29
376.762	3.1
377.129	3.26
377.496	3.2
377.863	3.18
378.229	3.21
378.596	3.2
378.963	3.55
379.329	3.37
379.696	3.25
380.062	3.28
380.429	3.06
380.795	3.16
381.161	3.77
381.528	3.35
381.894	3.32
382.26	3.28
382.626	3.14
382.993	3.47
383.359	3.35
383.725	3.7
384.091	3.38
384.457	3.29
384.823	3.03
385.188	3.48
385.554	3.42
385.92	3.52
386.286	3.5
386.651	3.36
387.017	3.65
387.383	3.47
387.748	3.43
388.114	3.24
388.479	3.34
388.845	3.22
389.21	3.41
389.575	3.41
389.94	3.09
390.306	3.34
390.671	3.43
391.036	3.34
391.401	3.62
391.766	3.4
392.131	3.49
392.496	3.52
392.861	3.52
393.226	3.27
393.591	3.26
393.956	3.43
394.32	3.62
394.685	3.34
395.05	3.58
395.414	3.34
395.779	3.44
396.143	3.18
396.508	3.44
396.872	3.44
397.236	3.52
397.601	3.36
397.965	3.64
398.329	3.5
398.694	3.42
399.058	3.62
399.422	3.59
399.786	3.63
400.15	3.37
400.514	3.37
400.878	3.64
401.242	3.22
401.605	3.77
401.969	3.47
402.333	3.45
402.697	3.37
403.06	3.56
403.424	3.37
403.787	3.31
404.151	3.81
404.514	3.47
404.878	3.46
405.241	3.48
405.604	3.5
405.968	3.32
406.331	3.31
406.694	3.66
407.057	3.32
407.42	3.68
407.783	3.4
408.146	3.42
408.509	3.47
408.872	3.39
409.235	3.68
409.598	3.85
409.961	3.73
410.323	3.44
410.686	3.67
411.049	3.57
411.411	3.68
411.774	3.5
412.136	3.63
412.499	3.38
412.861	3.48
413.223	3.49
413.586	3.46
413.948	3.46
414.31	3.62
414.672	3.56
415.035	3.58
415.397	3.78
415.759	3.68
416.121	3.74
416.483	3.66
416.845	3.47
417.206	3.54
417.568	3.59
417.93	3.66
418.292	3.61
418.653	3.44
419.015	3.51
419.377	3.38
419.738	3.54
420.1	3.42
420.461	3.54
420.822	3.69
421.184	3.6
421.545	3.53
421.906	3.59
422.267	3.44
422.629	3.51
422.99	3.5
423.351	3.54
423.712	3.56
424.073	3.43
424.434	3.54
424.795	3.56
425.155	3.64
425.516	3.57
425.877	3.59
426.238	3.62
426.598	3.54
426.959	3.62
427.32	3.7
427.68	3.68
428.041	3.75
428.401	3.74
428.761	3.86
429.122	3.71
429.482	3.72
429.842	4.01
430.202	4.03
430.563	3.82
430.923	3.91
431.283	3.95
431.643	3.88
432.003	3.85
432.363	4.03
432.722	3.83
433.082	3.7
433.442	3.87
433.802	3.81
434.161	3.82
434.521	3.75
434.881	3.68
435.24	3.7
435.6	3.79
435.959	3.8
436.319	3.84
436.678	3.85
437.037	3.99
437.396	3.86
437.756	3.89
438.115	3.78
438.474	3.87
438.833	3.96
439.192	3.94
439.551	3.99
439.91	3.93
440.269	3.98
440.628	3.9
440.987	3.75
441.345	3.81
441.704	3.75
442.063	3.92
442.421	3.75
442.78	3.87
443.138	3.85
443.497	4.03
443.855	3.96
444.214	4.04
444.572	3.94
444.93	4.06
445.288	4.09
445.647	4.05
446.005	4.04
446.363	4.03
446.721	3.9
447.079	3.83
447.437	3.95
447.795	3.93
448.153	3.74
448.51	3.86
448.868	3.94
449.226	4.01
449.584	3.95
449.941	4.05
450.299	4.17
450.656	4.03
451.014	4.05
451.371	4
451.729	4
452.086	4.19
452.443	4.16
452.801	4.15
453.158	4.14
453.515	4.14
453.872	4.19
454.229	4.26
454.586	4.03
454.943	4.12
455.3	4.22
455.657	4.25
456.014	4.27
456.371	4.02
456.727	4
457.084	4.28
457.441	4.4
457.797	4.23
458.154	4.09
458.51	4.18
458.867	4.35
459.223	4.2
459.58	4.13
459.936	4.1
460.292	4.14
460.648	4.23
461.005	4.16
461.361	4.04
461.717	4.08
462.073	4.14
462.429	4.15
462.785	4.21
463.141	4.22
463.496	4.28
463.852	4.43
464.208	4.35
464.564	4.22
464.919	4.42
465.275	4.44
465.631	4.37
465.986	4.38
466.342	4.24
466.697	4.32
467.052	4.39
467.408	4.38
467.763	4.36
468.118	4.23
468.473	4.39
468.829	4.23
469.184	4.42
469.539	4.36
469.894	4.42
470.249	4.4
470.603	4.55
470.958	4.34
471.313	4.46
471.668	4.41
472.023	4.38
472.377	4.47
472.732	4.52
473.086	4.44
473.441	4.44
473.795	4.55
474.15	4.45
474.504	4.4
474.859	4.55
475.213	4.72
475.567	4.42
475.921	4.59
476.275	4.41
476.63	4.46
476.984	4.68
477.338	4.46
477.692	4.44
478.045	4.38
478.399	4.47
478.753	4.62
479.107	4.53
479.461	4.57
479.814	4.51
480.168	4.51
480.521	4.44
480.875	4.57
481.228	4.67
481.582	4.64
481.935	4.74
482.289	4.69
482.642	4.49
482.995	4.69
483.348	4.39
483.701	4.55
484.055	4.5
484.408	4.5
484.761	4.39
485.114	4.2
485.466	4.1
485.819	4.15
486.172	4.3
486.525	4.49
486.878	4.62
487.23	4.62
487.583	4.61
487.936	4.65
488.288	4.54
488.641	4.46
488.993	4.38
489.345	4.38
489.698	4.43
490.05	4.53
490.402	4.54
490.754	4.7
491.107	4.74
491.459	4.7
491.811	4.77
492.163	4.81
492.515	4.68
492.866	4.54
493.218	4.4
493.57	4.44
493.922	4.6
494.274	4.76
494.625	4.78
494.977	4.89
495.328	5.01
495.68	4.94
496.031	4.93
496.383	5.01
496.734	4.96
497.086	4.98
497.437	5.04
497.788	4.87
498.139	4.89
498.49	4.76
498.842	4.87
499.193	4.96
499.544	4.91
499.894	4.97
500.245	4.99
500.596	5.01
500.947	4.92
501.298	5.01
501.648	5.04
501.999	5.12
502.35	5.09
502.7	5.04
503.051	5
503.401	5.09
503.752	5.1
504.102	5.16
504.452	5.04
504.803	5.03
505.153	5.03
505.503	5
505.853	5.15
506.203	5.04
506.553	5.1
506.903	5.1
507.253	5.11
507.603	5.09
507.953	5.21
508.303	5.13
508.652	5.12
509.002	5.26
509.352	5.38
509.701	5.02
510.051	5.13
510.4	5.23
510.75	5.15
511.099	5.21
511.449	5.16
511.798	5.35
512.147	5.28
512.496	5.28
512.846	5.24
513.195	5.22
513.544	5.3
513.893	5.3
514.242	5.26
514.591	5.33
514.939	5.36
515.288	5.41
515.637	5.5
515.986	5.58
516.334	5.46
516.683	5.46
517.032	5.47
517.38	5.53
517.729	5.6
518.077	5.39
518.426	5.56
518.774	5.48
519.122	5.31
519.47	5.5
519.819	5.4
520.167	5.4
520.515	5.34
520.863	5.44
521.211	5.5
521.559	5.58
521.907	5.57
522.255	5.59
522.602	5.58
522.95	5.67
523.298	5.65
523.645	5.66
523.993	5.65
524.341	5.87
524.688	5.68
525.036	5.73
525.383	5.69
525.73	5.84
526.078	5.74
526.425	5.67
526.772	5.64
527.119	5.56
527.466	5.53
527.814	5.62
528.161	5.71
528.508	5.8
528.854	5.79
529.201	5.71
529.548	5.71
529.895	5.43
530.242	5.34
530.588	5.4
530.935	5.57
531.282	5.72
531.628	5.76
531.975	5.82
532.321	5.9
532.667	5.95
533.014	5.97
533.36	5.98
533.706	5.96
534.052	5.99
534.399	5.83
534.745	5.71
535.091	5.66
535.437	5.81
535.783	6
536.129	6.08
536.474	6.11
536.82	6.16
537.166	6.11
537.512	6.04
537.857	6.09
538.203	6.02
538.549	6
538.894	6.07
539.239	6.17
539.585	6.25
539.93	6.3
540.276	6.4
540.621	6.48
540.966	6.39
541.311	6.39
541.656	6.31
542.001	6.34
542.346	6.17
542.691	5.98
543.036	5.94
543.381	6.03
543.726	6.22
544.071	6.31
544.415	6.38
544.76	6.35
545.105	6.38
545.449	6.54
545.794	6.44
546.138	6.54
546.483	6.6
546.827	6.61
547.171	6.55
547.516	6.66
547.86	6.65
548.204	6.5
548.548	6.49
548.892	6.44
549.236	6.64
549.58	6.76
549.924	6.85
550.268	7
550.612	6.78
550.956	6.99
551.3	6.94
551.643	6.9
551.987	7.02
552.33	6.97
552.674	7.1
553.017	6.95
553.361	6.94
553.704	7.08
554.048	6.92
554.391	6.93
554.734	7.09
555.077	6.9
555.42	6.95
555.764	7.08
556.107	7.32
556.45	7.2
556.793	7.29
557.135	7.4
557.478	7.42
557.821	7.37
558.164	7.33
558.507	7.23
558.849	7.4
559.192	7.46
559.534	7.38
559.877	7.41
560.219	7.38
560.562	7.59
560.904	7.55
561.246	7.44
561.589	7.5
561.931	7.5
562.273	7.65
562.615	7.53
562.957	7.45
563.299	7.71
563.641	7.68
563.983	7.63
564.325	7.68
564.667	7.76
565.008	7.65
565.35	7.87
565.692	7.83
566.033	7.83
566.375	7.81
566.716	7.77
567.058	7.77
567.399	7.72
567.741	7.62
568.082	7.69
568.423	7.64
568.764	7.75
569.105	7.97
569.447	7.9
569.788	7.96
570.129	7.95
570.47	8.06
570.811	8.09
571.151	8.2
571.492	8.11
571.833	8.24
572.174	8.08
572.514	8.29
572.855	8.11
573.195	8.05
573.536	8.09
573.876	7.98
574.217	8.23
574.557	8.18
574.898	8.25
575.238	8.39
575.578	8.42
575.918	8.31
576.258	8.27
576.598	8.37
576.938	8.36
577.278	8.53
577.618	8.45
577.958	8.61
578.298	8.43
578.638	8.56
578.977	8.67
579.317	8.72
579.657	8.93
579.996	8.69
580.336	8.83
580.675	8.66
581.014	8.71
581.354	8.93
581.693	8.9
582.032	8.8
582.372	9.01
582.711	8.99
583.05	8.86
583.389	9.1
583.728	9.01
584.067	9.12
584.406	9.07
584.745	9.02
585.083	9.03
585.422	9.17
585.761	9.28
586.1	8.96
586.438	9.17
586.777	9.01
587.115	9.32
587.454	9.3
587.792	9.28
588.13	9.32
588.469	9.31
588.807	9.23
589.145	9.47
589.483	9.48
589.821	9.39
590.159	9.35
590.497	9.38
590.835	9.34
591.173	9.37
591.511	9.43
591.849	9.38
592.187	9.37
592.524	9.69
592.862	9.71
593.2	9.88
593.537	9.7
593.875	9.65
594.212	10.07
594.55	9.74
594.887	9.59
595.224	9.82
595.561	9.76
595.899	9.68
596.236	9.52
596.573	9.93
596.91	10
597.247	10.09
597.584	10.12
597.921	9.93
598.258	9.74
598.594	9.68
598.931	9.88
599.268	9.79
599.604	9.98
599.941	10.18
600.277	10.14
600.614	10.18
600.95	10.3
601.287	10.07
601.623	10.09
601.959	10.18
602.296	10.3
602.632	10.5
602.968	10.13
603.304	10.14
603.64	10.52
603.976	10.49
604.312	10.42
604.648	10.28
604.984	10.23
605.319	10.56
605.655	10.4
605.991	10.09
606.326	10.18
606.662	10.34
606.998	10.62
607.333	10.41
607.668	10.68
608.004	10.8
608.339	10.61
608.674	10.92
609.01	10.81
609.345	10.89
609.68	10.91
610.015	11.01
610.35	10.99
610.685	10.71
611.02	10.71
611.355	10.74
611.689	10.86
612.024	10.86
612.359	11.06
612.694	11.21
613.028	11.28
613.363	11.27
613.697	11.16
614.032	11.05
614.366	11.29
614.7	11.24
615.035	11.47
615.369	11.47
615.703	11.56
616.037	11.3
616.371	11.31
616.705	11.74
617.039	11.19
617.373	11.39
617.707	11.68
618.041	11.71
618.375	11.43
618.709	11.3
619.042	11.55
619.376	11.81
619.71	11.68
620.043	11.5
620.377	11.86
620.71	11.98
621.043	11.61
621.377	11.64
621.71	11.8
622.043	11.99
622.376	11.7
622.709	12.02
623.043	11.63
623.376	11.86
623.709	12.03
624.041	11.84
624.374	11.91
624.707	12.08
625.04	12.22
625.373	12.17
625.705	12.19
626.038	11.97
626.37	11.94
626.703	12.23
627.035	12.11
627.368	12.47
627.7	12.53
628.032	12.11
628.365	12.41
628.697	12.08
629.029	12.36
629.361	12.4
629.693	12.44
630.025	12.59
630.357	12.48
630.689	12.64
631.021	12.26
631.353	12.69
631.684	12.82
632.016	12.96
632.348	12.45
632.679	12.97
633.011	12.95
633.342	12.85
633.674	12.89
634.005	12.5
634.336	13.09
634.668	12.56
634.999	13.09
635.33	12.69
635.661	12.46
635.992	13.02
636.323	12.95
636.654	13.1
636.985	13.01
637.316	12.98
637.647	12.85
637.977	13.14
638.308	13.36
638.639	13.11
638.969	13.23
639.3	13.18
639.63	13.2
639.961	13.27
640.291	13.56
640.622	13.27
640.952	13.27
641.282	13.41
641.612	13.38
641.943	13.47
642.273	13.66
642.603	13.4
642.933	13.43
643.263	13.37
643.592	13.48
643.922	13.72
644.252	13.99
644.582	13.74
644.911	13.65
645.241	13.93
645.571	13.69
645.9	13.82
646.23	13.58
646.559	13.26
646.888	13.75
647.218	14.09
647.547	13.88
647.876	13.23
648.205	13.78
648.534	14.12
648.863	13.74
649.192	13.97
649.521	13.63
649.85	13.84
650.179	14.02
650.508	14.13
650.837	14.08
651.165	14.38
651.494	14.04
651.822	13.92
652.151	14.29
652.479	14.44
652.808	14.4
653.136	14.26
653.465	14.24
653.793	14.4
654.121	13.73
654.449	14.21
654.777	14.35
655.105	14.41
655.433	14.27
655.761	14.51
656.089	14.72
656.417	14.64
656.745	14.41
657.073	13.79
657.4	14.88
657.728	14.65
658.056	14.56
658.383	15.21
658.711	14.21
659.038	14.8
659.365	14.88
659.693	14.63
660.02	15.02
660.347	14.79
660.674	14.42
661.001	14.99
661.329	14.64
661.656	15.08
661.982	15.08
662.309	15.19
662.636	15.41
662.963	15.27
663.29	15.26
663.616	15.33
663.943	15.1
664.27	14.89
664.596	15.23
664.923	15.47
665.249	15.44
665.576	15.9
665.902	14.91
666.228	15.22
666.554	15.07
666.881	15.36
667.207	15.38
667.533	15.52
667.859	15.22
668.185	15.03
668.511	15.13
668.837	16.02
669.162	15.4
669.488	15.57
669.814	15.64
670.139	15.8
670.465	15.22
670.791	15.94
671.116	15.63
671.442	15.64
671.767	15.39
672.092	15.34
672.418	16.53
672.743	16.1
673.068	15.66
673.393	15.57
673.718	16.2
674.043	16.35
674.368	16.04
674.693	15.77
675.018	16.17
675.343	16.09
675.667	16.05
675.992	16.11
676.317	16.32
676.641	15.96
676.966	15.88
677.29	16
677.615	16.45
677.939	15.84
678.264	16.32
678.588	15.92
678.912	16.69
679.236	16.13
679.56	16.31
679.885	16.82
680.209	16.22
680.532	16.78
680.856	16.32
681.18	16.17
681.504	16.42
681.828	16.69
682.152	16.59
682.475	15.98
682.799	16.35
683.122	16.81
683.446	17.12
683.769	16.57
684.093	16.95
684.416	17.19
684.739	17.28
685.062	16.6
685.386	16.26
685.709	16.72
686.032	16.82
686.355	16.83
686.678	16.96
