Data from 97279_forehead_Reflection__1__07.txt Node

Date: Fri Sep 23 19:30:10 CDT 2022
User: ToomeyLab
Spectrometer: FLMS14357
Trigger mode: 0
Integration Time (sec): 1.000000E-2
Scans to average: 100
Electric dark correction enabled: true
Nonlinearity correction enabled: false
Boxcar width: 0
XAxis mode: Wavelengths
Number of Pixels in Spectrum: 2048
>>>>>Begin Spectral Data<<<<<
189.047	-52.4
189.435	-52.4
189.823	-52.4
190.211	1667.44
190.599	-115.85
190.987	13.32
191.375	-89.52
191.763	85.5
192.151	21.64
192.538	4.74
192.926	128.19
193.314	-76.93
193.702	7455.56
194.089	-232.95
194.477	109.56
194.864	39.33
195.252	-30.63
195.639	86.43
196.027	-75.55
196.414	301.83
196.801	319.44
197.189	388.22
197.576	-71.77
197.963	-84.25
198.351	48.3
198.738	7.64
199.125	31.54
199.512	2.41
199.899	16.44
200.286	-10.14
200.673	38.57
201.06	36.07
201.447	36.04
201.833	31.49
202.22	-0.05
202.607	45.41
202.994	24.54
203.38	-21.17
203.767	-10.54
204.154	35.59
204.54	14.75
204.927	59
205.313	52.44
205.699	-3.83
206.086	11.58
206.472	9.31
206.858	30.8
207.245	18.69
207.631	30.61
208.017	35.08
208.403	26.29
208.789	28.05
209.175	37.46
209.561	39.6
209.947	29.83
210.333	16.22
210.719	36.26
211.105	29.55
211.491	34.47
211.876	27.74
212.262	17.69
212.648	22.74
213.034	-11.2
213.419	5.38
213.805	18.77
214.19	10.58
214.576	15.84
214.961	8.32
215.346	27.35
215.732	32.34
216.117	15.11
216.502	24.04
216.888	1.79
217.273	5.18
217.658	-4.21
218.043	32.84
218.428	56.33
218.813	14.33
219.198	18.41
219.583	36.07
219.968	8.45
220.353	1.29
220.738	10.08
221.122	8.1
221.507	6.5
221.892	5.68
222.276	-2.31
222.661	-1.53
223.046	2.27
223.43	8.12
223.815	13.77
224.199	6.41
224.583	8.01
224.968	11.88
225.352	4.05
225.736	1.73
226.121	8.45
226.505	8.58
226.889	7.86
227.273	6.76
227.657	1.38
228.041	5.02
228.425	5.37
228.809	6.04
229.193	4.86
229.577	3.81
229.961	3.88
230.344	3.05
230.728	2.81
231.112	3.19
231.495	3.25
231.879	1.85
232.263	2.84
232.646	4.56
233.03	3.52
233.413	3.46
233.797	3.12
234.18	6.58
234.563	2.25
234.946	4.14
235.33	1.77
235.713	3.84
236.096	2.65
236.479	2.13
236.862	4.13
237.245	4.6
237.628	4.34
238.011	5.14
238.394	3.7
238.777	4.76
239.16	3.32
239.543	4.2
239.925	4
240.308	3.42
240.691	3.44
241.073	1.95
241.456	3.04
241.838	5.34
242.221	4.03
242.603	4.83
242.986	2.11
243.368	3.21
243.75	3.19
244.133	3.46
244.515	3.37
244.897	3.46
245.279	4.31
245.661	4.34
246.043	4.66
246.425	3.92
246.807	3.25
247.189	4.8
247.571	3.51
247.953	3.3
248.335	3.65
248.717	3.68
249.098	3.5
249.48	3.46
249.862	3.61
250.243	4.04
250.625	3.93
251.006	4.03
251.388	3.98
251.769	4.58
252.151	2.37
252.532	3.61
252.913	4.03
253.295	3.39
253.676	3.68
254.057	3.52
254.438	3.61
254.819	4.79
255.2	4.71
255.581	4.78
255.962	3.6
256.343	4.9
256.724	4.76
257.105	4.28
257.486	3.44
257.867	3.58
258.247	4.08
258.628	4.24
259.009	3.76
259.389	3.2
259.77	3.68
260.15	3.33
260.531	3.9
260.911	3.58
261.292	3.54
261.672	3.24
262.052	3.43
262.432	3.44
262.813	3.44
263.193	3.51
263.573	3.78
263.953	3.13
264.333	3.77
264.713	3.55
265.093	3.56
265.473	4.13
265.853	3.45
266.233	3.37
266.612	2.93
266.992	4.73
267.372	3.39
267.752	3.5
268.131	4.4
268.511	3.09
268.89	3.42
269.27	3.49
269.649	3.49
270.029	3.49
270.408	3.95
270.787	3.15
271.167	3.37
271.546	3.2
271.925	3.1
272.304	3.74
272.683	3.16
273.062	3.38
273.441	3.41
273.82	3.22
274.199	3.12
274.578	2.91
274.957	3.33
275.336	3.53
275.715	3.7
276.093	3.86
276.472	4.4
276.851	3.87
277.229	3.48
277.608	3.25
277.986	3.07
278.365	3.17
278.743	3.97
279.122	2.84
279.5	3.27
279.878	3.49
280.257	3.15
280.635	2.98
281.013	2.94
281.391	3.32
281.769	3.42
282.147	3.17
282.525	3.31
282.903	3.34
283.281	3.16
283.659	3.52
284.037	3.22
284.415	3.32
284.792	3.36
285.17	3.81
285.548	3.2
285.925	3.3
286.303	4.08
286.68	3.22
287.058	3.16
287.435	3.17
287.813	3.79
288.19	3.05
288.567	3.38
288.945	3.55
289.322	3.41
289.699	3.71
290.076	3.39
290.453	3.28
290.83	3.7
291.207	3.54
291.584	3.54
291.961	3.75
292.338	3.85
292.715	3.26
293.092	3.36
293.469	3.76
293.845	3.69
294.222	3.73
294.599	3.49
294.975	4.03
295.352	4.12
295.728	3.89
296.105	3.78
296.481	3.86
296.858	4.29
297.234	4.3
297.61	3.76
297.986	4.13
298.363	3.88
298.739	4.25
299.115	3.71
299.491	3.92
299.867	4.08
300.243	4.14
300.619	4.38
300.995	4.52
301.371	3.88
301.746	5.01
302.122	4.18
302.498	4.31
302.874	4.15
303.249	4.51
303.625	4.13
304	4.72
304.376	4.48
304.751	4.23
305.127	4.13
305.502	4.78
305.878	4.74
306.253	4.73
306.628	4.55
307.003	4.16
307.378	4.53
307.754	5.24
308.129	4.52
308.504	4.78
308.879	5.51
309.254	5.12
309.629	5.1
310.003	4.62
310.378	4.97
310.753	4.81
311.128	4.78
311.502	4.99
311.877	4.9
312.252	4.68
312.626	4.94
313.001	5.26
313.375	5.04
313.75	5.27
314.124	4.88
314.498	5.19
314.873	5.8
315.247	5.85
315.621	5.35
315.995	5.69
316.369	5.51
316.743	5.56
317.117	5.25
317.491	5.25
317.865	5.93
318.239	6.06
318.613	5.28
318.987	5.37
319.361	5.44
319.734	5.78
320.108	5.56
320.482	5.56
320.855	5.64
321.229	6.14
321.602	5.83
321.976	5.95
322.349	6.04
322.723	6.36
323.096	5.96
323.469	5.81
323.843	5.52
324.216	6.31
324.589	5.85
324.962	6.49
325.335	5.92
325.708	6.05
326.081	6.24
326.454	6
326.827	6.17
327.2	5.73
327.573	6.46
327.945	6.51
328.318	6.27
328.691	6.05
329.063	6.62
329.436	6.65
329.809	6.66
330.181	6.07
330.553	6.28
330.926	6.5
331.298	6.63
331.671	6.73
332.043	6.88
332.415	6.69
332.787	6.47
333.159	6.89
333.532	6.33
333.904	6.58
334.276	6.51
334.648	6.81
335.02	6.44
335.391	6.38
335.763	6.37
336.135	6.69
336.507	7.12
336.879	7.08
337.25	6.87
337.622	7.29
337.993	7.03
338.365	6.67
338.736	7.27
339.108	7.74
339.479	6.77
339.851	7.08
340.222	7.38
340.593	7.05
340.964	7.44
341.336	7.04
341.707	7.41
342.078	6.81
342.449	6.91
342.82	7.11
343.191	6.93
343.562	7.43
343.933	7.71
344.303	7.19
344.674	7.56
345.045	7.49
345.416	7.54
345.786	7.37
346.157	7.16
346.527	7.22
346.898	7.7
347.268	7.62
347.639	7.52
348.009	7.57
348.38	7.49
348.75	7.66
349.12	7.79
349.49	8.05
349.861	7.95
350.231	7.51
350.601	7.25
350.971	7.47
351.341	7.65
351.711	7.94
352.081	7.78
352.45	7.68
352.82	7.49
353.19	8.45
353.56	8.2
353.929	7.87
354.299	8.1
354.669	8.05
355.038	8.18
355.408	7.77
355.777	8.13
356.147	7.85
356.516	8.15
356.885	8.05
357.254	8.13
357.624	8.08
357.993	8.01
358.362	8.31
358.731	7.93
359.1	8.2
359.469	7.7
359.838	8.2
360.207	8.39
360.576	8.43
360.945	8.26
361.314	8.03
361.682	8.06
362.051	8.41
362.42	8.26
362.788	8.35
363.157	8.42
363.525	8.22
363.894	8.45
364.262	8.13
364.631	8.68
364.999	8.4
365.367	8.53
365.735	8.91
366.104	8.87
366.472	8.75
366.84	8.85
367.208	8.86
367.576	8.96
367.944	8.62
368.312	9.24
368.68	8.53
369.048	8.73
369.416	9.09
369.783	8.68
370.151	8.87
370.519	8.89
370.886	9.08
371.254	9.05
371.621	9.4
371.989	8.91
372.356	9.7
372.724	8.88
373.091	8.97
373.458	9.07
373.826	9.17
374.193	9.46
374.56	9.46
374.927	9.57
375.294	9.91
375.661	9.23
376.028	9.33
376.395	9.65
376.762	9.19
377.129	9.35
377.496	9.64
377.863	9.74
378.229	9.77
378.596	9.31
378.963	9.47
379.329	9.7
379.696	9.3
380.062	9.62
380.429	9.78
380.795	9.73
381.161	9.84
381.528	9.99
381.894	9.82
382.26	9.76
382.626	9.69
382.993	9.8
383.359	9.83
383.725	10.27
384.091	9.96
384.457	10.09
384.823	9.98
385.188	10.13
385.554	10.11
385.92	10.25
386.286	9.89
386.651	9.97
387.017	10.34
387.383	10.2
387.748	10.13
388.114	10.36
388.479	10.51
388.845	10.41
389.21	10.36
389.575	10.42
389.94	10.44
390.306	10.31
390.671	10.42
391.036	10.51
391.401	10.51
391.766	10.77
392.131	10.55
392.496	10.5
392.861	10.46
393.226	10.58
393.591	10.43
393.956	10.56
394.32	10.7
394.685	10.8
395.05	10.84
395.414	10.87
395.779	10.52
396.143	10.7
396.508	10.96
396.872	10.85
397.236	11.04
397.601	10.92
397.965	11.3
398.329	11.14
398.694	10.79
399.058	11.16
399.422	11.1
399.786	11.34
400.15	11.31
400.514	11
400.878	10.9
401.242	11.04
401.605	11.49
401.969	11.16
402.333	11.15
402.697	11.17
403.06	11.44
403.424	11.28
403.787	11.46
404.151	11.07
404.514	11.13
404.878	11.09
405.241	11.43
405.604	11.25
405.968	11.28
406.331	11.3
406.694	11.47
407.057	11.41
407.42	11.68
407.783	11.41
408.146	11.61
408.509	11.62
408.872	11.58
409.235	11.89
409.598	11.93
409.961	12.03
410.323	11.8
410.686	11.96
411.049	11.74
411.411	11.8
411.774	11.62
412.136	11.78
412.499	11.84
412.861	11.85
413.223	12.03
413.586	12.01
413.948	12.2
414.31	12.09
414.672	12.19
415.035	12.06
415.397	12.2
415.759	12.37
416.121	12.26
416.483	12.04
416.845	12.06
417.206	12.23
417.568	12.09
417.93	12.19
418.292	12.11
418.653	12.1
419.015	12.24
419.377	11.88
419.738	12.1
420.1	12.04
420.461	12.17
420.822	12.2
421.184	12.26
421.545	12.3
421.906	12.3
422.267	12.23
422.629	12.09
422.99	12.1
423.351	12.23
423.712	12.45
424.073	12.41
424.434	12.61
424.795	12.6
425.155	12.45
425.516	12.4
425.877	12.41
426.238	12.49
426.598	12.47
426.959	12.66
427.32	12.77
427.68	12.86
428.041	13.06
428.401	13.17
428.761	13.31
429.122	13.49
429.482	13.29
429.842	13.54
430.202	13.46
430.563	13.25
430.923	13.41
431.283	13.46
431.643	13.51
432.003	13.46
432.363	13.39
432.722	13.67
433.082	13.47
433.442	13.41
433.802	13.47
434.161	13.49
434.521	13.45
434.881	13.33
435.24	13.44
435.6	13.6
435.959	13.46
436.319	13.68
436.678	13.81
437.037	13.84
437.396	13.98
437.756	14.15
438.115	14.03
438.474	14.03
438.833	14.03
439.192	14.01
439.551	14.07
439.91	14.03
440.269	14.02
440.628	14.05
440.987	13.95
441.345	14
441.704	13.97
442.063	13.97
442.421	13.75
442.78	14.03
443.138	14.1
443.497	14.45
443.855	14.55
444.214	14.54
444.572	14.7
444.93	14.45
445.288	14.74
445.647	14.75
446.005	14.56
446.363	14.58
446.721	14.37
447.079	14.27
447.437	14.32
447.795	14.16
448.153	14.14
448.51	14.18
448.868	14.48
449.226	14.59
449.584	14.73
449.941	14.89
450.299	14.92
450.656	14.99
451.014	15.15
451.371	15.11
451.729	15.2
452.086	15.45
452.443	15.35
452.801	15.31
453.158	15.25
453.515	15.4
453.872	15.3
454.229	15.31
454.586	15.26
454.943	15.49
455.3	15.41
455.657	15.43
456.014	15.44
456.371	15.45
456.727	15.57
457.084	15.63
457.441	15.63
457.797	15.72
458.154	15.79
458.51	15.82
458.867	15.99
459.223	15.73
459.58	15.74
459.936	15.7
460.292	15.62
460.648	15.53
461.005	15.47
461.361	15.32
461.717	15.31
462.073	15.59
462.429	15.76
462.785	16.1
463.141	16.03
463.496	16.3
463.852	16.25
464.208	16.24
464.564	16.36
464.919	16.31
465.275	16.49
465.631	16.41
465.986	16.34
466.342	16.49
466.697	16.33
467.052	16.64
467.408	16.63
467.763	16.68
468.118	16.61
468.473	16.36
468.829	16.45
469.184	16.68
469.539	16.6
469.894	16.64
470.249	16.81
470.603	16.86
470.958	16.92
471.313	16.74
471.668	16.89
472.023	16.91
472.377	16.94
472.732	17.02
473.086	16.87
473.441	17.24
473.795	17.12
474.15	17.18
474.504	17.29
474.859	17.16
475.213	17.31
475.567	17.23
475.921	17.49
476.275	17.26
476.63	17.48
476.984	17.69
477.338	17.49
477.692	17.37
478.045	17.31
478.399	17.46
478.753	17.58
479.107	17.57
479.461	17.52
479.814	17.54
480.168	17.47
480.521	17.61
480.875	17.8
481.228	17.91
481.582	17.81
481.935	17.74
482.289	17.68
482.642	17.65
482.995	17.71
483.348	17.59
483.701	17.63
484.055	17.66
484.408	17.52
484.761	17.29
485.114	16.83
485.466	16.48
485.819	16.66
486.172	17.11
486.525	17.53
486.878	17.8
487.23	17.93
487.583	18.1
487.936	17.94
488.288	17.78
488.641	17.55
488.993	17.33
489.345	17.46
489.698	17.56
490.05	17.74
490.402	17.9
490.754	18.24
491.107	18.38
491.459	18.58
491.811	18.61
492.163	18.76
492.515	18.45
492.866	17.9
493.218	17.55
493.57	17.67
493.922	18.05
494.274	18.47
494.625	18.74
494.977	18.94
495.328	19.09
495.68	19.22
496.031	19.12
496.383	19.18
496.734	19.24
497.086	19.44
497.437	19.37
497.788	19.08
498.139	19.02
498.49	19.04
498.842	19.03
499.193	19.18
499.544	19.34
499.894	19.34
500.245	19.46
500.596	19.45
500.947	19.49
501.298	19.52
501.648	19.88
501.999	19.74
502.35	19.92
502.7	19.97
503.051	19.73
503.401	19.88
503.752	19.76
504.102	19.96
504.452	19.9
504.803	19.95
505.153	20.06
505.503	19.92
505.853	20.06
506.203	19.95
506.553	20.26
506.903	20.11
507.253	20.22
507.603	20.27
507.953	20.23
508.303	20.28
508.652	20.28
509.002	20.14
509.352	20.36
509.701	20.04
510.051	20.1
510.4	20.09
510.75	20.07
511.099	20.21
511.449	20.2
511.798	20.37
512.147	20.39
512.496	20.48
512.846	20.49
513.195	20.59
513.544	20.55
513.893	20.55
514.242	20.64
514.591	20.68
514.939	20.85
515.288	20.99
515.637	20.95
515.986	21.11
516.334	21.1
516.683	21.11
517.032	21.24
517.38	21.38
517.729	21.26
518.077	21.27
518.426	21.36
518.774	21.18
519.122	21.04
519.47	21.02
519.819	20.99
520.167	20.78
520.515	20.77
520.863	21
521.211	21.17
521.559	21.31
521.907	21.47
522.255	21.47
522.602	21.64
522.95	21.65
523.298	21.64
523.645	21.78
523.993	22
524.341	21.93
524.688	21.94
525.036	21.99
525.383	21.91
525.73	22.13
526.078	22.1
526.425	21.88
526.772	21.86
527.119	21.46
527.466	21.47
527.814	21.66
528.161	21.88
528.508	21.93
528.854	22.1
529.201	22.02
529.548	21.69
529.895	21.21
530.242	20.85
530.588	21.06
530.935	21.5
531.282	21.84
531.628	22.14
531.975	22.23
532.321	22.24
532.667	22.39
533.014	22.48
533.36	22.59
533.706	22.42
534.052	22.46
534.399	22.22
534.745	21.93
535.091	21.73
535.437	22.14
535.783	22.46
536.129	22.77
536.474	22.84
536.82	23.16
537.166	23.19
537.512	23.22
537.857	22.97
538.203	22.56
538.549	22.47
538.894	22.84
539.239	23.12
539.585	23.45
539.93	23.48
540.276	23.64
540.621	23.79
540.966	23.66
541.311	23.7
541.656	23.7
542.001	23.62
542.346	23.29
542.691	22.54
543.036	22.33
543.381	22.65
543.726	23
544.071	23.2
544.415	23.46
544.76	23.46
545.105	23.54
545.449	23.62
545.794	24.06
546.138	24.09
546.483	24.05
546.827	24.2
547.171	24.01
547.516	24.05
547.86	24.17
548.204	23.97
548.548	23.67
548.892	23.96
549.236	24.31
549.58	24.37
549.924	24.7
550.268	24.96
550.612	24.93
550.956	25.02
551.3	24.97
551.643	24.9
551.987	25.19
552.33	25.04
552.674	25.01
553.017	25.02
553.361	25.02
553.704	25.16
554.048	24.9
554.391	24.89
554.734	24.84
555.077	24.94
555.42	25.17
555.764	25.3
556.107	25.56
556.45	25.53
556.793	25.63
557.135	25.66
557.478	25.73
557.821	25.74
558.164	25.66
558.507	25.7
558.849	25.69
559.192	25.85
559.534	26.06
559.877	25.91
560.219	26
560.562	25.92
560.904	26.13
561.246	25.95
561.589	26.05
561.931	26.21
562.273	26.19
562.615	26.22
562.957	26.19
563.299	26.19
563.641	26.44
563.983	26.46
564.325	26.39
564.667	26.47
565.008	26.53
565.35	26.52
565.692	26.36
566.033	26.36
566.375	26.63
566.716	26.58
567.058	26.33
567.399	26.37
567.741	26.32
568.082	26.12
568.423	26.19
568.764	26.68
569.105	26.92
569.447	26.85
569.788	26.92
570.129	26.98
570.47	27.18
570.811	27.09
571.151	27.24
571.492	27.19
571.833	27.02
572.174	27.25
572.514	27.31
572.855	26.93
573.195	27.03
573.536	27.01
573.876	26.86
574.217	27.14
574.557	27.36
574.898	27.32
575.238	27.57
575.578	27.7
575.918	27.57
576.258	27.61
576.598	27.43
576.938	27.56
577.278	27.76
577.618	27.62
577.958	27.87
578.298	27.76
578.638	27.8
578.977	28.18
579.317	28.18
579.657	28.19
579.996	28.04
580.336	28.23
580.675	28.12
581.014	28.29
581.354	28.52
581.693	28.46
582.032	28.6
582.372	28.59
582.711	28.35
583.05	28.6
583.389	28.93
583.728	28.56
584.067	28.98
584.406	28.81
584.745	28.99
585.083	28.65
585.422	28.73
585.761	28.87
586.1	28.85
586.438	28.97
586.777	29.08
587.115	28.98
587.454	29.08
587.792	29.13
588.13	29.3
588.469	28.81
588.807	29.18
589.145	29.21
589.483	29.37
589.821	29.49
590.159	29.15
590.497	29.13
590.835	29.09
591.173	29.33
591.511	29.11
591.849	29.4
592.187	29.39
592.524	29.7
592.862	29.72
593.2	29.6
593.537	29.88
593.875	30
594.212	29.84
594.55	29.74
594.887	29.92
595.224	29.92
595.561	29.81
595.899	29.51
596.236	29.78
596.573	29.87
596.91	30.22
597.247	30.25
597.584	29.95
597.921	30.13
598.258	29.87
598.594	29.74
598.931	29.53
599.268	29.81
599.604	30.17
599.941	30.46
600.277	30.19
600.614	30.55
600.95	30.69
601.287	30.52
601.623	30.72
601.959	30.72
602.296	30.7
602.632	30.91
602.968	30.84
603.304	30.76
603.64	30.77
603.976	31.01
604.312	30.93
604.648	30.85
604.984	30.62
605.319	30.6
605.655	30.49
605.991	30.58
606.326	30.33
606.662	30.39
606.998	30.73
607.333	30.75
607.668	31.27
608.004	31.39
608.339	31.47
608.674	31.76
609.01	31.31
609.345	31.34
609.68	31.61
610.015	31.69
610.35	31.43
610.685	30.92
611.02	31.19
611.355	31.09
611.689	31.31
612.024	31.47
612.359	31.59
612.694	31.62
613.028	32.02
613.363	32.28
613.697	32.13
614.032	31.84
614.366	32.33
614.7	32.22
615.035	32.28
615.369	32.47
615.703	32.22
616.037	32.38
616.371	32.34
616.705	32.32
617.039	32.49
617.373	32.23
617.707	32.66
618.041	32.68
618.375	32.77
618.709	32.48
619.042	32.58
619.376	32.75
619.71	32.67
620.043	32.68
620.377	32.93
620.71	32.75
621.043	33.08
621.377	32.75
621.71	32.9
622.043	32.99
622.376	32.83
622.709	32.97
623.043	33.16
623.376	33.09
623.709	33.33
624.041	33.14
624.374	33.07
624.707	33.08
625.04	33.21
625.373	33.07
625.705	33.35
626.038	33.13
626.37	33.27
626.703	32.87
627.035	33.4
627.368	33.47
627.7	33.31
628.032	33.25
628.365	33.1
628.697	33.22
629.029	33.25
629.361	33.18
629.693	33.7
630.025	33.85
630.357	34
630.689	33.86
631.021	33.91
631.353	34.11
631.684	33.78
632.016	34.25
632.348	33.94
632.679	34.24
633.011	33.89
633.342	34.29
633.674	34.22
634.005	34.24
634.336	34.38
634.668	34
634.999	34.32
635.33	34.11
635.661	33.75
635.992	34.13
636.323	34.23
636.654	34.61
636.985	34.75
637.316	34.1
637.647	34.55
637.977	34.47
638.308	34.57
638.639	34.74
638.969	34.46
639.3	34.58
639.63	34.76
639.961	34.43
640.291	34.7
640.622	34.83
640.952	34.79
641.282	34.91
641.612	35.06
641.943	34.34
642.273	35.05
642.603	34.71
642.933	35.15
643.263	35.16
643.592	35.1
643.922	34.86
644.252	35.87
644.582	35.46
644.911	35.37
645.241	35.3
645.571	35.7
645.9	35.11
646.23	35.35
646.559	35.07
646.888	35.63
647.218	36.43
647.547	35.6
647.876	35.15
648.205	35.57
648.534	35.45
648.863	35.62
649.192	36.13
649.521	35.3
649.85	35.6
650.179	35.23
650.508	35.91
650.837	35.91
651.165	36.12
651.494	35.71
651.822	35.59
652.151	35.57
652.479	36
652.808	36.08
653.136	35.71
653.465	36.03
653.793	36.17
654.121	35.69
654.449	35.83
654.777	36.08
655.105	36.4
655.433	36.46
655.761	35.97
656.089	36.68
656.417	36.42
656.745	36.48
657.073	36.3
657.4	36.73
657.728	36.77
658.056	37.03
658.383	36.95
658.711	36.71
659.038	36.73
659.365	36.46
659.693	36.78
660.02	36.84
660.347	36.49
660.674	36
661.001	36.25
661.329	36.17
661.656	36.57
661.982	36.79
662.309	36.97
662.636	37.19
662.963	37.53
663.29	37.29
663.616	37.91
663.943	37.66
664.27	37.28
664.596	37.12
664.923	37.01
665.249	37.33
665.576	37.32
665.902	37.1
666.228	37.53
666.554	37.17
666.881	37.23
667.207	37.25
667.533	37.59
667.859	37.55
668.185	37.28
668.511	37.15
668.837	37.6
669.162	37.49
669.488	37.39
669.814	37.14
670.139	37.12
670.465	37.3
670.791	37.41
671.116	37.5
671.442	38.01
671.767	37.61
672.092	37.13
672.418	38.2
672.743	38.08
673.068	37.34
673.393	38
673.718	37.86
