Data from 97279_crown_Reflection__1__12.txt Node

Date: Fri Sep 23 19:31:44 CDT 2022
User: ToomeyLab
Spectrometer: FLMS14357
Trigger mode: 0
Integration Time (sec): 1.000000E-2
Scans to average: 100
Electric dark correction enabled: true
Nonlinearity correction enabled: false
Boxcar width: 0
XAxis mode: Wavelengths
Number of Pixels in Spectrum: 2048
>>>>>Begin Spectral Data<<<<<
189.047	232.15
189.435	232.15
189.823	232.15
190.211	4919.77
190.599	76.45
190.987	38.69
191.375	-44.63
191.763	79.07
192.151	-19.03
192.538	185.38
192.926	54.57
193.314	-12
193.702	8368.52
194.089	21.92
194.477	73.98
194.864	29.01
195.252	-92.11
195.639	-19.22
196.027	-61.61
196.414	-933.56
196.801	-41.07
197.189	237.15
197.576	-3.19
197.963	-75.02
198.351	20.41
198.738	-8.43
199.125	8.54
199.512	25.52
199.899	-21.52
200.286	-5.56
200.673	9.21
201.06	7.2
201.447	55.16
201.833	57.05
202.22	5.18
202.607	15.87
202.994	-26.96
203.38	-33.4
203.767	-52.05
204.154	19.28
204.54	-24.35
204.927	34.87
205.313	10.31
205.699	17.07
206.086	-35.3
206.472	2.85
206.858	34.86
207.245	5.19
207.631	30.07
208.017	41.07
208.403	39.99
208.789	17.1
209.175	22.46
209.561	23.16
209.947	-12.33
210.333	-6.56
210.719	11.9
211.105	1.62
211.491	9.73
211.876	14.76
212.262	-9.45
212.648	1.05
213.034	-11.33
213.419	-9.71
213.805	40.38
214.19	40.31
214.576	18.62
214.961	15.29
215.346	-15.72
215.732	17.12
216.117	20.59
216.502	9.27
216.888	2.39
217.273	15.63
217.658	-14.72
218.043	12.09
218.428	-3.84
218.813	0.43
219.198	5.27
219.583	0.2
219.968	11.46
220.353	8.81
220.738	7.66
221.122	10.65
221.507	-3.66
221.892	23.33
222.276	0.17
222.661	6.61
223.046	-0.06
223.43	10.06
223.815	6.17
224.199	6.53
224.583	16.03
224.968	-4.37
225.352	13.29
225.736	2.26
226.121	9.49
226.505	9.09
226.889	5.12
227.273	12.09
227.657	2.74
228.041	5.86
228.425	6.4
228.809	6.39
229.193	6.46
229.577	9.14
229.961	7.69
230.344	6.88
230.728	5.7
231.112	6.46
231.495	6.02
231.879	6.66
232.263	7.53
232.646	7.5
233.03	6.56
233.413	8.61
233.797	7.04
234.18	8.24
234.563	5.76
234.946	8.08
235.33	4.89
235.713	7.55
236.096	5.3
236.479	5.82
236.862	4.97
237.245	6.75
237.628	7.28
238.011	9.29
238.394	7.44
238.777	6.41
239.16	7.3
239.543	7.35
239.925	7.35
240.308	7.74
240.691	7.45
241.073	5.21
241.456	6.03
241.838	7.86
242.221	7.1
242.603	7.08
242.986	6.43
243.368	6.73
243.75	6.42
244.133	6.48
244.515	6.26
244.897	6.93
245.279	6.9
245.661	7.78
246.043	7.58
246.425	6.37
246.807	5.53
247.189	6.87
247.571	6.56
247.953	6.55
248.335	6.6
248.717	6.34
249.098	6.23
249.48	6.39
249.862	6.67
250.243	6.76
250.625	6.65
251.006	6.71
251.388	6.88
251.769	7.32
252.151	5.38
252.532	6.15
252.913	6.61
253.295	6.52
253.676	6.41
254.057	6.12
254.438	6.14
254.819	6.48
255.2	6.41
255.581	7.69
255.962	5.46
256.343	5.51
256.724	5.61
257.105	6.78
257.486	5.59
257.867	6.32
258.247	7.3
258.628	5.4
259.009	5.72
259.389	5.87
259.77	5.61
260.15	5.76
260.531	5.85
260.911	5.86
261.292	6.01
261.672	5.7
262.052	5.79
262.432	5.88
262.813	5.98
263.193	5.56
263.573	6.26
263.953	5.74
264.333	5.76
264.713	5.86
265.093	6.15
265.473	5.94
265.853	5.39
266.233	5.58
266.612	6.27
266.992	6.06
267.372	5.7
267.752	5.66
268.131	5.99
268.511	5.53
268.89	6.03
269.27	5.78
269.649	5.43
270.029	5.78
270.408	5.65
270.787	5.62
271.167	5.48
271.546	5.5
271.925	5.76
272.304	5.38
272.683	5.44
273.062	5.39
273.441	5.6
273.82	5.71
274.199	5.5
274.578	5.32
274.957	5.48
275.336	5.63
275.715	5.71
276.093	5.85
276.472	5.78
276.851	5.07
277.229	5.25
277.608	5.72
277.986	5.12
278.365	5.47
278.743	5.73
279.122	5.29
279.5	5.76
279.878	5.09
280.257	5.51
280.635	5.1
281.013	5.28
281.391	5.27
281.769	5.5
282.147	5.47
282.525	5.44
282.903	4.92
283.281	4.99
283.659	5.32
284.037	5.08
284.415	5.31
284.792	5.2
285.17	5.14
285.548	4.94
285.925	5.23
286.303	5.83
286.68	5.06
287.058	5.09
287.435	5.1
287.813	5.52
288.19	4.94
288.567	5.42
288.945	5.13
289.322	5.34
289.699	5.05
290.076	4.98
290.453	4.74
290.83	5.36
291.207	5.11
291.584	4.49
291.961	5.25
292.338	4.78
292.715	4.7
293.092	4.7
293.469	5.16
293.845	5.28
294.222	4.57
294.599	4.3
294.975	5.19
295.352	5.04
295.728	4.6
296.105	5.13
296.481	4.95
296.858	4.74
297.234	5.2
297.61	4.34
297.986	4.48
298.363	4.61
298.739	4.75
299.115	4.48
299.491	4.61
299.867	4.6
300.243	4.6
300.619	4.89
300.995	4.72
301.371	4.23
301.746	4.68
302.122	4.82
302.498	4.29
302.874	4.54
303.249	4.6
303.625	4.49
304	4.5
304.376	4.24
304.751	4.54
305.127	4.28
305.502	4.88
305.878	4.68
306.253	4.38
306.628	4.36
307.003	4.04
307.378	4.71
307.754	4.61
308.129	4.3
308.504	4.14
308.879	4.61
309.254	4.9
309.629	4.31
310.003	4.53
310.378	4.59
310.753	4.14
311.128	4.08
311.502	4.35
311.877	4.23
312.252	4.1
312.626	4.45
313.001	4.25
313.375	4.1
313.75	4.09
314.124	4.47
314.498	4.49
314.873	4.34
315.247	4.77
315.621	4.63
315.995	4.48
316.369	4
316.743	4.02
317.117	3.91
317.491	3.71
317.865	4.26
318.239	4.89
318.613	3.99
318.987	3.79
319.361	4.13
319.734	3.9
320.108	3.51
320.482	4.55
320.855	3.85
321.229	4.64
321.602	4.16
321.976	4.07
322.349	4
322.723	4.28
323.096	4.14
323.469	3.67
323.843	3.76
324.216	4.62
324.589	4.12
324.962	4.39
325.335	4.29
325.708	4.39
326.081	4.06
326.454	4.29
326.827	3.9
327.2	4.08
327.573	4.23
327.945	4.2
328.318	3.86
328.691	4.16
329.063	4.21
329.436	4.07
329.809	4.73
330.181	3.99
330.553	3.81
330.926	3.78
331.298	3.92
331.671	3.91
332.043	4.12
332.415	4.44
332.787	3.44
333.159	4.23
333.532	3.66
333.904	3.75
334.276	3.77
334.648	3.97
335.02	4
335.391	3.93
335.763	3.77
336.135	4.07
336.507	4.21
336.879	3.94
337.25	3.88
337.622	3.87
337.993	4
338.365	4.16
338.736	4.34
339.108	4.39
339.479	3.62
339.851	4.29
340.222	4.41
340.593	4.02
340.964	4.29
341.336	4.05
341.707	4.52
342.078	4.35
342.449	4.19
342.82	4.22
343.191	4
343.562	4.13
343.933	4.39
344.303	4.15
344.674	3.98
345.045	4.31
345.416	3.75
345.786	4.42
346.157	3.91
346.527	4.12
346.898	4.28
347.268	4.32
347.639	4.05
348.009	4.26
348.38	4.12
348.75	3.88
349.12	3.96
349.49	4.06
349.861	4.25
350.231	3.73
350.601	3.64
350.971	3.88
351.341	4.04
351.711	3.82
352.081	3.94
352.45	3.88
352.82	3.84
353.19	4.29
353.56	4.25
353.929	3.77
354.299	4.04
354.669	4.24
355.038	4.64
355.408	3.7
355.777	4.07
356.147	4.03
356.516	4.14
356.885	4.03
357.254	4.09
357.624	3.86
357.993	4.33
358.362	4.27
358.731	4.03
359.1	4.28
359.469	4.13
359.838	4.21
360.207	4
360.576	4.34
360.945	4.04
361.314	3.8
361.682	4.28
362.051	4.49
362.42	4.34
362.788	4.09
363.157	4.25
363.525	4.36
363.894	4.25
364.262	4.07
364.631	4.28
364.999	4.13
365.367	4.15
365.735	4.27
366.104	4.37
366.472	4.25
366.84	4.14
367.208	4.69
367.576	4.36
367.944	4.16
368.312	4.48
368.68	4.3
369.048	4.21
369.416	4.49
369.783	4.32
370.151	4.46
370.519	4.36
370.886	4.37
371.254	4.46
371.621	4.51
371.989	4.21
372.356	4.52
372.724	3.99
373.091	4.32
373.458	4.35
373.826	4.26
374.193	4.29
374.56	4.48
374.927	4.36
375.294	4.36
375.661	4.18
376.028	4.38
376.395	4.32
376.762	4.19
377.129	4.37
377.496	4.59
377.863	4.42
378.229	4.57
378.596	4.44
378.963	4.5
379.329	4.67
379.696	4.37
380.062	4.25
380.429	4.07
380.795	4.36
381.161	4.6
381.528	4.83
381.894	4.39
382.26	4.51
382.626	4.52
382.993	4.63
383.359	4.76
383.725	4.61
384.091	4.61
384.457	4.63
384.823	4.54
385.188	4.59
385.554	4.83
385.92	4.77
386.286	4.55
386.651	4.77
387.017	4.7
387.383	4.61
387.748	4.53
388.114	4.52
388.479	4.52
388.845	4.5
389.21	4.36
389.575	4.55
389.94	4.44
390.306	4.31
390.671	4.6
391.036	4.7
391.401	4.74
391.766	4.82
392.131	4.74
392.496	4.74
392.861	4.65
393.226	4.6
393.591	4.5
393.956	4.67
394.32	4.66
394.685	4.61
395.05	4.84
395.414	4.61
395.779	4.68
396.143	4.66
396.508	4.8
396.872	4.46
397.236	4.72
397.601	4.72
397.965	4.76
398.329	5.06
398.694	4.68
399.058	4.96
399.422	5.03
399.786	5.01
400.15	4.68
400.514	4.76
400.878	4.63
401.242	4.84
401.605	5.11
401.969	4.91
402.333	4.73
402.697	4.62
403.06	4.97
403.424	4.72
403.787	4.88
404.151	4.79
404.514	4.65
404.878	4.74
405.241	4.81
405.604	4.83
405.968	4.69
406.331	4.75
406.694	4.85
407.057	4.71
407.42	4.94
407.783	4.81
408.146	4.89
408.509	4.86
408.872	4.98
409.235	4.82
409.598	5.01
409.961	4.92
410.323	4.98
410.686	4.98
411.049	4.86
411.411	4.78
411.774	4.95
412.136	4.98
412.499	4.81
412.861	4.95
413.223	4.78
413.586	4.8
413.948	4.89
414.31	4.75
414.672	5.06
415.035	5.04
415.397	5.07
415.759	4.97
416.121	5.2
416.483	5.03
416.845	4.88
417.206	4.95
417.568	5.02
417.93	4.97
418.292	5.14
418.653	4.86
419.015	4.98
419.377	4.77
419.738	4.91
420.1	4.86
420.461	4.94
420.822	4.93
421.184	4.94
421.545	4.94
421.906	4.9
422.267	4.84
422.629	4.89
422.99	4.86
423.351	4.88
423.712	4.93
424.073	4.95
424.434	4.94
424.795	4.94
425.155	4.98
425.516	4.95
425.877	4.94
426.238	5.03
426.598	4.98
426.959	4.95
427.32	5.05
427.68	4.98
428.041	4.98
428.401	5.12
428.761	5.03
429.122	5.1
429.482	5.2
429.842	5.14
430.202	5.15
430.563	5.06
430.923	5.17
431.283	5.31
431.643	5.09
432.003	5.15
432.363	5.11
432.722	5.22
433.082	5.16
433.442	4.98
433.802	4.94
434.161	5.19
434.521	5.17
434.881	5.05
435.24	5.04
435.6	5.09
435.959	5.12
436.319	5.15
436.678	5.13
437.037	5.2
437.396	5.24
437.756	5.29
438.115	5.14
438.474	5.2
438.833	5.29
439.192	5.27
439.551	5.13
439.91	5.2
440.269	5.17
440.628	5.09
440.987	5
441.345	4.97
441.704	5.16
442.063	5.23
442.421	5.05
442.78	5.14
443.138	5.13
443.497	5.22
443.855	5.24
444.214	5.14
444.572	5.12
444.93	5.35
445.288	5.21
445.647	5.25
446.005	5.28
446.363	5.28
446.721	5.15
447.079	5.1
447.437	5.17
447.795	5.06
448.153	5.02
448.51	5.08
448.868	5.13
449.226	5.17
449.584	5.23
449.941	5.19
450.299	5.33
450.656	5.23
451.014	5.38
451.371	5.15
451.729	5.24
452.086	5.45
452.443	5.21
452.801	5.21
453.158	5.42
453.515	5.41
453.872	5.3
454.229	5.31
454.586	5.31
454.943	5.31
455.3	5.3
455.657	5.35
456.014	5.41
456.371	5.3
456.727	5.33
457.084	5.29
457.441	5.48
457.797	5.32
458.154	5.29
458.51	5.28
458.867	5.6
459.223	5.3
459.58	5.27
459.936	5.41
460.292	5.21
460.648	5.36
461.005	5.25
461.361	5.17
461.717	5.21
462.073	5.25
462.429	5.29
462.785	5.32
463.141	5.27
463.496	5.43
463.852	5.36
464.208	5.28
464.564	5.37
464.919	5.48
465.275	5.45
465.631	5.34
465.986	5.29
466.342	5.32
466.697	5.5
467.052	5.37
467.408	5.47
467.763	5.43
468.118	5.33
468.473	5.4
468.829	5.3
469.184	5.51
469.539	5.21
469.894	5.48
470.249	5.32
470.603	5.32
470.958	5.32
471.313	5.4
471.668	5.39
472.023	5.41
472.377	5.29
472.732	5.45
473.086	5.3
473.441	5.56
473.795	5.43
474.15	5.41
474.504	5.28
474.859	5.37
475.213	5.54
475.567	5.38
475.921	5.44
476.275	5.35
476.63	5.5
476.984	5.5
477.338	5.36
477.692	5.45
478.045	5.39
478.399	5.51
478.753	5.49
479.107	5.48
479.461	5.3
479.814	5.37
480.168	5.33
480.521	5.38
480.875	5.47
481.228	5.46
481.582	5.5
481.935	5.43
482.289	5.39
482.642	5.28
482.995	5.52
483.348	5.24
483.701	5.33
484.055	5.37
484.408	5.27
484.761	5.25
485.114	5.14
485.466	5.07
485.819	5.1
486.172	5.09
486.525	5.14
486.878	5.13
487.23	5.22
487.583	5.2
487.936	5.31
488.288	5.28
488.641	5.26
488.993	5.24
489.345	5.2
489.698	5.14
490.05	5.25
490.402	5.21
490.754	5.28
491.107	5.27
491.459	5.33
491.811	5.4
492.163	5.47
492.515	5.41
492.866	5.28
493.218	5.2
493.57	5.2
493.922	5.22
494.274	5.3
494.625	5.33
494.977	5.33
495.328	5.45
495.68	5.46
496.031	5.35
496.383	5.52
496.734	5.43
497.086	5.5
497.437	5.54
497.788	5.51
498.139	5.4
498.49	5.35
498.842	5.35
499.193	5.42
499.544	5.36
499.894	5.44
500.245	5.45
500.596	5.45
500.947	5.35
501.298	5.45
501.648	5.54
501.999	5.4
502.35	5.55
502.7	5.57
503.051	5.44
503.401	5.46
503.752	5.3
504.102	5.52
504.452	5.39
504.803	5.48
505.153	5.49
505.503	5.36
505.853	5.58
506.203	5.4
506.553	5.57
506.903	5.54
507.253	5.39
507.603	5.37
507.953	5.48
508.303	5.48
508.652	5.44
509.002	5.5
509.352	5.47
509.701	5.44
510.051	5.46
510.4	5.4
510.75	5.34
511.099	5.45
511.449	5.44
511.798	5.51
512.147	5.46
512.496	5.43
512.846	5.38
513.195	5.38
513.544	5.54
513.893	5.54
514.242	5.35
514.591	5.5
514.939	5.52
515.288	5.47
515.637	5.44
515.986	5.52
516.334	5.36
516.683	5.51
517.032	5.42
517.38	5.52
517.729	5.54
518.077	5.4
518.426	5.61
518.774	5.46
519.122	5.44
519.47	5.43
519.819	5.42
520.167	5.33
520.515	5.34
520.863	5.37
521.211	5.4
521.559	5.4
521.907	5.44
522.255	5.38
522.602	5.41
522.95	5.5
523.298	5.44
523.645	5.48
523.993	5.46
524.341	5.43
524.688	5.42
525.036	5.4
525.383	5.45
525.73	5.6
526.078	5.53
526.425	5.52
526.772	5.47
527.119	5.39
527.466	5.33
527.814	5.35
528.161	5.43
528.508	5.42
528.854	5.45
529.201	5.35
529.548	5.36
529.895	5.25
530.242	5.15
530.588	5.19
530.935	5.22
531.282	5.2
531.628	5.23
531.975	5.25
532.321	5.22
532.667	5.37
533.014	5.4
533.36	5.48
533.706	5.33
534.052	5.35
534.399	5.29
534.745	5.35
535.091	5.27
535.437	5.38
535.783	5.32
536.129	5.31
536.474	5.34
536.82	5.38
537.166	5.42
537.512	5.5
537.857	5.46
538.203	5.35
538.549	5.3
538.894	5.45
539.239	5.36
539.585	5.43
539.93	5.43
540.276	5.52
540.621	5.44
540.966	5.44
541.311	5.46
541.656	5.37
542.001	5.49
542.346	5.41
542.691	5.33
543.036	5.26
543.381	5.28
543.726	5.23
544.071	5.28
544.415	5.27
544.76	5.28
545.105	5.32
545.449	5.38
545.794	5.38
546.138	5.44
546.483	5.45
546.827	5.5
547.171	5.49
547.516	5.39
547.86	5.43
548.204	5.44
548.548	5.37
548.892	5.34
549.236	5.43
549.58	5.45
549.924	5.55
550.268	5.48
550.612	5.46
550.956	5.48
551.3	5.39
551.643	5.34
551.987	5.5
552.33	5.45
552.674	5.42
553.017	5.49
553.361	5.47
553.704	5.33
554.048	5.48
554.391	5.4
554.734	5.49
555.077	5.27
555.42	5.32
555.764	5.38
556.107	5.32
556.45	5.36
556.793	5.38
557.135	5.4
557.478	5.43
557.821	5.39
558.164	5.51
558.507	5.41
558.849	5.46
559.192	5.44
559.534	5.55
559.877	5.51
560.219	5.39
560.562	5.68
560.904	5.41
561.246	5.33
561.589	5.41
561.931	5.44
562.273	5.38
562.615	5.42
562.957	5.23
563.299	5.25
563.641	5.37
563.983	5.32
564.325	5.43
564.667	5.45
565.008	5.47
565.35	5.5
565.692	5.34
566.033	5.31
566.375	5.49
566.716	5.51
567.058	5.46
567.399	5.14
567.741	5.3
568.082	5.35
568.423	5.25
568.764	5.25
569.105	5.31
569.447	5.26
569.788	5.38
570.129	5.29
570.47	5.34
570.811	5.41
571.151	5.54
571.492	5.41
571.833	5.28
572.174	5.23
572.514	5.47
572.855	5.21
573.195	5.29
573.536	5.37
573.876	5.14
574.217	5.18
574.557	5.18
574.898	5.36
575.238	5.39
575.578	5.32
575.918	5.16
576.258	5.38
576.598	5.32
576.938	5.41
577.278	5.38
577.618	5.17
577.958	5.35
578.298	5.26
578.638	5.46
578.977	5.51
579.317	5.28
579.657	5.51
579.996	5.2
580.336	5.26
580.675	5.36
581.014	5.39
581.354	5.35
581.693	5.38
582.032	5.48
582.372	5.39
582.711	5.3
583.05	5.16
583.389	5.34
583.728	5.38
584.067	5.46
584.406	5.32
584.745	5.42
585.083	5.15
585.422	5.33
585.761	5.13
586.1	5.25
586.438	5.33
586.777	5.16
587.115	5.14
587.454	5.15
587.792	5.37
588.13	5.37
588.469	5.18
588.807	5.24
589.145	5.06
589.483	5.3
589.821	5.3
590.159	5.41
590.497	5.11
590.835	4.92
591.173	5.18
591.511	5.29
591.849	4.92
592.187	5.38
592.524	5.48
592.862	5.44
593.2	5.23
593.537	5.23
593.875	5.1
594.212	5.36
594.55	5.2
594.887	5.29
595.224	5.27
595.561	5.29
595.899	4.94
596.236	4.92
596.573	5.27
596.91	5.14
597.247	5.14
597.584	5.19
597.921	5.12
598.258	5.04
598.594	5.16
598.931	5.12
599.268	5.11
599.604	5.28
599.941	5.17
600.277	5.13
600.614	5.06
600.95	5.13
601.287	4.95
601.623	5.02
601.959	5.01
602.296	5.42
602.632	5.3
602.968	4.95
603.304	5.17
603.64	5.2
603.976	4.99
604.312	5.27
604.648	5.22
604.984	5.1
605.319	5.25
605.655	5.19
605.991	4.88
606.326	5.04
606.662	5.06
606.998	5.22
607.333	4.94
607.668	5.05
608.004	5.18
608.339	5.14
608.674	5.29
609.01	5.24
609.345	5.18
609.68	5
610.015	5.34
610.35	5.26
610.685	5.08
611.02	5.12
611.355	5.04
611.689	5.12
612.024	5.02
612.359	5.07
612.694	5.23
613.028	5.16
613.363	5.3
613.697	5.09
614.032	5
614.366	5.18
614.7	5.13
615.035	5.34
615.369	5.24
615.703	5.23
616.037	5.06
616.371	4.98
616.705	5.17
617.039	5.1
617.373	5.19
617.707	5.58
618.041	5.16
618.375	5.44
618.709	5.01
619.042	4.93
619.376	5.2
619.71	5.09
620.043	5.01
620.377	5.08
620.71	4.84
621.043	5.14
621.377	4.79
621.71	5.22
622.043	4.93
622.376	4.98
622.709	4.97
623.043	4.91
623.376	5.02
623.709	5.05
624.041	5.1
624.374	4.94
624.707	4.92
625.04	5.2
625.373	5.07
625.705	4.93
626.038	4.95
626.37	4.79
626.703	5.05
627.035	5.25
627.368	5.14
627.7	5
628.032	4.75
628.365	5.11
628.697	4.9
629.029	5.06
629.361	5.23
629.693	5.04
630.025	5.03
630.357	5.05
630.689	5.2
631.021	4.83
631.353	5.49
631.684	5.2
632.016	4.99
632.348	4.95
632.679	5.02
633.011	4.98
633.342	5.08
633.674	5.22
634.005	4.95
634.336	5.27
634.668	5.16
634.999	4.94
635.33	5.01
635.661	4.99
635.992	5.26
636.323	5.36
636.654	5.28
636.985	5.08
637.316	4.97
637.647	5.03
637.977	5.22
638.308	4.81
638.639	4.85
638.969	5.09
639.3	4.83
639.63	4.73
639.961	4.97
640.291	5.37
640.622	5.21
640.952	4.73
641.282	5.04
641.612	5.09
641.943	5.08
642.273	5.29
642.603	5.18
642.933	5.17
643.263	4.93
643.592	5.09
643.922	4.99
644.252	5.27
644.582	5.48
644.911	5.06
645.241	5.05
645.571	5.57
645.9	4.81
646.23	5.08
646.559	4.58
646.888	5.1
647.218	5.25
647.547	4.86
647.876	4.99
648.205	5.03
648.534	5.36
648.863	5.36
649.192	5.24
649.521	4.94
649.85	4.8
650.179	4.73
650.508	4.84
650.837	5.13
651.165	5.34
651.494	4.65
651.822	4.8
652.151	4.82
652.479	4.95
652.808	4.86
653.136	4.9
653.465	4.95
653.793	4.81
654.121	4.47
654.449	4.79
654.777	5.22
655.105	4.72
655.433	5.03
655.761	5.29
656.089	5.15
656.417	5.07
656.745	5.28
657.073	4.42
657.4	4.88
657.728	4.96
658.056	5.18
658.383	4.9
658.711	5.15
659.038	5.19
659.365	5.24
659.693	5.27
660.02	5.1
660.347	5.03
660.674	4.75
661.001	5.58
661.329	4.84
661.656	5.24
661.982	4.99
662.309	5.09
662.636	5.05
662.963	5.06
663.29	5.31
663.616	4.99
663.943	4.79
664.27	4.98
664.596	5.62
664.923	5.2
665.249	5.12
665.576	5.55
665.902	4.74
666.228	5.24
666.554	5.01
666.881	4.86
667.207	5
667.533	5.36
667.859	4.77
668.185	5.08
668.511	4.16
668.837	5.06
669.162	4.89
669.488	4.77
669.814	4.57
670.139	5.12
670.465	4.57
670.791	4.87
671.116	4.98
671.442	4.93
671.767	4.4
672.092	4.42
672.418	5.18
672.743	4.77
673.068	4.61
673.393	4.42
673.718	4.7
674.043	5.51
674.368	5.23
674.693	5.11
675.018	5.38
675.343	5.5
675.667	5.07
675.992	4.86
676.317	5.05
676.641	5.24
676.966	5.24
677.29	5.24
677.615	5.05
677.939	4.96
678.264	4.84
678.588	5.13
678.912	4.93
679.236	4.7
679.56	4.26
679.885	4.76
680.209	5.1
680.532	5.01
680.856	5.14
681.18	5.18
681.504	5.18
681.828	5.29
682.152	5.05
682.475	4.88
682.799	4.98
683.122	5.2
683.446	5.27
683.769	4.9
684.093	5.21
684.416	5.35
684.739	5.13
685.062	5.22
685.386	4.91
685.709	4.9
686.032	5.24
686.355	5.23
686.678	4.96
687.001	4.55
687.324	5.11
687.646	5.2
687.969	5.18
688.292	5
688.614	5.18
688.937	4.78
689.26	5.14
689.582	4.56
689.904	5.03
690.227	4.98
690.549	5.21
690.871	5.52
691.194	4.96
691.516	5.35
691.838	5.32
692.16	5.17
692.482	5.42
692.804	4.95
693.126	5.55
693.448	4.45
