Data from 97279_crown_Reflection__3__14.txt Node

Date: Fri Sep 23 19:32:09 CDT 2022
User: ToomeyLab
Spectrometer: FLMS14357
Trigger mode: 0
Integration Time (sec): 1.000000E-2
Scans to average: 100
Electric dark correction enabled: true
Nonlinearity correction enabled: false
Boxcar width: 0
XAxis mode: Wavelengths
Number of Pixels in Spectrum: 2048
>>>>>Begin Spectral Data<<<<<
189.047	286.94
189.435	286.94
189.823	286.94
190.211	948.84
190.599	-89.46
190.987	31.79
191.375	-208.65
191.763	33.09
192.151	-161.6
192.538	-52.74
192.926	100.28
193.314	369.1
193.702	1629.63
194.089	-142.12
194.477	58.78
194.864	-107.04
195.252	-68.87
195.639	80.7
196.027	4.96
196.414	-339.73
196.801	210.62
197.189	157.6
197.576	48.03
197.963	-131.87
198.351	49.13
198.738	3.85
199.125	22.26
199.512	12.84
199.899	35.16
200.286	-5.12
200.673	6.51
201.06	0.86
201.447	50.43
201.833	-6.66
202.22	-12.57
202.607	-20.87
202.994	9.01
203.38	-14.86
203.767	20.93
204.154	15.56
204.54	-14.88
204.927	12.71
205.313	11.4
205.699	-2.9
206.086	-20.01
206.472	12.97
206.858	46.15
207.245	-7.21
207.631	3.2
208.017	-24.02
208.403	19.64
208.789	22.42
209.175	33.84
209.561	15.71
209.947	-21.81
210.333	2.88
210.719	-26.28
211.105	7.73
211.491	20.9
211.876	23.22
212.262	-5.33
212.648	-18.84
213.034	-40.07
213.419	-2.46
213.805	16.79
214.19	-10.22
214.576	10.48
214.961	29.15
215.346	-4.54
215.732	34.92
216.117	4.82
216.502	14.42
216.888	26.97
217.273	1.08
217.658	-1.29
218.043	12.69
218.428	-1.19
218.813	12.69
219.198	-4.92
219.583	8.12
219.968	12.16
220.353	11.06
220.738	8.55
221.122	12.18
221.507	-1.1
221.892	7.2
222.276	2.05
222.661	13.63
223.046	6.3
223.43	-0.69
223.815	2.57
224.199	13.47
224.583	6.47
224.968	2.64
225.352	10.25
225.736	-3.49
226.121	6.58
226.505	4.54
226.889	7.71
227.273	0.53
227.657	4.3
228.041	3.88
228.425	5.32
228.809	5.82
229.193	5.88
229.577	4.63
229.961	4.12
230.344	3.03
230.728	3.44
231.112	3.45
231.495	3.07
231.879	2.55
232.263	4.75
232.646	2.88
233.03	4.25
233.413	3.97
233.797	3.39
234.18	7.35
234.563	3.22
234.946	5.46
235.33	3.14
235.713	4.11
236.096	1.96
236.479	2.89
236.862	2.98
237.245	4.83
237.628	5.02
238.011	4.37
238.394	3.87
238.777	5.24
239.16	3.99
239.543	4.09
239.925	3.82
240.308	3.44
240.691	4.48
241.073	2.85
241.456	2.89
241.838	5.04
242.221	4.64
242.603	4.39
242.986	2.54
243.368	3.2
243.75	3.37
244.133	3.34
244.515	3.08
244.897	3.68
245.279	3.93
245.661	4.12
246.043	4.09
246.425	2.99
246.807	2.63
247.189	4.06
247.571	3.59
247.953	3.24
248.335	3.33
248.717	3.53
249.098	3.35
249.48	3.45
249.862	3.53
250.243	3.86
250.625	3.51
251.006	3.57
251.388	2.93
251.769	3.65
252.151	2.76
252.532	3.94
252.913	3.53
253.295	3.64
253.676	3.04
254.057	3.19
254.438	3.6
254.819	3.96
255.2	3.12
255.581	4.69
255.962	3.08
256.343	3.6
256.724	2.96
257.105	3.86
257.486	2.45
257.867	3.69
258.247	3.11
258.628	3.31
259.009	2.94
259.389	2.67
259.77	2.56
260.15	3.16
260.531	3.28
260.911	3.07
261.292	3.06
261.672	3.03
262.052	3.05
262.432	3.24
262.813	3.34
263.193	3.23
263.573	3.55
263.953	2.92
264.333	2.89
264.713	3.74
265.093	3.12
265.473	3.41
265.853	3.05
266.233	2.92
266.612	2.67
266.992	3.95
267.372	2.83
267.752	3.3
268.131	3.35
268.511	2.79
268.89	3.21
269.27	2.66
269.649	2.56
270.029	3.12
270.408	3.49
270.787	2.54
271.167	2.74
271.546	3.25
271.925	2.88
272.304	2.73
272.683	2.76
273.062	2.43
273.441	2.96
273.82	3.09
274.199	2.96
274.578	2.91
274.957	2.61
275.336	2.97
275.715	3.06
276.093	3.84
276.472	3.31
276.851	2.96
277.229	2.87
277.608	2.89
277.986	2.57
278.365	2.93
278.743	3.08
279.122	2.55
279.5	3.26
279.878	3.12
280.257	3.01
280.635	2.92
281.013	2.72
281.391	2.59
281.769	2.9
282.147	2.75
282.525	2.69
282.903	2.62
283.281	2.78
283.659	2.74
284.037	2.67
284.415	2.51
284.792	2.74
285.17	2.65
285.548	2.46
285.925	2.73
286.303	2.76
286.68	2.5
287.058	2.79
287.435	2.65
287.813	2.9
288.19	2.67
288.567	3.03
288.945	2.64
289.322	2.79
289.699	2.84
290.076	3.03
290.453	2.75
290.83	2.71
291.207	2.27
291.584	2.5
291.961	2.72
292.338	2.72
292.715	2.42
293.092	2.22
293.469	2.94
293.845	3.33
294.222	3.34
294.599	2.67
294.975	2.68
295.352	3.1
295.728	2.55
296.105	2.79
296.481	2.63
296.858	2.54
297.234	2.61
297.61	2
297.986	2.46
298.363	2.4
298.739	2.44
299.115	2.58
299.491	2.45
299.867	2.65
300.243	2.74
300.619	3.19
300.995	2.65
301.371	2.31
301.746	3.2
302.122	2.76
302.498	2.68
302.874	2.09
303.249	2.59
303.625	2.51
304	2.56
304.376	2.44
304.751	2.24
305.127	2.45
305.502	2.69
305.878	2.35
306.253	2.34
306.628	2.33
307.003	2.28
307.378	2.84
307.754	3.24
308.129	2.51
308.504	2.62
308.879	2.85
309.254	2.68
309.629	2.33
310.003	2.42
310.378	2.5
310.753	2.68
311.128	2.03
311.502	2.54
311.877	2.33
312.252	2.24
312.626	2.57
313.001	2.34
313.375	2.29
313.75	2.51
314.124	2.07
314.498	2.44
314.873	2.72
315.247	2.62
315.621	2.32
315.995	2.55
316.369	2.4
316.743	2.21
317.117	1.81
317.491	2.5
317.865	2.5
318.239	2.82
318.613	2.01
318.987	2.4
319.361	1.73
319.734	2.29
320.108	2.02
320.482	2.47
320.855	2.41
321.229	2.54
321.602	2.28
321.976	2.64
322.349	2.31
322.723	2.73
323.096	2.35
323.469	1.9
323.843	1.99
324.216	2.58
324.589	2.14
324.962	2.38
325.335	2.19
325.708	2.71
326.081	1.89
326.454	2.19
326.827	2.02
327.2	2.14
327.573	2.83
327.945	2.71
328.318	2.02
328.691	2.47
329.063	2.39
329.436	2.48
329.809	2.7
330.181	2.36
330.553	1.74
330.926	2.54
331.298	2.7
331.671	2.71
332.043	2.31
332.415	2.2
332.787	2.57
333.159	2.48
333.532	2.38
333.904	1.96
334.276	1.79
334.648	2.09
335.02	2.24
335.391	2.44
335.763	2.08
336.135	2.33
336.507	2.53
336.879	2.2
337.25	2.54
337.622	2.56
337.993	2.55
338.365	2.26
338.736	2.8
339.108	2.64
339.479	2.17
339.851	2.33
340.222	2.81
340.593	2.2
340.964	2.58
341.336	2.56
341.707	2.83
342.078	2.57
342.449	2.55
342.82	2.42
343.191	2.11
343.562	2.25
343.933	2.74
344.303	2.07
344.674	2.6
345.045	2.32
345.416	2.29
345.786	3.16
346.157	2.38
346.527	2.51
346.898	2.36
347.268	2.65
347.639	2.42
348.009	2.38
348.38	2.25
348.75	2.6
349.12	2.68
349.49	2.63
349.861	2.21
350.231	2.36
350.601	2.54
350.971	2.3
351.341	2.44
351.711	2.42
352.081	2.08
352.45	2.22
352.82	2.15
353.19	2.71
353.56	2.64
353.929	2.24
354.299	2.44
354.669	2.59
355.038	2.91
355.408	2.05
355.777	2.6
356.147	1.95
356.516	2.52
356.885	2.38
357.254	2.45
357.624	2.44
357.993	2.57
358.362	2.59
358.731	2.42
359.1	2.17
359.469	2.24
359.838	2.18
360.207	2.53
360.576	2.38
360.945	2.34
361.314	2.31
361.682	2.51
362.051	2.6
362.42	2.65
362.788	2.45
363.157	2.58
363.525	2.49
363.894	2.48
364.262	2.53
364.631	2.5
364.999	2.63
365.367	2.37
365.735	2.5
366.104	2.47
366.472	2.47
366.84	2.59
367.208	2.73
367.576	2.79
367.944	2.67
368.312	2.76
368.68	2.68
369.048	2.69
369.416	2.68
369.783	2.38
370.151	2.61
370.519	2.5
370.886	2.3
371.254	2.88
371.621	2.82
371.989	2.65
372.356	2.72
372.724	2.49
373.091	2.69
373.458	2.61
373.826	2.49
374.193	2.61
374.56	2.68
374.927	2.45
375.294	2.6
375.661	2.67
376.028	2.45
376.395	2.67
376.762	2.37
377.129	2.37
377.496	2.84
377.863	2.87
378.229	2.63
378.596	2.59
378.963	2.72
379.329	2.9
379.696	2.44
380.062	2.75
380.429	2.45
380.795	2.58
381.161	2.78
381.528	2.82
381.894	2.47
382.26	2.85
382.626	2.55
382.993	2.65
383.359	2.72
383.725	2.95
384.091	2.77
384.457	2.82
384.823	2.39
385.188	2.69
385.554	2.91
385.92	2.81
386.286	2.55
386.651	2.69
387.017	2.97
387.383	2.72
387.748	2.91
388.114	2.94
388.479	2.78
388.845	2.66
389.21	2.57
389.575	2.71
389.94	2.55
390.306	2.72
390.671	2.67
391.036	2.72
391.401	2.86
391.766	2.76
392.131	2.99
392.496	2.71
392.861	2.82
393.226	2.62
393.591	2.76
393.956	2.78
394.32	2.61
394.685	2.68
395.05	2.79
395.414	2.68
395.779	2.56
396.143	2.75
396.508	2.75
396.872	2.84
397.236	2.85
397.601	2.62
397.965	3.02
398.329	2.94
398.694	2.65
399.058	2.97
399.422	2.88
399.786	3.2
400.15	2.97
400.514	2.77
400.878	2.79
401.242	2.78
401.605	3.06
401.969	2.85
402.333	2.56
402.697	2.57
403.06	2.85
403.424	2.75
403.787	2.84
404.151	2.77
404.514	2.67
404.878	2.63
405.241	2.89
405.604	2.78
405.968	2.78
406.331	2.65
406.694	2.78
407.057	2.75
407.42	2.81
407.783	2.89
408.146	2.78
408.509	2.88
408.872	2.91
409.235	3.08
409.598	3.06
409.961	3.05
410.323	2.86
410.686	2.83
411.049	2.71
411.411	2.96
411.774	2.82
412.136	2.94
412.499	2.75
412.861	2.96
413.223	2.88
413.586	2.94
413.948	3.02
414.31	2.7
414.672	3.05
415.035	2.88
415.397	2.99
415.759	3.02
416.121	2.97
416.483	2.83
416.845	2.67
417.206	2.88
417.568	2.92
417.93	2.89
418.292	2.94
418.653	2.98
419.015	2.89
419.377	2.8
419.738	2.85
420.1	2.84
420.461	2.77
420.822	2.84
421.184	2.97
421.545	2.82
421.906	2.86
422.267	2.78
422.629	2.76
422.99	2.81
423.351	2.86
423.712	2.86
424.073	2.79
424.434	2.91
424.795	2.86
425.155	2.81
425.516	2.91
425.877	2.84
426.238	2.82
426.598	2.85
426.959	2.93
427.32	2.9
427.68	2.88
428.041	2.98
428.401	3.03
428.761	2.91
429.122	2.99
429.482	3.08
429.842	3.16
430.202	3.03
430.563	2.92
430.923	3.11
431.283	3.13
431.643	2.9
432.003	2.86
432.363	3.14
432.722	3.03
433.082	2.91
433.442	2.89
433.802	2.91
434.161	2.88
434.521	2.97
434.881	2.81
435.24	2.86
435.6	3.03
435.959	2.98
436.319	2.87
436.678	2.87
437.037	3.08
437.396	2.96
437.756	3.11
438.115	3
438.474	2.98
438.833	3.13
439.192	2.97
439.551	3.05
439.91	3.02
440.269	2.99
440.628	2.88
440.987	2.78
441.345	2.96
441.704	2.92
442.063	3
442.421	2.82
442.78	2.87
443.138	2.83
443.497	3.05
443.855	3.03
444.214	3.08
444.572	2.9
444.93	3.01
445.288	3.03
445.647	3.15
446.005	3.04
446.363	2.98
446.721	2.92
447.079	2.89
447.437	2.95
447.795	2.91
448.153	2.78
448.51	2.86
448.868	2.93
449.226	2.99
449.584	2.93
449.941	3
450.299	3.05
450.656	3
451.014	3.14
451.371	2.93
451.729	3.04
452.086	3.07
452.443	3.07
452.801	2.97
453.158	2.98
453.515	2.89
453.872	2.95
454.229	3.02
454.586	3.03
454.943	3.1
455.3	2.97
455.657	2.98
456.014	3.08
456.371	3
456.727	3.07
457.084	3.11
457.441	3.22
457.797	2.89
458.154	2.98
458.51	3.07
458.867	3.25
459.223	3.1
459.58	3.04
459.936	2.99
460.292	2.98
460.648	2.91
461.005	3.01
461.361	2.84
461.717	2.93
462.073	3.02
462.429	2.94
462.785	3.08
463.141	3.04
463.496	3.08
463.852	3.14
464.208	3.07
464.564	3.16
464.919	3.19
465.275	2.99
465.631	2.88
465.986	2.92
466.342	2.95
466.697	3.1
467.052	3.02
467.408	3.06
467.763	2.88
468.118	3.09
468.473	3.08
468.829	3.09
469.184	3.12
469.539	3.06
469.894	3.08
470.249	3.05
470.603	3.11
470.958	3.06
471.313	3.04
471.668	3.1
472.023	3.17
472.377	3.14
472.732	3.03
473.086	3.12
473.441	3.05
473.795	3.09
474.15	3.13
474.504	3.07
474.859	3.18
475.213	3.4
475.567	3.01
475.921	3.16
476.275	3.07
476.63	3.01
476.984	3.19
477.338	3.08
477.692	3.03
478.045	2.96
478.399	3.02
478.753	3.16
479.107	3.07
479.461	2.95
479.814	2.99
480.168	2.92
480.521	3.03
480.875	3.07
481.228	3.2
481.582	3.19
481.935	3.02
482.289	3.1
482.642	3
482.995	3.08
483.348	2.96
483.701	3.06
484.055	2.97
484.408	2.9
484.761	2.91
485.114	2.71
485.466	2.68
485.819	2.71
486.172	2.85
486.525	2.99
486.878	3.03
487.23	3.01
487.583	3.06
487.936	3.04
488.288	2.98
488.641	2.89
488.993	2.86
489.345	2.91
489.698	2.84
490.05	2.94
490.402	2.96
490.754	3.05
491.107	3.1
491.459	3.02
491.811	3.07
492.163	3.09
492.515	2.95
492.866	2.9
493.218	2.8
493.57	2.79
493.922	2.94
494.274	3.03
494.625	3.01
494.977	3.1
495.328	3.19
495.68	3.21
496.031	3
496.383	3.1
496.734	3.14
497.086	3.24
497.437	3.22
497.788	3.06
498.139	3.1
498.49	2.96
498.842	3
499.193	3.06
499.544	3.04
499.894	3.01
500.245	3.09
500.596	3.08
500.947	2.97
501.298	3.1
501.648	3.14
501.999	3.17
502.35	3.24
502.7	3.14
503.051	3.08
503.401	3.17
503.752	3.04
504.102	3.1
504.452	3.11
504.803	3.07
505.153	3.06
505.503	2.9
505.853	3.17
506.203	3.04
506.553	3.08
506.903	3.15
507.253	2.99
507.603	3.14
507.953	3.13
508.303	3.05
508.652	2.95
509.002	3.09
509.352	3.19
509.701	2.92
510.051	3
510.4	3.05
510.75	3.01
511.099	2.98
511.449	3.04
511.798	3.09
512.147	3.04
512.496	3.02
512.846	2.95
513.195	2.96
513.544	3.12
513.893	3.04
514.242	2.99
514.591	3
514.939	3.11
515.288	3.16
515.637	3.1
515.986	3.03
516.334	2.97
516.683	3.11
517.032	3.12
517.38	3.1
517.729	3.06
518.077	2.93
518.426	3.15
518.774	3.07
519.122	3.02
519.47	3
519.819	2.97
520.167	2.93
520.515	2.92
520.863	3.1
521.211	2.98
521.559	3.05
521.907	3.11
522.255	3.15
522.602	3.08
522.95	3.08
523.298	3.13
523.645	3.02
523.993	3.11
524.341	3.17
524.688	2.99
525.036	3.07
525.383	3.01
525.73	3.12
526.078	3.05
526.425	3.11
526.772	2.98
527.119	2.94
527.466	2.9
527.814	2.95
528.161	3.05
528.508	3.03
528.854	3.02
529.201	2.97
529.548	2.93
529.895	2.76
530.242	2.73
530.588	2.81
530.935	2.86
531.282	2.92
531.628	2.95
531.975	3.01
532.321	2.98
532.667	3.02
533.014	3.02
533.36	3.05
533.706	2.95
534.052	3.01
534.399	2.92
534.745	2.85
535.091	2.83
535.437	2.86
535.783	2.98
536.129	3.01
536.474	3.05
536.82	2.99
537.166	3.04
537.512	3.06
537.857	3
538.203	2.88
538.549	2.95
538.894	2.99
539.239	2.99
539.585	3.04
539.93	3.17
540.276	3.1
540.621	3.1
540.966	3.08
541.311	3.09
541.656	2.98
542.001	3.09
542.346	2.91
542.691	2.88
543.036	2.78
543.381	2.84
543.726	2.94
544.071	2.9
544.415	3.01
544.76	2.95
545.105	2.98
545.449	2.98
545.794	3.05
546.138	3.03
546.483	3.06
546.827	3.1
547.171	2.95
547.516	3.07
547.86	3.01
548.204	3
548.548	2.95
548.892	2.91
549.236	2.98
549.58	3.03
549.924	3.09
550.268	3.21
550.612	3.03
550.956	3.21
551.3	2.97
551.643	3.11
551.987	3.1
552.33	2.94
552.674	3
553.017	3
553.361	3.06
553.704	2.92
554.048	2.97
554.391	2.84
554.734	3.07
555.077	2.97
555.42	2.95
555.764	2.96
556.107	3.07
556.45	3.08
556.793	2.95
557.135	3.09
557.478	3.08
557.821	3.06
558.164	2.96
558.507	2.83
558.849	3.1
559.192	3.08
559.534	3.18
559.877	3.08
560.219	3.03
560.562	3.31
560.904	3.02
561.246	2.98
561.589	3.02
561.931	3.03
562.273	3.17
562.615	3.1
562.957	3
563.299	2.88
563.641	2.99
563.983	3.18
564.325	3.05
564.667	2.96
565.008	3.02
565.35	3.11
565.692	3.09
566.033	2.92
566.375	2.99
566.716	2.95
567.058	3.06
567.399	2.86
567.741	3
568.082	2.91
568.423	2.78
568.764	2.97
569.105	3.05
569.447	2.97
569.788	2.95
570.129	3.02
570.47	3.03
570.811	3.03
571.151	3.06
571.492	3.07
571.833	2.99
572.174	2.83
572.514	2.98
572.855	2.98
573.195	2.93
573.536	3.03
573.876	2.83
574.217	2.88
574.557	2.95
574.898	2.98
575.238	2.95
575.578	3.05
575.918	3.01
576.258	2.87
576.598	3.05
576.938	2.95
577.278	3.09
577.618	2.97
577.958	3.06
578.298	2.92
578.638	2.97
578.977	2.94
579.317	3
579.657	3.04
579.996	2.92
580.336	3.14
580.675	2.98
581.014	3.21
581.354	2.98
581.693	2.95
582.032	3.09
582.372	3.2
582.711	3.14
583.05	2.99
583.389	3.11
583.728	2.92
584.067	3.11
584.406	2.83
584.745	3.3
585.083	2.97
585.422	3.03
585.761	2.99
586.1	3.14
586.438	2.86
586.777	3
587.115	2.96
587.454	3.12
587.792	3.31
588.13	3.08
588.469	3.09
588.807	3.01
589.145	3.06
589.483	2.97
589.821	3.04
590.159	3.03
590.497	2.91
590.835	2.8
591.173	3.09
591.511	3.08
591.849	2.7
592.187	2.87
592.524	3.19
592.862	3.24
593.2	3.16
593.537	3.11
593.875	2.74
594.212	3.04
594.55	3.02
594.887	2.89
595.224	2.79
595.561	3.11
595.899	2.88
596.236	2.86
596.573	3.09
596.91	2.91
597.247	3.13
597.584	3.01
597.921	2.95
598.258	2.83
598.594	2.83
598.931	2.85
599.268	2.96
599.604	2.87
599.941	3.11
600.277	2.98
600.614	2.86
600.95	3.02
601.287	2.88
601.623	2.87
601.959	2.9
602.296	2.98
602.632	3.03
602.968	2.82
603.304	2.96
603.64	2.96
603.976	3.03
604.312	3.08
604.648	3.12
604.984	2.74
605.319	2.9
605.655	2.92
605.991	2.96
606.326	2.81
606.662	2.84
606.998	3
607.333	2.74
607.668	3
608.004	2.77
608.339	2.95
608.674	2.81
609.01	2.79
609.345	2.96
609.68	2.96
610.015	3.13
610.35	3.23
610.685	2.58
611.02	2.98
611.355	2.91
611.689	2.91
612.024	2.83
612.359	2.95
612.694	3.28
613.028	2.98
613.363	3.02
613.697	2.91
614.032	2.87
614.366	2.86
614.7	2.85
615.035	3.13
615.369	2.99
615.703	3.02
616.037	2.77
616.371	2.73
616.705	2.95
617.039	2.76
617.373	2.99
617.707	3.16
618.041	3.06
618.375	3
618.709	2.64
619.042	2.96
619.376	3.12
619.71	3.05
620.043	2.84
620.377	2.76
620.71	3.01
621.043	2.96
621.377	2.61
621.71	3.24
622.043	2.72
622.376	3.01
622.709	3
623.043	3.01
623.376	3.08
623.709	2.9
624.041	2.85
624.374	2.8
624.707	2.83
625.04	3.09
625.373	3.05
625.705	2.91
626.038	2.73
626.37	2.64
626.703	2.8
627.035	3.05
627.368	2.82
627.7	2.93
628.032	2.64
628.365	2.71
628.697	2.82
629.029	3.09
629.361	3.03
629.693	3.17
630.025	2.91
630.357	3.2
630.689	3.17
631.021	2.84
631.353	3.19
631.684	2.96
632.016	3.27
632.348	2.89
632.679	2.84
633.011	3.05
633.342	2.93
633.674	2.95
634.005	2.89
634.336	3.53
634.668	3.08
634.999	2.83
635.33	2.93
635.661	2.9
635.992	2.94
636.323	3.09
636.654	3.36
636.985	2.98
637.316	3.28
637.647	3.07
637.977	2.9
638.308	3.03
638.639	2.93
638.969	3.1
639.3	2.9
639.63	2.97
639.961	3.09
640.291	3.05
640.622	3.08
640.952	3.18
641.282	2.9
641.612	2.91
641.943	2.83
642.273	3.08
642.603	3.39
642.933	2.97
643.263	3.21
643.592	2.93
643.922	3.18
644.252	3.46
644.582	3.44
644.911	2.99
645.241	2.77
645.571	3.56
645.9	3.03
646.23	3.39
646.559	3.06
646.888	3.22
647.218	3.13
647.547	3.13
647.876	2.88
648.205	2.97
648.534	3.17
648.863	3.11
649.192	3.18
649.521	2.84
649.85	2.91
650.179	2.58
650.508	3.09
650.837	3.17
651.165	3.4
651.494	3.01
651.822	2.74
652.151	2.67
652.479	2.93
652.808	2.71
653.136	3.03
653.465	2.93
653.793	3.27
654.121	2.62
654.449	2.66
654.777	3.17
655.105	2.77
655.433	3.09
655.761	3
656.089	3.12
656.417	2.96
656.745	3.01
657.073	2.45
657.4	3.27
657.728	2.96
658.056	2.93
658.383	3.27
658.711	2.85
659.038	2.91
659.365	2.8
659.693	3.08
660.02	3.07
660.347	2.78
660.674	2.77
661.001	3.12
661.329	2.98
661.656	3.32
661.982	2.97
662.309	3.12
662.636	3.41
662.963	3.11
663.29	3.12
663.616	3.34
663.943	2.99
664.27	2.75
664.596	2.98
664.923	3.22
665.249	3.21
665.576	3.39
665.902	2.88
666.228	3.19
666.554	3.03
666.881	3.48
667.207	2.68
667.533	3.04
667.859	3.12
668.185	3.58
668.511	2.85
668.837	3.34
669.162	2.96
669.488	2.53
669.814	2.98
670.139	3.08
670.465	2.97
670.791	2.88
671.116	3
671.442	3.17
671.767	2.65
672.092	2.11
672.418	3.26
672.743	3.59
673.068	2.65
673.393	2.74
673.718	3.56
674.043	3.14
674.368	3.18
674.693	3.12
675.018	3.01
675.343	3.62
675.667	3.33
675.992	3.39
676.317	2.91
676.641	2.89
676.966	3.24
677.29	2.9
677.615	3.19
677.939	3.21
678.264	3.1
678.588	2.64
678.912	3.13
679.236	2.56
679.56	2.77
679.885	3.25
680.209	3.22
680.532	3.03
680.856	3.35
681.18	3.32
681.504	3.36
681.828	3.21
682.152	3.26
682.475	3.13
682.799	3.08
683.122	2.83
683.446	3.11
683.769	2.92
684.093	3
684.416	3.23
684.739	3.44
685.062	3.39
685.386	3.05
685.709	2.88
686.032	3.2
686.355	3.01
686.678	3.28
687.001	3.15
687.324	3.51
687.646	3.75
687.969	3.57
688.292	2.9
688.614	3.23
688.937	2.86
689.26	2.36
689.582	2.68
689.904	3.28
690.227	3.64
690.549	3.07
690.871	3.36
691.194	2.69
691.516	3.23
691.838	3.5
692.16	2.92
692.482	3.66
692.804	3.83
693.126	3.8
693.448	3
