Data from 0040_forehead_Reflection__4__74.txt Node

Date: Fri Nov 04 15:22:06 CDT 2022
User: ToomeyLab
Spectrometer: FLMS14357
Trigger mode: 0
Integration Time (sec): 1.000000E-2
Scans to average: 100
Electric dark correction enabled: true
Nonlinearity correction enabled: false
Boxcar width: 0
XAxis mode: Wavelengths
Number of Pixels in Spectrum: 2048
>>>>>Begin Spectral Data<<<<<
189.047	-301.78
189.435	-301.78
189.823	-301.78
190.211	-30.27
190.599	52.89
190.987	33.84
191.375	587.35
191.763	228.28
192.151	347.72
192.538	-79.07
192.926	-691.76
193.314	80.93
193.702	17.55
194.089	37.96
194.477	2326.69
194.864	1200.87
195.252	155.27
195.639	146.67
196.027	930.75
196.414	-35.67
196.801	101.53
197.189	11.76
197.576	89.48
197.963	231.38
198.351	-39.81
198.738	17.48
199.125	-7.67
199.512	-50.6
199.899	-37.52
200.286	-23.18
200.673	-1.08
201.06	3.33
201.447	-6.82
201.833	0.69
202.22	28.86
202.607	42.95
202.994	51.7
203.38	40.54
203.767	21.66
204.154	25.2
204.54	2.87
204.927	7.3
205.313	40.36
205.699	37.63
206.086	23.88
206.472	27.14
206.858	-12.13
207.245	13.99
207.631	39.23
208.017	31.98
208.403	43.59
208.789	26.17
209.175	22.4
209.561	-35.35
209.947	-28.69
210.333	5.78
210.719	10.97
211.105	-41.75
211.491	10.97
211.876	21.63
212.262	1.66
212.648	4.51
213.034	35.78
213.419	17.24
213.805	-3.07
214.19	-6.42
214.576	-32.45
214.961	43.72
215.346	4.66
215.732	9.98
216.117	-19.34
216.502	34.22
216.888	7.52
217.273	-12.4
217.658	16.82
218.043	-1.33
218.428	15.83
218.813	-17.49
219.198	-0.49
219.583	-42.25
219.968	18.02
220.353	-50.59
220.738	-0.15
221.122	1.9
221.507	21.57
221.892	-21.1
222.276	15.32
222.661	15.09
223.046	-2.17
223.43	12.5
223.815	-8.83
224.199	3.08
224.583	-1.19
224.968	-7
225.352	6.22
225.736	-3.42
226.121	-3.21
226.505	-0.17
226.889	2.77
227.273	0.89
227.657	1.61
228.041	5.3
228.425	6.35
228.809	2.5
229.193	3.33
229.577	2.62
229.961	4.11
230.344	3.49
230.728	3.11
231.112	3.2
231.495	2.45
231.879	3.67
232.263	2.96
232.646	2.91
233.03	0.95
233.413	2.59
233.797	2.57
234.18	2.07
234.563	2.45
234.946	3.4
235.33	4.11
235.713	4.53
236.096	2.63
236.479	3.74
236.862	4.41
237.245	1.23
237.628	2.82
238.011	-0.06
238.394	3.97
238.777	3.38
239.16	2.64
239.543	1.55
239.925	3.88
240.308	2.64
240.691	4.36
241.073	3.78
241.456	3.5
241.838	2.55
242.221	2.82
242.603	3.82
242.986	3.07
243.368	3.13
243.75	3.13
244.133	3.66
244.515	3.07
244.897	3.38
245.279	3.24
245.661	3.61
246.043	3.35
246.425	2.81
246.807	4.91
247.189	2.55
247.571	3.73
247.953	3.37
248.335	3.09
248.717	3.3
249.098	3.3
249.48	3.19
249.862	3.21
250.243	3.3
250.625	2.94
251.006	3.4
251.388	3.32
251.769	4.29
252.151	3.69
252.532	3.5
252.913	3.24
253.295	4.01
253.676	3.73
254.057	2.99
254.438	3.6
254.819	3.17
255.2	3.21
255.581	4.61
255.962	3.27
256.343	3.37
256.724	3.61
257.105	3.1
257.486	4.57
257.867	4.78
258.247	3.59
258.628	3.45
259.009	3.33
259.389	3.83
259.77	3.89
260.15	3.72
260.531	3.13
260.911	2.74
261.292	3.26
261.672	3.23
262.052	3.19
262.432	3.2
262.813	2.81
263.193	2.46
263.573	2.8
263.953	3.62
264.333	2.86
264.713	3.24
265.093	2.9
265.473	4.19
265.853	2.07
266.233	3.16
266.612	3.56
266.992	3.85
267.372	1.81
267.752	3.68
268.131	3.25
268.511	3.16
268.89	3.5
269.27	2.94
269.649	3.57
270.029	3.28
270.408	3.23
270.787	3.31
271.167	3.53
271.546	3.68
271.925	3.08
272.304	3.3
272.683	3.33
273.062	3.32
273.441	3.55
273.82	2.79
274.199	3.03
274.578	2.96
274.957	3.24
275.336	2.85
275.715	2.73
276.093	3.52
276.472	2.92
276.851	2.82
277.229	2.85
277.608	2.83
277.986	3.45
278.365	3.11
278.743	3.35
279.122	3.21
279.5	3.1
279.878	2.97
280.257	2.65
280.635	3.44
281.013	3.03
281.391	3.07
281.769	2.86
282.147	2.88
282.525	2.91
282.903	3.16
283.281	3.71
283.659	2.84
284.037	2.68
284.415	2.92
284.792	3.16
285.17	2.95
285.548	3.61
285.925	3.34
286.303	3.37
286.68	3.57
287.058	3.36
287.435	3.06
287.813	3.2
288.19	3.41
288.567	2.89
288.945	3.08
289.322	3.19
289.699	3.4
290.076	3.37
290.453	3.1
290.83	3.51
291.207	3.24
291.584	3.16
291.961	3.47
292.338	3.76
292.715	3.77
293.092	3.47
293.469	3.53
293.845	3.25
294.222	3.32
294.599	3.34
294.975	3.26
295.352	3.41
295.728	3.63
296.105	4
296.481	3.5
296.858	3.48
297.234	3.93
297.61	3.91
297.986	3.89
298.363	3.58
298.739	3.68
299.115	3.94
299.491	3.9
299.867	3.87
300.243	3.96
300.619	4.3
300.995	4.23
301.371	4.45
301.746	3.95
302.122	4.09
302.498	4.04
302.874	4.85
303.249	4.04
303.625	4.03
304	4.21
304.376	3.95
304.751	4.15
305.127	3.64
305.502	4.15
305.878	4.49
306.253	4.71
306.628	4.17
307.003	4.3
307.378	4.27
307.754	4.65
308.129	4.13
308.504	4.46
308.879	5.04
309.254	4.44
309.629	4.58
310.003	5.09
310.378	4.5
310.753	4.71
311.128	4.2
311.502	4.21
311.877	4.61
312.252	4.46
312.626	4.73
313.001	4.65
313.375	4.72
313.75	4.55
314.124	4.41
314.498	4.74
314.873	5.22
315.247	4.96
315.621	4.81
315.995	4.97
316.369	4.32
316.743	5.27
317.117	4.96
317.491	5.12
317.865	4.64
318.239	5.14
318.613	5.74
318.987	4.89
319.361	5.38
319.734	5.35
320.108	5.33
320.482	4.54
320.855	5.51
321.229	5.5
321.602	4.99
321.976	5.04
322.349	6.19
322.723	5.51
323.096	5.18
323.469	5.09
323.843	5.45
324.216	5.38
324.589	5.7
324.962	5.67
325.335	5.38
325.708	5.1
326.081	5.47
326.454	5.2
326.827	5.81
327.2	5.65
327.573	5.61
327.945	5.52
328.318	5.13
328.691	5.57
329.063	5.69
329.436	5.49
329.809	5.69
330.181	5.43
330.553	5.35
330.926	6.28
331.298	6.39
331.671	5.7
332.043	5.78
332.415	5.58
332.787	5.72
333.159	5.39
333.532	5.43
333.904	6.47
334.276	6.08
334.648	6.47
335.02	5.45
335.391	6.2
335.763	5.99
336.135	6.28
336.507	6.24
336.879	6.39
337.25	6.45
337.622	6.02
337.993	6.3
338.365	6.07
338.736	6.56
339.108	6.13
339.479	6.8
339.851	6.24
340.222	6.46
340.593	6.68
340.964	6.54
341.336	5.98
341.707	5.97
342.078	6.63
342.449	6.39
342.82	6.12
343.191	6.03
343.562	6.69
343.933	6.33
344.303	6.38
344.674	6.72
345.045	6.02
345.416	6.01
345.786	6.69
346.157	6.9
346.527	6.65
346.898	6.83
347.268	6.39
347.639	6.55
348.009	6.88
348.38	6.67
348.75	6.57
349.12	6.77
349.49	6.9
349.861	6.53
350.231	7.32
350.601	6.37
350.971	6.64
351.341	6.74
351.711	6.89
352.081	7.01
352.45	6.8
352.82	6.91
353.19	6.91
353.56	7.25
353.929	6.81
354.299	7.61
354.669	7.16
355.038	7.51
355.408	6.74
355.777	7.26
356.147	7.06
356.516	6.68
356.885	7.06
357.254	7.22
357.624	7.23
357.993	7.03
358.362	7.13
358.731	7.26
359.1	7.4
359.469	7.13
359.838	7.39
360.207	7.33
360.576	7.79
360.945	7.35
361.314	7.62
361.682	7.15
362.051	7.56
362.42	7.47
362.788	7.41
363.157	7.47
363.525	7.33
363.894	7.43
364.262	7.48
364.631	7.59
364.999	7.5
365.367	7.36
365.735	7.89
366.104	7.86
366.472	7.98
366.84	7.47
367.208	7.85
367.576	7.57
367.944	8.05
368.312	7.79
368.68	7.58
369.048	7.84
369.416	7.88
369.783	7.61
370.151	7.77
370.519	8.39
370.886	7.75
371.254	8.01
371.621	7.67
371.989	8.02
372.356	8.06
372.724	7.97
373.091	8.28
373.458	7.69
373.826	8.11
374.193	8.11
374.56	7.87
374.927	8.34
375.294	7.94
375.661	8.57
376.028	8.25
376.395	8.13
376.762	8.6
377.129	8.44
377.496	8.27
377.863	8.33
378.229	8.19
378.596	8.22
378.963	8.39
379.329	8.27
379.696	8.42
380.062	8.53
380.429	8.44
380.795	8.39
381.161	8.41
381.528	8.69
381.894	8.43
382.26	8.55
382.626	8.45
382.993	8.41
383.359	8.44
383.725	8.88
384.091	8.76
384.457	8.81
384.823	8.52
385.188	8.63
385.554	8.65
385.92	8.85
386.286	8.85
386.651	8.84
387.017	8.75
387.383	8.75
387.748	8.63
388.114	8.83
388.479	9.41
388.845	8.94
389.21	9.07
389.575	9.27
389.94	8.86
390.306	9.02
390.671	9.06
391.036	8.97
391.401	9.24
391.766	8.83
392.131	8.94
392.496	9.18
392.861	9.5
393.226	9.15
393.591	9.23
393.956	9.51
394.32	9.19
394.685	9
395.05	9.48
395.414	9.23
395.779	9.38
396.143	9.35
396.508	9.47
396.872	9.52
397.236	9.36
397.601	9.19
397.965	9.58
398.329	9.61
398.694	9.46
399.058	9.5
399.422	9.52
399.786	9.6
400.15	9.48
400.514	9.48
400.878	9.57
401.242	9.87
401.605	9.35
401.969	9.83
402.333	9.66
402.697	9.64
403.06	10.02
403.424	9.71
403.787	9.7
404.151	9.96
404.514	9.96
404.878	9.84
405.241	9.85
405.604	9.9
405.968	9.79
406.331	9.76
406.694	9.84
407.057	10.06
407.42	10
407.783	9.83
408.146	9.9
408.509	10.29
408.872	10.1
409.235	10.04
409.598	10.26
409.961	10.39
410.323	10.3
410.686	10.2
411.049	10.25
411.411	10.12
411.774	10.34
412.136	10.36
412.499	10.38
412.861	10.32
413.223	10.24
413.586	10.37
413.948	10.49
414.31	10.31
414.672	10.57
415.035	10.52
415.397	10.42
415.759	10.59
416.121	10.1
416.483	10.69
416.845	10.55
417.206	10.55
417.568	10.82
417.93	10.49
418.292	10.56
418.653	10.69
419.015	10.32
419.377	10.52
419.738	10.63
420.1	10.68
420.461	10.58
420.822	10.56
421.184	10.67
421.545	10.66
421.906	10.67
422.267	10.54
422.629	10.57
422.99	10.58
423.351	10.56
423.712	10.67
424.073	10.73
424.434	10.7
424.795	10.89
425.155	10.84
425.516	10.85
425.877	10.82
426.238	10.7
426.598	10.81
426.959	10.86
427.32	10.87
427.68	10.9
428.041	10.97
428.401	11.12
428.761	11.11
429.122	11.15
429.482	11.19
429.842	11.07
430.202	11.34
430.563	11.34
430.923	11.32
431.283	11.3
431.643	11.48
432.003	11.53
432.363	11.42
432.722	11.55
433.082	11.52
433.442	11.4
433.802	11.42
434.161	11.47
434.521	11.48
434.881	11.44
435.24	11.37
435.6	11.54
435.959	11.54
436.319	11.54
436.678	11.41
437.037	11.6
437.396	11.75
437.756	11.77
438.115	11.62
438.474	11.75
438.833	11.86
439.192	11.78
439.551	11.75
439.91	11.9
440.269	11.78
440.628	11.88
440.987	11.62
441.345	11.98
441.704	12.01
442.063	11.83
442.421	11.89
442.78	11.93
443.138	11.9
443.497	11.99
443.855	11.98
444.214	12.15
444.572	12.09
444.93	11.94
445.288	12.3
445.647	11.95
446.005	12.2
446.363	12.25
446.721	12.16
447.079	12.15
447.437	12.17
447.795	12.11
448.153	12.04
448.51	12.09
448.868	12.07
449.226	12.04
449.584	12.22
449.941	12.28
450.299	12.36
450.656	12.36
451.014	12.56
451.371	12.65
451.729	12.59
452.086	12.56
452.443	12.55
452.801	12.82
453.158	12.8
453.515	12.74
453.872	12.66
454.229	12.72
454.586	12.62
454.943	12.83
455.3	12.88
455.657	12.57
456.014	12.77
456.371	12.91
456.727	12.94
457.084	13.08
457.441	12.87
457.797	12.9
458.154	13.02
458.51	12.98
458.867	12.84
459.223	13.04
459.58	13.05
459.936	12.99
460.292	13.05
460.648	13.22
461.005	12.99
461.361	13
461.717	13.12
462.073	13.08
462.429	13.18
462.785	13.15
463.141	13.19
463.496	13.13
463.852	13.44
464.208	13.32
464.564	13.26
464.919	13.66
465.275	13.49
465.631	13.67
465.986	13.4
466.342	13.56
466.697	13.62
467.052	13.55
467.408	13.52
467.763	13.81
468.118	13.91
468.473	13.74
468.829	13.67
469.184	13.65
469.539	13.67
469.894	13.86
470.249	13.61
470.603	13.8
470.958	13.89
471.313	13.92
471.668	13.8
472.023	13.75
472.377	13.9
472.732	13.99
473.086	14.14
473.441	13.98
473.795	14.14
474.15	14.18
474.504	14.21
474.859	14.04
475.213	14.23
475.567	14.11
475.921	14.08
476.275	14.43
476.63	14.22
476.984	14.29
477.338	14.23
477.692	14.25
478.045	14.35
478.399	14.29
478.753	14.42
479.107	14.55
479.461	14.43
479.814	14.47
480.168	14.57
480.521	14.45
480.875	14.45
481.228	14.58
481.582	14.52
481.935	14.58
482.289	14.59
482.642	14.66
482.995	14.55
483.348	14.56
483.701	14.67
484.055	14.46
484.408	14.5
484.761	14.32
485.114	14.17
485.466	13.99
485.819	13.98
486.172	14.07
486.525	14.11
486.878	14.22
487.23	14.28
487.583	14.33
487.936	14.59
488.288	14.54
488.641	14.46
488.993	14.5
489.345	14.44
489.698	14.42
490.05	14.48
490.402	14.53
490.754	14.7
491.107	14.72
491.459	14.81
491.811	14.89
492.163	14.92
492.515	15.05
492.866	14.91
493.218	14.7
493.57	14.75
493.922	14.87
494.274	14.91
494.625	14.99
494.977	15.07
495.328	15.32
495.68	15.26
496.031	15.42
496.383	15.65
496.734	15.66
497.086	15.93
497.437	15.76
497.788	15.65
498.139	15.62
498.49	15.6
498.842	15.65
499.193	15.61
499.544	15.74
499.894	15.69
500.245	15.74
500.596	15.82
500.947	15.83
501.298	15.92
501.648	16.02
501.999	16
502.35	16.16
502.7	16.05
503.051	16.31
503.401	16.09
503.752	16.35
504.102	16.23
504.452	16.44
504.803	16.35
505.153	16.36
505.503	16.34
505.853	16.42
506.203	16.39
506.553	16.54
506.903	16.46
507.253	16.46
507.603	16.38
507.953	16.53
508.303	16.62
508.652	16.48
509.002	16.67
509.352	16.7
509.701	16.61
510.051	16.56
510.4	16.65
510.75	16.56
511.099	16.69
511.449	16.55
511.798	16.69
512.147	16.76
512.496	16.62
512.846	16.54
513.195	16.84
513.544	16.84
513.893	16.72
514.242	16.82
514.591	16.85
514.939	16.94
515.288	17.03
515.637	16.91
515.986	17.07
516.334	17.22
516.683	17.09
517.032	17.13
517.38	17.28
517.729	17.2
518.077	17.28
518.426	17.35
518.774	17.42
519.122	17.24
519.47	17.22
519.819	17.16
520.167	17.24
520.515	17.12
520.863	17.05
521.211	17.18
521.559	17.3
521.907	17.36
522.255	17.48
522.602	17.47
522.95	17.56
523.298	17.7
523.645	17.65
523.993	17.89
524.341	17.83
524.688	17.75
525.036	17.73
525.383	17.95
525.73	17.88
526.078	17.87
526.425	17.95
526.772	17.88
527.119	17.75
527.466	17.67
527.814	17.73
528.161	17.72
528.508	17.79
528.854	17.82
529.201	17.77
529.548	17.73
529.895	17.73
530.242	17.48
530.588	17.51
530.935	17.6
531.282	17.63
531.628	17.57
531.975	17.71
532.321	17.87
532.667	17.97
533.014	18.19
533.36	18.21
533.706	18.39
534.052	18.26
534.399	18.23
534.745	18.13
535.091	18.06
535.437	18.05
535.783	18.08
536.129	18.28
536.474	18.39
536.82	18.43
537.166	18.45
537.512	18.56
537.857	18.57
538.203	18.67
538.549	18.54
538.894	18.72
539.239	18.8
539.585	18.75
539.93	18.77
540.276	18.78
540.621	19.02
540.966	19.05
541.311	18.91
541.656	19.1
542.001	19.19
542.346	18.8
542.691	18.96
543.036	18.63
543.381	18.72
543.726	18.8
544.071	18.84
544.415	18.89
544.76	18.93
545.105	18.99
545.449	19.1
545.794	19.11
546.138	19.28
546.483	19.38
546.827	19.44
547.171	19.65
547.516	19.63
547.86	19.54
548.204	19.61
548.548	19.51
548.892	19.53
549.236	19.7
549.58	19.76
549.924	19.77
550.268	20.02
550.612	19.96
550.956	20.01
551.3	20.2
551.643	20.36
551.987	20.13
552.33	20.28
552.674	20.28
553.017	20.38
553.361	20.54
553.704	20.39
554.048	20.45
554.391	20.22
554.734	20.48
555.077	20.51
555.42	20.68
555.764	20.58
556.107	20.71
556.45	20.72
556.793	20.62
557.135	20.82
557.478	20.75
557.821	21.09
558.164	21.21
558.507	20.94
558.849	21.16
559.192	21.04
559.534	21.18
559.877	21.1
560.219	20.92
560.562	21.2
560.904	21.27
561.246	21.15
561.589	21.13
561.931	21.12
562.273	21.27
562.615	21.13
562.957	21.26
563.299	21.18
563.641	21.18
563.983	21.34
564.325	21.23
564.667	21.48
565.008	21.32
565.35	21.62
565.692	21.74
566.033	21.58
566.375	21.53
566.716	21.75
567.058	21.71
567.399	21.56
567.741	21.68
568.082	21.68
568.423	21.55
568.764	21.62
569.105	21.81
569.447	21.77
569.788	21.74
570.129	22.1
570.47	22.06
570.811	22.06
571.151	21.98
571.492	22.01
571.833	22.25
572.174	22.28
572.514	22.06
572.855	22.18
573.195	22.13
573.536	22.1
573.876	22.26
574.217	21.96
574.557	21.95
574.898	22.32
575.238	22.25
575.578	22.34
575.918	22.46
576.258	22.33
576.598	22.36
576.938	22.43
577.278	22.45
577.618	22.41
577.958	22.49
578.298	22.65
578.638	22.83
578.977	22.75
579.317	22.58
579.657	22.81
579.996	22.81
580.336	22.92
580.675	22.71
581.014	23.05
581.354	22.87
581.693	23.11
582.032	22.99
582.372	23.3
582.711	23.14
583.05	23.15
583.389	23.15
583.728	23.39
584.067	23.45
584.406	23.06
584.745	23.42
585.083	23.44
585.422	23.39
585.761	23.34
586.1	23.37
586.438	23.22
586.777	23.44
587.115	23.53
587.454	23.96
587.792	23.73
588.13	23.8
588.469	23.7
588.807	23.82
589.145	23.68
589.483	23.51
589.821	23.83
590.159	23.62
590.497	24.04
590.835	23.66
591.173	23.81
591.511	23.85
591.849	23.86
592.187	23.92
592.524	24.26
592.862	23.81
593.2	24.17
593.537	24.03
593.875	24.26
594.212	23.96
594.55	24.29
594.887	24.24
595.224	24.4
595.561	23.98
595.899	24.04
596.236	24.31
596.573	24.47
596.91	24.44
597.247	24.26
597.584	24.35
597.921	24.44
598.258	24.35
598.594	24.11
598.931	24.29
599.268	24.57
599.604	24.38
599.941	24.39
600.277	24.36
600.614	24.56
600.95	24.73
601.287	24.53
601.623	24.8
601.959	24.73
602.296	25.18
602.632	24.76
602.968	24.78
603.304	25.14
603.64	24.89
603.976	25.05
604.312	25.04
604.648	24.91
604.984	25.09
605.319	24.85
605.655	25.06
605.991	25.12
606.326	24.94
606.662	24.88
606.998	25.03
607.333	25.03
607.668	25.08
608.004	24.89
608.339	25.26
608.674	25.36
609.01	25.35
609.345	25.51
609.68	25.53
610.015	25.55
610.35	25.17
610.685	25.61
611.02	25.44
611.355	25.45
611.689	25.44
612.024	25.48
612.359	25.43
612.694	25.57
613.028	25.66
613.363	25.89
613.697	25.58
614.032	25.63
614.366	26.21
614.7	25.78
615.035	26.19
615.369	26.16
615.703	26.39
616.037	26.04
616.371	25.91
616.705	26.2
617.039	26.19
617.373	26.13
617.707	26.1
618.041	26.22
618.375	25.94
618.709	26.66
619.042	26.34
619.376	26.29
619.71	26.29
620.043	26.43
620.377	26.58
620.71	26.82
621.043	26.52
621.377	26.69
621.71	26.46
622.043	26.87
622.376	26.44
622.709	26.93
623.043	26.33
623.376	26.72
623.709	26.35
624.041	26.68
624.374	26.46
624.707	26.72
625.04	26.74
625.373	27
625.705	26.82
626.038	26.93
626.37	26.85
626.703	26.79
627.035	27.28
627.368	26.96
627.7	26.98
628.032	26.6
628.365	27.38
628.697	26.93
629.029	26.93
629.361	27.07
629.693	27.29
630.025	27.34
630.357	27.1
630.689	27.2
631.021	26.9
631.353	27.09
631.684	27.13
632.016	27.65
632.348	27.24
632.679	27.13
633.011	27.29
633.342	27.6
633.674	27.45
634.005	27.45
634.336	27.42
634.668	27.61
634.999	28.1
635.33	27.3
635.661	27.63
635.992	27.59
636.323	27.7
636.654	27.35
636.985	27.8
637.316	27.76
637.647	27.74
637.977	27.9
638.308	27.86
638.639	27.73
638.969	28.12
639.3	27.82
639.63	27.93
639.961	28.15
640.291	28.02
640.622	28.17
640.952	27.78
641.282	28.25
641.612	28.21
641.943	28.28
642.273	27.5
642.603	28.33
642.933	28.08
643.263	27.84
643.592	28.16
643.922	28.88
644.252	28.22
644.582	28.59
644.911	28.7
645.241	28.26
645.571	28.47
645.9	28.29
646.23	27.9
646.559	28.82
646.888	28.45
647.218	28.58
647.547	28.76
647.876	28.79
648.205	28.74
648.534	28.66
648.863	28.86
649.192	28.93
649.521	28.9
649.85	29.16
650.179	29.09
650.508	28.93
650.837	28.9
651.165	28.32
651.494	28.84
651.822	28.85
652.151	28.81
652.479	29.29
652.808	28.88
653.136	29.09
653.465	28.86
653.793	29.21
654.121	28.93
654.449	28.9
654.777	28.79
655.105	28.87
655.433	28.85
655.761	29.18
656.089	29.11
656.417	29.15
656.745	28.6
657.073	29.66
657.4	29.18
657.728	29.05
658.056	29.21
658.383	29.81
658.711	29.27
659.038	29.06
659.365	29.34
659.693	29.9
660.02	29.92
660.347	29.08
660.674	29.6
661.001	29.14
661.329	29.43
661.656	29.86
661.982	29.48
662.309	29.6
662.636	29.64
662.963	29.73
663.29	29.43
663.616	30.09
663.943	30.28
664.27	29.88
664.596	29.69
664.923	29.95
665.249	30
665.576	29.82
665.902	29.16
666.228	29.18
666.554	29.77
666.881	29.7
667.207	30.42
667.533	30.25
667.859	30.01
668.185	30.05
668.511	30.27
668.837	29.94
669.162	30.35
669.488	29.59
669.814	29.92
670.139	30.4
670.465	30.75
670.791	30.41
671.116	30.53
671.442	30.32
671.767	30.49
672.092	30.47
672.418	30.46
672.743	30.64
673.068	30.36
673.393	31.01
673.718	30.69
674.043	30.18
