Data from 0040_forehead_Reflection__2__72.txt Node

Date: Fri Nov 04 15:21:38 CDT 2022
User: ToomeyLab
Spectrometer: FLMS14357
Trigger mode: 0
Integration Time (sec): 1.000000E-2
Scans to average: 100
Electric dark correction enabled: true
Nonlinearity correction enabled: false
Boxcar width: 0
XAxis mode: Wavelengths
Number of Pixels in Spectrum: 2048
>>>>>Begin Spectral Data<<<<<
189.047	-109.4
189.435	-109.4
189.823	-109.4
190.211	-49.39
190.599	53.29
190.987	62.87
191.375	350.92
191.763	44.89
192.151	-101.46
192.538	320.72
192.926	-1977.42
193.314	104.37
193.702	35.62
194.089	51.54
194.477	892.88
194.864	1067.97
195.252	175.16
195.639	91.88
196.027	503.64
196.414	-41.72
196.801	164
197.189	17.29
197.576	47.91
197.963	54.7
198.351	-23.38
198.738	44.15
199.125	25.43
199.512	36.82
199.899	16.65
200.286	-21.6
200.673	20.11
201.06	-18.85
201.447	-39.46
201.833	8.19
202.22	5.5
202.607	57.08
202.994	31.59
203.38	15.69
203.767	11.93
204.154	32.81
204.54	-5.01
204.927	12.65
205.313	43.1
205.699	48.28
206.086	50.62
206.472	2.83
206.858	-18.24
207.245	21.89
207.631	41.25
208.017	45.61
208.403	38.05
208.789	44.36
209.175	23.88
209.561	-18.02
209.947	-30.53
210.333	61.81
210.719	21.24
211.105	-52.68
211.491	32.25
211.876	6.25
212.262	-8.55
212.648	50.16
213.034	49.76
213.419	-0.09
213.805	43.42
214.19	26.56
214.576	-12.41
214.961	51.71
215.346	33.37
215.732	19.2
216.117	-8.15
216.502	20.48
216.888	24.9
217.273	1.04
217.658	6.9
218.043	16.59
218.428	43.33
218.813	16.66
219.198	24.17
219.583	-4.43
219.968	16.18
220.353	-5.29
220.738	-6.93
221.122	12.99
221.507	18.13
221.892	-9.99
222.276	12.06
222.661	10.45
223.046	10.21
223.43	-2.38
223.815	-3.9
224.199	13.82
224.583	-3.81
224.968	2.23
225.352	19.36
225.736	0.99
226.121	-0.55
226.505	14.61
226.889	5.02
227.273	8.12
227.657	5.82
228.041	5.23
228.425	4.91
228.809	5.25
229.193	7.58
229.577	1.49
229.961	3.77
230.344	3.86
230.728	3.9
231.112	3.11
231.495	3.43
231.879	5.05
232.263	4.24
232.646	4.6
233.03	2.04
233.413	2.22
233.797	4.29
234.18	2.6
234.563	4.02
234.946	4.11
235.33	5.87
235.713	2.45
236.096	4.08
236.479	2.49
236.862	3.96
237.245	3.7
237.628	5.54
238.011	1.73
238.394	5
238.777	4.47
239.16	4.09
239.543	3.73
239.925	3.7
240.308	4.29
240.691	5.3
241.073	4.44
241.456	4.75
241.838	4.47
242.221	3.43
242.603	3.92
242.986	3.89
243.368	4.04
243.75	3.48
244.133	3.82
244.515	3.99
244.897	4
245.279	3.99
245.661	4.13
246.043	4.49
246.425	3.66
246.807	4.8
247.189	4.12
247.571	4.04
247.953	3.98
248.335	3.77
248.717	3.93
249.098	3.52
249.48	3.86
249.862	3.67
250.243	3.42
250.625	3.19
251.006	3.45
251.388	4.35
251.769	3.93
252.151	4.23
252.532	4.15
252.913	3.41
253.295	4.25
253.676	4.11
254.057	3.68
254.438	4.33
254.819	3.22
255.2	3.38
255.581	4.7
255.962	4.02
256.343	3.32
256.724	4.34
257.105	3.81
257.486	4.3
257.867	6.03
258.247	4.59
258.628	3.61
259.009	3.5
259.389	4.29
259.77	3.55
260.15	4.45
260.531	3.59
260.911	3.94
261.292	3.46
261.672	3.48
262.052	3.67
262.432	3.8
262.813	3.34
263.193	3.14
263.573	3.86
263.953	3.58
264.333	3.72
264.713	4.07
265.093	3.61
265.473	4.11
265.853	2.67
266.233	3.98
266.612	3.94
266.992	4.17
267.372	2.69
267.752	4.04
268.131	4.07
268.511	3.51
268.89	4.26
269.27	3.52
269.649	3.92
270.029	3.25
270.408	3.71
270.787	3.83
271.167	3.81
271.546	4.11
271.925	3.78
272.304	3.61
272.683	3.48
273.062	3.23
273.441	3.96
273.82	3.16
274.199	3.54
274.578	3.36
274.957	3.47
275.336	3.08
275.715	3.48
276.093	3.43
276.472	3.54
276.851	3.02
277.229	3.99
277.608	3.37
277.986	3.96
278.365	3.99
278.743	3.71
279.122	3.82
279.5	3.72
279.878	3.81
280.257	3.44
280.635	3.36
281.013	3.67
281.391	3.25
281.769	3.23
282.147	3.73
282.525	3.91
282.903	3.68
283.281	3.88
283.659	3.56
284.037	3.54
284.415	3.61
284.792	3.56
285.17	3.33
285.548	3.77
285.925	3.55
286.303	4.1
286.68	3.94
287.058	3.3
287.435	3.4
287.813	3.18
288.19	3.63
288.567	3.61
288.945	3.14
289.322	3.5
289.699	4.07
290.076	4.2
290.453	3.61
290.83	3.62
291.207	3.79
291.584	3.6
291.961	3.68
292.338	4.04
292.715	3.97
293.092	4.01
293.469	3.83
293.845	3.77
294.222	3.79
294.599	3.64
294.975	4.18
295.352	3.8
295.728	4.29
296.105	4.17
296.481	3.88
296.858	3.99
297.234	4.5
297.61	4.47
297.986	3.76
298.363	3.74
298.739	3.78
299.115	4.24
299.491	4.06
299.867	3.97
300.243	4.06
300.619	4.65
300.995	4.14
301.371	5.05
301.746	4.61
302.122	4.7
302.498	4.2
302.874	4.79
303.249	4.43
303.625	4.54
304	4.68
304.376	4.02
304.751	5.4
305.127	4.06
305.502	4.42
305.878	4.86
306.253	4.8
306.628	4.49
307.003	4.81
307.378	5.01
307.754	5.05
308.129	4.78
308.504	5.2
308.879	5.34
309.254	5.58
309.629	5.47
310.003	5.02
310.378	5.16
310.753	5.48
311.128	5.52
311.502	5.44
311.877	5.24
312.252	5.36
312.626	5.56
313.001	5.55
313.375	5.19
313.75	5.25
314.124	5.6
314.498	5.75
314.873	5.63
315.247	5.78
315.621	6
315.995	6.37
316.369	5.75
316.743	6.83
317.117	6.34
317.491	6.1
317.865	5.8
318.239	6.32
318.613	6.57
318.987	5.84
319.361	6.05
319.734	6.6
320.108	6.04
320.482	6.1
320.855	6.46
321.229	6.65
321.602	6.69
321.976	6.58
322.349	6.54
322.723	6.01
323.096	7.03
323.469	6.76
323.843	6.57
324.216	7.26
324.589	6.85
324.962	7.32
325.335	6.88
325.708	6.47
326.081	7.13
326.454	6.76
326.827	6.96
327.2	7.32
327.573	6.73
327.945	6.9
328.318	6.92
328.691	7.08
329.063	7.05
329.436	7.45
329.809	8.03
330.181	7.35
330.553	7.22
330.926	7.47
331.298	7.31
331.671	7.2
332.043	7.85
332.415	7.63
332.787	7.25
333.159	7.52
333.532	6.71
333.904	8.24
334.276	8.03
334.648	8.33
335.02	7.62
335.391	8.18
335.763	7.77
336.135	8.39
336.507	7.78
336.879	7.87
337.25	8.35
337.622	8.16
337.993	8.05
338.365	8.26
338.736	8.58
339.108	8.61
339.479	8.17
339.851	7.86
340.222	8.4
340.593	8.6
340.964	8.46
341.336	8.14
341.707	7.93
342.078	8.57
342.449	8.46
342.82	8.55
343.191	8.46
343.562	8.94
343.933	8.83
344.303	8.8
344.674	8.5
345.045	8.45
345.416	8.61
345.786	8.83
346.157	9.19
346.527	9.11
346.898	9.41
347.268	8.96
347.639	8.63
348.009	9.36
348.38	8.82
348.75	9.21
349.12	8.95
349.49	9.28
349.861	8.96
350.231	9.35
350.601	9.37
350.971	9.3
351.341	9.3
351.711	9.44
352.081	9.45
352.45	9.59
352.82	9.86
353.19	9.79
353.56	10.2
353.929	9.62
354.299	9.97
354.669	10.01
355.038	9.89
355.408	9.42
355.777	10.17
356.147	9.88
356.516	10.08
356.885	9.87
357.254	10.3
357.624	10.04
357.993	10.05
358.362	9.77
358.731	9.99
359.1	10.08
359.469	10.05
359.838	10.25
360.207	10.23
360.576	10.28
360.945	10.53
361.314	10.29
361.682	10.28
362.051	10.52
362.42	10.45
362.788	10.62
363.157	10.41
363.525	10.64
363.894	10.68
364.262	10.68
364.631	10.71
364.999	10.62
365.367	10.56
365.735	11.09
366.104	10.91
366.472	10.83
366.84	10.75
367.208	11.18
367.576	11.04
367.944	11.36
368.312	11.11
368.68	11.12
369.048	11.11
369.416	11.11
369.783	10.96
370.151	10.95
370.519	11.75
370.886	11.24
371.254	11.69
371.621	11.49
371.989	11.53
372.356	11.63
372.724	11.53
373.091	11.76
373.458	11.89
373.826	11.75
374.193	11.43
374.56	11.59
374.927	12.16
375.294	11.86
375.661	11.84
376.028	12.06
376.395	11.96
376.762	12.22
377.129	12.28
377.496	12.06
377.863	12.22
378.229	12.27
378.596	12.17
378.963	12.44
379.329	12.41
379.696	12.12
380.062	12.68
380.429	12.29
380.795	12.53
381.161	12.76
381.528	12.88
381.894	12.41
382.26	12.94
382.626	12.78
382.993	12.92
383.359	12.82
383.725	13.1
384.091	13.01
384.457	13.03
384.823	13.19
385.188	13.15
385.554	13.18
385.92	13.16
386.286	13.23
386.651	13.17
387.017	13.09
387.383	13.24
387.748	13.39
388.114	13.37
388.479	14.09
388.845	13.86
389.21	13.88
389.575	13.69
389.94	13.35
390.306	13.86
390.671	13.7
391.036	13.69
391.401	14.16
391.766	13.97
392.131	13.89
392.496	13.93
392.861	14.22
393.226	13.98
393.591	14.02
393.956	14.24
394.32	13.79
394.685	14.29
395.05	14.44
395.414	14.37
395.779	14.22
396.143	14.37
396.508	14.46
396.872	14.46
397.236	14.33
397.601	14.46
397.965	14.64
398.329	14.88
398.694	14.91
399.058	14.93
399.422	14.68
399.786	14.84
400.15	14.84
400.514	14.99
400.878	14.95
401.242	15.06
401.605	15.01
401.969	15.17
402.333	15.14
402.697	15.11
403.06	15.46
403.424	15.32
403.787	15.21
404.151	15.13
404.514	15.3
404.878	15.39
405.241	15.37
405.604	15.53
405.968	15.25
406.331	15.43
406.694	15.37
407.057	15.66
407.42	15.65
407.783	15.54
408.146	15.59
408.509	15.68
408.872	15.78
409.235	16.04
409.598	16.17
409.961	16.09
410.323	15.94
410.686	15.93
411.049	16.16
411.411	15.99
411.774	16.42
412.136	16.42
412.499	16.21
412.861	16.49
413.223	16.33
413.586	16.27
413.948	16.55
414.31	16.29
414.672	16.64
415.035	16.53
415.397	16.47
415.759	16.96
416.121	16.49
416.483	16.82
416.845	16.98
417.206	16.61
417.568	17.1
417.93	16.9
418.292	16.75
418.653	16.88
419.015	16.81
419.377	16.78
419.738	16.8
420.1	16.89
420.461	16.87
420.822	16.75
421.184	17
421.545	16.86
421.906	16.99
422.267	16.93
422.629	16.95
422.99	16.9
423.351	16.85
423.712	17
424.073	17.12
424.434	17.1
424.795	17.32
425.155	17.33
425.516	17.28
425.877	17.33
426.238	17.2
426.598	17.3
426.959	17.35
427.32	17.49
427.68	17.55
428.041	17.7
428.401	17.75
428.761	17.87
429.122	17.93
429.482	18.09
429.842	17.87
430.202	18.22
430.563	18.11
430.923	18.44
431.283	18.31
431.643	18.42
432.003	18.44
432.363	18.52
432.722	18.42
433.082	18.79
433.442	18.73
433.802	18.49
434.161	18.58
434.521	18.64
434.881	18.49
435.24	18.65
435.6	18.79
435.959	18.7
436.319	18.74
436.678	18.81
437.037	18.79
437.396	19.05
437.756	18.85
438.115	18.89
438.474	19.1
438.833	19.25
439.192	19.3
439.551	19.14
439.91	19.28
440.269	19.26
440.628	19.38
440.987	19.31
441.345	19.26
441.704	19.37
442.063	19.29
442.421	19.26
442.78	19.47
443.138	19.35
443.497	19.35
443.855	19.58
444.214	19.68
444.572	19.6
444.93	19.86
445.288	19.94
445.647	19.85
446.005	19.88
446.363	19.87
446.721	19.83
447.079	19.96
447.437	19.88
447.795	19.78
448.153	19.79
448.51	19.75
448.868	19.9
449.226	19.89
449.584	20.08
449.941	19.96
450.299	20.38
450.656	20.35
451.014	20.5
451.371	20.53
451.729	20.48
452.086	20.67
452.443	20.84
452.801	20.86
453.158	20.83
453.515	20.83
453.872	20.8
454.229	20.95
454.586	20.77
454.943	21.13
455.3	21.01
455.657	21.01
456.014	21.07
456.371	21.34
456.727	21.23
457.084	21.34
457.441	21.31
457.797	21.35
458.154	21.55
458.51	21.42
458.867	21.45
459.223	21.56
459.58	21.88
459.936	21.48
460.292	21.65
460.648	21.72
461.005	21.41
461.361	21.42
461.717	21.35
462.073	21.48
462.429	21.55
462.785	21.58
463.141	21.78
463.496	21.83
463.852	22.05
464.208	22.09
464.564	22.08
464.919	22.39
465.275	22.26
465.631	22.43
465.986	22.57
466.342	22.43
466.697	22.66
467.052	22.63
467.408	22.67
467.763	22.67
468.118	22.78
468.473	22.76
468.829	22.46
469.184	22.64
469.539	22.7
469.894	22.8
470.249	22.85
470.603	22.89
470.958	23.11
471.313	23.18
471.668	23.08
472.023	23.12
472.377	23.21
472.732	23.23
473.086	23.24
473.441	23.38
473.795	23.27
474.15	23.39
474.504	23.5
474.859	23.49
475.213	23.69
475.567	23.54
475.921	23.4
476.275	23.83
476.63	23.88
476.984	23.85
477.338	23.69
477.692	24.03
478.045	23.91
478.399	23.93
478.753	24.01
479.107	24.09
479.461	24.04
479.814	24.01
480.168	24.17
480.521	23.9
480.875	24.09
481.228	24.24
481.582	24.28
481.935	24.44
482.289	24.29
482.642	24.23
482.995	24.28
483.348	24.21
483.701	24.18
484.055	24.11
484.408	24.11
484.761	24
485.114	23.66
485.466	23.5
485.819	23.57
486.172	23.67
486.525	23.68
486.878	23.8
487.23	23.85
487.583	23.86
487.936	24.18
488.288	24.26
488.641	24.3
488.993	24.15
489.345	24.13
489.698	24.18
490.05	24.31
490.402	24.23
490.754	24.5
491.107	24.65
491.459	24.92
491.811	24.88
492.163	25.08
492.515	25.2
492.866	25
493.218	24.75
493.57	24.76
493.922	24.84
494.274	24.89
494.625	25.08
494.977	25.26
495.328	25.54
495.68	25.67
496.031	25.67
496.383	25.89
496.734	25.98
497.086	26.25
497.437	26.07
497.788	26.25
498.139	26.16
498.49	26.07
498.842	26.02
499.193	26.04
499.544	26.13
499.894	26.21
500.245	26.43
500.596	26.38
500.947	26.51
501.298	26.61
501.648	26.81
501.999	26.96
502.35	26.85
502.7	26.92
503.051	26.99
503.401	27.11
503.752	27.18
504.102	27.07
504.452	27.25
504.803	27.27
505.153	27.32
505.503	27.14
505.853	27.08
506.203	27.27
506.553	27.36
506.903	27.5
507.253	27.47
507.603	27.39
507.953	27.52
508.303	27.74
508.652	27.68
509.002	27.79
509.352	27.7
509.701	27.54
510.051	27.78
510.4	27.77
510.75	27.73
511.099	27.7
511.449	27.71
511.798	27.91
512.147	27.97
512.496	27.92
512.846	27.82
513.195	28.09
513.544	28.12
513.893	28.16
514.242	28.26
514.591	28.2
514.939	28.33
515.288	28.34
515.637	28.34
515.986	28.64
516.334	28.68
516.683	28.57
517.032	28.65
517.38	28.95
517.729	28.94
518.077	28.96
518.426	28.96
518.774	28.89
519.122	28.93
519.47	28.67
519.819	28.82
520.167	28.74
520.515	28.66
520.863	28.66
521.211	28.69
521.559	28.74
521.907	28.86
522.255	29.08
522.602	29.14
522.95	29.22
523.298	29.35
523.645	29.56
523.993	29.58
524.341	29.67
524.688	29.68
525.036	29.72
525.383	29.91
525.73	29.76
526.078	29.8
526.425	29.82
526.772	29.78
527.119	29.66
527.466	29.65
527.814	29.56
528.161	29.5
528.508	29.45
528.854	29.68
529.201	29.68
529.548	29.65
529.895	29.39
530.242	29.3
530.588	29.49
530.935	29.49
531.282	29.51
531.628	29.35
531.975	29.55
532.321	29.67
532.667	29.88
533.014	30.16
533.36	30.32
533.706	30.42
534.052	30.38
534.399	30.29
534.745	30.2
535.091	30.25
535.437	30.14
535.783	30.25
536.129	30.37
536.474	30.49
536.82	30.56
537.166	30.68
537.512	30.91
537.857	31.03
538.203	31.06
538.549	30.92
538.894	31.11
539.239	31.12
539.585	31.14
539.93	31.19
540.276	31.43
540.621	31.53
540.966	31.68
541.311	31.68
541.656	31.85
542.001	31.97
542.346	31.57
542.691	31.37
543.036	31.26
543.381	31.23
543.726	31.31
544.071	31.26
544.415	31.26
544.76	31.66
545.105	31.6
545.449	31.78
545.794	31.9
546.138	32.14
546.483	32.06
546.827	32.24
547.171	32.32
547.516	32.57
547.86	32.57
548.204	32.43
548.548	32.52
548.892	32.47
549.236	32.46
549.58	32.63
549.924	32.78
550.268	32.88
550.612	32.93
550.956	33.22
551.3	33.18
551.643	33.32
551.987	33.44
552.33	33.51
552.674	33.7
553.017	33.48
553.361	33.66
553.704	33.76
554.048	33.8
554.391	33.6
554.734	33.65
555.077	33.74
555.42	33.7
555.764	33.96
556.107	33.99
556.45	33.97
556.793	34.19
557.135	34.26
557.478	34.31
557.821	34.27
558.164	34.52
558.507	34.39
558.849	34.6
559.192	34.56
559.534	34.57
559.877	34.76
560.219	34.48
560.562	34.9
560.904	34.94
561.246	34.88
561.589	34.81
561.931	34.96
562.273	35.11
562.615	34.93
562.957	35.05
563.299	35.2
563.641	35.3
563.983	35.04
564.325	35.19
564.667	35.13
565.008	35.45
565.35	35.46
565.692	35.45
566.033	35.45
566.375	35.55
566.716	35.66
567.058	35.72
567.399	35.5
567.741	35.46
568.082	35.59
568.423	35.6
568.764	35.57
569.105	35.6
569.447	35.73
569.788	35.6
570.129	36.03
570.47	35.75
570.811	35.93
571.151	36.31
571.492	36.12
571.833	36.15
572.174	36.32
572.514	36.17
572.855	35.98
573.195	36.18
573.536	36.26
573.876	36.15
574.217	36.18
574.557	36.24
574.898	36.65
575.238	36.2
575.578	36.6
575.918	36.73
576.258	36.6
576.598	36.68
576.938	36.8
577.278	36.67
577.618	36.74
577.958	36.77
578.298	36.94
578.638	37.17
578.977	37.12
579.317	37
579.657	37.31
579.996	37.38
580.336	37.34
580.675	37.42
581.014	37.49
581.354	37.5
581.693	37.82
582.032	37.81
582.372	38.19
582.711	38.01
583.05	37.89
583.389	37.81
583.728	37.96
584.067	38.13
584.406	38.05
584.745	38.26
585.083	37.86
585.422	38.18
585.761	38.47
586.1	38.33
586.438	38.41
586.777	38.28
587.115	38.44
587.454	38.88
587.792	38.73
588.13	38.75
588.469	38.87
588.807	38.63
589.145	38.77
589.483	38.33
589.821	39
590.159	38.86
590.497	38.89
590.835	38.75
591.173	38.62
591.511	39.07
591.849	38.93
592.187	38.92
592.524	38.9
592.862	38.88
593.2	39.04
593.537	39.19
593.875	39.3
594.212	39.34
594.55	39.41
594.887	39.42
595.224	39.32
595.561	39.18
595.899	39.53
596.236	39.65
596.573	39.58
596.91	39.38
597.247	39.27
597.584	39.59
597.921	39.67
598.258	39.56
598.594	39.62
598.931	39.61
599.268	39.62
599.604	39.62
599.941	39.77
600.277	39.56
600.614	39.86
600.95	39.93
601.287	40.08
601.623	40.2
601.959	40.13
602.296	40.67
602.632	40.22
602.968	40.48
603.304	40.58
603.64	40.64
603.976	40.51
604.312	40.47
604.648	40.67
604.984	40.43
605.319	40.37
605.655	41.02
605.991	40.76
606.326	40.64
606.662	40.68
606.998	40.48
607.333	40.52
607.668	40.59
608.004	40.72
608.339	40.75
608.674	40.87
609.01	41
609.345	41.32
609.68	41.21
610.015	41.33
610.35	41.32
610.685	41.69
611.02	41.39
611.355	41.17
611.689	41.27
612.024	41.35
612.359	41.15
612.694	41.36
613.028	41.54
613.363	41.88
613.697	41.72
614.032	41.79
614.366	42.01
614.7	41.9
615.035	42.1
615.369	42.09
615.703	42.43
616.037	42.08
616.371	42.5
616.705	42.66
617.039	42.93
617.373	42.64
617.707	42.36
618.041	42.75
618.375	42.46
618.709	42.94
619.042	42.48
619.376	42.75
619.71	42.81
620.043	43.01
620.377	43.15
620.71	43
621.043	42.8
621.377	42.88
621.71	43.18
622.043	42.73
622.376	43.18
622.709	43.31
623.043	43.22
623.376	43.07
623.709	43.42
624.041	43.22
624.374	43.37
624.707	43.28
625.04	43.87
625.373	43.48
625.705	43.48
626.038	43.51
626.37	43.76
626.703	43.79
627.035	43.47
627.368	43.69
627.7	43.44
628.032	43.27
628.365	44.07
628.697	43.99
629.029	43.92
629.361	43.89
629.693	44.04
630.025	43.76
630.357	43.6
630.689	43.65
631.021	43.87
631.353	43.57
631.684	43.87
632.016	44.3
632.348	44.43
632.679	44.24
633.011	43.98
633.342	44.37
633.674	44.81
634.005	44.57
634.336	44.68
634.668	44.5
634.999	44.82
635.33	44.65
635.661	44.92
635.992	44.59
636.323	44.67
636.654	44.8
636.985	44.91
637.316	44.76
637.647	44.72
637.977	44.79
638.308	45.26
638.639	45.19
638.969	44.98
639.3	45.28
639.63	45.13
639.961	45.43
640.291	45.53
640.622	45.63
640.952	45.38
641.282	45.12
641.612	45.85
641.943	45.68
642.273	45.12
642.603	45.36
642.933	45.76
643.263	45.2
643.592	45.8
643.922	46.03
644.252	45.81
644.582	45.72
644.911	46.03
645.241	45.76
645.571	45.94
645.9	46.16
646.23	46
646.559	46.49
646.888	45.9
647.218	46.14
647.547	46.21
647.876	46.29
648.205	45.82
648.534	46.24
648.863	46.69
649.192	46.55
649.521	46.33
649.85	46.38
650.179	46.74
650.508	46.21
650.837	46.61
651.165	46.69
651.494	46.77
651.822	46.25
652.151	46.8
652.479	46.92
652.808	46.64
653.136	47.08
653.465	46.87
653.793	46.93
654.121	47.16
654.449	47.1
654.777	47.21
655.105	46.91
655.433	47.16
655.761	47.42
656.089	47.56
656.417	47.61
656.745	46.59
657.073	47.07
657.4	47.68
657.728	47.23
658.056	47.58
658.383	47.29
658.711	46.99
659.038	47.74
659.365	47.63
659.693	47.64
660.02	47.53
660.347	47.43
660.674	47.69
661.001	47.47
661.329	47.79
661.656	47.85
661.982	47.76
662.309	48.19
662.636	48.12
662.963	47.77
663.29	47.5
663.616	47.73
663.943	47.79
664.27	48.42
664.596	47.87
664.923	48.45
665.249	48.39
665.576	48.22
665.902	48.07
666.228	47.71
666.554	48.04
666.881	48.5
667.207	48.67
667.533	48.1
667.859	49
668.185	48.3
668.511	48.34
668.837	49.55
669.162	48.42
669.488	48.2
669.814	48.73
670.139	49.12
670.465	49.12
670.791	48.78
671.116	49.11
671.442	48.64
