Data from 0040_crown_Reflection__3__68.txt Node

Date: Fri Nov 04 15:18:42 CDT 2022
User: ToomeyLab
Spectrometer: FLMS14357
Trigger mode: 0
Integration Time (sec): 1.000000E-2
Scans to average: 100
Electric dark correction enabled: true
Nonlinearity correction enabled: false
Boxcar width: 0
XAxis mode: Wavelengths
Number of Pixels in Spectrum: 2048
>>>>>Begin Spectral Data<<<<<
189.047	-178.28
189.435	-178.28
189.823	-178.28
190.211	-152.1
190.599	264.7
190.987	63.75
191.375	716.81
191.763	142.61
192.151	169.16
192.538	-567.44
192.926	-632.26
193.314	69.81
193.702	48.47
194.089	-0.45
194.477	1305.34
194.864	-112.55
195.252	140.82
195.639	10.43
196.027	687.93
196.414	-38.92
196.801	72.93
197.189	-50.01
197.576	14.38
197.963	166.69
198.351	-28.38
198.738	-6.08
199.125	14.38
199.512	-71.87
199.899	-8.59
200.286	-61.33
200.673	10.08
201.06	4.59
201.447	8.73
201.833	8.9
202.22	-8.69
202.607	-18.56
202.994	29.79
203.38	17.57
203.767	-13.41
204.154	1.66
204.54	-24.51
204.927	-32.34
205.313	15
205.699	11.9
206.086	-16.27
206.472	-18.13
206.858	-20.04
207.245	1.31
207.631	-0.93
208.017	15.95
208.403	14.38
208.789	19.74
209.175	25.46
209.561	-87.38
209.947	-62.38
210.333	41.9
210.719	-21.38
211.105	-15.06
211.491	36.97
211.876	12.67
212.262	-54.58
212.648	13.05
213.034	29.84
213.419	-6.45
213.805	-28.1
214.19	-26.83
214.576	-18.56
214.961	-6.76
215.346	-2.38
215.732	1.89
216.117	-26
216.502	-3.71
216.888	-27.39
217.273	14.21
217.658	-11.94
218.043	-9.88
218.428	22.33
218.813	10
219.198	19.34
219.583	-20.25
219.968	9.85
220.353	-45.75
220.738	-22.31
221.122	-7.47
221.507	4.37
221.892	-26.9
222.276	-8.03
222.661	13.38
223.046	-6.54
223.43	4.67
223.815	-3.67
224.199	6.59
224.583	3.2
224.968	1.41
225.352	-1.53
225.736	-0.4
226.121	-11.92
226.505	10.75
226.889	5.89
227.273	3.01
227.657	-3.89
228.041	4.34
228.425	6.01
228.809	10.15
229.193	8.11
229.577	3.94
229.961	7.32
230.344	8.28
230.728	6.45
231.112	6.19
231.495	6.74
231.879	5.78
232.263	5.1
232.646	5.6
233.03	4.35
233.413	3.83
233.797	4.82
234.18	4.16
234.563	5.58
234.946	6.46
235.33	5.99
235.713	4.88
236.096	6.22
236.479	4.7
236.862	4.74
237.245	4.58
237.628	7.22
238.011	5.31
238.394	5.95
238.777	8.14
239.16	5.95
239.543	5.16
239.925	5.24
240.308	7.6
240.691	4.24
241.073	5.67
241.456	6.91
241.838	6.16
242.221	5.07
242.603	6.33
242.986	4.62
243.368	6.26
243.75	6.19
244.133	5.63
244.515	5.9
244.897	5.53
245.279	5.92
245.661	6.14
246.043	6.81
246.425	4.96
246.807	6.11
247.189	5.8
247.571	6.52
247.953	5.52
248.335	5.48
248.717	5.67
249.098	5.7
249.48	5.72
249.862	5.79
250.243	5.41
250.625	5.35
251.006	5.65
251.388	5.12
251.769	5.93
252.151	5.88
252.532	5.18
252.913	4.74
253.295	5.54
253.676	5.48
254.057	4.89
254.438	5.42
254.819	5.48
255.2	4.38
255.581	5.76
255.962	5.52
256.343	4.47
256.724	5.66
257.105	5.46
257.486	5.54
257.867	6.96
258.247	4.64
258.628	4.23
259.009	4.62
259.389	5.25
259.77	5.36
260.15	5.33
260.531	4.63
260.911	4.76
261.292	5.2
261.672	5.1
262.052	4.93
262.432	5.26
262.813	4.86
263.193	4.38
263.573	5.22
263.953	4.81
264.333	4.72
264.713	5.37
265.093	4.57
265.473	5.44
265.853	4.17
266.233	4.59
266.612	4.99
266.992	5.02
267.372	3.83
267.752	4.93
268.131	4.95
268.511	5.32
268.89	5.2
269.27	5.19
269.649	4.65
270.029	4.49
270.408	4.37
270.787	5.25
271.167	4.62
271.546	4.83
271.925	4.55
272.304	4.36
272.683	4.54
273.062	4.89
273.441	4.81
273.82	4.66
274.199	4.01
274.578	4.68
274.957	4.69
275.336	4.27
275.715	4.49
276.093	4.22
276.472	4.41
276.851	3.96
277.229	4.38
277.608	4.44
277.986	5.01
278.365	4.28
278.743	4.29
279.122	4.4
279.5	4.27
279.878	4.71
280.257	4.38
280.635	4.3
281.013	4.22
281.391	4.86
281.769	3.9
282.147	3.67
282.525	4.38
282.903	4.55
283.281	4.75
283.659	4.26
284.037	4.28
284.415	4.13
284.792	4.39
285.17	4.09
285.548	4.03
285.925	4.08
286.303	4.2
286.68	4.4
287.058	3.9
287.435	4.32
287.813	3.98
288.19	4.43
288.567	4.17
288.945	4.48
289.322	4.42
289.699	4.38
290.076	4.21
290.453	3.92
290.83	3.9
291.207	3.91
291.584	4.13
291.961	4.45
292.338	4.31
292.715	4.11
293.092	4.27
293.469	4.19
293.845	4
294.222	4.41
294.599	4.37
294.975	4.14
295.352	4.66
295.728	4.49
296.105	4
296.481	4.07
296.858	4.1
297.234	4.07
297.61	4.62
297.986	3.95
298.363	4.03
298.739	4.18
299.115	4.09
299.491	3.88
299.867	4.09
300.243	4.02
300.619	4.4
300.995	4.14
301.371	4.41
301.746	4.2
302.122	4.35
302.498	4.05
302.874	3.88
303.249	3.89
303.625	3.93
304	3.83
304.376	3.85
304.751	4.27
305.127	3.42
305.502	3.74
305.878	4.27
306.253	4.1
306.628	3.65
307.003	3.79
307.378	3.99
307.754	3.91
308.129	3.5
308.504	3.93
308.879	4.05
309.254	3.98
309.629	3.99
310.003	4.06
310.378	3.68
310.753	4.2
311.128	4.09
311.502	3.72
311.877	4.17
312.252	3.74
312.626	3.94
313.001	3.68
313.375	3.96
313.75	3.54
314.124	3.78
314.498	3.92
314.873	4.11
315.247	3.86
315.621	3.82
315.995	3.86
316.369	3.39
316.743	4.03
317.117	4.08
317.491	4.15
317.865	3.32
318.239	3.28
318.613	4.13
318.987	3.83
319.361	3.91
319.734	4.19
320.108	3.96
320.482	3.38
320.855	3.44
321.229	3.35
321.602	3.71
321.976	3.8
322.349	4.38
322.723	3.84
323.096	4.03
323.469	3.84
323.843	3.84
324.216	3.94
324.589	3.55
324.962	4.3
325.335	3.78
325.708	3.5
326.081	3.5
326.454	3.68
326.827	3.97
327.2	3.73
327.573	3.39
327.945	4.26
328.318	3.25
328.691	3.48
329.063	3.83
329.436	3.95
329.809	3.55
330.181	3.89
330.553	3.52
330.926	3.91
331.298	4.18
331.671	4.16
332.043	3.85
332.415	3.7
332.787	3.33
333.159	3.41
333.532	3.62
333.904	4.07
334.276	3.49
334.648	3.84
335.02	3.11
335.391	3.87
335.763	3.43
336.135	3.44
336.507	3.83
336.879	3.7
337.25	4.13
337.622	3.99
337.993	3.28
338.365	3.69
338.736	3.78
339.108	4.14
339.479	4.05
339.851	3.6
340.222	3.59
340.593	4.02
340.964	3.54
341.336	3.68
341.707	3.44
342.078	3.64
342.449	3.83
342.82	3.99
343.191	3.68
343.562	4.11
343.933	4.15
344.303	4.01
344.674	4.3
345.045	3.71
345.416	3.58
345.786	3.79
346.157	3.93
346.527	4.03
346.898	3.97
347.268	3.82
347.639	3.88
348.009	4.22
348.38	3.81
348.75	3.97
349.12	3.81
349.49	4.01
349.861	3.69
350.231	3.94
350.601	3.64
350.971	3.75
351.341	3.77
351.711	3.99
352.081	4.09
352.45	3.87
352.82	4.18
353.19	4.06
353.56	4.06
353.929	4.06
354.299	3.93
354.669	4.18
355.038	4.39
355.408	3.63
355.777	4.05
356.147	4.06
356.516	3.58
356.885	3.86
357.254	3.92
357.624	3.98
357.993	4.01
358.362	3.66
358.731	4.13
359.1	3.96
359.469	4.09
359.838	4.07
360.207	3.87
360.576	4.36
360.945	4.37
361.314	4.23
361.682	3.97
362.051	4.16
362.42	4.31
362.788	4.17
363.157	4.09
363.525	4.25
363.894	4.16
364.262	4.28
364.631	4.41
364.999	4.07
365.367	4.06
365.735	4.22
366.104	3.99
366.472	4.44
366.84	3.9
367.208	4.24
367.576	3.92
367.944	4.18
368.312	4.33
368.68	4.08
369.048	4.04
369.416	4.14
369.783	4.17
370.151	3.91
370.519	4.78
370.886	4.29
371.254	4.33
371.621	3.96
371.989	4.25
372.356	4.59
372.724	4.2
373.091	4.01
373.458	4.4
373.826	4.38
374.193	4.18
374.56	4.09
374.927	4.76
375.294	4.16
375.661	4.45
376.028	4.31
376.395	4.71
376.762	4.49
377.129	4.53
377.496	4.59
377.863	4.45
378.229	4.37
378.596	4.2
378.963	4.48
379.329	4.14
379.696	4.21
380.062	4.41
380.429	4.17
380.795	4.53
381.161	4.41
381.528	4.38
381.894	4.34
382.26	4.55
382.626	4.55
382.993	4.69
383.359	4.45
383.725	4.41
384.091	4.49
384.457	4.2
384.823	4.49
385.188	4.47
385.554	4.47
385.92	4.26
386.286	4.3
386.651	4.67
387.017	4.13
387.383	4.45
387.748	4.11
388.114	4.41
388.479	5.14
388.845	4.63
389.21	4.53
389.575	5
389.94	4.6
390.306	4.62
390.671	4.55
391.036	4.4
391.401	4.93
391.766	4.24
392.131	4.39
392.496	4.47
392.861	4.45
393.226	4.47
393.591	4.57
393.956	4.72
394.32	4.42
394.685	4.68
395.05	4.82
395.414	4.41
395.779	4.47
396.143	4.59
396.508	4.65
396.872	4.59
397.236	4.78
397.601	4.47
397.965	4.54
398.329	4.65
398.694	4.89
399.058	4.77
399.422	4.57
399.786	4.61
400.15	4.46
400.514	4.58
400.878	4.69
401.242	4.82
401.605	4.51
401.969	4.73
402.333	4.96
402.697	4.73
403.06	4.96
403.424	4.51
403.787	4.54
404.151	4.78
404.514	4.98
404.878	4.65
405.241	4.69
405.604	4.71
405.968	4.73
406.331	4.68
406.694	4.53
407.057	4.76
407.42	4.57
407.783	4.49
408.146	4.57
408.509	4.83
408.872	4.62
409.235	4.78
409.598	4.83
409.961	4.78
410.323	4.8
410.686	4.71
411.049	4.67
411.411	4.62
411.774	4.62
412.136	4.88
412.499	5.11
412.861	4.72
413.223	4.71
413.586	4.55
413.948	4.8
414.31	4.83
414.672	4.85
415.035	4.93
415.397	4.63
415.759	4.98
416.121	4.64
416.483	4.74
416.845	4.64
417.206	4.69
417.568	4.96
417.93	4.79
418.292	4.66
418.653	4.95
419.015	4.85
419.377	4.73
419.738	4.73
420.1	4.82
420.461	4.72
420.822	4.62
421.184	4.81
421.545	4.55
421.906	4.66
422.267	4.58
422.629	4.67
422.99	4.58
423.351	4.48
423.712	4.62
424.073	4.74
424.434	4.6
424.795	4.73
425.155	4.77
425.516	4.78
425.877	4.59
426.238	4.61
426.598	4.65
426.959	4.62
427.32	4.64
427.68	4.65
428.041	4.75
428.401	4.83
428.761	4.84
429.122	4.65
429.482	4.88
429.842	4.46
430.202	4.91
430.563	4.77
430.923	4.88
431.283	4.78
431.643	4.89
432.003	4.91
432.363	4.85
432.722	4.85
433.082	4.98
433.442	4.91
433.802	4.72
434.161	4.73
434.521	4.66
434.881	4.92
435.24	4.65
435.6	4.79
435.959	4.77
436.319	4.71
436.678	4.73
437.037	4.83
437.396	4.89
437.756	4.88
438.115	4.69
438.474	4.93
438.833	4.98
439.192	4.78
439.551	4.9
439.91	5.04
440.269	4.81
440.628	4.83
440.987	4.83
441.345	4.88
441.704	4.8
442.063	4.74
442.421	4.79
442.78	4.8
443.138	4.77
443.497	4.75
443.855	4.81
444.214	4.81
444.572	4.78
444.93	4.76
445.288	4.96
445.647	4.74
446.005	4.79
446.363	4.76
446.721	4.74
447.079	4.7
447.437	4.68
447.795	4.75
448.153	4.7
448.51	4.76
448.868	4.65
449.226	4.7
449.584	4.75
449.941	4.62
450.299	4.78
450.656	4.71
451.014	4.8
451.371	4.95
451.729	4.98
452.086	4.7
452.443	4.86
452.801	4.96
453.158	4.91
453.515	4.94
453.872	4.69
454.229	4.82
454.586	4.73
454.943	4.88
455.3	4.91
455.657	4.76
456.014	4.95
456.371	4.79
456.727	4.76
457.084	5.04
457.441	4.69
457.797	4.85
458.154	4.78
458.51	5.01
458.867	4.86
459.223	4.92
459.58	5.02
459.936	4.68
460.292	4.96
460.648	4.89
461.005	4.71
461.361	4.79
461.717	4.73
462.073	4.76
462.429	4.81
462.785	4.8
463.141	4.83
463.496	4.7
463.852	4.98
464.208	4.95
464.564	4.78
464.919	5.04
465.275	4.97
465.631	4.95
465.986	4.88
466.342	4.89
466.697	4.88
467.052	4.94
467.408	4.88
467.763	4.89
468.118	4.95
468.473	4.85
468.829	4.81
469.184	4.81
469.539	4.86
469.894	4.99
470.249	4.73
470.603	4.85
470.958	4.81
471.313	4.76
471.668	4.77
472.023	4.74
472.377	4.97
472.732	4.85
473.086	4.76
473.441	4.8
473.795	4.83
474.15	5
474.504	4.84
474.859	4.82
475.213	5.01
475.567	4.87
475.921	4.82
476.275	4.96
476.63	4.87
476.984	4.81
477.338	4.91
477.692	4.94
478.045	4.97
478.399	4.82
478.753	4.79
479.107	4.91
479.461	4.91
479.814	4.98
480.168	4.87
480.521	4.74
480.875	4.86
481.228	4.96
481.582	4.96
481.935	4.92
482.289	4.83
482.642	4.89
482.995	4.91
483.348	4.78
483.701	4.87
484.055	4.76
484.408	4.78
484.761	4.71
485.114	4.62
485.466	4.55
485.819	4.45
486.172	4.49
486.525	4.54
486.878	4.65
487.23	4.73
487.583	4.74
487.936	4.81
488.288	4.74
488.641	4.59
488.993	4.6
489.345	4.57
489.698	4.61
490.05	4.59
490.402	4.6
490.754	4.74
491.107	4.77
491.459	4.78
491.811	4.74
492.163	4.77
492.515	4.87
492.866	4.7
493.218	4.6
493.57	4.54
493.922	4.65
494.274	4.63
494.625	4.75
494.977	4.86
495.328	4.85
495.68	4.8
496.031	4.86
496.383	4.88
496.734	4.8
497.086	4.91
497.437	4.95
497.788	4.94
498.139	4.77
498.49	4.76
498.842	4.83
499.193	4.81
499.544	4.82
499.894	4.78
500.245	4.89
500.596	4.81
500.947	4.69
501.298	4.8
501.648	4.94
501.999	4.98
502.35	4.79
502.7	4.88
503.051	4.91
503.401	4.88
503.752	4.93
504.102	4.96
504.452	4.97
504.803	4.81
505.153	4.78
505.503	4.8
505.853	4.93
506.203	4.83
506.553	4.95
506.903	4.81
507.253	4.8
507.603	4.86
507.953	4.84
508.303	4.8
508.652	4.81
509.002	4.92
509.352	5.05
509.701	4.78
510.051	4.8
510.4	4.71
510.75	4.77
511.099	4.82
511.449	4.72
511.798	4.79
512.147	4.8
512.496	4.8
512.846	4.86
513.195	4.81
513.544	4.84
513.893	4.83
514.242	4.84
514.591	4.62
514.939	4.79
515.288	4.88
515.637	4.69
515.986	4.77
516.334	4.92
516.683	4.86
517.032	4.86
517.38	4.92
517.729	4.87
518.077	4.76
518.426	4.83
518.774	4.79
519.122	4.82
519.47	4.77
519.819	4.73
520.167	4.65
520.515	4.63
520.863	4.67
521.211	4.67
521.559	4.75
521.907	4.79
522.255	4.78
522.602	4.81
522.95	4.82
523.298	4.8
523.645	4.8
523.993	4.87
524.341	4.83
524.688	4.84
525.036	4.71
525.383	4.92
525.73	4.83
526.078	4.81
526.425	4.83
526.772	4.66
527.119	4.69
527.466	4.68
527.814	4.64
528.161	4.63
528.508	4.66
528.854	4.63
529.201	4.64
529.548	4.66
529.895	4.57
530.242	4.49
530.588	4.43
530.935	4.42
531.282	4.56
531.628	4.54
531.975	4.64
532.321	4.71
532.667	4.64
533.014	4.72
533.36	4.69
533.706	4.73
534.052	4.68
534.399	4.67
534.745	4.6
535.091	4.51
535.437	4.42
535.783	4.5
536.129	4.66
536.474	4.68
536.82	4.64
537.166	4.75
537.512	4.78
537.857	4.65
538.203	4.58
538.549	4.52
538.894	4.66
539.239	4.65
539.585	4.61
539.93	4.69
540.276	4.67
540.621	4.65
540.966	4.82
541.311	4.63
541.656	4.66
542.001	4.68
542.346	4.56
542.691	4.55
543.036	4.45
543.381	4.44
543.726	4.46
544.071	4.54
544.415	4.59
544.76	4.6
545.105	4.58
545.449	4.74
545.794	4.63
546.138	4.59
546.483	4.68
546.827	4.64
547.171	4.69
547.516	4.66
547.86	4.67
548.204	4.66
548.548	4.62
548.892	4.57
549.236	4.68
549.58	4.6
549.924	4.69
550.268	4.76
550.612	4.63
550.956	4.76
551.3	4.87
551.643	4.65
551.987	4.69
552.33	4.68
552.674	4.65
553.017	4.87
553.361	4.76
553.704	4.63
554.048	4.67
554.391	4.64
554.734	4.7
555.077	4.65
555.42	4.85
555.764	4.86
556.107	4.68
556.45	4.75
556.793	4.79
557.135	4.63
557.478	4.62
557.821	4.86
558.164	4.78
558.507	4.47
558.849	4.78
559.192	4.76
559.534	4.5
559.877	4.72
560.219	4.64
560.562	4.6
560.904	4.87
561.246	4.52
561.589	4.59
561.931	4.67
562.273	4.83
562.615	4.41
562.957	4.74
563.299	4.59
563.641	4.64
563.983	4.61
564.325	4.53
564.667	4.71
565.008	4.51
565.35	4.66
565.692	4.75
566.033	4.76
566.375	4.49
566.716	4.66
567.058	4.72
567.399	4.65
567.741	4.55
568.082	4.59
568.423	4.71
568.764	4.56
569.105	4.73
569.447	4.68
569.788	4.73
570.129	4.6
570.47	4.61
570.811	4.76
571.151	4.54
571.492	4.77
571.833	4.69
572.174	4.68
572.514	4.56
572.855	4.37
573.195	4.54
573.536	4.51
573.876	4.47
574.217	4.48
574.557	4.42
574.898	4.61
575.238	4.4
575.578	4.75
575.918	4.56
576.258	4.66
576.598	4.6
576.938	4.57
577.278	4.4
577.618	4.37
577.958	4.48
578.298	4.37
578.638	4.64
578.977	4.67
579.317	4.65
579.657	4.54
579.996	4.5
580.336	4.63
580.675	4.23
581.014	4.64
581.354	4.34
581.693	4.8
582.032	4.64
582.372	4.66
582.711	4.64
583.05	4.69
583.389	4.34
583.728	4.52
584.067	4.73
584.406	4.37
584.745	4.86
585.083	4.27
585.422	4.58
585.761	4.29
586.1	4.28
586.438	4.54
586.777	4.34
587.115	4.47
587.454	4.81
587.792	4.8
588.13	4.67
588.469	4.52
588.807	4.65
589.145	4.47
589.483	4.3
589.821	4.41
590.159	4.37
590.497	4.71
590.835	4.33
591.173	4.32
591.511	4.36
591.849	4.59
592.187	4.34
592.524	4.37
592.862	4.39
593.2	4.43
593.537	4.4
593.875	4.49
594.212	4.57
594.55	4.47
594.887	4.5
595.224	4.61
595.561	4.42
595.899	4.42
596.236	4.5
596.573	4.45
596.91	4.36
597.247	4.41
597.584	4.38
597.921	4.52
598.258	4.62
598.594	4.15
598.931	4.25
599.268	4.45
599.604	4.41
599.941	4.46
600.277	4.34
600.614	4.54
600.95	4.42
601.287	4.47
601.623	4.31
601.959	4.18
602.296	4.48
602.632	4.31
602.968	4.5
603.304	4.46
603.64	4.46
603.976	4.15
604.312	4.36
604.648	4.2
604.984	4.38
605.319	4.31
605.655	4.38
605.991	4.52
606.326	4.28
606.662	4.31
606.998	4.27
607.333	4.32
607.668	4.43
608.004	4.31
608.339	4.44
608.674	4.37
609.01	4.45
609.345	4.29
609.68	4.42
610.015	4.22
610.35	4.28
610.685	4.48
611.02	4.38
611.355	4.33
611.689	4.4
612.024	4.29
612.359	4.36
612.694	4.28
613.028	4.3
613.363	4.51
613.697	4.17
614.032	4.27
614.366	4.21
614.7	4.37
615.035	4.51
615.369	4.52
615.703	4.97
616.037	4.17
616.371	4.42
616.705	4.5
617.039	4.79
617.373	4.47
617.707	4.68
618.041	4.41
618.375	4.38
618.709	4.82
619.042	4.43
619.376	4.38
619.71	4.37
620.043	4.76
620.377	4.59
620.71	4.63
621.043	4.23
621.377	4.38
621.71	4.4
622.043	4.55
622.376	4.52
622.709	4.43
623.043	4.46
623.376	4.4
623.709	4.27
624.041	4.31
624.374	4.05
624.707	4.09
625.04	4.11
625.373	4.68
625.705	4.19
626.038	3.87
626.37	4.37
626.703	4.37
627.035	4.32
627.368	4.35
627.7	4.15
628.032	4.34
628.365	4.4
628.697	4.32
629.029	4.43
629.361	4.45
629.693	4.31
630.025	4.53
630.357	4.12
630.689	4.34
631.021	4.28
631.353	4.27
631.684	4.15
632.016	4.22
632.348	4.55
632.679	4.08
633.011	4.18
633.342	4.4
633.674	3.87
634.005	4.09
634.336	4.57
634.668	4.27
634.999	4.53
635.33	4.06
635.661	4.25
635.992	4.41
636.323	4.27
636.654	4.24
636.985	4.06
637.316	4.17
637.647	4.17
637.977	4.52
638.308	4.75
638.639	4.32
638.969	4.14
639.3	4.66
639.63	4.05
639.961	4.32
640.291	4.27
640.622	4.29
640.952	4.12
641.282	4.25
641.612	4.43
641.943	4.33
642.273	3.99
642.603	4.21
642.933	4.08
643.263	3.83
643.592	4.34
643.922	4.49
644.252	4.45
644.582	4.32
644.911	4.43
645.241	3.98
645.571	3.72
645.9	4.28
646.23	4.29
646.559	4.3
646.888	4.11
647.218	4.24
647.547	4.23
647.876	4.33
648.205	3.79
648.534	4.36
648.863	3.9
649.192	4.28
649.521	4.37
649.85	4.17
650.179	4.36
650.508	4.34
650.837	4.42
651.165	4.49
651.494	4.31
651.822	4.33
652.151	4.29
652.479	3.98
652.808	4.05
653.136	4.24
653.465	4.28
653.793	4.5
654.121	4.03
654.449	3.87
654.777	4.04
655.105	4.3
655.433	4.49
655.761	4.42
656.089	4.11
656.417	4.03
656.745	3.82
657.073	3.66
657.4	4.13
657.728	4.1
658.056	3.67
658.383	4.26
658.711	4.26
659.038	4.34
659.365	4.59
659.693	4.61
660.02	4.14
660.347	4.07
660.674	4.22
661.001	4.03
661.329	4.22
661.656	4.32
661.982	3.86
662.309	4.28
662.636	4.12
662.963	3.63
663.29	4.04
663.616	4.56
663.943	3.9
664.27	4.25
664.596	4.06
664.923	4.01
665.249	4.62
665.576	4.7
665.902	3.51
666.228	4.09
666.554	4.63
666.881	4.29
667.207	4.22
667.533	4.27
667.859	4.19
668.185	4.18
668.511	4.41
668.837	4.48
669.162	4.33
669.488	3.63
669.814	4.41
670.139	3.96
670.465	5.05
670.791	4.25
671.116	4.24
671.442	4.15
671.767	4.47
672.092	4.11
672.418	4.25
672.743	4.64
673.068	4.2
673.393	4.35
673.718	4.87
674.043	4.15
674.368	3.85
674.693	4.34
675.018	3.99
675.343	4.45
675.667	4.2
675.992	4.28
676.317	4.17
676.641	4.36
676.966	4.29
677.29	4.19
677.615	4.89
677.939	4.44
678.264	4.83
678.588	4.3
678.912	4.77
679.236	4.68
679.56	4.32
679.885	4.25
680.209	4.91
680.532	4.44
680.856	4.07
681.18	3.73
681.504	4.84
681.828	4.31
682.152	4.58
682.475	4.17
682.799	4.82
683.122	4.52
683.446	4.3
683.769	4.08
684.093	4.12
684.416	3.56
684.739	4
685.062	4.72
685.386	4
685.709	4.47
686.032	4.39
686.355	5.28
686.678	4.44
687.001	4.72
687.324	4.38
687.646	4.44
687.969	4.83
688.292	4.8
688.614	4.59
688.937	4.52
689.26	4.23
689.582	5.12
689.904	4.64
690.227	4.83
690.549	4.24
690.871	4.52
691.194	5.01
691.516	4.72
691.838	4.39
