Data from 0040_crown_Reflection__1__66.txt Node

Date: Fri Nov 04 15:18:18 CDT 2022
User: ToomeyLab
Spectrometer: FLMS14357
Trigger mode: 0
Integration Time (sec): 1.000000E-2
Scans to average: 100
Electric dark correction enabled: true
Nonlinearity correction enabled: false
Boxcar width: 0
XAxis mode: Wavelengths
Number of Pixels in Spectrum: 2048
>>>>>Begin Spectral Data<<<<<
189.047	1.94
189.435	1.94
189.823	1.94
190.211	100.55
190.599	44.56
190.987	24.24
191.375	-123.13
191.763	51.99
192.151	89.21
192.538	577.59
192.926	-939.07
193.314	108.99
193.702	94.97
194.089	109.5
194.477	266.19
194.864	64.07
195.252	163.67
195.639	-19.71
196.027	99.32
196.414	64.09
196.801	179.17
197.189	-1.96
197.576	150.74
197.963	292.82
198.351	-20.02
198.738	20.35
199.125	8.63
199.512	-35.72
199.899	-35.7
200.286	12.39
200.673	-33.27
201.06	5.19
201.447	3.81
201.833	-18.86
202.22	-5.12
202.607	-16.57
202.994	57.3
203.38	9.97
203.767	3.34
204.154	22.35
204.54	-93.52
204.927	5.93
205.313	27.41
205.699	8.75
206.086	35.11
206.472	17.01
206.858	-20.45
207.245	17.54
207.631	-9.92
208.017	3.48
208.403	28.87
208.789	28.19
209.175	-3.36
209.561	-80.41
209.947	-16.78
210.333	11.64
210.719	31.42
211.105	-15.18
211.491	-24.81
211.876	-4.47
212.262	22.15
212.648	4.82
213.034	7.4
213.419	21.59
213.805	-1.73
214.19	-25.08
214.576	0.15
214.961	34
215.346	-33.85
215.732	1.21
216.117	12.22
216.502	15.1
216.888	-10.22
217.273	0.45
217.658	-7.96
218.043	-1.42
218.428	15.36
218.813	3.41
219.198	6.45
219.583	-41.2
219.968	-2.18
220.353	-14.05
220.738	-21
221.122	-19.48
221.507	9.52
221.892	-15.81
222.276	-14.44
222.661	-0.09
223.046	7.69
223.43	-0.92
223.815	-2.07
224.199	13.92
224.583	4.05
224.968	7.91
225.352	16.85
225.736	8.44
226.121	5.38
226.505	11.18
226.889	1.48
227.273	8.46
227.657	0.63
228.041	6.89
228.425	9.23
228.809	8.61
229.193	7.13
229.577	8.15
229.961	9.18
230.344	10.01
230.728	8.64
231.112	9.16
231.495	8.86
231.879	9.2
232.263	8.49
232.646	6.41
233.03	8.01
233.413	6.29
233.797	9.71
234.18	7.88
234.563	8.93
234.946	7.65
235.33	9.49
235.713	8.08
236.096	8.31
236.479	7.82
236.862	7.26
237.245	7.05
237.628	8.58
238.011	7.35
238.394	9.76
238.777	9.41
239.16	9.12
239.543	8.07
239.925	9.46
240.308	10.25
240.691	8.33
241.073	9.44
241.456	8.22
241.838	7.12
242.221	8.09
242.603	7.03
242.986	8.29
243.368	8.65
243.75	8.36
244.133	8.88
244.515	8.4
244.897	8.16
245.279	8.09
245.661	8.26
246.043	9.09
246.425	8.15
246.807	7.7
247.189	7
247.571	8.49
247.953	8.16
248.335	7.99
248.717	8.23
249.098	7.91
249.48	7.9
249.862	8.42
250.243	8.12
250.625	7.4
251.006	8.38
251.388	8.2
251.769	8.2
252.151	7.73
252.532	7.45
252.913	7.6
253.295	7.92
253.676	7.61
254.057	7.51
254.438	8.31
254.819	7.54
255.2	7.11
255.581	8.37
255.962	8.54
256.343	6.88
256.724	7.31
257.105	6.86
257.486	8.29
257.867	9.35
258.247	7.09
258.628	7.36
259.009	7
259.389	6.86
259.77	7.29
260.15	7.01
260.531	7.16
260.911	7.29
261.292	7.28
261.672	7.16
262.052	7.16
262.432	7.14
262.813	6.85
263.193	6.57
263.573	6.89
263.953	7.44
264.333	7.52
264.713	7.2
265.093	7.16
265.473	7.34
265.853	6.55
266.233	6.67
266.612	7.05
266.992	7.18
267.372	6.39
267.752	7.26
268.131	7.02
268.511	7.22
268.89	7.8
269.27	6.87
269.649	6.66
270.029	6.55
270.408	6.52
270.787	6.9
271.167	6.3
271.546	7.41
271.925	6.85
272.304	6.16
272.683	6.98
273.062	6.98
273.441	6.85
273.82	6.21
274.199	6.65
274.578	6.56
274.957	6.65
275.336	6.5
275.715	6.91
276.093	5.97
276.472	6.65
276.851	6.38
277.229	6.8
277.608	6.64
277.986	6.85
278.365	6.43
278.743	6.46
279.122	6.06
279.5	6.4
279.878	6.41
280.257	6.17
280.635	5.75
281.013	5.95
281.391	6.74
281.769	6.7
282.147	6.12
282.525	6.42
282.903	6.07
283.281	6.56
283.659	6.15
284.037	5.87
284.415	6.56
284.792	6.22
285.17	6.13
285.548	6.33
285.925	6.42
286.303	6.77
286.68	6.43
287.058	6.26
287.435	6.06
287.813	6.31
288.19	5.76
288.567	6.2
288.945	6.14
289.322	6.07
289.699	6.03
290.076	6.17
290.453	5.91
290.83	6.07
291.207	6.23
291.584	5.92
291.961	5.72
292.338	6.03
292.715	5.91
293.092	5.81
293.469	5.78
293.845	5.19
294.222	5.41
294.599	5.54
294.975	5.62
295.352	5.52
295.728	6.12
296.105	5.83
296.481	5.27
296.858	6.25
297.234	6.11
297.61	5.44
297.986	5.45
298.363	5.78
298.739	5.68
299.115	5.65
299.491	5.51
299.867	5.31
300.243	5.24
300.619	5.85
300.995	5.67
301.371	6
301.746	5.47
302.122	5.4
302.498	5.56
302.874	5.67
303.249	4.75
303.625	4.97
304	5.28
304.376	5.57
304.751	5.96
305.127	4.99
305.502	5.2
305.878	5.36
306.253	5.52
306.628	5.02
307.003	5.12
307.378	5.02
307.754	4.98
308.129	5.06
308.504	5.32
308.879	5.04
309.254	5.03
309.629	4.78
310.003	5.2
310.378	5.05
310.753	5.45
311.128	5.15
311.502	4.84
311.877	5.32
312.252	4.95
312.626	4.98
313.001	5.05
313.375	5.02
313.75	4.82
314.124	4.71
314.498	5.06
314.873	5.4
315.247	5.34
315.621	5.16
315.995	5.62
316.369	4.91
316.743	5.25
317.117	5.16
317.491	5.18
317.865	5.05
318.239	4.99
318.613	5.34
318.987	5.09
319.361	4.83
319.734	5.43
320.108	4.94
320.482	3.95
320.855	4.97
321.229	4.5
321.602	5.36
321.976	4.77
322.349	5.11
322.723	5.21
323.096	5.12
323.469	4.91
323.843	4.36
324.216	5.03
324.589	4.91
324.962	4.71
325.335	4.78
325.708	4.21
326.081	4.81
326.454	4.76
326.827	4.77
327.2	4.81
327.573	4.6
327.945	5.28
328.318	4.12
328.691	4.72
329.063	4.79
329.436	5.32
329.809	5.09
330.181	4.69
330.553	4.63
330.926	5.14
331.298	4.86
331.671	4.61
332.043	5.3
332.415	4.6
332.787	4.46
333.159	5.03
333.532	4.19
333.904	4.86
334.276	4.51
334.648	4.81
335.02	4.08
335.391	4.75
335.763	5.03
336.135	4.73
336.507	4.67
336.879	5
337.25	4.7
337.622	5.05
337.993	4.62
338.365	4.54
338.736	4.93
339.108	5.19
339.479	4.98
339.851	4.74
340.222	4.94
340.593	5.22
340.964	5.35
341.336	4.82
341.707	4.64
342.078	4.59
342.449	4.95
342.82	4.73
343.191	5.11
343.562	4.98
343.933	5.03
344.303	5.2
344.674	4.86
345.045	4.53
345.416	4.35
345.786	5.1
346.157	5.08
346.527	5.15
346.898	5.19
347.268	4.85
347.639	4.86
348.009	4.77
348.38	4.77
348.75	4.59
349.12	4.47
349.49	4.9
349.861	4.53
350.231	5.44
350.601	5.15
350.971	5.15
351.341	5.05
351.711	4.9
352.081	5.04
352.45	4.79
352.82	5.12
353.19	4.87
353.56	5.35
353.929	5.07
354.299	4.96
354.669	5.18
355.038	5.36
355.408	4.63
355.777	4.89
356.147	4.81
356.516	4.65
356.885	4.43
357.254	5.02
357.624	5.21
357.993	5.03
358.362	4.93
358.731	5.18
359.1	5.16
359.469	5.01
359.838	4.96
360.207	4.88
360.576	4.97
360.945	5.27
361.314	5.3
361.682	4.99
362.051	5.2
362.42	5.29
362.788	5.24
363.157	5.22
363.525	5.2
363.894	5.13
364.262	5.26
364.631	5.44
364.999	5.3
365.367	5.26
365.735	5.36
366.104	5.31
366.472	5.25
366.84	5.17
367.208	5.45
367.576	5.31
367.944	5.57
368.312	5.45
368.68	5.44
369.048	4.92
369.416	5.37
369.783	4.97
370.151	4.93
370.519	5.76
370.886	5.23
371.254	5.47
371.621	5.42
371.989	5.17
372.356	5.27
372.724	5.6
373.091	5.37
373.458	5.34
373.826	5.47
374.193	5.36
374.56	5.27
374.927	5.54
375.294	5.14
375.661	5.46
376.028	5.36
376.395	5.52
376.762	5.67
377.129	5.71
377.496	5.69
377.863	5.48
378.229	5.38
378.596	5.38
378.963	5.57
379.329	5.17
379.696	5.32
380.062	5.81
380.429	5.69
380.795	5.61
381.161	5.61
381.528	5.58
381.894	5.21
382.26	5.79
382.626	5.28
382.993	5.9
383.359	5.58
383.725	5.77
384.091	5.8
384.457	5.79
384.823	5.47
385.188	5.92
385.554	5.48
385.92	5.37
386.286	5.7
386.651	5.73
387.017	5.39
387.383	5.7
387.748	5.42
388.114	5.54
388.479	6.26
388.845	5.85
389.21	6.02
389.575	5.94
389.94	5.94
390.306	5.72
390.671	5.98
391.036	5.56
391.401	6
391.766	5.57
392.131	5.83
392.496	5.79
392.861	5.69
393.226	5.86
393.591	6.01
393.956	5.93
394.32	5.89
394.685	5.93
395.05	5.89
395.414	6.15
395.779	6.06
396.143	5.97
396.508	5.76
396.872	5.93
397.236	6.06
397.601	5.97
397.965	5.75
398.329	6.08
398.694	5.92
399.058	6.07
399.422	5.84
399.786	6.05
400.15	6.19
400.514	5.96
400.878	5.94
401.242	5.96
401.605	5.86
401.969	6.17
402.333	5.95
402.697	5.96
403.06	5.98
403.424	6.19
403.787	5.95
404.151	5.97
404.514	5.99
404.878	6.03
405.241	6
405.604	5.94
405.968	5.9
406.331	5.99
406.694	5.72
407.057	6.06
407.42	6.04
407.783	6.01
408.146	6.12
408.509	6.09
408.872	6.19
409.235	6.18
409.598	5.99
409.961	6.06
410.323	6.15
410.686	6.11
411.049	6.03
411.411	6.15
411.774	6.4
412.136	6.27
412.499	6.15
412.861	6.13
413.223	6.24
413.586	6.09
413.948	6.21
414.31	6.04
414.672	6.23
415.035	6.18
415.397	5.95
415.759	6.35
416.121	6.15
416.483	6.2
416.845	6.28
417.206	5.97
417.568	6.26
417.93	6.11
418.292	6.03
418.653	6.08
419.015	6.11
419.377	6.15
419.738	6.13
420.1	6.32
420.461	6.07
420.822	6.07
421.184	6.23
421.545	6.06
421.906	6.05
422.267	6.12
422.629	6.13
422.99	6.02
423.351	6.08
423.712	6.15
424.073	6.16
424.434	6.04
424.795	6.18
425.155	6.36
425.516	6.2
425.877	6.17
426.238	6.01
426.598	6.23
426.959	6.06
427.32	6.07
427.68	6.12
428.041	6.18
428.401	6.36
428.761	6.31
429.122	6.29
429.482	6.19
429.842	6.02
430.202	6.37
430.563	6.37
430.923	6.29
431.283	6.11
431.643	6.41
432.003	6.43
432.363	6.31
432.722	6.35
433.082	6.26
433.442	6.35
433.802	6.19
434.161	6.36
434.521	6.28
434.881	6.37
435.24	6.27
435.6	6.33
435.959	6.27
436.319	6.31
436.678	6.31
437.037	6.31
437.396	6.51
437.756	6.41
438.115	6.24
438.474	6.32
438.833	6.3
439.192	6.33
439.551	6.48
439.91	6.44
440.269	6.22
440.628	6.47
440.987	6.42
441.345	6.26
441.704	6.28
442.063	6.22
442.421	6.26
442.78	6.35
443.138	6.27
443.497	6.34
443.855	6.34
444.214	6.47
444.572	6.43
444.93	6.4
445.288	6.41
445.647	6.36
446.005	6.44
446.363	6.33
446.721	6.27
447.079	6.38
447.437	6.21
447.795	6.29
448.153	6.28
448.51	6.29
448.868	6.2
449.226	6.27
449.584	6.25
449.941	6.18
450.299	6.33
450.656	6.3
451.014	6.41
451.371	6.53
451.729	6.43
452.086	6.38
452.443	6.41
452.801	6.58
453.158	6.59
453.515	6.54
453.872	6.29
454.229	6.49
454.586	6.34
454.943	6.36
455.3	6.4
455.657	6.47
456.014	6.35
456.371	6.45
456.727	6.63
457.084	6.47
457.441	6.37
457.797	6.43
458.154	6.54
458.51	6.54
458.867	6.41
459.223	6.43
459.58	6.69
459.936	6.5
460.292	6.32
460.648	6.47
461.005	6.26
461.361	6.24
461.717	6.36
462.073	6.29
462.429	6.34
462.785	6.34
463.141	6.37
463.496	6.37
463.852	6.49
464.208	6.37
464.564	6.41
464.919	6.57
465.275	6.64
465.631	6.53
465.986	6.55
466.342	6.4
466.697	6.46
467.052	6.43
467.408	6.49
467.763	6.48
468.118	6.68
468.473	6.61
468.829	6.43
469.184	6.44
469.539	6.38
469.894	6.41
470.249	6.45
470.603	6.53
470.958	6.36
471.313	6.43
471.668	6.6
472.023	6.49
472.377	6.6
472.732	6.32
473.086	6.54
473.441	6.6
473.795	6.43
474.15	6.45
474.504	6.48
474.859	6.39
475.213	6.43
475.567	6.51
475.921	6.38
476.275	6.58
476.63	6.52
476.984	6.55
477.338	6.52
477.692	6.47
478.045	6.66
478.399	6.42
478.753	6.55
479.107	6.45
479.461	6.6
479.814	6.55
480.168	6.45
480.521	6.36
480.875	6.43
481.228	6.63
481.582	6.49
481.935	6.51
482.289	6.5
482.642	6.54
482.995	6.35
483.348	6.35
483.701	6.36
484.055	6.3
484.408	6.45
484.761	6.29
485.114	6.2
485.466	6.08
485.819	6.04
486.172	6.02
486.525	6.13
486.878	6.17
487.23	6.23
487.583	6.23
487.936	6.28
488.288	6.31
488.641	6.21
488.993	6.18
489.345	6.11
489.698	6.16
490.05	6.19
490.402	6.12
490.754	6.23
491.107	6.3
491.459	6.35
491.811	6.3
492.163	6.42
492.515	6.39
492.866	6.23
493.218	6.19
493.57	6.16
493.922	6.18
494.274	6.21
494.625	6.27
494.977	6.42
495.328	6.43
495.68	6.43
496.031	6.48
496.383	6.41
496.734	6.41
497.086	6.45
497.437	6.43
497.788	6.46
498.139	6.4
498.49	6.44
498.842	6.48
499.193	6.48
499.544	6.32
499.894	6.43
500.245	6.45
500.596	6.47
500.947	6.47
501.298	6.33
501.648	6.47
501.999	6.59
502.35	6.48
502.7	6.45
503.051	6.48
503.401	6.52
503.752	6.44
504.102	6.45
504.452	6.47
504.803	6.44
505.153	6.39
505.503	6.57
505.853	6.59
506.203	6.45
506.553	6.44
506.903	6.39
507.253	6.52
507.603	6.36
507.953	6.44
508.303	6.5
508.652	6.31
509.002	6.49
509.352	6.56
509.701	6.41
510.051	6.35
510.4	6.37
510.75	6.41
511.099	6.51
511.449	6.35
511.798	6.35
512.147	6.37
512.496	6.36
512.846	6.27
513.195	6.51
513.544	6.44
513.893	6.46
514.242	6.32
514.591	6.41
514.939	6.44
515.288	6.49
515.637	6.4
515.986	6.39
516.334	6.4
516.683	6.44
517.032	6.41
517.38	6.58
517.729	6.5
518.077	6.5
518.426	6.51
518.774	6.48
519.122	6.49
519.47	6.47
519.819	6.38
520.167	6.39
520.515	6.26
520.863	6.28
521.211	6.33
521.559	6.36
521.907	6.29
522.255	6.42
522.602	6.5
522.95	6.33
523.298	6.51
523.645	6.37
523.993	6.43
524.341	6.51
524.688	6.49
525.036	6.36
525.383	6.47
525.73	6.35
526.078	6.49
526.425	6.49
526.772	6.35
527.119	6.36
527.466	6.33
527.814	6.22
528.161	6.28
528.508	6.3
528.854	6.27
529.201	6.2
529.548	6.2
529.895	6.21
530.242	6.07
530.588	6.01
530.935	6.05
531.282	6.08
531.628	6.09
531.975	6.2
532.321	6.25
532.667	6.26
533.014	6.28
533.36	6.36
533.706	6.37
534.052	6.26
534.399	6.3
534.745	6.22
535.091	6.14
535.437	6.1
535.783	6.16
536.129	6.3
536.474	6.25
536.82	6.33
537.166	6.26
537.512	6.3
537.857	6.33
538.203	6.17
538.549	6.15
538.894	6.26
539.239	6.25
539.585	6.28
539.93	6.29
540.276	6.44
540.621	6.32
540.966	6.37
541.311	6.16
541.656	6.43
542.001	6.34
542.346	6.31
542.691	6.24
543.036	6.06
543.381	6.09
543.726	6.04
544.071	6.05
544.415	6.11
544.76	6.2
545.105	6.23
545.449	6.24
545.794	6.16
546.138	6.2
546.483	6.26
546.827	6.24
547.171	6.28
547.516	6.3
547.86	6.24
548.204	6.22
548.548	6.19
548.892	6.2
549.236	6.22
549.58	6.25
549.924	6.33
550.268	6.41
550.612	6.19
550.956	6.24
551.3	6.26
551.643	6.26
551.987	6.05
552.33	6.34
552.674	6.23
553.017	6.37
553.361	6.4
553.704	6.34
554.048	6.19
554.391	6.23
554.734	6.35
555.077	6.26
555.42	6.26
555.764	6.51
556.107	6.39
556.45	6.38
556.793	6.34
557.135	6.31
557.478	6.2
557.821	6.4
558.164	6.4
558.507	6.18
558.849	6.26
559.192	6.28
559.534	6.23
559.877	6.26
560.219	6.36
560.562	6.33
560.904	6.44
561.246	6.35
561.589	6.18
561.931	6.21
562.273	6.42
562.615	6.11
562.957	6.23
563.299	6.21
563.641	6.26
563.983	6.35
564.325	6.21
564.667	6.18
565.008	6.08
565.35	6.16
565.692	6.38
566.033	6.25
566.375	6.21
566.716	6.3
567.058	6.33
567.399	6.21
567.741	6.16
568.082	6.3
568.423	6.26
568.764	6.13
569.105	6.2
569.447	6.3
569.788	6.24
570.129	6.33
570.47	6.22
570.811	6.34
571.151	6.15
571.492	6.28
571.833	6.04
572.174	6.27
572.514	6.12
572.855	5.94
573.195	6.07
573.536	6.05
573.876	6.09
574.217	6.15
574.557	6.11
574.898	6.19
575.238	6
575.578	6.24
575.918	6.2
576.258	6.14
576.598	6.14
576.938	6.21
577.278	5.94
577.618	6.04
577.958	5.98
578.298	6.15
578.638	6.05
578.977	6.32
579.317	6.1
579.657	6.03
579.996	6.17
580.336	5.98
580.675	5.91
581.014	6.34
581.354	6.13
581.693	6.35
582.032	6
582.372	6.19
582.711	6.08
583.05	5.97
583.389	5.9
583.728	6.07
584.067	6.12
584.406	6.01
584.745	6.38
585.083	6.01
585.422	6.22
585.761	6.13
586.1	5.99
586.438	5.73
586.777	6.12
587.115	5.95
587.454	6.16
587.792	6.14
588.13	6.14
588.469	6.19
588.807	6.17
589.145	6.15
589.483	5.8
589.821	6.13
590.159	5.88
590.497	6.15
590.835	5.92
591.173	5.88
591.511	6.09
591.849	6.03
592.187	5.95
592.524	6.02
592.862	6.11
593.2	6.11
593.537	5.97
593.875	5.93
594.212	5.82
594.55	5.8
594.887	6.03
595.224	5.97
595.561	5.93
595.899	5.9
596.236	6.06
596.573	5.91
596.91	5.91
597.247	5.8
597.584	5.79
597.921	6.22
598.258	5.97
598.594	5.65
598.931	5.92
599.268	5.85
599.604	5.79
599.941	5.82
600.277	5.79
600.614	5.98
600.95	5.98
601.287	5.79
601.623	5.77
601.959	5.94
602.296	6.03
602.632	5.87
602.968	5.96
603.304	5.85
603.64	5.88
603.976	5.61
604.312	5.88
604.648	5.67
604.984	5.7
605.319	5.8
605.655	5.64
605.991	5.88
606.326	5.68
606.662	5.68
606.998	5.78
607.333	5.62
607.668	5.81
608.004	5.64
608.339	5.72
608.674	5.99
609.01	5.67
609.345	5.93
609.68	6.1
610.015	5.75
610.35	5.7
610.685	6
611.02	5.99
611.355	5.88
611.689	5.75
612.024	5.73
612.359	5.48
612.694	5.74
613.028	6.12
613.363	5.91
613.697	5.82
614.032	5.77
614.366	5.62
614.7	5.73
615.035	5.81
615.369	5.57
615.703	6.02
616.037	5.78
616.371	5.64
616.705	5.61
617.039	5.85
617.373	5.95
617.707	5.94
618.041	5.82
618.375	5.68
618.709	5.84
619.042	5.99
619.376	5.64
619.71	5.85
620.043	6.01
620.377	6.03
620.71	5.98
621.043	5.72
621.377	5.63
621.71	5.95
622.043	6.17
622.376	6.08
622.709	5.7
623.043	5.44
623.376	5.94
623.709	5.71
624.041	5.6
624.374	5.64
624.707	5.26
625.04	5.99
625.373	5.94
625.705	5.3
626.038	5.57
626.37	5.93
626.703	5.58
627.035	5.73
627.368	5.71
627.7	5.64
628.032	5.68
628.365	6.01
628.697	5.49
629.029	5.59
629.361	5.6
629.693	5.81
630.025	5.9
630.357	5.46
630.689	5.47
631.021	5.45
631.353	5.74
631.684	5.36
632.016	5.62
632.348	5.54
632.679	5.8
633.011	5.56
633.342	5.63
633.674	5.36
634.005	5.37
634.336	5.67
634.668	5.65
634.999	5.99
635.33	5.42
635.661	5.47
635.992	5.76
636.323	6.04
636.654	5.31
636.985	5.56
637.316	5.4
637.647	5.4
637.977	5.85
638.308	5.98
638.639	5.74
638.969	5.3
639.3	5.79
639.63	5.44
639.961	5.96
640.291	5.68
640.622	5.38
640.952	5.39
641.282	5.42
641.612	5.51
641.943	5.64
642.273	5.07
642.603	5.42
642.933	5.54
643.263	5.08
643.592	5.6
643.922	5.84
644.252	5.65
644.582	5.58
644.911	5.54
645.241	5.03
645.571	5.8
645.9	5.86
646.23	5.83
646.559	6.08
646.888	5.42
647.218	5.36
647.547	5.51
647.876	5.69
648.205	5.29
648.534	5.54
648.863	5.49
649.192	5.72
649.521	5.53
649.85	5.81
650.179	5.58
650.508	5.48
650.837	5.49
651.165	5.21
651.494	5.41
651.822	5.67
652.151	5.83
652.479	4.94
652.808	5.51
653.136	5.6
653.465	5.3
653.793	5.43
654.121	5.56
654.449	5.28
654.777	5.15
655.105	5.31
655.433	5.56
655.761	5.39
656.089	5.57
656.417	5.17
656.745	4.88
657.073	5.12
657.4	5.53
657.728	5.74
658.056	4.93
658.383	5.3
658.711	5.07
659.038	5.43
659.365	6.01
659.693	5.6
660.02	5.68
660.347	5.7
660.674	5.26
661.001	5.42
661.329	5.63
661.656	5.43
661.982	5.36
662.309	5.53
662.636	5.57
662.963	5.19
663.29	5.15
663.616	5.58
663.943	5.54
664.27	5.66
664.596	4.94
664.923	5.58
665.249	5.2
665.576	5.23
665.902	5.08
666.228	5.12
666.554	5.78
666.881	4.99
667.207	5.62
667.533	5.48
667.859	5.66
668.185	5.51
668.511	5.53
668.837	4.84
669.162	5.66
669.488	5.23
669.814	5.57
670.139	5.57
670.465	5.26
670.791	4.94
671.116	5.12
671.442	5.74
671.767	5.41
672.092	5.27
672.418	5.24
672.743	5.65
673.068	5.02
673.393	6.22
673.718	4.93
674.043	5.29
674.368	5.13
674.693	5.55
675.018	5.21
675.343	5.24
675.667	5.37
675.992	5.38
676.317	4.8
676.641	4.93
676.966	5.12
677.29	5.46
677.615	5.51
677.939	5.67
678.264	5.86
678.588	5.58
678.912	5.73
679.236	5.78
679.56	5.46
679.885	5.31
680.209	5.34
680.532	5.41
680.856	5.06
681.18	4.76
681.504	5.37
681.828	5.05
682.152	5.72
682.475	5.27
682.799	5.62
683.122	5.49
683.446	6
683.769	4.4
684.093	5.71
684.416	4.69
684.739	5.27
685.062	5.63
685.386	5.51
685.709	5.3
686.032	5.75
686.355	6.55
686.678	5.46
687.001	5.43
687.324	5.47
687.646	5.58
687.969	6.35
688.292	5.68
688.614	5.77
688.937	5.29
689.26	5.34
689.582	5.28
689.904	5.52
690.227	5.67
690.549	5.25
690.871	4.97
691.194	5.61
691.516	5.77
691.838	5.37
692.16	5.85
692.482	4.73
692.804	5.12
