Data from 0040_chest_Reflection__0__60.txt Node

Date: Fri Nov 04 15:13:50 CDT 2022
User: ToomeyLab
Spectrometer: FLMS14357
Trigger mode: 0
Integration Time (sec): 1.000000E-2
Scans to average: 100
Electric dark correction enabled: true
Nonlinearity correction enabled: false
Boxcar width: 0
XAxis mode: Wavelengths
Number of Pixels in Spectrum: 2048
>>>>>Begin Spectral Data<<<<<
189.047	226.9
189.435	226.9
189.823	226.9
190.211	-89.19
190.599	314.63
190.987	-30.54
191.375	768.05
191.763	-20.71
192.151	-126.54
192.538	35.52
192.926	-1729.03
193.314	200.48
193.702	39
194.089	15.71
194.477	1096.09
194.864	45.02
195.252	209.84
195.639	-160
196.027	-224.15
196.414	69.74
196.801	86.04
197.189	-3.17
197.576	187.01
197.963	236.27
198.351	-24.33
198.738	-13.91
199.125	38.07
199.512	12.05
199.899	25.72
200.286	12.44
200.673	-4.98
201.06	35.11
201.447	-15.78
201.833	15.51
202.22	-16.82
202.607	-10.86
202.994	57.71
203.38	17.63
203.767	-25.9
204.154	-1.82
204.54	-48.09
204.927	61.15
205.313	29.82
205.699	8.85
206.086	16.92
206.472	-18.16
206.858	-14.92
207.245	-26.83
207.631	-13.59
208.017	9.3
208.403	5.3
208.789	13.27
209.175	21.78
209.561	-114.42
209.947	-34.36
210.333	-3.84
210.719	22.41
211.105	-63.25
211.491	5.12
211.876	-7.91
212.262	-10.6
212.648	23.05
213.034	14.14
213.419	18.02
213.805	-38.17
214.19	-40.97
214.576	-16.72
214.961	31.96
215.346	-2.49
215.732	-2.43
216.117	5.26
216.502	15.62
216.888	-27.9
217.273	0.73
217.658	-5.27
218.043	13.81
218.428	7.28
218.813	-9.98
219.198	-1.22
219.583	-26.76
219.968	20.44
220.353	-38.87
220.738	-24.85
221.122	2.41
221.507	0.93
221.892	-12.28
222.276	-16.28
222.661	2.67
223.046	-7.87
223.43	-0.86
223.815	10.65
224.199	10.33
224.583	-2.62
224.968	-12.41
225.352	-1.34
225.736	4.56
226.121	-9.65
226.505	-2.1
226.889	-0.68
227.273	4.55
227.657	4.99
228.041	8.28
228.425	5.3
228.809	4.97
229.193	6.57
229.577	1.58
229.961	4.8
230.344	5.29
230.728	3.53
231.112	3.41
231.495	3.55
231.879	4.53
232.263	1.81
232.646	2.94
233.03	3.22
233.413	2.21
233.797	3.49
234.18	2.37
234.563	3.06
234.946	2.67
235.33	4.81
235.713	3.05
236.096	3.87
236.479	3.43
236.862	3.28
237.245	3.61
237.628	2.92
238.011	2.6
238.394	4.08
238.777	3.71
239.16	3.71
239.543	3.23
239.925	2.49
240.308	4.67
240.691	4.29
241.073	3.05
241.456	4.19
241.838	2.54
242.221	2.87
242.603	3.51
242.986	3.1
243.368	4.16
243.75	3.97
244.133	3.88
244.515	3.92
244.897	3.55
245.279	3.63
245.661	4.05
246.043	4.35
246.425	3.62
246.807	4.67
247.189	3.61
247.571	4.17
247.953	3.68
248.335	3.85
248.717	3.75
249.098	3.77
249.48	3.87
249.862	4.25
250.243	3.72
250.625	3.3
251.006	3.92
251.388	4.2
251.769	5
252.151	4.61
252.532	3.63
252.913	4.14
253.295	3.6
253.676	3.86
254.057	3.33
254.438	3.42
254.819	4.08
255.2	3.08
255.581	5.09
255.962	4.94
256.343	2.93
256.724	3.37
257.105	3.47
257.486	4.4
257.867	6.33
258.247	4.36
258.628	3.27
259.009	3.31
259.389	3.83
259.77	3.8
260.15	3.55
260.531	4.11
260.911	3.42
261.292	3.49
261.672	3.5
262.052	3.57
262.432	3.69
262.813	2.98
263.193	2.76
263.573	3.39
263.953	3.47
264.333	3.43
264.713	3.46
265.093	3.09
265.473	3.6
265.853	2.75
266.233	3.48
266.612	3.76
266.992	3.73
267.372	2.7
267.752	3.14
268.131	3.21
268.511	3.76
268.89	3.46
269.27	3.56
269.649	3.57
270.029	3.3
270.408	3.85
270.787	3.57
271.167	3.7
271.546	4.13
271.925	3.19
272.304	3.28
272.683	3.29
273.062	3.75
273.441	3.47
273.82	2.74
274.199	3.6
274.578	3.14
274.957	3.13
275.336	3.26
275.715	3.07
276.093	3.89
276.472	3.35
276.851	2.94
277.229	3.28
277.608	3.05
277.986	3.88
278.365	3.72
278.743	3.46
279.122	3.15
279.5	3.29
279.878	3.69
280.257	3.2
280.635	3.12
281.013	2.98
281.391	3.69
281.769	3.68
282.147	3.21
282.525	3.08
282.903	3.8
283.281	3.88
283.659	3.84
284.037	3.18
284.415	3.01
284.792	3.42
285.17	2.77
285.548	3.77
285.925	3
286.303	3.66
286.68	3.62
287.058	3.42
287.435	3.08
287.813	3.17
288.19	3.7
288.567	3.19
288.945	3.3
289.322	3.23
289.699	3.4
290.076	3.43
290.453	2.73
290.83	3.13
291.207	3.34
291.584	3.35
291.961	3.57
292.338	3.63
292.715	3.66
293.092	3.57
293.469	3.25
293.845	2.93
294.222	3.12
294.599	2.83
294.975	3.43
295.352	2.91
295.728	3.63
296.105	3.16
296.481	3.35
296.858	3.85
297.234	3.68
297.61	3.64
297.986	3.2
298.363	3.28
298.739	3.37
299.115	3.47
299.491	3.6
299.867	3.19
300.243	3.77
300.619	3.87
300.995	3.73
301.371	3.71
301.746	3.32
302.122	3.45
302.498	3.27
302.874	3.49
303.249	3.18
303.625	3.26
304	3.75
304.376	2.97
304.751	3.58
305.127	3.13
305.502	3.6
305.878	3.44
306.253	3.43
306.628	3.16
307.003	3.35
307.378	3.71
307.754	3.36
308.129	2.77
308.504	3.19
308.879	3.66
309.254	3.62
309.629	3.31
310.003	3.53
310.378	3.31
310.753	3.7
311.128	3.65
311.502	3.06
311.877	3.58
312.252	3.19
312.626	3.61
313.001	3.45
313.375	3.24
313.75	3.6
314.124	3.33
314.498	3.32
314.873	3.71
315.247	3.42
315.621	3.49
315.995	3.47
316.369	3.17
316.743	4
317.117	3.59
317.491	3.59
317.865	3.17
318.239	3.62
318.613	3.82
318.987	3.26
319.361	3.48
319.734	3.5
320.108	3.6
320.482	2.78
320.855	3.94
321.229	3.73
321.602	3.63
321.976	3.24
322.349	4.36
322.723	4.13
323.096	3.51
323.469	3.44
323.843	3.67
324.216	3.6
324.589	3.61
324.962	3.81
325.335	3.62
325.708	3.22
326.081	3.75
326.454	3.08
326.827	3.46
327.2	3.22
327.573	3.04
327.945	3.83
328.318	3.23
328.691	3.41
329.063	3.24
329.436	3.52
329.809	3.28
330.181	3.9
330.553	3.27
330.926	3.76
331.298	4.18
331.671	3.32
332.043	3.49
332.415	3.44
332.787	2.99
333.159	2.87
333.532	3.11
333.904	3.67
334.276	3.65
334.648	3.79
335.02	2.95
335.391	3.88
335.763	3.71
336.135	3.47
336.507	3.84
336.879	3.37
337.25	3.2
337.622	3.62
337.993	3.57
338.365	3.28
338.736	3.95
339.108	4.11
339.479	3.86
339.851	3
340.222	3.22
340.593	3.81
340.964	3.81
341.336	3.77
341.707	3.49
342.078	3.46
342.449	3.4
342.82	3.85
343.191	3.19
343.562	3.62
343.933	3.88
344.303	3.74
344.674	3.58
345.045	3.15
345.416	3.23
345.786	3.63
346.157	3.36
346.527	3.65
346.898	3.82
347.268	3.53
347.639	3.62
348.009	3.69
348.38	3.58
348.75	3.38
349.12	3.24
349.49	3.96
349.861	3.31
350.231	3.75
350.601	3.62
350.971	3.43
351.341	3.38
351.711	3.73
352.081	3.72
352.45	3.6
352.82	3.49
353.19	3.63
353.56	3.7
353.929	3.57
354.299	3.66
354.669	4.03
355.038	3.8
355.408	3.56
355.777	3.65
356.147	3.37
356.516	3.24
356.885	3.55
357.254	3.87
357.624	3.7
357.993	3.49
358.362	3.38
358.731	3.85
359.1	3.53
359.469	3.8
359.838	3.89
360.207	3.48
360.576	3.76
360.945	3.57
361.314	3.67
361.682	3.54
362.051	3.78
362.42	3.65
362.788	3.67
363.157	3.62
363.525	3.76
363.894	3.62
364.262	3.82
364.631	3.73
364.999	3.46
365.367	3.71
365.735	3.76
366.104	3.72
366.472	3.87
366.84	3.36
367.208	3.89
367.576	3.38
367.944	3.9
368.312	3.79
368.68	3.43
369.048	3.62
369.416	3.71
369.783	3.45
370.151	3.29
370.519	4.1
370.886	3.82
371.254	3.55
371.621	3.92
371.989	3.69
372.356	3.75
372.724	3.82
373.091	3.62
373.458	3.79
373.826	3.82
374.193	3.58
374.56	3.51
374.927	4.06
375.294	3.44
375.661	3.84
376.028	3.64
376.395	3.69
376.762	3.85
377.129	3.32
377.496	3.92
377.863	3.66
378.229	3.59
378.596	3.59
378.963	3.78
379.329	3.26
379.696	3.66
380.062	3.89
380.429	3.55
380.795	3.77
381.161	3.76
381.528	3.7
381.894	3.21
382.26	3.5
382.626	3.67
382.993	3.79
383.359	3.85
383.725	3.75
384.091	3.68
384.457	3.77
384.823	3.64
385.188	3.76
385.554	3.87
385.92	3.73
386.286	3.65
386.651	3.8
387.017	3.58
387.383	3.68
387.748	3.63
388.114	3.65
388.479	4.07
388.845	3.88
389.21	3.97
389.575	3.95
389.94	4
390.306	3.81
390.671	3.69
391.036	3.82
391.401	4.02
391.766	3.64
392.131	3.77
392.496	3.78
392.861	3.94
393.226	3.73
393.591	3.79
393.956	4.05
394.32	3.64
394.685	3.89
395.05	4.06
395.414	3.79
395.779	4.03
396.143	3.72
396.508	3.79
396.872	3.92
397.236	3.79
397.601	3.64
397.965	3.88
398.329	3.75
398.694	3.84
399.058	3.89
399.422	3.87
399.786	3.8
400.15	3.9
400.514	4.08
400.878	3.74
401.242	4.05
401.605	3.82
401.969	3.96
402.333	4.03
402.697	3.92
403.06	3.94
403.424	3.74
403.787	3.93
404.151	4.01
404.514	3.83
404.878	3.96
405.241	3.87
405.604	3.89
405.968	3.87
406.331	3.75
406.694	3.84
407.057	3.92
407.42	3.97
407.783	3.79
408.146	3.97
408.509	3.98
408.872	3.85
409.235	4.02
409.598	3.9
409.961	3.92
410.323	3.91
410.686	3.97
411.049	3.94
411.411	3.75
411.774	3.95
412.136	4.15
412.499	3.98
412.861	3.97
413.223	3.91
413.586	3.81
413.948	4.17
414.31	3.91
414.672	4.07
415.035	4.09
415.397	3.83
415.759	4.16
416.121	3.77
416.483	4.15
416.845	4.01
417.206	4.01
417.568	4.12
417.93	4.05
418.292	4.03
418.653	3.98
419.015	3.97
419.377	3.9
419.738	4.05
420.1	4.05
420.461	3.98
420.822	3.87
421.184	4.03
421.545	3.9
421.906	3.95
422.267	3.99
422.629	3.99
422.99	3.86
423.351	3.79
423.712	3.9
424.073	4.09
424.434	3.99
424.795	4.06
425.155	4.09
425.516	3.98
425.877	3.99
426.238	3.98
426.598	4.01
426.959	4
427.32	4.02
427.68	4.01
428.041	3.99
428.401	4.15
428.761	4.12
429.122	4.09
429.482	4.13
429.842	3.9
430.202	4.25
430.563	4.05
430.923	4.2
431.283	4.06
431.643	4.26
432.003	4.32
432.363	4.12
432.722	4.14
433.082	4.18
433.442	4.36
433.802	4.06
434.161	4.09
434.521	4.04
434.881	4.11
435.24	4.08
435.6	4.2
435.959	4.1
436.319	4.14
436.678	4.04
437.037	4.22
437.396	4.27
437.756	4.25
438.115	4.11
438.474	4.17
438.833	4.25
439.192	4.24
439.551	4.26
439.91	4.28
440.269	4.22
440.628	4.25
440.987	4.14
441.345	4.14
441.704	4.21
442.063	4.12
442.421	4.2
442.78	4.11
443.138	4.16
443.497	4.16
443.855	4.11
444.214	4.29
444.572	4.15
444.93	4.17
445.288	4.23
445.647	4.09
446.005	4.27
446.363	4.19
446.721	4.19
447.079	4.2
447.437	4.15
447.795	4.14
448.153	4.11
448.51	4.12
448.868	4.09
449.226	4.12
449.584	4.21
449.941	4.14
450.299	4.19
450.656	4.21
451.014	4.33
451.371	4.33
451.729	4.19
452.086	4.22
452.443	4.18
452.801	4.32
453.158	4.49
453.515	4.3
453.872	4.12
454.229	4.37
454.586	4.27
454.943	4.35
455.3	4.22
455.657	4.25
456.014	4.22
456.371	4.24
456.727	4.34
457.084	4.32
457.441	4.24
457.797	4.32
458.154	4.39
458.51	4.44
458.867	4.35
459.223	4.35
459.58	4.54
459.936	4.17
460.292	4.2
460.648	4.37
461.005	4.29
461.361	4.26
461.717	4.25
462.073	4.33
462.429	4.4
462.785	4.29
463.141	4.45
463.496	4.27
463.852	4.51
464.208	4.46
464.564	4.24
464.919	4.42
465.275	4.51
465.631	4.49
465.986	4.37
466.342	4.43
466.697	4.42
467.052	4.39
467.408	4.26
467.763	4.34
468.118	4.48
468.473	4.52
468.829	4.4
469.184	4.32
469.539	4.34
469.894	4.61
470.249	4.34
470.603	4.52
470.958	4.32
471.313	4.43
471.668	4.38
472.023	4.37
472.377	4.41
472.732	4.41
473.086	4.45
473.441	4.54
473.795	4.34
474.15	4.43
474.504	4.49
474.859	4.56
475.213	4.6
475.567	4.39
475.921	4.5
476.275	4.58
476.63	4.53
476.984	4.4
477.338	4.59
477.692	4.56
478.045	4.59
478.399	4.41
478.753	4.58
479.107	4.49
479.461	4.51
479.814	4.57
480.168	4.58
480.521	4.37
480.875	4.43
481.228	4.54
481.582	4.56
481.935	4.53
482.289	4.53
482.642	4.55
482.995	4.44
483.348	4.44
483.701	4.46
484.055	4.46
484.408	4.49
484.761	4.4
485.114	4.3
485.466	4.26
485.819	4.17
486.172	4.21
486.525	4.27
486.878	4.4
487.23	4.39
487.583	4.42
487.936	4.51
488.288	4.52
488.641	4.43
488.993	4.35
489.345	4.31
489.698	4.33
490.05	4.4
490.402	4.35
490.754	4.47
491.107	4.49
491.459	4.55
491.811	4.54
492.163	4.59
492.515	4.56
492.866	4.51
493.218	4.45
493.57	4.43
493.922	4.45
494.274	4.47
494.625	4.58
494.977	4.66
495.328	4.6
495.68	4.54
496.031	4.72
496.383	4.67
496.734	4.68
497.086	4.78
497.437	4.69
497.788	4.74
498.139	4.71
498.49	4.74
498.842	4.78
499.193	4.76
499.544	4.78
499.894	4.67
500.245	4.82
500.596	4.69
500.947	4.67
501.298	4.75
501.648	4.81
501.999	4.93
502.35	4.82
502.7	4.83
503.051	4.82
503.401	4.92
503.752	4.81
504.102	4.8
504.452	4.87
504.803	4.81
505.153	4.78
505.503	4.78
505.853	4.85
506.203	4.86
506.553	4.92
506.903	4.86
507.253	4.77
507.603	4.91
507.953	4.77
508.303	4.88
508.652	4.82
509.002	4.99
509.352	4.98
509.701	4.86
510.051	4.84
510.4	4.87
510.75	4.92
511.099	4.86
511.449	4.85
511.798	4.85
512.147	4.85
512.496	4.83
512.846	4.84
513.195	4.93
513.544	4.85
513.893	5.01
514.242	4.9
514.591	4.89
514.939	5.02
515.288	5.05
515.637	4.93
515.986	5.05
516.334	5.06
516.683	5.07
517.032	5.13
517.38	5.11
517.729	5.07
518.077	5.13
518.426	5.14
518.774	5.07
519.122	5.04
519.47	4.95
519.819	5.1
520.167	5.05
520.515	5
520.863	4.96
521.211	5.04
521.559	5.06
521.907	5.03
522.255	5.13
522.602	5.18
522.95	5.07
523.298	5.28
523.645	5.18
523.993	5.13
524.341	5.21
524.688	5.26
525.036	5.27
525.383	5.2
525.73	5.2
526.078	5.26
526.425	5.18
526.772	5.19
527.119	5.17
527.466	5.21
527.814	5.18
528.161	5.09
528.508	5.18
528.854	5.18
529.201	5.15
529.548	5.17
529.895	5.09
530.242	5.08
530.588	5
530.935	5.05
531.282	5.15
531.628	5.15
531.975	5.31
532.321	5.38
532.667	5.34
533.014	5.38
533.36	5.42
533.706	5.47
534.052	5.43
534.399	5.34
534.745	5.28
535.091	5.21
535.437	5.22
535.783	5.29
536.129	5.38
536.474	5.47
536.82	5.53
537.166	5.49
537.512	5.59
537.857	5.6
538.203	5.45
538.549	5.39
538.894	5.54
539.239	5.5
539.585	5.41
539.93	5.59
540.276	5.66
540.621	5.56
540.966	5.77
541.311	5.64
541.656	5.67
542.001	5.75
542.346	5.6
542.691	5.62
543.036	5.42
543.381	5.45
543.726	5.47
544.071	5.61
544.415	5.63
544.76	5.69
545.105	5.72
545.449	5.77
545.794	5.75
546.138	5.84
546.483	5.86
546.827	5.87
547.171	5.87
547.516	5.91
547.86	5.9
548.204	5.88
548.548	5.9
548.892	5.89
549.236	5.9
549.58	5.91
549.924	6.11
550.268	6.03
550.612	5.86
550.956	6.14
551.3	6.1
551.643	6.03
551.987	5.91
552.33	6.12
552.674	6.04
553.017	6.33
553.361	6.3
553.704	6.17
554.048	6.17
554.391	6.04
554.734	6.14
555.077	6.26
555.42	6.01
555.764	6.46
556.107	6.37
556.45	6.36
556.793	6.18
557.135	6.33
557.478	6.22
557.821	6.29
558.164	6.48
558.507	6.23
558.849	6.59
559.192	6.55
559.534	6.34
559.877	6.36
560.219	6.51
560.562	6.54
560.904	6.49
561.246	6.51
561.589	6.58
561.931	6.55
562.273	6.59
562.615	6.49
562.957	6.6
563.299	6.49
563.641	6.61
563.983	6.71
564.325	6.52
564.667	6.72
565.008	6.62
565.35	6.72
565.692	6.97
566.033	6.76
566.375	6.74
566.716	6.84
567.058	6.8
567.399	6.71
567.741	6.98
568.082	6.82
568.423	6.78
568.764	6.68
569.105	6.86
569.447	7.01
569.788	6.92
570.129	7
570.47	7.13
570.811	6.96
571.151	7.12
571.492	7.31
571.833	7.03
572.174	7.15
572.514	7.03
572.855	6.96
573.195	7.02
573.536	7.03
573.876	7.11
574.217	7.23
574.557	7.11
574.898	7.08
575.238	7.12
575.578	7.38
575.918	7.31
576.258	7.28
576.598	7.32
576.938	7.24
577.278	7.2
577.618	7.25
577.958	7.3
578.298	7.42
578.638	7.47
578.977	7.7
579.317	7.48
579.657	7.52
579.996	7.7
580.336	7.39
580.675	7.43
581.014	7.78
581.354	7.48
581.693	8.08
582.032	7.66
582.372	7.96
582.711	7.73
583.05	7.67
583.389	7.68
583.728	7.72
584.067	7.73
584.406	7.72
584.745	7.94
585.083	7.86
585.422	8.03
585.761	7.76
586.1	7.98
586.438	8
586.777	7.88
587.115	7.99
587.454	8.31
587.792	8.26
588.13	8.07
588.469	8.07
588.807	8.3
589.145	8.28
589.483	7.99
589.821	8.16
590.159	8.02
590.497	8.2
590.835	8.28
591.173	8
591.511	8.28
591.849	8.4
592.187	8.4
592.524	8.48
592.862	8.35
593.2	8.34
593.537	8.46
593.875	8.36
594.212	8.39
594.55	8.53
594.887	8.68
595.224	8.64
595.561	8.3
595.899	8.43
596.236	8.75
596.573	8.8
596.91	8.68
597.247	8.72
597.584	8.55
597.921	8.9
598.258	8.62
598.594	8.49
598.931	8.76
599.268	8.74
599.604	8.77
599.941	8.79
600.277	8.81
600.614	9.03
600.95	8.93
601.287	8.82
601.623	8.85
601.959	9
602.296	9.18
602.632	9.06
602.968	9.21
603.304	9.19
603.64	9.17
603.976	9.03
604.312	9.08
604.648	9.13
604.984	9.1
605.319	9.16
605.655	9.08
605.991	9.29
606.326	9.2
606.662	9.26
606.998	9.34
607.333	9.38
607.668	9.47
608.004	9.16
608.339	9.49
608.674	9.62
609.01	9.59
609.345	9.63
609.68	9.57
610.015	9.68
610.35	9.61
610.685	9.76
611.02	9.69
611.355	9.49
611.689	9.67
612.024	9.61
612.359	9.8
612.694	9.84
613.028	10.11
613.363	10.15
613.697	9.88
614.032	9.87
614.366	9.99
614.7	9.83
615.035	10.2
615.369	10.05
615.703	10.44
616.037	9.97
616.371	10.47
616.705	10.18
617.039	10.35
617.373	10.4
617.707	10.43
618.041	10.45
618.375	10.37
618.709	10.56
619.042	10.42
619.376	10.5
619.71	10.61
620.043	10.4
620.377	10.73
620.71	10.75
621.043	10.29
621.377	10.28
621.71	10.48
622.043	10.64
622.376	10.53
622.709	10.61
623.043	10.88
623.376	10.98
623.709	10.41
624.041	10.39
624.374	10.88
624.707	10.95
625.04	11.19
625.373	11.04
625.705	10.78
626.038	11.05
626.37	10.93
626.703	11.36
627.035	11.2
627.368	11.12
627.7	11.07
628.032	10.65
628.365	11.11
628.697	11.02
629.029	10.99
629.361	11.01
629.693	11.33
630.025	11.44
630.357	11.15
630.689	11.21
631.021	11.4
631.353	11.2
631.684	11.46
632.016	11.42
632.348	11.24
632.679	11.35
633.011	11.6
633.342	11.88
633.674	11.75
634.005	11.68
634.336	11.68
634.668	11.56
634.999	12.04
635.33	11.42
635.661	11.63
635.992	11.7
636.323	11.77
636.654	11.86
636.985	12.05
637.316	11.53
637.647	11.66
637.977	12.3
638.308	12.21
638.639	11.95
638.969	11.66
639.3	12.37
639.63	12.45
639.961	12.02
640.291	12.38
640.622	12.24
640.952	12.06
641.282	12.13
641.612	12.39
641.943	11.95
642.273	11.91
642.603	12.36
642.933	12.46
643.263	12.24
643.592	12.58
643.922	13.12
644.252	12.52
644.582	12.97
644.911	13.05
645.241	12.25
645.571	12.41
645.9	12.65
646.23	13.05
646.559	12.95
646.888	12.47
647.218	13.23
647.547	12.95
647.876	13.58
648.205	12.63
648.534	13.15
648.863	12.82
649.192	13.56
649.521	12.65
649.85	13.33
650.179	12.8
650.508	13.45
650.837	13.29
651.165	13.12
651.494	13.09
651.822	13.57
652.151	13.41
652.479	13.45
652.808	12.87
653.136	12.86
653.465	13.58
653.793	13.27
654.121	13.21
654.449	13.2
654.777	13.44
655.105	13.28
655.433	13.3
655.761	13.58
656.089	13.41
656.417	13.4
656.745	13.25
657.073	13.55
657.4	13.41
657.728	13.43
658.056	13.73
658.383	13.96
658.711	13.62
659.038	14.03
659.365	14.65
659.693	14.64
660.02	14.45
660.347	14.08
660.674	14.22
661.001	14.2
661.329	14.31
661.656	14.04
661.982	13.61
662.309	14.12
662.636	14
662.963	13.9
663.29	13.79
663.616	14.44
663.943	14.59
664.27	14.23
664.596	14.69
664.923	14.28
665.249	15.23
665.576	14.9
665.902	14.18
666.228	14.02
666.554	14.57
666.881	14.49
667.207	14.9
667.533	14.42
667.859	14.74
668.185	14.51
668.511	14.74
668.837	14.89
669.162	14.7
669.488	14.4
669.814	15.17
670.139	14.64
670.465	15.23
670.791	15.22
671.116	14.94
671.442	14.65
671.767	15.08
672.092	14.6
672.418	15.4
672.743	15.66
673.068	14.84
673.393	15.3
673.718	14.58
674.043	15.39
674.368	15.42
674.693	15.05
675.018	14.51
675.343	15.37
675.667	15.29
675.992	15.32
676.317	15.23
676.641	15.71
676.966	15.26
677.29	15.61
677.615	15.91
677.939	15.52
678.264	15.13
678.588	15.92
678.912	16.1
679.236	15.82
679.56	16.13
679.885	16.07
680.209	16.14
680.532	15.99
680.856	15.93
681.18	15.81
681.504	16.26
681.828	15.98
682.152	16.27
682.475	15.74
682.799	16.55
683.122	16.41
683.446	16.04
683.769	15.42
684.093	16.58
684.416	15.87
684.739	16.32
685.062	16.8
685.386	16.11
685.709	16.46
686.032	16.7
686.355	17.05
686.678	16.51
687.001	16.96
687.324	16.65
