Data from 0040_forehead_Reflection__3__73.txt Node

Date: Fri Nov 04 15:21:48 CDT 2022
User: ToomeyLab
Spectrometer: FLMS14357
Trigger mode: 0
Integration Time (sec): 1.000000E-2
Scans to average: 100
Electric dark correction enabled: true
Nonlinearity correction enabled: false
Boxcar width: 0
XAxis mode: Wavelengths
Number of Pixels in Spectrum: 2048
>>>>>Begin Spectral Data<<<<<
189.047	452.84
189.435	452.84
189.823	452.84
190.211	-136.75
190.599	531.81
190.987	-28.37
191.375	504.83
191.763	58.17
192.151	66.05
192.538	279.49
192.926	-1769.89
193.314	68
193.702	73.67
194.089	-12.1
194.477	806.41
194.864	632.9
195.252	227.84
195.639	424.93
196.027	854.21
196.414	-77.05
196.801	163.68
197.189	37.36
197.576	158.06
197.963	112.95
198.351	-10.2
198.738	19.02
199.125	8.14
199.512	-53.08
199.899	37.92
200.286	22.12
200.673	-4.02
201.06	47.97
201.447	-8.28
201.833	7.32
202.22	8.48
202.607	8
202.994	55.32
203.38	40.7
203.767	53.87
204.154	42.39
204.54	58.15
204.927	-20.8
205.313	23.91
205.699	32.18
206.086	40.12
206.472	31.07
206.858	20.29
207.245	29.83
207.631	-4.55
208.017	5.45
208.403	27.05
208.789	43.85
209.175	9.97
209.561	-77.41
209.947	-10.29
210.333	-13.65
210.719	6.33
211.105	45.08
211.491	-10.6
211.876	29.36
212.262	12.32
212.648	-26.01
213.034	32.7
213.419	0.69
213.805	-44.29
214.19	-8.75
214.576	1.57
214.961	33.56
215.346	12.26
215.732	14.36
216.117	-2.52
216.502	14.62
216.888	-50.92
217.273	22.32
217.658	29.11
218.043	-0.82
218.428	32.63
218.813	2.63
219.198	8.08
219.583	-8.77
219.968	7.34
220.353	9.62
220.738	-24.69
221.122	-9.44
221.507	24.1
221.892	-9.83
222.276	11
222.661	11.53
223.046	-8.8
223.43	8.03
223.815	-1.69
224.199	1.73
224.583	1.03
224.968	-6.31
225.352	7.28
225.736	-3.58
226.121	-10.53
226.505	13.88
226.889	5.02
227.273	-2.34
227.657	0.79
228.041	4.95
228.425	2.65
228.809	4.05
229.193	3.58
229.577	-3.17
229.961	3.85
230.344	1.89
230.728	2.34
231.112	1.31
231.495	1.14
231.879	2.12
232.263	1.62
232.646	0.99
233.03	0.68
233.413	0.56
233.797	0.49
234.18	1.84
234.563	4.77
234.946	0.38
235.33	3.8
235.713	1.98
236.096	2.18
236.479	2.36
236.862	1.35
237.245	-0.13
237.628	1.64
238.011	0.19
238.394	2.75
238.777	2.28
239.16	1.97
239.543	-0.32
239.925	2.31
240.308	2.96
240.691	2.79
241.073	2.53
241.456	3.63
241.838	1.01
242.221	1.89
242.603	2.29
242.986	1.88
243.368	1.81
243.75	2.05
244.133	1.84
244.515	1.76
244.897	2.02
245.279	1.4
245.661	2.16
246.043	2.33
246.425	1.19
246.807	2.73
247.189	2.14
247.571	2.34
247.953	2.15
248.335	1.74
248.717	1.91
249.098	1.71
249.48	1.73
249.862	2.16
250.243	1.9
250.625	1.4
251.006	1.83
251.388	1.85
251.769	2.75
252.151	2.68
252.532	2.69
252.913	1.18
253.295	2.6
253.676	1.98
254.057	1.48
254.438	1.99
254.819	2.27
255.2	1.35
255.581	2.7
255.962	1.78
256.343	0.89
256.724	2.53
257.105	1.25
257.486	2.59
257.867	4.79
258.247	2.51
258.628	1.81
259.009	1.92
259.389	2.24
259.77	2.41
260.15	1.47
260.531	1.99
260.911	1.66
261.292	1.77
261.672	1.87
262.052	1.9
262.432	1.91
262.813	1.53
263.193	1.2
263.573	1.59
263.953	2.26
264.333	2.07
264.713	2.15
265.093	2.09
265.473	2.07
265.853	0.73
266.233	2.32
266.612	1.88
266.992	2.3
267.372	0.87
267.752	2.25
268.131	2.63
268.511	2.28
268.89	2.46
269.27	2.29
269.649	2.23
270.029	1.46
270.408	1.73
270.787	2.08
271.167	2.17
271.546	2.49
271.925	1.79
272.304	1.45
272.683	1.49
273.062	1.66
273.441	2.19
273.82	1.56
274.199	1.79
274.578	1.91
274.957	1.48
275.336	1.73
275.715	1.63
276.093	2.16
276.472	1.44
276.851	1.79
277.229	1.59
277.608	1.97
277.986	2.01
278.365	2.2
278.743	1.95
279.122	1.95
279.5	2.52
279.878	2.32
280.257	1.36
280.635	1.6
281.013	1.73
281.391	2.04
281.769	1.61
282.147	1.5
282.525	2.05
282.903	2.15
283.281	2.34
283.659	1.93
284.037	2.05
284.415	1.92
284.792	2.28
285.17	1.43
285.548	2.1
285.925	1.96
286.303	1.9
286.68	2.06
287.058	1.88
287.435	1.72
287.813	1.67
288.19	1.91
288.567	1.86
288.945	1.87
289.322	1.88
289.699	2.1
290.076	1.96
290.453	2.08
290.83	2.24
291.207	2.07
291.584	2
291.961	1.97
292.338	2.38
292.715	2.15
293.092	2.13
293.469	2.49
293.845	1.97
294.222	2.01
294.599	1.83
294.975	2.22
295.352	2.61
295.728	2.33
296.105	2.09
296.481	2.09
296.858	2.18
297.234	2.32
297.61	2.53
297.986	2.41
298.363	2.14
298.739	2.25
299.115	2.55
299.491	2.27
299.867	2.62
300.243	2.44
300.619	2.74
300.995	3.11
301.371	2.64
301.746	2.52
302.122	2.53
302.498	2.56
302.874	2.78
303.249	2.44
303.625	2.44
304	2.65
304.376	2.5
304.751	2.85
305.127	2.02
305.502	2.85
305.878	3.23
306.253	2.83
306.628	2.84
307.003	2.91
307.378	3.2
307.754	3.28
308.129	3.16
308.504	2.7
308.879	3.13
309.254	3.13
309.629	3.09
310.003	2.72
310.378	3.29
310.753	3.22
311.128	2.96
311.502	2.85
311.877	3.44
312.252	3.33
312.626	3.44
313.001	3.23
313.375	3.34
313.75	3.16
314.124	3.27
314.498	3.31
314.873	3.74
315.247	3.7
315.621	3.45
315.995	4.06
316.369	3.57
316.743	4.31
317.117	4.25
317.491	3.8
317.865	3.52
318.239	3.59
318.613	4.04
318.987	3.82
319.361	3.74
319.734	4.02
320.108	4.25
320.482	3.14
320.855	3.88
321.229	3.91
321.602	4.14
321.976	3.69
322.349	4.2
322.723	3.94
323.096	4.45
323.469	3.92
323.843	4.45
324.216	4.61
324.589	4.23
324.962	4.61
325.335	4.31
325.708	3.97
326.081	4.41
326.454	4.18
326.827	4.2
327.2	4.28
327.573	4.2
327.945	4.63
328.318	3.81
328.691	4.48
329.063	4.37
329.436	5.06
329.809	4.25
330.181	4.48
330.553	4.91
330.926	4.96
331.298	5.04
331.671	4.6
332.043	4.53
332.415	4.21
332.787	4.56
333.159	4.43
333.532	4.6
333.904	5.01
334.276	5
334.648	4.87
335.02	4.48
335.391	5.27
335.763	4.51
336.135	5.33
336.507	4.72
336.879	4.82
337.25	5.31
337.622	5.04
337.993	5.14
338.365	5.22
338.736	5.52
339.108	5.55
339.479	5.43
339.851	4.88
340.222	5.17
340.593	5.28
340.964	5.36
341.336	5.05
341.707	4.86
342.078	5.1
342.449	5.37
342.82	5.43
343.191	5.13
343.562	5.55
343.933	5.76
344.303	5.7
344.674	5.32
345.045	5.44
345.416	5.37
345.786	5.58
346.157	5.59
346.527	6.13
346.898	5.74
347.268	5.83
347.639	5.55
348.009	6.01
348.38	5.75
348.75	5.78
349.12	5.83
349.49	5.81
349.861	5.89
350.231	6.15
350.601	5.98
350.971	5.58
351.341	6.04
351.711	6.08
352.081	5.89
352.45	5.87
352.82	6.22
353.19	6.36
353.56	6.16
353.929	5.79
354.299	6.61
354.669	6.8
355.038	6.47
355.408	6.17
355.777	6.46
356.147	6.05
356.516	6.34
356.885	6.51
357.254	6.37
357.624	6.49
357.993	6.59
358.362	6.5
358.731	6.43
359.1	6.61
359.469	6.58
359.838	6.54
360.207	6.42
360.576	6.73
360.945	7.14
361.314	7.09
361.682	6.61
362.051	6.6
362.42	6.9
362.788	6.49
363.157	6.57
363.525	6.81
363.894	6.77
364.262	7.01
364.631	7.15
364.999	7.01
365.367	7.02
365.735	7.11
366.104	6.99
366.472	7.17
366.84	6.71
367.208	7.12
367.576	7
367.944	7.31
368.312	7.34
368.68	7.03
369.048	7.17
369.416	7.08
369.783	7.16
370.151	7.3
370.519	7.99
370.886	7.2
371.254	7.79
371.621	7.47
371.989	7.67
372.356	7.7
372.724	7.45
373.091	7.73
373.458	7.38
373.826	7.69
374.193	7.29
374.56	7.65
374.927	8.17
375.294	7.32
375.661	7.95
376.028	7.67
376.395	7.86
376.762	8.14
377.129	7.93
377.496	8.05
377.863	7.91
378.229	7.88
378.596	7.92
378.963	7.82
379.329	8.07
379.696	8
380.062	8.25
380.429	8.08
380.795	7.95
381.161	8.38
381.528	8.18
381.894	8.17
382.26	8.29
382.626	8.24
382.993	8.55
383.359	8.66
383.725	8.49
384.091	8.15
384.457	8.73
384.823	8.64
385.188	8.57
385.554	8.53
385.92	8.18
386.286	8.65
386.651	8.57
387.017	8.48
387.383	8.93
387.748	8.71
388.114	8.61
388.479	9.26
388.845	8.86
389.21	9
389.575	8.85
389.94	8.87
390.306	8.96
390.671	9
391.036	9.09
391.401	9.24
391.766	9.01
392.131	8.97
392.496	8.95
392.861	9.11
393.226	8.89
393.591	9.02
393.956	9.44
394.32	9.01
394.685	9.46
395.05	9.5
395.414	9.26
395.779	9.45
396.143	9.39
396.508	9.45
396.872	9.23
397.236	9.52
397.601	9.54
397.965	9.57
398.329	9.63
398.694	9.76
399.058	9.7
399.422	9.35
399.786	9.8
400.15	9.76
400.514	9.77
400.878	9.76
401.242	9.99
401.605	9.74
401.969	9.8
402.333	9.76
402.697	10.01
403.06	10.21
403.424	10.1
403.787	10.11
404.151	10.26
404.514	10.13
404.878	10.15
405.241	10.21
405.604	10.19
405.968	10
406.331	10.01
406.694	10.17
407.057	10.19
407.42	10.17
407.783	10.07
408.146	10.12
408.509	10.45
408.872	10.32
409.235	10.57
409.598	10.48
409.961	10.45
410.323	10.55
410.686	10.49
411.049	10.67
411.411	10.48
411.774	10.89
412.136	10.67
412.499	10.95
412.861	10.78
413.223	10.72
413.586	10.75
413.948	11.09
414.31	10.92
414.672	10.91
415.035	11.22
415.397	10.7
415.759	11.34
416.121	10.87
416.483	11.15
416.845	11.03
417.206	10.98
417.568	11.26
417.93	11.1
418.292	11.12
418.653	11.11
419.015	11.1
419.377	10.99
419.738	11.17
420.1	11.21
420.461	11.11
420.822	10.97
421.184	11.17
421.545	11.08
421.906	11.2
422.267	11.17
422.629	11.22
422.99	11.06
423.351	11.03
423.712	11.14
424.073	11.4
424.434	11.4
424.795	11.43
425.155	11.53
425.516	11.35
425.877	11.36
426.238	11.37
426.598	11.43
426.959	11.54
427.32	11.51
427.68	11.69
428.041	11.77
428.401	11.96
428.761	12.01
429.122	11.96
429.482	12.15
429.842	11.86
430.202	12.26
430.563	12.01
430.923	12.36
431.283	12.05
431.643	12.24
432.003	12.38
432.363	12.42
432.722	12.34
433.082	12.46
433.442	12.33
433.802	12.28
434.161	12.35
434.521	12.4
434.881	12.37
435.24	12.3
435.6	12.43
435.959	12.36
436.319	12.49
436.678	12.71
437.037	12.79
437.396	12.77
437.756	12.75
438.115	12.63
438.474	12.77
438.833	12.87
439.192	12.74
439.551	12.79
439.91	13
440.269	12.8
440.628	13.03
440.987	12.96
441.345	12.96
441.704	12.9
442.063	12.82
442.421	12.97
442.78	12.86
443.138	12.91
443.497	12.98
443.855	13.07
444.214	13.23
444.572	13.4
444.93	13.36
445.288	13.44
445.647	13.3
446.005	13.47
446.363	13.33
446.721	13.16
447.079	13.35
447.437	13.16
447.795	13.25
448.153	13.26
448.51	13.28
448.868	13.32
449.226	13.16
449.584	13.38
449.941	13.45
450.299	13.62
450.656	13.61
451.014	13.74
451.371	13.92
451.729	13.97
452.086	13.81
452.443	13.99
452.801	14.13
453.158	13.99
453.515	14.01
453.872	13.97
454.229	14.14
454.586	13.94
454.943	14.16
455.3	14.23
455.657	14.14
456.014	14.38
456.371	14.35
456.727	14.39
457.084	14.36
457.441	14.31
457.797	14.48
458.154	14.5
458.51	14.48
458.867	14.51
459.223	14.62
459.58	14.8
459.936	14.67
460.292	14.56
460.648	14.64
461.005	14.5
461.361	14.45
461.717	14.23
462.073	14.4
462.429	14.51
462.785	14.61
463.141	14.96
463.496	14.95
463.852	15.06
464.208	15.05
464.564	14.93
464.919	15.25
465.275	15.22
465.631	15.26
465.986	15.35
466.342	15.12
466.697	15.19
467.052	15.29
467.408	15.27
467.763	15.5
468.118	15.53
468.473	15.5
468.829	15.42
469.184	15.54
469.539	15.44
469.894	15.53
470.249	15.64
470.603	15.67
470.958	15.71
471.313	15.71
471.668	15.88
472.023	15.78
472.377	15.79
472.732	16.02
473.086	15.86
473.441	16.12
473.795	15.96
474.15	16.11
474.504	15.97
474.859	15.85
475.213	16.08
475.567	16.25
475.921	16.02
476.275	16.39
476.63	16.41
476.984	16.43
477.338	16.33
477.692	16.53
478.045	16.4
478.399	16.31
478.753	16.39
479.107	16.33
479.461	16.46
479.814	16.62
480.168	16.44
480.521	16.56
480.875	16.59
481.228	16.71
481.582	16.72
481.935	16.82
482.289	16.78
482.642	16.81
482.995	16.74
483.348	16.55
483.701	16.72
484.055	16.62
484.408	16.6
484.761	16.4
485.114	16.13
485.466	15.86
485.819	15.75
486.172	15.82
486.525	16.16
486.878	16.49
487.23	16.71
487.583	16.75
487.936	16.88
488.288	16.78
488.641	16.64
488.993	16.41
489.345	16.43
489.698	16.49
490.05	16.56
490.402	16.67
490.754	16.89
491.107	17.12
491.459	17.32
491.811	17.39
492.163	17.61
492.515	17.52
492.866	17.31
493.218	16.97
493.57	16.81
493.922	16.97
494.274	17.21
494.625	17.53
494.977	17.83
495.328	17.95
495.68	17.89
496.031	18.18
496.383	18.14
496.734	18.24
497.086	18.37
497.437	18.32
497.788	18.31
498.139	18.09
498.49	18.08
498.842	18.21
499.193	18.2
499.544	18.3
499.894	18.41
500.245	18.48
500.596	18.39
500.947	18.53
501.298	18.53
501.648	18.86
501.999	18.79
502.35	18.8
502.7	18.78
503.051	19.06
503.401	18.96
503.752	19.15
504.102	19.09
504.452	19.01
504.803	19.12
505.153	19.13
505.503	19.21
505.853	19.14
506.203	19.27
506.553	19.34
506.903	19.47
507.253	19.31
507.603	19.31
507.953	19.57
508.303	19.63
508.652	19.5
509.002	19.58
509.352	19.59
509.701	19.56
510.051	19.54
510.4	19.51
510.75	19.59
511.099	19.57
511.449	19.58
511.798	19.58
512.147	19.68
512.496	19.71
512.846	19.74
513.195	19.89
513.544	19.72
513.893	19.88
514.242	19.85
514.591	19.89
514.939	20.12
515.288	20.11
515.637	20.18
515.986	20.28
516.334	20.33
516.683	20.52
517.032	20.46
517.38	20.5
517.729	20.42
518.077	20.48
518.426	20.49
518.774	20.52
519.122	20.44
519.47	20.4
519.819	20.3
520.167	20.28
520.515	20.25
520.863	20.33
521.211	20.32
521.559	20.43
521.907	20.69
522.255	20.72
522.602	20.85
522.95	20.92
523.298	21.08
523.645	21.12
523.993	21.24
524.341	21.3
524.688	21.1
525.036	21.21
525.383	21.29
525.73	21.36
526.078	21.31
526.425	21.33
526.772	21.21
527.119	21.11
527.466	20.92
527.814	20.93
528.161	21.03
528.508	21.09
528.854	21.33
529.201	21.19
529.548	21.19
529.895	20.93
530.242	20.65
530.588	20.57
530.935	20.71
531.282	20.91
531.628	21.11
531.975	21.43
532.321	21.64
532.667	21.71
533.014	21.88
533.36	22.03
533.706	22.06
534.052	21.83
534.399	21.77
534.745	21.66
535.091	21.36
535.437	21.42
535.783	21.56
536.129	21.84
536.474	22.2
536.82	22.31
537.166	22.46
537.512	22.68
537.857	22.51
538.203	22.24
538.549	22.17
538.894	22.32
539.239	22.35
539.585	22.59
539.93	22.84
540.276	22.92
540.621	22.88
540.966	23.08
541.311	23.05
541.656	23.05
542.001	22.99
542.346	22.7
542.691	22.6
543.036	22.17
543.381	22.11
543.726	22.43
544.071	22.6
544.415	22.87
544.76	23.09
545.105	23.07
545.449	23.19
545.794	23.2
546.138	23.41
546.483	23.59
546.827	23.74
547.171	23.63
547.516	23.63
547.86	23.8
548.204	23.77
548.548	23.51
548.892	23.62
549.236	23.78
549.58	24.03
549.924	24.1
550.268	24.27
550.612	24.41
550.956	24.46
551.3	24.58
551.643	24.58
551.987	24.55
552.33	24.83
552.674	24.93
553.017	25.01
553.361	25.17
553.704	24.8
554.048	24.76
554.391	24.5
554.734	24.65
555.077	24.74
555.42	25
555.764	25.31
556.107	25.2
556.45	25.21
556.793	25.15
557.135	25.36
557.478	25.33
557.821	25.35
558.164	25.55
558.507	25.6
558.849	25.57
559.192	25.63
559.534	25.44
559.877	25.7
560.219	25.82
560.562	25.87
560.904	26
561.246	25.75
561.589	25.86
561.931	25.89
562.273	26.28
562.615	26.04
562.957	26
563.299	26.05
563.641	26.01
563.983	26.13
564.325	26.24
564.667	26.33
565.008	26.17
565.35	26.54
565.692	26.45
566.033	26.69
566.375	26.64
566.716	26.52
567.058	26.38
567.399	26.72
567.741	26.72
568.082	26.46
568.423	26.39
568.764	26.47
569.105	26.71
569.447	26.72
569.788	26.86
570.129	27.13
570.47	27.18
570.811	27.05
571.151	27.01
571.492	27.09
571.833	27.19
572.174	27.09
572.514	27.1
572.855	26.91
573.195	27.19
573.536	27.04
573.876	27.11
574.217	27.27
574.557	27.08
574.898	27.55
575.238	27.52
575.578	27.58
575.918	27.63
576.258	27.75
576.598	27.49
576.938	27.61
577.278	27.55
577.618	27.55
577.958	27.69
578.298	27.81
578.638	27.93
578.977	28.01
579.317	28
579.657	28.24
579.996	28.05
580.336	28.28
580.675	28.27
581.014	28.59
581.354	28.41
581.693	28.75
582.032	28.68
582.372	28.85
582.711	28.69
583.05	28.74
583.389	28.64
583.728	28.95
584.067	28.94
584.406	28.61
584.745	29.17
585.083	28.99
585.422	29.07
585.761	29.02
586.1	28.79
586.438	29.06
586.777	29.13
587.115	29.34
587.454	29.6
587.792	29.34
588.13	29.36
588.469	29.62
588.807	29.56
589.145	29.57
589.483	29.39
589.821	29.5
590.159	29.6
590.497	29.77
590.835	29.78
591.173	29.53
591.511	29.73
591.849	29.73
592.187	29.71
592.524	29.83
592.862	29.83
593.2	29.76
593.537	29.99
593.875	30.22
594.212	30.39
594.55	30.18
594.887	30.23
595.224	30.23
595.561	30.05
595.899	30.19
596.236	30.56
596.573	30.11
596.91	30.3
597.247	30.3
597.584	30.16
597.921	30.57
598.258	30.5
598.594	30.12
598.931	30.21
599.268	30.25
599.604	30.32
599.941	30.17
600.277	30.57
600.614	30.95
600.95	31.13
601.287	30.93
601.623	30.84
601.959	30.98
602.296	31.21
602.632	30.97
602.968	31.28
603.304	31.07
603.64	31.41
603.976	31.13
604.312	31.44
604.648	31.06
604.984	31.15
605.319	31.23
605.655	31
605.991	31.16
606.326	31.2
606.662	31.01
606.998	31.09
607.333	31.3
607.668	31.48
608.004	31.66
608.339	31.64
608.674	31.81
609.01	31.93
609.345	32.05
609.68	31.99
610.015	31.93
610.35	31.92
610.685	31.58
611.02	31.91
611.355	31.72
611.689	31.92
612.024	31.89
612.359	32.09
612.694	32.02
613.028	32.26
613.363	32.37
613.697	32.32
614.032	32.74
614.366	32.58
614.7	32.96
615.035	32.69
615.369	32.88
615.703	33.09
616.037	32.58
616.371	33.21
616.705	32.93
617.039	32.92
617.373	33.04
617.707	33.04
618.041	33.15
618.375	33.02
618.709	33.59
619.042	33.23
619.376	33.06
619.71	33.15
620.043	33.59
620.377	33.3
620.71	33.59
621.043	33.26
621.377	33.54
621.71	33.65
622.043	33.39
622.376	34.09
622.709	33.76
623.043	33.7
623.376	34.22
623.709	33.91
624.041	34.25
624.374	34.19
624.707	33.98
625.04	34.02
625.373	34.11
625.705	34.06
626.038	33.81
626.37	34.1
626.703	34.23
627.035	33.9
627.368	33.98
627.7	34.11
628.032	33.94
628.365	34.19
628.697	33.96
629.029	34.22
629.361	33.97
629.693	34.23
630.025	34.42
630.357	34.21
630.689	34.57
631.021	34.57
631.353	34.57
631.684	34.62
632.016	34.76
632.348	35
632.679	34.85
633.011	34.96
633.342	34.96
633.674	34.88
634.005	34.81
634.336	35.23
634.668	34.91
634.999	35.4
635.33	34.98
635.661	35.07
635.992	35.11
636.323	35.15
636.654	34.81
636.985	35.44
637.316	35.21
637.647	34.95
637.977	35.25
638.308	35.58
638.639	35.82
638.969	35.19
639.3	35.98
639.63	35.56
639.961	35.58
640.291	36.04
640.622	35.8
640.952	35.93
641.282	35.6
641.612	35.79
641.943	35.88
642.273	35.95
642.603	36.08
642.933	35.81
643.263	35.72
643.592	36.03
643.922	36.62
644.252	36.29
644.582	36.05
644.911	35.91
645.241	35.61
645.571	36.04
645.9	36.59
646.23	36.55
646.559	37.15
646.888	36.32
647.218	36.53
647.547	36.31
647.876	36.36
648.205	36.6
648.534	36.67
648.863	36.51
649.192	37.27
649.521	36.74
649.85	37
650.179	36.8
650.508	36.96
650.837	36.8
651.165	36.65
651.494	36.85
651.822	36.86
652.151	36.96
652.479	36.66
652.808	37.25
653.136	36.91
653.465	37.25
653.793	36.92
654.121	36.98
654.449	36.85
654.777	36.98
655.105	37.02
655.433	37.17
655.761	37.18
656.089	37.21
656.417	37.6
656.745	37.21
657.073	37.55
657.4	37.34
657.728	37.69
658.056	37.24
658.383	38.15
658.711	37.06
659.038	37.27
659.365	38.29
659.693	37.41
660.02	37.93
660.347	37.12
660.674	37.36
661.001	37.61
661.329	37.4
661.656	37.95
661.982	37.61
662.309	38.07
662.636	37.63
662.963	37.86
663.29	37.36
663.616	38.02
663.943	37.91
664.27	38.05
664.596	38.33
664.923	37.97
665.249	38.1
665.576	38.33
665.902	38
666.228	37.89
666.554	38.74
666.881	38.27
667.207	38.62
667.533	38.37
667.859	38.99
668.185	38.25
668.511	39.14
668.837	38.56
669.162	39.38
669.488	38.6
669.814	38.45
670.139	38.98
670.465	39.21
670.791	39.06
671.116	38.8
671.442	38.72
671.767	39.1
672.092	38.92
672.418	38.86
672.743	39.55
673.068	38.94
673.393	39.16
673.718	38.85
674.043	38.71
674.368	38.78
