Data from 0040_forehead_Reflection__0__70.txt Node

Date: Fri Nov 04 15:21:16 CDT 2022
User: ToomeyLab
Spectrometer: FLMS14357
Trigger mode: 0
Integration Time (sec): 1.000000E-2
Scans to average: 100
Electric dark correction enabled: true
Nonlinearity correction enabled: false
Boxcar width: 0
XAxis mode: Wavelengths
Number of Pixels in Spectrum: 2048
>>>>>Begin Spectral Data<<<<<
189.047	89.63
189.435	89.63
189.823	89.63
190.211	-25.48
190.599	-404.7
190.987	-75.97
191.375	882.7
191.763	125.38
192.151	410.26
192.538	492.39
192.926	-983.87
193.314	19.35
193.702	75.48
194.089	3.97
194.477	-1539.86
194.864	-883.55
195.252	116.51
195.639	433.91
196.027	438.95
196.414	40.28
196.801	183.9
197.189	-8
197.576	135.87
197.963	145
198.351	-63.22
198.738	24.98
199.125	2.25
199.512	-21.01
199.899	36.09
200.286	-2.34
200.673	8.73
201.06	36.82
201.447	-10.36
201.833	37.58
202.22	0.16
202.607	41.26
202.994	72.8
203.38	16.35
203.767	35.77
204.154	24.32
204.54	-51.46
204.927	-30.38
205.313	24.67
205.699	7.93
206.086	10.87
206.472	3.53
206.858	34.69
207.245	25.82
207.631	32.99
208.017	20.69
208.403	34.98
208.789	8.9
209.175	5.33
209.561	-80.83
209.947	-71.51
210.333	12.22
210.719	-4.59
211.105	-65.68
211.491	25.86
211.876	-12.41
212.262	1.79
212.648	-9.65
213.034	40.64
213.419	33.58
213.805	-20.15
214.19	-2.79
214.576	9.08
214.961	39.59
215.346	1.78
215.732	-3.23
216.117	-0.25
216.502	25.16
216.888	-8.01
217.273	23.7
217.658	2.88
218.043	-7.02
218.428	23.31
218.813	-4.46
219.198	12.22
219.583	-13.89
219.968	24.31
220.353	-44.73
220.738	4.28
221.122	9.43
221.507	15.95
221.892	-19.45
222.276	5.63
222.661	6.49
223.046	-1.78
223.43	7.67
223.815	9.46
224.199	10.46
224.583	9.04
224.968	-8.38
225.352	3.55
225.736	4.49
226.121	0.6
226.505	6.21
226.889	4.89
227.273	4.62
227.657	3.65
228.041	5.05
228.425	2.86
228.809	4.28
229.193	1.31
229.577	0.1
229.961	3.96
230.344	3.51
230.728	2.52
231.112	0.42
231.495	1.2
231.879	3.3
232.263	1.89
232.646	4.31
233.03	0.87
233.413	-0.92
233.797	2.37
234.18	1.46
234.563	3.98
234.946	2.18
235.33	3.28
235.713	1.97
236.096	2.63
236.479	0.11
236.862	1.85
237.245	1.61
237.628	1.62
238.011	1.4
238.394	3.5
238.777	2.63
239.16	1.64
239.543	1.24
239.925	1.65
240.308	2.31
240.691	3
241.073	0.2
241.456	2.91
241.838	1.05
242.221	1.5
242.603	1.89
242.986	1.3
243.368	1.76
243.75	1.69
244.133	1.9
244.515	2.04
244.897	1.94
245.279	2.1
245.661	2.2
246.043	2.51
246.425	2.7
246.807	3.23
247.189	1.97
247.571	2.39
247.953	2.44
248.335	1.88
248.717	1.95
249.098	2.08
249.48	1.99
249.862	2.12
250.243	2.21
250.625	1.4
251.006	1.93
251.388	2.12
251.769	2.32
252.151	2.03
252.532	2.11
252.913	1.48
253.295	2.45
253.676	2.3
254.057	1.53
254.438	1.92
254.819	2.23
255.2	1.05
255.581	3.29
255.962	2.77
256.343	2.14
256.724	2.24
257.105	2.32
257.486	2.37
257.867	3.56
258.247	2.29
258.628	1.56
259.009	2.05
259.389	1.79
259.77	1.46
260.15	1.87
260.531	2.23
260.911	1.98
261.292	1.95
261.672	1.83
262.052	1.89
262.432	2.07
262.813	1.83
263.193	1.3
263.573	2
263.953	2
264.333	2.03
264.713	2.96
265.093	1.94
265.473	2.66
265.853	1.85
266.233	1.77
266.612	2.15
266.992	3.04
267.372	1.07
267.752	2.32
268.131	2.12
268.511	2.36
268.89	2.16
269.27	1.94
269.649	2.04
270.029	2.17
270.408	1.31
270.787	2.14
271.167	1.72
271.546	2.81
271.925	2.13
272.304	1.56
272.683	1.99
273.062	1.76
273.441	2.05
273.82	1.68
274.199	2.11
274.578	1.73
274.957	2
275.336	1.69
275.715	2.01
276.093	2.24
276.472	1.93
276.851	1.18
277.229	2.26
277.608	1.51
277.986	2.48
278.365	2
278.743	1.94
279.122	1.78
279.5	1.74
279.878	2.07
280.257	2.21
280.635	1.13
281.013	1.32
281.391	2.3
281.769	2.74
282.147	1.39
282.525	1.95
282.903	1.92
283.281	2.38
283.659	2.12
284.037	1.7
284.415	1.97
284.792	2
285.17	1.65
285.548	2.33
285.925	1.82
286.303	2.31
286.68	2.4
287.058	2.08
287.435	2.05
287.813	1.75
288.19	2.12
288.567	1.91
288.945	1.98
289.322	2.18
289.699	2.2
290.076	2.44
290.453	1.59
290.83	1.83
291.207	1.82
291.584	2.12
291.961	2.28
292.338	2.75
292.715	2.46
293.092	2.34
293.469	2.1
293.845	1.94
294.222	1.72
294.599	1.54
294.975	1.98
295.352	2.49
295.728	2.84
296.105	2.4
296.481	2.17
296.858	2.85
297.234	2.82
297.61	2.43
297.986	1.96
298.363	2.11
298.739	2.38
299.115	2.64
299.491	2.28
299.867	2.48
300.243	2.61
300.619	3
300.995	2.6
301.371	2.77
301.746	2.53
302.122	2.71
302.498	2.66
302.874	3.1
303.249	2.47
303.625	2.31
304	3.19
304.376	2.61
304.751	2.55
305.127	2.26
305.502	2.98
305.878	2.88
306.253	3.12
306.628	2.6
307.003	2.65
307.378	3.22
307.754	3.34
308.129	2.7
308.504	2.86
308.879	2.83
309.254	3.2
309.629	2.88
310.003	3.03
310.378	3.36
310.753	3.28
311.128	3.03
311.502	2.33
311.877	3.14
312.252	2.61
312.626	3.41
313.001	3.03
313.375	3.04
313.75	2.89
314.124	3.09
314.498	3.25
314.873	3.47
315.247	3.42
315.621	3.74
315.995	3.62
316.369	3.32
316.743	3.73
317.117	3.87
317.491	3.46
317.865	3.15
318.239	3.71
318.613	3.71
318.987	3.22
319.361	3.2
319.734	3.74
320.108	2.99
320.482	2.84
320.855	3.49
321.229	3.45
321.602	3.17
321.976	3.63
322.349	4.3
322.723	3.76
323.096	3.69
323.469	3.24
323.843	3.95
324.216	3.67
324.589	3.76
324.962	3.89
325.335	3.84
325.708	3.45
326.081	3.54
326.454	3.95
326.827	4.04
327.2	3.72
327.573	3.85
327.945	4.42
328.318	3.43
328.691	3.89
329.063	3.95
329.436	3.83
329.809	4.11
330.181	4.25
330.553	3.85
330.926	3.66
331.298	4.56
331.671	3.74
332.043	3.89
332.415	4.16
332.787	3.59
333.159	3.79
333.532	3.78
333.904	4
334.276	3.98
334.648	4.29
335.02	3.69
335.391	4.41
335.763	4.4
336.135	4.06
336.507	3.99
336.879	3.9
337.25	4.04
337.622	4.54
337.993	4.64
338.365	4.22
338.736	4.62
339.108	4.71
339.479	4.8
339.851	3.83
340.222	4.53
340.593	4.75
340.964	4.6
341.336	4.04
341.707	4.03
342.078	4.29
342.449	4.41
342.82	4.73
343.191	4.3
343.562	4.43
343.933	4.27
344.303	4.6
344.674	4.65
345.045	4.29
345.416	4.03
345.786	4.77
346.157	4.52
346.527	4.68
346.898	4.71
347.268	4.15
347.639	4.26
348.009	4.75
348.38	4.7
348.75	4.67
349.12	4.48
349.49	4.75
349.861	4.6
350.231	4.99
350.601	4.69
350.971	4.5
351.341	4.71
351.711	4.48
352.081	5.13
352.45	4.98
352.82	4.75
353.19	4.36
353.56	4.94
353.929	4.94
354.299	5.21
354.669	4.98
355.038	5.29
355.408	4.56
355.777	4.76
356.147	4.7
356.516	4.78
356.885	4.96
357.254	5.14
357.624	4.93
357.993	5.1
358.362	4.65
358.731	5
359.1	4.78
359.469	5.04
359.838	4.99
360.207	4.94
360.576	5.15
360.945	5.37
361.314	5.36
361.682	4.95
362.051	5.19
362.42	5.23
362.788	5.03
363.157	5.11
363.525	5.11
363.894	5.01
364.262	5.26
364.631	5.11
364.999	5.55
365.367	5.32
365.735	5.33
366.104	5.11
366.472	5.48
366.84	4.85
367.208	5.19
367.576	5.16
367.944	5.34
368.312	5.54
368.68	5.43
369.048	5.39
369.416	5.32
369.783	5.44
370.151	5.42
370.519	5.8
370.886	5.34
371.254	5.8
371.621	5.76
371.989	5.65
372.356	5.62
372.724	5.71
373.091	5.78
373.458	5.49
373.826	5.57
374.193	5.62
374.56	5.52
374.927	5.76
375.294	5.49
375.661	5.98
376.028	5.8
376.395	5.94
376.762	6.2
377.129	5.89
377.496	5.77
377.863	5.92
378.229	5.63
378.596	5.76
378.963	6.12
379.329	5.68
379.696	5.76
380.062	6.17
380.429	5.89
380.795	5.71
381.161	5.94
381.528	6.08
381.894	6.06
382.26	6.2
382.626	6.03
382.993	5.74
383.359	5.94
383.725	6.02
384.091	6.11
384.457	6.06
384.823	6.22
385.188	6.48
385.554	5.92
385.92	6.43
386.286	5.82
386.651	5.92
387.017	6.26
387.383	6.17
387.748	6.09
388.114	6.44
388.479	6.66
388.845	6.36
389.21	6.55
389.575	6.65
389.94	6.35
390.306	6.66
390.671	6.55
391.036	6.38
391.401	6.42
391.766	6.23
392.131	6.29
392.496	6.5
392.861	6.61
393.226	6.37
393.591	6.64
393.956	6.72
394.32	6.48
394.685	6.73
395.05	6.59
395.414	6.48
395.779	6.76
396.143	6.63
396.508	6.44
396.872	6.67
397.236	6.94
397.601	6.64
397.965	6.81
398.329	6.96
398.694	6.99
399.058	6.98
399.422	6.72
399.786	6.82
400.15	6.86
400.514	7.02
400.878	6.9
401.242	7.04
401.605	6.91
401.969	7.03
402.333	6.98
402.697	6.92
403.06	7.09
403.424	7.05
403.787	7
404.151	7.02
404.514	7.13
404.878	7.13
405.241	7.11
405.604	7.06
405.968	7.01
406.331	7.05
406.694	7.08
407.057	7.17
407.42	7.14
407.783	7.03
408.146	7.42
408.509	7.38
408.872	7.18
409.235	7.29
409.598	7.38
409.961	7.38
410.323	7.35
410.686	7.36
411.049	7.36
411.411	7.19
411.774	7.35
412.136	7.58
412.499	7.71
412.861	7.53
413.223	7.33
413.586	7.44
413.948	7.49
414.31	7.42
414.672	7.6
415.035	7.94
415.397	7.45
415.759	7.85
416.121	7.68
416.483	7.74
416.845	7.68
417.206	7.53
417.568	7.81
417.93	7.67
418.292	7.65
418.653	7.85
419.015	7.59
419.377	7.58
419.738	7.53
420.1	7.74
420.461	7.67
420.822	7.53
421.184	7.71
421.545	7.7
421.906	7.62
422.267	7.54
422.629	7.74
422.99	7.54
423.351	7.52
423.712	7.71
424.073	7.8
424.434	7.77
424.795	7.85
425.155	7.98
425.516	7.78
425.877	7.73
426.238	7.7
426.598	7.79
426.959	7.8
427.32	7.77
427.68	8
428.041	7.94
428.401	8.02
428.761	8.23
429.122	8.16
429.482	8.3
429.842	8.08
430.202	8.38
430.563	8.25
430.923	8.11
431.283	8.18
431.643	8.4
432.003	8.66
432.363	8.64
432.722	8.46
433.082	8.51
433.442	8.36
433.802	8.41
434.161	8.46
434.521	8.42
434.881	8.48
435.24	8.19
435.6	8.44
435.959	8.41
436.319	8.52
436.678	8.6
437.037	8.54
437.396	8.72
437.756	8.67
438.115	8.55
438.474	8.64
438.833	8.66
439.192	8.68
439.551	8.65
439.91	8.8
440.269	8.78
440.628	8.74
440.987	8.64
441.345	8.71
441.704	8.67
442.063	8.62
442.421	8.8
442.78	8.72
443.138	8.69
443.497	8.72
443.855	8.78
444.214	9.03
444.572	8.94
444.93	9.02
445.288	9.06
445.647	8.84
446.005	8.92
446.363	8.94
446.721	8.93
447.079	9
447.437	8.89
447.795	8.92
448.153	8.91
448.51	8.93
448.868	8.92
449.226	8.94
449.584	8.95
449.941	8.95
450.299	9.16
450.656	9.12
451.014	9.25
451.371	9.4
451.729	9.38
452.086	9.41
452.443	9.42
452.801	9.45
453.158	9.58
453.515	9.59
453.872	9.4
454.229	9.5
454.586	9.48
454.943	9.44
455.3	9.49
455.657	9.42
456.014	9.62
456.371	9.54
456.727	9.8
457.084	9.74
457.441	9.69
457.797	9.59
458.154	9.76
458.51	9.9
458.867	9.76
459.223	9.71
459.58	10.01
459.936	9.72
460.292	9.9
460.648	9.81
461.005	9.67
461.361	9.66
461.717	9.63
462.073	9.62
462.429	9.71
462.785	9.86
463.141	9.94
463.496	9.95
463.852	10.19
464.208	10.11
464.564	10.17
464.919	10.13
465.275	10.31
465.631	10.28
465.986	10.38
466.342	10.21
466.697	10.23
467.052	10.19
467.408	10.37
467.763	10.35
468.118	10.55
468.473	10.36
468.829	10.21
469.184	10.26
469.539	10.29
469.894	10.47
470.249	10.34
470.603	10.43
470.958	10.43
471.313	10.52
471.668	10.28
472.023	10.38
472.377	10.68
472.732	10.52
473.086	10.69
473.441	10.63
473.795	10.84
474.15	10.59
474.504	10.87
474.859	10.53
475.213	10.71
475.567	10.67
475.921	10.72
476.275	10.98
476.63	10.89
476.984	10.81
477.338	10.99
477.692	11.02
478.045	11.1
478.399	10.77
478.753	10.91
479.107	10.98
479.461	11.21
479.814	11.13
480.168	11.09
480.521	10.92
480.875	10.96
481.228	11.19
481.582	11.16
481.935	11.11
482.289	11.11
482.642	11.15
482.995	11.05
483.348	11.05
483.701	11.07
484.055	10.92
484.408	11.02
484.761	10.94
485.114	10.74
485.466	10.58
485.819	10.4
486.172	10.49
486.525	10.67
486.878	10.93
487.23	11.12
487.583	11.14
487.936	11.29
488.288	11.14
488.641	11.04
488.993	10.95
489.345	10.87
489.698	10.9
490.05	10.99
490.402	11.02
490.754	11.23
491.107	11.36
491.459	11.59
491.811	11.55
492.163	11.7
492.515	11.69
492.866	11.5
493.218	11.26
493.57	11.15
493.922	11.26
494.274	11.35
494.625	11.59
494.977	11.74
495.328	11.95
495.68	12.01
496.031	11.98
496.383	12.15
496.734	12.15
497.086	12.34
497.437	12.18
497.788	12.34
498.139	12.07
498.49	12.01
498.842	12.04
499.193	12.05
499.544	12.19
499.894	12.06
500.245	12.37
500.596	12.23
500.947	12.27
501.298	12.35
501.648	12.58
501.999	12.7
502.35	12.62
502.7	12.61
503.051	12.57
503.401	12.65
503.752	12.63
504.102	12.72
504.452	12.82
504.803	12.75
505.153	12.8
505.503	12.63
505.853	12.72
506.203	12.81
506.553	12.87
506.903	12.92
507.253	12.96
507.603	12.79
507.953	12.83
508.303	12.94
508.652	12.88
509.002	13.16
509.352	13.1
509.701	12.97
510.051	13
510.4	12.87
510.75	12.94
511.099	13.1
511.449	12.94
511.798	12.95
512.147	13.17
512.496	13.08
512.846	13
513.195	13.24
513.544	13.18
513.893	13.25
514.242	13.2
514.591	13.23
514.939	13.52
515.288	13.45
515.637	13.39
515.986	13.39
516.334	13.55
516.683	13.58
517.032	13.47
517.38	13.72
517.729	13.71
518.077	13.78
518.426	13.58
518.774	13.64
519.122	13.59
519.47	13.44
519.819	13.47
520.167	13.47
520.515	13.48
520.863	13.5
521.211	13.58
521.559	13.59
521.907	13.75
522.255	13.76
522.602	13.84
522.95	14.01
523.298	13.99
523.645	14.09
523.993	14.07
524.341	14.15
524.688	14.11
525.036	14.13
525.383	14.27
525.73	14.15
526.078	14.36
526.425	14.23
526.772	14.16
527.119	13.99
527.466	14
527.814	13.89
528.161	13.98
528.508	14.05
528.854	14.11
529.201	14.09
529.548	14.05
529.895	13.83
530.242	13.67
530.588	13.56
530.935	13.65
531.282	13.91
531.628	13.99
531.975	14.17
532.321	14.39
532.667	14.4
533.014	14.53
533.36	14.56
533.706	14.64
534.052	14.57
534.399	14.46
534.745	14.35
535.091	14.3
535.437	14.21
535.783	14.39
536.129	14.59
536.474	14.77
536.82	14.9
537.166	15
537.512	15.11
537.857	15.03
538.203	14.93
538.549	14.77
538.894	14.79
539.239	15.02
539.585	15.08
539.93	15.25
540.276	15.25
540.621	15.35
540.966	15.43
541.311	15.34
541.656	15.43
542.001	15.46
542.346	15.2
542.691	15.16
543.036	14.87
543.381	14.81
543.726	14.83
544.071	15.08
544.415	15.26
544.76	15.31
545.105	15.3
545.449	15.44
545.794	15.53
546.138	15.64
546.483	15.86
546.827	15.75
547.171	15.85
547.516	15.89
547.86	15.83
548.204	15.84
548.548	15.89
548.892	15.73
549.236	15.81
549.58	16.04
549.924	16.15
550.268	16.24
550.612	16.13
550.956	16.32
551.3	16.41
551.643	16.58
551.987	16.28
552.33	16.6
552.674	16.45
553.017	16.77
553.361	16.61
553.704	16.51
554.048	16.65
554.391	16.64
554.734	16.67
555.077	16.71
555.42	16.76
555.764	16.94
556.107	16.9
556.45	16.95
556.793	17.07
557.135	16.99
557.478	16.87
557.821	17.11
558.164	17.09
558.507	17.13
558.849	17.27
559.192	17.16
559.534	17.15
559.877	17.16
560.219	17.42
560.562	17.24
560.904	17.45
561.246	17.3
561.589	17.24
561.931	17.3
562.273	17.54
562.615	17.26
562.957	17.47
563.299	17.27
563.641	17.58
563.983	17.55
564.325	17.57
564.667	17.64
565.008	17.65
565.35	17.62
565.692	17.97
566.033	18
566.375	17.62
566.716	17.76
567.058	17.96
567.399	17.75
567.741	17.91
568.082	17.89
568.423	17.66
568.764	17.96
569.105	17.99
569.447	18.11
569.788	18.1
570.129	18.18
570.47	18.21
570.811	18.25
571.151	18.29
571.492	18.25
571.833	18.33
572.174	18.42
572.514	18.22
572.855	18.35
573.195	18.38
573.536	18.1
573.876	18.09
574.217	18.24
574.557	18.23
574.898	18.48
575.238	18.53
575.578	18.55
575.918	18.58
576.258	18.66
576.598	18.73
576.938	18.74
577.278	18.55
577.618	18.69
577.958	18.64
578.298	18.85
578.638	18.82
578.977	18.89
579.317	18.88
579.657	19.11
579.996	18.93
580.336	19.02
580.675	18.88
581.014	19.31
581.354	19.42
581.693	19.45
582.032	19
582.372	19.48
582.711	19.26
583.05	19.64
583.389	19.35
583.728	19.48
584.067	19.44
584.406	19.44
584.745	19.69
585.083	19.43
585.422	19.63
585.761	19.43
586.1	19.51
586.438	19.56
586.777	19.64
587.115	19.9
587.454	20.04
587.792	19.96
588.13	19.8
588.469	20.1
588.807	19.83
589.145	19.86
589.483	19.75
589.821	20.06
590.159	19.84
590.497	20.13
590.835	20.19
591.173	20.05
591.511	20.06
591.849	20.04
592.187	20.31
592.524	20.27
592.862	20.27
593.2	20.46
593.537	20.2
593.875	20.56
594.212	20.44
594.55	20.53
594.887	20.52
595.224	20.47
595.561	20.2
595.899	20.22
596.236	20.61
596.573	20.55
596.91	20.65
597.247	20.45
597.584	20.41
597.921	20.88
598.258	20.67
598.594	20.34
598.931	20.47
599.268	20.56
599.604	20.57
599.941	20.69
600.277	20.78
600.614	21.06
600.95	21.13
601.287	20.83
601.623	21.05
601.959	21.21
602.296	21.17
602.632	21.16
602.968	21.12
603.304	21.29
603.64	21.11
603.976	21.04
604.312	21.32
604.648	21.12
604.984	21.2
605.319	21.11
605.655	21.29
605.991	21.42
606.326	21.15
606.662	21.15
606.998	21.03
607.333	21.17
607.668	21.4
608.004	21.43
608.339	21.62
608.674	21.54
609.01	21.6
609.345	21.71
609.68	21.61
610.015	21.76
610.35	21.44
610.685	21.75
611.02	21.52
611.355	21.62
611.689	21.54
612.024	21.7
612.359	21.97
612.694	21.83
613.028	22.28
613.363	22.21
613.697	22.08
614.032	22.06
614.366	22.12
614.7	22.08
615.035	22.1
615.369	22.17
615.703	22.44
616.037	22.29
616.371	22.32
616.705	22.67
617.039	22.83
617.373	22.81
617.707	22.67
618.041	22.32
618.375	22.16
618.709	22.51
619.042	22.98
619.376	22.57
619.71	23.04
620.043	23.01
620.377	22.84
620.71	22.96
621.043	22.88
621.377	22.81
621.71	22.83
622.043	22.8
622.376	23.22
622.709	23.11
623.043	22.78
623.376	23.29
623.709	22.69
624.041	23.16
624.374	22.88
624.707	22.95
625.04	23.2
625.373	23.49
625.705	22.81
626.038	23.38
626.37	23.21
626.703	23.55
627.035	23.12
627.368	23.28
627.7	22.96
628.032	23.52
628.365	23.29
628.697	23.08
629.029	23.01
629.361	23.51
629.693	23.48
630.025	23.71
630.357	23.17
630.689	23.35
631.021	23.19
631.353	23.31
631.684	23.51
632.016	23.89
632.348	23.65
632.679	23.69
633.011	23.64
633.342	23.54
633.674	23.67
634.005	23.9
634.336	23.91
634.668	24.14
634.999	24.15
635.33	23.73
635.661	24.11
635.992	23.6
636.323	23.55
636.654	23.62
636.985	23.96
637.316	24.08
637.647	23.98
637.977	24.28
638.308	24.28
638.639	24.61
638.969	24.03
639.3	24.38
639.63	24.24
639.961	24.47
640.291	24.35
640.622	24.61
640.952	24.02
641.282	24.18
641.612	24.57
641.943	24.76
642.273	24.39
642.603	24.58
642.933	24.84
643.263	24.39
643.592	24.67
643.922	24.74
644.252	24.48
644.582	24.55
644.911	25.28
645.241	24.96
645.571	24.79
645.9	24.72
646.23	24.65
646.559	25.14
646.888	24.86
647.218	25.02
647.547	24.63
647.876	25.31
648.205	25.03
648.534	25.56
648.863	24.81
649.192	25.51
649.521	24.96
649.85	25.1
650.179	25.54
650.508	25.04
650.837	25.36
651.165	25.34
651.494	25.28
651.822	25.31
652.151	25.4
652.479	25.62
652.808	25.29
653.136	25.32
653.465	25.06
653.793	25.8
654.121	24.87
654.449	25.3
654.777	25.88
655.105	25.7
655.433	25.47
655.761	25.73
656.089	25.31
656.417	25.71
656.745	25.16
657.073	25.6
657.4	25.15
657.728	26.02
658.056	25.29
658.383	25.75
658.711	25.68
659.038	25.97
659.365	26.51
659.693	25.9
660.02	26.12
660.347	25.92
660.674	25.65
661.001	25.61
661.329	25.86
661.656	26.02
661.982	25.86
662.309	26.13
662.636	25.91
662.963	25.76
663.29	25.6
663.616	26.02
663.943	26.05
664.27	26.02
664.596	26.55
664.923	26.16
665.249	25.97
665.576	26.29
665.902	25.53
666.228	26.54
666.554	26.4
666.881	26.39
667.207	26.8
667.533	25.71
667.859	26.52
668.185	26.37
668.511	26.36
668.837	26.38
669.162	26.7
669.488	26.51
669.814	26.75
670.139	26.71
670.465	26.71
670.791	26.59
671.116	26.66
671.442	26.63
671.767	26.41
672.092	26.38
672.418	26.86
672.743	26.9
673.068	26.7
673.393	27.44
673.718	27.29
674.043	26.78
674.368	26.66
674.693	27.12
675.018	27.27
675.343	27.7
675.667	26.72
675.992	27.41
676.317	27.44
676.641	27.14
676.966	26.57
677.29	26.97
677.615	27.31
677.939	27.49
678.264	27.13
678.588	27.87
