Data from 0040_chest_Reflection__4__64.txt Node

Date: Fri Nov 04 15:14:45 CDT 2022
User: ToomeyLab
Spectrometer: FLMS14357
Trigger mode: 0
Integration Time (sec): 1.000000E-2
Scans to average: 100
Electric dark correction enabled: true
Nonlinearity correction enabled: false
Boxcar width: 0
XAxis mode: Wavelengths
Number of Pixels in Spectrum: 2048
>>>>>Begin Spectral Data<<<<<
189.047	234.2
189.435	234.2
189.823	234.2
190.211	-92.45
190.599	-287.11
190.987	101.82
191.375	527.95
191.763	-19.45
192.151	60.03
192.538	528.75
192.926	-122.22
193.314	-102.19
193.702	94.48
194.089	21.79
194.477	1089.32
194.864	1563.2
195.252	180.73
195.639	618.26
196.027	301.37
196.414	-9.94
196.801	135.45
197.189	-51.04
197.576	67.69
197.963	199.78
198.351	13.56
198.738	39.68
199.125	24.68
199.512	-55.74
199.899	-54.75
200.286	-24.54
200.673	16.6
201.06	38.92
201.447	-48.14
201.833	15.79
202.22	25.28
202.607	-3.27
202.994	50.87
203.38	9.13
203.767	38.19
204.154	57.84
204.54	-40.03
204.927	23.67
205.313	22.32
205.699	35.14
206.086	2.67
206.472	-17.69
206.858	-10.69
207.245	-15.65
207.631	36.34
208.017	16.97
208.403	2.08
208.789	35
209.175	0.09
209.561	-66.14
209.947	-43.65
210.333	-14.72
210.719	3.35
211.105	11.05
211.491	17.02
211.876	-8.69
212.262	-9.88
212.648	-30.99
213.034	27.22
213.419	15.97
213.805	-0.99
214.19	-59.33
214.576	-9.19
214.961	29.91
215.346	3.2
215.732	6.26
216.117	-8.98
216.502	-2.73
216.888	-20.87
217.273	5.2
217.658	15.38
218.043	-6.91
218.428	22.33
218.813	4.79
219.198	9.95
219.583	-17.74
219.968	13.8
220.353	-41.37
220.738	-37.2
221.122	3.49
221.507	8.08
221.892	7.67
222.276	-4.5
222.661	8.8
223.046	-5.94
223.43	7.63
223.815	1.26
224.199	4.3
224.583	-6.54
224.968	-6.53
225.352	-0.67
225.736	-10.77
226.121	-7.4
226.505	3.31
226.889	-2.47
227.273	-3.73
227.657	0.77
228.041	2.22
228.425	1.45
228.809	1.55
229.193	3.36
229.577	-0.88
229.961	2.42
230.344	1.41
230.728	1.46
231.112	1.22
231.495	1.06
231.879	1.77
232.263	0.81
232.646	0.85
233.03	0.62
233.413	-1.73
233.797	1.06
234.18	1.04
234.563	1.45
234.946	-1.04
235.33	3.14
235.713	1.53
236.096	1.93
236.479	0.25
236.862	1.28
237.245	1.3
237.628	2.41
238.011	-0.94
238.394	2.6
238.777	0.93
239.16	1.5
239.543	1.23
239.925	2.79
240.308	2.75
240.691	2.41
241.073	0.94
241.456	1.5
241.838	0.67
242.221	1.68
242.603	0.62
242.986	1.97
243.368	1.62
243.75	1.8
244.133	1.45
244.515	1.38
244.897	1.73
245.279	1.6
245.661	1.78
246.043	2.81
246.425	1.17
246.807	2.24
247.189	1.59
247.571	2.19
247.953	1.6
248.335	1.36
248.717	1.67
249.098	1.3
249.48	1.47
249.862	1.74
250.243	1.46
250.625	1.21
251.006	1.43
251.388	1.65
251.769	1.96
252.151	2.55
252.532	2.28
252.913	1.57
253.295	1.43
253.676	1.59
254.057	0.93
254.438	1.56
254.819	1.5
255.2	1.34
255.581	1.8
255.962	1.73
256.343	0.66
256.724	1.23
257.105	0.91
257.486	1.85
257.867	3.09
258.247	2.47
258.628	0.85
259.009	0.71
259.389	1.27
259.77	1.76
260.15	1.24
260.531	1.21
260.911	1.39
261.292	1.44
261.672	1.44
262.052	1.69
262.432	1.48
262.813	1.25
263.193	0.87
263.573	1.16
263.953	1.24
264.333	1.29
264.713	2.02
265.093	1.19
265.473	1.63
265.853	1.08
266.233	2.34
266.612	1.59
266.992	2.25
267.372	1.1
267.752	1.53
268.131	1.42
268.511	1.52
268.89	1.89
269.27	1.18
269.649	1.14
270.029	1.43
270.408	1.65
270.787	1.77
271.167	1.26
271.546	1.87
271.925	1.51
272.304	1.06
272.683	1.22
273.062	1.13
273.441	1.64
273.82	1
274.199	1.31
274.578	1.14
274.957	1.23
275.336	0.85
275.715	1.14
276.093	1.5
276.472	1.11
276.851	1.33
277.229	1.21
277.608	1.07
277.986	1.47
278.365	1.65
278.743	1.07
279.122	1.29
279.5	0.82
279.878	1.86
280.257	1.43
280.635	1.3
281.013	1.53
281.391	1.9
281.769	1.73
282.147	1.07
282.525	1.4
282.903	1.41
283.281	1.98
283.659	1.28
284.037	1.36
284.415	1.09
284.792	1.71
285.17	1.01
285.548	1.94
285.925	1.23
286.303	1.57
286.68	1.68
287.058	1.58
287.435	1.45
287.813	1.01
288.19	1.47
288.567	1.37
288.945	1.54
289.322	1.52
289.699	1.68
290.076	1.38
290.453	1.05
290.83	1.11
291.207	1.18
291.584	1.58
291.961	1.61
292.338	1.88
292.715	1.88
293.092	1.82
293.469	1.57
293.845	1.27
294.222	1.41
294.599	1.09
294.975	1.69
295.352	1.86
295.728	1.71
296.105	1.37
296.481	1.78
296.858	1.93
297.234	2.07
297.61	1.59
297.986	1.42
298.363	1.23
298.739	1.56
299.115	1.97
299.491	1.86
299.867	1.66
300.243	1.84
300.619	2.12
300.995	1.96
301.371	1.98
301.746	1.66
302.122	1.68
302.498	1.58
302.874	1.98
303.249	1.9
303.625	1.81
304	2.04
304.376	1.68
304.751	1.6
305.127	1.63
305.502	1.97
305.878	2.06
306.253	1.88
306.628	1.51
307.003	2.24
307.378	1.78
307.754	2.07
308.129	1.75
308.504	2.2
308.879	1.97
309.254	1.89
309.629	2.42
310.003	2.14
310.378	2.33
310.753	2.1
311.128	1.65
311.502	1.67
311.877	2.14
312.252	1.93
312.626	2.02
313.001	1.72
313.375	2.17
313.75	2.11
314.124	2.01
314.498	1.97
314.873	2.31
315.247	2.37
315.621	1.87
315.995	2.69
316.369	2.66
316.743	2.5
317.117	2.53
317.491	2.31
317.865	2.17
318.239	2.56
318.613	2.82
318.987	2.57
319.361	2.13
319.734	2.77
320.108	2.13
320.482	1.69
320.855	2.32
321.229	2.02
321.602	1.61
321.976	2.23
322.349	3.12
322.723	2.26
323.096	1.99
323.469	2.16
323.843	2.5
324.216	2.35
324.589	2.17
324.962	2.2
325.335	2.05
325.708	2.07
326.081	2.32
326.454	1.99
326.827	2.05
327.2	1.88
327.573	2.24
327.945	2.59
328.318	1.61
328.691	2.37
329.063	2.52
329.436	2.46
329.809	2.16
330.181	2.21
330.553	1.96
330.926	2.71
331.298	2.92
331.671	2.41
332.043	2.98
332.415	2.44
332.787	1.89
333.159	1.91
333.532	1.8
333.904	2.46
334.276	2.69
334.648	2.93
335.02	2.18
335.391	2.93
335.763	2.46
336.135	2.64
336.507	2.64
336.879	2.1
337.25	2.56
337.622	2.41
337.993	2.25
338.365	2.75
338.736	2.69
339.108	2.59
339.479	2.45
339.851	2.37
340.222	2.01
340.593	2.64
340.964	2.37
341.336	2.12
341.707	2.04
342.078	2.5
342.449	2.6
342.82	2.29
343.191	2.15
343.562	2.5
343.933	2.5
344.303	2.39
344.674	2.44
345.045	2.28
345.416	1.77
345.786	2.39
346.157	2.52
346.527	2.65
346.898	2.87
347.268	2.19
347.639	2.15
348.009	2.71
348.38	2.43
348.75	2.44
349.12	2.52
349.49	2.77
349.861	2.13
350.231	2.82
350.601	1.96
350.971	2.75
351.341	2.43
351.711	2.48
352.081	2.74
352.45	2.48
352.82	2.51
353.19	2.28
353.56	2.6
353.929	2.43
354.299	2.81
354.669	2.6
355.038	2.78
355.408	2.2
355.777	2.57
356.147	2.1
356.516	2.27
356.885	2.24
357.254	2.7
357.624	2.34
357.993	2.44
358.362	2.23
358.731	2.23
359.1	2.33
359.469	2.49
359.838	2.46
360.207	2.35
360.576	2.49
360.945	2.4
361.314	2.64
361.682	2.39
362.051	2.57
362.42	2.59
362.788	2.21
363.157	2.35
363.525	2.52
363.894	2.58
364.262	2.63
364.631	2.85
364.999	2.54
365.367	1.92
365.735	2.76
366.104	2.69
366.472	2.66
366.84	2.31
367.208	2.73
367.576	2.4
367.944	2.64
368.312	2.55
368.68	2.32
369.048	2.49
369.416	2.62
369.783	2.44
370.151	2.48
370.519	3.17
370.886	2.11
371.254	2.59
371.621	2.64
371.989	2.42
372.356	2.68
372.724	2.66
373.091	2.63
373.458	2.36
373.826	2.38
374.193	2.68
374.56	2.37
374.927	2.96
375.294	2.6
375.661	2.88
376.028	2.16
376.395	2.68
376.762	2.39
377.129	2.47
377.496	2.67
377.863	2.78
378.229	2.3
378.596	2.62
378.963	2.68
379.329	2.55
379.696	2.65
380.062	2.73
380.429	2.61
380.795	2.58
381.161	2.67
381.528	2.85
381.894	2.37
382.26	2.85
382.626	2.4
382.993	2.5
383.359	2.75
383.725	2.45
384.091	2.54
384.457	2.66
384.823	2.61
385.188	2.97
385.554	2.83
385.92	2.7
386.286	2.58
386.651	2.55
387.017	2.67
387.383	2.74
387.748	2.4
388.114	2.49
388.479	3.23
388.845	2.66
389.21	3.12
389.575	2.98
389.94	2.78
390.306	2.8
390.671	2.62
391.036	2.41
391.401	2.96
391.766	2.51
392.131	2.78
392.496	2.71
392.861	2.81
393.226	2.6
393.591	2.88
393.956	2.87
394.32	2.67
394.685	2.85
395.05	2.8
395.414	2.91
395.779	2.76
396.143	2.86
396.508	2.89
396.872	2.87
397.236	2.9
397.601	2.65
397.965	2.8
398.329	2.91
398.694	2.89
399.058	2.86
399.422	2.88
399.786	2.67
400.15	2.75
400.514	2.75
400.878	2.79
401.242	3.02
401.605	2.72
401.969	2.9
402.333	2.95
402.697	2.8
403.06	3.13
403.424	2.9
403.787	2.73
404.151	2.76
404.514	2.95
404.878	2.85
405.241	2.99
405.604	3.04
405.968	2.74
406.331	2.85
406.694	2.85
407.057	2.81
407.42	2.69
407.783	2.71
408.146	2.94
408.509	2.97
408.872	2.86
409.235	2.84
409.598	2.95
409.961	3.15
410.323	2.93
410.686	2.83
411.049	2.85
411.411	2.75
411.774	2.98
412.136	3.07
412.499	3.09
412.861	2.93
413.223	3.09
413.586	2.96
413.948	3.22
414.31	2.91
414.672	3.07
415.035	3.18
415.397	2.88
415.759	2.94
416.121	2.8
416.483	3.05
416.845	2.99
417.206	2.82
417.568	3.1
417.93	3.14
418.292	3
418.653	3.03
419.015	2.82
419.377	2.93
419.738	3.05
420.1	3.19
420.461	3.05
420.822	2.95
421.184	2.91
421.545	2.83
421.906	3.04
422.267	2.91
422.629	3.03
422.99	2.91
423.351	2.87
423.712	2.9
424.073	3.06
424.434	2.99
424.795	3.05
425.155	3.08
425.516	3.01
425.877	2.94
426.238	2.97
426.598	3.03
426.959	2.94
427.32	3.04
427.68	2.98
428.041	3.04
428.401	3.08
428.761	3.16
429.122	2.98
429.482	3.33
429.842	2.92
430.202	3.2
430.563	3.14
430.923	3.23
431.283	3.04
431.643	3.15
432.003	3.52
432.363	3.19
432.722	3.18
433.082	3.21
433.442	3.08
433.802	3.05
434.161	3.09
434.521	3.12
434.881	3.24
435.24	3.08
435.6	3.26
435.959	3.16
436.319	3.12
436.678	3.3
437.037	3.33
437.396	3.3
437.756	3.36
438.115	3.16
438.474	3.3
438.833	3.19
439.192	3.16
439.551	3.28
439.91	3.36
440.269	3.29
440.628	3.26
440.987	3.25
441.345	3.24
441.704	3.15
442.063	3.19
442.421	3.19
442.78	3.28
443.138	3.28
443.497	3.24
443.855	3.12
444.214	3.47
444.572	3.32
444.93	3.33
445.288	3.32
445.647	3.31
446.005	3.34
446.363	3.3
446.721	3.34
447.079	3.34
447.437	3.29
447.795	3.29
448.153	3.22
448.51	3.22
448.868	3.18
449.226	3.22
449.584	3.3
449.941	3.25
450.299	3.31
450.656	3.36
451.014	3.51
451.371	3.53
451.729	3.41
452.086	3.27
452.443	3.39
452.801	3.52
453.158	3.52
453.515	3.51
453.872	3.42
454.229	3.62
454.586	3.39
454.943	3.55
455.3	3.49
455.657	3.45
456.014	3.45
456.371	3.58
456.727	3.59
457.084	3.42
457.441	3.45
457.797	3.54
458.154	3.58
458.51	3.62
458.867	3.47
459.223	3.46
459.58	3.77
459.936	3.33
460.292	3.44
460.648	3.53
461.005	3.35
461.361	3.6
461.717	3.51
462.073	3.5
462.429	3.52
462.785	3.51
463.141	3.6
463.496	3.55
463.852	3.68
464.208	3.63
464.564	3.51
464.919	3.7
465.275	3.82
465.631	3.82
465.986	3.72
466.342	3.48
466.697	3.58
467.052	3.57
467.408	3.62
467.763	3.8
468.118	3.83
468.473	3.67
468.829	3.61
469.184	3.54
469.539	3.65
469.894	3.7
470.249	3.63
470.603	3.78
470.958	3.59
471.313	3.62
471.668	3.66
472.023	3.64
472.377	3.69
472.732	3.76
473.086	3.66
473.441	3.7
473.795	3.74
474.15	3.71
474.504	3.72
474.859	3.73
475.213	3.82
475.567	3.66
475.921	3.66
476.275	3.75
476.63	3.88
476.984	3.76
477.338	3.78
477.692	3.81
478.045	3.8
478.399	3.67
478.753	3.91
479.107	3.77
479.461	3.86
479.814	3.89
480.168	3.85
480.521	3.71
480.875	3.87
481.228	3.93
481.582	3.8
481.935	3.8
482.289	3.8
482.642	3.94
482.995	3.83
483.348	3.87
483.701	3.85
484.055	3.76
484.408	3.85
484.761	3.75
485.114	3.71
485.466	3.66
485.819	3.62
486.172	3.58
486.525	3.66
486.878	3.75
487.23	3.82
487.583	3.81
487.936	3.86
488.288	3.89
488.641	3.76
488.993	3.77
489.345	3.75
489.698	3.79
490.05	3.76
490.402	3.78
490.754	3.9
491.107	3.91
491.459	3.95
491.811	3.91
492.163	3.99
492.515	4.06
492.866	3.93
493.218	3.83
493.57	3.82
493.922	3.91
494.274	3.85
494.625	3.99
494.977	4
495.328	4.03
495.68	4.02
496.031	4.21
496.383	4.19
496.734	4.11
497.086	4.18
497.437	4.14
497.788	4.17
498.139	4.01
498.49	4.12
498.842	4.11
499.193	4.18
499.544	4.16
499.894	4.13
500.245	4.18
500.596	4.18
500.947	4.14
501.298	4.16
501.648	4.32
501.999	4.34
502.35	4.23
502.7	4.29
503.051	4.27
503.401	4.29
503.752	4.26
504.102	4.29
504.452	4.37
504.803	4.3
505.153	4.31
505.503	4.36
505.853	4.4
506.203	4.37
506.553	4.39
506.903	4.43
507.253	4.43
507.603	4.3
507.953	4.41
508.303	4.39
508.652	4.38
509.002	4.44
509.352	4.44
509.701	4.44
510.051	4.46
510.4	4.46
510.75	4.37
511.099	4.46
511.449	4.41
511.798	4.36
512.147	4.42
512.496	4.43
512.846	4.33
513.195	4.51
513.544	4.51
513.893	4.55
514.242	4.47
514.591	4.5
514.939	4.52
515.288	4.61
515.637	4.58
515.986	4.47
516.334	4.66
516.683	4.64
517.032	4.63
517.38	4.6
517.729	4.65
518.077	4.65
518.426	4.74
518.774	4.58
519.122	4.61
519.47	4.56
519.819	4.66
520.167	4.6
520.515	4.52
520.863	4.51
521.211	4.57
521.559	4.68
521.907	4.67
522.255	4.74
522.602	4.75
522.95	4.77
523.298	4.89
523.645	4.68
523.993	4.76
524.341	4.77
524.688	4.8
525.036	4.84
525.383	4.79
525.73	4.86
526.078	4.78
526.425	4.95
526.772	4.74
527.119	4.84
527.466	4.73
527.814	4.73
528.161	4.76
528.508	4.79
528.854	4.82
529.201	4.85
529.548	4.78
529.895	4.77
530.242	4.68
530.588	4.65
530.935	4.67
531.282	4.75
531.628	4.74
531.975	4.89
532.321	4.95
532.667	5
533.014	5.06
533.36	5.01
533.706	5.11
534.052	5.07
534.399	5.1
534.745	4.94
535.091	4.92
535.437	4.86
535.783	4.86
536.129	5.06
536.474	5.08
536.82	5.11
537.166	5.07
537.512	5.3
537.857	5.13
538.203	5.08
538.549	5.07
538.894	5.09
539.239	5.17
539.585	5.14
539.93	5.25
540.276	5.4
540.621	5.31
540.966	5.4
541.311	5.13
541.656	5.34
542.001	5.34
542.346	5.29
542.691	5.29
543.036	5.1
543.381	5.2
543.726	5.15
544.071	5.26
544.415	5.25
544.76	5.31
545.105	5.33
545.449	5.47
545.794	5.41
546.138	5.48
546.483	5.48
546.827	5.46
547.171	5.58
547.516	5.52
547.86	5.58
548.204	5.49
548.548	5.52
548.892	5.52
549.236	5.53
549.58	5.59
549.924	5.75
550.268	5.83
550.612	5.71
550.956	5.68
551.3	5.72
551.643	5.74
551.987	5.68
552.33	5.86
552.674	5.89
553.017	5.96
553.361	6.02
553.704	5.81
554.048	5.86
554.391	5.75
554.734	5.86
555.077	5.87
555.42	5.93
555.764	6.09
556.107	6.03
556.45	5.96
556.793	6.09
557.135	6.07
557.478	5.85
557.821	6.09
558.164	6.13
558.507	5.96
558.849	6.27
559.192	6.25
559.534	6.19
559.877	6.16
560.219	6.1
560.562	6.36
560.904	6.52
561.246	6.22
561.589	6.08
561.931	6.15
562.273	6.16
562.615	6.18
562.957	6.34
563.299	6.33
563.641	6.3
563.983	6.39
564.325	6.29
564.667	6.42
565.008	6.19
565.35	6.38
565.692	6.54
566.033	6.48
566.375	6.51
566.716	6.34
567.058	6.41
567.399	6.57
567.741	6.51
568.082	6.57
568.423	6.49
568.764	6.45
569.105	6.62
569.447	6.65
569.788	6.54
570.129	6.53
570.47	6.75
570.811	6.68
571.151	6.49
571.492	6.96
571.833	6.61
572.174	6.85
572.514	6.69
572.855	6.56
573.195	6.65
573.536	6.59
573.876	6.81
574.217	6.84
574.557	6.66
574.898	6.85
575.238	6.81
575.578	6.99
575.918	6.88
576.258	6.99
576.598	6.93
576.938	7.07
577.278	6.88
577.618	6.82
577.958	6.98
578.298	7.05
578.638	7.06
578.977	7.26
579.317	7.16
579.657	6.93
579.996	7.04
580.336	7.11
580.675	6.98
581.014	7.42
581.354	7.14
581.693	7.45
582.032	7.23
582.372	7.36
582.711	7.18
583.05	7.28
583.389	7.07
583.728	7.24
584.067	7.43
584.406	7.44
584.745	7.7
585.083	7.5
585.422	7.65
585.761	7.53
586.1	7.52
586.438	7.26
586.777	7.52
587.115	7.49
587.454	7.6
587.792	7.74
588.13	7.74
588.469	7.55
588.807	7.79
589.145	7.62
589.483	7.32
589.821	7.87
590.159	7.59
590.497	7.86
590.835	7.6
591.173	7.52
591.511	7.75
591.849	7.94
592.187	7.86
592.524	7.84
592.862	7.81
593.2	7.7
593.537	7.65
593.875	8.02
594.212	7.79
594.55	8.01
594.887	8.11
595.224	7.85
595.561	7.71
595.899	7.84
596.236	8.18
596.573	8.05
596.91	7.96
597.247	8.05
597.584	8.05
597.921	8.15
598.258	8.04
598.594	7.86
598.931	7.94
599.268	8.07
599.604	8.09
599.941	8.15
600.277	8.11
600.614	8.17
600.95	8.47
601.287	8.23
601.623	8.26
601.959	8.23
602.296	8.3
602.632	8.34
602.968	8.24
603.304	8.75
603.64	8.44
603.976	8.27
604.312	8.58
604.648	8.6
604.984	8.51
605.319	8.58
605.655	8.52
605.991	8.69
606.326	8.58
606.662	8.46
606.998	8.58
607.333	8.61
607.668	8.63
608.004	8.68
608.339	8.63
608.674	8.81
609.01	8.98
609.345	8.92
609.68	8.71
610.015	8.93
610.35	8.75
610.685	8.92
611.02	8.89
611.355	8.8
611.689	8.85
612.024	8.66
612.359	8.83
612.694	8.84
613.028	9.06
613.363	9.16
613.697	9.02
614.032	8.89
614.366	9.09
614.7	8.86
615.035	9.15
615.369	9.04
615.703	9.47
616.037	8.98
616.371	9.36
616.705	8.97
617.039	9.64
617.373	9.47
617.707	9.26
618.041	9.34
618.375	9.48
618.709	9.51
619.042	9.11
619.376	9.3
619.71	9.3
620.043	9.62
620.377	9.58
620.71	9.63
621.043	9.42
621.377	9.56
621.71	9.81
622.043	9.89
622.376	9.78
622.709	9.4
623.043	9.8
623.376	9.93
623.709	9.24
624.041	9.66
624.374	9.72
624.707	9.77
625.04	10.02
625.373	9.88
625.705	9.74
626.038	9.68
626.37	9.98
626.703	9.77
627.035	9.6
627.368	10.18
627.7	9.9
628.032	9.5
628.365	9.97
628.697	9.9
629.029	9.85
629.361	9.76
629.693	9.98
630.025	10.27
630.357	9.9
630.689	9.96
631.021	10.05
631.353	10.03
631.684	10.18
632.016	10.22
632.348	10.25
632.679	10.24
633.011	10.42
633.342	10.3
633.674	10.26
634.005	9.87
634.336	10.54
634.668	10.37
634.999	10.28
635.33	9.89
635.661	10.58
635.992	10.44
636.323	10.47
636.654	10
636.985	10.38
637.316	10.08
637.647	10.21
637.977	10.7
638.308	10.55
638.639	10.6
638.969	10.66
639.3	10.72
639.63	10.78
639.961	10.67
640.291	10.7
640.622	10.7
640.952	10.49
641.282	10.47
641.612	10.88
641.943	10.7
642.273	10.37
642.603	10.65
642.933	10.95
643.263	10.5
643.592	10.58
643.922	11.36
644.252	10.52
644.582	11.06
644.911	10.93
645.241	10.52
645.571	10.95
645.9	11.1
646.23	11.28
646.559	11.25
646.888	10.91
647.218	11.3
647.547	11.17
647.876	11.12
648.205	10.74
648.534	11.37
648.863	11.5
649.192	11.23
649.521	10.82
649.85	11.07
650.179	11.27
650.508	11.65
650.837	11.62
651.165	11.01
651.494	11.5
651.822	11.17
652.151	11.06
652.479	10.87
652.808	11.31
653.136	11.67
653.465	11.5
653.793	11.37
654.121	11.29
654.449	11.38
654.777	11.32
655.105	11.58
655.433	11.45
655.761	11.6
656.089	11.68
656.417	11.32
656.745	11.38
657.073	11.77
657.4	11.71
657.728	11.57
658.056	11.11
658.383	12.03
658.711	11.42
659.038	11.39
659.365	12.2
659.693	12.04
660.02	11.99
660.347	11.6
660.674	11.75
661.001	11.84
661.329	11.85
661.656	12.07
661.982	11.55
662.309	11.7
662.636	12
662.963	11.64
663.29	11.58
663.616	12.21
663.943	11.77
664.27	12.09
664.596	11.69
664.923	11.85
665.249	12.24
665.576	12.28
665.902	11.76
666.228	11.92
666.554	12.43
666.881	12.1
667.207	12.31
667.533	12.03
667.859	12.07
668.185	12.09
668.511	12.35
668.837	12
669.162	11.88
669.488	12.1
669.814	12.57
670.139	12.12
670.465	12.15
670.791	12.12
671.116	12.07
671.442	12.41
671.767	11.93
672.092	12.48
672.418	12.49
672.743	13.32
673.068	12.55
673.393	13.34
673.718	12.79
674.043	12.19
674.368	11.99
674.693	12.43
675.018	12.76
675.343	12.39
675.667	12.53
675.992	12.34
676.317	12.64
676.641	12.79
676.966	12.54
677.29	12.66
677.615	13.28
677.939	12.9
678.264	12.9
678.588	12.63
678.912	12.3
679.236	13.47
679.56	13.24
679.885	12.84
680.209	12.55
680.532	13.36
680.856	13.08
681.18	13.07
681.504	13.16
681.828	12.81
682.152	13.37
682.475	12.93
682.799	13.46
683.122	13.5
683.446	13.15
683.769	12.81
684.093	13.97
684.416	12.51
684.739	13.06
685.062	13.84
685.386	13.51
685.709	13.86
686.032	13.34
686.355	14
686.678	13.72
687.001	13.41
687.324	12.8
687.646	13.31
687.969	13.18
688.292	13.74
