Data from 0040_crown_Reflection__2__67.txt Node

Date: Fri Nov 04 15:18:30 CDT 2022
User: ToomeyLab
Spectrometer: FLMS14357
Trigger mode: 0
Integration Time (sec): 1.000000E-2
Scans to average: 100
Electric dark correction enabled: true
Nonlinearity correction enabled: false
Boxcar width: 0
XAxis mode: Wavelengths
Number of Pixels in Spectrum: 2048
>>>>>Begin Spectral Data<<<<<
189.047	616.05
189.435	616.05
189.823	616.05
190.211	-0.38
190.599	400.67
190.987	114.57
191.375	1002.5
191.763	62.59
192.151	350.96
192.538	252.22
192.926	-1781
193.314	61.96
193.702	35.37
194.089	29
194.477	1335.59
194.864	342.42
195.252	118.43
195.639	234.49
196.027	1233.49
196.414	-29.25
196.801	89.51
197.189	-24.99
197.576	201.29
197.963	289.49
198.351	45.42
198.738	10.82
199.125	12.15
199.512	10.05
199.899	22.71
200.286	7.77
200.673	12.32
201.06	-7.48
201.447	-18.3
201.833	2.61
202.22	11.01
202.607	51.27
202.994	43.98
203.38	-1.24
203.767	30.09
204.154	22.55
204.54	-66.97
204.927	27.49
205.313	14.21
205.699	15.23
206.086	29.3
206.472	-15.47
206.858	-12
207.245	-0.06
207.631	0.69
208.017	8.82
208.403	9.25
208.789	29.31
209.175	32.57
209.561	-133.4
209.947	-52.42
210.333	7.19
210.719	-23.8
211.105	-110.91
211.491	29.82
211.876	-7.11
212.262	-25.78
212.648	-4.53
213.034	-5.84
213.419	-27.5
213.805	-42.11
214.19	-31.53
214.576	-14.73
214.961	32.31
215.346	3.53
215.732	0.03
216.117	11.55
216.502	18.55
216.888	-16.41
217.273	5.01
217.658	-11.06
218.043	-29.8
218.428	10.59
218.813	21.65
219.198	11.56
219.583	-13.41
219.968	22.04
220.353	-30.24
220.738	-26.66
221.122	-3.73
221.507	-4.87
221.892	-31.47
222.276	4.56
222.661	10.06
223.046	-3.98
223.43	-7.26
223.815	-12.48
224.199	11.47
224.583	7.57
224.968	3.35
225.352	1.93
225.736	-5.18
226.121	-0.9
226.505	5.52
226.889	3.63
227.273	0.82
227.657	0.39
228.041	2.79
228.425	1.11
228.809	6.27
229.193	6.3
229.577	3.07
229.961	5.78
230.344	5.4
230.728	4.33
231.112	4.36
231.495	4.34
231.879	5.08
232.263	4.16
232.646	4.58
233.03	3.78
233.413	2.02
233.797	3.88
234.18	3.47
234.563	3.66
234.946	4.03
235.33	5.47
235.713	3.33
236.096	4.26
236.479	3.7
236.862	4.01
237.245	1.86
237.628	3.77
238.011	4.21
238.394	5.19
238.777	5.03
239.16	4.36
239.543	3.57
239.925	5.48
240.308	4.2
240.691	4.37
241.073	4.34
241.456	3.45
241.838	2.97
242.221	4.74
242.603	4.34
242.986	4
243.368	4.33
243.75	3.86
244.133	4.56
244.515	4.76
244.897	4.61
245.279	4.7
245.661	5.33
246.043	4.33
246.425	5.37
246.807	6.1
247.189	4.64
247.571	5.25
247.953	4.14
248.335	4.22
248.717	4.61
249.098	4.44
249.48	4.41
249.862	4.74
250.243	4.38
250.625	3.86
251.006	4.19
251.388	4.96
251.769	5.11
252.151	5.18
252.532	4.15
252.913	3.97
253.295	4.75
253.676	4.22
254.057	3.92
254.438	4.62
254.819	4.31
255.2	4.4
255.581	3.92
255.962	4.69
256.343	3.11
256.724	4.25
257.105	3.92
257.486	5.01
257.867	5.69
258.247	5.75
258.628	3.29
259.009	3.21
259.389	4.5
259.77	3.58
260.15	4.27
260.531	3.88
260.911	3.73
261.292	4.35
261.672	4.31
262.052	4.09
262.432	4.28
262.813	3.99
263.193	3.89
263.573	3.68
263.953	4.16
264.333	4.32
264.713	4.32
265.093	3.56
265.473	4.23
265.853	3.44
266.233	3.86
266.612	4.32
266.992	4.86
267.372	3.06
267.752	3.63
268.131	3.73
268.511	3.75
268.89	4.4
269.27	4.05
269.649	3.94
270.029	3.82
270.408	4.46
270.787	4.64
271.167	3.79
271.546	4.41
271.925	4.16
272.304	3.87
272.683	3.8
273.062	4.02
273.441	4.34
273.82	3.75
274.199	4.18
274.578	3.88
274.957	3.82
275.336	3.71
275.715	3.71
276.093	4.45
276.472	3.83
276.851	3.12
277.229	3.87
277.608	4.24
277.986	4.18
278.365	3.99
278.743	3.76
279.122	3.88
279.5	4.1
279.878	3.86
280.257	3.83
280.635	3.58
281.013	3.59
281.391	4.1
281.769	4.18
282.147	3.73
282.525	4.04
282.903	4.33
283.281	4.53
283.659	4.29
284.037	3.99
284.415	3.85
284.792	3.74
285.17	3.66
285.548	4.14
285.925	3.73
286.303	3.75
286.68	3.71
287.058	3.94
287.435	3.75
287.813	3.38
288.19	3.66
288.567	3.64
288.945	3.84
289.322	3.88
289.699	4.06
290.076	4.33
290.453	3.48
290.83	3.44
291.207	3.76
291.584	3.9
291.961	3.88
292.338	4.05
292.715	3.86
293.092	3.82
293.469	3.7
293.845	3.59
294.222	3.9
294.599	3.82
294.975	4.08
295.352	3.69
295.728	4.03
296.105	3.86
296.481	3.72
296.858	4.02
297.234	3.9
297.61	3.73
297.986	3.36
298.363	3.45
298.739	3.42
299.115	3.96
299.491	3.7
299.867	3.73
300.243	3.94
300.619	3.95
300.995	3.93
301.371	4.11
301.746	3.37
302.122	3.67
302.498	3.32
302.874	3.99
303.249	3.73
303.625	3.52
304	3.81
304.376	3.28
304.751	3.68
305.127	3.29
305.502	3.29
305.878	3.66
306.253	3.47
306.628	3.28
307.003	3.69
307.378	3.43
307.754	3.45
308.129	3.06
308.504	4.02
308.879	4.1
309.254	4.34
309.629	3.53
310.003	3.79
310.378	4.01
310.753	3.54
311.128	3.27
311.502	3.46
311.877	3.89
312.252	3.33
312.626	3.62
313.001	3.58
313.375	3.47
313.75	3.56
314.124	3.39
314.498	3.49
314.873	3.59
315.247	3.22
315.621	3.62
315.995	3.64
316.369	3.34
316.743	3.84
317.117	3.99
317.491	3.91
317.865	3.16
318.239	3.22
318.613	4.28
318.987	3.24
319.361	3.65
319.734	3.58
320.108	3.42
320.482	3.05
320.855	3.09
321.229	3.78
321.602	3.04
321.976	3.01
322.349	3.83
322.723	3.7
323.096	3.41
323.469	3.02
323.843	3.15
324.216	3.37
324.589	3.73
324.962	3.44
325.335	3.34
325.708	3.1
326.081	3.67
326.454	3.13
326.827	2.99
327.2	3.05
327.573	2.97
327.945	3.72
328.318	2.91
328.691	3.67
329.063	3.62
329.436	3.35
329.809	3.42
330.181	3.28
330.553	2.71
330.926	3.15
331.298	3.56
331.671	2.93
332.043	3.53
332.415	3.2
332.787	3.11
333.159	3.11
333.532	2.79
333.904	3.79
334.276	3.65
334.648	3.54
335.02	2.85
335.391	3.38
335.763	3.32
336.135	3.35
336.507	3.18
336.879	3.11
337.25	2.9
337.622	3.34
337.993	3.51
338.365	3.04
338.736	3.91
339.108	3.79
339.479	3.61
339.851	2.98
340.222	3.06
340.593	3.57
340.964	3.59
341.336	3.09
341.707	3.03
342.078	3.3
342.449	3.47
342.82	3.86
343.191	3.22
343.562	3.32
343.933	3.47
344.303	3.63
344.674	3.66
345.045	3.13
345.416	2.97
345.786	3.35
346.157	3.22
346.527	3.6
346.898	3.52
347.268	3.21
347.639	3.29
348.009	3.3
348.38	3.32
348.75	3.14
349.12	3.32
349.49	3.27
349.861	3.34
350.231	3.85
350.601	3.02
350.971	3.17
351.341	3.41
351.711	3.38
352.081	3.26
352.45	2.94
352.82	3.26
353.19	3.17
353.56	3.54
353.929	3.35
354.299	3.76
354.669	3.76
355.038	3.42
355.408	3.01
355.777	2.84
356.147	3.01
356.516	3.16
356.885	3.09
357.254	3.4
357.624	3.33
357.993	3.36
358.362	3.35
358.731	3.4
359.1	3.57
359.469	3.6
359.838	3.34
360.207	3.32
360.576	3.67
360.945	3.6
361.314	3.59
361.682	3.57
362.051	3.35
362.42	3.43
362.788	3.53
363.157	3.43
363.525	3.46
363.894	3.38
364.262	3.54
364.631	3.58
364.999	3.31
365.367	3.34
365.735	3.83
366.104	3.52
366.472	3.91
366.84	3.38
367.208	3.61
367.576	3.48
367.944	3.89
368.312	3.53
368.68	3.22
369.048	3.33
369.416	3.49
369.783	3.5
370.151	3.03
370.519	4.09
370.886	3.08
371.254	3.34
371.621	3.61
371.989	3.6
372.356	3.73
372.724	3.6
373.091	3.63
373.458	3.84
373.826	3.59
374.193	3.43
374.56	3.33
374.927	3.79
375.294	3.57
375.661	3.84
376.028	3.47
376.395	3.54
376.762	3.56
377.129	3.59
377.496	3.72
377.863	3.62
378.229	3.36
378.596	3.49
378.963	3.62
379.329	3.44
379.696	3.46
380.062	3.85
380.429	3.57
380.795	3.68
381.161	3.68
381.528	3.87
381.894	3.43
382.26	3.66
382.626	3.43
382.993	4.01
383.359	3.49
383.725	3.44
384.091	3.94
384.457	3.58
384.823	3.78
385.188	3.83
385.554	3.57
385.92	3.51
386.286	3.73
386.651	3.66
387.017	3.62
387.383	3.52
387.748	3.46
388.114	3.74
388.479	4.2
388.845	3.7
389.21	4.06
389.575	3.89
389.94	3.92
390.306	3.83
390.671	3.82
391.036	3.54
391.401	4.18
391.766	3.62
392.131	3.55
392.496	3.91
392.861	3.95
393.226	3.63
393.591	4.04
393.956	3.8
394.32	3.77
394.685	3.96
395.05	4.02
395.414	4.02
395.779	3.86
396.143	3.76
396.508	3.98
396.872	3.84
397.236	3.94
397.601	3.97
397.965	3.8
398.329	3.8
398.694	3.79
399.058	4.07
399.422	3.93
399.786	3.89
400.15	3.95
400.514	3.92
400.878	3.97
401.242	4.11
401.605	3.94
401.969	4.04
402.333	3.97
402.697	4.08
403.06	4.25
403.424	4
403.787	3.91
404.151	4.04
404.514	4.05
404.878	4
405.241	3.95
405.604	4.23
405.968	3.88
406.331	3.86
406.694	3.78
407.057	4.07
407.42	4.15
407.783	3.95
408.146	4.13
408.509	4.1
408.872	4.06
409.235	4
409.598	4.08
409.961	4.08
410.323	3.99
410.686	3.98
411.049	4.06
411.411	3.93
411.774	4.05
412.136	4.37
412.499	4.08
412.861	4.1
413.223	4.01
413.586	4.25
413.948	4.25
414.31	4.06
414.672	4.25
415.035	4.2
415.397	4.14
415.759	4.31
416.121	4.09
416.483	4.33
416.845	4.11
417.206	4.03
417.568	4.17
417.93	4.11
418.292	3.92
418.653	4.19
419.015	3.99
419.377	4.2
419.738	4.07
420.1	4.17
420.461	4.2
420.822	4.01
421.184	4.06
421.545	4.02
421.906	4.13
422.267	4.05
422.629	4.17
422.99	4.07
423.351	3.98
423.712	4.12
424.073	4.18
424.434	4.22
424.795	4.24
425.155	4.16
425.516	4.11
425.877	4.11
426.238	4.08
426.598	4.08
426.959	4.08
427.32	4.21
427.68	4.2
428.041	4.16
428.401	4.23
428.761	4.28
429.122	4.26
429.482	4.28
429.842	4.08
430.202	4.38
430.563	4.37
430.923	4.56
431.283	4.34
431.643	4.27
432.003	4.53
432.363	4.44
432.722	4.3
433.082	4.3
433.442	4.16
433.802	4.26
434.161	4.22
434.521	4.3
434.881	4.28
435.24	4.16
435.6	4.41
435.959	4.43
436.319	4.3
436.678	4.34
437.037	4.31
437.396	4.45
437.756	4.55
438.115	4.32
438.474	4.43
438.833	4.47
439.192	4.53
439.551	4.44
439.91	4.48
440.269	4.33
440.628	4.41
440.987	4.44
441.345	4.47
441.704	4.4
442.063	4.29
442.421	4.43
442.78	4.42
443.138	4.43
443.497	4.37
443.855	4.35
444.214	4.54
444.572	4.39
444.93	4.46
445.288	4.53
445.647	4.38
446.005	4.48
446.363	4.47
446.721	4.4
447.079	4.39
447.437	4.39
447.795	4.33
448.153	4.24
448.51	4.45
448.868	4.36
449.226	4.35
449.584	4.45
449.941	4.39
450.299	4.55
450.656	4.48
451.014	4.68
451.371	4.67
451.729	4.55
452.086	4.45
452.443	4.5
452.801	4.56
453.158	4.73
453.515	4.56
453.872	4.57
454.229	4.59
454.586	4.48
454.943	4.53
455.3	4.67
455.657	4.39
456.014	4.54
456.371	4.58
456.727	4.69
457.084	4.6
457.441	4.58
457.797	4.57
458.154	4.59
458.51	4.64
458.867	4.6
459.223	4.74
459.58	4.85
459.936	4.56
460.292	4.55
460.648	4.65
461.005	4.35
461.361	4.51
461.717	4.56
462.073	4.55
462.429	4.62
462.785	4.61
463.141	4.64
463.496	4.59
463.852	4.82
464.208	4.69
464.564	4.68
464.919	4.88
465.275	4.86
465.631	4.86
465.986	4.78
466.342	4.67
466.697	4.72
467.052	4.66
467.408	4.52
467.763	4.82
468.118	4.85
468.473	4.75
468.829	4.54
469.184	4.66
469.539	4.64
469.894	4.79
470.249	4.67
470.603	4.69
470.958	4.64
471.313	4.76
471.668	4.63
472.023	4.83
472.377	4.74
472.732	4.77
473.086	4.75
473.441	4.72
473.795	4.82
474.15	4.85
474.504	4.72
474.859	4.8
475.213	4.82
475.567	4.69
475.921	4.71
476.275	5.03
476.63	4.81
476.984	4.79
477.338	4.66
477.692	4.9
478.045	4.65
478.399	4.66
478.753	4.74
479.107	4.82
479.461	4.97
479.814	4.89
480.168	4.89
480.521	4.72
480.875	4.88
481.228	4.87
481.582	4.95
481.935	4.77
482.289	4.79
482.642	4.82
482.995	4.75
483.348	4.73
483.701	4.81
484.055	4.74
484.408	4.71
484.761	4.65
485.114	4.51
485.466	4.47
485.819	4.36
486.172	4.38
486.525	4.52
486.878	4.71
487.23	4.84
487.583	4.77
487.936	4.85
488.288	4.82
488.641	4.7
488.993	4.61
489.345	4.58
489.698	4.55
490.05	4.61
490.402	4.65
490.754	4.74
491.107	4.86
491.459	4.86
491.811	4.83
492.163	4.89
492.515	4.84
492.866	4.81
493.218	4.62
493.57	4.52
493.922	4.62
494.274	4.65
494.625	4.89
494.977	4.96
495.328	4.92
495.68	4.91
496.031	4.88
496.383	5.01
496.734	4.91
497.086	5.09
497.437	5.03
497.788	5.01
498.139	4.88
498.49	4.84
498.842	4.98
499.193	4.91
499.544	5
499.894	4.92
500.245	5.06
500.596	4.94
500.947	5.01
501.298	4.96
501.648	5.12
501.999	5.08
502.35	5.04
502.7	4.91
503.051	5.16
503.401	5.05
503.752	5.12
504.102	5.06
504.452	5.09
504.803	5.15
505.153	5.05
505.503	5.04
505.853	5.08
506.203	5.03
506.553	5.17
506.903	5.1
507.253	5.1
507.603	5.17
507.953	5.08
508.303	5.08
508.652	4.93
509.002	5.06
509.352	5.26
509.701	5
510.051	5.09
510.4	5.09
510.75	5.06
511.099	5.02
511.449	5.02
511.798	4.9
512.147	5.13
512.496	5.07
512.846	4.93
513.195	5.11
513.544	5.03
513.893	5.12
514.242	5.05
514.591	5.06
514.939	5.26
515.288	5.2
515.637	5.17
515.986	5.1
516.334	5.27
516.683	5.12
517.032	5.21
517.38	5.2
517.729	5.14
518.077	5.25
518.426	5.07
518.774	5.2
519.122	5.12
519.47	5.12
519.819	5.08
520.167	5.05
520.515	5.02
520.863	4.99
521.211	5.05
521.559	5.18
521.907	5.18
522.255	5.22
522.602	5.19
522.95	5.14
523.298	5.25
523.645	5.21
523.993	5.27
524.341	5.31
524.688	5.22
525.036	5.21
525.383	5.3
525.73	5.28
526.078	5.28
526.425	5.24
526.772	5.16
527.119	5.15
527.466	5.11
527.814	5.07
528.161	5.04
528.508	5.17
528.854	5.11
529.201	5.21
529.548	5.08
529.895	5.01
530.242	4.88
530.588	4.77
530.935	4.87
531.282	4.98
531.628	5.02
531.975	5.27
532.321	5.28
532.667	5.25
533.014	5.36
533.36	5.27
533.706	5.29
534.052	5.24
534.399	5.11
534.745	5.13
535.091	4.95
535.437	5.04
535.783	5.02
536.129	5.26
536.474	5.36
536.82	5.29
537.166	5.29
537.512	5.35
537.857	5.3
538.203	5.21
538.549	5.11
538.894	5.19
539.239	5.27
539.585	5.25
539.93	5.28
540.276	5.35
540.621	5.32
540.966	5.5
541.311	5.26
541.656	5.25
542.001	5.36
542.346	5.31
542.691	5.21
543.036	5.02
543.381	4.97
543.726	5.09
544.071	5.2
544.415	5.28
544.76	5.32
545.105	5.43
545.449	5.31
545.794	5.39
546.138	5.35
546.483	5.35
546.827	5.41
547.171	5.45
547.516	5.35
547.86	5.41
548.204	5.47
548.548	5.28
548.892	5.27
549.236	5.32
549.58	5.38
549.924	5.49
550.268	5.59
550.612	5.36
550.956	5.6
551.3	5.44
551.643	5.47
551.987	5.19
552.33	5.5
552.674	5.57
553.017	5.59
553.361	5.69
553.704	5.47
554.048	5.48
554.391	5.37
554.734	5.59
555.077	5.47
555.42	5.52
555.764	5.66
556.107	5.74
556.45	5.68
556.793	5.6
557.135	5.52
557.478	5.44
557.821	5.64
558.164	5.77
558.507	5.55
558.849	5.58
559.192	5.65
559.534	5.61
559.877	5.57
560.219	5.54
560.562	5.84
560.904	5.81
561.246	5.71
561.589	5.59
561.931	5.71
562.273	5.72
562.615	5.38
562.957	5.72
563.299	5.53
563.641	5.51
563.983	5.57
564.325	5.48
564.667	5.62
565.008	5.63
565.35	5.6
565.692	5.82
566.033	5.63
566.375	5.59
566.716	5.67
567.058	5.61
567.399	5.6
567.741	5.72
568.082	5.7
568.423	5.64
568.764	5.56
569.105	5.5
569.447	5.58
569.788	5.69
570.129	5.7
570.47	5.77
570.811	5.79
571.151	5.61
571.492	5.76
571.833	5.72
572.174	5.69
572.514	5.62
572.855	5.55
573.195	5.7
573.536	5.63
573.876	5.67
574.217	5.51
574.557	5.61
574.898	5.74
575.238	5.58
575.578	5.94
575.918	5.68
576.258	5.81
576.598	5.73
576.938	5.83
577.278	5.52
577.618	5.58
577.958	5.71
578.298	5.73
578.638	5.8
578.977	5.86
579.317	5.73
579.657	5.76
579.996	5.76
580.336	5.64
580.675	5.56
581.014	5.98
581.354	5.77
581.693	6
582.032	5.76
582.372	5.96
582.711	5.86
583.05	6.01
583.389	5.74
583.728	5.9
584.067	5.87
584.406	5.67
584.745	5.92
585.083	5.82
585.422	5.97
585.761	5.96
586.1	5.96
586.438	5.79
586.777	5.72
587.115	5.84
587.454	6.14
587.792	6.04
588.13	5.74
588.469	5.91
588.807	5.97
589.145	5.92
589.483	5.54
589.821	6
590.159	5.85
590.497	6.02
590.835	5.74
591.173	5.7
591.511	6.05
591.849	6.02
592.187	5.76
592.524	5.89
592.862	5.87
593.2	6.08
593.537	5.75
593.875	5.71
594.212	5.8
594.55	5.9
594.887	6.03
595.224	5.74
595.561	5.6
595.899	5.9
596.236	5.81
596.573	5.97
596.91	5.85
597.247	5.73
597.584	5.68
597.921	6.01
598.258	5.99
598.594	5.52
598.931	5.77
599.268	5.74
599.604	5.85
599.941	5.82
600.277	5.89
600.614	6.02
600.95	5.97
601.287	5.84
601.623	5.8
601.959	5.94
602.296	6.03
602.632	6.22
602.968	5.91
603.304	6
603.64	5.91
603.976	5.56
604.312	5.93
604.648	5.86
604.984	5.89
605.319	5.74
605.655	5.83
605.991	5.76
606.326	5.73
606.662	5.77
606.998	5.93
607.333	5.76
607.668	5.86
608.004	5.91
608.339	6.05
608.674	6.17
609.01	6.01
609.345	6.03
609.68	5.96
610.015	6.03
610.35	5.94
610.685	6.28
611.02	5.87
611.355	5.97
611.689	5.87
612.024	5.94
612.359	5.82
612.694	5.86
613.028	6.21
613.363	6.02
613.697	6.11
614.032	5.65
614.366	6.04
614.7	5.94
615.035	6.14
615.369	5.96
615.703	6.34
616.037	5.87
616.371	6.16
616.705	5.94
617.039	6.23
617.373	5.96
617.707	6.29
618.041	6.01
618.375	6.1
618.709	6.15
619.042	6.23
619.376	5.95
619.71	5.93
620.043	6.25
620.377	6.35
620.71	6.22
621.043	6.03
621.377	6.08
621.71	6.18
622.043	6.23
622.376	6.49
622.709	6.1
623.043	6.24
623.376	6.27
623.709	5.83
624.041	6.13
624.374	6.29
624.707	5.91
625.04	5.99
625.373	6.12
625.705	5.95
626.038	5.94
626.37	6.37
626.703	6
627.035	6.05
627.368	6.22
627.7	5.95
628.032	5.86
628.365	6.51
628.697	6.05
629.029	5.73
629.361	6.01
629.693	6.18
630.025	6.09
630.357	5.96
630.689	6.04
631.021	6.02
631.353	6.21
631.684	6.18
632.016	6.27
632.348	6.01
632.679	6.03
633.011	6.41
633.342	6.22
633.674	5.85
634.005	6.28
634.336	6.15
634.668	6.05
634.999	6.21
635.33	5.91
635.661	6
635.992	6.03
636.323	6.09
636.654	5.96
636.985	6.26
637.316	6.17
637.647	6.22
637.977	6.26
638.308	6.12
638.639	6.08
638.969	6.02
639.3	6.43
639.63	5.88
639.961	6.24
640.291	6.55
640.622	6.4
640.952	5.9
641.282	6.21
641.612	6.07
641.943	6.19
642.273	5.85
642.603	6.39
642.933	6.15
643.263	5.86
643.592	6.03
643.922	6.55
644.252	6.21
644.582	6.45
644.911	6.43
645.241	5.8
645.571	6.14
645.9	6.2
646.23	5.87
646.559	6.53
646.888	6.37
647.218	6.26
647.547	6.45
647.876	6.67
648.205	6.17
648.534	6.31
648.863	6.22
649.192	6.19
649.521	5.88
649.85	6.55
650.179	6.17
650.508	5.94
650.837	6.64
651.165	6.48
651.494	6.35
651.822	6.24
652.151	6.66
652.479	6.65
652.808	6.12
653.136	6.63
653.465	6.27
653.793	6.55
654.121	5.86
654.449	6.09
654.777	6.17
655.105	6.53
655.433	6.14
655.761	6.39
656.089	6.68
656.417	6.21
656.745	6.03
657.073	6.23
657.4	6.49
657.728	6.44
658.056	6.27
658.383	6.15
658.711	6.1
659.038	6.49
659.365	6.79
659.693	6.71
660.02	6.47
660.347	6.23
660.674	6.29
661.001	6.16
661.329	6.21
661.656	6.41
661.982	6.19
662.309	6.29
662.636	6.22
662.963	6.13
663.29	6.03
663.616	6.28
663.943	6.65
664.27	6.41
664.596	6.07
664.923	6.35
665.249	6.58
665.576	6.49
665.902	5.79
666.228	5.48
666.554	6.86
666.881	5.85
667.207	6.57
667.533	6.27
667.859	6.39
668.185	6.07
668.511	6.67
668.837	6.28
669.162	6.85
669.488	5.94
669.814	7.13
670.139	6.44
670.465	6.54
670.791	6.33
671.116	6.34
671.442	6.47
671.767	6.47
672.092	6.69
672.418	6.15
672.743	6.77
673.068	6.66
673.393	6.5
673.718	6.78
674.043	6.8
674.368	5.89
674.693	6.47
675.018	6.5
675.343	7.04
675.667	6.56
675.992	6.33
676.317	6.15
676.641	6.04
676.966	6.41
677.29	6.95
677.615	6.92
677.939	6.51
678.264	6.99
678.588	6.07
678.912	6.87
679.236	7.38
679.56	7.12
679.885	6.16
680.209	6.27
680.532	6.5
680.856	6.51
681.18	6.22
681.504	6.68
681.828	6.6
682.152	6.99
682.475	6.32
682.799	7.28
683.122	6.45
683.446	6.56
683.769	6.59
684.093	6.84
684.416	6.53
684.739	6.54
685.062	7.28
685.386	6.38
685.709	6.51
686.032	6.52
686.355	7.24
686.678	7.14
687.001	6.42
687.324	6.96
687.646	7.52
687.969	6.3
688.292	6.74
688.614	7.42
688.937	6.66
689.26	6.37
689.582	6.95
689.904	6.96
690.227	6.96
690.549	6.58
690.871	6.48
691.194	7.49
691.516	6.84
691.838	6.6
692.16	7.26
