Data from 433_chest_Reflection__1__108.txt Node

Date: Tue Dec 12 19:20:33 CST 2023
User: ToomeyLab
Spectrometer: FLMS14357
Trigger mode: 0
Integration Time (sec): 1.000000E-2
Scans to average: 100
Electric dark correction enabled: true
Nonlinearity correction enabled: false
Boxcar width: 0
XAxis mode: Wavelengths
Number of Pixels in Spectrum: 2048
>>>>>Begin Spectral Data<<<<<
189.047	154.26
189.435	154.26
189.823	154.26
190.211	-88.05
190.599	91.62
190.987	98.2
191.375	105.03
191.763	238.37
192.151	119.59
192.538	-81.81
192.926	271.03
193.314	-45.96
193.702	-0.5
194.089	38.13
194.477	-209.65
194.864	79.7
195.252	186.79
195.639	350
196.027	43.32
196.414	-3.87
196.801	-1364.29
197.189	50.73
197.576	86.43
197.963	-57.67
198.351	-3.71
198.738	68.59
199.125	22.86
199.512	-38.48
199.899	44.67
200.286	45.8
200.673	-64.06
201.06	-6.41
201.447	-28.88
201.833	-145.1
202.22	-14.93
202.607	-98.7
202.994	-35.09
203.38	14.31
203.767	39.78
204.154	28.64
204.54	13.15
204.927	-29.39
205.313	-27.25
205.699	-28.81
206.086	-28.74
206.472	36.03
206.858	-16.48
207.245	-27.51
207.631	1.73
208.017	-10.1
208.403	-52.71
208.789	9.19
209.175	-52.71
209.561	33.35
209.947	-37.48
210.333	-6.21
210.719	-11.61
211.105	-5.54
211.491	33.92
211.876	15.1
212.262	26.24
212.648	-109.84
213.034	-123.01
213.419	-53.39
213.805	-0.57
214.19	-3.33
214.576	11.4
214.961	3.88
215.346	-52.92
215.732	26.08
216.117	19.55
216.502	-5.08
216.888	-26.65
217.273	-36.37
217.658	-29.43
218.043	-42.24
218.428	33.53
218.813	8.5
219.198	-27.39
219.583	20.93
219.968	-4.18
220.353	4.06
220.738	-8.7
221.122	-14
221.507	-29.77
221.892	3.42
222.276	-7.35
222.661	-13.25
223.046	-21.17
223.43	-6.11
223.815	-14.44
224.199	12.31
224.583	-0.93
224.968	14.15
225.352	-3.28
225.736	8.4
226.121	-5.87
226.505	-3.41
226.889	-8.19
227.273	4.65
227.657	6.65
228.041	5.9
228.425	-0.52
228.809	0.52
229.193	0.71
229.577	0.63
229.961	0.71
230.344	1.4
230.728	2.59
231.112	1.58
231.495	0.9
231.879	1.61
232.263	0.72
232.646	2.69
233.03	2.49
233.413	-0.81
233.797	-0.83
234.18	-0.2
234.563	-2.33
234.946	1.28
235.33	2.26
235.713	2.89
236.096	1.68
236.479	1.24
236.862	1.79
237.245	2.02
237.628	1.68
238.011	3.48
238.394	0.95
238.777	1.03
239.16	-0.23
239.543	1.08
239.925	1.52
240.308	3.43
240.691	1.49
241.073	3.57
241.456	2.72
241.838	1.63
242.221	1.58
242.603	2.62
242.986	1.18
243.368	2.08
243.75	2.5
244.133	2.25
244.515	2.37
244.897	2.81
245.279	2.92
245.661	1.49
246.043	0.61
246.425	2.09
246.807	0.89
247.189	1.53
247.571	3.53
247.953	2.1
248.335	2.52
248.717	2.36
249.098	2.58
249.48	2.31
249.862	2.12
250.243	2.04
250.625	3.19
251.006	2.68
251.388	2.6
251.769	1.77
252.151	1.93
252.532	2.23
252.913	2.57
253.295	3.1
253.676	2.01
254.057	1.94
254.438	2.88
254.819	2.6
255.2	1.96
255.581	1.96
255.962	2.32
256.343	1.38
256.724	3.01
257.105	2.28
257.486	1.7
257.867	1.7
258.247	1.14
258.628	2.71
259.009	1.94
259.389	3.37
259.77	1.46
260.15	2.15
260.531	3.27
260.911	3.08
261.292	1.92
261.672	2.23
262.052	2.26
262.432	2.53
262.813	2.52
263.193	2.56
263.573	2.26
263.953	3.15
264.333	3.44
264.713	2.27
265.093	2.44
265.473	2.79
265.853	1.51
266.233	2.51
266.612	2.51
266.992	1.73
267.372	2.82
267.752	2.41
268.131	0.92
268.511	2.41
268.89	1.89
269.27	1.48
269.649	2.52
270.029	2.14
270.408	2.85
270.787	1.88
271.167	2.66
271.546	2.02
271.925	3.12
272.304	2.61
272.683	2.11
273.062	2.11
273.441	2.57
273.82	2.05
274.199	1.99
274.578	2.14
274.957	2.02
275.336	2.2
275.715	2.15
276.093	1.36
276.472	2.2
276.851	2.24
277.229	1.84
277.608	2.51
277.986	1.39
278.365	2.29
278.743	2.3
279.122	2.72
279.5	1
279.878	1.52
280.257	1.51
280.635	2.64
281.013	1.81
281.391	2.65
281.769	1.46
282.147	2.07
282.525	1.45
282.903	2.75
283.281	1.22
283.659	1.83
284.037	2.97
284.415	2.23
284.792	2.51
285.17	1.77
285.548	1.9
285.925	2.29
286.303	1.66
286.68	2.21
287.058	2.34
287.435	2.36
287.813	1.92
288.19	2.14
288.567	2.12
288.945	2.16
289.322	2.18
289.699	2.19
290.076	2.41
290.453	2.69
290.83	2.41
291.207	2.47
291.584	2.75
291.961	2.51
292.338	2.58
292.715	2.61
293.092	2.47
293.469	2.53
293.845	2.82
294.222	2.61
294.599	2.78
294.975	2.6
295.352	2.8
295.728	2.8
296.105	3.47
296.481	3.18
296.858	2.95
297.234	3.15
297.61	2.7
297.986	3.6
298.363	3.46
298.739	3.24
299.115	2.94
299.491	3.04
299.867	3.21
300.243	3.35
300.619	3.27
300.995	3.25
301.371	3.61
301.746	3.34
302.122	4.1
302.498	3.23
302.874	3.18
303.249	3.9
303.625	3.27
304	3.68
304.376	3.68
304.751	3.88
305.127	3.51
305.502	3.77
305.878	3.18
306.253	3.09
306.628	4.08
307.003	4.04
307.378	2.68
307.754	3.26
308.129	3.72
308.504	4.01
308.879	3.38
309.254	4.06
309.629	3.54
310.003	4.48
310.378	3.71
310.753	3.64
311.128	3.98
311.502	3.33
311.877	3.43
312.252	3.53
312.626	3.83
313.001	3.71
313.375	3.79
313.75	4.16
314.124	3.74
314.498	3.71
314.873	4.01
315.247	4.4
315.621	3.77
315.995	4.25
316.369	4.36
316.743	3.32
317.117	3.68
317.491	3.93
317.865	3.95
318.239	4.02
318.613	4.27
318.987	4.98
319.361	3.73
319.734	3.8
320.108	4.25
320.482	4.02
320.855	4.02
321.229	4.55
321.602	4.84
321.976	3.65
322.349	4.57
322.723	4.39
323.096	5
323.469	4.25
323.843	5.43
324.216	5.1
324.589	4.3
324.962	4.37
325.335	5.49
325.708	4.68
326.081	4.5
326.454	4.24
326.827	4.95
327.2	4.39
327.573	3.99
327.945	4.9
328.318	4.9
328.691	4.47
329.063	5.38
329.436	4.86
329.809	4.45
330.181	3.98
330.553	3.92
330.926	4.18
331.298	4.87
331.671	4.47
332.043	4.29
332.415	3.97
332.787	4.64
333.159	4.92
333.532	4.6
333.904	5.11
334.276	5.28
334.648	4.52
335.02	4.1
335.391	4.24
335.763	4.61
336.135	4.7
336.507	4.69
336.879	4.67
337.25	4.83
337.622	4.71
337.993	4.63
338.365	4.59
338.736	4.94
339.108	4.38
339.479	4.57
339.851	4.25
340.222	4.23
340.593	4.77
340.964	4.46
341.336	4.76
341.707	4.02
342.078	3.8
342.449	4.32
342.82	5.01
343.191	4.64
343.562	4.76
343.933	4.52
344.303	4.8
344.674	4.93
345.045	5.09
345.416	5.26
345.786	4.75
346.157	4.36
346.527	4.72
346.898	4.36
347.268	4.59
347.639	4.58
348.009	5.08
348.38	4.59
348.75	4.79
349.12	4.8
349.49	4.35
349.861	4.94
350.231	4.79
350.601	5.06
350.971	4.59
351.341	5.13
351.711	4.79
352.081	5.25
352.45	4.62
352.82	4.57
353.19	4.88
353.56	4.4
353.929	4.81
354.299	4.47
354.669	4.66
355.038	4.47
355.408	4.38
355.777	5.01
356.147	4.6
356.516	5.19
356.885	4.7
357.254	4.97
357.624	4.34
357.993	4.81
358.362	4.91
358.731	5.05
359.1	4.83
359.469	4.75
359.838	4.39
360.207	4.66
360.576	5.17
360.945	4.55
361.314	5.01
361.682	4.84
362.051	4.98
362.42	5.1
362.788	4.82
363.157	5.14
363.525	5.2
363.894	4.93
364.262	4.58
364.631	4.46
364.999	4.64
365.367	4.68
365.735	5.03
366.104	5.04
366.472	4.89
366.84	4.8
367.208	4.7
367.576	4.69
367.944	5.29
368.312	5.02
368.68	4.83
369.048	4.71
369.416	4.73
369.783	4.87
370.151	4.47
370.519	5.02
370.886	5.2
371.254	4.72
371.621	5.07
371.989	5.23
372.356	5.02
372.724	5.15
373.091	5.08
373.458	4.77
373.826	4.97
374.193	4.74
374.56	5.04
374.927	5.41
375.294	4.77
375.661	5.32
376.028	5.25
376.395	5.57
376.762	5.65
377.129	5.16
377.496	5.47
377.863	5.3
378.229	5.01
378.596	4.76
378.963	5.15
379.329	4.89
379.696	5.06
380.062	5.37
380.429	5.2
380.795	5.06
381.161	4.97
381.528	5.11
381.894	5.73
382.26	5.31
382.626	5.15
382.993	5.27
383.359	4.62
383.725	5.17
384.091	4.98
384.457	4.87
384.823	5.36
385.188	5.04
385.554	5.32
385.92	5.22
386.286	5.46
386.651	5.34
387.017	5.28
387.383	5.31
387.748	5.39
388.114	5.19
388.479	5.43
388.845	5.43
389.21	5.34
389.575	4.74
389.94	5.28
390.306	5.28
390.671	5.34
391.036	5.43
391.401	5.28
391.766	5.44
392.131	5.61
392.496	5.12
392.861	5.07
393.226	5.34
393.591	5.17
393.956	5.18
394.32	5.33
394.685	5.37
395.05	5.19
395.414	5.19
395.779	5.16
396.143	5.66
396.508	5.1
396.872	5.24
397.236	5.46
397.601	5.36
397.965	5.29
398.329	5.37
398.694	5.38
399.058	5.53
399.422	5.27
399.786	5.17
400.15	5.26
400.514	5.43
400.878	5.66
401.242	5.21
401.605	5.42
401.969	5.55
402.333	5.14
402.697	5.51
403.06	5.02
403.424	5.42
403.787	5.32
404.151	5.65
404.514	5.19
404.878	5.28
405.241	5.63
405.604	5.28
405.968	5.47
406.331	5.61
406.694	5.68
407.057	5.32
407.42	5.51
407.783	5.36
408.146	5.46
408.509	5.61
408.872	5.47
409.235	5.45
409.598	5.38
409.961	5.28
410.323	5.3
410.686	5.48
411.049	5.33
411.411	5.74
411.774	5.6
412.136	5.57
412.499	5.38
412.861	5.31
413.223	5.97
413.586	5.37
413.948	5.54
414.31	5.64
414.672	5.62
415.035	5.53
415.397	5.63
415.759	5.75
416.121	5.63
416.483	5.75
416.845	5.52
417.206	5.7
417.568	5.45
417.93	5.81
418.292	5.78
418.653	5.66
419.015	5.64
419.377	5.63
419.738	5.57
420.1	5.55
420.461	5.6
420.822	5.6
421.184	5.57
421.545	5.72
421.906	5.62
422.267	5.62
422.629	5.54
422.99	5.63
423.351	5.55
423.712	5.54
424.073	5.57
424.434	5.65
424.795	5.68
425.155	5.59
425.516	5.55
425.877	5.52
426.238	5.6
426.598	5.58
426.959	5.68
427.32	5.6
427.68	5.56
428.041	5.78
428.401	5.75
428.761	5.53
429.122	5.83
429.482	5.94
429.842	6.04
430.202	5.51
430.563	5.81
430.923	5.79
431.283	5.86
431.643	5.94
432.003	5.79
432.363	5.8
432.722	5.78
433.082	5.96
433.442	5.89
433.802	6.01
434.161	6
434.521	5.82
434.881	5.87
435.24	5.66
435.6	5.88
435.959	5.87
436.319	5.86
436.678	6.04
437.037	5.94
437.396	5.89
437.756	5.89
438.115	5.86
438.474	6
438.833	6.02
439.192	6.01
439.551	5.86
439.91	5.89
440.269	5.93
440.628	5.84
440.987	5.7
441.345	6.04
441.704	5.89
442.063	5.98
442.421	5.88
442.78	5.9
443.138	5.91
443.497	5.98
443.855	5.97
444.214	5.87
444.572	6.09
444.93	6.04
445.288	5.87
445.647	6.07
446.005	6.11
446.363	5.86
446.721	5.95
447.079	6.02
447.437	5.77
447.795	6.01
448.153	5.91
448.51	6.02
448.868	6.01
449.226	6.08
449.584	5.98
449.941	6.07
450.299	6.17
450.656	6.03
451.014	6.15
451.371	6.17
451.729	6.3
452.086	5.98
452.443	6.18
452.801	6.11
453.158	5.95
453.515	6.21
453.872	6.17
454.229	6.2
454.586	6.13
454.943	6.03
455.3	6.17
455.657	6.31
456.014	6.44
456.371	6.22
456.727	6.37
457.084	6.39
457.441	6.25
457.797	6.29
458.154	6.17
458.51	6.33
458.867	6.5
459.223	6.26
459.58	6.32
459.936	6.16
460.292	6.2
460.648	6.31
461.005	6.21
461.361	6.19
461.717	6.29
462.073	6.18
462.429	6.3
462.785	6.25
463.141	6.42
463.496	6.26
463.852	6.48
464.208	6.6
464.564	6.35
464.919	6.44
465.275	6.46
465.631	6.5
465.986	6.38
466.342	6.46
466.697	6.47
467.052	6.54
467.408	6.51
467.763	6.39
468.118	6.54
468.473	6.54
468.829	6.61
469.184	6.33
469.539	6.75
469.894	6.43
470.249	6.66
470.603	6.54
470.958	6.55
471.313	6.75
471.668	6.7
472.023	6.41
472.377	6.63
472.732	6.6
473.086	6.51
473.441	6.8
473.795	6.84
474.15	6.61
474.504	6.43
474.859	6.69
475.213	6.48
475.567	6.5
475.921	6.66
476.275	6.57
476.63	6.64
476.984	6.82
477.338	6.58
477.692	6.43
478.045	6.74
478.399	6.54
478.753	6.61
479.107	6.66
479.461	6.76
479.814	6.61
480.168	6.58
480.521	6.71
480.875	6.78
481.228	6.92
481.582	6.66
481.935	6.88
482.289	6.76
482.642	6.76
482.995	6.61
483.348	6.67
483.701	6.88
484.055	6.7
484.408	6.72
484.761	6.64
485.114	6.48
485.466	6.4
485.819	6.36
486.172	6.33
486.525	6.45
486.878	6.5
487.23	6.57
487.583	6.59
487.936	6.67
488.288	6.54
488.641	6.57
488.993	6.51
489.345	6.54
489.698	6.57
490.05	6.55
490.402	6.68
490.754	6.67
491.107	6.67
491.459	6.77
491.811	6.8
492.163	6.71
492.515	6.91
492.866	6.64
493.218	6.6
493.57	6.65
493.922	6.62
494.274	6.83
494.625	6.9
494.977	6.99
495.328	6.97
495.68	6.91
496.031	7.13
496.383	6.95
496.734	7.1
497.086	7.01
497.437	7.05
497.788	7.15
498.139	7
498.49	7.07
498.842	7
499.193	7.01
499.544	7.13
499.894	7.17
500.245	7.06
500.596	7.14
500.947	7.16
501.298	7.23
501.648	7.19
501.999	7.07
502.35	7.2
502.7	7.31
503.051	7.19
503.401	7.28
503.752	7.42
504.102	7.42
504.452	7.15
504.803	7.38
505.153	7.29
505.503	7.45
505.853	7.49
506.203	7.39
506.553	7.2
506.903	7.49
507.253	7.4
507.603	7.49
507.953	7.41
508.303	7.47
508.652	7.47
509.002	7.53
509.352	7.29
509.701	7.42
510.051	7.32
510.4	7.41
510.75	7.33
511.099	7.32
511.449	7.43
511.798	7.38
512.147	7.42
512.496	7.57
512.846	7.51
513.195	7.39
513.544	7.37
513.893	7.52
514.242	7.37
514.591	7.51
514.939	7.51
515.288	7.57
515.637	7.62
515.986	7.51
516.334	7.62
516.683	7.52
517.032	7.63
517.38	7.55
517.729	7.66
518.077	7.73
518.426	7.71
518.774	7.74
519.122	7.85
519.47	7.7
519.819	7.62
520.167	7.57
520.515	7.48
520.863	7.65
521.211	7.55
521.559	7.65
521.907	7.67
522.255	7.76
522.602	7.92
522.95	7.88
523.298	7.81
523.645	7.93
523.993	8.01
524.341	7.79
524.688	7.95
525.036	7.96
525.383	7.92
525.73	7.95
526.078	7.88
526.425	7.86
526.772	7.85
527.119	7.9
527.466	7.83
527.814	7.82
528.161	7.85
528.508	8
528.854	7.9
529.201	7.9
529.548	7.86
529.895	7.75
530.242	7.63
530.588	7.61
530.935	7.74
531.282	7.8
531.628	7.88
531.975	7.84
532.321	7.79
532.667	7.93
533.014	7.97
533.36	8.08
533.706	8.04
534.052	8.05
534.399	7.99
534.745	8
535.091	7.95
535.437	8.04
535.783	7.96
536.129	8.16
536.474	8.21
536.82	8.09
537.166	8.29
537.512	8.31
537.857	8.24
538.203	8.4
538.549	8.27
538.894	8.34
539.239	8.35
539.585	8.23
539.93	8.42
540.276	8.51
540.621	8.53
540.966	8.58
541.311	8.51
541.656	8.59
542.001	8.48
542.346	8.42
542.691	8.34
543.036	8.25
543.381	8.14
543.726	8.33
544.071	8.36
544.415	8.3
544.76	8.37
545.105	8.47
545.449	8.48
545.794	8.69
546.138	8.52
546.483	8.7
546.827	8.61
547.171	8.77
547.516	8.67
547.86	8.84
548.204	8.79
548.548	8.78
548.892	8.76
549.236	8.72
549.58	8.84
549.924	8.85
550.268	8.95
550.612	8.8
550.956	9.05
551.3	9.06
551.643	8.93
551.987	9.11
552.33	9.05
552.674	9.02
553.017	9.28
553.361	9.3
553.704	9.08
554.048	9.25
554.391	9.01
554.734	9.19
555.077	9.16
555.42	9.21
555.764	9.27
556.107	9.41
556.45	9.02
556.793	9.22
557.135	9.31
557.478	9.26
557.821	9.5
558.164	9.16
558.507	9.32
558.849	9.3
559.192	9.34
559.534	9.57
559.877	9.74
560.219	9.56
560.562	9.47
560.904	9.49
561.246	9.34
561.589	9.8
561.931	9.47
562.273	9.36
562.615	9.48
562.957	9.54
563.299	9.76
563.641	9.58
563.983	9.64
564.325	9.72
564.667	9.81
565.008	9.45
565.35	9.41
565.692	9.84
566.033	9.84
566.375	9.86
566.716	9.74
567.058	10.08
567.399	9.73
567.741	9.79
568.082	9.67
568.423	9.78
568.764	9.85
569.105	9.83
569.447	9.99
569.788	9.86
570.129	9.86
570.47	10.1
570.811	10.05
571.151	10.09
571.492	10.14
571.833	10.15
572.174	10.05
572.514	10.11
572.855	10.09
573.195	10.11
573.536	10.14
573.876	9.96
574.217	10.18
574.557	10.09
574.898	10.3
575.238	10.25
575.578	9.95
575.918	10.41
576.258	10.27
576.598	10.1
576.938	10.26
577.278	10.33
577.618	10.49
577.958	10.25
578.298	10.57
578.638	10.38
578.977	10.44
579.317	10.46
579.657	10.62
579.996	10.92
580.336	10.49
580.675	10.61
581.014	10.61
581.354	10.76
581.693	10.57
582.032	10.7
582.372	10.98
582.711	10.9
583.05	10.73
583.389	10.97
583.728	10.71
584.067	11
584.406	11
584.745	11.22
585.083	10.77
585.422	11.01
585.761	10.99
586.1	11.02
586.438	11.24
586.777	10.98
587.115	11.07
587.454	10.89
587.792	10.65
588.13	11.02
588.469	11.38
588.807	11.04
589.145	11.21
589.483	11.18
589.821	11.23
590.159	11.05
590.497	11.04
590.835	11.26
591.173	11.23
591.511	11.14
591.849	11.07
592.187	11.5
592.524	11.25
592.862	11.29
593.2	11.44
593.537	11.14
593.875	11.57
594.212	11.54
594.55	11.64
594.887	11.59
595.224	11.39
595.561	11.54
595.899	11.54
596.236	11.46
596.573	11.33
596.91	11.86
597.247	11.42
597.584	11.62
597.921	11.9
598.258	11.82
598.594	11.79
598.931	11.67
599.268	11.64
599.604	11.55
599.941	11.63
600.277	11.72
600.614	11.9
600.95	11.87
601.287	11.5
601.623	11.88
601.959	11.83
602.296	12.08
602.632	11.57
602.968	12.05
603.304	12.06
603.64	12.18
603.976	11.59
604.312	12.07
604.648	12.11
604.984	11.94
605.319	11.92
605.655	11.81
605.991	12.11
606.326	11.91
606.662	12.1
606.998	11.98
607.333	12.11
607.668	12.12
608.004	12.21
608.339	12.1
608.674	12.33
609.01	12
609.345	12.41
609.68	12.57
610.015	12.03
610.35	12.25
610.685	12.43
611.02	12.25
611.355	12.37
611.689	12.4
612.024	12.37
612.359	12.37
612.694	12.37
613.028	12.52
613.363	12.43
613.697	12.5
614.032	12.7
614.366	12.72
614.7	12.52
615.035	12.8
615.369	12.46
615.703	12.62
616.037	12.67
616.371	12.8
616.705	12.56
617.039	12.88
617.373	12.63
617.707	12.52
618.041	12.84
618.375	12.79
618.709	12.81
619.042	12.57
619.376	12.58
619.71	12.74
620.043	13.04
620.377	13.01
620.71	12.96
621.043	12.79
621.377	12.77
621.71	12.92
622.043	13.23
622.376	13.26
622.709	13.17
623.043	13.03
623.376	13.57
623.709	13.31
624.041	13.57
624.374	13.13
624.707	13.1
625.04	13.06
625.373	13.95
625.705	13.39
626.038	13.38
626.37	13.26
626.703	13.49
627.035	13.3
627.368	13.47
627.7	13.49
628.032	13.46
628.365	13.62
628.697	13.6
629.029	13.42
629.361	13.33
629.693	13.25
630.025	13.31
630.357	13.55
630.689	13.52
631.021	13.89
631.353	13.74
631.684	13.57
632.016	13.58
632.348	14.02
632.679	13.67
633.011	14.4
633.342	14.28
633.674	13.72
634.005	13.86
634.336	14.04
634.668	14.18
634.999	14.12
635.33	13.73
635.661	13.93
635.992	13.9
636.323	13.62
636.654	14.29
636.985	13.96
637.316	13.92
637.647	13.95
637.977	14.12
638.308	14.25
638.639	14.05
638.969	14.09
639.3	14.28
639.63	14.65
639.961	14.55
640.291	13.67
640.622	14.26
640.952	14.38
641.282	14.4
641.612	14.46
641.943	14.1
642.273	14.33
642.603	14.33
642.933	14.44
643.263	13.98
643.592	14.63
643.922	14.86
644.252	14.47
644.582	13.95
644.911	14.21
645.241	13.96
645.571	15.26
645.9	14.03
646.23	14.26
646.559	14.55
646.888	14.76
647.218	14.87
647.547	14.54
647.876	14.7
648.205	14.62
648.534	14.6
648.863	14.38
649.192	15.44
649.521	15.1
649.85	14.13
650.179	14.96
650.508	15.23
650.837	14.85
651.165	14.28
651.494	14.88
651.822	15.12
652.151	15.1
652.479	15.37
652.808	14.78
653.136	15.31
653.465	15.07
653.793	15.03
654.121	14.95
654.449	14.93
654.777	15.13
655.105	15.77
655.433	15.21
655.761	15.29
656.089	15.15
656.417	15.21
656.745	15.16
657.073	15.18
657.4	15.02
657.728	14.61
658.056	15.13
658.383	15.33
658.711	15.36
659.038	15.37
659.365	15.23
659.693	14.83
660.02	15.42
660.347	15.59
660.674	15.57
661.001	15.4
661.329	15.1
661.656	15.56
661.982	15.56
662.309	15.55
662.636	15.54
662.963	15.74
663.29	15.74
663.616	15.55
663.943	16.11
664.27	16.4
664.596	15.85
664.923	16.14
665.249	15.5
665.576	16.05
665.902	15.16
666.228	15.38
666.554	15.35
666.881	15.48
667.207	15.75
667.533	15.81
667.859	15.58
668.185	15.92
668.511	15.95
668.837	16.2
669.162	16.67
669.488	15.86
669.814	16.12
670.139	15.8
670.465	15.87
670.791	16.35
671.116	15.89
671.442	16.03
671.767	16.43
672.092	16.7
672.418	15.88
672.743	16.05
673.068	15.18
673.393	15.64
673.718	16.67
674.043	16.5
674.368	15.59
674.693	15.89
675.018	15.98
675.343	16.78
675.667	16.39
675.992	16.18
676.317	16.67
676.641	15.69
676.966	16.5
677.29	15.82
677.615	16.73
677.939	16.08
678.264	16.81
678.588	15.93
678.912	16.84
679.236	16
679.56	16.76
679.885	16.45
680.209	16.84
680.532	16.29
680.856	16.34
681.18	16.25
681.504	17.06
681.828	16.83
682.152	16.61
682.475	16.64
682.799	16.32
683.122	16.83
683.446	16.64
683.769	17.75
684.093	15.85
684.416	16.83
