Data from 433_forehead_Reflection__3__120.txt Node

Date: Tue Dec 12 19:23:45 CST 2023
User: ToomeyLab
Spectrometer: FLMS14357
Trigger mode: 0
Integration Time (sec): 1.000000E-2
Scans to average: 100
Electric dark correction enabled: true
Nonlinearity correction enabled: false
Boxcar width: 0
XAxis mode: Wavelengths
Number of Pixels in Spectrum: 2048
>>>>>Begin Spectral Data<<<<<
189.047	53.57
189.435	53.57
189.823	53.57
190.211	-9.4
190.599	-21.64
190.987	136.74
191.375	239.88
191.763	268.31
192.151	136.36
192.538	-20.81
192.926	362.76
193.314	274.12
193.702	24.49
194.089	56.46
194.477	970.83
194.864	42.7
195.252	353.04
195.639	-178.77
196.027	-54.04
196.414	63.68
196.801	-10866.07
197.189	-22.34
197.576	194.77
197.963	130.78
198.351	52.55
198.738	76.94
199.125	-6.97
199.512	51.24
199.899	32.35
200.286	76.33
200.673	9.9
201.06	56.52
201.447	-11.61
201.833	133.54
202.22	14.32
202.607	-30.92
202.994	74.84
203.38	35.13
203.767	45.38
204.154	54.19
204.54	71.01
204.927	-3.15
205.313	42.61
205.699	50.17
206.086	43.94
206.472	52.78
206.858	20.07
207.245	48.77
207.631	29.8
208.017	6.39
208.403	29.34
208.789	61.06
209.175	-5.03
209.561	45.55
209.947	-19.09
210.333	66.19
210.719	-2.69
211.105	6.06
211.491	4.84
211.876	52.62
212.262	18.45
212.648	-41.03
213.034	-19.59
213.419	20.08
213.805	28.38
214.19	41.98
214.576	37.49
214.961	31.69
215.346	-33.21
215.732	55.88
216.117	11.84
216.502	-41.55
216.888	-4.11
217.273	15.6
217.658	-18.27
218.043	14.64
218.428	3.83
218.813	7.45
219.198	-7.07
219.583	21.33
219.968	16.35
220.353	12.32
220.738	20.3
221.122	37.39
221.507	-3.98
221.892	-8.95
222.276	13.06
222.661	6.07
223.046	-5.05
223.43	16.28
223.815	10.66
224.199	17.79
224.583	16.79
224.968	9.31
225.352	6.3
225.736	15.49
226.121	2.46
226.505	16.82
226.889	0.47
227.273	11.84
227.657	10.76
228.041	10.54
228.425	10.21
228.809	5.33
229.193	5.19
229.577	8.79
229.961	5.22
230.344	5.92
230.728	6.78
231.112	5.41
231.495	5.43
231.879	5.83
232.263	4.62
232.646	5.67
233.03	6.02
233.413	4.83
233.797	2.2
234.18	4.61
234.563	3.17
234.946	5.59
235.33	7.18
235.713	5.97
236.096	4.51
236.479	5.88
236.862	4.85
237.245	6.16
237.628	4.17
238.011	7.07
238.394	6.13
238.777	7.65
239.16	5.19
239.543	5.27
239.925	7.69
240.308	6
240.691	7.96
241.073	7.83
241.456	7.12
241.838	5.81
242.221	6.85
242.603	5.72
242.986	5.23
243.368	5.77
243.75	4.98
244.133	5.24
244.515	5.35
244.897	5.82
245.279	6.43
245.661	4.62
246.043	4.6
246.425	5.02
246.807	5.45
247.189	5.99
247.571	6.46
247.953	4.63
248.335	5.54
248.717	5.09
249.098	5.07
249.48	4.96
249.862	5.17
250.243	5.01
250.625	5.42
251.006	5.2
251.388	4.99
251.769	5.44
252.151	4.8
252.532	5.43
252.913	6.14
253.295	6.43
253.676	4.53
254.057	5.43
254.438	5.14
254.819	5.09
255.2	4.2
255.581	4.24
255.962	5.19
256.343	5.31
256.724	5.2
257.105	5.76
257.486	3.96
257.867	4.74
258.247	3.89
258.628	5.86
259.009	5.07
259.389	5.12
259.77	4.96
260.15	5.17
260.531	5.29
260.911	5.82
261.292	5.03
261.672	5.08
262.052	4.79
262.432	5.06
262.813	5.32
263.193	4.94
263.573	5.4
263.953	5.83
264.333	5.87
264.713	5.4
265.093	4.75
265.473	5.58
265.853	5.13
266.233	4.62
266.612	4.56
266.992	5.11
267.372	5.47
267.752	6.8
268.131	4.57
268.511	4.76
268.89	4.79
269.27	4.43
269.649	5.07
270.029	4.66
270.408	5
270.787	5.38
271.167	5.08
271.546	5.3
271.925	5.96
272.304	5.61
272.683	4.6
273.062	5.21
273.441	5.05
273.82	4.68
274.199	5.3
274.578	5.26
274.957	4.9
275.336	5.09
275.715	5.11
276.093	4.49
276.472	5.12
276.851	5.49
277.229	4.44
277.608	4.94
277.986	4.57
278.365	5.13
278.743	4.88
279.122	5.18
279.5	5.14
279.878	4.88
280.257	4.86
280.635	4.98
281.013	5.51
281.391	5.19
281.769	4.53
282.147	5.09
282.525	4.18
282.903	5.18
283.281	5.37
283.659	4.97
284.037	5.37
284.415	4.88
284.792	5.2
285.17	5.22
285.548	5.09
285.925	4.87
286.303	5.04
286.68	5.16
287.058	5.14
287.435	4.99
287.813	4.48
288.19	4.9
288.567	5.16
288.945	5.25
289.322	4.43
289.699	5.12
290.076	5.32
290.453	5.38
290.83	5.1
291.207	5.76
291.584	5.55
291.961	5.52
292.338	5.05
292.715	5.25
293.092	5.37
293.469	5.22
293.845	5.56
294.222	5.6
294.599	5.59
294.975	5.08
295.352	5.47
295.728	5.91
296.105	5.37
296.481	5.94
296.858	5.87
297.234	6.3
297.61	6.01
297.986	6.23
298.363	6.08
298.739	5.65
299.115	5.56
299.491	5.93
299.867	5.87
300.243	5.6
300.619	5.98
300.995	6.28
301.371	6.31
301.746	6.75
302.122	6.21
302.498	6.79
302.874	6.23
303.249	6.68
303.625	6.06
304	6.07
304.376	6.09
304.751	6.88
305.127	6.3
305.502	6.82
305.878	6.49
306.253	6.39
306.628	6.22
307.003	6.41
307.378	6.02
307.754	6.57
308.129	7.34
308.504	7.76
308.879	6.8
309.254	7.25
309.629	6.75
310.003	7.24
310.378	7.4
310.753	6.9
311.128	7.8
311.502	6.77
311.877	6.46
312.252	6.6
312.626	7.3
313.001	7.07
313.375	7.23
313.75	7.55
314.124	7.4
314.498	8.01
314.873	7.72
315.247	7.73
315.621	7.59
315.995	7.59
316.369	8.2
316.743	7.58
317.117	7.64
317.491	8.16
317.865	7.8
318.239	7.42
318.613	8.68
318.987	8.47
319.361	7.71
319.734	8.39
320.108	9.07
320.482	9.05
320.855	8.08
321.229	8.51
321.602	8.42
321.976	8.5
322.349	8.37
322.723	8.49
323.096	8.45
323.469	8.25
323.843	10.5
324.216	9.65
324.589	8.99
324.962	9.09
325.335	9.59
325.708	9.53
326.081	9.63
326.454	9.38
326.827	9.35
327.2	9.09
327.573	8.85
327.945	9.08
328.318	9.4
328.691	9.12
329.063	10.02
329.436	9.61
329.809	9.94
330.181	9.39
330.553	9.56
330.926	9.58
331.298	9.92
331.671	10.55
332.043	10.07
332.415	10.5
332.787	10.07
333.159	9.94
333.532	10.32
333.904	10.49
334.276	10.92
334.648	9.26
335.02	9.29
335.391	10.07
335.763	10.24
336.135	10.52
336.507	10.68
336.879	10.34
337.25	10.86
337.622	9.91
337.993	10.21
338.365	10.27
338.736	10.93
339.108	10.36
339.479	10.89
339.851	10.63
340.222	10.05
340.593	10.95
340.964	10.95
341.336	11.42
341.707	10.82
342.078	10.39
342.449	10.83
342.82	11.09
343.191	11.25
343.562	11.15
343.933	11.39
344.303	11.35
344.674	10.99
345.045	11.21
345.416	11.5
345.786	10.93
346.157	11.26
346.527	11.87
346.898	11.21
347.268	11.9
347.639	11.79
348.009	11.7
348.38	11.67
348.75	12.73
349.12	12.1
349.49	11.98
349.861	12.13
350.231	11.9
350.601	12.56
350.971	12.29
351.341	12.45
351.711	12.73
352.081	12.43
352.45	11.83
352.82	12.38
353.19	12.74
353.56	11.99
353.929	12.15
354.299	12.37
354.669	12.15
355.038	12.25
355.408	12.7
355.777	13.03
356.147	12.41
356.516	13
356.885	12.81
357.254	13.02
357.624	12.62
357.993	12.68
358.362	13.54
358.731	13.28
359.1	12.75
359.469	13.01
359.838	13.03
360.207	13.27
360.576	13.64
360.945	13.33
361.314	13.4
361.682	13.52
362.051	13.9
362.42	13.71
362.788	13.61
363.157	13.75
363.525	13.7
363.894	13.62
364.262	13.66
364.631	13.51
364.999	13.79
365.367	14.31
365.735	13.71
366.104	14.13
366.472	14.17
366.84	13.96
367.208	13.91
367.576	14.11
367.944	14.45
368.312	14.27
368.68	14.25
369.048	14.63
369.416	14.21
369.783	14.7
370.151	15
370.519	14.36
370.886	14.8
371.254	14.71
371.621	15
371.989	14.85
372.356	14.79
372.724	14.78
373.091	14.69
373.458	15.08
373.826	15.47
374.193	15.12
374.56	15.23
374.927	15.51
375.294	15.27
375.661	15.22
376.028	15.72
376.395	15.57
376.762	15.91
377.129	15.52
377.496	15.58
377.863	15.65
378.229	15.65
378.596	15.85
378.963	16.11
379.329	15.57
379.696	15.77
380.062	16.38
380.429	16.07
380.795	16
381.161	16.25
381.528	16.28
381.894	16.45
382.26	16.14
382.626	16.45
382.993	16.62
383.359	16.35
383.725	16.63
384.091	16.54
384.457	16.56
384.823	16.84
385.188	16.53
385.554	16.87
385.92	16.84
386.286	16.8
386.651	16.77
387.017	17.11
387.383	17.05
387.748	17.02
388.114	16.69
388.479	17.04
388.845	17.25
389.21	17.12
389.575	17.1
389.94	17.38
390.306	17.6
390.671	17.67
391.036	17.13
391.401	17.63
391.766	17.72
392.131	17.5
392.496	17.31
392.861	17.6
393.226	17.67
393.591	17.78
393.956	17.58
394.32	17.97
394.685	17.85
395.05	17.87
395.414	17.89
395.779	17.8
396.143	18.12
396.508	18.06
396.872	18.15
397.236	18.12
397.601	18.56
397.965	18.33
398.329	18.55
398.694	18.01
399.058	18.61
399.422	18.43
399.786	18.78
400.15	18.42
400.514	18.91
400.878	18.77
401.242	18.8
401.605	18.77
401.969	18.91
402.333	19.01
402.697	18.88
403.06	18.78
403.424	19.23
403.787	19.07
404.151	19.12
404.514	18.86
404.878	19.05
405.241	19.1
405.604	18.94
405.968	19.2
406.331	19.54
406.694	19.37
407.057	19.47
407.42	19.38
407.783	19.46
408.146	19.67
408.509	19.86
408.872	19.78
409.235	19.92
409.598	19.84
409.961	19.97
410.323	19.95
410.686	19.83
411.049	20.16
411.411	20.07
411.774	20.29
412.136	20.23
412.499	20.02
412.861	20.08
413.223	20.57
413.586	20.39
413.948	20.47
414.31	20.57
414.672	20.53
415.035	20.48
415.397	20.48
415.759	20.75
416.121	20.36
416.483	20.76
416.845	20.87
417.206	20.85
417.568	20.78
417.93	20.77
418.292	20.56
418.653	20.84
419.015	20.92
419.377	20.9
419.738	20.66
420.1	20.65
420.461	20.99
420.822	20.88
421.184	20.97
421.545	21.18
421.906	21.05
422.267	21.1
422.629	21.12
422.99	20.92
423.351	21.07
423.712	21.07
424.073	21.29
424.434	21.36
424.795	21.58
425.155	21.23
425.516	21.25
425.877	21.2
426.238	21.35
426.598	21.35
426.959	21.54
427.32	21.61
427.68	21.73
428.041	21.86
428.401	22.09
428.761	21.99
429.122	22.25
429.482	22.45
429.842	22.42
430.202	22.39
430.563	22.68
430.923	22.78
431.283	22.39
431.643	22.59
432.003	22.61
432.363	22.95
432.722	22.79
433.082	22.74
433.442	23.01
433.802	22.85
434.161	22.87
434.521	22.85
434.881	22.79
435.24	22.83
435.6	22.85
435.959	22.92
436.319	23.12
436.678	23.41
437.037	23.07
437.396	23.17
437.756	23.2
438.115	23.34
438.474	23.7
438.833	23.53
439.192	23.7
439.551	23.48
439.91	23.65
440.269	23.42
440.628	23.55
440.987	23.38
441.345	23.68
441.704	23.66
442.063	23.87
442.421	23.63
442.78	23.73
443.138	23.65
443.497	23.85
443.855	24.02
444.214	23.95
444.572	24.36
444.93	24.41
445.288	24.17
445.647	24.51
446.005	24.33
446.363	24.03
446.721	24.25
447.079	24.42
447.437	24.19
447.795	24.28
448.153	24.12
448.51	24.33
448.868	24.39
449.226	24.59
449.584	24.47
449.941	24.66
450.299	24.83
450.656	24.94
451.014	25.01
451.371	25.07
451.729	25.3
452.086	25.23
452.443	25.39
452.801	25.47
453.158	25.53
453.515	25.53
453.872	25.43
454.229	25.46
454.586	25.52
454.943	25.39
455.3	25.65
455.657	25.69
456.014	25.9
456.371	25.76
456.727	25.8
457.084	25.9
457.441	25.81
457.797	26.15
458.154	26.13
458.51	26.09
458.867	26.19
459.223	26.17
459.58	26.04
459.936	26.3
460.292	26.29
460.648	26.12
461.005	26.01
461.361	25.97
461.717	26.12
462.073	26
462.429	26.18
462.785	26.18
463.141	26.41
463.496	26.66
463.852	26.9
464.208	26.89
464.564	27.04
464.919	26.98
465.275	27.09
465.631	27.33
465.986	27.09
466.342	27.19
466.697	27.26
467.052	27.21
467.408	27.43
467.763	27.21
468.118	27.55
468.473	27.69
468.829	27.53
469.184	27.34
469.539	27.5
469.894	27.78
470.249	27.6
470.603	27.9
470.958	27.7
471.313	28.01
471.668	27.95
472.023	28.06
472.377	28
472.732	28.15
473.086	28.24
473.441	28.61
473.795	28.21
474.15	28.38
474.504	28.34
474.859	28.35
475.213	28.26
475.567	28.4
475.921	28.51
476.275	28.81
476.63	28.71
476.984	28.71
477.338	28.74
477.692	28.79
478.045	28.98
478.399	28.64
478.753	28.76
479.107	29.04
479.461	28.73
479.814	28.88
480.168	28.95
480.521	28.72
480.875	28.97
481.228	29.08
481.582	29.23
481.935	29.27
482.289	29.21
482.642	29.26
482.995	29.16
483.348	29.27
483.701	29.2
484.055	29
484.408	28.86
484.761	28.9
485.114	28.52
485.466	28.23
485.819	28.24
486.172	28.31
486.525	28.4
486.878	28.44
487.23	28.75
487.583	28.94
487.936	29.1
488.288	29.13
488.641	29.07
488.993	28.91
489.345	28.9
489.698	28.95
490.05	29.03
490.402	29.25
490.754	29.27
491.107	29.5
491.459	29.67
491.811	29.92
492.163	30.06
492.515	30.03
492.866	29.86
493.218	29.71
493.57	29.51
493.922	29.64
494.274	29.76
494.625	30.11
494.977	30.32
495.328	30.62
495.68	30.78
496.031	30.9
496.383	31.05
496.734	31.34
497.086	31.04
497.437	31.17
497.788	31.11
498.139	31.21
498.49	31.29
498.842	31.14
499.193	31.26
499.544	31.34
499.894	31.28
500.245	31.4
500.596	31.57
500.947	31.5
501.298	31.66
501.648	31.76
501.999	31.74
502.35	31.78
502.7	31.95
503.051	32.06
503.401	32.11
503.752	32.33
504.102	32.19
504.452	32.46
504.803	32.42
505.153	32.26
505.503	32.57
505.853	32.37
506.203	32.34
506.553	32.38
506.903	32.56
507.253	32.57
507.603	32.61
507.953	32.68
508.303	32.71
508.652	32.97
509.002	32.91
509.352	32.72
509.701	32.9
510.051	32.67
510.4	32.79
510.75	32.77
511.099	32.83
511.449	32.84
511.798	32.95
512.147	32.96
512.496	33.32
512.846	33.18
513.195	33.09
513.544	33.42
513.893	33.51
514.242	33.41
514.591	33.45
514.939	33.62
515.288	33.77
515.637	33.6
515.986	33.72
516.334	33.71
516.683	34.03
517.032	34.03
517.38	33.78
517.729	34
518.077	33.87
518.426	34.25
518.774	34.22
519.122	34.04
519.47	33.99
519.819	33.98
520.167	33.77
520.515	33.82
520.863	33.86
521.211	33.74
521.559	34.1
521.907	34.06
522.255	34.36
522.602	34.48
522.95	34.57
523.298	34.7
523.645	34.97
523.993	35.06
524.341	34.87
524.688	35.04
525.036	35.24
525.383	34.78
525.73	34.95
526.078	34.99
526.425	35
526.772	34.79
527.119	34.75
527.466	34.83
527.814	34.79
528.161	34.8
528.508	34.84
528.854	34.97
529.201	34.88
529.548	34.88
529.895	34.65
530.242	34.32
530.588	34.29
530.935	34.51
531.282	34.54
531.628	34.78
531.975	34.92
532.321	35.03
532.667	35.33
533.014	35.52
533.36	35.61
533.706	35.73
534.052	35.78
534.399	35.59
534.745	35.44
535.091	35.36
535.437	35.26
535.783	35.43
536.129	35.7
536.474	35.83
536.82	36.03
537.166	36.22
537.512	36.44
537.857	36.47
538.203	36.19
538.549	36.12
538.894	36.35
539.239	36.2
539.585	36.54
539.93	36.69
540.276	36.95
540.621	37.12
540.966	37.2
541.311	37.05
541.656	37.26
542.001	37.28
542.346	37.12
542.691	36.63
543.036	36.55
543.381	36.27
543.726	36.49
544.071	36.53
544.415	36.71
544.76	36.93
545.105	36.95
545.449	37.1
545.794	37.46
546.138	37.4
546.483	37.57
546.827	37.53
547.171	37.94
547.516	37.91
547.86	37.91
548.204	38.17
548.548	37.98
548.892	38.11
549.236	38.03
549.58	38.18
549.924	38.2
550.268	38.51
550.612	38.56
550.956	39.09
551.3	39.01
551.643	38.96
551.987	38.75
552.33	39.02
552.674	39.27
553.017	39.31
553.361	39.29
553.704	39.24
554.048	39.12
554.391	39.23
554.734	38.97
555.077	39.47
555.42	39.17
555.764	39.26
556.107	39.64
556.45	39.59
556.793	39.54
557.135	39.77
557.478	39.92
557.821	39.95
558.164	39.96
558.507	39.99
558.849	40.12
559.192	39.91
559.534	40.19
559.877	40.46
560.219	40.31
560.562	40.35
560.904	40.62
561.246	40.65
561.589	40.61
561.931	40.6
562.273	40.58
562.615	40.49
562.957	40.68
563.299	40.8
563.641	40.66
563.983	40.95
564.325	40.5
564.667	41.05
565.008	41.03
565.35	41.12
565.692	41.28
566.033	40.99
566.375	41.32
566.716	41.19
567.058	41.59
567.399	41.39
567.741	41.3
568.082	40.98
568.423	41.01
568.764	41.4
569.105	41.23
569.447	41.46
569.788	41.05
570.129	41.62
570.47	41.68
570.811	41.64
571.151	41.72
571.492	41.9
571.833	41.81
572.174	41.59
572.514	42.04
572.855	42.15
573.195	42.04
573.536	41.78
573.876	41.88
574.217	41.79
574.557	41.86
574.898	42.02
575.238	42.04
575.578	42.06
575.918	42.33
576.258	42.19
576.598	42.25
576.938	42.44
577.278	42.23
577.618	42.44
577.958	42.42
578.298	42.69
578.638	42.5
578.977	42.55
579.317	42.96
579.657	42.99
579.996	43.15
580.336	43.08
580.675	42.98
581.014	43.53
581.354	43.41
581.693	43.54
582.032	43.4
582.372	43.84
582.711	43.74
583.05	44
583.389	43.71
583.728	43.69
584.067	44.15
584.406	43.87
584.745	44.11
585.083	43.98
585.422	44.26
585.761	44.29
586.1	44.08
586.438	44.22
586.777	44.07
587.115	44.18
587.454	43.96
587.792	44.49
588.13	44.71
588.469	44.69
588.807	44.4
589.145	44.55
589.483	44.57
589.821	44.49
590.159	44.32
590.497	44.73
590.835	44.48
591.173	44.58
591.511	44.89
591.849	44.72
592.187	44.99
592.524	44.57
592.862	44.81
593.2	45.07
593.537	44.76
593.875	45.24
594.212	45.17
594.55	45.24
594.887	45.54
595.224	45.06
595.561	45.33
595.899	45.47
596.236	45.79
596.573	45.59
596.91	45.61
597.247	45.52
597.584	45.61
597.921	45.68
598.258	45.63
598.594	45.64
598.931	45.46
599.268	45.37
599.604	45.51
599.941	45.64
600.277	45.72
600.614	45.97
600.95	45.95
601.287	45.82
601.623	45.9
601.959	45.96
602.296	46.12
602.632	46.25
602.968	46.47
603.304	46.43
603.64	46.38
603.976	46.56
604.312	46.33
604.648	46.23
604.984	46.22
605.319	46.1
605.655	46.4
605.991	46.31
606.326	46.23
606.662	46.33
606.998	46.33
607.333	46.4
607.668	46.76
608.004	46.59
608.339	46.73
608.674	47.2
609.01	46.93
609.345	47.29
609.68	47.14
610.015	47.25
610.35	47.56
610.685	47.07
611.02	46.94
611.355	47.37
611.689	47.22
612.024	47.08
612.359	47.2
612.694	47.54
613.028	47.52
613.363	47.43
613.697	47.76
614.032	48.41
614.366	48.03
614.7	48.01
615.035	48.16
615.369	48.02
615.703	48.1
616.037	48.13
616.371	48.07
616.705	48.18
617.039	48.13
617.373	48.32
617.707	48.48
618.041	48.32
618.375	48.51
618.709	48.21
619.042	48.39
619.376	48.6
619.71	48.28
620.043	48.59
620.377	48.81
620.71	48.67
621.043	48.5
621.377	48.44
621.71	48.43
622.043	48.85
622.376	49.26
622.709	48.81
623.043	49.04
623.376	48.87
623.709	49.62
624.041	49.7
624.374	49.43
624.707	49.16
625.04	49.03
625.373	49.63
625.705	49.33
626.038	49.63
626.37	49.24
626.703	49.76
627.035	49.55
627.368	49.87
627.7	49.67
628.032	49.6
628.365	50.08
628.697	49.66
629.029	49.36
629.361	49.81
629.693	49.12
630.025	49.98
630.357	49.76
630.689	49.97
631.021	50.51
631.353	50.22
631.684	50.21
632.016	50.46
632.348	50.23
632.679	49.78
633.011	50.9
633.342	51.08
633.674	50.56
634.005	50.69
634.336	50.71
634.668	50.71
634.999	51.06
635.33	50.47
635.661	50.78
635.992	50.78
636.323	50.39
636.654	50.87
636.985	50.85
637.316	50.67
637.647	50.63
637.977	50.8
638.308	51.24
638.639	51.1
638.969	51.14
639.3	50.86
639.63	50.89
639.961	51.66
640.291	51.27
640.622	51.25
640.952	51.6
641.282	51.81
641.612	51.97
641.943	51.3
642.273	52.05
642.603	51.42
642.933	51.56
643.263	51.92
643.592	52.13
643.922	51.58
644.252	52.62
644.582	51.82
644.911	51.75
645.241	51.87
645.571	52.88
645.9	51.66
646.23	52.15
646.559	52.56
646.888	52.44
647.218	52.37
647.547	52.09
647.876	52.56
648.205	52.74
648.534	52.29
648.863	52.74
649.192	52.72
649.521	52.8
649.85	52.98
650.179	53.14
650.508	52.63
650.837	52.74
651.165	52.71
651.494	52.53
651.822	52.72
652.151	53.27
652.479	53.09
652.808	53
653.136	52.79
653.465	52.38
653.793	52.51
654.121	52.38
654.449	53.21
654.777	53.31
655.105	53.57
655.433	53.38
655.761	53.52
656.089	53.84
656.417	53.59
656.745	53.48
657.073	53.39
657.4	53.68
657.728	53.42
658.056	52.89
658.383	53.1
658.711	53.33
659.038	53.51
659.365	54.33
659.693	54
660.02	53.63
660.347	53.68
660.674	53.77
661.001	53.53
661.329	53.6
661.656	53.7
661.982	53.72
662.309	53.87
662.636	54.39
662.963	54.59
663.29	53.84
663.616	53.74
663.943	54.57
664.27	53.88
664.596	54.44
664.923	54.55
665.249	54.07
665.576	53.99
665.902	54.5
666.228	54.01
666.554	54.51
666.881	54.16
667.207	54.41
667.533	54.42
667.859	54.56
668.185	55.16
668.511	54.56
668.837	55.03
669.162	54.34
669.488	54.73
669.814	55.5
670.139	54.32
