Data from 433_crown_Reflection__4__116.txt Node

Date: Tue Dec 12 19:22:41 CST 2023
User: ToomeyLab
Spectrometer: FLMS14357
Trigger mode: 0
Integration Time (sec): 1.000000E-2
Scans to average: 100
Electric dark correction enabled: true
Nonlinearity correction enabled: false
Boxcar width: 0
XAxis mode: Wavelengths
Number of Pixels in Spectrum: 2048
>>>>>Begin Spectral Data<<<<<
189.047	-28.81
189.435	-28.81
189.823	-28.81
190.211	212.5
190.599	276.21
190.987	137.36
191.375	-122.69
191.763	195.64
192.151	83.88
192.538	52.18
192.926	393.91
193.314	317.3
193.702	32.39
194.089	82.47
194.477	116.01
194.864	105.08
195.252	-15.48
195.639	-663.29
196.027	142.12
196.414	76.34
196.801	-3683.93
197.189	4.86
197.576	16.11
197.963	11.77
198.351	51.57
198.738	61.64
199.125	14.7
199.512	4.58
199.899	42.63
200.286	-7.56
200.673	-28.89
201.06	-32.91
201.447	-47.84
201.833	-40.89
202.22	-74.27
202.607	-37.91
202.994	-2.97
203.38	-11.67
203.767	-13.22
204.154	-3.79
204.54	17.82
204.927	84.52
205.313	19.43
205.699	-53.24
206.086	-2.93
206.472	40.78
206.858	-24.45
207.245	26.15
207.631	17.14
208.017	-19.29
208.403	-30.31
208.789	-1.5
209.175	-6.44
209.561	-16.46
209.947	-5.29
210.333	-9.13
210.719	-2.9
211.105	-32.83
211.491	-1.37
211.876	32.49
212.262	19.39
212.648	-34.33
213.034	-15.93
213.419	45.48
213.805	1.44
214.19	26
214.576	28.43
214.961	-17.41
215.346	-3.12
215.732	17.53
216.117	11.16
216.502	-29.84
216.888	3.05
217.273	-44.32
217.658	-27.75
218.043	-36.92
218.428	27.15
218.813	23.69
219.198	-8.12
219.583	-11.77
219.968	12.89
220.353	-6.57
220.738	29.52
221.122	9.56
221.507	-12.56
221.892	-9.86
222.276	6.86
222.661	0.83
223.046	-18.86
223.43	6.55
223.815	-3.88
224.199	-4.43
224.583	3.17
224.968	6.4
225.352	-2.75
225.736	7.81
226.121	2.54
226.505	4.05
226.889	-5.99
227.273	3.67
227.657	15.87
228.041	8.65
228.425	1.49
228.809	4.53
229.193	-0.28
229.577	6.8
229.961	2.77
230.344	5.98
230.728	6.64
231.112	4.75
231.495	5.22
231.879	5.75
232.263	4.07
232.646	4.62
233.03	4.97
233.413	2.59
233.797	5.41
234.18	1.3
234.563	0.53
234.946	5.43
235.33	8.09
235.713	3.7
236.096	4.18
236.479	4.75
236.862	4.46
237.245	5.78
237.628	3.68
238.011	4.58
238.394	3.66
238.777	4.79
239.16	4.77
239.543	3.78
239.925	5.21
240.308	4.64
240.691	4.38
241.073	6.92
241.456	5.71
241.838	4.25
242.221	6.37
242.603	4.11
242.986	4.53
243.368	4.77
243.75	5.37
244.133	4.88
244.515	5.26
244.897	4.98
245.279	5.09
245.661	4.09
246.043	4.64
246.425	6
246.807	4.57
247.189	4.4
247.571	5.13
247.953	4.99
248.335	4.96
248.717	4.49
249.098	4.89
249.48	4.66
249.862	4.7
250.243	4.77
250.625	5.09
251.006	4.76
251.388	3.63
251.769	3.79
252.151	3.9
252.532	5.57
252.913	5.16
253.295	5.28
253.676	4.21
254.057	4.56
254.438	4.62
254.819	4.52
255.2	4.63
255.581	4.8
255.962	4.42
256.343	3.59
256.724	4.33
257.105	5.27
257.486	4.17
257.867	3.44
258.247	3.66
258.628	4.59
259.009	3.7
259.389	4.62
259.77	3.32
260.15	4.25
260.531	4.51
260.911	4.77
261.292	3.82
261.672	4.15
262.052	4.39
262.432	4.36
262.813	4.46
263.193	4.4
263.573	4.77
263.953	5.43
264.333	5.49
264.713	3.39
265.093	4.26
265.473	4.69
265.853	3.5
266.233	3.1
266.612	3.31
266.992	3.75
267.372	5.12
267.752	4.8
268.131	3.35
268.511	3.62
268.89	3.71
269.27	3.49
269.649	4.21
270.029	4.07
270.408	4.21
270.787	3.81
271.167	4.03
271.546	5.09
271.925	5.17
272.304	4.6
272.683	3.6
273.062	4.32
273.441	4.42
273.82	3.82
274.199	3.97
274.578	4.37
274.957	4.71
275.336	4.28
275.715	4.27
276.093	2.96
276.472	4.04
276.851	4.22
277.229	3.96
277.608	4.33
277.986	3.72
278.365	3.88
278.743	4.28
279.122	4.32
279.5	3.97
279.878	3.29
280.257	4.29
280.635	4.01
281.013	3.78
281.391	3.88
281.769	4.03
282.147	4
282.525	3.36
282.903	4.21
283.281	3.82
283.659	4.05
284.037	4.15
284.415	3.64
284.792	4.01
285.17	3.72
285.548	3.76
285.925	3.89
286.303	3.73
286.68	3.78
287.058	4.52
287.435	3.92
287.813	3.78
288.19	3.91
288.567	3.9
288.945	3.9
289.322	3.15
289.699	4.44
290.076	4.08
290.453	3.97
290.83	3.84
291.207	4.46
291.584	4.09
291.961	3.91
292.338	4.57
292.715	4.2
293.092	3.46
293.469	3.46
293.845	3.91
294.222	3.81
294.599	3.71
294.975	3.81
295.352	4.19
295.728	3.81
296.105	3.92
296.481	4.02
296.858	4.43
297.234	4.45
297.61	4.31
297.986	4
298.363	3.78
298.739	3.86
299.115	3.61
299.491	4.11
299.867	4.13
300.243	3.99
300.619	4.36
300.995	4.02
301.371	3.62
301.746	4.07
302.122	4.89
302.498	4.05
302.874	4.11
303.249	4.62
303.625	3.68
304	4.26
304.376	3.87
304.751	4.26
305.127	3.9
305.502	4.11
305.878	3.78
306.253	3.9
306.628	4.06
307.003	3.9
307.378	3.85
307.754	4.39
308.129	3.41
308.504	4.3
308.879	3.76
309.254	4.37
309.629	4.24
310.003	4.17
310.378	4.14
310.753	4.47
311.128	4.28
311.502	3.39
311.877	3.65
312.252	3.76
312.626	3.9
313.001	3.34
313.375	3.28
313.75	4.26
314.124	3.96
314.498	3.62
314.873	4.25
315.247	4.1
315.621	4.14
315.995	4.28
316.369	3.83
316.743	3.37
317.117	3.59
317.491	3.92
317.865	3.72
318.239	3.98
318.613	3.6
318.987	4.48
319.361	3.65
319.734	3.46
320.108	3.46
320.482	3.63
320.855	3.34
321.229	4.29
321.602	3.83
321.976	4.59
322.349	4.27
322.723	4.11
323.096	3.64
323.469	3.72
323.843	4.89
324.216	4.3
324.589	4.12
324.962	4.21
325.335	3.83
325.708	4.28
326.081	4.3
326.454	3.86
326.827	4.27
327.2	4.19
327.573	3.89
327.945	4.44
328.318	3.92
328.691	3.32
329.063	3.82
329.436	4.16
329.809	3.8
330.181	3.39
330.553	3.65
330.926	4
331.298	3.39
331.671	4.18
332.043	4.31
332.415	4.18
332.787	4.12
333.159	4.05
333.532	3.87
333.904	3.74
334.276	5.03
334.648	3.46
335.02	3.29
335.391	3.68
335.763	4.11
336.135	3.97
336.507	4.25
336.879	4.19
337.25	3.5
337.622	3.59
337.993	3.62
338.365	3.57
338.736	3.95
339.108	3.76
339.479	4.08
339.851	3.75
340.222	3.31
340.593	3.56
340.964	4.15
341.336	4.36
341.707	3.7
342.078	3.09
342.449	3.63
342.82	4.24
343.191	3.75
343.562	3.9
343.933	3.87
344.303	3.85
344.674	3.82
345.045	4.59
345.416	3.8
345.786	3.75
346.157	4.01
346.527	4.18
346.898	3.63
347.268	3.83
347.639	4.16
348.009	3.8
348.38	3.85
348.75	4.13
349.12	4
349.49	3.79
349.861	4.21
350.231	3.92
350.601	4.83
350.971	3.77
351.341	3.64
351.711	4.04
352.081	3.83
352.45	4.11
352.82	4.23
353.19	3.79
353.56	4.01
353.929	3.69
354.299	3.52
354.669	3.68
355.038	3.63
355.408	3.9
355.777	4.25
356.147	3.65
356.516	3.69
356.885	3.95
357.254	3.6
357.624	3.89
357.993	4.18
358.362	4.16
358.731	3.72
359.1	3.56
359.469	3.56
359.838	3.82
360.207	3.76
360.576	4.13
360.945	4.12
361.314	4.06
361.682	4.1
362.051	4.08
362.42	3.99
362.788	3.75
363.157	4.35
363.525	3.98
363.894	3.96
364.262	3.79
364.631	3.73
364.999	3.97
365.367	3.84
365.735	3.85
366.104	3.95
366.472	3.82
366.84	3.71
367.208	3.85
367.576	3.51
367.944	4.18
368.312	3.97
368.68	3.96
369.048	4
369.416	3.93
369.783	3.79
370.151	3.91
370.519	3.91
370.886	4.16
371.254	3.46
371.621	4.36
371.989	4.02
372.356	3.87
372.724	4.23
373.091	4.16
373.458	3.84
373.826	4.02
374.193	3.85
374.56	3.75
374.927	4.06
375.294	3.99
375.661	4.38
376.028	4.62
376.395	4.55
376.762	4.36
377.129	3.95
377.496	4.17
377.863	4.06
378.229	3.9
378.596	3.82
378.963	4.23
379.329	3.94
379.696	3.79
380.062	4.43
380.429	4.02
380.795	4.29
381.161	3.8
381.528	4.14
381.894	4.26
382.26	3.98
382.626	4.07
382.993	3.86
383.359	3.82
383.725	4.11
384.091	3.9
384.457	3.94
384.823	3.96
385.188	4.05
385.554	4.29
385.92	4.05
386.286	4.01
386.651	4.29
387.017	4.34
387.383	4.01
387.748	4.02
388.114	4.01
388.479	4.13
388.845	4.2
389.21	4.1
389.575	3.97
389.94	4.03
390.306	4.35
390.671	4.28
391.036	4.09
391.401	3.94
391.766	4.48
392.131	4.54
392.496	3.82
392.861	3.76
393.226	4.08
393.591	4.1
393.956	3.96
394.32	4.03
394.685	4.21
395.05	3.88
395.414	3.99
395.779	4.13
396.143	4.25
396.508	3.95
396.872	3.97
397.236	4.05
397.601	4.23
397.965	4.22
398.329	3.95
398.694	3.9
399.058	4.25
399.422	4
399.786	4.03
400.15	4.17
400.514	4.2
400.878	4.36
401.242	4.09
401.605	4.34
401.969	4.16
402.333	4.34
402.697	4.13
403.06	3.8
403.424	4.11
403.787	3.91
404.151	4.22
404.514	3.62
404.878	4.08
405.241	4.02
405.604	3.91
405.968	3.92
406.331	4.2
406.694	4.25
407.057	3.94
407.42	3.94
407.783	4.17
408.146	4.11
408.509	4.17
408.872	4.11
409.235	3.97
409.598	4.04
409.961	4.28
410.323	4.13
410.686	4.1
411.049	4.17
411.411	4.42
411.774	4.33
412.136	4.36
412.499	4.19
412.861	4.14
413.223	4.46
413.586	4.2
413.948	4.09
414.31	4.16
414.672	4.37
415.035	4.3
415.397	4.35
415.759	4.15
416.121	4.27
416.483	4.27
416.845	4.11
417.206	4.4
417.568	4.1
417.93	4.22
418.292	4.11
418.653	4.28
419.015	4.08
419.377	4.12
419.738	4.05
420.1	4.12
420.461	4.17
420.822	4.03
421.184	4.04
421.545	4.33
421.906	4.2
422.267	4.21
422.629	4.1
422.99	4.13
423.351	4.06
423.712	4.06
424.073	4.11
424.434	4.1
424.795	4.16
425.155	4.04
425.516	3.94
425.877	4.05
426.238	4.12
426.598	4.07
426.959	4.1
427.32	4.14
427.68	4.2
428.041	4.13
428.401	4.2
428.761	4.31
429.122	4.29
429.482	4.4
429.842	4.41
430.202	4.24
430.563	4.19
430.923	4.07
431.283	4.17
431.643	4.29
432.003	4.16
432.363	4.2
432.722	4.2
433.082	4.16
433.442	4.42
433.802	4.2
434.161	4.29
434.521	4.27
434.881	4.34
435.24	4.29
435.6	4.17
435.959	4.21
436.319	4.29
436.678	4.24
437.037	4.4
437.396	4.21
437.756	4.17
438.115	4.2
438.474	4.16
438.833	4.34
439.192	4.27
439.551	4.24
439.91	4.34
440.269	4.31
440.628	4.12
440.987	4.23
441.345	4.31
441.704	4.27
442.063	4.22
442.421	4.21
442.78	4.08
443.138	4.19
443.497	4.28
443.855	4.21
444.214	4.24
444.572	4.36
444.93	4.44
445.288	4
445.647	4.25
446.005	4.22
446.363	4.1
446.721	4.13
447.079	4.28
447.437	4.09
447.795	4.23
448.153	4.23
448.51	4.26
448.868	4.26
449.226	4.29
449.584	4.2
449.941	4.23
450.299	4.38
450.656	4.15
451.014	4.27
451.371	4.28
451.729	4.34
452.086	4.3
452.443	4.47
452.801	4.36
453.158	4.19
453.515	4.25
453.872	4.31
454.229	4.3
454.586	4.09
454.943	4.23
455.3	4.21
455.657	4.26
456.014	4.48
456.371	4.39
456.727	4.5
457.084	4.41
457.441	4.28
457.797	4.27
458.154	4.32
458.51	4.25
458.867	4.47
459.223	4.45
459.58	4.37
459.936	4.21
460.292	4.41
460.648	4.32
461.005	4.19
461.361	4.23
461.717	4.27
462.073	4.31
462.429	4.21
462.785	4.27
463.141	4.33
463.496	4.18
463.852	4.61
464.208	4.39
464.564	4.27
464.919	4.46
465.275	4.47
465.631	4.4
465.986	4.23
466.342	4.42
466.697	4.48
467.052	4.76
467.408	4.64
467.763	4.53
468.118	4.35
468.473	4.53
468.829	4.35
469.184	4.33
469.539	4.47
469.894	4.44
470.249	4.41
470.603	4.38
470.958	4.55
471.313	4.51
471.668	4.48
472.023	4.47
472.377	4.48
472.732	4.37
473.086	4.47
473.441	4.57
473.795	4.29
474.15	4.4
474.504	4.28
474.859	4.45
475.213	4.35
475.567	4.43
475.921	4.43
476.275	4.18
476.63	4.56
476.984	4.45
477.338	4.29
477.692	4.48
478.045	4.61
478.399	4.41
478.753	4.41
479.107	4.5
479.461	4.38
479.814	4.44
480.168	4.4
480.521	4.33
480.875	4.43
481.228	4.44
481.582	4.42
481.935	4.41
482.289	4.42
482.642	4.49
482.995	4.36
483.348	4.47
483.701	4.52
484.055	4.4
484.408	4.35
484.761	4.31
485.114	4.23
485.466	4.14
485.819	4.17
486.172	4.16
486.525	4.19
486.878	4.27
487.23	4.25
487.583	4.31
487.936	4.46
488.288	4.29
488.641	4.37
488.993	4.29
489.345	4.22
489.698	4.24
490.05	4.23
490.402	4.3
490.754	4.32
491.107	4.34
491.459	4.41
491.811	4.37
492.163	4.47
492.515	4.55
492.866	4.35
493.218	4.28
493.57	4.32
493.922	4.25
494.274	4.38
494.625	4.52
494.977	4.56
495.328	4.6
495.68	4.41
496.031	4.56
496.383	4.46
496.734	4.61
497.086	4.41
497.437	4.45
497.788	4.51
498.139	4.53
498.49	4.62
498.842	4.38
499.193	4.6
499.544	4.58
499.894	4.5
500.245	4.66
500.596	4.61
500.947	4.64
501.298	4.5
501.648	4.66
501.999	4.62
502.35	4.56
502.7	4.62
503.051	4.5
503.401	4.61
503.752	4.74
504.102	4.46
504.452	4.66
504.803	4.69
505.153	4.69
505.503	4.64
505.853	4.65
506.203	4.46
506.553	4.64
506.903	4.62
507.253	4.69
507.603	4.63
507.953	4.6
508.303	4.54
508.652	4.52
509.002	4.6
509.352	4.57
509.701	4.66
510.051	4.65
510.4	4.5
510.75	4.56
511.099	4.53
511.449	4.58
511.798	4.54
512.147	4.64
512.496	4.62
512.846	4.63
513.195	4.58
513.544	4.63
513.893	4.64
514.242	4.65
514.591	4.58
514.939	4.48
515.288	4.49
515.637	4.44
515.986	4.64
516.334	4.72
516.683	4.46
517.032	4.54
517.38	4.68
517.729	4.72
518.077	4.57
518.426	4.67
518.774	4.61
519.122	4.63
519.47	4.57
519.819	4.61
520.167	4.43
520.515	4.52
520.863	4.6
521.211	4.51
521.559	4.58
521.907	4.58
522.255	4.66
522.602	4.63
522.95	4.57
523.298	4.59
523.645	4.68
523.993	4.72
524.341	4.69
524.688	4.67
525.036	4.71
525.383	4.68
525.73	4.5
526.078	4.63
526.425	4.55
526.772	4.53
527.119	4.63
527.466	4.58
527.814	4.54
528.161	4.67
528.508	4.64
528.854	4.58
529.201	4.61
529.548	4.6
529.895	4.38
530.242	4.44
530.588	4.41
530.935	4.46
531.282	4.45
531.628	4.51
531.975	4.54
532.321	4.53
532.667	4.5
533.014	4.66
533.36	4.61
533.706	4.62
534.052	4.59
534.399	4.6
534.745	4.57
535.091	4.58
535.437	4.57
535.783	4.53
536.129	4.61
536.474	4.66
536.82	4.61
537.166	4.68
537.512	4.64
537.857	4.7
538.203	4.64
538.549	4.66
538.894	4.66
539.239	4.65
539.585	4.7
539.93	4.79
540.276	4.66
540.621	4.8
540.966	4.78
541.311	4.71
541.656	4.74
542.001	4.7
542.346	4.69
542.691	4.65
543.036	4.55
543.381	4.46
543.726	4.53
544.071	4.59
544.415	4.57
544.76	4.6
545.105	4.62
545.449	4.72
545.794	4.75
546.138	4.64
546.483	4.7
546.827	4.82
547.171	4.58
547.516	4.61
547.86	4.72
548.204	4.7
548.548	4.75
548.892	4.81
549.236	4.73
549.58	4.7
549.924	4.79
550.268	4.97
550.612	4.57
550.956	4.79
551.3	5.02
551.643	4.83
551.987	4.89
552.33	4.87
552.674	4.79
553.017	5.09
553.361	5.05
553.704	4.93
554.048	4.87
554.391	4.84
554.734	4.82
555.077	4.92
555.42	4.64
555.764	4.9
556.107	4.95
556.45	4.68
556.793	4.84
557.135	4.78
557.478	4.94
557.821	4.86
558.164	4.99
558.507	4.93
558.849	4.93
559.192	5.05
559.534	4.98
559.877	4.9
560.219	5.02
560.562	4.93
560.904	5.06
561.246	5.05
561.589	5.14
561.931	4.95
562.273	4.7
562.615	4.79
562.957	4.89
563.299	4.94
563.641	4.96
563.983	4.8
564.325	5.14
564.667	5.04
565.008	4.81
565.35	4.83
565.692	4.97
566.033	4.97
566.375	4.77
566.716	4.68
567.058	5.28
567.399	4.99
567.741	5.03
568.082	4.99
568.423	4.89
568.764	5.03
569.105	4.89
569.447	5.02
569.788	4.92
570.129	4.9
570.47	4.84
570.811	4.9
571.151	5.06
571.492	5.05
571.833	5.01
572.174	4.84
572.514	5
572.855	4.89
573.195	4.86
573.536	4.81
573.876	4.86
574.217	4.93
574.557	4.88
574.898	4.92
575.238	4.98
575.578	4.93
575.918	4.81
576.258	5.05
576.598	5.01
576.938	5.09
577.278	5.1
577.618	4.89
577.958	5.05
578.298	5.09
578.638	4.99
578.977	4.96
579.317	4.91
579.657	4.93
579.996	5.14
580.336	5.03
580.675	5.07
581.014	5.03
581.354	4.93
581.693	5
582.032	4.97
582.372	5.08
582.711	4.9
583.05	5.19
583.389	5.2
583.728	5.02
584.067	5.42
584.406	5.06
584.745	5.12
585.083	4.96
585.422	5.35
585.761	5.11
586.1	5.14
586.438	5.27
586.777	5.33
587.115	4.7
587.454	5.23
587.792	4.99
588.13	5.36
588.469	5.12
588.807	5.07
589.145	5.12
589.483	5.26
589.821	5.29
590.159	5.2
590.497	5.13
590.835	5.32
591.173	5.07
591.511	4.9
591.849	4.95
592.187	4.99
592.524	5
592.862	5.23
593.2	5.07
593.537	5.05
593.875	5.15
594.212	5
594.55	5.22
594.887	5.55
595.224	5.26
595.561	5.56
595.899	5.08
596.236	5.39
596.573	4.9
596.91	4.99
597.247	4.96
597.584	5.16
597.921	5.07
598.258	5.2
598.594	5.25
598.931	5.34
599.268	5.18
599.604	5
599.941	5.11
600.277	5.27
600.614	5.36
600.95	5.26
601.287	5.2
601.623	5.38
601.959	5.04
602.296	5.37
602.632	4.86
602.968	5.32
603.304	5.11
603.64	5.09
603.976	5.03
604.312	5.39
604.648	5.07
604.984	5.12
605.319	5.13
605.655	5.18
605.991	5.35
606.326	4.98
606.662	5.04
606.998	5.05
607.333	5.06
607.668	5.11
608.004	5.09
608.339	5.27
608.674	5.18
609.01	5.07
609.345	5.31
609.68	4.83
610.015	5.21
610.35	5.32
610.685	5.37
611.02	5.38
611.355	5.12
611.689	5.09
612.024	5.02
612.359	5.36
612.694	5.15
613.028	5.23
613.363	5.24
613.697	5.31
614.032	5.49
614.366	5.43
614.7	5.1
615.035	5.53
615.369	5.29
615.703	5.49
616.037	5.27
616.371	4.94
616.705	5.11
617.039	5.57
617.373	5.49
617.707	5.18
618.041	5.13
618.375	4.81
618.709	5.26
619.042	5.07
619.376	5.21
619.71	5.12
620.043	5.04
620.377	5.39
620.71	5.35
621.043	4.86
621.377	4.7
621.71	5.65
622.043	5.34
622.376	5.5
622.709	5.25
623.043	5.54
623.376	5.48
623.709	5.24
624.041	5.29
624.374	5.3
624.707	5.41
625.04	5.15
625.373	5.62
625.705	5.18
626.038	5.3
626.37	5.3
626.703	5.63
627.035	5.22
627.368	5.51
627.7	5.04
628.032	5.22
628.365	5.45
628.697	5.5
629.029	5.27
629.361	5.2
629.693	5.03
630.025	5.02
630.357	5.21
630.689	4.97
631.021	5.31
631.353	5.7
631.684	5.55
632.016	5.26
632.348	5.66
632.679	5.11
633.011	5.84
633.342	5.29
633.674	5.57
634.005	5.64
634.336	5.81
634.668	5.68
634.999	5.37
635.33	5.15
635.661	5.48
635.992	5.66
636.323	5.05
636.654	5.51
636.985	5.3
637.316	5.29
637.647	5.28
637.977	5.64
638.308	5.79
638.639	5.62
638.969	5.67
639.3	5.6
639.63	5.64
639.961	5.79
640.291	5.16
640.622	5.48
640.952	5.76
641.282	5.63
641.612	5.48
641.943	5.4
642.273	6.08
642.603	5.81
642.933	5.58
643.263	5.34
643.592	5.74
643.922	5.86
644.252	5.77
644.582	4.88
644.911	5.2
645.241	5.25
645.571	6.15
645.9	5.2
646.23	5.44
646.559	5.73
646.888	5.4
647.218	5.73
647.547	5.44
647.876	5.72
648.205	5.59
648.534	5.68
648.863	5.43
649.192	5.62
649.521	5.78
649.85	5.48
650.179	5.97
650.508	5.83
650.837	5.69
651.165	5.56
651.494	5.32
651.822	5.88
652.151	5.54
652.479	5.62
652.808	5.6
653.136	5.72
653.465	5.68
653.793	5.89
654.121	5.72
654.449	5.76
654.777	5.61
655.105	5.36
655.433	5.69
655.761	5.64
656.089	5.68
656.417	6.29
656.745	5.57
657.073	5.22
657.4	5.4
657.728	5.08
658.056	5.93
658.383	5.68
658.711	5.76
659.038	5.49
659.365	5.78
659.693	6.12
660.02	5.08
660.347	6.07
660.674	5.57
661.001	5.6
661.329	5.73
661.656	5.42
661.982	5.45
662.309	6.1
662.636	5.68
662.963	5.7
663.29	6.15
663.616	5.55
663.943	5.99
664.27	5.99
664.596	5.96
664.923	6.54
665.249	5.38
665.576	5.71
665.902	5.9
666.228	5.92
666.554	5.7
666.881	5.26
667.207	5.82
667.533	5.65
667.859	5.92
668.185	5.2
668.511	5.81
668.837	5.92
669.162	6.43
669.488	5.77
669.814	5.88
670.139	5.39
670.465	5.17
670.791	5.26
671.116	5.76
671.442	5.5
671.767	6.16
672.092	6.24
672.418	5.68
672.743	6.13
673.068	4.9
673.393	5.6
673.718	5.99
674.043	6.42
674.368	5.22
674.693	5.18
675.018	5.69
675.343	5.97
675.667	6.22
675.992	5.2
676.317	5.14
676.641	6.04
676.966	6.17
677.29	5.58
677.615	5.51
677.939	5.28
678.264	6.45
678.588	6.2
678.912	6.09
679.236	5.74
679.56	6.74
679.885	5.64
680.209	6.23
680.532	5.57
680.856	5.86
681.18	5.94
681.504	6
681.828	5.99
682.152	5.69
682.475	6.07
682.799	5.75
683.122	5.82
683.446	6.01
683.769	7
684.093	5.38
684.416	5.91
684.739	6.14
685.062	6.15
685.386	5.89
685.709	6.07
686.032	5.55
686.355	5.61
686.678	5.83
687.001	6.23
687.324	5.85
687.646	6.84
687.969	5.56
688.292	6.44
688.614	6
688.937	5.89
689.26	6.27
689.582	5.56
689.904	5.89
690.227	5.9
690.549	5.6
690.871	6.19
691.194	5.84
691.516	6.33
691.838	5.33
692.16	6.59
692.482	6.37
692.804	6.6
693.126	6.1
