Data from 433_crown_Reflection__1__113.txt Node

Date: Tue Dec 12 19:22:13 CST 2023
User: ToomeyLab
Spectrometer: FLMS14357
Trigger mode: 0
Integration Time (sec): 1.000000E-2
Scans to average: 100
Electric dark correction enabled: true
Nonlinearity correction enabled: false
Boxcar width: 0
XAxis mode: Wavelengths
Number of Pixels in Spectrum: 2048
>>>>>Begin Spectral Data<<<<<
189.047	82.34
189.435	82.34
189.823	82.34
190.211	239.93
190.599	361.99
190.987	117.05
191.375	-53.37
191.763	-81.1
192.151	140.63
192.538	-140.65
192.926	397.5
193.314	391.04
193.702	73.79
194.089	-18.74
194.477	756.36
194.864	97.2
195.252	206.8
195.639	-233.13
196.027	6.49
196.414	100.03
196.801	-1098.21
197.189	-34.99
197.576	137.62
197.963	57.59
198.351	27.95
198.738	28.83
199.125	50.05
199.512	-8.99
199.899	-46.86
200.286	1.41
200.673	-35.59
201.06	-41.43
201.447	-80.48
201.833	-13.51
202.22	-1.27
202.607	-47.05
202.994	-14.82
203.38	-18.23
203.767	-12.79
204.154	-9.01
204.54	5.82
204.927	-20.09
205.313	5.17
205.699	3.48
206.086	11.54
206.472	27.32
206.858	57.18
207.245	23.21
207.631	4.83
208.017	20.2
208.403	14.01
208.789	6.5
209.175	-10.76
209.561	36.84
209.947	-20.66
210.333	-24.61
210.719	-9.46
211.105	-47.91
211.491	6.85
211.876	10.86
212.262	12.51
212.648	-115.84
213.034	-30.58
213.419	-34.18
213.805	17.5
214.19	37.6
214.576	5.41
214.961	3.16
215.346	-0.06
215.732	0.24
216.117	13
216.502	4.77
216.888	-15.58
217.273	-67.97
217.658	-36.79
218.043	-3.08
218.428	59.12
218.813	-5.77
219.198	-17.43
219.583	-12.64
219.968	-1.92
220.353	-3.69
220.738	-9.31
221.122	4.51
221.507	-20.5
221.892	-14.79
222.276	5.3
222.661	9.05
223.046	11.54
223.43	7.01
223.815	-6.51
224.199	18.13
224.583	6.15
224.968	8.34
225.352	-3.98
225.736	9.43
226.121	-3.9
226.505	2.11
226.889	1.42
227.273	4.69
227.657	10
228.041	4.95
228.425	1.87
228.809	5.91
229.193	3.52
229.577	7.78
229.961	4.85
230.344	7.04
230.728	7.22
231.112	7.18
231.495	7.26
231.879	7.32
232.263	4.99
232.646	5.41
233.03	3.94
233.413	4.73
233.797	5.31
234.18	3.16
234.563	3.26
234.946	5.56
235.33	6.46
235.713	5.59
236.096	5.1
236.479	6.16
236.862	5.3
237.245	6.86
237.628	4.31
238.011	5.72
238.394	5.42
238.777	7.83
239.16	5.49
239.543	6.85
239.925	6.51
240.308	6.05
240.691	5.68
241.073	7.52
241.456	5.29
241.838	5.99
242.221	7.3
242.603	6.84
242.986	6.75
243.368	6.67
243.75	6.37
244.133	5.61
244.515	6.53
244.897	5.89
245.279	6.52
245.661	5.22
246.043	5.44
246.425	6.02
246.807	4.4
247.189	5.02
247.571	6.22
247.953	5.94
248.335	5.44
248.717	5.85
249.098	5.86
249.48	5.57
249.862	5.5
250.243	5.54
250.625	6.57
251.006	5.3
251.388	5.57
251.769	5.38
252.151	5.17
252.532	7.01
252.913	5.86
253.295	6.28
253.676	4.8
254.057	5.55
254.438	5.71
254.819	5.18
255.2	5.58
255.581	5.37
255.962	4.84
256.343	5.01
256.724	5.67
257.105	5.7
257.486	5.39
257.867	5.74
258.247	4.91
258.628	5.25
259.009	5.19
259.389	6.03
259.77	5
260.15	5.48
260.531	6.35
260.911	5.95
261.292	4.71
261.672	5.14
262.052	5.31
262.432	5.23
262.813	5.59
263.193	5.56
263.573	4.72
263.953	5.75
264.333	5.64
264.713	5.55
265.093	4.85
265.473	5.99
265.853	4.18
266.233	4.25
266.612	4.48
266.992	4.84
267.372	6.1
267.752	5.35
268.131	3.71
268.511	4.46
268.89	4.54
269.27	4.76
269.649	4.82
270.029	4.46
270.408	5.16
270.787	4.48
271.167	4.71
271.546	5.1
271.925	5.12
272.304	5.22
272.683	3.92
273.062	5.51
273.441	5.16
273.82	4.42
274.199	4.9
274.578	4.42
274.957	4.97
275.336	5.31
275.715	5.25
276.093	4.39
276.472	5.08
276.851	4.74
277.229	4.29
277.608	4.31
277.986	4.43
278.365	4.67
278.743	4.41
279.122	5.16
279.5	4.05
279.878	4.03
280.257	4.21
280.635	4.86
281.013	4.58
281.391	4.8
281.769	4.39
282.147	4.67
282.525	4.09
282.903	4.65
283.281	4.3
283.659	4.2
284.037	4.56
284.415	4.26
284.792	4.63
285.17	4.27
285.548	3.99
285.925	4.52
286.303	4.3
286.68	4.77
287.058	4.88
287.435	4.46
287.813	4.31
288.19	4.1
288.567	4.78
288.945	4.77
289.322	3.97
289.699	4.4
290.076	3.99
290.453	4.93
290.83	4.71
291.207	4.9
291.584	4.61
291.961	4.59
292.338	4.94
292.715	4.35
293.092	4.49
293.469	4.8
293.845	4.58
294.222	4.78
294.599	4.38
294.975	3.91
295.352	4.47
295.728	4.92
296.105	4.83
296.481	4.48
296.858	4.36
297.234	5.17
297.61	4.72
297.986	4.72
298.363	4.58
298.739	4.75
299.115	4.36
299.491	4.56
299.867	4.48
300.243	4.25
300.619	4.76
300.995	4.54
301.371	4.75
301.746	4.64
302.122	4.74
302.498	4.24
302.874	3.92
303.249	5.18
303.625	4.22
304	4.43
304.376	4.68
304.751	4.76
305.127	4.22
305.502	5.09
305.878	4.13
306.253	4.95
306.628	4.25
307.003	3.77
307.378	4.56
307.754	4.56
308.129	4.07
308.504	5.47
308.879	4.35
309.254	4.68
309.629	4.59
310.003	4.77
310.378	4.58
310.753	4.88
311.128	5.12
311.502	4.04
311.877	4.3
312.252	3.92
312.626	4.37
313.001	4.15
313.375	4.21
313.75	4.63
314.124	4.5
314.498	4.49
314.873	4.04
315.247	4.41
315.621	4.19
315.995	4.32
316.369	3.9
316.743	3.62
317.117	3.98
317.491	4.32
317.865	4.43
318.239	4.67
318.613	5.12
318.987	4.59
319.361	3.89
319.734	4.18
320.108	4.51
320.482	4.27
320.855	4.11
321.229	4.95
321.602	4.2
321.976	4.16
322.349	5.11
322.723	3.87
323.096	5.22
323.469	4.1
323.843	4.97
324.216	4.19
324.589	4.58
324.962	4.04
325.335	4.6
325.708	4.56
326.081	4.54
326.454	4.47
326.827	4.24
327.2	4.36
327.573	3.76
327.945	4.2
328.318	4.06
328.691	3.84
329.063	4.39
329.436	4.13
329.809	4.6
330.181	3.9
330.553	4.45
330.926	4.44
331.298	4.34
331.671	4.07
332.043	4.02
332.415	4.6
332.787	4.51
333.159	4.34
333.532	4.71
333.904	4.31
334.276	5.38
334.648	3.68
335.02	3.57
335.391	3.66
335.763	4.27
336.135	4.12
336.507	4.49
336.879	4.36
337.25	4.71
337.622	4.39
337.993	4.24
338.365	4.55
338.736	4.44
339.108	4.52
339.479	4.64
339.851	4.32
340.222	3.61
340.593	4.58
340.964	4.35
341.336	4.77
341.707	4.28
342.078	3.84
342.449	4.23
342.82	4.39
343.191	4.1
343.562	4.23
343.933	4.3
344.303	4.4
344.674	4.36
345.045	4.51
345.416	4.65
345.786	4.02
346.157	4.18
346.527	4.83
346.898	4.01
347.268	4.37
347.639	4.43
348.009	4.52
348.38	4.37
348.75	4.52
349.12	4.67
349.49	4.14
349.861	4.98
350.231	4.46
350.601	4.78
350.971	4.78
351.341	4.49
351.711	4.85
352.081	4.43
352.45	3.83
352.82	4.93
353.19	4.5
353.56	3.98
353.929	4.37
354.299	4.39
354.669	4.33
355.038	4.05
355.408	4.03
355.777	4.8
356.147	3.97
356.516	4.51
356.885	4.22
357.254	4.37
357.624	4.07
357.993	4.62
358.362	4.46
358.731	4.56
359.1	4.42
359.469	4.6
359.838	4.34
360.207	4.56
360.576	4.86
360.945	4.46
361.314	4.47
361.682	4.58
362.051	4.71
362.42	4.51
362.788	4.3
363.157	5.07
363.525	4.57
363.894	4.65
364.262	4.36
364.631	4.18
364.999	4.53
365.367	4.8
365.735	4.29
366.104	4.56
366.472	4.29
366.84	4.48
367.208	4.64
367.576	4.53
367.944	4.56
368.312	4.56
368.68	4.62
369.048	4.65
369.416	4.49
369.783	4.61
370.151	4.88
370.519	4.27
370.886	4.68
371.254	4.14
371.621	4.89
371.989	4.25
372.356	4.6
372.724	4.49
373.091	4.32
373.458	4.39
373.826	4.78
374.193	4.22
374.56	4.62
374.927	4.71
375.294	4.62
375.661	5.03
376.028	4.55
376.395	4.73
376.762	5.16
377.129	4.9
377.496	4.45
377.863	4.77
378.229	4.61
378.596	4.88
378.963	4.84
379.329	4.51
379.696	4.42
380.062	5.34
380.429	4.64
380.795	4.62
381.161	4.65
381.528	4.45
381.894	4.97
382.26	4.56
382.626	4.75
382.993	4.6
383.359	4.48
383.725	4.5
384.091	5.05
384.457	4.87
384.823	4.85
385.188	4.76
385.554	4.83
385.92	4.65
386.286	5.1
386.651	4.75
387.017	5.24
387.383	4.8
387.748	4.73
388.114	4.5
388.479	4.97
388.845	4.61
389.21	4.96
389.575	4.63
389.94	4.89
390.306	4.72
390.671	4.93
391.036	4.82
391.401	4.92
391.766	5.08
392.131	5.12
392.496	4.75
392.861	4.42
393.226	4.65
393.591	4.75
393.956	4.68
394.32	4.88
394.685	5.01
395.05	4.6
395.414	4.64
395.779	5
396.143	5.18
396.508	4.56
396.872	4.84
397.236	4.8
397.601	4.81
397.965	4.9
398.329	4.86
398.694	4.72
399.058	4.83
399.422	4.95
399.786	4.92
400.15	4.62
400.514	5.02
400.878	4.81
401.242	4.77
401.605	5.05
401.969	4.93
402.333	4.86
402.697	4.94
403.06	4.82
403.424	4.79
403.787	4.67
404.151	4.92
404.514	4.69
404.878	4.9
405.241	4.99
405.604	4.81
405.968	4.73
406.331	5.1
406.694	5.05
407.057	4.77
407.42	4.76
407.783	4.69
408.146	4.89
408.509	4.7
408.872	4.95
409.235	4.83
409.598	5.01
409.961	4.93
410.323	4.88
410.686	4.88
411.049	5.07
411.411	4.98
411.774	5
412.136	5.04
412.499	4.89
412.861	4.77
413.223	5.05
413.586	4.88
413.948	4.99
414.31	5.02
414.672	4.9
415.035	4.98
415.397	4.94
415.759	4.95
416.121	4.7
416.483	5.17
416.845	4.87
417.206	5.12
417.568	4.82
417.93	4.97
418.292	4.85
418.653	5.01
419.015	4.84
419.377	4.82
419.738	4.85
420.1	4.9
420.461	5
420.822	5.01
421.184	4.92
421.545	5.11
421.906	4.75
422.267	4.87
422.629	4.94
422.99	4.98
423.351	4.81
423.712	4.8
424.073	4.89
424.434	4.89
424.795	4.87
425.155	4.83
425.516	4.85
425.877	4.83
426.238	4.92
426.598	4.82
426.959	4.93
427.32	4.93
427.68	4.86
428.041	4.93
428.401	4.94
428.761	4.87
429.122	5.13
429.482	5.17
429.842	5.02
430.202	4.93
430.563	4.99
430.923	5.11
431.283	4.86
431.643	5.14
432.003	4.78
432.363	5.07
432.722	4.73
433.082	4.99
433.442	4.94
433.802	5.21
434.161	4.93
434.521	5.12
434.881	5.01
435.24	5.01
435.6	5.11
435.959	5.14
436.319	4.98
436.678	5.25
437.037	5.01
437.396	4.86
437.756	5.06
438.115	5.1
438.474	4.89
438.833	5.17
439.192	5.22
439.551	4.97
439.91	4.83
440.269	5.02
440.628	4.99
440.987	4.8
441.345	5.15
441.704	5.03
442.063	5.08
442.421	5.09
442.78	4.96
443.138	4.96
443.497	5.02
443.855	5
444.214	5.08
444.572	5.27
444.93	5.15
445.288	4.8
445.647	5.2
446.005	4.93
446.363	4.83
446.721	4.95
447.079	5.1
447.437	4.91
447.795	4.91
448.153	4.95
448.51	4.98
448.868	5.03
449.226	5.1
449.584	5
449.941	5.09
450.299	5.06
450.656	5
451.014	5.07
451.371	5.01
451.729	5.13
452.086	5.06
452.443	5.24
452.801	5.02
453.158	5.07
453.515	5.21
453.872	5.11
454.229	5.21
454.586	5.01
454.943	5.08
455.3	5.01
455.657	5.12
456.014	5.22
456.371	5.14
456.727	5.32
457.084	5.1
457.441	5.11
457.797	5.06
458.154	5.13
458.51	4.88
458.867	5.31
459.223	5.03
459.58	4.92
459.936	5
460.292	5.12
460.648	5.03
461.005	5.13
461.361	5.01
461.717	5.09
462.073	4.99
462.429	5
462.785	5.02
463.141	5.06
463.496	5.06
463.852	5.19
464.208	5.13
464.564	5.11
464.919	5.18
465.275	5.06
465.631	5.3
465.986	5.31
466.342	5
466.697	5.13
467.052	5.17
467.408	5.27
467.763	5.17
468.118	5.18
468.473	5.29
468.829	5.15
469.184	4.97
469.539	5.21
469.894	5.17
470.249	5.1
470.603	5.25
470.958	5.16
471.313	5.25
471.668	5.25
472.023	5.16
472.377	5.09
472.732	5.23
473.086	5.31
473.441	5.39
473.795	5.21
474.15	5.18
474.504	5.1
474.859	5.28
475.213	5.05
475.567	5.17
475.921	5.29
476.275	5.03
476.63	5.17
476.984	5.28
477.338	5.17
477.692	5.11
478.045	5.3
478.399	5.11
478.753	5.19
479.107	5.14
479.461	5.24
479.814	5.27
480.168	4.99
480.521	4.92
480.875	5.33
481.228	5.22
481.582	5.24
481.935	5.23
482.289	5.26
482.642	5.39
482.995	4.99
483.348	5.23
483.701	5.26
484.055	5.18
484.408	5
484.761	5.04
485.114	4.98
485.466	4.88
485.819	4.88
486.172	4.87
486.525	4.84
486.878	4.89
487.23	4.96
487.583	4.94
487.936	5.05
488.288	4.96
488.641	5.02
488.993	4.94
489.345	4.94
489.698	4.9
490.05	4.96
490.402	4.97
490.754	4.93
491.107	5
491.459	5.07
491.811	5.1
492.163	5.12
492.515	5.18
492.866	5
493.218	4.99
493.57	4.95
493.922	4.85
494.274	4.97
494.625	5.07
494.977	5.14
495.328	5.27
495.68	5.06
496.031	5.23
496.383	5.14
496.734	5.07
497.086	5.18
497.437	5.03
497.788	5.26
498.139	5.17
498.49	5.29
498.842	5.18
499.193	5.17
499.544	5.24
499.894	5.17
500.245	5.17
500.596	5.36
500.947	5.15
501.298	5.23
501.648	5.22
501.999	5.26
502.35	5.33
502.7	5.27
503.051	5.1
503.401	5.2
503.752	5.29
504.102	5.19
504.452	5.29
504.803	5.23
505.153	5.22
505.503	5.19
505.853	5.35
506.203	5.04
506.553	5.14
506.903	5.19
507.253	5.35
507.603	5.19
507.953	5.27
508.303	5.21
508.652	5.16
509.002	5.29
509.352	5.23
509.701	5.11
510.051	5.29
510.4	5.17
510.75	5.17
511.099	5.22
511.449	5.26
511.798	5.15
512.147	5.17
512.496	5.25
512.846	5.21
513.195	5.24
513.544	5.32
513.893	5.29
514.242	5.25
514.591	5.25
514.939	5.16
515.288	5.11
515.637	5.13
515.986	5.19
516.334	5.4
516.683	5.13
517.032	5.4
517.38	5.15
517.729	5.21
518.077	5.12
518.426	5.28
518.774	5.24
519.122	5.17
519.47	5.15
519.819	5.08
520.167	5.23
520.515	5.15
520.863	5.16
521.211	5.03
521.559	5.16
521.907	5.1
522.255	5.19
522.602	5.21
522.95	5.16
523.298	5.18
523.645	5.27
523.993	5.25
524.341	5.36
524.688	5.12
525.036	5.24
525.383	5.18
525.73	5.17
526.078	5.16
526.425	5.12
526.772	5.22
527.119	5.18
527.466	5.2
527.814	5.09
528.161	5.13
528.508	5.16
528.854	5.08
529.201	5.02
529.548	5.09
529.895	5
530.242	4.93
530.588	4.89
530.935	4.99
531.282	4.95
531.628	5.08
531.975	5.03
532.321	5.02
532.667	5.04
533.014	5.2
533.36	5.18
533.706	5.06
534.052	5.1
534.399	5.17
534.745	5.07
535.091	5.05
535.437	5.05
535.783	4.99
536.129	5.16
536.474	5.14
536.82	5.2
537.166	5.2
537.512	5.12
537.857	5.21
538.203	5.13
538.549	5.1
538.894	5.19
539.239	5.17
539.585	5.12
539.93	5.26
540.276	5.15
540.621	5.24
540.966	5.26
541.311	5.29
541.656	5.1
542.001	5.27
542.346	5.17
542.691	5.06
543.036	5
543.381	4.91
543.726	5.05
544.071	5.08
544.415	5.01
544.76	5.08
545.105	5.1
545.449	5.19
545.794	5.23
546.138	5
546.483	5.16
546.827	5.2
547.171	5.28
547.516	5.16
547.86	5.26
548.204	5.31
548.548	5.19
548.892	5.19
549.236	5.18
549.58	5.24
549.924	5.13
550.268	5.31
550.612	5.17
550.956	5.23
551.3	5.42
551.643	5.27
551.987	5.28
552.33	5.35
552.674	5.3
553.017	5.53
553.361	5.55
553.704	5.17
554.048	5.23
554.391	5.18
554.734	5.15
555.077	5.21
555.42	5.21
555.764	5.25
556.107	5.25
556.45	5.15
556.793	5.17
557.135	5.27
557.478	5.19
557.821	5.29
558.164	5.3
558.507	5.38
558.849	5.2
559.192	5.37
559.534	5.32
559.877	5.35
560.219	5.23
560.562	5.33
560.904	5.16
561.246	5.44
561.589	5.33
561.931	5.37
562.273	5.05
562.615	5.28
562.957	5.26
563.299	5.18
563.641	5.45
563.983	5.24
564.325	5.38
564.667	5.36
565.008	5.05
565.35	5.23
565.692	5.39
566.033	5.46
566.375	5.17
566.716	5.13
567.058	5.46
567.399	5.46
567.741	5.19
568.082	5.2
568.423	5.3
568.764	5.41
569.105	5.11
569.447	5.41
569.788	5.44
570.129	5.21
570.47	5.37
570.811	5.42
571.151	5.34
571.492	5.28
571.833	5.28
572.174	5.26
572.514	5.28
572.855	5.25
573.195	5.23
573.536	5.33
573.876	5.33
574.217	5.26
574.557	5.17
574.898	5.32
575.238	5.35
575.578	5.31
575.918	5.12
576.258	5.39
576.598	5.42
576.938	5.3
577.278	5.25
577.618	5.35
577.958	5.29
578.298	5.5
578.638	5.35
578.977	5.21
579.317	5.11
579.657	5.28
579.996	5.51
580.336	5.34
580.675	5.26
581.014	5.27
581.354	5.49
581.693	5.35
582.032	5.14
582.372	5.53
582.711	5.41
583.05	5.24
583.389	5.24
583.728	5.45
584.067	5.4
584.406	5.5
584.745	5.27
585.083	5.08
585.422	5.42
585.761	5.52
586.1	5.43
586.438	5.34
586.777	5.44
587.115	5.2
587.454	5.55
587.792	5.39
588.13	5.49
588.469	5.28
588.807	5.28
589.145	5.43
589.483	5.36
589.821	5.53
590.159	5.33
590.497	5.18
590.835	5.06
591.173	5.28
591.511	5.58
591.849	5.18
592.187	5.26
592.524	5.18
592.862	5.27
593.2	5.22
593.537	4.9
593.875	5.44
594.212	5.32
594.55	5.41
594.887	5.61
595.224	5.44
595.561	5.7
595.899	5.41
596.236	5.43
596.573	5.3
596.91	5.3
597.247	5.24
597.584	5.33
597.921	5.3
598.258	5.4
598.594	5.52
598.931	5.27
599.268	5.29
599.604	5.11
599.941	5.3
600.277	5.37
600.614	5.36
600.95	5.52
601.287	5.33
601.623	5.33
601.959	5.48
602.296	5.53
602.632	5.21
602.968	5.39
603.304	5.2
603.64	5.32
603.976	5.11
604.312	5.37
604.648	5.53
604.984	5.45
605.319	5.35
605.655	5.43
605.991	5.33
606.326	5.14
606.662	5.4
606.998	5.21
607.333	5.27
607.668	5.32
608.004	5.41
608.339	5.34
608.674	5.38
609.01	5.3
609.345	5.43
609.68	5.3
610.015	5.26
610.35	5.21
610.685	5.48
611.02	5.39
611.355	5.31
611.689	5.26
612.024	5.24
612.359	5.52
612.694	5.15
613.028	5.27
613.363	5.38
613.697	5.43
614.032	5.7
614.366	5.5
614.7	5.23
615.035	5.51
615.369	5.11
615.703	5.62
616.037	5.34
616.371	5.23
616.705	5.15
617.039	5.48
617.373	5.9
617.707	5.45
618.041	5.29
618.375	5.26
618.709	5.28
619.042	5.67
619.376	5.19
619.71	5.13
620.043	5.15
620.377	5.23
620.71	4.9
621.043	5.17
621.377	5.49
621.71	5.73
622.043	5.24
622.376	5.71
622.709	5.66
623.043	5.42
623.376	5.51
623.709	5.43
624.041	5.39
624.374	4.89
624.707	5.24
625.04	5.05
625.373	5.86
625.705	5.54
626.038	5.39
626.37	5.17
626.703	5.38
627.035	5.28
627.368	5.3
627.7	5.4
628.032	5.3
628.365	5.48
628.697	5.44
629.029	5.39
629.361	5.21
629.693	5.2
630.025	5.32
630.357	5.57
630.689	5.17
631.021	5.81
631.353	5.27
631.684	5.56
632.016	5.37
632.348	5.34
632.679	5.13
633.011	6.16
633.342	5.64
633.674	5.46
634.005	5.62
634.336	5.5
634.668	5.67
634.999	5.56
635.33	5.43
635.661	5.47
635.992	5.42
636.323	5.17
636.654	5.53
636.985	5.85
637.316	5.6
637.647	5.3
637.977	5.61
638.308	5.43
638.639	5.62
638.969	5.27
639.3	5.22
639.63	5.8
639.961	5.4
640.291	5.32
640.622	5.89
640.952	5.89
641.282	5.63
641.612	5.19
641.943	5.57
642.273	5.66
642.603	5.69
642.933	5
643.263	5.43
643.592	5.6
643.922	6.18
644.252	5.82
644.582	5.19
644.911	5.47
645.241	4.96
645.571	6.24
645.9	5.31
646.23	5.49
646.559	5.75
646.888	5.63
647.218	5.43
647.547	5.27
647.876	5.4
648.205	5.68
648.534	5.86
648.863	5.64
649.192	6.21
649.521	5.89
649.85	4.93
650.179	5.28
650.508	5.71
650.837	5.51
651.165	5.59
651.494	5.65
651.822	5.51
652.151	5.95
652.479	5.52
652.808	5.48
653.136	5.72
653.465	5.8
653.793	5.58
654.121	5.86
654.449	5.33
654.777	6.15
655.105	5.83
655.433	5.52
655.761	5.21
656.089	5.73
656.417	5.57
656.745	5.1
657.073	5.36
657.4	5.68
657.728	4.56
658.056	5.38
658.383	5.17
658.711	5.34
659.038	5.74
659.365	5.4
659.693	5.51
660.02	5.6
660.347	5.99
660.674	4.97
661.001	5.66
661.329	5.83
661.656	5.59
661.982	5.42
662.309	5.69
662.636	5.34
662.963	5.39
663.29	6.43
663.616	5.34
663.943	6.04
664.27	6.08
664.596	5.81
664.923	6.24
665.249	5.23
665.576	5.24
665.902	5.69
666.228	5.95
666.554	4.92
666.881	4.72
667.207	5.98
667.533	5.79
667.859	5.93
668.185	5.8
668.511	5.5
668.837	5.48
669.162	6.53
669.488	5.58
669.814	5.64
670.139	5.44
670.465	5.19
670.791	5.52
671.116	5.81
671.442	5.55
671.767	5.92
672.092	5.81
672.418	5.48
672.743	5.43
673.068	5.52
673.393	5.16
673.718	6.55
674.043	6.16
674.368	4.89
674.693	5.21
675.018	5.35
675.343	6.36
675.667	6.38
675.992	5.31
676.317	5.78
676.641	5.87
676.966	5.95
677.29	5.57
677.615	5.59
677.939	5.1
678.264	6.2
678.588	5.52
678.912	5.46
679.236	5.55
679.56	6.19
679.885	6.2
680.209	5.91
680.532	5.49
680.856	5.34
681.18	5.19
681.504	5.86
681.828	6.18
682.152	5.76
682.475	5.91
682.799	6.21
683.122	6.02
683.446	5.35
683.769	6.72
684.093	5.12
684.416	5.58
684.739	6.01
685.062	5.65
685.386	6.72
685.709	5.98
686.032	5.9
686.355	5.33
686.678	6.9
687.001	6.37
687.324	4.97
687.646	5.88
687.969	6
688.292	6.07
688.614	6
688.937	5.95
689.26	5.18
689.582	5.59
689.904	5.42
690.227	5.31
690.549	5.6
690.871	5.8
691.194	6.16
691.516	6.06
691.838	5.65
692.16	6.85
692.482	6.34
692.804	6.06
693.126	6.46
693.448	6.51
