Data from 433_crown_Reflection__2__114.txt Node

Date: Tue Dec 12 19:22:23 CST 2023
User: ToomeyLab
Spectrometer: FLMS14357
Trigger mode: 0
Integration Time (sec): 1.000000E-2
Scans to average: 100
Electric dark correction enabled: true
Nonlinearity correction enabled: false
Boxcar width: 0
XAxis mode: Wavelengths
Number of Pixels in Spectrum: 2048
>>>>>Begin Spectral Data<<<<<
189.047	155.16
189.435	155.16
189.823	155.16
190.211	-2.43
190.599	246.32
190.987	71.11
191.375	-97.75
191.763	328.49
192.151	80.77
192.538	52.51
192.926	126.79
193.314	195.2
193.702	8.3
194.089	66.95
194.477	325
194.864	59.24
195.252	-104.02
195.639	-134.52
196.027	102.73
196.414	23.75
196.801	-725
197.189	64.73
197.576	98.47
197.963	20.15
198.351	-37.62
198.738	38.15
199.125	-21.15
199.512	-45.24
199.899	-14.31
200.286	64.14
200.673	18.04
201.06	-9.66
201.447	-77.81
201.833	14.19
202.22	36.77
202.607	-71.59
202.994	41.36
203.38	10.33
203.767	-35.79
204.154	20.97
204.54	37.29
204.927	-20.07
205.313	28.44
205.699	-29.81
206.086	-46.67
206.472	59.92
206.858	20.19
207.245	20.8
207.631	-5.15
208.017	-22.09
208.403	31.03
208.789	29.2
209.175	-45.92
209.561	-5.32
209.947	-40.75
210.333	3.47
210.719	-17.39
211.105	-47.36
211.491	12.92
211.876	21.1
212.262	-11.49
212.648	-56.37
213.034	-47.02
213.419	-5.66
213.805	-12.46
214.19	-2.17
214.576	24.18
214.961	9.66
215.346	-22.83
215.732	45.58
216.117	12.42
216.502	-35.02
216.888	-18.33
217.273	-26.28
217.658	-39.34
218.043	-1.15
218.428	32.55
218.813	20.16
219.198	-19.07
219.583	-17.01
219.968	31.73
220.353	-22.62
220.738	7.61
221.122	-2.77
221.507	-29.73
221.892	-24.44
222.276	1.31
222.661	3.34
223.046	3.31
223.43	7.7
223.815	3.81
224.199	5.1
224.583	-8.15
224.968	-4.33
225.352	-7.22
225.736	9.28
226.121	1.07
226.505	8.14
226.889	4.76
227.273	10.35
227.657	9.66
228.041	1.7
228.425	4.77
228.809	5.36
229.193	3.77
229.577	8.2
229.961	5.72
230.344	7.05
230.728	7.31
231.112	8.48
231.495	7.65
231.879	7.89
232.263	7.1
232.646	5.65
233.03	7.77
233.413	6.22
233.797	6.39
234.18	3.37
234.563	7.16
234.946	8.01
235.33	7.62
235.713	8.91
236.096	5.8
236.479	5.76
236.862	4.97
237.245	7.08
237.628	5.82
238.011	6.92
238.394	6.94
238.777	7.38
239.16	7.82
239.543	5.16
239.925	7.44
240.308	6.03
240.691	6.83
241.073	8.67
241.456	7.45
241.838	6.1
242.221	7.13
242.603	7.39
242.986	6.93
243.368	6.31
243.75	6.91
244.133	7.39
244.515	7.37
244.897	7.23
245.279	8.43
245.661	6.78
246.043	5.53
246.425	7.99
246.807	6.52
247.189	7.3
247.571	7.64
247.953	6.72
248.335	6.97
248.717	6.87
249.098	6.82
249.48	6.8
249.862	6.69
250.243	6.35
250.625	7.23
251.006	7.04
251.388	7.07
251.769	6.3
252.151	5.24
252.532	6.29
252.913	5.56
253.295	7.02
253.676	6.63
254.057	5.91
254.438	6.83
254.819	6.01
255.2	5.1
255.581	6.35
255.962	5.38
256.343	6.28
256.724	6.25
257.105	6.29
257.486	5.7
257.867	4.99
258.247	5.53
258.628	5.67
259.009	5.62
259.389	6.18
259.77	6.5
260.15	5.79
260.531	6.59
260.911	6.53
261.292	5.82
261.672	5.86
262.052	6.1
262.432	6.17
262.813	6.67
263.193	6.14
263.573	7.08
263.953	7.27
264.333	7.07
264.713	6.35
265.093	6.31
265.473	7.05
265.853	5.1
266.233	5.83
266.612	5.58
266.992	5.11
267.372	6.53
267.752	6.57
268.131	5.39
268.511	5.73
268.89	4.93
269.27	5.22
269.649	5.47
270.029	5.27
270.408	5.93
270.787	5.93
271.167	5.82
271.546	5.9
271.925	5.93
272.304	6.47
272.683	5.61
273.062	5.83
273.441	5.8
273.82	5.27
274.199	5.68
274.578	6.2
274.957	5.82
275.336	6.06
275.715	5.71
276.093	4.56
276.472	6.37
276.851	5.56
277.229	4.66
277.608	5.09
277.986	5.17
278.365	5.7
278.743	5.83
279.122	6.09
279.5	5.09
279.878	4.98
280.257	5.56
280.635	5.8
281.013	5.2
281.391	5.43
281.769	5.23
282.147	5.65
282.525	5.26
282.903	5.23
283.281	5.74
283.659	5.45
284.037	5.84
284.415	5.65
284.792	6.04
285.17	4.99
285.548	5.7
285.925	5.36
286.303	5.38
286.68	5.28
287.058	5.65
287.435	5.19
287.813	5.29
288.19	5.39
288.567	5.29
288.945	5.43
289.322	4.91
289.699	5.41
290.076	5.13
290.453	6.02
290.83	5.08
291.207	5.63
291.584	5.07
291.961	5.07
292.338	5.1
292.715	5.39
293.092	5.17
293.469	5.26
293.845	5.19
294.222	5.38
294.599	5.67
294.975	5.44
295.352	5.53
295.728	5.11
296.105	5.53
296.481	5.42
296.858	5.14
297.234	5.48
297.61	5.42
297.986	5.52
298.363	5.36
298.739	5.43
299.115	5.38
299.491	5.2
299.867	5.49
300.243	5.3
300.619	5.44
300.995	5.47
301.371	5.16
301.746	5.74
302.122	6
302.498	5.29
302.874	5.17
303.249	5.72
303.625	4.72
304	5.48
304.376	5.72
304.751	5.38
305.127	4.96
305.502	5.65
305.878	5.38
306.253	5.39
306.628	5.66
307.003	4.68
307.378	5.02
307.754	5.14
308.129	4.93
308.504	5.52
308.879	5.09
309.254	5.34
309.629	5.59
310.003	5.43
310.378	5.15
310.753	5.43
311.128	5.51
311.502	4.65
311.877	5.14
312.252	5.06
312.626	4.97
313.001	4.9
313.375	4.9
313.75	5.38
314.124	5.07
314.498	5.76
314.873	5.25
315.247	5.35
315.621	4.86
315.995	5.9
316.369	5.44
316.743	4.85
317.117	5.03
317.491	5.13
317.865	4.97
318.239	4.59
318.613	4.82
318.987	5.7
319.361	4.6
319.734	5.06
320.108	5.11
320.482	5.46
320.855	4.96
321.229	5.61
321.602	5.82
321.976	4.99
322.349	5.01
322.723	5.44
323.096	5.57
323.469	4.88
323.843	5.57
324.216	5.84
324.589	5.52
324.962	6.62
325.335	5.77
325.708	5.27
326.081	5.58
326.454	5.54
326.827	6.06
327.2	5.58
327.573	4.94
327.945	5.38
328.318	5.71
328.691	5.29
329.063	5.4
329.436	5.25
329.809	5.13
330.181	4.17
330.553	4.8
330.926	5
331.298	5.65
331.671	5.31
332.043	5.17
332.415	5.4
332.787	5.38
333.159	4.48
333.532	5.39
333.904	5.48
334.276	5.65
334.648	4.81
335.02	4.91
335.391	5.31
335.763	5.25
336.135	5.79
336.507	5.82
336.879	5.03
337.25	5.3
337.622	5.3
337.993	5.36
338.365	5.09
338.736	5.13
339.108	5.55
339.479	5.57
339.851	4.94
340.222	4.92
340.593	5.37
340.964	5.36
341.336	5.67
341.707	5.08
342.078	4.63
342.449	5.38
342.82	5.27
343.191	5.24
343.562	5.64
343.933	5.23
344.303	6.05
344.674	5.17
345.045	5.29
345.416	5.6
345.786	5.52
346.157	5.42
346.527	5.77
346.898	5.56
347.268	5.45
347.639	5.62
348.009	5.54
348.38	5.52
348.75	5.62
349.12	5.6
349.49	5.35
349.861	5.67
350.231	5.52
350.601	5.6
350.971	6.35
351.341	5.82
351.711	6.06
352.081	5.48
352.45	5.65
352.82	5.78
353.19	5.44
353.56	5.12
353.929	4.7
354.299	5.12
354.669	4.92
355.038	4.82
355.408	5.75
355.777	5.62
356.147	5.36
356.516	5.65
356.885	5.5
357.254	5.22
357.624	5.47
357.993	5.09
358.362	5.88
358.731	5.66
359.1	5.17
359.469	5.4
359.838	5.49
360.207	5.65
360.576	5.42
360.945	5.61
361.314	5.79
361.682	5.57
362.051	5.48
362.42	5.6
362.788	5.57
363.157	5.82
363.525	5.68
363.894	5.17
364.262	5.2
364.631	5.32
364.999	5.9
365.367	5.36
365.735	5.81
366.104	5.63
366.472	5.51
366.84	5.85
367.208	5.89
367.576	5.76
367.944	5.91
368.312	5.73
368.68	5.62
369.048	5.9
369.416	5.71
369.783	5.72
370.151	5.7
370.519	5.63
370.886	5.94
371.254	5.5
371.621	5.84
371.989	5.49
372.356	5.58
372.724	5.41
373.091	5.97
373.458	5.76
373.826	5.9
374.193	5.29
374.56	5.88
374.927	5.53
375.294	5.63
375.661	5.76
376.028	5.88
376.395	6.21
376.762	5.99
377.129	5.75
377.496	5.92
377.863	5.52
378.229	5.85
378.596	5.7
378.963	6.02
379.329	5.51
379.696	5.59
380.062	6.25
380.429	5.84
380.795	6
381.161	5.8
381.528	5.75
381.894	5.86
382.26	5.78
382.626	5.75
382.993	6.03
383.359	5.6
383.725	5.87
384.091	6.01
384.457	5.59
384.823	5.85
385.188	6.02
385.554	5.89
385.92	5.83
386.286	5.74
386.651	5.88
387.017	6.33
387.383	5.89
387.748	6.06
388.114	5.84
388.479	5.91
388.845	5.64
389.21	5.76
389.575	5.55
389.94	5.81
390.306	6.12
390.671	5.9
391.036	6.02
391.401	6.21
391.766	6.21
392.131	6.17
392.496	6.03
392.861	5.72
393.226	5.97
393.591	5.79
393.956	5.89
394.32	6.23
394.685	5.99
395.05	5.6
395.414	5.95
395.779	5.85
396.143	5.96
396.508	5.92
396.872	5.96
397.236	5.8
397.601	6
397.965	5.95
398.329	6.17
398.694	5.87
399.058	5.98
399.422	5.99
399.786	5.91
400.15	5.85
400.514	6.22
400.878	6.03
401.242	5.99
401.605	6.07
401.969	6.07
402.333	6.11
402.697	6.09
403.06	5.78
403.424	6.12
403.787	5.78
404.151	5.98
404.514	5.85
404.878	5.88
405.241	6.04
405.604	5.93
405.968	5.98
406.331	6.21
406.694	6.08
407.057	6.04
407.42	5.8
407.783	6.06
408.146	6.22
408.509	5.99
408.872	5.9
409.235	6.04
409.598	6.04
409.961	5.91
410.323	5.96
410.686	6.09
411.049	6.1
411.411	6.31
411.774	6.06
412.136	6.03
412.499	6.11
412.861	6
413.223	6.47
413.586	6
413.948	6.03
414.31	6.32
414.672	6.27
415.035	6.04
415.397	6.34
415.759	6.12
416.121	5.9
416.483	6.11
416.845	6.17
417.206	6.15
417.568	6.18
417.93	6.1
418.292	6.03
418.653	6.29
419.015	6.11
419.377	6.12
419.738	6.18
420.1	6.07
420.461	6.03
420.822	6.04
421.184	6.11
421.545	6.18
421.906	5.9
422.267	5.99
422.629	6.01
422.99	5.93
423.351	5.95
423.712	5.99
424.073	5.94
424.434	6.11
424.795	6.08
425.155	5.87
425.516	5.91
425.877	5.95
426.238	5.97
426.598	6.01
426.959	6.03
427.32	6.08
427.68	6.12
428.041	6.24
428.401	6.17
428.761	5.98
429.122	6.15
429.482	6.43
429.842	6.31
430.202	6.11
430.563	6.23
430.923	6.12
431.283	6.18
431.643	6.29
432.003	6.05
432.363	6.29
432.722	6.12
433.082	6.15
433.442	6.14
433.802	6.27
434.161	6.25
434.521	6.13
434.881	6.16
435.24	6.03
435.6	6.11
435.959	6.32
436.319	6.28
436.678	6.33
437.037	6.08
437.396	6.1
437.756	6.22
438.115	6.09
438.474	6.16
438.833	6.34
439.192	6.42
439.551	6.13
439.91	6.04
440.269	6.14
440.628	6.29
440.987	5.98
441.345	6.24
441.704	6.11
442.063	6.17
442.421	6.2
442.78	6.04
443.138	6.19
443.497	6.16
443.855	6.07
444.214	6.14
444.572	6.13
444.93	6.11
445.288	5.86
445.647	6.41
446.005	6.1
446.363	5.98
446.721	6.09
447.079	6.24
447.437	5.97
447.795	6.16
448.153	6.15
448.51	6.07
448.868	6.09
449.226	6.18
449.584	6.1
449.941	6.06
450.299	6.16
450.656	6.11
451.014	6.15
451.371	6.17
451.729	6.28
452.086	6.07
452.443	6.19
452.801	6.22
453.158	6.19
453.515	6.19
453.872	6.32
454.229	6.22
454.586	6.01
454.943	6.13
455.3	6.17
455.657	6.24
456.014	6.25
456.371	6.36
456.727	6.3
457.084	6.32
457.441	6.24
457.797	6.19
458.154	6.33
458.51	6.23
458.867	6.33
459.223	6.38
459.58	6.13
459.936	5.92
460.292	6.3
460.648	6.15
461.005	6.16
461.361	6.1
461.717	6.14
462.073	6.04
462.429	6.15
462.785	6.16
463.141	6.1
463.496	6.11
463.852	6.24
464.208	6.4
464.564	6.31
464.919	6.37
465.275	6.35
465.631	6.33
465.986	6.35
466.342	5.97
466.697	6.13
467.052	6.3
467.408	6.36
467.763	6.33
468.118	6.24
468.473	6.32
468.829	6.17
469.184	6.04
469.539	6.26
469.894	6.3
470.249	6.36
470.603	6.29
470.958	6.37
471.313	6.47
471.668	6.42
472.023	6.24
472.377	6.25
472.732	6.24
473.086	6.11
473.441	6.42
473.795	6.29
474.15	6.16
474.504	6.2
474.859	6.23
475.213	6.15
475.567	6.33
475.921	6.46
476.275	6.21
476.63	6.31
476.984	6.27
477.338	6.3
477.692	6.33
478.045	6.2
478.399	6.12
478.753	6.3
479.107	6.18
479.461	6.09
479.814	6.14
480.168	5.92
480.521	6.24
480.875	6.13
481.228	6.24
481.582	6.2
481.935	6.31
482.289	6.21
482.642	6.27
482.995	6.15
483.348	6.08
483.701	6.32
484.055	6.13
484.408	6.08
484.761	6.02
485.114	5.93
485.466	5.84
485.819	5.82
486.172	5.78
486.525	5.86
486.878	5.9
487.23	5.94
487.583	5.97
487.936	6.07
488.288	5.95
488.641	5.98
488.993	5.96
489.345	5.96
489.698	5.84
490.05	5.96
490.402	5.99
490.754	5.98
491.107	6.01
491.459	6.09
491.811	6.18
492.163	6.11
492.515	6.15
492.866	5.99
493.218	5.99
493.57	5.89
493.922	5.83
494.274	6.02
494.625	6.09
494.977	6.08
495.328	6.25
495.68	6.1
496.031	6.22
496.383	6.09
496.734	6.38
497.086	6.1
497.437	6.25
497.788	6.13
498.139	6.02
498.49	6.19
498.842	6.08
499.193	6.15
499.544	6.1
499.894	6.08
500.245	6.09
500.596	6.2
500.947	6.16
501.298	6.22
501.648	6.33
501.999	6.26
502.35	6.19
502.7	6.18
503.051	6.21
503.401	6.17
503.752	6.39
504.102	6.13
504.452	6.31
504.803	6.24
505.153	6.23
505.503	6.25
505.853	6.28
506.203	6.23
506.553	6.16
506.903	6.3
507.253	6.27
507.603	6.18
507.953	6.18
508.303	6.29
508.652	6.14
509.002	6.34
509.352	6.2
509.701	6.18
510.051	6.26
510.4	6.2
510.75	6.22
511.099	6.05
511.449	6.14
511.798	6.15
512.147	6.22
512.496	6.3
512.846	6.14
513.195	6.2
513.544	6.27
513.893	6.21
514.242	5.99
514.591	6.16
514.939	6.09
515.288	6.14
515.637	6.05
515.986	6.33
516.334	6.31
516.683	6.16
517.032	6.3
517.38	6.01
517.729	6.25
518.077	6.26
518.426	6.28
518.774	6.29
519.122	6.17
519.47	6.1
519.819	6.04
520.167	6.03
520.515	6
520.863	6.08
521.211	6.02
521.559	6.19
521.907	6.04
522.255	6.21
522.602	6.15
522.95	6.09
523.298	6.21
523.645	6.3
523.993	6.25
524.341	6.22
524.688	6.15
525.036	6.23
525.383	6.03
525.73	6.1
526.078	6.06
526.425	6.08
526.772	6.11
527.119	6.13
527.466	6.02
527.814	5.9
528.161	6.14
528.508	6.04
528.854	5.95
529.201	6.07
529.548	5.99
529.895	5.82
530.242	5.79
530.588	5.8
530.935	5.88
531.282	5.89
531.628	5.95
531.975	5.93
532.321	5.91
532.667	5.95
533.014	6.06
533.36	6.03
533.706	6.02
534.052	5.94
534.399	5.97
534.745	5.94
535.091	5.9
535.437	5.92
535.783	5.93
536.129	6.03
536.474	6.01
536.82	6
537.166	6.15
537.512	5.99
537.857	6.12
538.203	6.01
538.549	6.09
538.894	6.05
539.239	6.15
539.585	6.01
539.93	6.11
540.276	6
540.621	6.07
540.966	6.06
541.311	6.11
541.656	6.08
542.001	6.04
542.346	6.02
542.691	5.94
543.036	5.84
543.381	5.74
543.726	5.93
544.071	5.9
544.415	5.93
544.76	5.99
545.105	5.98
545.449	6.01
545.794	6.09
546.138	5.95
546.483	6.01
546.827	5.99
547.171	6.1
547.516	5.97
547.86	6.13
548.204	6.05
548.548	6.04
548.892	6.07
549.236	6.03
549.58	6.05
549.924	6.03
550.268	6.14
550.612	5.94
550.956	6.2
551.3	6.2
551.643	6.17
551.987	6.32
552.33	6.28
552.674	6.19
553.017	6.34
553.361	6.31
553.704	6.11
554.048	6.28
554.391	6.16
554.734	6.07
555.077	6.1
555.42	5.95
555.764	6.17
556.107	6.11
556.45	6.09
556.793	6.09
557.135	6.05
557.478	6.02
557.821	6.11
558.164	6.15
558.507	6.21
558.849	6.13
559.192	6.17
559.534	6.33
559.877	6.07
560.219	6.1
560.562	6.22
560.904	6.15
561.246	6.1
561.589	6.15
561.931	6.09
562.273	6.11
562.615	6.17
562.957	6.17
563.299	6.07
563.641	6.1
563.983	6.14
564.325	6.24
564.667	6.11
565.008	6.13
565.35	6.17
565.692	6.33
566.033	6.18
566.375	6.2
566.716	6.06
567.058	6.26
567.399	6.18
567.741	6.02
568.082	6
568.423	6.16
568.764	6.04
569.105	5.95
569.447	6.09
569.788	6.12
570.129	6.17
570.47	6.21
570.811	6.02
571.151	6.19
571.492	6.19
571.833	6.19
572.174	5.99
572.514	6.23
572.855	6.11
573.195	6.04
573.536	6.01
573.876	6.16
574.217	6.14
574.557	6.14
574.898	6.03
575.238	6.2
575.578	5.97
575.918	6.14
576.258	6.1
576.598	5.82
576.938	6.22
577.278	6.02
577.618	6.21
577.958	6.23
578.298	6.21
578.638	5.97
578.977	5.94
579.317	6.08
579.657	6.14
579.996	6.02
580.336	6.18
580.675	6.14
581.014	6.14
581.354	6.1
581.693	6.17
582.032	5.96
582.372	6.18
582.711	5.99
583.05	6.02
583.389	6.28
583.728	6.09
584.067	6.15
584.406	6.36
584.745	5.96
585.083	5.91
585.422	6.31
585.761	6.22
586.1	6.06
586.438	6.31
586.777	6.37
587.115	6.17
587.454	6.08
587.792	5.92
588.13	6.34
588.469	6.06
588.807	6.18
589.145	6.13
589.483	6.06
589.821	6.27
590.159	6.19
590.497	6.16
590.835	6.07
591.173	5.94
591.511	5.96
591.849	5.92
592.187	6.15
592.524	5.86
592.862	6.05
593.2	5.81
593.537	5.81
593.875	6.21
594.212	6.17
594.55	6.01
594.887	6.35
595.224	6.24
595.561	6.44
595.899	6.06
596.236	6.24
596.573	6.17
596.91	6.25
597.247	6.06
597.584	6.08
597.921	6.22
598.258	6.26
598.594	6.31
598.931	6.1
599.268	6.03
599.604	6.2
599.941	6.24
600.277	6.1
600.614	6.36
600.95	6.26
601.287	5.9
601.623	6.01
601.959	6
602.296	6.24
602.632	5.88
602.968	5.9
603.304	6.05
603.64	6.17
603.976	6.15
604.312	6.1
604.648	6.22
604.984	6.12
605.319	6.19
605.655	6.03
605.991	6.07
606.326	6.08
606.662	6.12
606.998	6
607.333	6.04
607.668	6.09
608.004	6.1
608.339	6.23
608.674	6.17
609.01	5.92
609.345	6.25
609.68	6.08
610.015	5.88
610.35	6.51
610.685	5.96
611.02	5.9
611.355	6.08
611.689	6.04
612.024	5.95
612.359	6.33
612.694	6.09
613.028	6.15
613.363	5.95
613.697	5.99
614.032	6.31
614.366	6.17
614.7	5.94
615.035	6.45
615.369	5.82
615.703	5.99
616.037	6.07
616.371	6.04
616.705	6.31
617.039	6.33
617.373	5.68
617.707	5.93
618.041	6.07
618.375	6.11
618.709	5.78
619.042	6.03
619.376	5.85
619.71	6.11
620.043	6.14
620.377	6.44
620.71	5.93
621.043	6
621.377	6.12
621.71	6.46
622.043	6.07
622.376	6.62
622.709	5.99
623.043	5.88
623.376	6.73
623.709	6.16
624.041	6.14
624.374	6.39
624.707	5.98
625.04	5.82
625.373	6.49
625.705	6.15
626.038	5.89
626.37	6.14
626.703	6.44
627.035	6.07
627.368	6.47
627.7	5.91
628.032	6.16
628.365	5.86
628.697	6.18
629.029	5.76
629.361	5.7
629.693	6.04
630.025	6.03
630.357	6.25
630.689	6.16
631.021	6.17
631.353	6.47
631.684	5.91
632.016	6.03
632.348	6.35
632.679	5.84
633.011	6.38
633.342	6.34
633.674	6.14
634.005	6.12
634.336	6.31
634.668	6.54
634.999	6.73
635.33	6.14
635.661	6.3
635.992	6.05
636.323	6.11
636.654	6.02
636.985	6.54
637.316	6.22
637.647	6.12
637.977	6.05
638.308	6.33
638.639	6.17
638.969	6.12
639.3	6.23
639.63	6.62
639.961	5.9
640.291	5.99
640.622	6.27
640.952	5.98
641.282	6.61
641.612	6.3
641.943	6.12
642.273	6.51
642.603	6.64
642.933	6.26
643.263	5.99
643.592	6.3
643.922	6.53
644.252	6.48
644.582	5.71
644.911	6.17
645.241	5.89
645.571	6.64
645.9	6.24
646.23	5.96
646.559	6.34
646.888	6.36
647.218	6.07
647.547	5.95
647.876	6.07
648.205	6.14
648.534	6.45
648.863	6.36
649.192	6.61
649.521	6.38
649.85	6.11
650.179	6.87
650.508	6.56
650.837	6.48
651.165	6.28
651.494	6.28
651.822	6.34
652.151	6.32
652.479	6.24
652.808	6.54
653.136	6.46
653.465	6.12
653.793	6.43
654.121	6.85
654.449	6.62
654.777	6.59
655.105	6.29
655.433	6.03
655.761	6.51
656.089	6.14
656.417	6.62
656.745	6.45
657.073	5.59
657.4	6.34
657.728	5.68
658.056	6.05
658.383	5.82
658.711	6.58
659.038	6.71
659.365	6.74
659.693	6.19
660.02	6.44
660.347	6.09
660.674	6.78
661.001	6.45
661.329	6.59
661.656	6.64
661.982	6.01
662.309	6.52
662.636	6.22
662.963	6.57
663.29	6.74
663.616	6.22
663.943	6.37
664.27	6.88
664.596	6.58
664.923	7.02
665.249	5.86
665.576	6.42
665.902	6.33
666.228	5.9
666.554	6.08
666.881	5.92
667.207	6.9
667.533	6.53
667.859	6.25
668.185	6.46
668.511	6.31
668.837	6.31
669.162	7.12
669.488	6.24
669.814	7.44
670.139	6.33
670.465	5.71
670.791	6.61
671.116	6.5
671.442	6.65
671.767	6.48
672.092	7.28
672.418	5.72
672.743	6.34
673.068	5.69
673.393	6.79
673.718	7.04
674.043	6.37
674.368	5.82
674.693	6.4
675.018	6.47
675.343	6.35
675.667	6.65
675.992	6.34
676.317	5.9
676.641	6.44
676.966	6.65
677.29	6.43
677.615	6.45
677.939	6.16
678.264	6.27
678.588	6.98
678.912	6.34
679.236	5.82
679.56	6.83
679.885	6.59
680.209	6.84
680.532	6.4
680.856	6.47
681.18	6.45
681.504	6.59
681.828	6.79
682.152	6.22
682.475	6.33
682.799	6.33
683.122	6.89
683.446	6.48
683.769	7.27
684.093	6.04
684.416	6.87
684.739	7.02
685.062	6.4
685.386	6.51
685.709	6.62
686.032	6.35
686.355	6.39
686.678	6.99
687.001	7.71
687.324	6.51
687.646	6.81
687.969	6.11
688.292	6.67
688.614	6.6
688.937	7.03
689.26	6.44
689.582	5.68
689.904	6.34
690.227	6.09
690.549	6.79
690.871	6.51
691.194	6.26
691.516	6.78
691.838	6.63
692.16	7.75
692.482	6.41
692.804	6.66
