Data from 433_chest_Reflection__2__109.txt Node

Date: Tue Dec 12 19:20:42 CST 2023
User: ToomeyLab
Spectrometer: FLMS14357
Trigger mode: 0
Integration Time (sec): 1.000000E-2
Scans to average: 100
Electric dark correction enabled: true
Nonlinearity correction enabled: false
Boxcar width: 0
XAxis mode: Wavelengths
Number of Pixels in Spectrum: 2048
>>>>>Begin Spectral Data<<<<<
189.047	58.52
189.435	58.52
189.823	58.52
190.211	46.46
190.599	63.2
190.987	47.72
191.375	-268.52
191.763	-743.02
192.151	64.31
192.538	-100.14
192.926	397.18
193.314	16.67
193.702	-7.82
194.089	74.35
194.477	1151.75
194.864	81.72
195.252	75.91
195.639	-97.62
196.027	15.26
196.414	17.08
196.801	692.86
197.189	6.72
197.576	125.06
197.963	33.97
198.351	-30.16
198.738	123.57
199.125	-3.93
199.512	-57.18
199.899	12.42
200.286	-17.74
200.673	-9.4
201.06	-56.04
201.447	-97.12
201.833	-185.45
202.22	-39.36
202.607	-110.16
202.994	15.95
203.38	11.32
203.767	-30.43
204.154	-5.8
204.54	43.12
204.927	8
205.313	39.89
205.699	10.37
206.086	-21.87
206.472	40.8
206.858	-7.42
207.245	-50.81
207.631	17.5
208.017	-11.88
208.403	-6.3
208.789	6.46
209.175	-34.4
209.561	33.17
209.947	-1.8
210.333	22.49
210.719	27.43
211.105	-48.26
211.491	18.76
211.876	19.52
212.262	11.07
212.648	12.48
213.034	-66.28
213.419	-16.9
213.805	28.45
214.19	37.68
214.576	19.02
214.961	-12.02
215.346	10.57
215.732	34.42
216.117	-10.09
216.502	-23.99
216.888	-33.03
217.273	-16.31
217.658	-61.17
218.043	-9.03
218.428	-9.51
218.813	13.23
219.198	-23.95
219.583	-9.84
219.968	35.46
220.353	-24.68
220.738	24.76
221.122	3.76
221.507	-15.59
221.892	-4.75
222.276	7.19
222.661	9.47
223.046	-3
223.43	15.14
223.815	7.06
224.199	15.75
224.583	3.75
224.968	0.51
225.352	-1.19
225.736	3.52
226.121	-2.53
226.505	-3.77
226.889	-5.27
227.273	6.92
227.657	5.18
228.041	1.04
228.425	5.67
228.809	1.46
229.193	2.55
229.577	4.7
229.961	4.38
230.344	4.65
230.728	6.04
231.112	5
231.495	5.86
231.879	5.91
232.263	4.19
232.646	4.51
233.03	6.49
233.413	1.71
233.797	3.57
234.18	2.64
234.563	2.87
234.946	4.45
235.33	6.34
235.713	6.01
236.096	4.97
236.479	4.99
236.862	5.69
237.245	3.54
237.628	4.89
238.011	7.45
238.394	4.53
238.777	4.4
239.16	5.63
239.543	2.56
239.925	6.65
240.308	3.61
240.691	6.11
241.073	6.16
241.456	4.85
241.838	3.63
242.221	5.67
242.603	4.58
242.986	4.53
243.368	4.54
243.75	5.44
244.133	4.92
244.515	4.91
244.897	4.86
245.279	5.13
245.661	4.06
246.043	4.57
246.425	5.81
246.807	4.65
247.189	3.63
247.571	4.46
247.953	4.6
248.335	4.9
248.717	4.47
249.098	4.84
249.48	4.5
249.862	4.49
250.243	4.96
250.625	4.98
251.006	4.75
251.388	5.69
251.769	4.44
252.151	3.87
252.532	5.47
252.913	5.95
253.295	5.46
253.676	3.38
254.057	4.04
254.438	4.68
254.819	4.08
255.2	4.28
255.581	5.45
255.962	4.2
256.343	3.55
256.724	4.49
257.105	5.88
257.486	3.88
257.867	3.66
258.247	5.02
258.628	4.28
259.009	4.7
259.389	3.81
259.77	4.04
260.15	4.34
260.531	5.03
260.911	4.75
261.292	4.02
261.672	4.04
262.052	4.36
262.432	4.4
262.813	4.82
263.193	4.42
263.573	5.02
263.953	5.12
264.333	5.44
264.713	4.82
265.093	3.72
265.473	4.75
265.853	3.43
266.233	4.23
266.612	3.74
266.992	4.26
267.372	4.16
267.752	4.55
268.131	3.99
268.511	3.81
268.89	3.27
269.27	3.25
269.649	4.28
270.029	4.16
270.408	4.65
270.787	4.49
271.167	4.47
271.546	4.37
271.925	4.8
272.304	4.8
272.683	3.57
273.062	3.91
273.441	4.29
273.82	3.46
274.199	3.83
274.578	3.72
274.957	4.19
275.336	4.03
275.715	4.22
276.093	4
276.472	4.14
276.851	4.33
277.229	3.41
277.608	4.01
277.986	3.55
278.365	3.55
278.743	3.73
279.122	4.24
279.5	4.27
279.878	2.87
280.257	3.83
280.635	3.11
281.013	4.1
281.391	4.32
281.769	4.5
282.147	3.54
282.525	3.7
282.903	3.86
283.281	3.49
283.659	3.47
284.037	4.03
284.415	3.63
284.792	4.13
285.17	3.71
285.548	4.59
285.925	4.14
286.303	3.63
286.68	3.67
287.058	4.42
287.435	3.55
287.813	3.65
288.19	3.56
288.567	3.86
288.945	3.55
289.322	3.5
289.699	3.39
290.076	3.67
290.453	4.14
290.83	3.63
291.207	4.67
291.584	3.98
291.961	4.18
292.338	4.08
292.715	3.94
293.092	3.93
293.469	4.22
293.845	4.27
294.222	3.65
294.599	4.35
294.975	3.79
295.352	4.35
295.728	4.37
296.105	4.3
296.481	4.3
296.858	4.24
297.234	4.49
297.61	4.45
297.986	4.51
298.363	4.49
298.739	4.25
299.115	4.01
299.491	4.01
299.867	4.44
300.243	3.61
300.619	4.59
300.995	4.27
301.371	4.18
301.746	4.62
302.122	4.67
302.498	4.3
302.874	4.45
303.249	4.62
303.625	3.97
304	4.77
304.376	4.58
304.751	4.85
305.127	4.35
305.502	4.37
305.878	3.66
306.253	3.99
306.628	3.81
307.003	4.06
307.378	3.84
307.754	4.55
308.129	4.17
308.504	4.94
308.879	4.41
309.254	4.84
309.629	4.8
310.003	4.81
310.378	4.79
310.753	4.9
311.128	4.69
311.502	4.36
311.877	4.24
312.252	3.73
312.626	4.71
313.001	4.04
313.375	4.36
313.75	4.67
314.124	4.5
314.498	4.78
314.873	4.36
315.247	4.59
315.621	4.49
315.995	4.64
316.369	4.45
316.743	3.99
317.117	4.32
317.491	4.38
317.865	4.58
318.239	4.55
318.613	4.68
318.987	5.04
319.361	4.39
319.734	4.04
320.108	4.63
320.482	3.85
320.855	4.36
321.229	4.1
321.602	4.83
321.976	4.28
322.349	4.83
322.723	4.45
323.096	5.06
323.469	4.21
323.843	5.25
324.216	4.91
324.589	4.77
324.962	4.63
325.335	5.37
325.708	4.76
326.081	4.87
326.454	4.6
326.827	4.82
327.2	4.63
327.573	4.07
327.945	4.8
328.318	4.64
328.691	3.99
329.063	4.61
329.436	4.74
329.809	4.98
330.181	3.85
330.553	4.5
330.926	4.27
331.298	4.54
331.671	4.69
332.043	4.69
332.415	4.74
332.787	4.13
333.159	4.88
333.532	4.67
333.904	3.97
334.276	4.96
334.648	4.47
335.02	4.12
335.391	4.58
335.763	4.3
336.135	4.34
336.507	4.87
336.879	4.86
337.25	4.05
337.622	4.51
337.993	4.81
338.365	4.4
338.736	5.14
339.108	4.87
339.479	4.85
339.851	4.18
340.222	4.2
340.593	4.2
340.964	4.37
341.336	4.59
341.707	4.25
342.078	4.18
342.449	4.19
342.82	4.85
343.191	4.67
343.562	4.4
343.933	4.95
344.303	4.8
344.674	4.51
345.045	4.66
345.416	4.78
345.786	4.33
346.157	4.84
346.527	5.01
346.898	4.69
347.268	4.33
347.639	5.16
348.009	4.38
348.38	4.67
348.75	4.93
349.12	4.88
349.49	4.85
349.861	4.99
350.231	4.76
350.601	5.05
350.971	4.61
351.341	4.72
351.711	4.82
352.081	4.25
352.45	4.34
352.82	4.52
353.19	4.82
353.56	4.59
353.929	4.47
354.299	4.56
354.669	4.13
355.038	3.98
355.408	4.32
355.777	5.26
356.147	4.45
356.516	4.89
356.885	4.53
357.254	5.22
357.624	4.32
357.993	4.78
358.362	4.81
358.731	4.99
359.1	4.66
359.469	4.64
359.838	4.8
360.207	4.79
360.576	4.82
360.945	4.87
361.314	4.8
361.682	4.83
362.051	5.22
362.42	4.78
362.788	4.79
363.157	5.06
363.525	4.92
363.894	4.63
364.262	4.66
364.631	4.6
364.999	4.79
365.367	5.02
365.735	4.81
366.104	4.72
366.472	4.64
366.84	4.69
367.208	4.77
367.576	4.65
367.944	4.94
368.312	4.85
368.68	4.7
369.048	4.92
369.416	5.16
369.783	4.66
370.151	4.82
370.519	4.79
370.886	4.79
371.254	4.43
371.621	4.83
371.989	4.95
372.356	4.83
372.724	4.66
373.091	4.89
373.458	4.68
373.826	4.61
374.193	4.57
374.56	5.06
374.927	4.55
375.294	4.72
375.661	4.66
376.028	5.25
376.395	5.1
376.762	5.06
377.129	4.75
377.496	4.66
377.863	4.92
378.229	4.61
378.596	4.99
378.963	5.02
379.329	4.78
379.696	4.59
380.062	5.39
380.429	4.82
380.795	5.14
381.161	5.31
381.528	5.01
381.894	5.29
382.26	5
382.626	5.2
382.993	5.03
383.359	4.86
383.725	4.58
384.091	5.1
384.457	4.77
384.823	5.24
385.188	4.92
385.554	4.9
385.92	5
386.286	5.21
386.651	5.12
387.017	5.37
387.383	4.96
387.748	4.9
388.114	5.06
388.479	5.15
388.845	5.09
389.21	5.09
389.575	4.98
389.94	5.03
390.306	5.15
390.671	5.16
391.036	4.8
391.401	5.02
391.766	4.96
392.131	5.12
392.496	4.78
392.861	4.74
393.226	5.04
393.591	4.94
393.956	5.01
394.32	5.16
394.685	5.28
395.05	4.9
395.414	5.12
395.779	4.89
396.143	5.18
396.508	5.01
396.872	4.98
397.236	5.2
397.601	5.2
397.965	5.17
398.329	5.02
398.694	4.9
399.058	5.29
399.422	5.06
399.786	5.09
400.15	5.06
400.514	5.27
400.878	5.26
401.242	5.23
401.605	5.47
401.969	5.3
402.333	5.16
402.697	5.22
403.06	5
403.424	5.2
403.787	4.75
404.151	5.21
404.514	4.96
404.878	5.24
405.241	5.21
405.604	5.14
405.968	5.17
406.331	5.2
406.694	5.27
407.057	4.95
407.42	5.22
407.783	5.26
408.146	4.92
408.509	5.11
408.872	5.03
409.235	5.22
409.598	5.15
409.961	5.26
410.323	5.14
410.686	5.29
411.049	5.12
411.411	5.27
411.774	5.24
412.136	5.24
412.499	5.15
412.861	4.96
413.223	5.44
413.586	5
413.948	5.08
414.31	5.4
414.672	5.41
415.035	5.47
415.397	5.11
415.759	5.21
416.121	5.2
416.483	5.04
416.845	5.31
417.206	5.23
417.568	5.15
417.93	5.38
418.292	5.12
418.653	5.19
419.015	4.92
419.377	5.27
419.738	5.19
420.1	5.13
420.461	5.24
420.822	5.24
421.184	5.24
421.545	5.32
421.906	5.23
422.267	5.06
422.629	5.18
422.99	5.21
423.351	5.26
423.712	5.08
424.073	5.32
424.434	5.27
424.795	5.32
425.155	5.26
425.516	5.15
425.877	5.22
426.238	5.3
426.598	5.17
426.959	5.25
427.32	5.3
427.68	5.33
428.041	5.37
428.401	5.35
428.761	5.39
429.122	5.45
429.482	5.54
429.842	5.38
430.202	5.41
430.563	5.3
430.923	5.48
431.283	5.27
431.643	5.61
432.003	5.25
432.363	5.47
432.722	5.25
433.082	5.41
433.442	5.48
433.802	5.43
434.161	5.35
434.521	5.38
434.881	5.36
435.24	5.44
435.6	5.4
435.959	5.36
436.319	5.38
436.678	5.52
437.037	5.36
437.396	5.15
437.756	5.26
438.115	5.42
438.474	5.29
438.833	5.5
439.192	5.73
439.551	5.35
439.91	5.43
440.269	5.4
440.628	5.37
440.987	5.25
441.345	5.58
441.704	5.46
442.063	5.48
442.421	5.42
442.78	5.31
443.138	5.36
443.497	5.4
443.855	5.43
444.214	5.47
444.572	5.61
444.93	5.53
445.288	5.35
445.647	5.68
446.005	5.49
446.363	5.31
446.721	5.45
447.079	5.42
447.437	5.26
447.795	5.45
448.153	5.36
448.51	5.48
448.868	5.29
449.226	5.58
449.584	5.5
449.941	5.42
450.299	5.56
450.656	5.35
451.014	5.5
451.371	5.58
451.729	5.66
452.086	5.44
452.443	5.77
452.801	5.51
453.158	5.61
453.515	5.76
453.872	5.72
454.229	5.5
454.586	5.28
454.943	5.46
455.3	5.47
455.657	5.64
456.014	5.77
456.371	5.62
456.727	5.45
457.084	5.61
457.441	5.85
457.797	5.52
458.154	5.59
458.51	5.4
458.867	5.85
459.223	5.78
459.58	5.73
459.936	5.35
460.292	5.62
460.648	5.72
461.005	5.52
461.361	5.54
461.717	5.6
462.073	5.52
462.429	5.66
462.785	5.62
463.141	5.65
463.496	5.55
463.852	5.89
464.208	5.7
464.564	5.75
464.919	5.86
465.275	5.73
465.631	5.75
465.986	5.74
466.342	5.64
466.697	5.87
467.052	6.02
467.408	5.75
467.763	5.78
468.118	5.96
468.473	5.85
468.829	5.73
469.184	5.69
469.539	5.85
469.894	5.8
470.249	5.78
470.603	5.67
470.958	5.85
471.313	6.03
471.668	6
472.023	5.73
472.377	5.77
472.732	5.87
473.086	5.85
473.441	5.95
473.795	5.91
474.15	5.87
474.504	5.76
474.859	5.87
475.213	5.71
475.567	5.78
475.921	5.87
476.275	5.7
476.63	5.9
476.984	5.87
477.338	5.92
477.692	5.86
478.045	5.9
478.399	5.92
478.753	5.84
479.107	5.81
479.461	5.78
479.814	5.99
480.168	5.86
480.521	5.78
480.875	5.93
481.228	6.05
481.582	5.92
481.935	6.03
482.289	6.03
482.642	6.1
482.995	5.89
483.348	5.87
483.701	6.05
484.055	5.83
484.408	5.86
484.761	5.87
485.114	5.72
485.466	5.67
485.819	5.66
486.172	5.6
486.525	5.63
486.878	5.68
487.23	5.69
487.583	5.77
487.936	5.83
488.288	5.83
488.641	5.83
488.993	5.8
489.345	5.82
489.698	5.72
490.05	5.78
490.402	5.79
490.754	5.77
491.107	5.83
491.459	5.92
491.811	5.98
492.163	5.88
492.515	6.06
492.866	5.94
493.218	5.89
493.57	5.84
493.922	5.79
494.274	5.9
494.625	6
494.977	6.13
495.328	6.13
495.68	6.05
496.031	6.23
496.383	6.21
496.734	6.21
497.086	6.06
497.437	6.2
497.788	6.18
498.139	6.14
498.49	6.24
498.842	6.18
499.193	6.11
499.544	6.18
499.894	6.19
500.245	6.36
500.596	6.38
500.947	6.16
501.298	6.19
501.648	6.3
501.999	6.23
502.35	6.3
502.7	6.36
503.051	6.24
503.401	6.27
503.752	6.3
504.102	6.38
504.452	6.31
504.803	6.35
505.153	6.49
505.503	6.33
505.853	6.5
506.203	6.41
506.553	6.42
506.903	6.5
507.253	6.42
507.603	6.48
507.953	6.46
508.303	6.52
508.652	6.37
509.002	6.56
509.352	6.37
509.701	6.47
510.051	6.38
510.4	6.42
510.75	6.39
511.099	6.43
511.449	6.6
511.798	6.45
512.147	6.51
512.496	6.53
512.846	6.42
513.195	6.4
513.544	6.5
513.893	6.65
514.242	6.51
514.591	6.52
514.939	6.48
515.288	6.41
515.637	6.48
515.986	6.49
516.334	6.73
516.683	6.63
517.032	6.85
517.38	6.76
517.729	6.74
518.077	6.5
518.426	6.76
518.774	6.71
519.122	6.67
519.47	6.67
519.819	6.65
520.167	6.64
520.515	6.48
520.863	6.6
521.211	6.54
521.559	6.78
521.907	6.67
522.255	6.79
522.602	6.88
522.95	6.81
523.298	6.83
523.645	6.95
523.993	7.01
524.341	6.79
524.688	6.92
525.036	6.9
525.383	6.85
525.73	6.84
526.078	6.96
526.425	6.94
526.772	6.85
527.119	6.93
527.466	6.9
527.814	6.83
528.161	6.88
528.508	6.78
528.854	6.88
529.201	6.95
529.548	6.9
529.895	6.83
530.242	6.72
530.588	6.73
530.935	6.81
531.282	6.78
531.628	6.85
531.975	6.79
532.321	6.97
532.667	6.91
533.014	7.03
533.36	7.11
533.706	7.12
534.052	7.03
534.399	7.07
534.745	7.08
535.091	6.94
535.437	7.05
535.783	7.06
536.129	7.2
536.474	7.14
536.82	7.18
537.166	7.35
537.512	7.24
537.857	7.3
538.203	7.3
538.549	7.28
538.894	7.28
539.239	7.31
539.585	7.3
539.93	7.36
540.276	7.32
540.621	7.49
540.966	7.58
541.311	7.45
541.656	7.51
542.001	7.57
542.346	7.52
542.691	7.43
543.036	7.38
543.381	7.25
543.726	7.35
544.071	7.38
544.415	7.32
544.76	7.46
545.105	7.5
545.449	7.56
545.794	7.68
546.138	7.56
546.483	7.67
546.827	7.64
547.171	7.82
547.516	7.83
547.86	7.85
548.204	7.73
548.548	7.78
548.892	7.87
549.236	7.74
549.58	7.9
549.924	7.84
550.268	8
550.612	7.79
550.956	7.96
551.3	8.19
551.643	8.15
551.987	8.15
552.33	7.96
552.674	8.24
553.017	8.3
553.361	8.44
553.704	8.04
554.048	8.27
554.391	8.09
554.734	8.31
555.077	8.35
555.42	8.28
555.764	8.32
556.107	8.33
556.45	8.18
556.793	8.31
557.135	8.34
557.478	8.58
557.821	8.43
558.164	8.64
558.507	8.76
558.849	8.34
559.192	8.62
559.534	8.56
559.877	8.76
560.219	8.62
560.562	8.69
560.904	8.65
561.246	8.67
561.589	8.63
561.931	8.7
562.273	8.61
562.615	8.87
562.957	8.74
563.299	9
563.641	9.01
563.983	8.85
564.325	8.94
564.667	8.95
565.008	8.68
565.35	9.05
565.692	9.11
566.033	9.14
566.375	9.18
566.716	8.92
567.058	9.2
567.399	9.17
567.741	9.21
568.082	9
568.423	9.11
568.764	9.1
569.105	9.08
569.447	9.24
569.788	9.36
570.129	9.09
570.47	9.36
570.811	9.52
571.151	9.51
571.492	9.51
571.833	9.45
572.174	9.55
572.514	9.53
572.855	9.57
573.195	9.44
573.536	9.36
573.876	9.54
574.217	9.71
574.557	9.57
574.898	9.69
575.238	9.58
575.578	9.75
575.918	9.69
576.258	9.94
576.598	9.92
576.938	9.65
577.278	9.82
577.618	9.83
577.958	9.87
578.298	10.07
578.638	9.94
578.977	9.83
579.317	9.89
579.657	10
579.996	10.08
580.336	10.4
580.675	10.12
581.014	10.29
581.354	10.33
581.693	10.05
582.032	10.26
582.372	10.46
582.711	10.39
583.05	10.47
583.389	10.5
583.728	10.49
584.067	10.44
584.406	10.88
584.745	10.71
585.083	10.57
585.422	10.49
585.761	10.9
586.1	10.67
586.438	11.09
586.777	10.8
587.115	10.55
587.454	10.91
587.792	10.88
588.13	11.19
588.469	10.99
588.807	10.74
589.145	10.93
589.483	11.05
589.821	11.04
590.159	10.95
590.497	11.08
590.835	11.21
591.173	11.17
591.511	11.32
591.849	11.28
592.187	11.28
592.524	11.12
592.862	11.31
593.2	11.22
593.537	11.24
593.875	11.58
594.212	11.52
594.55	11.54
594.887	11.76
595.224	11.42
595.561	11.71
595.899	11.56
596.236	11.64
596.573	11.72
596.91	11.88
597.247	11.54
597.584	11.96
597.921	11.68
598.258	11.57
598.594	12.01
598.931	11.78
599.268	11.89
599.604	11.83
599.941	11.78
600.277	11.87
600.614	12.08
600.95	11.95
601.287	12.04
601.623	12.09
601.959	12.03
602.296	12.45
602.632	12.08
602.968	12.38
603.304	12.28
603.64	12.72
603.976	12
604.312	12.53
604.648	12.42
604.984	12.27
605.319	12.53
605.655	12.29
605.991	12.28
606.326	12.37
606.662	12.68
606.998	12.36
607.333	12.64
607.668	12.71
608.004	12.85
608.339	12.62
608.674	12.78
609.01	12.84
609.345	12.81
609.68	13.03
610.015	12.55
610.35	13.16
610.685	12.84
611.02	13.27
611.355	13.04
611.689	13.07
612.024	13.11
612.359	13.28
612.694	13.17
613.028	13.17
613.363	13.35
613.697	13.22
614.032	13.4
614.366	13.75
614.7	13.64
615.035	13.68
615.369	13.32
615.703	13.6
616.037	13.7
616.371	13.24
616.705	13.77
617.039	13.79
617.373	13.95
617.707	13.7
618.041	14.2
618.375	13.42
618.709	13.59
619.042	13.69
619.376	14.16
619.71	13.62
620.043	14.01
620.377	13.99
620.71	13.98
621.043	13.77
621.377	13.89
621.71	14.4
622.043	14.56
622.376	14.68
622.709	14.24
623.043	14.19
623.376	14.69
623.709	14.69
624.041	14.52
624.374	14.15
624.707	14.51
625.04	14.36
625.373	14.71
625.705	14.78
626.038	14.72
626.37	14.81
626.703	15.09
627.035	14.92
627.368	14.96
627.7	14.54
628.032	14.82
628.365	14.89
628.697	14.7
629.029	14.97
629.361	14.98
629.693	14.75
630.025	14.74
630.357	15.46
630.689	14.96
631.021	15.29
631.353	15.46
631.684	15.38
632.016	15.15
632.348	15.69
632.679	14.77
633.011	15.8
633.342	15.94
633.674	15.44
634.005	16.12
634.336	15.73
634.668	15.77
634.999	15.82
635.33	15.93
635.661	15.77
635.992	15.73
636.323	15.44
636.654	15.91
636.985	16.16
637.316	15.97
637.647	16.11
637.977	16.17
638.308	16.18
638.639	16.06
638.969	16.13
639.3	15.93
639.63	16.38
639.961	16.46
640.291	16.16
640.622	15.99
640.952	16.32
641.282	16.6
641.612	16.76
641.943	16.82
642.273	16.76
642.603	16.83
642.933	16.56
643.263	16.47
643.592	17.15
643.922	17.09
644.252	17.2
644.582	16.24
644.911	17.14
645.241	16.73
645.571	17.21
645.9	17.03
646.23	17.14
646.559	17.55
646.888	16.95
647.218	17.11
647.547	16.68
647.876	17.6
648.205	17.44
648.534	17.45
648.863	17.24
649.192	17.77
649.521	17.74
649.85	16.82
650.179	17.76
650.508	17.69
650.837	17.34
651.165	17.26
651.494	17.45
651.822	17.43
652.151	17.94
652.479	17.53
652.808	17.83
653.136	17.81
653.465	17.6
653.793	17.79
654.121	17.86
654.449	17.68
654.777	18.05
655.105	17.98
655.433	17.97
655.761	18.11
656.089	17.83
656.417	18.33
656.745	18.24
657.073	18.09
657.4	18.51
657.728	18.27
658.056	18.27
658.383	17.93
658.711	18.69
659.038	18.72
659.365	18.33
659.693	18.15
660.02	18.53
660.347	18.72
660.674	18.81
661.001	18.86
661.329	18.63
661.656	18.51
661.982	18.56
662.309	19.22
662.636	18.64
662.963	18.59
663.29	19.1
663.616	18.71
663.943	18.79
664.27	18.89
664.596	19.58
664.923	19.11
665.249	18.71
665.576	18.62
665.902	19.36
666.228	19.32
666.554	18.84
666.881	18.88
667.207	19.46
667.533	18.96
667.859	19.02
668.185	19.35
668.511	18.86
668.837	19.44
669.162	19.84
669.488	19.66
669.814	19.82
670.139	19.27
670.465	19.02
670.791	20.04
671.116	20.45
671.442	19.46
671.767	19.66
672.092	20.96
672.418	20.03
672.743	20.02
673.068	19.38
673.393	19.58
673.718	20.72
674.043	20.61
674.368	19.16
674.693	20.12
675.018	20.27
675.343	19.78
675.667	20.41
675.992	20.02
676.317	20.48
676.641	20.05
676.966	20.58
677.29	20.52
677.615	20.18
677.939	20.39
678.264	21.15
678.588	20.87
678.912	20.64
679.236	20.14
679.56	20.75
679.885	20.9
680.209	21.1
680.532	20.78
680.856	20.42
681.18	20.82
681.504	20.92
681.828	21.12
682.152	20.98
682.475	21.43
682.799	21.33
683.122	21.18
683.446	21.44
683.769	21.84
684.093	20.59
684.416	21.4
684.739	21.13
685.062	21.22
