Data from 433_crown_Reflection__3__115.txt Node

Date: Tue Dec 12 19:22:32 CST 2023
User: ToomeyLab
Spectrometer: FLMS14357
Trigger mode: 0
Integration Time (sec): 1.000000E-2
Scans to average: 100
Electric dark correction enabled: true
Nonlinearity correction enabled: false
Boxcar width: 0
XAxis mode: Wavelengths
Number of Pixels in Spectrum: 2048
>>>>>Begin Spectral Data<<<<<
189.047	56.52
189.435	56.52
189.823	56.52
190.211	193.25
190.599	150.44
190.987	67.86
191.375	194.91
191.763	424.13
192.151	140.1
192.538	-111.07
192.926	520.19
193.314	67.05
193.702	78.32
194.089	56.26
194.477	751.54
194.864	109.17
195.252	283.1
195.639	445.04
196.027	-69.85
196.414	-8.39
196.801	-6966.07
197.189	39.52
197.576	25.83
197.963	49.29
198.351	2.21
198.738	-22.26
199.125	0.03
199.512	-17.29
199.899	10.39
200.286	38.22
200.673	-50.15
201.06	-60.35
201.447	-156.22
201.833	-93.84
202.22	-37.8
202.607	-195.31
202.994	20.25
203.38	-10.88
203.767	-33.9
204.154	-9.87
204.54	-0.41
204.927	-60.64
205.313	12.37
205.699	1.64
206.086	-0.79
206.472	21.15
206.858	21.87
207.245	7.33
207.631	-0.43
208.017	28.09
208.403	-19.31
208.789	35.98
209.175	-44.81
209.561	19.94
209.947	-46.99
210.333	55.36
210.719	-5.53
211.105	-51.75
211.491	14.35
211.876	15.09
212.262	11.77
212.648	-74.98
213.034	-37.16
213.419	-32.27
213.805	-6.07
214.19	32.29
214.576	20.37
214.961	-5.06
215.346	2.87
215.732	29.32
216.117	9.86
216.502	-21.3
216.888	-33.62
217.273	-23.54
217.658	-48.09
218.043	39.28
218.428	12.51
218.813	-11.45
219.198	-38.15
219.583	10.7
219.968	-6.61
220.353	-18.51
220.738	18.55
221.122	-9.91
221.507	-27.35
221.892	-24.81
222.276	22.73
222.661	-1.51
223.046	-5.14
223.43	1.18
223.815	-13.73
224.199	19.27
224.583	-0.32
224.968	-6.58
225.352	-11.86
225.736	14.53
226.121	-1.85
226.505	1.5
226.889	-5.51
227.273	5.6
227.657	7.27
228.041	8.61
228.425	2.48
228.809	7.67
229.193	1.1
229.577	7.07
229.961	5.56
230.344	7.48
230.728	6.61
231.112	7.31
231.495	7.23
231.879	7.72
232.263	6.57
232.646	5.88
233.03	6.81
233.413	4.4
233.797	5.16
234.18	3.91
234.563	2.28
234.946	7.72
235.33	7.71
235.713	6.09
236.096	5.14
236.479	5.16
236.862	5.89
237.245	6.3
237.628	7.22
238.011	5.43
238.394	5.92
238.777	7.02
239.16	5.91
239.543	5.89
239.925	6.73
240.308	7.66
240.691	6.7
241.073	6.96
241.456	6.28
241.838	5.95
242.221	6.66
242.603	7.47
242.986	6.49
243.368	6.63
243.75	6.4
244.133	6.76
244.515	6.87
244.897	6.91
245.279	7.12
245.661	5.32
246.043	5.33
246.425	7.28
246.807	5.13
247.189	6.65
247.571	7.07
247.953	6.34
248.335	6.48
248.717	6.28
249.098	6.39
249.48	6.23
249.862	6.07
250.243	5.78
250.625	7.33
251.006	6.27
251.388	6.39
251.769	6.52
252.151	5.32
252.532	6.05
252.913	6.03
253.295	6.69
253.676	5.69
254.057	5.87
254.438	6.44
254.819	5.64
255.2	6.91
255.581	5.76
255.962	4.32
256.343	6.1
256.724	6.7
257.105	5.29
257.486	5.36
257.867	4.87
258.247	5.15
258.628	6.16
259.009	5.33
259.389	5.63
259.77	6.32
260.15	5.99
260.531	5.8
260.911	6.07
261.292	5.56
261.672	5.75
262.052	5.94
262.432	5.82
262.813	5.76
263.193	5.94
263.573	5.58
263.953	7.07
264.333	6.33
264.713	5.87
265.093	5.46
265.473	6.66
265.853	4.53
266.233	4.77
266.612	5.85
266.992	5.97
267.372	5.79
267.752	6.13
268.131	5.14
268.511	5.57
268.89	4.71
269.27	5.39
269.649	5.19
270.029	5.11
270.408	5.32
270.787	5.5
271.167	5.56
271.546	5.42
271.925	6.07
272.304	6.31
272.683	4.89
273.062	5.32
273.441	5.73
273.82	4.61
274.199	5.17
274.578	5.26
274.957	5.29
275.336	5.33
275.715	5.56
276.093	5.15
276.472	5.57
276.851	5.88
277.229	4.16
277.608	5.47
277.986	4.41
278.365	5.07
278.743	5.13
279.122	5.94
279.5	4.86
279.878	4.4
280.257	4.9
280.635	5.07
281.013	5.06
281.391	4.85
281.769	5.43
282.147	5.07
282.525	4.54
282.903	5.36
283.281	4.98
283.659	5.31
284.037	5.7
284.415	5.11
284.792	5.65
285.17	5.38
285.548	5.35
285.925	4.93
286.303	5.25
286.68	5.08
287.058	5.22
287.435	5.36
287.813	4.98
288.19	4.94
288.567	4.65
288.945	5.43
289.322	4.46
289.699	4.72
290.076	5.26
290.453	4.84
290.83	4.93
291.207	5.58
291.584	5.01
291.961	5.03
292.338	5.53
292.715	4.84
293.092	5.03
293.469	4.52
293.845	5.45
294.222	4.66
294.599	4.7
294.975	5.13
295.352	5.26
295.728	5.15
296.105	4.89
296.481	5.5
296.858	5.39
297.234	5.65
297.61	4.94
297.986	5.36
298.363	5.27
298.739	5.05
299.115	4.81
299.491	4.71
299.867	5.02
300.243	4.75
300.619	5.04
300.995	5.46
301.371	5.07
301.746	4.81
302.122	5.27
302.498	5.21
302.874	4.66
303.249	5.07
303.625	4.86
304	5.06
304.376	5.4
304.751	4.93
305.127	5.06
305.502	5.09
305.878	4.79
306.253	4.88
306.628	4.17
307.003	4.97
307.378	5.32
307.754	5.29
308.129	4.72
308.504	5.48
308.879	4.69
309.254	4.99
309.629	4.71
310.003	5.6
310.378	4.99
310.753	5.22
311.128	5.54
311.502	4.91
311.877	4.73
312.252	4.15
312.626	5.2
313.001	4.83
313.375	4.43
313.75	5.11
314.124	4.9
314.498	4.75
314.873	4.45
315.247	5.17
315.621	4.8
315.995	5.37
316.369	4.79
316.743	4.59
317.117	4.58
317.491	4.46
317.865	4.66
318.239	4.72
318.613	4.73
318.987	4.73
319.361	4.5
319.734	4.56
320.108	4.9
320.482	5.16
320.855	4.72
321.229	5.15
321.602	4.43
321.976	4.56
322.349	5.49
322.723	4.49
323.096	4.81
323.469	4.76
323.843	5.19
324.216	4.95
324.589	4.88
324.962	5.07
325.335	4.93
325.708	4.35
326.081	4.73
326.454	4.87
326.827	4.99
327.2	4.83
327.573	4.88
327.945	4.91
328.318	5.18
328.691	4.27
329.063	4.84
329.436	5.46
329.809	4.85
330.181	4.6
330.553	4.68
330.926	5.11
331.298	4.91
331.671	4.78
332.043	4.6
332.415	4.42
332.787	4.43
333.159	4.71
333.532	4.36
333.904	4.69
334.276	5.31
334.648	4.47
335.02	4.48
335.391	4.71
335.763	4.56
336.135	4.76
336.507	5.01
336.879	4.45
337.25	4.51
337.622	4.56
337.993	4.73
338.365	4.54
338.736	5.17
339.108	4.57
339.479	5.34
339.851	4.92
340.222	4.43
340.593	5.15
340.964	5.13
341.336	4.88
341.707	4.23
342.078	4.42
342.449	5.14
342.82	5.09
343.191	5
343.562	4.9
343.933	5.33
344.303	4.65
344.674	5.22
345.045	4.89
345.416	5.51
345.786	4.54
346.157	4.93
346.527	4.98
346.898	4.54
347.268	5.25
347.639	5.15
348.009	4.83
348.38	5.1
348.75	5.48
349.12	4.84
349.49	4.48
349.861	5.31
350.231	4.81
350.601	5.38
350.971	5.04
351.341	4.8
351.711	5.35
352.081	4.93
352.45	5.01
352.82	5.14
353.19	4.79
353.56	4.76
353.929	4.81
354.299	4.65
354.669	4.79
355.038	4.02
355.408	4.91
355.777	5.04
356.147	4.89
356.516	4.78
356.885	4.91
357.254	5.16
357.624	4.69
357.993	4.64
358.362	4.87
358.731	5.3
359.1	4.73
359.469	4.57
359.838	5.27
360.207	4.74
360.576	5.37
360.945	5.17
361.314	4.79
361.682	5.03
362.051	4.89
362.42	5.07
362.788	5.05
363.157	5.45
363.525	5.29
363.894	4.9
364.262	4.94
364.631	5.13
364.999	5.11
365.367	5.13
365.735	4.89
366.104	4.96
366.472	4.74
366.84	5.05
367.208	5.24
367.576	4.9
367.944	5.24
368.312	5.28
368.68	5.22
369.048	5.54
369.416	4.95
369.783	5.34
370.151	5.19
370.519	4.83
370.886	5.35
371.254	4.97
371.621	5.17
371.989	4.87
372.356	5.12
372.724	5.28
373.091	4.85
373.458	4.88
373.826	5.16
374.193	4.76
374.56	5.31
374.927	5.28
375.294	5.01
375.661	5.61
376.028	5.2
376.395	5.44
376.762	5.48
377.129	5.22
377.496	5
377.863	5.03
378.229	5.27
378.596	4.95
378.963	5.49
379.329	5.05
379.696	5.03
380.062	5.47
380.429	5.13
380.795	5.42
381.161	5.4
381.528	5.06
381.894	5.41
382.26	4.9
382.626	5.37
382.993	5.21
383.359	4.94
383.725	4.93
384.091	5.26
384.457	5.23
384.823	5.17
385.188	5.02
385.554	5.21
385.92	5.33
386.286	5.58
386.651	5.71
387.017	5.46
387.383	5.27
387.748	5.55
388.114	5.36
388.479	5.43
388.845	5.3
389.21	5.43
389.575	5.1
389.94	5.32
390.306	5.2
390.671	5.25
391.036	5.39
391.401	5.67
391.766	5.43
392.131	5.24
392.496	5.5
392.861	5.12
393.226	5.49
393.591	5.48
393.956	5.29
394.32	5.41
394.685	5.45
395.05	5.08
395.414	5.4
395.779	5.42
396.143	5.47
396.508	5.33
396.872	5.43
397.236	5.31
397.601	5.38
397.965	5.12
398.329	5.28
398.694	5.22
399.058	5.5
399.422	5.27
399.786	5.1
400.15	5.11
400.514	5.56
400.878	5.47
401.242	5.64
401.605	5.81
401.969	5.47
402.333	5.51
402.697	5.45
403.06	5.07
403.424	5.51
403.787	4.98
404.151	5.55
404.514	5.15
404.878	5.24
405.241	5.73
405.604	5.35
405.968	5.15
406.331	5.48
406.694	5.61
407.057	5.25
407.42	5.4
407.783	5.39
408.146	5.29
408.509	5.33
408.872	5.25
409.235	5.36
409.598	5.22
409.961	5.46
410.323	5.49
410.686	5.25
411.049	5.4
411.411	5.68
411.774	5.28
412.136	5.75
412.499	5.47
412.861	5.42
413.223	5.6
413.586	5.32
413.948	5.42
414.31	5.55
414.672	5.74
415.035	5.45
415.397	5.49
415.759	5.54
416.121	5.4
416.483	5.45
416.845	5.42
417.206	5.61
417.568	5.56
417.93	5.8
418.292	5.45
418.653	5.48
419.015	5.45
419.377	5.39
419.738	5.37
420.1	5.5
420.461	5.48
420.822	5.48
421.184	5.46
421.545	5.59
421.906	5.49
422.267	5.38
422.629	5.42
422.99	5.45
423.351	5.4
423.712	5.41
424.073	5.58
424.434	5.58
424.795	5.53
425.155	5.44
425.516	5.28
425.877	5.35
426.238	5.57
426.598	5.37
426.959	5.47
427.32	5.41
427.68	5.5
428.041	5.58
428.401	5.48
428.761	5.45
429.122	5.56
429.482	5.78
429.842	5.69
430.202	5.43
430.563	5.73
430.923	5.76
431.283	5.41
431.643	5.67
432.003	5.48
432.363	5.5
432.722	5.47
433.082	5.55
433.442	5.63
433.802	5.6
434.161	5.54
434.521	5.71
434.881	5.64
435.24	5.5
435.6	5.53
435.959	5.6
436.319	5.52
436.678	5.61
437.037	5.5
437.396	5.49
437.756	5.61
438.115	5.69
438.474	5.67
438.833	5.83
439.192	5.73
439.551	5.7
439.91	5.5
440.269	5.49
440.628	5.59
440.987	5.31
441.345	5.63
441.704	5.51
442.063	5.64
442.421	5.63
442.78	5.62
443.138	5.54
443.497	5.53
443.855	5.52
444.214	5.69
444.572	5.84
444.93	5.63
445.288	5.43
445.647	5.7
446.005	5.64
446.363	5.43
446.721	5.47
447.079	5.6
447.437	5.44
447.795	5.63
448.153	5.57
448.51	5.59
448.868	5.74
449.226	5.67
449.584	5.55
449.941	5.57
450.299	5.61
450.656	5.52
451.014	5.55
451.371	5.57
451.729	5.79
452.086	5.64
452.443	5.77
452.801	5.8
453.158	5.59
453.515	5.8
453.872	5.71
454.229	5.71
454.586	5.48
454.943	5.68
455.3	5.56
455.657	5.6
456.014	5.88
456.371	5.71
456.727	5.64
457.084	5.67
457.441	5.84
457.797	5.68
458.154	5.8
458.51	5.51
458.867	5.81
459.223	5.73
459.58	5.67
459.936	5.47
460.292	5.6
460.648	5.53
461.005	5.56
461.361	5.62
461.717	5.68
462.073	5.59
462.429	5.6
462.785	5.6
463.141	5.56
463.496	5.64
463.852	5.82
464.208	5.74
464.564	5.78
464.919	5.9
465.275	5.72
465.631	5.96
465.986	5.59
466.342	5.59
466.697	5.8
467.052	5.94
467.408	5.71
467.763	5.84
468.118	5.66
468.473	5.88
468.829	5.8
469.184	5.69
469.539	5.72
469.894	5.74
470.249	5.88
470.603	5.69
470.958	5.64
471.313	5.93
471.668	5.66
472.023	5.77
472.377	5.43
472.732	5.81
473.086	5.78
473.441	5.87
473.795	5.88
474.15	5.95
474.504	5.7
474.859	5.81
475.213	5.65
475.567	5.75
475.921	5.71
476.275	5.76
476.63	5.86
476.984	5.88
477.338	5.63
477.692	5.71
478.045	5.75
478.399	5.72
478.753	5.67
479.107	5.76
479.461	5.73
479.814	5.93
480.168	5.6
480.521	5.63
480.875	5.79
481.228	5.79
481.582	5.64
481.935	5.74
482.289	5.82
482.642	5.84
482.995	5.58
483.348	5.68
483.701	5.87
484.055	5.68
484.408	5.6
484.761	5.64
485.114	5.5
485.466	5.44
485.819	5.42
486.172	5.45
486.525	5.46
486.878	5.5
487.23	5.51
487.583	5.56
487.936	5.65
488.288	5.54
488.641	5.63
488.993	5.64
489.345	5.56
489.698	5.51
490.05	5.5
490.402	5.6
490.754	5.58
491.107	5.61
491.459	5.74
491.811	5.73
492.163	5.6
492.515	5.74
492.866	5.64
493.218	5.62
493.57	5.61
493.922	5.5
494.274	5.64
494.625	5.65
494.977	5.77
495.328	5.82
495.68	5.66
496.031	5.87
496.383	5.76
496.734	5.78
497.086	5.73
497.437	5.84
497.788	5.76
498.139	5.79
498.49	5.87
498.842	5.67
499.193	5.82
499.544	5.85
499.894	5.81
500.245	5.88
500.596	5.75
500.947	5.84
501.298	5.84
501.648	5.82
501.999	5.76
502.35	5.78
502.7	5.81
503.051	5.81
503.401	6.07
503.752	6.02
504.102	5.8
504.452	5.89
504.803	5.87
505.153	6.01
505.503	5.9
505.853	6.04
506.203	5.77
506.553	5.71
506.903	5.95
507.253	5.84
507.603	5.93
507.953	5.87
508.303	5.91
508.652	5.79
509.002	5.85
509.352	5.78
509.701	5.97
510.051	5.94
510.4	5.81
510.75	5.81
511.099	5.81
511.449	5.83
511.798	5.87
512.147	5.92
512.496	6
512.846	5.88
513.195	5.74
513.544	5.85
513.893	5.88
514.242	5.85
514.591	5.84
514.939	5.85
515.288	5.83
515.637	5.73
515.986	5.82
516.334	5.99
516.683	5.85
517.032	5.85
517.38	5.76
517.729	5.89
518.077	5.79
518.426	5.86
518.774	5.92
519.122	5.92
519.47	5.83
519.819	5.62
520.167	5.74
520.515	5.73
520.863	5.79
521.211	5.74
521.559	5.81
521.907	5.8
522.255	5.88
522.602	5.87
522.95	5.88
523.298	5.76
523.645	6.03
523.993	5.92
524.341	5.91
524.688	5.85
525.036	5.95
525.383	5.82
525.73	5.85
526.078	5.89
526.425	5.78
526.772	5.76
527.119	5.82
527.466	5.93
527.814	5.72
528.161	5.85
528.508	5.82
528.854	5.87
529.201	5.76
529.548	5.81
529.895	5.75
530.242	5.6
530.588	5.64
530.935	5.63
531.282	5.67
531.628	5.73
531.975	5.7
532.321	5.74
532.667	5.73
533.014	5.79
533.36	5.81
533.706	5.76
534.052	5.8
534.399	5.9
534.745	5.79
535.091	5.73
535.437	5.81
535.783	5.74
536.129	5.83
536.474	5.83
536.82	5.89
537.166	5.99
537.512	5.94
537.857	5.77
538.203	5.9
538.549	5.82
538.894	5.91
539.239	5.83
539.585	5.84
539.93	6.02
540.276	5.9
540.621	5.88
540.966	5.96
541.311	5.93
541.656	6
542.001	5.93
542.346	5.94
542.691	5.84
543.036	5.72
543.381	5.69
543.726	5.76
544.071	5.72
544.415	5.74
544.76	5.77
545.105	5.83
545.449	5.89
545.794	6
546.138	5.8
546.483	5.91
546.827	5.9
547.171	5.97
547.516	5.95
547.86	6.05
548.204	5.96
548.548	5.96
548.892	5.99
549.236	5.99
549.58	6
549.924	5.97
550.268	5.97
550.612	5.92
550.956	5.98
551.3	6.17
551.643	6.16
551.987	6.06
552.33	6.08
552.674	6.14
553.017	6.18
553.361	6.17
553.704	6.07
554.048	6.02
554.391	5.99
554.734	5.99
555.077	6.07
555.42	5.95
555.764	6.03
556.107	6.06
556.45	5.86
556.793	5.97
557.135	5.96
557.478	5.98
557.821	6.02
558.164	6
558.507	5.94
558.849	6.1
559.192	6.16
559.534	6.01
559.877	6.16
560.219	6.19
560.562	6.07
560.904	5.97
561.246	5.94
561.589	6.2
561.931	6.09
562.273	5.95
562.615	6.03
562.957	5.91
563.299	5.97
563.641	6.12
563.983	5.94
564.325	6.06
564.667	6
565.008	5.89
565.35	5.92
565.692	6.24
566.033	6.11
566.375	5.99
566.716	5.86
567.058	6.07
567.399	5.99
567.741	5.83
568.082	6.03
568.423	6.1
568.764	5.89
569.105	6.03
569.447	6.23
569.788	6.08
570.129	5.89
570.47	5.89
570.811	6.19
571.151	6.07
571.492	6.23
571.833	6.09
572.174	6.28
572.514	6.09
572.855	6.06
573.195	6.06
573.536	5.89
573.876	6.12
574.217	6.16
574.557	6.06
574.898	5.95
575.238	5.95
575.578	6.07
575.918	5.96
576.258	6.12
576.598	5.91
576.938	6.14
577.278	6.07
577.618	6.33
577.958	6.15
578.298	6.16
578.638	5.91
578.977	6.13
579.317	6.1
579.657	6.12
579.996	6.19
580.336	6.19
580.675	6.22
581.014	6.13
581.354	6.1
581.693	6.1
582.032	5.83
582.372	6.14
582.711	6.2
583.05	6.19
583.389	6.19
583.728	6.28
584.067	6.06
584.406	6.37
584.745	6.36
585.083	5.99
585.422	6.09
585.761	6.13
586.1	6.17
586.438	6.53
586.777	5.93
587.115	6
587.454	6.44
587.792	5.91
588.13	6.27
588.469	6.38
588.807	5.96
589.145	6.17
589.483	5.99
589.821	6.36
590.159	5.74
590.497	6.13
590.835	6.01
591.173	5.92
591.511	6.07
591.849	6.13
592.187	6.22
592.524	5.84
592.862	6.12
593.2	5.95
593.537	6.03
593.875	6.38
594.212	6.14
594.55	6.2
594.887	6.61
595.224	6.13
595.561	6.54
595.899	5.95
596.236	6.34
596.573	6.26
596.91	6.46
597.247	6.08
597.584	6.33
597.921	6.2
598.258	6.38
598.594	6.27
598.931	6.28
599.268	5.92
599.604	6
599.941	6.12
600.277	6.11
600.614	6.39
600.95	6.18
601.287	6.16
601.623	6.15
601.959	6.41
602.296	6.36
602.632	6.03
602.968	6.16
603.304	6.01
603.64	6.32
603.976	5.97
604.312	6.29
604.648	6.32
604.984	6.27
605.319	6.14
605.655	6.15
605.991	6.2
606.326	6.14
606.662	6.09
606.998	6.1
607.333	6.08
607.668	6.14
608.004	6.27
608.339	6.37
608.674	6.42
609.01	6.29
609.345	6.32
609.68	6.4
610.015	5.94
610.35	6.19
610.685	6
611.02	6.34
611.355	6.16
611.689	6.26
612.024	6.03
612.359	6.4
612.694	6.26
613.028	6.22
613.363	6.22
613.697	6.27
614.032	6.42
614.366	6.22
614.7	6.22
615.035	6.12
615.369	6.07
615.703	6.18
616.037	6.22
616.371	6.25
616.705	6.29
617.039	6.23
617.373	6.25
617.707	6.26
618.041	6.11
618.375	5.85
618.709	5.89
619.042	6.25
619.376	6.07
619.71	6.34
620.043	6.61
620.377	6.24
620.71	5.79
621.043	6.03
621.377	5.87
621.71	6.4
622.043	6.31
622.376	6.19
622.709	6.51
623.043	6.24
623.376	6.39
623.709	6.31
624.041	6.47
624.374	6.05
624.707	6.08
625.04	6.05
625.373	6.72
625.705	6.36
626.038	6.27
626.37	6.24
626.703	6.43
627.035	5.92
627.368	6.34
627.7	6.12
628.032	6.32
628.365	6.29
628.697	6.39
629.029	6.4
629.361	5.97
629.693	6.05
630.025	5.86
630.357	6.23
630.689	6.35
631.021	6.46
631.353	6.33
631.684	6.22
632.016	6.44
632.348	6.45
632.679	5.9
633.011	6.95
633.342	6.63
633.674	6.53
634.005	6.45
634.336	6.54
634.668	6.58
634.999	6.59
635.33	6.43
635.661	6.22
635.992	6.57
636.323	6.05
636.654	6.18
636.985	6.05
637.316	6.31
637.647	6.39
637.977	6.38
638.308	6.48
638.639	6.58
638.969	6.41
639.3	6.2
639.63	6.82
639.961	6.33
640.291	6.09
640.622	6.16
640.952	6.32
641.282	5.96
641.612	6.43
641.943	6.37
642.273	6.76
642.603	6.97
642.933	6.05
643.263	6.13
643.592	6.76
643.922	6.2
644.252	6.47
644.582	5.94
644.911	6.48
645.241	6.32
645.571	6.78
645.9	6.49
646.23	6.22
646.559	6.51
646.888	6.44
647.218	6.55
647.547	6.13
647.876	6.35
648.205	6.57
648.534	6.62
648.863	6.55
649.192	7.53
649.521	7.02
649.85	5.75
650.179	6.77
650.508	6.61
650.837	6.38
651.165	6.48
651.494	6.27
651.822	6.47
652.151	6.85
652.479	6.38
652.808	7.05
653.136	6.68
653.465	6.43
653.793	6.58
654.121	6.92
654.449	6.39
654.777	6.54
655.105	6.82
655.433	6.69
655.761	6.71
656.089	6.46
656.417	6.67
656.745	6.65
657.073	6.74
657.4	7.18
657.728	5.82
658.056	6.99
658.383	6.07
658.711	6.41
659.038	6.2
659.365	6.53
659.693	6.11
660.02	6.39
660.347	6.83
660.674	6.26
661.001	6.63
661.329	6.7
661.656	6.28
661.982	6.74
662.309	7.08
662.636	6.63
662.963	6.74
663.29	6.68
663.616	6.76
663.943	6.62
664.27	6.65
664.596	6.86
664.923	7.18
665.249	6.51
665.576	6.78
665.902	6.64
666.228	6.46
666.554	6.67
666.881	6.17
667.207	7.01
667.533	6.79
667.859	6.31
668.185	6.97
668.511	6.74
668.837	6.48
669.162	7.34
669.488	6.63
669.814	7.3
670.139	6.82
670.465	6.15
670.791	6.49
671.116	6.63
671.442	6.77
671.767	6.84
672.092	7.41
672.418	6.8
672.743	7.25
673.068	6.36
673.393	6.74
673.718	6.63
674.043	6.27
674.368	5.38
674.693	6.15
675.018	6
675.343	6.87
675.667	6.45
675.992	6.92
676.317	6.59
676.641	6.53
676.966	7.17
677.29	6.58
677.615	6.46
677.939	7.08
678.264	7.53
678.588	7.42
678.912	6.79
679.236	6.76
679.56	6.95
679.885	6.65
680.209	7.21
680.532	7.3
680.856	6.31
681.18	6.99
681.504	6.78
681.828	6.53
682.152	6.57
682.475	6.76
682.799	7.09
683.122	6.87
683.446	6.78
683.769	7.86
684.093	6.66
684.416	6.85
684.739	7.32
685.062	6.87
685.386	6.92
685.709	7.15
686.032	7.4
686.355	6.55
686.678	7.13
687.001	7.1
687.324	7.01
687.646	7.28
687.969	6.72
688.292	7.09
688.614	7.17
688.937	7.28
689.26	7.23
689.582	6.18
689.904	7.42
690.227	7.24
690.549	7.55
690.871	7.18
691.194	6.92
691.516	7.39
691.838	6.24
692.16	7.11
