Data from 433_forehead_Reflection__2__119.txt Node

Date: Tue Dec 12 19:23:36 CST 2023
User: ToomeyLab
Spectrometer: FLMS14357
Trigger mode: 0
Integration Time (sec): 1.000000E-2
Scans to average: 100
Electric dark correction enabled: true
Nonlinearity correction enabled: false
Boxcar width: 0
XAxis mode: Wavelengths
Number of Pixels in Spectrum: 2048
>>>>>Begin Spectral Data<<<<<
189.047	19.18
189.435	19.18
189.823	19.18
190.211	65.93
190.599	248.98
190.987	111.86
191.375	150.53
191.763	-598.84
192.151	-54.72
192.538	-100.14
192.926	167.44
193.314	30.81
193.702	59.21
194.089	16.4
194.477	407.89
194.864	108.38
195.252	106.99
195.639	172.22
196.027	128.4
196.414	-67.21
196.801	-7964.29
197.189	51.71
197.576	77.63
197.963	88.6
198.351	28.41
198.738	93.03
199.125	52.07
199.512	-36.43
199.899	7.09
200.286	46.46
200.673	-24.38
201.06	12.45
201.447	-89.14
201.833	7.64
202.22	-37
202.607	-23.94
202.994	52.57
203.38	18.59
203.767	-3.96
204.154	63.49
204.54	35.87
204.927	-13.25
205.313	87.21
205.699	15.36
206.086	-18.6
206.472	34.67
206.858	-1.09
207.245	-15.55
207.631	26.23
208.017	12.49
208.403	-4.76
208.789	64.7
209.175	-29.41
209.561	22.13
209.947	-19.64
210.333	15.12
210.719	27.96
211.105	-15.95
211.491	58.08
211.876	17.31
212.262	11.28
212.648	-48.28
213.034	-0.47
213.419	-2.34
213.805	10.9
214.19	8.99
214.576	44.14
214.961	-26.89
215.346	14.98
215.732	16.25
216.117	14.12
216.502	31.59
216.888	17.15
217.273	-7.7
217.658	0.04
218.043	-24.54
218.428	23.31
218.813	2.26
219.198	-21.61
219.583	15.91
219.968	20.25
220.353	34.15
220.738	31.51
221.122	1.39
221.507	-1.05
221.892	-21.19
222.276	33.91
222.661	7.57
223.046	-12.68
223.43	7.2
223.815	9.97
224.199	9.94
224.583	4.12
224.968	9.53
225.352	-2.88
225.736	18.75
226.121	-1.68
226.505	4.88
226.889	3.14
227.273	1.07
227.657	9.1
228.041	2.64
228.425	6.27
228.809	6.65
229.193	3.53
229.577	6.45
229.961	3.01
230.344	5.13
230.728	5.44
231.112	5.3
231.495	4.75
231.879	5.92
232.263	4.41
232.646	5.3
233.03	4.33
233.413	3.95
233.797	3.4
234.18	3.53
234.563	2.58
234.946	5.53
235.33	3.8
235.713	4.44
236.096	3.5
236.479	4.45
236.862	5.22
237.245	3.88
237.628	4.21
238.011	3.88
238.394	5.3
238.777	6.19
239.16	5.07
239.543	4.5
239.925	5.62
240.308	5.26
240.691	4.78
241.073	5.29
241.456	3.87
241.838	4.4
242.221	5.03
242.603	4.79
242.986	3.62
243.368	5.05
243.75	4.94
244.133	4.29
244.515	4.98
244.897	4.61
245.279	4.99
245.661	4.27
246.043	3.11
246.425	5.14
246.807	4.27
247.189	3.93
247.571	4.86
247.953	4.32
248.335	4.55
248.717	4.35
249.098	4.43
249.48	4.55
249.862	4.01
250.243	4.46
250.625	5.26
251.006	5.04
251.388	4.62
251.769	5.47
252.151	3.25
252.532	4.35
252.913	5.69
253.295	5.24
253.676	4.17
254.057	4.39
254.438	4.8
254.819	4.6
255.2	4.05
255.581	5.72
255.962	3.59
256.343	4.92
256.724	4.6
257.105	4.49
257.486	4.05
257.867	3.32
258.247	4.12
258.628	3.91
259.009	4.14
259.389	5.41
259.77	4.67
260.15	4.62
260.531	5.31
260.911	5.6
261.292	4.39
261.672	4.36
262.052	4.32
262.432	4.72
262.813	4.83
263.193	4.7
263.573	4.44
263.953	5.46
264.333	6.02
264.713	4.43
265.093	4.69
265.473	4.64
265.853	3.62
266.233	3.69
266.612	4.18
266.992	4.62
267.372	5.67
267.752	5.2
268.131	4.19
268.511	4.27
268.89	3.68
269.27	3.81
269.649	4.75
270.029	4.6
270.408	4.48
270.787	4.2
271.167	4.91
271.546	4.79
271.925	5.67
272.304	5.16
272.683	3.84
273.062	4.83
273.441	4.6
273.82	4.11
274.199	4.94
274.578	4.66
274.957	4.14
275.336	4.34
275.715	4.54
276.093	4.19
276.472	4.21
276.851	5.13
277.229	3.77
277.608	4.54
277.986	4.07
278.365	4.31
278.743	4.16
279.122	5.4
279.5	4.12
279.878	3.96
280.257	3.87
280.635	4.26
281.013	4.02
281.391	4.35
281.769	4.15
282.147	4.62
282.525	4.27
282.903	4.38
283.281	3.79
283.659	4.73
284.037	4.68
284.415	4.62
284.792	4.53
285.17	4.6
285.548	4.9
285.925	4
286.303	4.34
286.68	4.8
287.058	4.64
287.435	4.34
287.813	4.29
288.19	4.66
288.567	4.67
288.945	4.96
289.322	3.69
289.699	4.52
290.076	4.68
290.453	5.01
290.83	4.32
291.207	5.19
291.584	4.95
291.961	4.64
292.338	4.93
292.715	4.88
293.092	4.59
293.469	4.99
293.845	4.61
294.222	4.98
294.599	5.23
294.975	4.63
295.352	4.98
295.728	5.22
296.105	5.06
296.481	5.71
296.858	5.07
297.234	5.23
297.61	4.97
297.986	5.19
298.363	5.6
298.739	5.39
299.115	4.89
299.491	5.52
299.867	5.44
300.243	5.2
300.619	5.84
300.995	5.63
301.371	5.88
301.746	5.91
302.122	6.52
302.498	5.82
302.874	5.57
303.249	6.3
303.625	5.41
304	6.28
304.376	5.95
304.751	6.54
305.127	5.93
305.502	6.19
305.878	6.08
306.253	6.58
306.628	6.46
307.003	6.4
307.378	6.39
307.754	6.46
308.129	5.97
308.504	7.17
308.879	6.51
309.254	7.28
309.629	6.62
310.003	6.7
310.378	6.9
310.753	7.26
311.128	7.36
311.502	6.56
311.877	6.97
312.252	7.06
312.626	7.04
313.001	7.15
313.375	7.25
313.75	7.85
314.124	7.79
314.498	7.83
314.873	7.01
315.247	7.76
315.621	7.43
315.995	7.95
316.369	7.89
316.743	7.52
317.117	7.64
317.491	7.89
317.865	8.24
318.239	8.47
318.613	8.6
318.987	8.33
319.361	7.38
319.734	8.47
320.108	8.65
320.482	8.12
320.855	8.05
321.229	8.53
321.602	8.98
321.976	8.11
322.349	9.35
322.723	9.03
323.096	8.94
323.469	9.54
323.843	9.45
324.216	8.76
324.589	9.27
324.962	9.24
325.335	9.73
325.708	9.31
326.081	9.27
326.454	9.15
326.827	9.99
327.2	9.59
327.573	9
327.945	9.7
328.318	9.89
328.691	8.47
329.063	9.93
329.436	9.49
329.809	9.54
330.181	9.15
330.553	9.8
330.926	9.65
331.298	9.53
331.671	9.77
332.043	9.89
332.415	10.39
332.787	9.95
333.159	9.72
333.532	9.57
333.904	10.68
334.276	11.23
334.648	10.52
335.02	10.25
335.391	10.28
335.763	10.77
336.135	10.81
336.507	11.13
336.879	10.14
337.25	10.14
337.622	10.5
337.993	10.68
338.365	10.23
338.736	10.62
339.108	10.93
339.479	11.15
339.851	10.7
340.222	10.43
340.593	10.9
340.964	11.21
341.336	11.45
341.707	11.16
342.078	11.06
342.449	11.14
342.82	11.16
343.191	11.54
343.562	11.56
343.933	11.64
344.303	11.65
344.674	11.69
345.045	11.95
345.416	11.84
345.786	11.71
346.157	11.76
346.527	11.87
346.898	11.79
347.268	11.87
347.639	12.24
348.009	11.95
348.38	13.03
348.75	12.52
349.12	12.49
349.49	11.84
349.861	12.64
350.231	12.63
350.601	12.7
350.971	12.05
351.341	12.44
351.711	12.72
352.081	12.54
352.45	12.33
352.82	13
353.19	12.89
353.56	12.58
353.929	12.52
354.299	12.91
354.669	12.58
355.038	12.82
355.408	12.77
355.777	13.81
356.147	13.36
356.516	13.71
356.885	13.27
357.254	13.72
357.624	12.8
357.993	13.56
358.362	13.23
358.731	13.66
359.1	12.87
359.469	13.48
359.838	13.56
360.207	13.81
360.576	13.91
360.945	13.85
361.314	14.07
361.682	13.95
362.051	14.37
362.42	14.13
362.788	14.35
363.157	14.45
363.525	14.32
363.894	13.93
364.262	14.17
364.631	13.88
364.999	14.31
365.367	14.45
365.735	14.38
366.104	14.43
366.472	13.89
366.84	14.62
367.208	14.5
367.576	14.73
367.944	14.97
368.312	14.94
368.68	14.81
369.048	15.25
369.416	14.85
369.783	14.68
370.151	15.25
370.519	15.1
370.886	15.03
371.254	15.14
371.621	15.34
371.989	15.41
372.356	15.12
372.724	15.35
373.091	15.42
373.458	15.46
373.826	15.64
374.193	15.58
374.56	15.78
374.927	15.82
375.294	15.92
375.661	16.29
376.028	16.03
376.395	16.42
376.762	16.23
377.129	16.18
377.496	16.08
377.863	16.28
378.229	16.2
378.596	16.43
378.963	16.58
379.329	16.56
379.696	16.34
380.062	16.94
380.429	16.39
380.795	16.83
381.161	16.92
381.528	16.82
381.894	17.02
382.26	17.07
382.626	17.1
382.993	17.04
383.359	17.05
383.725	17.32
384.091	17.2
384.457	16.93
384.823	17.25
385.188	17.42
385.554	17.68
385.92	17.49
386.286	17.51
386.651	17.71
387.017	17.94
387.383	17.74
387.748	17.8
388.114	17.78
388.479	17.7
388.845	17.95
389.21	17.84
389.575	18.04
389.94	18.28
390.306	18.35
390.671	18.13
391.036	17.97
391.401	18.44
391.766	18.58
392.131	18.67
392.496	18.29
392.861	18.28
393.226	18.5
393.591	18.52
393.956	18.67
394.32	18.81
394.685	18.67
395.05	18.29
395.414	18.55
395.779	18.77
396.143	18.9
396.508	18.65
396.872	18.94
397.236	19.33
397.601	19
397.965	19.12
398.329	18.99
398.694	19.32
399.058	19.76
399.422	19.2
399.786	19.37
400.15	19.46
400.514	19.77
400.878	19.77
401.242	19.69
401.605	20.12
401.969	19.75
402.333	19.97
402.697	19.66
403.06	19.76
403.424	20.03
403.787	19.99
404.151	20.14
404.514	19.9
404.878	20.14
405.241	20
405.604	20.05
405.968	20.24
406.331	20.34
406.694	20.54
407.057	20.4
407.42	20.35
407.783	20.32
408.146	20.4
408.509	20.69
408.872	20.66
409.235	20.62
409.598	20.63
409.961	20.69
410.323	20.92
410.686	20.91
411.049	21.06
411.411	21.33
411.774	21.2
412.136	21.02
412.499	21.11
412.861	21.22
413.223	21.42
413.586	21.25
413.948	21.36
414.31	21.45
414.672	21.66
415.035	21.4
415.397	21.36
415.759	21.52
416.121	21.65
416.483	21.73
416.845	21.78
417.206	21.63
417.568	21.85
417.93	21.86
418.292	21.71
418.653	21.78
419.015	21.73
419.377	21.97
419.738	21.86
420.1	21.91
420.461	22.02
420.822	21.86
421.184	22.01
421.545	21.88
421.906	21.88
422.267	22.01
422.629	21.94
422.99	21.92
423.351	22.09
423.712	22.05
424.073	22.2
424.434	22.32
424.795	22.43
425.155	22.33
425.516	22.46
425.877	22.28
426.238	22.37
426.598	22.45
426.959	22.51
427.32	22.74
427.68	22.83
428.041	22.84
428.401	22.86
428.761	23.21
429.122	23.35
429.482	23.4
429.842	23.53
430.202	23.36
430.563	23.59
430.923	23.47
431.283	23.52
431.643	23.78
432.003	23.49
432.363	23.81
432.722	23.65
433.082	23.89
433.442	23.92
433.802	23.9
434.161	23.75
434.521	23.94
434.881	24
435.24	23.94
435.6	24.05
435.959	24.23
436.319	24.16
436.678	24.12
437.037	24.25
437.396	24.34
437.756	24.34
438.115	24.57
438.474	24.61
438.833	24.67
439.192	24.61
439.551	24.7
439.91	24.48
440.269	24.7
440.628	24.61
440.987	24.5
441.345	24.96
441.704	24.68
442.063	24.84
442.421	24.77
442.78	24.69
443.138	24.81
443.497	24.87
443.855	25.06
444.214	25.26
444.572	25.51
444.93	25.27
445.288	25.16
445.647	25.34
446.005	25.58
446.363	25.09
446.721	25.34
447.079	25.3
447.437	25.2
447.795	25.28
448.153	25.48
448.51	25.45
448.868	25.43
449.226	25.61
449.584	25.69
449.941	25.73
450.299	25.94
450.656	25.96
451.014	25.97
451.371	26
451.729	26.28
452.086	26.27
452.443	26.39
452.801	26.46
453.158	26.32
453.515	26.74
453.872	26.53
454.229	26.39
454.586	26.55
454.943	26.45
455.3	26.71
455.657	26.94
456.014	27.04
456.371	27.03
456.727	26.83
457.084	27.01
457.441	27.06
457.797	26.91
458.154	27.12
458.51	27.07
458.867	27.47
459.223	27.24
459.58	27.43
459.936	27.18
460.292	27.48
460.648	27.31
461.005	27.17
461.361	27.22
461.717	27.15
462.073	27.25
462.429	27.31
462.785	27.31
463.141	27.65
463.496	27.55
463.852	27.96
464.208	27.97
464.564	27.87
464.919	28.23
465.275	28.14
465.631	28.54
465.986	28.23
466.342	28.45
466.697	28.52
467.052	28.32
467.408	28.51
467.763	28.5
468.118	28.93
468.473	28.58
468.829	28.59
469.184	28.79
469.539	28.97
469.894	28.93
470.249	28.93
470.603	29.05
470.958	29
471.313	29.29
471.668	29.3
472.023	29.05
472.377	29.43
472.732	29.26
473.086	29.46
473.441	29.51
473.795	29.46
474.15	29.58
474.504	29.42
474.859	29.62
475.213	29.61
475.567	29.59
475.921	29.65
476.275	29.94
476.63	29.9
476.984	30.01
477.338	29.85
477.692	30.08
478.045	30.16
478.399	30.24
478.753	30.01
479.107	30.11
479.461	30.07
479.814	30.02
480.168	30.16
480.521	30.05
480.875	30.32
481.228	30.34
481.582	30.36
481.935	30.32
482.289	30.66
482.642	30.48
482.995	30.35
483.348	30.44
483.701	30.4
484.055	30.17
484.408	30.09
484.761	29.97
485.114	29.67
485.466	29.31
485.819	29.45
486.172	29.45
486.525	29.39
486.878	29.59
487.23	29.84
487.583	30.12
487.936	30.32
488.288	30.28
488.641	30.46
488.993	30.12
489.345	30.13
489.698	30.1
490.05	30
490.402	30.31
490.754	30.5
491.107	30.64
491.459	31
491.811	31.02
492.163	31.37
492.515	31.23
492.866	31.04
493.218	30.86
493.57	30.83
493.922	30.82
494.274	31.04
494.625	31.23
494.977	31.51
495.328	31.73
495.68	31.78
496.031	32.21
496.383	32.43
496.734	32.44
497.086	32.39
497.437	32.42
497.788	32.58
498.139	32.45
498.49	32.52
498.842	32.45
499.193	32.47
499.544	32.71
499.894	32.51
500.245	32.71
500.596	32.8
500.947	32.81
501.298	32.8
501.648	33.02
501.999	33.05
502.35	33.38
502.7	33.21
503.051	33.14
503.401	33.44
503.752	33.58
504.102	33.56
504.452	33.6
504.803	33.59
505.153	33.59
505.503	33.62
505.853	33.98
506.203	33.72
506.553	33.64
506.903	33.97
507.253	33.78
507.603	33.96
507.953	33.97
508.303	34.06
508.652	34.2
509.002	34.25
509.352	34.22
509.701	34.2
510.051	34.03
510.4	34.18
510.75	34.02
511.099	34.17
511.449	34.12
511.798	34.18
512.147	34.3
512.496	34.56
512.846	34.48
513.195	34.34
513.544	34.51
513.893	34.51
514.242	34.59
514.591	34.68
514.939	34.75
515.288	34.79
515.637	34.72
515.986	34.95
516.334	35.04
516.683	35.08
517.032	35.19
517.38	35.28
517.729	35.33
518.077	35.31
518.426	35.56
518.774	35.58
519.122	35.42
519.47	35.21
519.819	35.09
520.167	34.98
520.515	34.97
520.863	35.09
521.211	34.98
521.559	35.19
521.907	35.26
522.255	35.63
522.602	35.69
522.95	35.8
523.298	35.92
523.645	36.08
523.993	36.18
524.341	36.26
524.688	35.97
525.036	36.39
525.383	36.38
525.73	36.2
526.078	36.31
526.425	36.31
526.772	36.01
527.119	36.12
527.466	35.93
527.814	35.93
528.161	35.87
528.508	35.95
528.854	36.09
529.201	35.99
529.548	35.9
529.895	35.82
530.242	35.4
530.588	35.46
530.935	35.62
531.282	35.53
531.628	35.88
531.975	35.85
532.321	36.01
532.667	36.39
533.014	36.59
533.36	36.79
533.706	36.78
534.052	36.83
534.399	36.73
534.745	36.65
535.091	36.38
535.437	36.42
535.783	36.54
536.129	36.8
536.474	37.06
536.82	37.1
537.166	37.31
537.512	37.46
537.857	37.52
538.203	37.3
538.549	37.4
538.894	37.35
539.239	37.36
539.585	37.52
539.93	37.74
540.276	37.93
540.621	38.03
540.966	38.22
541.311	38.38
541.656	38.27
542.001	38.36
542.346	38.06
542.691	37.71
543.036	37.49
543.381	37.34
543.726	37.56
544.071	37.54
544.415	37.73
544.76	37.83
545.105	38.09
545.449	38.19
545.794	38.36
546.138	38.44
546.483	38.66
546.827	38.7
547.171	38.93
547.516	38.9
547.86	39
548.204	39.01
548.548	39.15
548.892	39.09
549.236	39.05
549.58	39.19
549.924	39.3
550.268	39.47
550.612	39.39
550.956	39.6
551.3	39.97
551.643	40.09
551.987	39.98
552.33	40.11
552.674	40.25
553.017	40.35
553.361	40.59
553.704	40.32
554.048	40.27
554.391	40.2
554.734	40.16
555.077	40.26
555.42	40.22
555.764	40.17
556.107	40.46
556.45	40.5
556.793	40.77
557.135	40.75
557.478	41.15
557.821	41
558.164	41.02
558.507	41
558.849	41.09
559.192	41.04
559.534	41.26
559.877	41.27
560.219	41.27
560.562	41.37
560.904	41.54
561.246	41.54
561.589	41.67
561.931	41.86
562.273	41.4
562.615	41.61
562.957	41.73
563.299	41.74
563.641	41.66
563.983	41.47
564.325	41.77
564.667	41.99
565.008	41.95
565.35	42.17
565.692	42.14
566.033	42.2
566.375	42.1
566.716	41.7
567.058	42.09
567.399	42.1
567.741	42.17
568.082	41.72
568.423	41.67
568.764	42.17
569.105	42.19
569.447	42.3
569.788	42.37
570.129	42.45
570.47	42.58
570.811	42.41
571.151	42.73
571.492	42.67
571.833	42.66
572.174	42.56
572.514	42.77
572.855	42.92
573.195	43.01
573.536	42.45
573.876	42.82
574.217	42.96
574.557	42.77
574.898	42.8
575.238	42.9
575.578	42.97
575.918	43.14
576.258	43.17
576.598	43.1
576.938	43.3
577.278	42.96
577.618	43.48
577.958	43.33
578.298	43.25
578.638	43.75
578.977	43.36
579.317	43.66
579.657	43.83
579.996	44.05
580.336	43.9
580.675	43.99
581.014	43.89
581.354	44.16
581.693	44.42
582.032	44.49
582.372	44.42
582.711	44.25
583.05	44.98
583.389	44.7
583.728	44.94
584.067	44.84
584.406	45.08
584.745	45.14
585.083	44.76
585.422	44.78
585.761	45.16
586.1	44.46
586.438	45.09
586.777	44.5
587.115	45.13
587.454	44.8
587.792	44.98
588.13	45.59
588.469	45.45
588.807	45.11
589.145	45.13
589.483	45.48
589.821	45.22
590.159	45
590.497	45.15
590.835	45.55
591.173	45.43
591.511	45.34
591.849	45.17
592.187	45.54
592.524	45.52
592.862	45.63
593.2	45.66
593.537	45.82
593.875	46.12
594.212	45.77
594.55	45.83
594.887	46.41
595.224	45.86
595.561	46.05
595.899	46.15
596.236	46.24
596.573	46.02
596.91	46.38
597.247	46.04
597.584	46.45
597.921	46.62
598.258	46.04
598.594	46.04
598.931	46.09
599.268	45.97
599.604	46.3
599.941	45.97
600.277	46.3
600.614	46.51
600.95	46.8
601.287	46.53
601.623	46.89
601.959	46.89
602.296	47.03
602.632	47.13
602.968	47.46
603.304	47.09
603.64	47.22
603.976	46.92
604.312	47.03
604.648	47.32
604.984	47.36
605.319	47.04
605.655	47.2
605.991	46.99
606.326	46.72
606.662	46.87
606.998	46.9
607.333	47.04
607.668	46.96
608.004	47.21
608.339	47.24
608.674	47.67
609.01	47.41
609.345	47.65
609.68	47.93
610.015	47.54
610.35	47.98
610.685	47.89
611.02	48.02
611.355	48.04
611.689	47.86
612.024	47.65
612.359	47.86
612.694	48.39
613.028	47.68
613.363	48.09
613.697	48.24
614.032	48.53
614.366	48.58
614.7	48.08
615.035	48.86
615.369	48.32
615.703	48.84
616.037	48.59
616.371	48.91
616.705	48.51
617.039	49.03
617.373	49.04
617.707	48.64
618.041	49.06
618.375	49.05
618.709	49.12
619.042	49.06
619.376	49.1
619.71	49.22
620.043	49.05
620.377	48.79
620.71	48.78
621.043	49.05
621.377	48.93
621.71	49.32
622.043	49.44
622.376	49.53
622.709	49.56
623.043	49.97
623.376	49.59
623.709	50.11
624.041	50.05
624.374	49.6
624.707	49.5
625.04	49.46
625.373	50.32
625.705	49.72
626.038	49.58
626.37	49.59
626.703	50.15
627.035	50.54
627.368	50.47
627.7	49.96
628.032	49.85
628.365	50.46
628.697	50.11
629.029	49.74
629.361	50.18
629.693	49.92
630.025	50.1
630.357	49.97
630.689	50.24
631.021	50.89
631.353	50.7
631.684	50.7
632.016	50.71
632.348	50.84
632.679	50.37
633.011	51.25
633.342	50.67
633.674	50.91
634.005	51.07
634.336	50.96
634.668	50.55
634.999	50.9
635.33	50.85
635.661	51.15
635.992	51.15
636.323	50.85
636.654	51.21
636.985	51.46
637.316	51.35
637.647	51.13
637.977	50.88
638.308	51.58
638.639	51.27
638.969	51.47
639.3	50.97
639.63	51.97
639.961	51.51
640.291	50.69
640.622	51.4
640.952	52.01
641.282	51.53
641.612	51.63
641.943	51.78
642.273	51.81
642.603	51.15
642.933	51.97
643.263	51.82
643.592	51.86
643.922	52.23
644.252	51.71
644.582	51.98
644.911	51.9
645.241	52.19
645.571	52.72
645.9	51.77
646.23	52.25
646.559	52.12
646.888	52.77
647.218	52.13
647.547	52.31
647.876	52.47
648.205	52.85
648.534	52.3
648.863	52.73
649.192	52.94
649.521	53.07
649.85	52.6
650.179	52.74
650.508	52.55
650.837	52.9
651.165	52.68
651.494	52.65
651.822	53.41
652.151	52.69
652.479	52.94
652.808	53.22
653.136	53.1
653.465	53.43
653.793	52.65
654.121	52.63
654.449	52.65
654.777	52.95
655.105	53.03
655.433	53.46
655.761	53.28
656.089	53.58
656.417	53.43
656.745	53.34
657.073	53.51
657.4	53.48
657.728	53.51
658.056	53.61
658.383	53.03
658.711	53.22
659.038	53.32
659.365	53.46
659.693	54.02
660.02	54.11
660.347	53.78
660.674	54.09
661.001	54.12
661.329	53.86
661.656	53.88
661.982	53.82
662.309	54.38
662.636	54.24
662.963	54.37
663.29	54.01
663.616	54.15
663.943	54.15
664.27	54.36
664.596	54.35
664.923	54.34
665.249	54.25
665.576	54.29
665.902	55.37
666.228	54.32
666.554	54.66
666.881	54.79
667.207	54.4
667.533	54
667.859	53.81
668.185	54.7
668.511	54.89
668.837	54.83
669.162	55.06
669.488	54.27
669.814	55.13
670.139	54.9
670.465	53.83
