Data from 433_chest_Reflection__4__111.txt Node

Date: Tue Dec 12 19:21:02 CST 2023
User: ToomeyLab
Spectrometer: FLMS14357
Trigger mode: 0
Integration Time (sec): 1.000000E-2
Scans to average: 100
Electric dark correction enabled: true
Nonlinearity correction enabled: false
Boxcar width: 0
XAxis mode: Wavelengths
Number of Pixels in Spectrum: 2048
>>>>>Begin Spectral Data<<<<<
189.047	248.48
189.435	248.48
189.823	248.48
190.211	233.52
190.599	293.34
190.987	32.66
191.375	-26.52
191.763	-260.76
192.151	63.43
192.538	-52.76
192.926	336.35
193.314	931.19
193.702	10
194.089	90.97
194.477	491.01
194.864	12.1
195.252	-253.95
195.639	234.72
196.027	33.83
196.414	70.29
196.801	-7973.21
197.189	-37.13
197.576	59.2
197.963	71.3
198.351	48.03
198.738	61.6
199.125	33.35
199.512	-58.85
199.899	30.23
200.286	26.66
200.673	40.98
201.06	-16.22
201.447	-126.75
201.833	-45.57
202.22	-13.81
202.607	-75.05
202.994	12.25
203.38	3.63
203.767	93.79
204.154	30.5
204.54	54.5
204.927	-48.42
205.313	83.71
205.699	-25.12
206.086	-27.65
206.472	28.61
206.858	11.04
207.245	-57.97
207.631	12.24
208.017	51.33
208.403	-6.97
208.789	24.6
209.175	-6.6
209.561	14.29
209.947	-78.96
210.333	63.18
210.719	13.89
211.105	-65.97
211.491	9.92
211.876	9.53
212.262	10.04
212.648	-82.98
213.034	-75.07
213.419	44.65
213.805	10.02
214.19	26.55
214.576	-6.72
214.961	24.56
215.346	-17.23
215.732	22.43
216.117	-11.31
216.502	-16.36
216.888	-35.11
217.273	-40.64
217.658	-5.56
218.043	-7.28
218.428	-21.02
218.813	12.79
219.198	-10.35
219.583	11.86
219.968	19.23
220.353	17.86
220.738	18.71
221.122	9.55
221.507	-0.9
221.892	-13.27
222.276	24.18
222.661	-0.51
223.046	-7.67
223.43	10.33
223.815	15.16
224.199	15.05
224.583	-0.04
224.968	18.76
225.352	-13.38
225.736	12.3
226.121	-3.08
226.505	-2.32
226.889	-9.51
227.273	2.52
227.657	4.7
228.041	5.11
228.425	3.72
228.809	4.32
229.193	2.79
229.577	5.41
229.961	1.44
230.344	4.74
230.728	5.39
231.112	4.47
231.495	5.17
231.879	5.42
232.263	3.11
232.646	3.99
233.03	5.02
233.413	4.92
233.797	4.26
234.18	1.07
234.563	3.79
234.946	5.51
235.33	4.91
235.713	4.11
236.096	3.37
236.479	4.14
236.862	3.48
237.245	5.2
237.628	4.29
238.011	5.71
238.394	4.14
238.777	4.28
239.16	2.72
239.543	3.55
239.925	5.27
240.308	4.46
240.691	3.09
241.073	5.3
241.456	6.05
241.838	3.7
242.221	5.19
242.603	4.53
242.986	3.04
243.368	4.65
243.75	3.55
244.133	3.86
244.515	4.57
244.897	4.42
245.279	4.87
245.661	3.58
246.043	3.79
246.425	4.59
246.807	3.31
247.189	4.8
247.571	4.93
247.953	3.88
248.335	3.92
248.717	3.98
249.098	4.33
249.48	3.85
249.862	3.94
250.243	3.54
250.625	4.3
251.006	3.99
251.388	3.52
251.769	4.05
252.151	3.16
252.532	3.57
252.913	4.61
253.295	4.21
253.676	3.59
254.057	3.81
254.438	4.29
254.819	3.29
255.2	4.29
255.581	4.64
255.962	3.58
256.343	2.53
256.724	3.43
257.105	3.37
257.486	3.38
257.867	2.42
258.247	3.4
258.628	3.78
259.009	2.07
259.389	4.3
259.77	3.2
260.15	3.22
260.531	4.24
260.911	4.42
261.292	3.88
261.672	3.66
262.052	3.68
262.432	3.93
262.813	4.11
263.193	3.45
263.573	4.11
263.953	4.8
264.333	4.45
264.713	4.57
265.093	3.15
265.473	4.38
265.853	3.7
266.233	2.79
266.612	3.36
266.992	2.93
267.372	4.19
267.752	5.05
268.131	2.88
268.511	3.31
268.89	2.32
269.27	3.37
269.649	3.68
270.029	2.88
270.408	3.74
270.787	2.73
271.167	3.18
271.546	3.71
271.925	4.41
272.304	3.56
272.683	2.85
273.062	3.38
273.441	4.66
273.82	3.05
274.199	3.91
274.578	3.57
274.957	3.57
275.336	3.7
275.715	3.68
276.093	2.6
276.472	3.6
276.851	4.09
277.229	2.87
277.608	3.29
277.986	2.9
278.365	3.85
278.743	3.66
279.122	3.6
279.5	2.56
279.878	2.79
280.257	3.15
280.635	3.19
281.013	2.67
281.391	3.47
281.769	3.6
282.147	3.77
282.525	2.73
282.903	3.22
283.281	3.05
283.659	3.24
284.037	3.27
284.415	3.15
284.792	3.09
285.17	2.94
285.548	3.06
285.925	3.55
286.303	2.72
286.68	3.36
287.058	3.4
287.435	3.33
287.813	3.05
288.19	3.18
288.567	3.31
288.945	3.76
289.322	2.56
289.699	3.27
290.076	3.45
290.453	3.3
290.83	2.96
291.207	3.67
291.584	3.52
291.961	3.39
292.338	3.73
292.715	3.07
293.092	3.35
293.469	3.37
293.845	3.53
294.222	2.76
294.599	3.17
294.975	3.2
295.352	3.63
295.728	3.75
296.105	3.26
296.481	3.37
296.858	3.18
297.234	3.49
297.61	3.67
297.986	3.65
298.363	3.66
298.739	3.23
299.115	3.21
299.491	3.71
299.867	3.33
300.243	3.55
300.619	3.46
300.995	4.15
301.371	3.43
301.746	2.46
302.122	3.94
302.498	3.93
302.874	3.7
303.249	3.55
303.625	3.01
304	3.65
304.376	3.72
304.751	3.66
305.127	3.46
305.502	3.62
305.878	3.14
306.253	3.82
306.628	3.62
307.003	3.76
307.378	2.78
307.754	3.86
308.129	3.69
308.504	4.15
308.879	2.86
309.254	3.88
309.629	3.69
310.003	3.67
310.378	3.68
310.753	3.99
311.128	4.07
311.502	3.18
311.877	3.18
312.252	2.95
312.626	3.17
313.001	3.36
313.375	3.43
313.75	4.08
314.124	3.74
314.498	3.43
314.873	3.67
315.247	3.57
315.621	3.88
315.995	3.7
316.369	3.75
316.743	3.19
317.117	3.25
317.491	3.59
317.865	3.5
318.239	3.45
318.613	3.45
318.987	3.48
319.361	3.3
319.734	3.04
320.108	3.93
320.482	3.34
320.855	2.91
321.229	3.67
321.602	3.84
321.976	3.48
322.349	3.82
322.723	3.51
323.096	3.46
323.469	3.58
323.843	4.55
324.216	4.05
324.589	3.36
324.962	3.84
325.335	3.55
325.708	4.17
326.081	4.05
326.454	3.8
326.827	4.22
327.2	3.68
327.573	2.86
327.945	3.84
328.318	4.11
328.691	2.67
329.063	4.02
329.436	3.6
329.809	3.29
330.181	3.63
330.553	3.06
330.926	3.36
331.298	3.07
331.671	3.47
332.043	3.5
332.415	3.53
332.787	3.08
333.159	4.1
333.532	3.74
333.904	3.84
334.276	4.22
334.648	3.03
335.02	3.41
335.391	3.26
335.763	3.34
336.135	3.7
336.507	3.83
336.879	3.44
337.25	3.23
337.622	3.49
337.993	3.93
338.365	3.26
338.736	3.68
339.108	3.35
339.479	4.05
339.851	3.45
340.222	2.85
340.593	3.68
340.964	3.5
341.336	4.1
341.707	3.28
342.078	3.07
342.449	3.63
342.82	3.63
343.191	3.7
343.562	4.12
343.933	4.01
344.303	4.01
344.674	3.77
345.045	4.15
345.416	3.66
345.786	3.35
346.157	3.53
346.527	4.02
346.898	3.45
347.268	3.41
347.639	3.8
348.009	3.57
348.38	3.55
348.75	4.12
349.12	3.61
349.49	3.71
349.861	4.02
350.231	3.57
350.601	4.08
350.971	3.92
351.341	3.75
351.711	3.89
352.081	3.82
352.45	3.64
352.82	3.7
353.19	3.58
353.56	3.34
353.929	3.29
354.299	3.29
354.669	3.59
355.038	3.35
355.408	3.36
355.777	4.2
356.147	3.43
356.516	4.24
356.885	3.62
357.254	3.41
357.624	3.46
357.993	3.78
358.362	3.86
358.731	3.76
359.1	3.6
359.469	3.7
359.838	3.56
360.207	3.7
360.576	3.62
360.945	3.62
361.314	3.92
361.682	3.81
362.051	3.9
362.42	3.67
362.788	3.82
363.157	3.88
363.525	3.75
363.894	3.84
364.262	3.84
364.631	3.71
364.999	3.86
365.367	3.85
365.735	3.72
366.104	3.86
366.472	3.34
366.84	3.68
367.208	3.86
367.576	4
367.944	4.24
368.312	3.71
368.68	3.96
369.048	3.89
369.416	3.81
369.783	4.12
370.151	4.07
370.519	3.72
370.886	3.83
371.254	3.3
371.621	4.14
371.989	3.62
372.356	4.07
372.724	3.85
373.091	3.84
373.458	3.91
373.826	4.06
374.193	3.77
374.56	4.28
374.927	3.96
375.294	3.88
375.661	4.13
376.028	4.44
376.395	4.26
376.762	4.13
377.129	3.77
377.496	4.28
377.863	3.56
378.229	4.17
378.596	3.67
378.963	3.82
379.329	3.94
379.696	3.94
380.062	4.3
380.429	3.78
380.795	4.08
381.161	4.11
381.528	4.08
381.894	4.35
382.26	4.2
382.626	3.83
382.993	4.16
383.359	3.84
383.725	3.95
384.091	4.4
384.457	3.99
384.823	4.05
385.188	3.74
385.554	4.07
385.92	4.15
386.286	4.19
386.651	4.12
387.017	4.24
387.383	4.07
387.748	3.87
388.114	3.95
388.479	4.21
388.845	4.07
389.21	4.03
389.575	4.16
389.94	4.09
390.306	4.1
390.671	3.85
391.036	4.35
391.401	4.06
391.766	4.18
392.131	4.02
392.496	3.93
392.861	3.92
393.226	4.2
393.591	4.04
393.956	3.89
394.32	4.37
394.685	4.14
395.05	3.99
395.414	4.03
395.779	3.95
396.143	4.35
396.508	3.89
396.872	3.88
397.236	4.1
397.601	4.04
397.965	4.25
398.329	4.11
398.694	3.84
399.058	4.35
399.422	4.2
399.786	3.98
400.15	4.08
400.514	4.33
400.878	4.22
401.242	4.02
401.605	4.02
401.969	4.08
402.333	4.29
402.697	4.08
403.06	3.91
403.424	4.42
403.787	4.11
404.151	4.34
404.514	3.91
404.878	4.06
405.241	4.22
405.604	3.89
405.968	3.86
406.331	4.33
406.694	4.26
407.057	4.06
407.42	4.01
407.783	4.01
408.146	4.28
408.509	4.19
408.872	4.15
409.235	4.22
409.598	3.99
409.961	4.16
410.323	4.33
410.686	4.22
411.049	4.26
411.411	4.15
411.774	4.13
412.136	4.31
412.499	4.27
412.861	4.2
413.223	4.32
413.586	4.07
413.948	4.24
414.31	4.18
414.672	4.3
415.035	4.25
415.397	4.1
415.759	3.95
416.121	4.13
416.483	4.01
416.845	4.12
417.206	4.44
417.568	4.08
417.93	4.37
418.292	4.12
418.653	4.33
419.015	4.13
419.377	4.29
419.738	4.12
420.1	4.17
420.461	4.18
420.822	4.25
421.184	4.13
421.545	4.38
421.906	4.17
422.267	4.17
422.629	4.11
422.99	4.17
423.351	4.18
423.712	4.11
424.073	4.17
424.434	4.13
424.795	4.25
425.155	4.04
425.516	4.12
425.877	4.19
426.238	4.29
426.598	4.14
426.959	4.18
427.32	4.25
427.68	4.26
428.041	4.3
428.401	4.24
428.761	4.21
429.122	4.29
429.482	4.42
429.842	4.41
430.202	4.26
430.563	4.48
430.923	4.33
431.283	4.36
431.643	4.35
432.003	4.04
432.363	4.38
432.722	4.36
433.082	4.28
433.442	4.29
433.802	4.53
434.161	4.21
434.521	4.41
434.881	4.44
435.24	4.42
435.6	4.19
435.959	4.32
436.319	4.3
436.678	4.41
437.037	4.16
437.396	4.23
437.756	4.31
438.115	4.33
438.474	4.34
438.833	4.4
439.192	4.37
439.551	4.29
439.91	4.22
440.269	4.39
440.628	4.37
440.987	4.18
441.345	4.46
441.704	4.36
442.063	4.28
442.421	4.34
442.78	4.38
443.138	4.31
443.497	4.3
443.855	4.27
444.214	4.37
444.572	4.5
444.93	4.4
445.288	4.32
445.647	4.51
446.005	4.13
446.363	4.23
446.721	4.27
447.079	4.38
447.437	4.24
447.795	4.39
448.153	4.37
448.51	4.39
448.868	4.36
449.226	4.54
449.584	4.26
449.941	4.26
450.299	4.27
450.656	4.37
451.014	4.41
451.371	4.5
451.729	4.29
452.086	4.29
452.443	4.74
452.801	4.42
453.158	4.39
453.515	4.52
453.872	4.39
454.229	4.5
454.586	4.38
454.943	4.41
455.3	4.29
455.657	4.33
456.014	4.63
456.371	4.55
456.727	4.44
457.084	4.36
457.441	4.56
457.797	4.35
458.154	4.28
458.51	4.41
458.867	4.59
459.223	4.56
459.58	4.51
459.936	4.38
460.292	4.52
460.648	4.65
461.005	4.47
461.361	4.38
461.717	4.4
462.073	4.39
462.429	4.42
462.785	4.35
463.141	4.51
463.496	4.43
463.852	4.6
464.208	4.58
464.564	4.69
464.919	4.74
465.275	4.63
465.631	4.72
465.986	4.69
466.342	4.59
466.697	4.66
467.052	4.73
467.408	4.58
467.763	4.8
468.118	4.58
468.473	4.7
468.829	4.62
469.184	4.31
469.539	4.58
469.894	4.69
470.249	4.44
470.603	4.66
470.958	4.61
471.313	4.74
471.668	4.56
472.023	4.44
472.377	4.48
472.732	4.66
473.086	4.56
473.441	4.52
473.795	4.63
474.15	4.6
474.504	4.53
474.859	4.66
475.213	4.54
475.567	4.69
475.921	4.7
476.275	4.64
476.63	4.69
476.984	4.68
477.338	4.52
477.692	4.76
478.045	4.79
478.399	4.53
478.753	4.69
479.107	4.76
479.461	4.7
479.814	4.72
480.168	4.43
480.521	4.56
480.875	4.68
481.228	4.76
481.582	4.57
481.935	4.81
482.289	4.66
482.642	4.74
482.995	4.57
483.348	4.55
483.701	4.74
484.055	4.65
484.408	4.59
484.761	4.57
485.114	4.51
485.466	4.35
485.819	4.33
486.172	4.34
486.525	4.43
486.878	4.43
487.23	4.45
487.583	4.49
487.936	4.57
488.288	4.6
488.641	4.55
488.993	4.44
489.345	4.46
489.698	4.43
490.05	4.41
490.402	4.55
490.754	4.5
491.107	4.55
491.459	4.63
491.811	4.67
492.163	4.63
492.515	4.63
492.866	4.53
493.218	4.54
493.57	4.51
493.922	4.52
494.274	4.56
494.625	4.63
494.977	4.74
495.328	4.75
495.68	4.68
496.031	4.77
496.383	4.84
496.734	4.85
497.086	4.78
497.437	4.76
497.788	4.85
498.139	4.73
498.49	4.86
498.842	4.71
499.193	4.89
499.544	4.87
499.894	4.73
500.245	4.81
500.596	4.75
500.947	4.82
501.298	4.76
501.648	4.88
501.999	4.74
502.35	4.77
502.7	4.96
503.051	4.85
503.401	4.77
503.752	4.95
504.102	4.95
504.452	4.95
504.803	4.95
505.153	5.17
505.503	5
505.853	5
506.203	4.91
506.553	4.82
506.903	4.97
507.253	5.07
507.603	5
507.953	5
508.303	4.98
508.652	4.84
509.002	4.97
509.352	4.93
509.701	4.93
510.051	4.96
510.4	4.93
510.75	4.85
511.099	4.89
511.449	5.03
511.798	4.88
512.147	4.91
512.496	5.11
512.846	4.92
513.195	4.9
513.544	5.03
513.893	4.94
514.242	4.91
514.591	4.93
514.939	5.03
515.288	5.04
515.637	4.9
515.986	5.14
516.334	5.15
516.683	5.04
517.032	5.22
517.38	5.04
517.729	5.17
518.077	5.13
518.426	5.16
518.774	5.01
519.122	5.18
519.47	5.06
519.819	5.03
520.167	5.01
520.515	4.93
520.863	5.01
521.211	4.98
521.559	5.15
521.907	5.07
522.255	5.14
522.602	5.12
522.95	5.16
523.298	5.18
523.645	5.21
523.993	5.22
524.341	5.2
524.688	5.16
525.036	5.34
525.383	5.13
525.73	4.94
526.078	5.21
526.425	5.12
526.772	5.13
527.119	5.22
527.466	5.19
527.814	5.09
528.161	5.22
528.508	5.16
528.854	5.12
529.201	5.08
529.548	5.14
529.895	5.03
530.242	4.94
530.588	4.94
530.935	5
531.282	5.07
531.628	5.16
531.975	5.07
532.321	5.05
532.667	5.08
533.014	5.19
533.36	5.29
533.706	5.24
534.052	5.3
534.399	5.27
534.745	5.26
535.091	5.13
535.437	5.21
535.783	5.15
536.129	5.26
536.474	5.28
536.82	5.35
537.166	5.31
537.512	5.46
537.857	5.37
538.203	5.38
538.549	5.36
538.894	5.34
539.239	5.43
539.585	5.45
539.93	5.51
540.276	5.47
540.621	5.51
540.966	5.53
541.311	5.47
541.656	5.56
542.001	5.59
542.346	5.46
542.691	5.41
543.036	5.37
543.381	5.34
543.726	5.41
544.071	5.38
544.415	5.37
544.76	5.4
545.105	5.48
545.449	5.58
545.794	5.68
546.138	5.47
546.483	5.67
546.827	5.68
547.171	5.64
547.516	5.75
547.86	5.76
548.204	5.8
548.548	5.7
548.892	5.76
549.236	5.81
549.58	5.81
549.924	5.83
550.268	5.84
550.612	5.74
550.956	5.96
551.3	5.98
551.643	5.87
551.987	5.93
552.33	6.02
552.674	6.01
553.017	6.22
553.361	6.04
553.704	6.02
554.048	6.08
554.391	6.02
554.734	5.82
555.077	6.04
555.42	6
555.764	6.06
556.107	5.99
556.45	6.12
556.793	6.05
557.135	6.13
557.478	6.28
557.821	6.06
558.164	6.17
558.507	6.23
558.849	6.3
559.192	6.24
559.534	6.21
559.877	6.22
560.219	6.33
560.562	6.17
560.904	6.32
561.246	6.64
561.589	6.4
561.931	6.17
562.273	6.15
562.615	6.28
562.957	6.24
563.299	6.5
563.641	6.31
563.983	6.35
564.325	6.4
564.667	6.5
565.008	6.41
565.35	6.35
565.692	6.51
566.033	6.61
566.375	6.42
566.716	6.26
567.058	6.58
567.399	6.73
567.741	6.55
568.082	6.36
568.423	6.34
568.764	6.66
569.105	6.49
569.447	6.59
569.788	6.67
570.129	6.61
570.47	6.74
570.811	6.5
571.151	6.68
571.492	6.71
571.833	6.82
572.174	6.68
572.514	6.88
572.855	6.78
573.195	6.74
573.536	6.74
573.876	6.91
574.217	6.94
574.557	6.74
574.898	6.83
575.238	6.87
575.578	6.8
575.918	6.74
576.258	6.87
576.598	6.89
576.938	6.97
577.278	7.01
577.618	6.92
577.958	6.83
578.298	7
578.638	6.88
578.977	7.12
579.317	6.96
579.657	7.1
579.996	7.25
580.336	7.22
580.675	7.16
581.014	7.17
581.354	7.2
581.693	7.34
582.032	7.24
582.372	7.24
582.711	7.41
583.05	7.3
583.389	7.25
583.728	7.29
584.067	7.48
584.406	7.4
584.745	7.61
585.083	7.35
585.422	7.56
585.761	7.72
586.1	7.45
586.438	7.73
586.777	7.43
587.115	7.59
587.454	7.66
587.792	7.66
588.13	7.65
588.469	7.69
588.807	7.23
589.145	7.58
589.483	7.66
589.821	7.99
590.159	7.79
590.497	7.91
590.835	7.7
591.173	7.46
591.511	7.47
591.849	7.67
592.187	7.74
592.524	7.72
592.862	7.82
593.2	7.46
593.537	7.74
593.875	8.13
594.212	7.85
594.55	7.83
594.887	8.13
595.224	8.05
595.561	8.16
595.899	7.97
596.236	8.03
596.573	7.86
596.91	8.32
597.247	8.07
597.584	8.28
597.921	8.04
598.258	8.23
598.594	8.15
598.931	8.14
599.268	7.99
599.604	8.01
599.941	8.01
600.277	8.16
600.614	8.45
600.95	8.34
601.287	8.07
601.623	8.27
601.959	8.56
602.296	8.45
602.632	8.19
602.968	8.55
603.304	8.48
603.64	8.56
603.976	8.22
604.312	8.49
604.648	8.63
604.984	8.44
605.319	8.47
605.655	8.52
605.991	8.52
606.326	8.38
606.662	8.62
606.998	8.53
607.333	8.59
607.668	8.62
608.004	8.71
608.339	8.69
608.674	8.66
609.01	8.6
609.345	9.17
609.68	9.05
610.015	8.76
610.35	8.82
610.685	9.09
611.02	8.98
611.355	8.83
611.689	8.97
612.024	8.91
612.359	9.06
612.694	9.06
613.028	9.11
613.363	9.25
613.697	9.09
614.032	8.89
614.366	9.29
614.7	9.01
615.035	9.45
615.369	9.21
615.703	9.2
616.037	9.28
616.371	8.88
616.705	9.27
617.039	9.5
617.373	9.46
617.707	8.95
618.041	9.63
618.375	9.13
618.709	9.34
619.042	9.55
619.376	8.96
619.71	9.31
620.043	9.54
620.377	9.88
620.71	9.63
621.043	9.29
621.377	9.25
621.71	9.51
622.043	9.72
622.376	9.63
622.709	9.62
623.043	9.64
623.376	10.32
623.709	9.94
624.041	9.94
624.374	9.79
624.707	9.97
625.04	9.76
625.373	10.31
625.705	10.1
626.038	10.22
626.37	9.96
626.703	10.05
627.035	9.91
627.368	9.95
627.7	9.82
628.032	10
628.365	10.16
628.697	10.19
629.029	10.17
629.361	9.81
629.693	9.89
630.025	10.17
630.357	10.4
630.689	10.24
631.021	10.69
631.353	10.51
631.684	10.17
632.016	10.39
632.348	10.47
632.679	10.21
633.011	10.38
633.342	10.66
633.674	10.36
634.005	10.52
634.336	10.41
634.668	10.44
634.999	10.82
635.33	10.69
635.661	10.65
635.992	10.51
636.323	10.59
636.654	10.8
636.985	10.76
637.316	10.92
637.647	10.58
637.977	10.95
638.308	11.05
638.639	10.84
638.969	11.09
639.3	11.01
639.63	11.38
639.961	11.12
640.291	10.85
640.622	11.17
640.952	11.28
641.282	10.98
641.612	11.05
641.943	11.43
642.273	11.08
642.603	11.84
642.933	11.06
643.263	10.94
643.592	11.66
643.922	11.92
644.252	11.49
644.582	10.49
644.911	11.47
645.241	10.93
645.571	11.73
645.9	11.12
646.23	11.67
646.559	11.37
646.888	11.27
647.218	11.65
647.547	11.21
647.876	11.27
648.205	11.94
648.534	11.8
648.863	11.43
649.192	12.28
649.521	11.98
649.85	11.27
650.179	12.22
650.508	12.05
650.837	12.02
651.165	11.46
651.494	11.94
651.822	12.11
652.151	11.87
652.479	12.26
652.808	11.82
653.136	11.96
653.465	12.22
653.793	12.23
654.121	11.75
654.449	12.48
654.777	12.61
655.105	12.65
655.433	12.49
655.761	12.09
656.089	12.17
656.417	12.39
656.745	12.69
657.073	12.21
657.4	12.01
657.728	11.39
658.056	12.55
658.383	11.73
658.711	11.9
659.038	12.46
659.365	12.51
659.693	12.69
660.02	11.99
660.347	12.58
660.674	12.49
661.001	13.02
661.329	12.69
661.656	12.38
661.982	12.46
662.309	13.08
662.636	13.13
662.963	12.8
663.29	12.69
663.616	12.95
663.943	12.85
664.27	13.01
664.596	13.01
664.923	13.26
665.249	12.7
665.576	13.22
665.902	13.09
666.228	12.78
666.554	12.59
666.881	12.33
667.207	13.09
667.533	13.45
667.859	12.9
668.185	12.55
668.511	13.39
668.837	13.43
669.162	13.76
669.488	13.16
669.814	13.87
670.139	12.56
670.465	12.66
670.791	13.8
671.116	13.19
671.442	13.71
671.767	13.51
672.092	13.92
672.418	13.53
672.743	13.55
673.068	12.81
673.393	13.73
673.718	13.66
674.043	14.06
674.368	12.94
674.693	13.55
675.018	13.17
675.343	13
675.667	14.06
675.992	13.66
676.317	13.63
676.641	13.79
676.966	14.16
677.29	13.04
677.615	13.66
677.939	14.33
678.264	14.64
678.588	13.69
678.912	14.11
679.236	13.94
679.56	14.33
679.885	13.87
680.209	14.38
680.532	14.4
680.856	14.01
681.18	13.85
681.504	13.76
681.828	13.93
682.152	14
682.475	14.09
682.799	13.52
683.122	14.22
683.446	14.73
683.769	15.06
684.093	14.02
684.416	13.84
684.739	15.06
685.062	14.79
685.386	14.43
685.709	14.88
686.032	14.57
686.355	13.98
686.678	15.26
687.001	14.54
687.324	14.98
687.646	14.79
