Data from 433_forehead_Reflection__4__121.txt Node

Date: Tue Dec 12 19:23:54 CST 2023
User: ToomeyLab
Spectrometer: FLMS14357
Trigger mode: 0
Integration Time (sec): 1.000000E-2
Scans to average: 100
Electric dark correction enabled: true
Nonlinearity correction enabled: false
Boxcar width: 0
XAxis mode: Wavelengths
Number of Pixels in Spectrum: 2048
>>>>>Begin Spectral Data<<<<<
189.047	-68.89
189.435	-68.89
189.823	-68.89
190.211	-88.61
190.599	158.31
190.987	127.92
191.375	-92.13
191.763	841.57
192.151	46.85
192.538	-96.31
192.926	318.91
193.314	379.67
193.702	64.83
194.089	-10.44
194.477	747.15
194.864	-30.73
195.252	96.31
195.639	-197.02
196.027	13.78
196.414	161.07
196.801	-5687.5
197.189	112.5
197.576	83.16
197.963	55.95
198.351	43.98
198.738	117.38
199.125	70.34
199.512	30.77
199.899	44.34
200.286	64.52
200.673	36.78
201.06	33.74
201.447	-60.58
201.833	97.37
202.22	38.02
202.607	-99.33
202.994	39.43
203.38	42.69
203.767	17.25
204.154	30.36
204.54	20.05
204.927	16.63
205.313	71.98
205.699	-13.19
206.086	39.24
206.472	59.28
206.858	29.29
207.245	54.09
207.631	24.72
208.017	46.12
208.403	-21.2
208.789	32.8
209.175	-7.34
209.561	98.99
209.947	-67.58
210.333	129.9
210.719	-3.98
211.105	-13.9
211.491	26.82
211.876	80.3
212.262	45.1
212.648	34.07
213.034	-10.98
213.419	-26.73
213.805	-2.04
214.19	31.7
214.576	18.87
214.961	14.96
215.346	23.48
215.732	46.54
216.117	44.16
216.502	15.91
216.888	-4.51
217.273	20.92
217.658	-1.43
218.043	0.68
218.428	46.22
218.813	19.19
219.198	-9.93
219.583	20.35
219.968	20.31
220.353	20.95
220.738	8.45
221.122	0.9
221.507	-2.7
221.892	28.64
222.276	23.04
222.661	18.66
223.046	-4.22
223.43	17.63
223.815	10.46
224.199	18.01
224.583	9.33
224.968	17.8
225.352	12.89
225.736	12.37
226.121	7.81
226.505	6.46
226.889	5.15
227.273	10.61
227.657	13.37
228.041	6.48
228.425	6.79
228.809	6.52
229.193	1.79
229.577	5.24
229.961	1.83
230.344	4.69
230.728	4.39
231.112	4.7
231.495	4.18
231.879	6.5
232.263	4.72
232.646	4.15
233.03	4.82
233.413	2.42
233.797	4.9
234.18	3.11
234.563	4.49
234.946	4.36
235.33	6.18
235.713	6.49
236.096	4.34
236.479	4.64
236.862	5.39
237.245	4.34
237.628	5.08
238.011	5.36
238.394	3.36
238.777	5.22
239.16	4.23
239.543	6.08
239.925	6.87
240.308	5.54
240.691	4.62
241.073	6.97
241.456	5.75
241.838	5.55
242.221	5.07
242.603	4.96
242.986	3.67
243.368	5.38
243.75	5.24
244.133	4.77
244.515	4.95
244.897	4.91
245.279	5.77
245.661	5
246.043	5.31
246.425	4.87
246.807	4.95
247.189	5.27
247.571	5.05
247.953	4.66
248.335	5.14
248.717	4.78
249.098	4.92
249.48	4.33
249.862	4.61
250.243	4.62
250.625	5.12
251.006	5.52
251.388	5.65
251.769	5.17
252.151	3.88
252.532	4.86
252.913	5.71
253.295	5.13
253.676	4.79
254.057	5.02
254.438	5.57
254.819	4.63
255.2	4.66
255.581	4.34
255.962	4.94
256.343	5.88
256.724	5.56
257.105	5.26
257.486	5.02
257.867	4.39
258.247	5.79
258.628	5.46
259.009	4.21
259.389	4.64
259.77	4.03
260.15	5.63
260.531	5.46
260.911	5.61
261.292	4.57
261.672	4.55
262.052	4.54
262.432	5.02
262.813	5.09
263.193	5.96
263.573	5.94
263.953	5.76
264.333	5.92
264.713	4.97
265.093	5.25
265.473	5.92
265.853	4.81
266.233	5.24
266.612	4.3
266.992	5.02
267.372	5.59
267.752	5.75
268.131	4.87
268.511	4.37
268.89	4.22
269.27	3.84
269.649	4.81
270.029	5.04
270.408	4.78
270.787	4.62
271.167	5.36
271.546	5.79
271.925	5.09
272.304	5.63
272.683	4.52
273.062	4.6
273.441	5.08
273.82	3.98
274.199	4.78
274.578	4.43
274.957	4.83
275.336	4.41
275.715	5.4
276.093	4.18
276.472	5.37
276.851	4.97
277.229	5.13
277.608	4.65
277.986	4.14
278.365	4.85
278.743	4.76
279.122	4.9
279.5	4.57
279.878	3.51
280.257	5
280.635	4.98
281.013	4.81
281.391	4.89
281.769	5.19
282.147	5.18
282.525	4.63
282.903	4.91
283.281	5.02
283.659	4.89
284.037	5.19
284.415	4.59
284.792	5.37
285.17	4.86
285.548	5.08
285.925	4.53
286.303	4.94
286.68	5.2
287.058	5.28
287.435	4.94
287.813	4.73
288.19	4.99
288.567	5.31
288.945	4.7
289.322	4.57
289.699	5.12
290.076	5.14
290.453	5.31
290.83	5.39
291.207	5.3
291.584	5.08
291.961	5.69
292.338	5.34
292.715	5.52
293.092	5.08
293.469	5.76
293.845	5.2
294.222	5.5
294.599	6.47
294.975	5.07
295.352	5.87
295.728	6.12
296.105	6.09
296.481	6.37
296.858	5.71
297.234	6.42
297.61	5.97
297.986	6.15
298.363	5.82
298.739	6.05
299.115	5.8
299.491	5.76
299.867	5.75
300.243	6.03
300.619	6.45
300.995	6.1
301.371	6.01
301.746	6.58
302.122	7.2
302.498	6.76
302.874	6.81
303.249	7.35
303.625	6.06
304	7.06
304.376	6.97
304.751	7.33
305.127	6.5
305.502	7.27
305.878	6.52
306.253	7.42
306.628	7.68
307.003	7.17
307.378	6.87
307.754	7.57
308.129	7.26
308.504	8.41
308.879	6.77
309.254	7.43
309.629	7.6
310.003	8.01
310.378	7.69
310.753	7.65
311.128	7.76
311.502	7.09
311.877	7.32
312.252	7.49
312.626	7.62
313.001	7.73
313.375	7.58
313.75	8.34
314.124	8.32
314.498	8.35
314.873	8.29
315.247	8.57
315.621	7.97
315.995	8.78
316.369	8.69
316.743	8.26
317.117	7.86
317.491	8.33
317.865	9.27
318.239	9.07
318.613	9.74
318.987	9.22
319.361	9.25
319.734	8.55
320.108	9.3
320.482	9.32
320.855	9.11
321.229	9.48
321.602	9.38
321.976	9.79
322.349	9.36
322.723	9.83
323.096	9.41
323.469	9.89
323.843	10.3
324.216	10.92
324.589	10.18
324.962	10.88
325.335	11.2
325.708	10.43
326.081	10.17
326.454	9.61
326.827	10.53
327.2	10.56
327.573	10.57
327.945	10.45
328.318	10.49
328.691	9.58
329.063	10.69
329.436	10.8
329.809	10.66
330.181	10.28
330.553	10.71
330.926	11.22
331.298	11
331.671	11.77
332.043	11.17
332.415	11.21
332.787	11.22
333.159	10.77
333.532	11.82
333.904	11.35
334.276	11.66
334.648	11.25
335.02	11.12
335.391	11.42
335.763	11.23
336.135	11.29
336.507	11.62
336.879	12.08
337.25	11.33
337.622	11.64
337.993	11.5
338.365	11.37
338.736	11.51
339.108	11.84
339.479	12.08
339.851	11.77
340.222	11.55
340.593	12.36
340.964	12.33
341.336	12.23
341.707	12.1
342.078	11.72
342.449	12.76
342.82	12.64
343.191	12.31
343.562	12.39
343.933	12.9
344.303	12.65
344.674	12.91
345.045	13.03
345.416	12.88
345.786	12.43
346.157	12.69
346.527	13.3
346.898	12.29
347.268	13.14
347.639	13.45
348.009	13
348.38	13.03
348.75	13.57
349.12	13.38
349.49	13.46
349.861	13.5
350.231	13.86
350.601	13.88
350.971	13.52
351.341	13.68
351.711	13.9
352.081	13.64
352.45	13.33
352.82	14.01
353.19	14.24
353.56	13.99
353.929	13.95
354.299	13.68
354.669	14.06
355.038	13.46
355.408	13.99
355.777	14.55
356.147	14.21
356.516	14.52
356.885	14.13
357.254	14.26
357.624	14.14
357.993	15
358.362	14.43
358.731	14.5
359.1	14.31
359.469	14.27
359.838	14.54
360.207	14.58
360.576	15.18
360.945	15.16
361.314	15
361.682	15.24
362.051	15.42
362.42	15.14
362.788	14.91
363.157	15.63
363.525	15.1
363.894	15.03
364.262	15.16
364.631	15.19
364.999	15.34
365.367	15.49
365.735	15.29
366.104	15.64
366.472	15.41
366.84	15.68
367.208	15.61
367.576	15.8
367.944	15.66
368.312	15.83
368.68	15.81
369.048	16.09
369.416	15.92
369.783	15.51
370.151	16.14
370.519	16.32
370.886	16.69
371.254	16.5
371.621	16.64
371.989	16.34
372.356	16.62
372.724	16.35
373.091	16.66
373.458	16.77
373.826	16.64
374.193	16.2
374.56	16.98
374.927	16.96
375.294	16.88
375.661	17.55
376.028	17.3
376.395	17.5
376.762	17.65
377.129	17.34
377.496	17.2
377.863	17.42
378.229	17.11
378.596	17.23
378.963	17.65
379.329	17.38
379.696	17.37
380.062	17.77
380.429	17.75
380.795	18
381.161	17.83
381.528	17.72
381.894	18.21
382.26	17.98
382.626	17.98
382.993	18.23
383.359	17.92
383.725	17.97
384.091	18.41
384.457	18.42
384.823	18.35
385.188	18.51
385.554	18.53
385.92	18.34
386.286	18.86
386.651	18.76
387.017	19.11
387.383	18.51
387.748	18.49
388.114	19.05
388.479	18.59
388.845	18.61
389.21	19.02
389.575	18.8
389.94	19.22
390.306	19.16
390.671	19.26
391.036	19.04
391.401	19.55
391.766	19.34
392.131	19.26
392.496	19.47
392.861	19.15
393.226	19.81
393.591	19.34
393.956	19.38
394.32	19.87
394.685	19.8
395.05	19.74
395.414	19.92
395.779	19.81
396.143	20.21
396.508	19.83
396.872	19.87
397.236	19.93
397.601	20.27
397.965	20.27
398.329	20.29
398.694	20.34
399.058	20.68
399.422	20.24
399.786	20.31
400.15	20.17
400.514	20.48
400.878	20.5
401.242	20.51
401.605	20.85
401.969	20.74
402.333	20.64
402.697	20.84
403.06	20.55
403.424	20.79
403.787	20.92
404.151	21.06
404.514	20.56
404.878	20.94
405.241	21.2
405.604	21.06
405.968	20.99
406.331	21.35
406.694	21.38
407.057	21.01
407.42	21.13
407.783	21.13
408.146	21.55
408.509	21.77
408.872	21.66
409.235	21.84
409.598	21.57
409.961	22.03
410.323	21.62
410.686	21.81
411.049	22.02
411.411	22.29
411.774	21.86
412.136	21.98
412.499	22.17
412.861	22.33
413.223	22.43
413.586	22.42
413.948	22.56
414.31	22.49
414.672	22.64
415.035	22.54
415.397	22.57
415.759	22.51
416.121	22.65
416.483	22.59
416.845	22.74
417.206	22.85
417.568	22.91
417.93	22.73
418.292	22.65
418.653	22.96
419.015	22.82
419.377	22.91
419.738	22.83
420.1	22.79
420.461	23.13
420.822	22.91
421.184	23.03
421.545	22.99
421.906	22.85
422.267	23.07
422.629	23.02
422.99	22.94
423.351	23.01
423.712	23.09
424.073	23.12
424.434	23.28
424.795	23.45
425.155	23.38
425.516	23.23
425.877	23.33
426.238	23.41
426.598	23.38
426.959	23.47
427.32	23.76
427.68	23.62
428.041	23.84
428.401	23.99
428.761	24.29
429.122	24.25
429.482	24.33
429.842	24.55
430.202	24.31
430.563	24.46
430.923	24.58
431.283	24.41
431.643	24.85
432.003	24.5
432.363	24.95
432.722	24.79
433.082	24.86
433.442	24.86
433.802	25.02
434.161	25.07
434.521	25.12
434.881	25.05
435.24	25
435.6	24.98
435.959	25.05
436.319	25.21
436.678	25.31
437.037	25.35
437.396	25.28
437.756	25.62
438.115	25.66
438.474	25.74
438.833	25.62
439.192	25.71
439.551	25.71
439.91	25.62
440.269	25.68
440.628	25.58
440.987	25.67
441.345	25.74
441.704	25.8
442.063	25.85
442.421	25.82
442.78	25.83
443.138	25.82
443.497	25.79
443.855	25.97
444.214	26.27
444.572	26.47
444.93	26.27
445.288	26.1
445.647	26.56
446.005	26.34
446.363	26.19
446.721	26.36
447.079	26.48
447.437	26.18
447.795	26.64
448.153	26.28
448.51	26.57
448.868	26.39
449.226	26.57
449.584	26.64
449.941	26.86
450.299	27.03
450.656	26.91
451.014	27
451.371	27.26
451.729	27.29
452.086	27.53
452.443	27.58
452.801	27.4
453.158	27.33
453.515	27.6
453.872	27.72
454.229	27.67
454.586	27.56
454.943	27.77
455.3	27.61
455.657	27.94
456.014	28.04
456.371	28.26
456.727	28.1
457.084	28.11
457.441	28.05
457.797	28.19
458.154	28.32
458.51	28.17
458.867	28.41
459.223	28.33
459.58	28.36
459.936	28.3
460.292	28.44
460.648	28.37
461.005	28.29
461.361	28.39
461.717	28.38
462.073	28.27
462.429	28.25
462.785	28.48
463.141	28.58
463.496	28.8
463.852	29.08
464.208	29.08
464.564	28.88
464.919	29.17
465.275	29.25
465.631	29.39
465.986	29.52
466.342	29.44
466.697	29.53
467.052	29.42
467.408	29.73
467.763	29.69
468.118	30.01
468.473	29.78
468.829	29.54
469.184	29.64
469.539	29.84
469.894	29.87
470.249	30.07
470.603	30.09
470.958	30.29
471.313	30.27
471.668	30.24
472.023	30.19
472.377	30.37
472.732	30.18
473.086	30.32
473.441	30.57
473.795	30.6
474.15	30.64
474.504	30.48
474.859	30.59
475.213	30.5
475.567	30.9
475.921	30.82
476.275	30.85
476.63	30.97
476.984	30.97
477.338	31.23
477.692	31.06
478.045	31.15
478.399	30.97
478.753	31.2
479.107	31.16
479.461	31.22
479.814	31.23
480.168	31.04
480.521	31.12
480.875	31.45
481.228	31.48
481.582	31.45
481.935	31.37
482.289	31.62
482.642	31.74
482.995	31.38
483.348	31.44
483.701	31.48
484.055	31.47
484.408	31.32
484.761	30.98
485.114	30.78
485.466	30.58
485.819	30.59
486.172	30.69
486.525	30.7
486.878	30.81
487.23	31.01
487.583	31.36
487.936	31.53
488.288	31.42
488.641	31.6
488.993	31.31
489.345	31.24
489.698	31.26
490.05	31.4
490.402	31.42
490.754	31.69
491.107	31.8
491.459	32.05
491.811	32.22
492.163	32.38
492.515	32.37
492.866	32.08
493.218	32.06
493.57	32.01
493.922	31.94
494.274	32.29
494.625	32.49
494.977	32.74
495.328	32.87
495.68	33.09
496.031	33.38
496.383	33.57
496.734	33.66
497.086	33.44
497.437	33.52
497.788	33.63
498.139	33.58
498.49	33.74
498.842	33.52
499.193	33.44
499.544	33.77
499.894	33.81
500.245	33.79
500.596	34.03
500.947	33.94
501.298	34.08
501.648	34.39
501.999	34.32
502.35	34.57
502.7	34.45
503.051	34.48
503.401	34.75
503.752	34.84
504.102	34.68
504.452	34.63
504.803	34.68
505.153	34.8
505.503	34.87
505.853	34.71
506.203	34.66
506.553	34.92
506.903	35.03
507.253	35.07
507.603	35.08
507.953	35.09
508.303	35.1
508.652	35.24
509.002	35.5
509.352	35.2
509.701	35.35
510.051	35.45
510.4	35.37
510.75	35.19
511.099	35.34
511.449	35.41
511.798	35.45
512.147	35.54
512.496	35.88
512.846	35.86
513.195	35.65
513.544	35.91
513.893	35.84
514.242	35.67
514.591	36.13
514.939	36.08
515.288	35.97
515.637	36.18
515.986	36.33
516.334	36.29
516.683	36.34
517.032	36.56
517.38	36.63
517.729	36.67
518.077	36.39
518.426	36.68
518.774	36.69
519.122	36.51
519.47	36.58
519.819	36.38
520.167	36.37
520.515	36.34
520.863	36.41
521.211	36.42
521.559	36.48
521.907	36.52
522.255	36.8
522.602	37.07
522.95	37.15
523.298	37.21
523.645	37.52
523.993	37.58
524.341	37.5
524.688	37.33
525.036	37.67
525.383	37.59
525.73	37.64
526.078	37.72
526.425	37.87
526.772	37.38
527.119	37.54
527.466	37.6
527.814	37.47
528.161	37.39
528.508	37.4
528.854	37.49
529.201	37.4
529.548	37.54
529.895	37.36
530.242	36.99
530.588	37.08
530.935	37.19
531.282	37.16
531.628	37.41
531.975	37.58
532.321	37.89
532.667	37.84
533.014	38.07
533.36	38.31
533.706	38.28
534.052	38.44
534.399	38.24
534.745	38.15
535.091	38.05
535.437	37.96
535.783	38.26
536.129	38.49
536.474	38.53
536.82	38.74
537.166	39.12
537.512	39.04
537.857	39.25
538.203	38.95
538.549	38.91
538.894	39
539.239	39.14
539.585	39.02
539.93	39.45
540.276	39.51
540.621	39.53
540.966	39.78
541.311	39.7
541.656	40.02
542.001	40.1
542.346	39.71
542.691	39.48
543.036	39.36
543.381	39.24
543.726	39.38
544.071	39.34
544.415	39.5
544.76	39.67
545.105	39.82
545.449	40.09
545.794	40.3
546.138	40.2
546.483	40.33
546.827	40.29
547.171	40.69
547.516	40.52
547.86	40.75
548.204	40.89
548.548	40.95
548.892	40.8
549.236	40.93
549.58	40.99
549.924	41.22
550.268	41.26
550.612	41.38
550.956	41.53
551.3	41.7
551.643	41.81
551.987	41.75
552.33	41.85
552.674	42.01
553.017	42.12
553.361	42.31
553.704	41.81
554.048	42.04
554.391	42.14
554.734	42.01
555.077	42.18
555.42	42.21
555.764	42.12
556.107	42.34
556.45	42.6
556.793	42.48
557.135	42.58
557.478	42.72
557.821	42.79
558.164	42.71
558.507	42.91
558.849	42.64
559.192	42.91
559.534	43.26
559.877	43.32
560.219	43.26
560.562	43.22
560.904	43.53
561.246	43.38
561.589	43.58
561.931	43.27
562.273	43.48
562.615	43.64
562.957	43.55
563.299	43.76
563.641	43.67
563.983	43.41
564.325	43.83
564.667	43.93
565.008	43.86
565.35	44.29
565.692	44.17
566.033	44.16
566.375	44.16
566.716	44.21
567.058	44.21
567.399	44.26
567.741	44.31
568.082	44.18
568.423	43.88
568.764	44.51
569.105	44.38
569.447	44.64
569.788	44.66
570.129	44.53
570.47	44.64
570.811	44.59
571.151	44.74
571.492	45.11
571.833	44.86
572.174	45.05
572.514	45
572.855	44.96
573.195	44.92
573.536	44.82
573.876	45.02
574.217	45.1
574.557	44.92
574.898	45.28
575.238	45.16
575.578	45.53
575.918	45.35
576.258	45.38
576.598	45.43
576.938	45.79
577.278	45.79
577.618	45.4
577.958	45.64
578.298	45.85
578.638	45.79
578.977	45.61
579.317	46.23
579.657	46.29
579.996	46.3
580.336	46.31
580.675	46.21
581.014	46.67
581.354	46.46
581.693	46.66
582.032	47.11
582.372	46.89
582.711	46.61
583.05	47.09
583.389	46.97
583.728	47.08
584.067	47.27
584.406	47.5
584.745	47.61
585.083	47.03
585.422	47.15
585.761	47.51
586.1	47.46
586.438	47.39
586.777	47.57
587.115	47.94
587.454	47.6
587.792	47.3
588.13	47.68
588.469	48.22
588.807	47.75
589.145	47.83
589.483	48.05
589.821	48.05
590.159	47.78
590.497	48.09
590.835	48.26
591.173	47.9
591.511	48.25
591.849	48.01
592.187	48.31
592.524	47.97
592.862	48.48
593.2	48.34
593.537	48.56
593.875	48.89
594.212	48.37
594.55	48.81
594.887	48.82
595.224	48.56
595.561	48.76
595.899	48.83
596.236	49.43
596.573	48.84
596.91	48.99
597.247	49
597.584	49.06
597.921	49.32
598.258	49.02
598.594	49.29
598.931	48.97
599.268	49.11
599.604	48.94
599.941	48.97
600.277	49.14
600.614	49.45
600.95	49.62
601.287	49.37
601.623	49.75
601.959	50.01
602.296	49.86
602.632	50.01
602.968	49.95
603.304	50.24
603.64	49.87
603.976	50
604.312	49.75
604.648	50.04
604.984	49.84
605.319	49.95
605.655	49.96
605.991	49.65
606.326	49.74
606.662	50.16
606.998	49.84
607.333	50.09
607.668	50.4
608.004	50.47
608.339	50.31
608.674	51.07
609.01	50.31
609.345	50.88
609.68	50.66
610.015	50.55
610.35	51.28
610.685	50.54
611.02	50.67
611.355	50.73
611.689	50.78
612.024	50.83
612.359	51.16
612.694	51.04
613.028	50.6
613.363	51.01
613.697	51.02
614.032	51.54
614.366	51.5
614.7	51.44
615.035	51.48
615.369	51.33
615.703	51.63
616.037	52.26
616.371	51.9
616.705	51.82
617.039	51.96
617.373	52.38
617.707	51.79
618.041	52.19
618.375	52.3
618.709	51.94
619.042	52.46
619.376	52.65
619.71	52.42
620.043	52.17
620.377	52.96
620.71	52.48
621.043	52.54
621.377	52.57
621.71	52.64
622.043	52.97
622.376	52.85
622.709	52.48
623.043	53.13
623.376	53.01
623.709	53.23
624.041	53.49
624.374	53.06
624.707	52.86
625.04	53.24
625.373	53.4
625.705	53.63
626.038	53.12
626.37	53.03
626.703	53.59
627.035	53.45
627.368	54.12
627.7	53.27
628.032	53.17
628.365	53.59
628.697	53.43
629.029	53.33
629.361	53.55
629.693	53.31
630.025	53.6
630.357	53.65
630.689	54.17
631.021	53.86
631.353	53.47
631.684	54.14
632.016	53.99
632.348	54.36
632.679	53.89
633.011	54.18
633.342	54.88
633.674	53.93
634.005	54.68
634.336	54.16
634.668	54.27
634.999	54.6
635.33	54.69
635.661	55
635.992	55.17
636.323	54.48
636.654	54.95
636.985	54.58
637.316	55.1
637.647	55.05
637.977	55.18
638.308	54.55
638.639	55.1
638.969	54.41
639.3	54.63
639.63	55.2
639.961	55.53
640.291	55.44
640.622	55.1
640.952	55.58
641.282	55.51
641.612	55.47
641.943	55.76
642.273	56.18
642.603	55.39
642.933	55.58
643.263	55.07
643.592	56.16
643.922	56.01
644.252	56.1
644.582	55.95
644.911	55.76
645.241	55.68
645.571	56.36
645.9	55.17
646.23	56.3
646.559	56.58
646.888	56.65
647.218	56.25
647.547	55.53
647.876	56.03
648.205	57.08
648.534	56.04
648.863	56.62
649.192	56.7
649.521	56.58
649.85	56.73
650.179	57.02
650.508	56.52
650.837	57.54
651.165	56.35
651.494	56.89
651.822	57.08
652.151	57.12
652.479	57.51
652.808	56.89
653.136	56.98
653.465	56.66
653.793	56.81
654.121	57.18
654.449	56.82
654.777	57.05
655.105	57.38
655.433	57.19
655.761	57.38
656.089	57.6
656.417	57.63
656.745	57.5
657.073	58.02
657.4	57.82
657.728	57.02
658.056	57.55
658.383	57.63
658.711	57.74
659.038	57.52
659.365	57.88
659.693	57.99
660.02	57.98
660.347	58.28
660.674	57.53
661.001	57.67
661.329	58.01
661.656	57.71
661.982	58.1
662.309	57.99
662.636	58.45
662.963	58.42
663.29	58.3
663.616	58.08
663.943	58.53
664.27	58.35
664.596	58.49
664.923	58.76
665.249	57.68
665.576	58.53
665.902	58.93
666.228	58.52
666.554	58.98
666.881	58.65
667.207	57.99
667.533	58.28
667.859	58.8
668.185	59.48
668.511	58.52
668.837	59
669.162	58.86
669.488	59.49
