Data from 433_chest_Reflection__0__107.txt Node

Date: Tue Dec 12 19:20:23 CST 2023
User: ToomeyLab
Spectrometer: FLMS14357
Trigger mode: 0
Integration Time (sec): 1.000000E-2
Scans to average: 100
Electric dark correction enabled: true
Nonlinearity correction enabled: false
Boxcar width: 0
XAxis mode: Wavelengths
Number of Pixels in Spectrum: 2048
>>>>>Begin Spectral Data<<<<<
189.047	-121.6
189.435	-121.6
189.823	-121.6
190.211	-124.67
190.599	77.73
190.987	66.96
191.375	493.72
191.763	611.92
192.151	71.36
192.538	-16.3
192.926	231.35
193.314	273.86
193.702	47.6
194.089	75.43
194.477	651.1
194.864	-21.59
195.252	263.8
195.639	189.09
196.027	-34.94
196.414	-138.87
196.801	-6355.36
197.189	69.16
197.576	198.26
197.963	123.5
198.351	102.18
198.738	119.41
199.125	34.15
199.512	21.79
199.899	60.41
200.286	22.31
200.673	49.82
201.06	1.58
201.447	-152.86
201.833	143.84
202.22	20.6
202.607	-87.43
202.994	11.03
203.38	-14.07
203.767	-34.95
204.154	4.96
204.54	53.07
204.927	-25.72
205.313	51.48
205.699	-72.74
206.086	49.97
206.472	35.95
206.858	-0.68
207.245	35.57
207.631	12.77
208.017	-4.99
208.403	-3.32
208.789	30.97
209.175	8.87
209.561	3
209.947	-116.3
210.333	39.87
210.719	-9.06
211.105	-21.48
211.491	5.47
211.876	44.17
212.262	29.49
212.648	-100.25
213.034	-11.9
213.419	51.76
213.805	5.32
214.19	66.17
214.576	35.54
214.961	11.54
215.346	-13.73
215.732	29.91
216.117	-0.5
216.502	-14.85
216.888	13.28
217.273	-24.53
217.658	-21.41
218.043	-9.26
218.428	25.16
218.813	-0.45
219.198	-35.35
219.583	15.39
219.968	28.42
220.353	-21.15
220.738	21.46
221.122	13.07
221.507	-26.78
221.892	2.39
222.276	5.75
222.661	9.68
223.046	-1.79
223.43	11.96
223.815	-8.5
224.199	10.43
224.583	0.6
224.968	9.58
225.352	-2.15
225.736	8.06
226.121	-3.36
226.505	5.95
226.889	-4.78
227.273	-3.8
227.657	12.78
228.041	8.6
228.425	3.64
228.809	-1.4
229.193	-0.85
229.577	3.53
229.961	0.46
230.344	3.07
230.728	4.32
231.112	2.81
231.495	3.52
231.879	4.16
232.263	2.73
232.646	2.27
233.03	4.43
233.413	1.55
233.797	2.6
234.18	3.53
234.563	3.44
234.946	6.16
235.33	5.04
235.713	2.35
236.096	2.13
236.479	3.47
236.862	3.13
237.245	1.1
237.628	2.5
238.011	1.72
238.394	1.58
238.777	3.6
239.16	4.69
239.543	2.82
239.925	3.84
240.308	1.34
240.691	3.67
241.073	4.67
241.456	2.98
241.838	3.64
242.221	3.28
242.603	2.48
242.986	1.7
243.368	3.3
243.75	2.17
244.133	2.91
244.515	3.14
244.897	3
245.279	3.53
245.661	2.74
246.043	1.91
246.425	3.5
246.807	2.87
247.189	2.61
247.571	2.91
247.953	2.35
248.335	2.82
248.717	2.67
249.098	2.59
249.48	2.75
249.862	2.75
250.243	2.45
250.625	3.35
251.006	2.68
251.388	2.51
251.769	2.38
252.151	1.79
252.532	2.64
252.913	3.25
253.295	3.41
253.676	2.51
254.057	2.38
254.438	2.79
254.819	2.72
255.2	3.34
255.581	3.19
255.962	1.01
256.343	2.94
256.724	2.46
257.105	3.08
257.486	0.28
257.867	1.81
258.247	2.48
258.628	2.88
259.009	2.08
259.389	2.7
259.77	2.7
260.15	2.29
260.531	3.15
260.911	3.19
261.292	2.42
261.672	2.25
262.052	2.57
262.432	2.77
262.813	2.36
263.193	3.08
263.573	2.76
263.953	3.93
264.333	3.1
264.713	2.08
265.093	1.87
265.473	3.08
265.853	2.47
266.233	2.92
266.612	2.2
266.992	2.61
267.372	3.51
267.752	3.87
268.131	1.88
268.511	2.02
268.89	1.9
269.27	2.04
269.649	2.19
270.029	2.66
270.408	3.16
270.787	2.18
271.167	1.75
271.546	2.55
271.925	3.58
272.304	2.7
272.683	2.12
273.062	2.39
273.441	2.86
273.82	2
274.199	2.14
274.578	2.09
274.957	1.92
275.336	2.59
275.715	2.67
276.093	1.74
276.472	2.55
276.851	2.4
277.229	2.01
277.608	2.68
277.986	3.11
278.365	2.61
278.743	2.27
279.122	2.35
279.5	1.94
279.878	1.21
280.257	2.53
280.635	2.92
281.013	2.21
281.391	2.93
281.769	1.97
282.147	2.81
282.525	1.8
282.903	2.44
283.281	1.97
283.659	3.12
284.037	2.66
284.415	2.25
284.792	2.63
285.17	2.51
285.548	2.8
285.925	2.23
286.303	1.87
286.68	1.96
287.058	2.87
287.435	2.71
287.813	2.02
288.19	2.7
288.567	2.24
288.945	2.37
289.322	1.96
289.699	2.89
290.076	2.34
290.453	2.19
290.83	2.1
291.207	2.86
291.584	2.85
291.961	2.24
292.338	2.36
292.715	2.69
293.092	2.41
293.469	2.84
293.845	2.89
294.222	2.77
294.599	3.03
294.975	2.46
295.352	3.23
295.728	2.62
296.105	2.88
296.481	3.13
296.858	2.92
297.234	2.95
297.61	2.55
297.986	2.97
298.363	3.19
298.739	2.59
299.115	2.48
299.491	2.94
299.867	3.06
300.243	2.67
300.619	3.13
300.995	3.53
301.371	3.27
301.746	2.96
302.122	3.66
302.498	2.51
302.874	2.68
303.249	3.63
303.625	2.52
304	3.64
304.376	3.63
304.751	3.51
305.127	3
305.502	3.17
305.878	3.11
306.253	2.64
306.628	2.94
307.003	3.25
307.378	2.64
307.754	3.55
308.129	2.03
308.504	3.99
308.879	2.93
309.254	3.41
309.629	3.18
310.003	3.45
310.378	3.24
310.753	3.84
311.128	3.77
311.502	2.86
311.877	3.02
312.252	2.72
312.626	3.06
313.001	2.89
313.375	3.23
313.75	3.46
314.124	3.1
314.498	3.23
314.873	3.12
315.247	3.79
315.621	3.38
315.995	3.34
316.369	3.79
316.743	3.38
317.117	2.63
317.491	2.74
317.865	2.87
318.239	3.18
318.613	3.54
318.987	4.17
319.361	2.34
319.734	3.26
320.108	3.43
320.482	3.82
320.855	2.79
321.229	3.07
321.602	3.97
321.976	3.42
322.349	3.79
322.723	3.46
323.096	3.83
323.469	3.18
323.843	3.82
324.216	3.33
324.589	2.95
324.962	4.02
325.335	3.55
325.708	3.46
326.081	3.64
326.454	2.91
326.827	4.46
327.2	3.39
327.573	3.04
327.945	3.26
328.318	3.84
328.691	3.34
329.063	3.54
329.436	3.72
329.809	3.71
330.181	3.17
330.553	3.34
330.926	3.5
331.298	3.71
331.671	3.46
332.043	3.58
332.415	3.58
332.787	3.63
333.159	3.55
333.532	3.75
333.904	3.56
334.276	3.71
334.648	3.01
335.02	3.25
335.391	3.52
335.763	3.48
336.135	3.45
336.507	4.02
336.879	3.87
337.25	3.52
337.622	3.39
337.993	4.13
338.365	3.03
338.736	3.73
339.108	3.24
339.479	3.63
339.851	2.92
340.222	2.93
340.593	2.97
340.964	3.33
341.336	3.55
341.707	3.06
342.078	3.59
342.449	3.19
342.82	3.7
343.191	3.7
343.562	3.58
343.933	3.8
344.303	3.73
344.674	3.63
345.045	3.86
345.416	3.67
345.786	3.21
346.157	3.69
346.527	3.89
346.898	3.23
347.268	3.35
347.639	4.09
348.009	3.86
348.38	3.25
348.75	3.8
349.12	3.74
349.49	3.94
349.861	4.05
350.231	3.76
350.601	4.21
350.971	3.85
351.341	3.95
351.711	3.99
352.081	3.32
352.45	3.29
352.82	3.77
353.19	4.07
353.56	3.77
353.929	3.41
354.299	3.24
354.669	3.49
355.038	3.2
355.408	3.44
355.777	4.21
356.147	3.86
356.516	3.73
356.885	3.79
357.254	3.9
357.624	3.49
357.993	3.57
358.362	3.91
358.731	3.8
359.1	3.44
359.469	3.64
359.838	3.44
360.207	3.82
360.576	3.98
360.945	3.69
361.314	3.8
361.682	4.03
362.051	4.01
362.42	4.04
362.788	3.8
363.157	4.04
363.525	3.75
363.894	3.62
364.262	3.9
364.631	3.63
364.999	4.3
365.367	3.89
365.735	3.85
366.104	3.67
366.472	3.51
366.84	3.66
367.208	3.8
367.576	3.87
367.944	3.99
368.312	3.97
368.68	3.63
369.048	4.1
369.416	3.85
369.783	3.88
370.151	4.3
370.519	3.96
370.886	3.81
371.254	3.54
371.621	3.89
371.989	3.83
372.356	3.98
372.724	3.64
373.091	3.7
373.458	3.79
373.826	4.2
374.193	3.45
374.56	4.29
374.927	4.03
375.294	3.91
375.661	4.31
376.028	4.03
376.395	3.91
376.762	4.41
377.129	4.19
377.496	3.97
377.863	3.98
378.229	3.99
378.596	3.76
378.963	3.9
379.329	3.83
379.696	3.8
380.062	4.34
380.429	3.97
380.795	4.17
381.161	4.15
381.528	4
381.894	4.08
382.26	3.84
382.626	4.08
382.993	4.25
383.359	3.84
383.725	3.84
384.091	3.98
384.457	4.28
384.823	4.14
385.188	4.34
385.554	4.38
385.92	4.16
386.286	4.35
386.651	4.46
387.017	4.54
387.383	4.27
387.748	4.4
388.114	4.28
388.479	4.33
388.845	4.6
389.21	4.25
389.575	3.98
389.94	4.31
390.306	4.22
390.671	4.02
391.036	4.45
391.401	4.11
391.766	4.18
392.131	4.51
392.496	4.18
392.861	4.24
393.226	4.5
393.591	4.06
393.956	4.32
394.32	4.49
394.685	4.29
395.05	4.09
395.414	4.18
395.779	4.18
396.143	4.44
396.508	4.17
396.872	4.22
397.236	4.31
397.601	4.39
397.965	4.34
398.329	4.65
398.694	4
399.058	4.33
399.422	4.42
399.786	4.34
400.15	4.16
400.514	4.42
400.878	4.36
401.242	4.21
401.605	4.57
401.969	4.4
402.333	4.5
402.697	4.39
403.06	4.34
403.424	4.5
403.787	4.15
404.151	4.71
404.514	3.93
404.878	4.4
405.241	4.23
405.604	4.3
405.968	4.33
406.331	4.68
406.694	4.47
407.057	4.13
407.42	4.37
407.783	4.28
408.146	4.5
408.509	4.35
408.872	4.38
409.235	4.49
409.598	4.35
409.961	4.58
410.323	4.46
410.686	4.59
411.049	4.56
411.411	4.49
411.774	4.48
412.136	4.58
412.499	4.56
412.861	4.47
413.223	4.85
413.586	4.44
413.948	4.49
414.31	4.54
414.672	4.8
415.035	4.55
415.397	4.63
415.759	4.54
416.121	4.45
416.483	4.52
416.845	4.56
417.206	4.46
417.568	4.64
417.93	4.52
418.292	4.52
418.653	4.46
419.015	4.54
419.377	4.56
419.738	4.55
420.1	4.48
420.461	4.43
420.822	4.63
421.184	4.39
421.545	4.7
421.906	4.54
422.267	4.42
422.629	4.42
422.99	4.55
423.351	4.57
423.712	4.53
424.073	4.48
424.434	4.46
424.795	4.62
425.155	4.53
425.516	4.48
425.877	4.49
426.238	4.45
426.598	4.53
426.959	4.56
427.32	4.58
427.68	4.55
428.041	4.78
428.401	4.7
428.761	4.61
429.122	4.88
429.482	4.95
429.842	4.44
430.202	4.55
430.563	4.73
430.923	4.72
431.283	4.86
431.643	4.74
432.003	4.77
432.363	4.84
432.722	4.64
433.082	4.76
433.442	4.79
433.802	4.91
434.161	4.84
434.521	4.85
434.881	4.82
435.24	4.9
435.6	4.81
435.959	4.89
436.319	5.04
436.678	4.85
437.037	4.84
437.396	4.73
437.756	4.69
438.115	4.93
438.474	4.83
438.833	5.02
439.192	4.98
439.551	5.08
439.91	4.72
440.269	4.85
440.628	4.89
440.987	4.71
441.345	5
441.704	4.81
442.063	4.92
442.421	4.95
442.78	4.85
443.138	4.83
443.497	5.03
443.855	4.95
444.214	4.9
444.572	4.96
444.93	5.08
445.288	4.81
445.647	5.05
446.005	4.86
446.363	4.79
446.721	4.96
447.079	4.95
447.437	4.85
447.795	4.99
448.153	4.86
448.51	5.04
448.868	4.98
449.226	5.01
449.584	5.02
449.941	5.11
450.299	5.13
450.656	4.98
451.014	5.08
451.371	5.13
451.729	5.09
452.086	5.07
452.443	5.16
452.801	5.09
453.158	5.07
453.515	5.18
453.872	5.07
454.229	5.19
454.586	5.03
454.943	5.12
455.3	5.07
455.657	5.14
456.014	5.22
456.371	5.24
456.727	5.17
457.084	5.33
457.441	5.26
457.797	5.47
458.154	5.34
458.51	5.11
458.867	5.41
459.223	5.21
459.58	5.23
459.936	5.01
460.292	5.33
460.648	5.15
461.005	5.23
461.361	5.21
461.717	5.29
462.073	5.14
462.429	5.2
462.785	5.11
463.141	5.22
463.496	5.25
463.852	5.55
464.208	5.37
464.564	5.42
464.919	5.57
465.275	5.5
465.631	5.59
465.986	5.27
466.342	5.4
466.697	5.46
467.052	5.66
467.408	5.54
467.763	5.47
468.118	5.68
468.473	5.55
468.829	5.6
469.184	5.28
469.539	5.49
469.894	5.62
470.249	5.48
470.603	5.55
470.958	5.57
471.313	5.74
471.668	5.74
472.023	5.65
472.377	5.51
472.732	5.65
473.086	5.66
473.441	5.75
473.795	5.61
474.15	5.7
474.504	5.3
474.859	5.57
475.213	5.49
475.567	5.62
475.921	5.64
476.275	5.65
476.63	5.71
476.984	5.59
477.338	5.63
477.692	5.65
478.045	5.75
478.399	5.56
478.753	5.57
479.107	5.68
479.461	5.65
479.814	5.71
480.168	5.66
480.521	5.72
480.875	5.61
481.228	5.77
481.582	5.82
481.935	5.75
482.289	5.76
482.642	5.85
482.995	5.77
483.348	5.73
483.701	5.85
484.055	5.78
484.408	5.64
484.761	5.66
485.114	5.57
485.466	5.48
485.819	5.47
486.172	5.41
486.525	5.49
486.878	5.47
487.23	5.55
487.583	5.56
487.936	5.7
488.288	5.69
488.641	5.72
488.993	5.65
489.345	5.65
489.698	5.63
490.05	5.63
490.402	5.67
490.754	5.68
491.107	5.75
491.459	5.78
491.811	5.89
492.163	5.9
492.515	5.98
492.866	5.84
493.218	5.85
493.57	5.72
493.922	5.62
494.274	5.81
494.625	5.88
494.977	6.06
495.328	6.08
495.68	6.01
496.031	6.08
496.383	6.13
496.734	6.13
497.086	6.05
497.437	6.06
497.788	6.09
498.139	6.05
498.49	6.24
498.842	6.11
499.193	6.12
499.544	6.15
499.894	6.07
500.245	6.21
500.596	6.31
500.947	6.18
501.298	6.29
501.648	6.32
501.999	6.14
502.35	6.27
502.7	6.4
503.051	6.23
503.401	6.33
503.752	6.43
504.102	6.32
504.452	6.42
504.803	6.48
505.153	6.35
505.503	6.4
505.853	6.35
506.203	6.5
506.553	6.34
506.903	6.48
507.253	6.39
507.603	6.38
507.953	6.45
508.303	6.51
508.652	6.39
509.002	6.66
509.352	6.47
509.701	6.52
510.051	6.43
510.4	6.44
510.75	6.44
511.099	6.46
511.449	6.46
511.798	6.5
512.147	6.53
512.496	6.53
512.846	6.59
513.195	6.6
513.544	6.64
513.893	6.67
514.242	6.57
514.591	6.52
514.939	6.6
515.288	6.69
515.637	6.61
515.986	6.59
516.334	6.74
516.683	6.76
517.032	6.74
517.38	6.66
517.729	6.76
518.077	6.81
518.426	6.83
518.774	6.74
519.122	6.84
519.47	6.81
519.819	6.58
520.167	6.73
520.515	6.71
520.863	6.65
521.211	6.69
521.559	6.83
521.907	6.72
522.255	6.82
522.602	6.94
522.95	6.89
523.298	6.94
523.645	7.15
523.993	7.16
524.341	7.02
524.688	7
525.036	7.06
525.383	7.18
525.73	6.96
526.078	7.07
526.425	7.09
526.772	7.03
527.119	7.07
527.466	7
527.814	6.95
528.161	7.04
528.508	7.02
528.854	7.09
529.201	6.98
529.548	7.12
529.895	6.88
530.242	6.88
530.588	6.84
530.935	6.89
531.282	6.89
531.628	7
531.975	6.96
532.321	7.08
532.667	7.16
533.014	7.23
533.36	7.29
533.706	7.2
534.052	7.27
534.399	7.24
534.745	7.25
535.091	7.15
535.437	7.23
535.783	7.22
536.129	7.25
536.474	7.38
536.82	7.39
537.166	7.43
537.512	7.48
537.857	7.47
538.203	7.51
538.549	7.39
538.894	7.48
539.239	7.56
539.585	7.54
539.93	7.64
540.276	7.62
540.621	7.64
540.966	7.68
541.311	7.7
541.656	7.68
542.001	7.73
542.346	7.66
542.691	7.65
543.036	7.54
543.381	7.45
543.726	7.61
544.071	7.56
544.415	7.59
544.76	7.65
545.105	7.8
545.449	7.8
545.794	7.92
546.138	7.79
546.483	7.94
546.827	7.99
547.171	7.94
547.516	8.03
547.86	8.05
548.204	8.09
548.548	8.01
548.892	8.03
549.236	8.05
549.58	8.22
549.924	8.03
550.268	8.25
550.612	8.07
550.956	8.33
551.3	8.47
551.643	8.47
551.987	8.34
552.33	8.27
552.674	8.53
553.017	8.51
553.361	8.64
553.704	8.47
554.048	8.5
554.391	8.56
554.734	8.6
555.077	8.69
555.42	8.44
555.764	8.65
556.107	8.59
556.45	8.68
556.793	8.51
557.135	8.62
557.478	8.65
557.821	8.71
558.164	8.78
558.507	8.93
558.849	8.79
559.192	8.75
559.534	8.93
559.877	8.91
560.219	8.83
560.562	8.85
560.904	9.09
561.246	8.79
561.589	9.15
561.931	9.01
562.273	8.95
562.615	8.94
562.957	9.01
563.299	9.12
563.641	8.99
563.983	9.11
564.325	9.14
564.667	9.17
565.008	9.07
565.35	9.04
565.692	9.28
566.033	9.34
566.375	9.21
566.716	9.18
567.058	9.48
567.399	9.47
567.741	9.4
568.082	9.26
568.423	9.39
568.764	9.48
569.105	9.48
569.447	9.45
569.788	9.5
570.129	9.63
570.47	9.69
570.811	9.54
571.151	9.53
571.492	9.71
571.833	9.72
572.174	9.59
572.514	9.57
572.855	9.73
573.195	9.76
573.536	9.63
573.876	9.64
574.217	9.67
574.557	9.82
574.898	9.96
575.238	9.89
575.578	9.62
575.918	9.77
576.258	9.83
576.598	10.04
576.938	9.88
577.278	10.09
577.618	10.13
577.958	9.92
578.298	10.24
578.638	10.14
578.977	9.98
579.317	10.23
579.657	10.2
579.996	10.31
580.336	10.22
580.675	10.06
581.014	10.47
581.354	10.29
581.693	10.24
582.032	10.43
582.372	10.43
582.711	10.33
583.05	10.55
583.389	10.45
583.728	10.46
584.067	10.77
584.406	10.99
584.745	10.91
585.083	10.66
585.422	10.93
585.761	10.97
586.1	10.87
586.438	10.79
586.777	11.02
587.115	10.63
587.454	11.09
587.792	10.6
588.13	10.89
588.469	10.98
588.807	10.87
589.145	10.99
589.483	10.98
589.821	11.02
590.159	11.09
590.497	11.26
590.835	11.05
591.173	11.17
591.511	10.96
591.849	11.21
592.187	11.32
592.524	11.28
592.862	11.2
593.2	11.16
593.537	11.26
593.875	11.5
594.212	11.3
594.55	11.62
594.887	11.69
595.224	11.46
595.561	11.5
595.899	11.38
596.236	11.51
596.573	11.49
596.91	11.67
597.247	11.76
597.584	11.81
597.921	11.61
598.258	11.6
598.594	11.99
598.931	11.73
599.268	11.67
599.604	11.75
599.941	11.59
600.277	11.73
600.614	11.96
600.95	11.81
601.287	11.87
601.623	12.03
601.959	12.09
602.296	12.13
602.632	11.93
602.968	12.16
603.304	12.13
603.64	12.47
603.976	12.1
604.312	12.34
604.648	12.29
604.984	12.35
605.319	12.29
605.655	12.26
605.991	12.24
606.326	12.16
606.662	12.34
606.998	12.27
607.333	12.44
607.668	12.39
608.004	12.29
608.339	12.48
608.674	12.67
609.01	12.73
609.345	12.74
609.68	12.82
610.015	12.53
610.35	12.81
610.685	12.69
611.02	12.59
611.355	12.61
611.689	12.82
612.024	12.69
612.359	12.9
612.694	12.67
613.028	12.94
613.363	13.01
613.697	13.01
614.032	13.09
614.366	13.34
614.7	13.03
615.035	13.05
615.369	13.17
615.703	13.15
616.037	12.86
616.371	13.11
616.705	13.27
617.039	13.42
617.373	13.38
617.707	13.2
618.041	13.08
618.375	13.34
618.709	13.53
619.042	13.45
619.376	13.52
619.71	13.47
620.043	13.45
620.377	13.29
620.71	13.34
621.043	13.68
621.377	13.45
621.71	13.59
622.043	13.91
622.376	13.9
622.709	13.82
623.043	13.67
623.376	14.28
623.709	14.02
624.041	14.16
624.374	14.2
624.707	14.08
625.04	14.09
625.373	14.11
625.705	14.37
626.038	14.33
626.37	14.1
626.703	14.41
627.035	13.97
627.368	14.78
627.7	14.17
628.032	14.17
628.365	14.3
628.697	14.5
629.029	14.46
629.361	14.12
629.693	14.23
630.025	14.25
630.357	14.55
630.689	14.14
631.021	14.55
631.353	14.45
631.684	14.65
632.016	14.47
632.348	15.01
632.679	14.2
633.011	15.07
633.342	15.15
633.674	14.9
634.005	14.73
634.336	15.33
634.668	14.82
634.999	15.04
635.33	14.86
635.661	15.04
635.992	15
636.323	14.72
636.654	15.27
636.985	14.74
637.316	15.21
637.647	14.86
637.977	15.26
638.308	15.44
638.639	15.52
638.969	15.4
639.3	15.02
639.63	15.43
639.961	15.38
640.291	15.35
640.622	15.49
640.952	15.75
641.282	15.64
641.612	15.66
641.943	15.33
642.273	15.8
642.603	15.91
642.933	15.65
643.263	15.39
643.592	16.04
643.922	16.09
644.252	15.56
644.582	15.53
644.911	16.03
645.241	16.1
645.571	16.13
645.9	15.77
646.23	15.64
646.559	16.15
646.888	16.48
647.218	16.04
647.547	16.29
647.876	15.89
648.205	16.38
648.534	16.36
648.863	16.51
649.192	16.84
649.521	16.28
649.85	16.28
650.179	16.59
650.508	16.71
650.837	16.08
651.165	16.16
651.494	16.69
651.822	16.44
652.151	17.07
652.479	16.72
652.808	17.06
653.136	16.74
653.465	16.71
653.793	16.56
654.121	16.68
654.449	16.88
654.777	17.03
655.105	16.89
655.433	17.37
655.761	17.16
656.089	17.05
656.417	17.27
656.745	17.34
657.073	16.87
657.4	17.59
657.728	16.59
658.056	17.32
658.383	17.1
658.711	17
659.038	17
659.365	16.9
659.693	17.58
660.02	17.03
660.347	17.77
660.674	17.27
661.001	17.14
661.329	17.49
661.656	16.89
661.982	17.05
662.309	17.52
662.636	17.56
662.963	17.67
663.29	18.1
663.616	17.9
663.943	18.03
664.27	18.01
664.596	17.68
664.923	18.29
665.249	17.22
665.576	17.56
665.902	17.97
666.228	18.66
666.554	18.44
666.881	17.32
667.207	17.79
667.533	17.64
667.859	17.54
668.185	18.13
668.511	18.08
668.837	18.11
669.162	18.77
669.488	17.71
669.814	18.32
670.139	18.66
670.465	17.37
670.791	18.15
671.116	18.33
671.442	18.44
671.767	18.59
672.092	19.5
672.418	18.82
672.743	19.24
673.068	17.93
673.393	18.34
673.718	18.49
674.043	18.95
674.368	17.84
674.693	17.96
675.018	17.91
675.343	18.68
675.667	18.58
675.992	18.94
676.317	19.23
676.641	18.34
676.966	19.31
677.29	18.43
677.615	19.7
677.939	19.21
678.264	19.52
678.588	19.52
678.912	19.03
679.236	18.68
679.56	18.74
679.885	18.97
680.209	19.24
680.532	19.25
680.856	18.82
681.18	19.18
681.504	19.3
681.828	19.04
682.152	19.03
682.475	19.64
682.799	19.19
683.122	18.78
683.446	20.04
683.769	20.2
684.093	19.32
684.416	19.35
684.739	19.18
