Data from 433_forehead_Reflection__0__117.txt Node

Date: Tue Dec 12 19:23:14 CST 2023
User: ToomeyLab
Spectrometer: FLMS14357
Trigger mode: 0
Integration Time (sec): 1.000000E-2
Scans to average: 100
Electric dark correction enabled: true
Nonlinearity correction enabled: false
Boxcar width: 0
XAxis mode: Wavelengths
Number of Pixels in Spectrum: 2048
>>>>>Begin Spectral Data<<<<<
189.047	126.31
189.435	126.31
189.823	126.31
190.211	192.26
190.599	84.9
190.987	164.47
191.375	204.89
191.763	-327.33
192.151	90.85
192.538	-79.3
192.926	72.44
193.314	577.02
193.702	42.48
194.089	-19.57
194.477	591.67
194.864	35
195.252	64.9
195.639	-163.1
196.027	57.74
196.414	97.57
196.801	-2210.71
197.189	-9.6
197.576	164.49
197.963	131.66
198.351	71.15
198.738	79.85
199.125	23.79
199.512	-60.06
199.899	61
200.286	37.3
200.673	14.88
201.06	15.98
201.447	-16.06
201.833	-14.05
202.22	40.12
202.607	-101.33
202.994	30.43
203.38	29.67
203.767	15.14
204.154	28.83
204.54	55.43
204.927	63.41
205.313	43.4
205.699	12.58
206.086	-21.16
206.472	46.75
206.858	39.31
207.245	40.45
207.631	3.02
208.017	-11
208.403	22.53
208.789	40.96
209.175	-13.97
209.561	82.83
209.947	-48.72
210.333	19.51
210.719	33.31
211.105	-34.81
211.491	30.19
211.876	12.11
212.262	55.91
212.648	-23.35
213.034	-73.07
213.419	87.66
213.805	41.87
214.19	87.13
214.576	54.76
214.961	8.62
215.346	-14.72
215.732	7.57
216.117	-46.72
216.502	-4.03
216.888	-44
217.273	-53.89
217.658	15.04
218.043	34.13
218.428	12.34
218.813	19.25
219.198	14.7
219.583	6.99
219.968	4.26
220.353	28.83
220.738	9.86
221.122	-14.6
221.507	-11.79
221.892	31.37
222.276	23.97
222.661	15.27
223.046	-10.15
223.43	16.81
223.815	-2.47
224.199	11.55
224.583	7.75
224.968	14.09
225.352	5.05
225.736	19.78
226.121	-2.08
226.505	-0.31
226.889	-1.74
227.273	4.72
227.657	7.86
228.041	9.7
228.425	6.3
228.809	1.08
229.193	4.21
229.577	4.41
229.961	3.13
230.344	4.57
230.728	4.31
231.112	4.93
231.495	3.97
231.879	3.85
232.263	2.28
232.646	3.75
233.03	3.65
233.413	3.99
233.797	4.73
234.18	-0.17
234.563	5.41
234.946	9.16
235.33	4.75
235.713	6.83
236.096	3.75
236.479	4.83
236.862	5.15
237.245	5.34
237.628	6.9
238.011	5.88
238.394	4.1
238.777	6
239.16	4.92
239.543	5.32
239.925	5.56
240.308	3.9
240.691	3.55
241.073	6.21
241.456	5.29
241.838	3.77
242.221	5.19
242.603	6.12
242.986	3.46
243.368	4.88
243.75	4.44
244.133	4.08
244.515	4.62
244.897	4.56
245.279	4.52
245.661	3.42
246.043	4.29
246.425	4.33
246.807	4.66
247.189	5.65
247.571	5.42
247.953	3.75
248.335	4.57
248.717	4.23
249.098	3.98
249.48	4.11
249.862	4.2
250.243	4.43
250.625	5.19
251.006	4.15
251.388	4.15
251.769	3.81
252.151	5.43
252.532	4.92
252.913	5.8
253.295	5.09
253.676	4.66
254.057	3.93
254.438	4.59
254.819	3.94
255.2	4.98
255.581	3.64
255.962	3.73
256.343	5.9
256.724	5.69
257.105	5.71
257.486	4.41
257.867	4.15
258.247	3.8
258.628	3.97
259.009	4.6
259.389	4.46
259.77	4.93
260.15	4.47
260.531	4.57
260.911	4.88
261.292	3.73
261.672	4.05
262.052	4.04
262.432	4.43
262.813	4.32
263.193	4.5
263.573	4.32
263.953	5.65
264.333	5.48
264.713	4.73
265.093	3.94
265.473	4.6
265.853	3.51
266.233	3.94
266.612	3.71
266.992	4.33
267.372	5.58
267.752	5.35
268.131	4.07
268.511	3.63
268.89	3.84
269.27	3.67
269.649	4.79
270.029	4.74
270.408	4.79
270.787	4.56
271.167	4.29
271.546	3.93
271.925	4.48
272.304	5.16
272.683	3.6
273.062	4.53
273.441	4.35
273.82	3.95
274.199	4.75
274.578	4.17
274.957	4.06
275.336	4.44
275.715	4.97
276.093	3.84
276.472	4.31
276.851	4.56
277.229	3.8
277.608	4.76
277.986	3.46
278.365	4.69
278.743	4.73
279.122	4.26
279.5	3.78
279.878	3.63
280.257	4.28
280.635	3.82
281.013	3.77
281.391	4.18
281.769	4.55
282.147	4.44
282.525	3.93
282.903	4.53
283.281	4.45
283.659	4.4
284.037	4.2
284.415	4.05
284.792	4.6
285.17	4.13
285.548	4.42
285.925	4.49
286.303	4.26
286.68	4.83
287.058	4.66
287.435	4.25
287.813	4.02
288.19	4.29
288.567	4.51
288.945	4.43
289.322	4.02
289.699	4.91
290.076	4.29
290.453	4.45
290.83	4.67
291.207	4.77
291.584	4.7
291.961	5.28
292.338	4.92
292.715	5
293.092	4.29
293.469	4.93
293.845	4.91
294.222	4.82
294.599	5.18
294.975	4.53
295.352	4.85
295.728	5.27
296.105	5.5
296.481	5.85
296.858	5.06
297.234	5.29
297.61	5.25
297.986	5.84
298.363	5.36
298.739	5.22
299.115	5.04
299.491	5.22
299.867	5.32
300.243	5.04
300.619	5.82
300.995	5.86
301.371	5.92
301.746	5.84
302.122	7.05
302.498	5.81
302.874	5.36
303.249	6.51
303.625	5.35
304	5.85
304.376	6.33
304.751	6.73
305.127	6.3
305.502	6.45
305.878	6.49
306.253	6.03
306.628	6.23
307.003	6.26
307.378	6.37
307.754	6.7
308.129	5.82
308.504	7.58
308.879	6.49
309.254	7.43
309.629	6.19
310.003	6.98
310.378	6.97
310.753	6.99
311.128	7.22
311.502	6.94
311.877	6.63
312.252	6.97
312.626	7.04
313.001	7.24
313.375	7
313.75	7.28
314.124	7.34
314.498	7.28
314.873	7.31
315.247	8.16
315.621	6.97
315.995	7.51
316.369	7.7
316.743	7.26
317.117	7.29
317.491	7.5
317.865	8.17
318.239	8.46
318.613	8.19
318.987	8.49
319.361	7.64
319.734	7.99
320.108	8.74
320.482	8.32
320.855	8.15
321.229	8.67
321.602	8.98
321.976	8.39
322.349	8.34
322.723	8.23
323.096	8.9
323.469	8.25
323.843	9.51
324.216	8.99
324.589	9.14
324.962	9.21
325.335	9.53
325.708	8.53
326.081	9.25
326.454	8.83
326.827	9.77
327.2	9.11
327.573	8.58
327.945	9.41
328.318	9.66
328.691	9.03
329.063	9.32
329.436	9.3
329.809	9.53
330.181	9.73
330.553	9.53
330.926	9.83
331.298	9.22
331.671	9.15
332.043	9.64
332.415	10.43
332.787	9.67
333.159	9.85
333.532	10.03
333.904	9.89
334.276	10.74
334.648	9.78
335.02	9.05
335.391	10.41
335.763	10.23
336.135	10.11
336.507	10.8
336.879	10.09
337.25	10.15
337.622	10.26
337.993	10.63
338.365	10.27
338.736	10.6
339.108	10.52
339.479	11.07
339.851	10.41
340.222	10.09
340.593	10.56
340.964	10.91
341.336	10.82
341.707	10.68
342.078	10.57
342.449	11.22
342.82	10.74
343.191	11.01
343.562	11.19
343.933	11.21
344.303	11.6
344.674	11.14
345.045	11.31
345.416	11.04
345.786	11.28
346.157	11.34
346.527	11.7
346.898	11.27
347.268	11.99
347.639	11.75
348.009	11.35
348.38	11.38
348.75	12.23
349.12	12.18
349.49	11.87
349.861	11.9
350.231	12.3
350.601	12.25
350.971	12.31
351.341	11.64
351.711	12.19
352.081	11.64
352.45	11.96
352.82	12.29
353.19	12.52
353.56	12.39
353.929	12.14
354.299	12.2
354.669	12.44
355.038	12.13
355.408	12.19
355.777	13.02
356.147	12.11
356.516	12.89
356.885	12.77
357.254	12.9
357.624	12.41
357.993	12.52
358.362	12.64
358.731	12.85
359.1	12.64
359.469	12.7
359.838	12.84
360.207	12.96
360.576	13.17
360.945	13.08
361.314	13
361.682	12.98
362.051	13.47
362.42	13.18
362.788	13.29
363.157	13.77
363.525	13.3
363.894	13.25
364.262	13.32
364.631	13.19
364.999	13.62
365.367	13.79
365.735	13.84
366.104	13.82
366.472	13.48
366.84	13.59
367.208	14.36
367.576	13.81
367.944	13.93
368.312	14.41
368.68	13.91
369.048	14.36
369.416	14.33
369.783	14.46
370.151	14.08
370.519	14.33
370.886	14.63
371.254	14.44
371.621	14.38
371.989	14.52
372.356	14.91
372.724	14.61
373.091	14.62
373.458	14.5
373.826	14.7
374.193	14.7
374.56	14.84
374.927	15.13
375.294	15.03
375.661	15.67
376.028	15.3
376.395	15.2
376.762	15.39
377.129	15.24
377.496	15.5
377.863	15.11
378.229	15.48
378.596	15.51
378.963	15.39
379.329	15.04
379.696	15.46
380.062	15.85
380.429	15.79
380.795	16.17
381.161	16.33
381.528	15.96
381.894	16.12
382.26	16.09
382.626	16.11
382.993	16.16
383.359	15.92
383.725	16.13
384.091	16.02
384.457	16.24
384.823	16.35
385.188	16.54
385.554	16.73
385.92	16.2
386.286	16.68
386.651	16.63
387.017	16.8
387.383	16.55
387.748	16.72
388.114	16.68
388.479	17.23
388.845	16.72
389.21	16.78
389.575	16.52
389.94	16.99
390.306	17.26
390.671	17.06
391.036	17.37
391.401	17.15
391.766	17.35
392.131	17.38
392.496	16.97
392.861	17.23
393.226	17.09
393.591	17.2
393.956	17.31
394.32	17.76
394.685	17.68
395.05	17.4
395.414	17.46
395.779	17.66
396.143	18.09
396.508	17.71
396.872	17.59
397.236	17.54
397.601	18.04
397.965	17.75
398.329	18.13
398.694	17.9
399.058	18.27
399.422	17.83
399.786	18.13
400.15	18.17
400.514	18.38
400.878	18.53
401.242	18.43
401.605	18.47
401.969	18.3
402.333	18.69
402.697	18.49
403.06	18.37
403.424	18.79
403.787	18.71
404.151	18.9
404.514	18.5
404.878	18.72
405.241	18.68
405.604	18.87
405.968	18.65
406.331	18.7
406.694	18.99
407.057	18.76
407.42	19.14
407.783	19.17
408.146	19.12
408.509	19.17
408.872	19.13
409.235	19.1
409.598	19.28
409.961	19.46
410.323	19.45
410.686	19.64
411.049	19.44
411.411	19.74
411.774	19.73
412.136	19.59
412.499	19.62
412.861	19.67
413.223	20.18
413.586	19.83
413.948	19.85
414.31	20.1
414.672	20.07
415.035	20.36
415.397	20.1
415.759	19.93
416.121	20.23
416.483	20.21
416.845	20.13
417.206	20.42
417.568	20.4
417.93	20.6
418.292	20.18
418.653	20.42
419.015	20.56
419.377	20.38
419.738	20.28
420.1	20.37
420.461	20.45
420.822	20.49
421.184	20.49
421.545	20.64
421.906	20.38
422.267	20.5
422.629	20.45
422.99	20.5
423.351	20.49
423.712	20.61
424.073	20.59
424.434	20.7
424.795	20.95
425.155	20.95
425.516	20.91
425.877	20.7
426.238	20.94
426.598	20.89
426.959	21
427.32	21.18
427.68	21.13
428.041	21.39
428.401	21.45
428.761	21.59
429.122	21.49
429.482	21.74
429.842	21.79
430.202	21.98
430.563	21.95
430.923	22.05
431.283	21.84
431.643	22.17
432.003	22.1
432.363	22.34
432.722	21.94
433.082	22.1
433.442	22.31
433.802	22.22
434.161	22.22
434.521	22.22
434.881	22.22
435.24	22.32
435.6	22.33
435.959	22.4
436.319	22.55
436.678	22.69
437.037	22.44
437.396	22.59
437.756	22.58
438.115	22.8
438.474	22.76
438.833	22.96
439.192	23.14
439.551	22.76
439.91	22.94
440.269	22.92
440.628	23.04
440.987	22.75
441.345	23.01
441.704	23.15
442.063	22.95
442.421	23.08
442.78	23.01
443.138	23.13
443.497	23.14
443.855	23.22
444.214	23.49
444.572	23.57
444.93	23.51
445.288	23.58
445.647	23.91
446.005	23.73
446.363	23.61
446.721	23.71
447.079	23.6
447.437	23.52
447.795	23.71
448.153	23.49
448.51	23.64
448.868	23.77
449.226	23.78
449.584	23.94
449.941	23.9
450.299	24.04
450.656	23.95
451.014	24.16
451.371	24.18
451.729	24.53
452.086	24.45
452.443	24.79
452.801	24.65
453.158	24.42
453.515	24.58
453.872	24.67
454.229	24.93
454.586	24.7
454.943	24.74
455.3	24.8
455.657	25.06
456.014	25.06
456.371	25.16
456.727	25.09
457.084	25.14
457.441	25.15
457.797	25.14
458.154	25.34
458.51	25.25
458.867	25.51
459.223	25.27
459.58	25.31
459.936	25.56
460.292	25.47
460.648	25.31
461.005	25.45
461.361	25.26
461.717	25.33
462.073	25.31
462.429	25.3
462.785	25.43
463.141	25.66
463.496	25.63
463.852	25.94
464.208	26.04
464.564	25.85
464.919	26.16
465.275	26.43
465.631	26.56
465.986	26.13
466.342	26.17
466.697	26.41
467.052	26.41
467.408	26.56
467.763	26.64
468.118	26.78
468.473	26.61
468.829	26.48
469.184	26.56
469.539	26.65
469.894	26.71
470.249	26.79
470.603	27.13
470.958	26.91
471.313	27
471.668	26.96
472.023	26.94
472.377	26.93
472.732	27.13
473.086	27.05
473.441	27.54
473.795	27.23
474.15	27.38
474.504	27.18
474.859	27.39
475.213	27.33
475.567	27.33
475.921	27.45
476.275	27.64
476.63	27.58
476.984	27.79
477.338	27.87
477.692	27.95
478.045	27.88
478.399	27.76
478.753	27.68
479.107	28.02
479.461	27.78
479.814	28.05
480.168	27.85
480.521	27.83
480.875	28.07
481.228	27.98
481.582	28.08
481.935	28.18
482.289	28.21
482.642	28.35
482.995	27.96
483.348	28.06
483.701	28.25
484.055	28.07
484.408	27.85
484.761	27.83
485.114	27.45
485.466	27.3
485.819	27.43
486.172	27.35
486.525	27.44
486.878	27.49
487.23	27.82
487.583	27.97
487.936	28.27
488.288	28.05
488.641	28.19
488.993	27.97
489.345	28.11
489.698	27.99
490.05	28.06
490.402	28.21
490.754	28.27
491.107	28.53
491.459	28.72
491.811	28.89
492.163	29.05
492.515	28.96
492.866	28.69
493.218	28.73
493.57	28.53
493.922	28.64
494.274	28.75
494.625	28.94
494.977	29.34
495.328	29.56
495.68	29.71
496.031	29.96
496.383	29.79
496.734	30.12
497.086	30.02
497.437	29.94
497.788	30.09
498.139	30.14
498.49	30.13
498.842	30.03
499.193	30.13
499.544	30.14
499.894	30.38
500.245	30.33
500.596	30.47
500.947	30.45
501.298	30.51
501.648	30.82
501.999	30.61
502.35	30.77
502.7	30.86
503.051	30.71
503.401	30.87
503.752	31.05
504.102	31.06
504.452	30.98
504.803	31.16
505.153	31.12
505.503	31.11
505.853	31.24
506.203	31.37
506.553	31.24
506.903	31.47
507.253	31.25
507.603	31.42
507.953	31.65
508.303	31.7
508.652	31.67
509.002	31.58
509.352	31.54
509.701	31.52
510.051	31.49
510.4	31.62
510.75	31.59
511.099	31.93
511.449	31.8
511.798	31.85
512.147	31.89
512.496	32.05
512.846	32.08
513.195	31.99
513.544	32.08
513.893	32.18
514.242	32.14
514.591	32.34
514.939	32
515.288	32.25
515.637	32.28
515.986	32.39
516.334	32.61
516.683	32.49
517.032	32.84
517.38	32.84
517.729	32.82
518.077	32.73
518.426	32.91
518.774	33.04
519.122	32.8
519.47	32.77
519.819	32.64
520.167	32.51
520.515	32.46
520.863	32.73
521.211	32.53
521.559	32.79
521.907	32.91
522.255	33.04
522.602	33.3
522.95	33.3
523.298	33.35
523.645	33.75
523.993	33.72
524.341	33.59
524.688	33.57
525.036	33.88
525.383	33.74
525.73	33.71
526.078	33.79
526.425	33.66
526.772	33.47
527.119	33.65
527.466	33.48
527.814	33.56
528.161	33.57
528.508	33.57
528.854	33.58
529.201	33.7
529.548	33.68
529.895	33.43
530.242	33.11
530.588	33.23
530.935	33.32
531.282	33.34
531.628	33.44
531.975	33.63
532.321	33.79
532.667	34.01
533.014	34.1
533.36	34.33
533.706	34.5
534.052	34.44
534.399	34.27
534.745	34.04
535.091	34.15
535.437	34.09
535.783	34.2
536.129	34.47
536.474	34.56
536.82	34.75
537.166	34.93
537.512	35.03
537.857	35.11
538.203	35.04
538.549	34.93
538.894	35.11
539.239	35.11
539.585	35.11
539.93	35.43
540.276	35.55
540.621	35.63
540.966	35.72
541.311	35.94
541.656	35.93
542.001	35.96
542.346	35.71
542.691	35.47
543.036	35.35
543.381	35.11
543.726	35.27
544.071	35.34
544.415	35.44
544.76	35.51
545.105	35.7
545.449	35.89
545.794	36.06
546.138	36.02
546.483	36.26
546.827	36.27
547.171	36.37
547.516	36.49
547.86	36.65
548.204	36.62
548.548	36.82
548.892	36.66
549.236	36.82
549.58	36.71
549.924	36.89
550.268	37.28
550.612	37.1
550.956	37.24
551.3	37.48
551.643	37.63
551.987	37.51
552.33	37.49
552.674	37.94
553.017	37.81
553.361	37.83
553.704	37.63
554.048	37.73
554.391	38.02
554.734	37.86
555.077	37.88
555.42	37.88
555.764	37.88
556.107	38.25
556.45	38.1
556.793	38.3
557.135	38.28
557.478	38.27
557.821	38.49
558.164	38.71
558.507	38.38
558.849	38.51
559.192	38.57
559.534	38.93
559.877	38.8
560.219	38.87
560.562	39.21
560.904	39.05
561.246	39.14
561.589	39.33
561.931	39.34
562.273	39.18
562.615	39.22
562.957	39.35
563.299	39.08
563.641	39.19
563.983	39.28
564.325	39.28
564.667	39.43
565.008	39.38
565.35	39.62
565.692	39.52
566.033	39.78
566.375	39.64
566.716	39.58
567.058	39.65
567.399	39.77
567.741	39.84
568.082	39.6
568.423	39.44
568.764	39.79
569.105	39.7
569.447	40.02
569.788	40.03
570.129	39.91
570.47	40
570.811	40.12
571.151	40.23
571.492	40.33
571.833	40.55
572.174	40.52
572.514	40.46
572.855	40.62
573.195	40.59
573.536	40.54
573.876	40.48
574.217	40.51
574.557	40.56
574.898	40.59
575.238	40.86
575.578	40.87
575.918	40.73
576.258	40.74
576.598	40.81
576.938	41.19
577.278	41.11
577.618	41.05
577.958	41.05
578.298	41.27
578.638	41.38
578.977	41.3
579.317	41.38
579.657	41.59
579.996	41.63
580.336	41.66
580.675	41.32
581.014	41.8
581.354	41.86
581.693	42.02
582.032	41.8
582.372	42.19
582.711	42.17
583.05	42.45
583.389	42.22
583.728	42.4
584.067	42.67
584.406	42.84
584.745	42.58
585.083	42.24
585.422	42.6
585.761	42.83
586.1	42.43
586.438	42.88
586.777	42.49
587.115	42.85
587.454	42.73
587.792	42.78
588.13	43.08
588.469	43.53
588.807	42.95
589.145	42.69
589.483	42.75
589.821	43.14
590.159	42.78
590.497	43.07
590.835	43.36
591.173	43.56
591.511	43.42
591.849	43.26
592.187	43.3
592.524	43.32
592.862	43.5
593.2	43.7
593.537	43.62
593.875	43.91
594.212	43.71
594.55	43.67
594.887	43.9
595.224	43.9
595.561	43.99
595.899	44.25
596.236	44.07
596.573	43.89
596.91	44.16
597.247	44.03
597.584	44.19
597.921	44.18
598.258	44.17
598.594	44.15
598.931	44.31
599.268	44.02
599.604	44.3
599.941	44.08
600.277	44.03
600.614	44.27
600.95	44.84
601.287	44.4
601.623	44.79
601.959	44.97
602.296	45.02
602.632	44.7
602.968	45.08
603.304	44.93
603.64	45.18
603.976	44.92
604.312	44.95
604.648	44.94
604.984	44.92
605.319	44.93
605.655	45.13
605.991	45.04
606.326	44.57
606.662	45.05
606.998	44.96
607.333	45.09
607.668	45.02
608.004	45.25
608.339	45.26
608.674	45.46
609.01	45.12
609.345	45.59
609.68	45.92
610.015	45.46
610.35	45.87
610.685	45.74
611.02	45.72
611.355	45.94
611.689	45.98
612.024	45.81
612.359	45.77
612.694	45.89
613.028	45.89
613.363	46.39
613.697	46.12
614.032	46.63
614.366	46.6
614.7	46.31
615.035	46.93
615.369	46.35
615.703	47.07
616.037	47.18
616.371	46.56
616.705	46.33
617.039	46.97
617.373	46.9
617.707	46.67
618.041	46.65
618.375	47.55
618.709	46.99
619.042	47.38
619.376	47.36
619.71	47.48
620.043	46.99
620.377	47.24
620.71	46.99
621.043	47.44
621.377	47.39
621.71	47.59
622.043	47.7
622.376	47.55
622.709	47.23
623.043	47.43
623.376	47.67
623.709	48.05
624.041	47.9
624.374	47.63
624.707	47.8
625.04	47.42
625.373	48
625.705	48.39
626.038	48.24
626.37	48.06
626.703	48.33
627.035	48.54
627.368	47.98
627.7	48.2
628.032	48.29
628.365	48.39
628.697	48.4
629.029	48.32
629.361	48.23
629.693	48.19
630.025	48.35
630.357	48.61
630.689	48.79
631.021	48.63
631.353	48.55
631.684	49.16
632.016	48.9
632.348	48.9
632.679	48.45
633.011	49.15
633.342	49.03
633.674	49.12
634.005	48.74
634.336	48.63
634.668	49.32
634.999	49.42
635.33	49.22
635.661	49.1
635.992	49.11
636.323	48.9
636.654	49.81
636.985	49.52
637.316	49.43
637.647	49.55
637.977	49.75
638.308	49.87
638.639	50.03
638.969	49.34
639.3	49.68
639.63	50.24
639.961	50.22
640.291	49.83
640.622	50.26
640.952	50.18
641.282	50.51
641.612	50.06
641.943	50.09
642.273	50.38
642.603	50.06
642.933	50.1
643.263	50.04
643.592	50.61
643.922	50.7
644.252	50.22
644.582	51.02
644.911	50.71
645.241	50.39
645.571	50.64
645.9	50.19
646.23	50.78
646.559	51.17
646.888	51.21
647.218	51.05
647.547	50.93
647.876	51.17
648.205	51.02
648.534	50.64
648.863	51.47
649.192	51.62
649.521	51.81
649.85	51.47
650.179	51.18
650.508	51.15
650.837	51.25
651.165	51.36
651.494	51.04
651.822	51.63
652.151	51.28
652.479	52.04
652.808	51.63
653.136	51.32
653.465	51.72
653.793	51.96
654.121	51.36
654.449	51.77
654.777	51.54
655.105	51.87
655.433	51.79
655.761	52.23
656.089	52.04
656.417	52.04
656.745	52.41
657.073	52.23
657.4	52.22
657.728	51.61
658.056	51.77
658.383	51.56
658.711	52.06
659.038	51.94
659.365	52.55
659.693	52.54
660.02	53.09
660.347	52.13
660.674	52.36
661.001	52.43
661.329	52.98
661.656	52.39
661.982	52.39
662.309	52.76
662.636	53.12
662.963	52.91
663.29	52.8
663.616	52.49
663.943	53.01
664.27	53.31
664.596	52.72
664.923	53.04
665.249	52.68
665.576	53.05
665.902	53.3
666.228	52.75
666.554	53.08
666.881	53.08
667.207	53.46
667.533	53.08
667.859	52.73
668.185	53.24
668.511	52.71
668.837	53.05
669.162	53.78
669.488	52.8
669.814	53.83
