Data from 433_chest_Reflection__3__110.txt Node

Date: Tue Dec 12 19:20:52 CST 2023
User: ToomeyLab
Spectrometer: FLMS14357
Trigger mode: 0
Integration Time (sec): 1.000000E-2
Scans to average: 100
Electric dark correction enabled: true
Nonlinearity correction enabled: false
Boxcar width: 0
XAxis mode: Wavelengths
Number of Pixels in Spectrum: 2048
>>>>>Begin Spectral Data<<<<<
189.047	146.89
189.435	146.89
189.823	146.89
190.211	453.1
190.599	-29.44
190.987	130.93
191.375	-64.55
191.763	-795.35
192.151	128.46
192.538	108.88
192.926	158.97
193.314	2.02
193.702	29.08
194.089	64.39
194.477	1224.56
194.864	132.93
195.252	147.15
195.639	76.19
196.027	56.12
196.414	15.96
196.801	-2428.57
197.189	44.01
197.576	-37.16
197.963	107.45
198.351	39.41
198.738	43.82
199.125	29.73
199.512	-46.98
199.899	21.89
200.286	12.02
200.673	-45.99
201.06	3.64
201.447	-70.01
201.833	90.49
202.22	-20.49
202.607	-45.84
202.994	-19.06
203.38	36.47
203.767	6.62
204.154	28.2
204.54	11.95
204.927	47.89
205.313	53.79
205.699	7.3
206.086	-3.11
206.472	44.07
206.858	1.61
207.245	47.42
207.631	14.86
208.017	-27.24
208.403	-13.61
208.789	-19.14
209.175	-28.13
209.561	32.04
209.947	-59.58
210.333	43.14
210.719	-6.22
211.105	-2.67
211.491	44.19
211.876	14.37
212.262	0.8
212.648	-14.8
213.034	-74.72
213.419	20.54
213.805	-8.48
214.19	43.03
214.576	8.98
214.961	31.34
215.346	-9.25
215.732	27.07
216.117	39.62
216.502	-24.59
216.888	-44.23
217.273	-2.46
217.658	6.26
218.043	-4.12
218.428	22.71
218.813	-0.66
219.198	-28.81
219.583	0.91
219.968	-15.48
220.353	-21.22
220.738	-8.55
221.122	2.91
221.507	-11.75
221.892	-19.52
222.276	12.06
222.661	-0.19
223.046	-18.04
223.43	9.32
223.815	-2.45
224.199	14.88
224.583	11.59
224.968	6.36
225.352	-9.42
225.736	3.32
226.121	2.57
226.505	1.52
226.889	1.46
227.273	1.41
227.657	11.23
228.041	3.25
228.425	5.13
228.809	0.94
229.193	4.03
229.577	8.43
229.961	5.31
230.344	7.31
230.728	5.93
231.112	6.32
231.495	5.5
231.879	6.95
232.263	5.26
232.646	4.39
233.03	6
233.413	5.12
233.797	6.2
234.18	2.82
234.563	5.27
234.946	6.13
235.33	9.41
235.713	4.74
236.096	4.21
236.479	6.62
236.862	5.92
237.245	5.23
237.628	4.05
238.011	7.22
238.394	4.51
238.777	5.71
239.16	6.1
239.543	6.02
239.925	5.63
240.308	5.13
240.691	5.31
241.073	7.7
241.456	4.68
241.838	4.75
242.221	5.83
242.603	6.92
242.986	5.01
243.368	6.55
243.75	5.6
244.133	5.54
244.515	5.9
244.897	6.03
245.279	6.24
245.661	5.72
246.043	5.04
246.425	5.72
246.807	5.52
247.189	5.65
247.571	5.84
247.953	5.01
248.335	5.7
248.717	5.43
249.098	5.54
249.48	5.45
249.862	5.38
250.243	5.05
250.625	6.02
251.006	5.68
251.388	5.14
251.769	5.56
252.151	4.67
252.532	5.87
252.913	4.9
253.295	5.68
253.676	4.35
254.057	5.14
254.438	5.84
254.819	4.94
255.2	5
255.581	5.02
255.962	5.02
256.343	6.74
256.724	5.81
257.105	6.6
257.486	4.04
257.867	5.61
258.247	3.98
258.628	5.48
259.009	4.48
259.389	5.72
259.77	3.89
260.15	4.58
260.531	5.39
260.911	5.45
261.292	4.82
261.672	4.84
262.052	4.95
262.432	5.03
262.813	5.57
263.193	5.65
263.573	4.94
263.953	6.25
264.333	5.77
264.713	4.97
265.093	4.66
265.473	5.19
265.853	3.93
266.233	3.87
266.612	3.59
266.992	4.77
267.372	5.32
267.752	5.33
268.131	4.01
268.511	4.45
268.89	4.23
269.27	4.52
269.649	4.91
270.029	4.84
270.408	4.85
270.787	4.56
271.167	5.08
271.546	4.97
271.925	5.16
272.304	5.89
272.683	4.29
273.062	4.45
273.441	5.51
273.82	4.31
274.199	4.72
274.578	4.85
274.957	4.81
275.336	4.67
275.715	5.43
276.093	4.02
276.472	4.37
276.851	4.82
277.229	4.33
277.608	5.26
277.986	4.4
278.365	4.72
278.743	4.63
279.122	4.69
279.5	4.3
279.878	4.33
280.257	4.77
280.635	4.93
281.013	4.77
281.391	4.99
281.769	4.05
282.147	5.36
282.525	4.02
282.903	4.34
283.281	4.3
283.659	4.8
284.037	4.97
284.415	4.99
284.792	4.79
285.17	4.57
285.548	4.39
285.925	4.59
286.303	4.31
286.68	5.14
287.058	4.78
287.435	4.24
287.813	4.54
288.19	5.02
288.567	4.79
288.945	4.46
289.322	3.8
289.699	4.54
290.076	4.41
290.453	4.45
290.83	4.32
291.207	4.87
291.584	4.52
291.961	4.57
292.338	5.01
292.715	4.65
293.092	3.97
293.469	4.41
293.845	4.74
294.222	4.82
294.599	4.77
294.975	3.89
295.352	4.93
295.728	4.68
296.105	5.1
296.481	4.91
296.858	4.45
297.234	5.12
297.61	4.95
297.986	5.03
298.363	5.32
298.739	4.88
299.115	4.33
299.491	4.33
299.867	4.61
300.243	4.53
300.619	4.42
300.995	4.42
301.371	4.59
301.746	4.88
302.122	5.61
302.498	4.42
302.874	4.78
303.249	5
303.625	4.16
304	5.02
304.376	4.81
304.751	4.54
305.127	5.15
305.502	4.98
305.878	4.88
306.253	4.53
306.628	4.41
307.003	4.85
307.378	4.54
307.754	4.68
308.129	4.42
308.504	5.41
308.879	4.27
309.254	4.4
309.629	4.68
310.003	4.71
310.378	5
310.753	4.93
311.128	5.16
311.502	4.8
311.877	4.53
312.252	4.32
312.626	5.05
313.001	4.47
313.375	4.54
313.75	4.66
314.124	5
314.498	5.35
314.873	4.49
315.247	5
315.621	4.53
315.995	4.53
316.369	4.73
316.743	4.51
317.117	4.25
317.491	4.28
317.865	5.17
318.239	4.74
318.613	4.95
318.987	4.37
319.361	4.23
319.734	4.67
320.108	5.09
320.482	4.34
320.855	4.4
321.229	4.92
321.602	4.99
321.976	4.83
322.349	5.28
322.723	4.62
323.096	4.94
323.469	4.93
323.843	5.32
324.216	5.02
324.589	5.11
324.962	5.35
325.335	4.93
325.708	5.14
326.081	4.74
326.454	4.22
326.827	5.38
327.2	4.83
327.573	4.94
327.945	4.98
328.318	5
328.691	4.06
329.063	4.91
329.436	5.36
329.809	5.56
330.181	4.41
330.553	5.08
330.926	5.42
331.298	5.03
331.671	4.57
332.043	4.71
332.415	5.28
332.787	4.6
333.159	4.89
333.532	4.82
333.904	4.77
334.276	5.77
334.648	4.67
335.02	4.4
335.391	4.07
335.763	4.69
336.135	5.12
336.507	5.48
336.879	4.36
337.25	4.7
337.622	4.09
337.993	4.5
338.365	4.25
338.736	4.8
339.108	4.44
339.479	5.07
339.851	4.8
340.222	4.28
340.593	4.67
340.964	4.42
341.336	5.14
341.707	4.85
342.078	4.23
342.449	4.53
342.82	4.89
343.191	5.33
343.562	4.92
343.933	4.72
344.303	4.19
344.674	4.96
345.045	4.91
345.416	4.95
345.786	4.81
346.157	4.58
346.527	5.07
346.898	4.61
347.268	4.95
347.639	4.92
348.009	4.22
348.38	4.68
348.75	4.71
349.12	5.04
349.49	4.23
349.861	4.94
350.231	4.91
350.601	4.62
350.971	4.92
351.341	4.51
351.711	5.25
352.081	5.01
352.45	4.48
352.82	4.9
353.19	4.88
353.56	4.72
353.929	4.91
354.299	4.62
354.669	4.31
355.038	4.58
355.408	4.27
355.777	5
356.147	4.92
356.516	5.16
356.885	5.16
357.254	5.19
357.624	4.73
357.993	4.94
358.362	5.19
358.731	5.03
359.1	4.4
359.469	4.47
359.838	4.71
360.207	4.56
360.576	5.15
360.945	4.74
361.314	5.01
361.682	4.91
362.051	5.16
362.42	5.19
362.788	4.86
363.157	5.19
363.525	5.03
363.894	4.64
364.262	4.9
364.631	4.61
364.999	4.97
365.367	5.14
365.735	4.84
366.104	4.87
366.472	4.59
366.84	4.79
367.208	4.86
367.576	4.91
367.944	4.87
368.312	5
368.68	4.76
369.048	5.19
369.416	5.2
369.783	4.93
370.151	5.42
370.519	4.98
370.886	4.85
371.254	4.6
371.621	4.92
371.989	4.9
372.356	4.8
372.724	5.04
373.091	4.9
373.458	4.88
373.826	4.69
374.193	4.7
374.56	5.24
374.927	4.98
375.294	4.82
375.661	5.26
376.028	5.1
376.395	5.47
376.762	5.5
377.129	5.07
377.496	5.3
377.863	5.31
378.229	5.2
378.596	4.67
378.963	5.4
379.329	4.88
379.696	4.85
380.062	5.21
380.429	5.23
380.795	5.28
381.161	5.3
381.528	5.44
381.894	5.25
382.26	5.2
382.626	4.91
382.993	5.38
383.359	5.01
383.725	5.64
384.091	5.19
384.457	4.71
384.823	5.24
385.188	5.28
385.554	5.13
385.92	5.16
386.286	5.29
386.651	5.24
387.017	5.51
387.383	5.13
387.748	4.93
388.114	5.14
388.479	5.41
388.845	4.82
389.21	5.3
389.575	4.97
389.94	4.98
390.306	5.45
390.671	5.1
391.036	5.08
391.401	5
391.766	5.13
392.131	5.39
392.496	5.11
392.861	5.21
393.226	5.36
393.591	5.16
393.956	5.21
394.32	5.44
394.685	5.14
395.05	5.06
395.414	5.21
395.779	5.04
396.143	5.26
396.508	5
396.872	5.11
397.236	5.18
397.601	5.16
397.965	5.46
398.329	5.22
398.694	5.07
399.058	5.16
399.422	5.11
399.786	5.25
400.15	5.02
400.514	5.46
400.878	5.31
401.242	5.18
401.605	5.63
401.969	5.35
402.333	5.15
402.697	5.25
403.06	5.04
403.424	5.25
403.787	4.92
404.151	5.58
404.514	5.01
404.878	5.14
405.241	5.24
405.604	5.16
405.968	5.31
406.331	5.52
406.694	5.61
407.057	5.13
407.42	5.18
407.783	5.2
408.146	5.17
408.509	5.16
408.872	5.46
409.235	5.22
409.598	5.43
409.961	5.46
410.323	5.18
410.686	5.32
411.049	5.41
411.411	5.45
411.774	5.45
412.136	5.47
412.499	5.27
412.861	5.48
413.223	5.83
413.586	5.22
413.948	5.6
414.31	5.39
414.672	5.47
415.035	5.39
415.397	5.38
415.759	5.35
416.121	5.01
416.483	5.38
416.845	5.28
417.206	5.46
417.568	5.31
417.93	5.5
418.292	5.22
418.653	5.49
419.015	5.32
419.377	5.4
419.738	5.35
420.1	5.37
420.461	5.34
420.822	5.4
421.184	5.34
421.545	5.49
421.906	5.32
422.267	5.32
422.629	5.36
422.99	5.31
423.351	5.32
423.712	5.3
424.073	5.23
424.434	5.4
424.795	5.42
425.155	5.32
425.516	5.33
425.877	5.32
426.238	5.27
426.598	5.26
426.959	5.12
427.32	5.37
427.68	5.32
428.041	5.35
428.401	5.38
428.761	5.45
429.122	5.37
429.482	5.6
429.842	5.6
430.202	5.46
430.563	5.63
430.923	5.42
431.283	5.6
431.643	5.66
432.003	5.37
432.363	5.67
432.722	5.33
433.082	5.3
433.442	5.52
433.802	5.64
434.161	5.53
434.521	5.5
434.881	5.49
435.24	5.4
435.6	5.57
435.959	5.54
436.319	5.47
436.678	5.39
437.037	5.71
437.396	5.45
437.756	5.39
438.115	5.57
438.474	5.6
438.833	5.53
439.192	5.7
439.551	5.49
439.91	5.55
440.269	5.56
440.628	5.44
440.987	5.34
441.345	5.61
441.704	5.46
442.063	5.58
442.421	5.55
442.78	5.54
443.138	5.48
443.497	5.77
443.855	5.53
444.214	5.53
444.572	5.64
444.93	5.57
445.288	5.52
445.647	5.72
446.005	5.57
446.363	5.38
446.721	5.55
447.079	5.62
447.437	5.37
447.795	5.54
448.153	5.6
448.51	5.52
448.868	5.52
449.226	5.6
449.584	5.57
449.941	5.56
450.299	5.63
450.656	5.58
451.014	5.66
451.371	5.6
451.729	5.69
452.086	5.58
452.443	5.71
452.801	5.7
453.158	5.59
453.515	5.66
453.872	5.74
454.229	5.71
454.586	5.56
454.943	5.59
455.3	5.62
455.657	5.71
456.014	5.75
456.371	5.59
456.727	5.7
457.084	5.62
457.441	5.61
457.797	5.65
458.154	5.73
458.51	5.57
458.867	5.71
459.223	5.75
459.58	5.89
459.936	5.7
460.292	5.72
460.648	5.86
461.005	5.69
461.361	5.65
461.717	5.73
462.073	5.69
462.429	5.67
462.785	5.65
463.141	5.67
463.496	5.8
463.852	5.92
464.208	5.92
464.564	5.66
464.919	5.88
465.275	5.98
465.631	5.93
465.986	5.6
466.342	5.66
466.697	5.97
467.052	5.82
467.408	5.7
467.763	5.82
468.118	5.88
468.473	5.96
468.829	5.96
469.184	5.68
469.539	5.91
469.894	5.89
470.249	5.93
470.603	5.88
470.958	5.82
471.313	6.01
471.668	5.93
472.023	5.96
472.377	5.72
472.732	5.88
473.086	5.97
473.441	6.06
473.795	5.9
474.15	5.82
474.504	5.69
474.859	5.99
475.213	5.87
475.567	5.79
475.921	5.95
476.275	5.89
476.63	5.86
476.984	5.92
477.338	5.87
477.692	6.12
478.045	5.96
478.399	5.93
478.753	5.93
479.107	6.15
479.461	6.04
479.814	5.92
480.168	5.93
480.521	5.9
480.875	5.97
481.228	5.92
481.582	6.04
481.935	6.06
482.289	6.07
482.642	6.07
482.995	5.92
483.348	5.9
483.701	6
484.055	5.95
484.408	5.87
484.761	5.94
485.114	5.76
485.466	5.7
485.819	5.62
486.172	5.6
486.525	5.67
486.878	5.65
487.23	5.75
487.583	5.87
487.936	5.87
488.288	5.83
488.641	5.77
488.993	5.77
489.345	5.77
489.698	5.74
490.05	5.78
490.402	5.83
490.754	5.86
491.107	5.9
491.459	5.92
491.811	6
492.163	5.87
492.515	6.1
492.866	5.85
493.218	5.91
493.57	5.83
493.922	5.76
494.274	5.9
494.625	6.01
494.977	6.11
495.328	6.11
495.68	6.03
496.031	6.21
496.383	6.14
496.734	6.23
497.086	6.09
497.437	6.1
497.788	6.11
498.139	6.08
498.49	6.36
498.842	6.13
499.193	6.25
499.544	6.29
499.894	6.16
500.245	6.24
500.596	6.28
500.947	6.13
501.298	6.18
501.648	6.32
501.999	6.22
502.35	6.24
502.7	6.24
503.051	6.22
503.401	6.24
503.752	6.44
504.102	6.17
504.452	6.49
504.803	6.35
505.153	6.31
505.503	6.38
505.853	6.41
506.203	6.33
506.553	6.35
506.903	6.48
507.253	6.42
507.603	6.54
507.953	6.32
508.303	6.44
508.652	6.4
509.002	6.49
509.352	6.44
509.701	6.43
510.051	6.39
510.4	6.43
510.75	6.42
511.099	6.33
511.449	6.53
511.798	6.46
512.147	6.47
512.496	6.51
512.846	6.47
513.195	6.4
513.544	6.47
513.893	6.55
514.242	6.39
514.591	6.4
514.939	6.68
515.288	6.52
515.637	6.47
515.986	6.6
516.334	6.69
516.683	6.57
517.032	6.57
517.38	6.49
517.729	6.56
518.077	6.59
518.426	6.68
518.774	6.67
519.122	6.7
519.47	6.48
519.819	6.62
520.167	6.53
520.515	6.55
520.863	6.75
521.211	6.51
521.559	6.68
521.907	6.63
522.255	6.67
522.602	6.81
522.95	6.78
523.298	6.69
523.645	6.87
523.993	6.86
524.341	6.83
524.688	6.7
525.036	6.86
525.383	6.83
525.73	6.62
526.078	6.83
526.425	6.85
526.772	6.79
527.119	6.76
527.466	6.72
527.814	6.7
528.161	6.82
528.508	6.7
528.854	6.74
529.201	6.74
529.548	6.76
529.895	6.69
530.242	6.58
530.588	6.56
530.935	6.62
531.282	6.65
531.628	6.7
531.975	6.71
532.321	6.77
532.667	6.69
533.014	6.9
533.36	6.92
533.706	6.92
534.052	6.94
534.399	6.94
534.745	6.84
535.091	6.8
535.437	6.85
535.783	6.86
536.129	7.03
536.474	7.01
536.82	7.07
537.166	7.13
537.512	7.05
537.857	7.19
538.203	7.14
538.549	7.04
538.894	7.04
539.239	7.11
539.585	7.06
539.93	7.27
540.276	7.19
540.621	7.21
540.966	7.26
541.311	7.3
541.656	7.31
542.001	7.28
542.346	7.22
542.691	7.15
543.036	7.07
543.381	7.04
543.726	7.12
544.071	7.12
544.415	7.18
544.76	7.18
545.105	7.27
545.449	7.39
545.794	7.46
546.138	7.33
546.483	7.45
546.827	7.45
547.171	7.47
547.516	7.38
547.86	7.57
548.204	7.52
548.548	7.61
548.892	7.6
549.236	7.57
549.58	7.66
549.924	7.72
550.268	7.7
550.612	7.46
550.956	7.66
551.3	7.91
551.643	7.79
551.987	7.85
552.33	7.9
552.674	7.97
553.017	7.95
553.361	8.17
553.704	7.71
554.048	8.05
554.391	7.93
554.734	7.83
555.077	8.15
555.42	7.84
555.764	7.89
556.107	8.01
556.45	7.86
556.793	7.87
557.135	8.02
557.478	8.25
557.821	8.07
558.164	8.28
558.507	8.26
558.849	8.3
559.192	8
559.534	8.46
559.877	8.34
560.219	8.31
560.562	8.16
560.904	8.27
561.246	8.35
561.589	8.41
561.931	8.15
562.273	8.39
562.615	8.51
562.957	8.36
563.299	8.5
563.641	8.6
563.983	8.47
564.325	8.51
564.667	8.44
565.008	8.38
565.35	8.49
565.692	8.58
566.033	8.68
566.375	8.53
566.716	8.59
567.058	8.76
567.399	8.66
567.741	8.67
568.082	8.57
568.423	8.68
568.764	8.67
569.105	8.59
569.447	8.87
569.788	8.77
570.129	8.69
570.47	8.75
570.811	8.86
571.151	9.06
571.492	8.99
571.833	8.85
572.174	8.86
572.514	8.93
572.855	8.88
573.195	9.11
573.536	8.82
573.876	8.99
574.217	9.07
574.557	8.77
574.898	8.99
575.238	9.33
575.578	9.15
575.918	9.16
576.258	9.21
576.598	9.34
576.938	9.36
577.278	9.06
577.618	9.38
577.958	9.21
578.298	9.47
578.638	9.17
578.977	9.27
579.317	9.23
579.657	9.51
579.996	9.39
580.336	9.35
580.675	9.31
581.014	9.55
581.354	9.58
581.693	9.66
582.032	9.5
582.372	9.73
582.711	9.59
583.05	9.65
583.389	9.64
583.728	9.77
584.067	9.77
584.406	9.74
584.745	10.12
585.083	9.68
585.422	9.93
585.761	10.06
586.1	9.71
586.438	10.04
586.777	10.03
587.115	9.79
587.454	10.22
587.792	9.79
588.13	10.13
588.469	9.93
588.807	10.08
589.145	9.93
589.483	10.32
589.821	10.42
590.159	10.04
590.497	10.33
590.835	10.22
591.173	10.32
591.511	10.19
591.849	10.1
592.187	10.42
592.524	10.2
592.862	10.34
593.2	10.17
593.537	9.99
593.875	10.34
594.212	10.41
594.55	10.68
594.887	10.65
595.224	10.5
595.561	10.63
595.899	10.31
596.236	10.55
596.573	10.58
596.91	10.99
597.247	10.73
597.584	10.74
597.921	10.74
598.258	10.67
598.594	10.85
598.931	10.7
599.268	10.67
599.604	10.59
599.941	10.7
600.277	10.95
600.614	10.93
600.95	10.9
601.287	10.92
601.623	11.08
601.959	11.2
602.296	11.22
602.632	10.83
602.968	11.28
603.304	10.92
603.64	11.4
603.976	11.12
604.312	11
604.648	11.31
604.984	11.15
605.319	11.23
605.655	11.19
605.991	11.2
606.326	11.16
606.662	11.45
606.998	11.14
607.333	11.22
607.668	11.39
608.004	11.47
608.339	11.45
608.674	11.39
609.01	11.36
609.345	11.62
609.68	11.75
610.015	11.53
610.35	11.81
610.685	11.81
611.02	11.44
611.355	11.79
611.689	11.71
612.024	11.46
612.359	11.62
612.694	11.62
613.028	11.75
613.363	11.72
613.697	12.04
614.032	12.12
614.366	12.17
614.7	11.95
615.035	11.98
615.369	12.02
615.703	12.07
616.037	12.08
616.371	11.82
616.705	12.06
617.039	12.51
617.373	12.4
617.707	11.99
618.041	12.18
618.375	12.32
618.709	12.03
619.042	12.12
619.376	11.96
619.71	12.28
620.043	12.54
620.377	12.56
620.71	12.33
621.043	12.22
621.377	12.1
621.71	12.51
622.043	12.59
622.376	12.71
622.709	12.95
623.043	12.77
623.376	12.89
623.709	12.63
624.041	12.88
624.374	12.62
624.707	12.66
625.04	12.51
625.373	13.48
625.705	12.98
626.038	13.1
626.37	12.99
626.703	13.02
627.035	13.16
627.368	13.26
627.7	13.05
628.032	12.97
628.365	12.99
628.697	13.25
629.029	12.7
629.361	12.68
629.693	12.77
630.025	12.91
630.357	13.15
630.689	12.98
631.021	13.49
631.353	13.55
631.684	13.27
632.016	12.9
632.348	13.47
632.679	13.11
633.011	13.59
633.342	13.46
633.674	13.52
634.005	13.51
634.336	13.67
634.668	13.33
634.999	13.62
635.33	13.74
635.661	14
635.992	13.7
636.323	13.32
636.654	13.79
636.985	13.54
637.316	13.85
637.647	13.61
637.977	13.9
638.308	13.9
638.639	14.24
638.969	13.82
639.3	13.78
639.63	14.29
639.961	13.98
640.291	13.79
640.622	14.11
640.952	14.35
641.282	13.94
641.612	13.84
641.943	14.29
642.273	14.14
642.603	14.22
642.933	14.11
643.263	14.2
643.592	14.45
643.922	14.12
644.252	14.4
644.582	13.95
644.911	14.06
645.241	13.78
645.571	14.73
645.9	13.98
646.23	14.08
646.559	14.4
646.888	14.4
647.218	14.39
647.547	14.5
647.876	14.79
648.205	14.49
648.534	14.83
648.863	14.4
649.192	14.66
649.521	15.25
649.85	14.59
650.179	15.18
650.508	14.48
650.837	14.7
651.165	14.46
651.494	14.76
651.822	15.21
652.151	14.58
652.479	14.58
652.808	14.94
653.136	15.09
653.465	14.88
653.793	15.1
654.121	14.79
654.449	15.29
654.777	15.21
655.105	15.55
655.433	15.33
655.761	15.27
656.089	15.31
656.417	15.7
656.745	15.69
657.073	15.13
657.4	15.14
657.728	14.57
658.056	15.57
658.383	14.91
658.711	15.2
659.038	15.19
659.365	15.7
659.693	15.41
660.02	15.46
660.347	15.65
660.674	15.47
661.001	15.8
661.329	15.72
661.656	15.44
661.982	15.83
662.309	15.94
662.636	16.04
662.963	15.97
663.29	16.26
663.616	14.99
663.943	16.16
664.27	16.21
664.596	16
664.923	16.38
665.249	15.88
665.576	16.33
665.902	15.6
666.228	16.45
666.554	15.94
666.881	15.55
667.207	16.32
667.533	15.65
667.859	15.65
668.185	16.33
668.511	15.88
668.837	16.04
669.162	17.26
669.488	15.7
669.814	16.53
670.139	16.32
670.465	15.71
670.791	16.25
671.116	16.12
671.442	16.54
671.767	16.47
672.092	16.84
672.418	16.54
672.743	17
673.068	16.03
673.393	16.38
673.718	16.98
674.043	16.93
674.368	16.17
674.693	15.92
675.018	16.05
675.343	17.23
675.667	16.84
675.992	16.51
676.317	16.27
676.641	16.99
676.966	16.79
677.29	16.52
677.615	15.86
677.939	16.72
678.264	17.49
678.588	16.91
678.912	16.96
679.236	16.83
679.56	17.58
679.885	17.38
680.209	17.47
680.532	17.19
680.856	17.44
681.18	16.73
681.504	17.78
681.828	17.63
682.152	17.23
682.475	16.89
682.799	17.5
683.122	17.5
683.446	17.58
683.769	17.91
684.093	17.04
684.416	16.79
684.739	17.22
685.062	17.18
685.386	17.37
685.709	18.03
686.032	17.13
