Data from 0264_forehead_Reflection__4__167.txt Node

Date: Fri Oct 20 21:56:56 CDT 2023
User: ToomeyLab
Spectrometer: FLMS14357
Trigger mode: 0
Integration Time (sec): 1.000000E-2
Scans to average: 100
Electric dark correction enabled: true
Nonlinearity correction enabled: false
Boxcar width: 0
XAxis mode: Wavelengths
Number of Pixels in Spectrum: 2048
>>>>>Begin Spectral Data<<<<<
189.047	-516.04
189.435	-516.04
189.823	-516.04
190.211	77.91
190.599	-281.85
190.987	39.07
191.375	160.86
191.763	100.9
192.151	17.03
192.538	116.01
192.926	-50.64
193.314	100.24
193.702	149.13
194.089	147.68
194.477	-683.75
194.864	-180.68
195.252	197.97
195.639	-416.07
196.027	501.42
196.414	221.37
196.801	82.84
197.189	-9.66
197.576	313.38
197.963	1460.42
198.351	38.77
198.738	26.15
199.125	39.94
199.512	39.13
199.899	30.5
200.286	49.13
200.673	63.36
201.06	17.8
201.447	51.78
201.833	34.25
202.22	63.54
202.607	45.83
202.994	48.25
203.38	35.14
203.767	61.19
204.154	64.25
204.54	35.94
204.927	58.78
205.313	10.45
205.699	60.06
206.086	45.68
206.472	59.46
206.858	98.87
207.245	41.04
207.631	70
208.017	43.86
208.403	44.74
208.789	45.97
209.175	34.84
209.561	33.67
209.947	54.04
210.333	24.9
210.719	21.11
211.105	74.31
211.491	49.41
211.876	4.54
212.262	22.61
212.648	26.59
213.034	13.69
213.419	21.28
213.805	27.99
214.19	51.07
214.576	0.86
214.961	42.59
215.346	19.56
215.732	29.97
216.117	1.48
216.502	29.47
216.888	33.47
217.273	26.14
217.658	26.82
218.043	20.97
218.428	36.45
218.813	19.74
219.198	3.51
219.583	14.6
219.968	4.39
220.353	20.18
220.738	37.86
221.122	15.67
221.507	8.46
221.892	5.11
222.276	26.25
222.661	26.59
223.046	17.16
223.43	20.3
223.815	15.85
224.199	19.01
224.583	-2.36
224.968	4.59
225.352	4.31
225.736	9.73
226.121	4.26
226.505	4.96
226.889	9.54
227.273	8.52
227.657	10.63
228.041	9.84
228.425	7.89
228.809	7.89
229.193	4.52
229.577	7.42
229.961	3.48
230.344	4.4
230.728	3.79
231.112	5.06
231.495	4.28
231.879	5.21
232.263	4.34
232.646	3.77
233.03	3.26
233.413	4.52
233.797	5.01
234.18	7.18
234.563	6.71
234.946	6.8
235.33	5.55
235.713	4.54
236.096	5.71
236.479	4.86
236.862	5.54
237.245	4.15
237.628	5.09
238.011	6.52
238.394	5.78
238.777	7.07
239.16	4.45
239.543	6.53
239.925	6.13
240.308	3.84
240.691	4.86
241.073	5.93
241.456	5.14
241.838	4.67
242.221	5.45
242.603	4.68
242.986	5.26
243.368	4.79
243.75	4.07
244.133	4.39
244.515	3.89
244.897	3.88
245.279	5.05
245.661	4.48
246.043	4.34
246.425	4.33
246.807	5.15
247.189	6.44
247.571	4.38
247.953	4.68
248.335	4.84
248.717	4.27
249.098	3.97
249.48	4.38
249.862	4.46
250.243	4.55
250.625	4.36
251.006	4.62
251.388	5.16
251.769	4.88
252.151	4.95
252.532	5.72
252.913	4.82
253.295	3.33
253.676	4.62
254.057	4.3
254.438	4.77
254.819	4.41
255.2	3.86
255.581	4.14
255.962	4.59
256.343	5.29
256.724	4.1
257.105	5.13
257.486	4.19
257.867	4.63
258.247	5.22
258.628	4.43
259.009	5.32
259.389	3.99
259.77	4.24
260.15	5.28
260.531	5.07
260.911	4.9
261.292	4.32
261.672	4.73
262.052	4.49
262.432	4.29
262.813	4.23
263.193	4.75
263.573	4.48
263.953	5.01
264.333	4.54
264.713	4.95
265.093	5.16
265.473	5.13
265.853	4.61
266.233	4.95
266.612	5.18
266.992	4.56
267.372	4.81
267.752	4.76
268.131	4.89
268.511	4.51
268.89	4.7
269.27	3.96
269.649	3.91
270.029	4.23
270.408	4.72
270.787	4.81
271.167	4.41
271.546	4.89
271.925	5.04
272.304	4.53
272.683	4.56
273.062	4.19
273.441	4.64
273.82	4.49
274.199	5.08
274.578	4.81
274.957	4.52
275.336	4.96
275.715	4.73
276.093	4.2
276.472	4.81
276.851	4.68
277.229	4.79
277.608	4.1
277.986	4.22
278.365	4.81
278.743	4.03
279.122	4.72
279.5	5.31
279.878	4.27
280.257	4.66
280.635	4.73
281.013	4.92
281.391	4.73
281.769	4.43
282.147	4.58
282.525	4.65
282.903	4.58
283.281	4.82
283.659	4.21
284.037	4.53
284.415	4.15
284.792	4.37
285.17	4.7
285.548	4.48
285.925	4.72
286.303	4.22
286.68	4.71
287.058	5.3
287.435	5.08
287.813	4.32
288.19	4.48
288.567	4.37
288.945	4.73
289.322	5.31
289.699	4.62
290.076	5.31
290.453	4.58
290.83	4.57
291.207	5.26
291.584	5
291.961	5.02
292.338	4.46
292.715	5.22
293.092	4.9
293.469	5.18
293.845	4.63
294.222	4.69
294.599	4.84
294.975	5.5
295.352	5.26
295.728	5.57
296.105	5.3
296.481	5.31
296.858	5.54
297.234	5.91
297.61	4.98
297.986	5.55
298.363	5.48
298.739	5.61
299.115	5.4
299.491	5.59
299.867	5.42
300.243	5.37
300.619	5.5
300.995	5.46
301.371	6.04
301.746	5.76
302.122	6.31
302.498	5.8
302.874	6.07
303.249	6.32
303.625	6.24
304	6.83
304.376	6.05
304.751	5.97
305.127	6.15
305.502	7.31
305.878	6.91
306.253	6.52
306.628	6.53
307.003	6.6
307.378	6.54
307.754	6.34
308.129	7.17
308.504	7.6
308.879	7.08
309.254	7.53
309.629	6.75
310.003	6.77
310.378	7.27
310.753	7.25
311.128	7.3
311.502	7.3
311.877	7.35
312.252	7.29
312.626	7.56
313.001	7.44
313.375	7.41
313.75	7.43
314.124	7.62
314.498	7.69
314.873	7.32
315.247	8.04
315.621	8.04
315.995	7.93
316.369	7.64
316.743	8.29
317.117	8.09
317.491	7.64
317.865	8.31
318.239	8.64
318.613	8.22
318.987	8.27
319.361	7.42
319.734	8.15
320.108	8.63
320.482	9.03
320.855	9.04
321.229	8.86
321.602	8.94
321.976	8.87
322.349	9.13
322.723	8.53
323.096	9.28
323.469	8.86
323.843	9.48
324.216	8.93
324.589	9.29
324.962	9.69
325.335	9.47
325.708	9.27
326.081	9.38
326.454	9.14
326.827	9.44
327.2	9.59
327.573	9.44
327.945	9.27
328.318	9.39
328.691	9.85
329.063	9.81
329.436	9.46
329.809	10.37
330.181	10.04
330.553	10.1
330.926	10.13
331.298	9.66
331.671	9.96
332.043	10.24
332.415	9.76
332.787	10.12
333.159	10.42
333.532	10.49
333.904	10.35
334.276	10.37
334.648	10.51
335.02	11.02
335.391	9.72
335.763	10.45
336.135	10.46
336.507	10.5
336.879	10.69
337.25	10.55
337.622	11.01
337.993	11.12
338.365	10.63
338.736	10.77
339.108	11.19
339.479	10.76
339.851	11.13
340.222	10.8
340.593	10.62
340.964	10.5
341.336	10.9
341.707	11.05
342.078	11.41
342.449	11.41
342.82	10.99
343.191	11.19
343.562	11.31
343.933	11.19
344.303	11.23
344.674	11.54
345.045	11.64
345.416	11.74
345.786	11.51
346.157	11.73
346.527	11.45
346.898	11.52
347.268	11.39
347.639	11.74
348.009	11.38
348.38	12.22
348.75	11.79
349.12	12
349.49	11.85
349.861	12.26
350.231	11.88
350.601	12.06
350.971	12.51
351.341	11.98
351.711	12.56
352.081	12.13
352.45	12.02
352.82	12.44
353.19	12.34
353.56	12.24
353.929	11.94
354.299	12.38
354.669	12.23
355.038	12.48
355.408	12.45
355.777	12.62
356.147	12.4
356.516	12.06
356.885	12.9
357.254	12.74
357.624	12.74
357.993	12.62
358.362	12.64
358.731	12.95
359.1	12.32
359.469	12.66
359.838	12.64
360.207	12.72
360.576	13.06
360.945	12.72
361.314	12.42
361.682	12.53
362.051	12.86
362.42	12.87
362.788	12.82
363.157	12.68
363.525	12.88
363.894	12.93
364.262	12.93
364.631	13.03
364.999	13.11
365.367	13.2
365.735	12.91
366.104	13.01
366.472	13.33
366.84	13.58
367.208	13.38
367.576	13.67
367.944	13.59
368.312	13.36
368.68	13.44
369.048	13.56
369.416	13.42
369.783	13.87
370.151	13.61
370.519	13.4
370.886	13.76
371.254	14
371.621	14.02
371.989	13.76
372.356	14.06
372.724	14.38
373.091	14.06
373.458	13.77
373.826	14.04
374.193	14
374.56	14.3
374.927	14.33
375.294	14.18
375.661	14.42
376.028	14.08
376.395	14.46
376.762	14.43
377.129	14.6
377.496	14.55
377.863	14.79
378.229	14.72
378.596	14.59
378.963	14.99
379.329	14.79
379.696	14.71
380.062	14.35
380.429	14.35
380.795	14.44
381.161	14.81
381.528	14.86
381.894	14.92
382.26	14.92
382.626	15.27
382.993	15.16
383.359	15.02
383.725	14.96
384.091	14.96
384.457	14.85
384.823	15.1
385.188	15.28
385.554	15.21
385.92	14.94
386.286	15.17
386.651	15.06
387.017	15.5
387.383	15.39
387.748	15.2
388.114	15.33
388.479	15.52
388.845	15.68
389.21	15.51
389.575	15.35
389.94	15.58
390.306	15.53
390.671	15.73
391.036	15.71
391.401	15.89
391.766	15.8
392.131	15.79
392.496	15.87
392.861	15.65
393.226	15.73
393.591	15.9
393.956	15.9
394.32	16.15
394.685	15.94
395.05	16.43
395.414	16.42
395.779	15.81
396.143	16.06
396.508	16
396.872	16.23
397.236	16.25
397.601	16.23
397.965	16.29
398.329	16.19
398.694	16.44
399.058	16.4
399.422	16.47
399.786	16.55
400.15	16.32
400.514	16.36
400.878	16.73
401.242	16.56
401.605	16.56
401.969	16.44
402.333	16.8
402.697	16.85
403.06	16.7
403.424	16.92
403.787	16.86
404.151	17.02
404.514	16.96
404.878	17.18
405.241	16.98
405.604	16.99
405.968	17.17
406.331	16.92
406.694	17.09
407.057	17.25
407.42	17.27
407.783	17.3
408.146	17.11
408.509	17.32
408.872	17.63
409.235	17.4
409.598	17.39
409.961	17.57
410.323	17.73
410.686	17.19
411.049	17.54
411.411	17.52
411.774	17.76
412.136	17.73
412.499	17.55
412.861	17.72
413.223	17.83
413.586	17.88
413.948	17.89
414.31	17.94
414.672	18.08
415.035	17.87
415.397	18.22
415.759	18.09
416.121	18.15
416.483	18.05
416.845	18.19
417.206	18.27
417.568	18.21
417.93	18.08
418.292	18.06
418.653	18.22
419.015	18.09
419.377	18.28
419.738	18.09
420.1	18.06
420.461	18.27
420.822	18.17
421.184	18.2
421.545	18.23
421.906	18.21
422.267	18.34
422.629	18.33
422.99	18.13
423.351	18.12
423.712	18.11
424.073	18.24
424.434	18.28
424.795	18.42
425.155	18.56
425.516	18.45
425.877	18.39
426.238	18.46
426.598	18.39
426.959	18.46
427.32	18.68
427.68	18.75
428.041	18.79
428.401	18.82
428.761	19.02
429.122	18.94
429.482	19.11
429.842	19.19
430.202	19.35
430.563	19.36
430.923	19.44
431.283	19.26
431.643	19.43
432.003	19.58
432.363	19.4
432.722	19.59
433.082	19.63
433.442	19.47
433.802	19.83
434.161	19.48
434.521	19.63
434.881	19.66
435.24	19.54
435.6	19.53
435.959	19.7
436.319	19.71
436.678	19.95
437.037	19.82
437.396	19.96
437.756	20.07
438.115	19.95
438.474	20.06
438.833	20.12
439.192	19.98
439.551	20.04
439.91	20.31
440.269	20.17
440.628	20.16
440.987	20.36
441.345	20.18
441.704	20.4
442.063	20.31
442.421	20.28
442.78	20.1
443.138	20.32
443.497	20.31
443.855	20.37
444.214	20.49
444.572	20.57
444.93	20.58
445.288	20.82
445.647	20.76
446.005	20.69
446.363	20.75
446.721	20.77
447.079	20.88
447.437	20.8
447.795	20.56
448.153	20.8
448.51	20.71
448.868	20.62
449.226	20.69
449.584	20.66
449.941	20.86
450.299	21
450.656	21
451.014	21.15
451.371	21.26
451.729	21.16
452.086	21.38
452.443	21.48
452.801	21.54
453.158	21.66
453.515	21.62
453.872	21.74
454.229	21.76
454.586	21.73
454.943	21.7
455.3	21.66
455.657	21.88
456.014	21.86
456.371	21.92
456.727	22.15
457.084	22.02
457.441	21.89
457.797	21.99
458.154	22.12
458.51	22.32
458.867	22.27
459.223	22.27
459.58	22.26
459.936	22.66
460.292	22.25
460.648	22.18
461.005	22.2
461.361	22.28
461.717	21.93
462.073	22.14
462.429	22.18
462.785	22.2
463.141	22.35
463.496	22.6
463.852	22.58
464.208	22.83
464.564	22.96
464.919	22.97
465.275	23.1
465.631	23.07
465.986	23.18
466.342	23.26
466.697	23.09
467.052	23.12
467.408	23.11
467.763	23.33
468.118	23.43
468.473	23.24
468.829	23.35
469.184	23.34
469.539	23.55
469.894	23.5
470.249	23.7
470.603	23.49
470.958	23.75
471.313	23.61
471.668	23.71
472.023	23.82
472.377	23.84
472.732	23.92
473.086	24.01
473.441	23.97
473.795	24.07
474.15	23.92
474.504	23.96
474.859	23.99
475.213	23.91
475.567	24.25
475.921	24.09
476.275	24.22
476.63	24.44
476.984	24.41
477.338	24.43
477.692	24.48
478.045	24.23
478.399	24.22
478.753	24.35
479.107	24.61
479.461	24.61
479.814	24.54
480.168	24.63
480.521	24.75
480.875	24.63
481.228	24.7
481.582	24.83
481.935	24.74
482.289	24.98
482.642	24.82
482.995	24.76
483.348	24.94
483.701	24.74
484.055	24.76
484.408	24.65
484.761	24.54
485.114	24.38
485.466	24.08
485.819	23.97
486.172	23.9
486.525	24.1
486.878	24.17
487.23	24.39
487.583	24.53
487.936	24.7
488.288	24.81
488.641	24.9
488.993	24.69
489.345	24.56
489.698	24.58
490.05	24.65
490.402	24.74
490.754	24.8
491.107	24.96
491.459	25.23
491.811	25.34
492.163	25.36
492.515	25.49
492.866	25.53
493.218	25.26
493.57	25.15
493.922	25.13
494.274	25.3
494.625	25.34
494.977	25.6
495.328	25.78
495.68	25.99
496.031	26.12
496.383	26.43
496.734	26.6
497.086	26.55
497.437	26.64
497.788	26.4
498.139	26.75
498.49	26.6
498.842	26.4
499.193	26.43
499.544	26.64
499.894	26.66
500.245	26.76
500.596	26.79
500.947	26.95
501.298	26.72
501.648	27
501.999	27.09
502.35	27.18
502.7	27.36
503.051	27.41
503.401	27.32
503.752	27.5
504.102	27.55
504.452	27.4
504.803	27.64
505.153	27.71
505.503	27.61
505.853	27.8
506.203	27.6
506.553	27.71
506.903	27.86
507.253	28.07
507.603	27.97
507.953	27.87
508.303	27.86
508.652	28.05
509.002	28.15
509.352	28.19
509.701	28.08
510.051	28.01
510.4	28.2
510.75	28.13
511.099	28.16
511.449	28.1
511.798	28.25
512.147	28.4
512.496	28.49
512.846	28.34
513.195	28.48
513.544	28.46
513.893	28.48
514.242	28.58
514.591	28.64
514.939	28.52
515.288	28.6
515.637	28.99
515.986	28.89
516.334	29.13
516.683	29.07
517.032	29.03
517.38	29.02
517.729	29.31
518.077	29.46
518.426	29.36
518.774	29.1
519.122	29.37
519.47	29.33
519.819	29.22
520.167	29.14
520.515	29.17
520.863	29.08
521.211	29.28
521.559	29.3
521.907	29.28
522.255	29.47
522.602	29.65
522.95	29.76
523.298	29.76
523.645	30.02
523.993	29.99
524.341	30.04
524.688	30.14
525.036	30.25
525.383	30.13
525.73	30.5
526.078	30.23
526.425	30.33
526.772	30.23
527.119	30.26
527.466	30.08
527.814	29.88
528.161	30.07
528.508	30.05
528.854	30.13
529.201	30.15
529.548	30.3
529.895	30.14
530.242	29.86
530.588	29.65
530.935	29.87
531.282	29.96
531.628	30.01
531.975	30.06
532.321	30.19
532.667	30.57
533.014	30.56
533.36	30.83
533.706	30.93
534.052	31.01
534.399	30.88
534.745	30.86
535.091	30.73
535.437	30.66
535.783	30.76
536.129	31.01
536.474	31.12
536.82	31.38
537.166	31.29
537.512	31.59
537.857	31.56
538.203	31.58
538.549	31.55
538.894	31.49
539.239	31.75
539.585	31.66
539.93	31.92
540.276	32.1
540.621	32.29
540.966	32.24
541.311	32.38
541.656	32.29
542.001	32.6
542.346	32.5
542.691	32.16
543.036	31.93
543.381	31.74
543.726	31.81
544.071	31.89
544.415	32.05
544.76	32.16
545.105	32.34
545.449	32.31
545.794	32.56
546.138	32.52
546.483	32.85
546.827	32.88
547.171	33.31
547.516	33.2
547.86	33.09
548.204	33.23
548.548	33.19
548.892	33.32
549.236	33.28
549.58	33.62
549.924	33.53
550.268	33.77
550.612	33.72
550.956	33.98
551.3	34.07
551.643	34.31
551.987	34.44
552.33	34.52
552.674	34.44
553.017	34.61
553.361	34.75
553.704	34.81
554.048	34.79
554.391	34.61
554.734	34.62
555.077	34.51
555.42	34.58
555.764	34.75
556.107	35.11
556.45	34.91
556.793	34.92
557.135	34.81
557.478	35.2
557.821	35.29
558.164	35.4
558.507	35.64
558.849	35.54
559.192	35.53
559.534	35.84
559.877	35.63
560.219	35.74
560.562	35.93
560.904	35.53
561.246	36.08
561.589	35.68
561.931	35.95
562.273	36.12
562.615	36.1
562.957	36.08
563.299	36.04
563.641	36.39
563.983	36.22
564.325	36.43
564.667	36.37
565.008	36.4
565.35	36.22
565.692	36.7
566.033	36.55
566.375	36.65
566.716	36.87
567.058	36.95
567.399	36.91
567.741	36.9
568.082	36.86
568.423	36.74
568.764	36.81
569.105	36.92
569.447	37.05
569.788	36.92
570.129	37.02
570.47	37.29
570.811	37.48
571.151	37.54
571.492	37.54
571.833	37.36
572.174	37.51
572.514	37.51
572.855	37.56
573.195	37.69
573.536	37.43
573.876	37.68
574.217	37.55
574.557	37.62
574.898	37.65
575.238	37.72
575.578	38.08
575.918	38.05
576.258	38.02
576.598	38.24
576.938	38.04
577.278	38.31
577.618	38.01
577.958	38.42
578.298	38.36
578.638	38.4
578.977	38.45
579.317	38.48
579.657	38.25
579.996	38.74
580.336	38.75
580.675	38.97
581.014	39.13
581.354	39.02
581.693	39.04
582.032	39.58
582.372	39.5
582.711	39.72
583.05	39.63
583.389	39.53
583.728	39.66
584.067	39.6
584.406	39.98
584.745	39.86
585.083	40.05
585.422	39.97
585.761	39.9
586.1	40.43
586.438	39.63
586.777	40.04
587.115	40.22
587.454	40.2
587.792	40.58
588.13	40.42
588.469	40.56
588.807	40.26
589.145	40.69
589.483	40.62
589.821	40.48
590.159	41
590.497	40.58
590.835	40.58
591.173	40.75
591.511	40.72
591.849	40.64
592.187	40.89
592.524	40.6
592.862	40.86
593.2	40.89
593.537	41.08
593.875	41.17
594.212	41.5
594.55	41.45
594.887	41.48
595.224	41.53
595.561	41.31
595.899	41.45
596.236	41.73
596.573	41.43
596.91	41.51
597.247	41.8
597.584	41.57
597.921	42.2
598.258	41.75
598.594	41.81
598.931	41.54
599.268	41.54
599.604	41.62
599.941	41.86
600.277	41.71
600.614	41.89
600.95	42.3
601.287	41.9
601.623	42.43
601.959	42.34
602.296	42.41
602.632	42.61
602.968	42.7
603.304	42.63
603.64	42.47
603.976	42.73
604.312	42.68
604.648	42.82
604.984	43.08
605.319	42.87
605.655	42.75
605.991	42.75
606.326	42.66
606.662	42.62
606.998	42.83
607.333	42.7
607.668	42.81
608.004	43.02
608.339	43
608.674	43.39
609.01	43.65
609.345	43.69
609.68	43.95
610.015	43.66
610.35	44.02
610.685	43.83
611.02	43.79
611.355	43.74
611.689	43.86
612.024	43.88
612.359	43.78
612.694	44.19
613.028	43.92
613.363	44.03
613.697	44.26
614.032	44.57
614.366	44.56
614.7	44.93
615.035	45.05
615.369	44.52
615.703	44.72
616.037	44.99
616.371	44.8
616.705	45
617.039	44.69
617.373	45.29
617.707	45.56
618.041	45.56
618.375	44.95
618.709	45.29
619.042	45.15
619.376	45.71
619.71	45.62
620.043	45.29
620.377	45.5
620.71	45.47
621.043	45.74
621.377	45.43
621.71	45.52
622.043	45.83
622.376	46.05
622.709	45.94
623.043	45.88
623.376	46.1
623.709	46.39
624.041	46.2
624.374	45.9
624.707	46.35
625.04	46.45
625.373	46.16
625.705	46.4
626.038	46.78
626.37	46.12
626.703	46.31
627.035	46.4
627.368	46.9
627.7	46.5
628.032	46.84
628.365	46.75
628.697	46.6
629.029	46.85
629.361	47.09
629.693	46.87
630.025	46.99
630.357	47.01
630.689	47.07
631.021	47.25
631.353	47.33
631.684	47.17
632.016	47.5
632.348	47
632.679	47.31
633.011	47.7
633.342	47.56
633.674	47.86
634.005	47.87
634.336	48.47
634.668	47.52
634.999	47.65
635.33	47.89
635.661	48.57
635.992	48.17
636.323	48.08
636.654	48.2
636.985	47.71
637.316	48.21
637.647	48.32
637.977	48.06
638.308	48.68
638.639	48.1
638.969	48.3
639.3	48.56
639.63	48.52
639.961	48.38
640.291	48.68
640.622	48.33
640.952	49.09
641.282	48.83
641.612	48.22
641.943	49.23
642.273	48.52
642.603	49.3
642.933	48.76
643.263	49.2
643.592	49.18
643.922	49.84
644.252	49.43
644.582	49.5
644.911	49.45
645.241	49.9
645.571	50.41
645.9	50.05
646.23	49.65
646.559	49.75
646.888	50.1
647.218	49.82
647.547	49.72
647.876	49.83
648.205	50.45
648.534	49.74
648.863	49.95
649.192	50.12
649.521	50.25
649.85	50.68
650.179	50.15
650.508	50.48
650.837	50.3
651.165	50.73
651.494	50.45
651.822	50.75
652.151	50.28
652.479	50.63
652.808	50.46
653.136	50.96
653.465	51.06
653.793	50.65
654.121	50.79
654.449	50.74
654.777	50.82
655.105	50.61
655.433	51.32
655.761	51.55
656.089	51.48
656.417	51.08
656.745	51.6
657.073	51.13
657.4	52.01
657.728	51.45
658.056	51.31
658.383	51.66
658.711	51.21
659.038	51.8
659.365	51.43
659.693	52.27
660.02	51.63
660.347	51.61
660.674	51.61
661.001	51.82
661.329	51.71
661.656	51.98
661.982	51.82
662.309	51.96
662.636	52.02
662.963	52.31
663.29	52.27
663.616	51.66
663.943	52.34
664.27	52.35
664.596	52.3
664.923	52.02
665.249	52.4
665.576	52.54
665.902	52.57
666.228	52.24
666.554	52.23
666.881	52.57
667.207	53.34
667.533	53.31
667.859	52.41
668.185	53.51
668.511	53.17
668.837	52.83
669.162	53.64
669.488	53.02
669.814	53.24
670.139	53.11
670.465	53.29
