Data from 0264_chest_Reflection__3__156.txt Node

Date: Fri Oct 20 21:52:27 CDT 2023
User: ToomeyLab
Spectrometer: FLMS14357
Trigger mode: 0
Integration Time (sec): 1.000000E-2
Scans to average: 100
Electric dark correction enabled: true
Nonlinearity correction enabled: false
Boxcar width: 0
XAxis mode: Wavelengths
Number of Pixels in Spectrum: 2048
>>>>>Begin Spectral Data<<<<<
189.047	-86.46
189.435	-86.46
189.823	-86.46
190.211	169.49
190.599	-1016.96
190.987	43.28
191.375	120.7
191.763	42.59
192.151	3.62
192.538	-37.35
192.926	19.89
193.314	182.88
193.702	67.4
194.089	58.84
194.477	4228.75
194.864	751.89
195.252	150.53
195.639	-333.93
196.027	-27.56
196.414	-152.79
196.801	165.04
197.189	37.89
197.576	466.45
197.963	3731.25
198.351	43.18
198.738	-4.18
199.125	37.38
199.512	52.68
199.899	26.34
200.286	-9.03
200.673	34.76
201.06	25.29
201.447	31.36
201.833	42.21
202.22	27.4
202.607	27.47
202.994	50.48
203.38	-20.93
203.767	22.08
204.154	31.74
204.54	37.3
204.927	5.56
205.313	18.06
205.699	48.78
206.086	1.74
206.472	51.94
206.858	86.5
207.245	18.39
207.631	33.82
208.017	19.99
208.403	30.05
208.789	49.25
209.175	35.23
209.561	33.05
209.947	3.69
210.333	45.83
210.719	20.82
211.105	50.64
211.491	22.35
211.876	6.98
212.262	32.2
212.648	33.19
213.034	-2.76
213.419	18.88
213.805	11.01
214.19	17.68
214.576	-20.54
214.961	17.24
215.346	45.18
215.732	13.63
216.117	-28.55
216.502	19.4
216.888	14.02
217.273	20.59
217.658	0.18
218.043	30.04
218.428	-5.66
218.813	17.11
219.198	13.95
219.583	-1.56
219.968	-2.93
220.353	11.01
220.738	19.58
221.122	12.26
221.507	8.21
221.892	9.71
222.276	5.96
222.661	27.48
223.046	-3.09
223.43	5.19
223.815	11.74
224.199	13.58
224.583	-4.06
224.968	0.29
225.352	-0.69
225.736	-2.3
226.121	20.74
226.505	8.71
226.889	6
227.273	3.79
227.657	10.71
228.041	8.09
228.425	6.26
228.809	7.41
229.193	4.91
229.577	7.74
229.961	2.99
230.344	3.35
230.728	3.49
231.112	4.6
231.495	3.54
231.879	3.86
232.263	4.21
232.646	3.91
233.03	3.55
233.413	3.54
233.797	3.17
234.18	3.9
234.563	5.06
234.946	6.3
235.33	4.73
235.713	4.57
236.096	4.94
236.479	4.11
236.862	4.86
237.245	3.97
237.628	3.3
238.011	5.11
238.394	4.01
238.777	5.22
239.16	4.25
239.543	6.03
239.925	5.51
240.308	4.48
240.691	3.65
241.073	3.96
241.456	4.71
241.838	5.17
242.221	4.36
242.603	4.24
242.986	3.67
243.368	4.54
243.75	3.27
244.133	3.45
244.515	3.28
244.897	3.33
245.279	3.31
245.661	3.09
246.043	3.22
246.425	2.85
246.807	3.54
247.189	3.63
247.571	4.52
247.953	3.68
248.335	3.59
248.717	3.16
249.098	2.97
249.48	3.28
249.862	3.45
250.243	3.53
250.625	3.61
251.006	3.62
251.388	3.47
251.769	4.48
252.151	3.31
252.532	4.27
252.913	3.97
253.295	2.39
253.676	3.77
254.057	3.88
254.438	2.74
254.819	3.46
255.2	3.54
255.581	3.4
255.962	3.34
256.343	3.4
256.724	2.23
257.105	4.2
257.486	4.01
257.867	2.97
258.247	3.85
258.628	3.14
259.009	3.15
259.389	2.76
259.77	3.45
260.15	3.87
260.531	3.27
260.911	3.58
261.292	2.94
261.672	3.26
262.052	3.25
262.432	3.28
262.813	3.2
263.193	3.31
263.573	3.49
263.953	3.01
264.333	3.58
264.713	3.69
265.093	3.89
265.473	4.22
265.853	3.38
266.233	3.55
266.612	3.77
266.992	3.63
267.372	2.57
267.752	2.87
268.131	3.49
268.511	3.4
268.89	3.49
269.27	3.03
269.649	2.85
270.029	3.31
270.408	3.44
270.787	3.23
271.167	3.16
271.546	3.46
271.925	3.36
272.304	3.44
272.683	3.52
273.062	3.03
273.441	3.38
273.82	2.9
274.199	3.27
274.578	3.58
274.957	3.52
275.336	3.39
275.715	3.24
276.093	2.96
276.472	2.91
276.851	3.23
277.229	3.35
277.608	2.8
277.986	3.5
278.365	3.19
278.743	3.17
279.122	3
279.5	2.94
279.878	2.31
280.257	2.66
280.635	3.19
281.013	3.66
281.391	3.53
281.769	2.79
282.147	2.88
282.525	2.97
282.903	3.27
283.281	3.22
283.659	2.98
284.037	2.88
284.415	2.47
284.792	3.25
285.17	2.82
285.548	2.97
285.925	3.09
286.303	3.11
286.68	2.86
287.058	3.72
287.435	3.53
287.813	2.61
288.19	2.96
288.567	3.4
288.945	3.15
289.322	3.54
289.699	2.53
290.076	3.74
290.453	2.97
290.83	3.06
291.207	3.43
291.584	2.74
291.961	2.74
292.338	3.29
292.715	3.1
293.092	3.1
293.469	3.42
293.845	2.54
294.222	3.03
294.599	3
294.975	4.23
295.352	3.33
295.728	3.02
296.105	3.1
296.481	3.2
296.858	3.27
297.234	3.56
297.61	3.01
297.986	3.08
298.363	3.11
298.739	3.05
299.115	3
299.491	3.05
299.867	3.16
300.243	3.33
300.619	3.09
300.995	2.83
301.371	3.3
301.746	3.25
302.122	3.49
302.498	3.15
302.874	3.06
303.249	3.12
303.625	3.33
304	3.36
304.376	2.92
304.751	3.11
305.127	3.49
305.502	3.2
305.878	2.9
306.253	3.56
306.628	3.11
307.003	3.62
307.378	3.28
307.754	3.05
308.129	3.6
308.504	3.71
308.879	3.35
309.254	3.25
309.629	2.75
310.003	2.71
310.378	3.45
310.753	3.17
311.128	3.21
311.502	2.89
311.877	3.53
312.252	2.95
312.626	3.5
313.001	3.18
313.375	3.21
313.75	3.21
314.124	3.25
314.498	3.18
314.873	3.38
315.247	3.34
315.621	3.6
315.995	3.48
316.369	3.5
316.743	3.43
317.117	3.22
317.491	2.83
317.865	3.92
318.239	3.51
318.613	3.38
318.987	3.12
319.361	2.65
319.734	3.13
320.108	3.44
320.482	3.46
320.855	3.82
321.229	4.2
321.602	3.56
321.976	3.33
322.349	3.66
322.723	3.31
323.096	3.5
323.469	3.42
323.843	3.84
324.216	3.17
324.589	3.58
324.962	3.41
325.335	3.3
325.708	3.38
326.081	3.53
326.454	3.44
326.827	3.77
327.2	3.46
327.573	3.35
327.945	3.12
328.318	3.1
328.691	3.15
329.063	3.86
329.436	3.14
329.809	3.64
330.181	3.7
330.553	3.56
330.926	3.5
331.298	3.54
331.671	2.93
332.043	3.2
332.415	3.4
332.787	3.87
333.159	2.95
333.532	3.39
333.904	3.12
334.276	3.08
334.648	3.67
335.02	3.69
335.391	3.48
335.763	3.57
336.135	3.48
336.507	3.52
336.879	3.5
337.25	2.85
337.622	3.86
337.993	3.49
338.365	3.36
338.736	3.91
339.108	3.55
339.479	3.09
339.851	3.61
340.222	3.15
340.593	3.27
340.964	3.07
341.336	3.64
341.707	3.35
342.078	3.82
342.449	3.4
342.82	2.99
343.191	3.63
343.562	3.69
343.933	3.58
344.303	3.35
344.674	3.65
345.045	3.61
345.416	3.9
345.786	3.2
346.157	3.17
346.527	3.27
346.898	3.5
347.268	3.55
347.639	3.49
348.009	3.67
348.38	3.44
348.75	3.42
349.12	3.42
349.49	3.53
349.861	3.42
350.231	3.06
350.601	3.5
350.971	3.38
351.341	3.43
351.711	3.85
352.081	3.38
352.45	3.48
352.82	3.06
353.19	3.83
353.56	3.4
353.929	3.43
354.299	3.72
354.669	3.52
355.038	3.62
355.408	3.77
355.777	3.59
356.147	3.7
356.516	3.43
356.885	3.32
357.254	3.62
357.624	3.66
357.993	2.91
358.362	3.35
358.731	3.32
359.1	3
359.469	3.38
359.838	3.49
360.207	3.29
360.576	3.44
360.945	3.05
361.314	3.2
361.682	3.43
362.051	3.44
362.42	3.33
362.788	3.69
363.157	3.64
363.525	3.29
363.894	3.37
364.262	3.43
364.631	3.38
364.999	3.48
365.367	3.4
365.735	3.48
366.104	3.3
366.472	3.52
366.84	3.59
367.208	3.57
367.576	3.45
367.944	3.45
368.312	3.2
368.68	3.38
369.048	3.67
369.416	3.27
369.783	3.75
370.151	3.76
370.519	3.54
370.886	3.58
371.254	3.56
371.621	3.72
371.989	3.28
372.356	3.59
372.724	3.59
373.091	3.31
373.458	3.3
373.826	3.53
374.193	3.3
374.56	3.5
374.927	3.53
375.294	3.83
375.661	3.5
376.028	3.73
376.395	3.63
376.762	3.51
377.129	3.54
377.496	3.72
377.863	3.65
378.229	3.5
378.596	3.59
378.963	3.6
379.329	3.53
379.696	3.66
380.062	3.4
380.429	3.47
380.795	3.38
381.161	3.71
381.528	3.59
381.894	3.43
382.26	3.84
382.626	3.9
382.993	3.62
383.359	3.52
383.725	3.59
384.091	3.7
384.457	3.42
384.823	3.67
385.188	3.8
385.554	3.8
385.92	3.66
386.286	3.79
386.651	3.3
387.017	3.72
387.383	3.94
387.748	3.44
388.114	3.37
388.479	3.59
388.845	3.77
389.21	3.56
389.575	3.29
389.94	3.56
390.306	3.56
390.671	3.39
391.036	3.52
391.401	3.71
391.766	3.81
392.131	3.67
392.496	3.68
392.861	3.75
393.226	3.81
393.591	3.6
393.956	3.69
394.32	4.06
394.685	3.46
395.05	3.93
395.414	3.86
395.779	3.45
396.143	3.56
396.508	3.59
396.872	3.61
397.236	3.7
397.601	3.75
397.965	3.29
398.329	3.33
398.694	3.82
399.058	3.35
399.422	3.62
399.786	3.75
400.15	3.63
400.514	3.51
400.878	3.8
401.242	3.86
401.605	3.7
401.969	3.6
402.333	3.6
402.697	3.79
403.06	3.49
403.424	3.56
403.787	3.7
404.151	3.66
404.514	3.56
404.878	3.62
405.241	3.65
405.604	3.62
405.968	3.61
406.331	3.66
406.694	3.6
407.057	3.41
407.42	3.95
407.783	3.68
408.146	3.49
408.509	3.73
408.872	3.88
409.235	3.6
409.598	3.86
409.961	3.74
410.323	3.86
410.686	3.57
411.049	3.62
411.411	3.58
411.774	3.87
412.136	3.63
412.499	3.91
412.861	3.9
413.223	3.66
413.586	3.57
413.948	3.66
414.31	3.83
414.672	3.52
415.035	3.47
415.397	3.84
415.759	3.78
416.121	3.76
416.483	4.01
416.845	3.71
417.206	3.84
417.568	3.74
417.93	3.97
418.292	3.43
418.653	3.8
419.015	3.65
419.377	3.64
419.738	3.57
420.1	3.57
420.461	3.73
420.822	3.75
421.184	3.73
421.545	3.71
421.906	3.64
422.267	3.52
422.629	3.79
422.99	3.53
423.351	3.57
423.712	3.59
424.073	3.66
424.434	3.62
424.795	3.65
425.155	3.63
425.516	3.62
425.877	3.62
426.238	3.49
426.598	3.61
426.959	3.58
427.32	3.64
427.68	3.69
428.041	3.56
428.401	3.66
428.761	3.71
429.122	3.72
429.482	3.77
429.842	3.71
430.202	3.82
430.563	3.7
430.923	3.86
431.283	3.73
431.643	3.95
432.003	4
432.363	3.8
432.722	3.96
433.082	3.85
433.442	3.74
433.802	3.81
434.161	3.56
434.521	3.84
434.881	3.74
435.24	3.75
435.6	3.79
435.959	3.72
436.319	3.67
436.678	3.71
437.037	3.85
437.396	3.91
437.756	3.82
438.115	3.7
438.474	3.86
438.833	4
439.192	3.62
439.551	3.74
439.91	3.9
440.269	3.75
440.628	3.74
440.987	3.76
441.345	3.68
441.704	3.77
442.063	3.8
442.421	3.78
442.78	3.78
443.138	3.85
443.497	3.87
443.855	3.77
444.214	3.71
444.572	3.68
444.93	3.89
445.288	3.87
445.647	4.05
446.005	3.73
446.363	3.73
446.721	3.85
447.079	3.96
447.437	3.77
447.795	3.82
448.153	3.7
448.51	3.77
448.868	3.74
449.226	3.83
449.584	3.84
449.941	3.84
450.299	3.72
450.656	3.69
451.014	3.84
451.371	3.87
451.729	3.85
452.086	3.73
452.443	3.83
452.801	3.84
453.158	4.02
453.515	3.96
453.872	3.97
454.229	4.04
454.586	3.98
454.943	3.89
455.3	3.95
455.657	3.93
456.014	3.77
456.371	3.91
456.727	3.99
457.084	3.9
457.441	3.88
457.797	4
458.154	3.89
458.51	3.82
458.867	3.87
459.223	4.01
459.58	3.82
459.936	3.92
460.292	3.93
460.648	3.88
461.005	3.76
461.361	3.84
461.717	3.69
462.073	3.86
462.429	3.92
462.785	3.86
463.141	3.92
463.496	3.81
463.852	3.93
464.208	3.95
464.564	4.04
464.919	3.94
465.275	4.03
465.631	4.13
465.986	4.07
466.342	4.07
466.697	4.1
467.052	4
467.408	3.96
467.763	4.1
468.118	4.11
468.473	4.07
468.829	3.96
469.184	4.06
469.539	4.07
469.894	3.96
470.249	3.89
470.603	4.01
470.958	4.08
471.313	4.11
471.668	4.12
472.023	4.03
472.377	4.12
472.732	3.91
473.086	4.04
473.441	4.11
473.795	4.27
474.15	4.07
474.504	3.93
474.859	4.04
475.213	4.13
475.567	4.14
475.921	4.04
476.275	4
476.63	4.1
476.984	4.09
477.338	4.06
477.692	4.21
478.045	4.1
478.399	4.11
478.753	4.03
479.107	4.07
479.461	4.12
479.814	4.11
480.168	4.19
480.521	4.07
480.875	3.97
481.228	4.09
481.582	4
481.935	4.14
482.289	4.15
482.642	4.13
482.995	4
483.348	4.09
483.701	4.07
484.055	4.07
484.408	3.91
484.761	3.95
485.114	3.87
485.466	3.84
485.819	3.78
486.172	3.73
486.525	3.76
486.878	3.81
487.23	3.89
487.583	3.95
487.936	3.96
488.288	3.95
488.641	4.04
488.993	3.92
489.345	3.92
489.698	3.9
490.05	3.89
490.402	3.87
490.754	3.89
491.107	3.95
491.459	4.06
491.811	4.12
492.163	3.98
492.515	4.09
492.866	4.02
493.218	4.01
493.57	3.93
493.922	3.93
494.274	3.96
494.625	3.96
494.977	4.01
495.328	4.08
495.68	4.11
496.031	4.06
496.383	4.3
496.734	4.16
497.086	4.18
497.437	4.19
497.788	4.19
498.139	4.29
498.49	4.22
498.842	4.04
499.193	4.15
499.544	4.18
499.894	4.21
500.245	4.21
500.596	4.22
500.947	4.27
501.298	4.22
501.648	4.1
501.999	4.29
502.35	4.2
502.7	4.4
503.051	4.34
503.401	4.25
503.752	4.26
504.102	4.42
504.452	4.38
504.803	4.39
505.153	4.35
505.503	4.33
505.853	4.43
506.203	4.3
506.553	4.31
506.903	4.37
507.253	4.29
507.603	4.28
507.953	4.27
508.303	4.25
508.652	4.35
509.002	4.37
509.352	4.4
509.701	4.4
510.051	4.22
510.4	4.4
510.75	4.3
511.099	4.31
511.449	4.39
511.798	4.4
512.147	4.31
512.496	4.42
512.846	4.28
513.195	4.42
513.544	4.41
513.893	4.27
514.242	4.33
514.591	4.5
514.939	4.3
515.288	4.27
515.637	4.46
515.986	4.44
516.334	4.46
516.683	4.4
517.032	4.36
517.38	4.43
517.729	4.47
518.077	4.5
518.426	4.39
518.774	4.38
519.122	4.55
519.47	4.43
519.819	4.34
520.167	4.4
520.515	4.43
520.863	4.42
521.211	4.41
521.559	4.52
521.907	4.35
522.255	4.46
522.602	4.59
522.95	4.48
523.298	4.6
523.645	4.72
523.993	4.57
524.341	4.61
524.688	4.74
525.036	4.63
525.383	4.52
525.73	4.72
526.078	4.63
526.425	4.64
526.772	4.54
527.119	4.58
527.466	4.53
527.814	4.6
528.161	4.59
528.508	4.48
528.854	4.62
529.201	4.46
529.548	4.6
529.895	4.55
530.242	4.46
530.588	4.39
530.935	4.39
531.282	4.44
531.628	4.49
531.975	4.45
532.321	4.56
532.667	4.62
533.014	4.72
533.36	4.72
533.706	4.78
534.052	4.74
534.399	4.65
534.745	4.58
535.091	4.61
535.437	4.64
535.783	4.67
536.129	4.72
536.474	4.75
536.82	4.79
537.166	4.81
537.512	4.91
537.857	4.9
538.203	4.8
538.549	4.91
538.894	4.82
539.239	4.83
539.585	4.79
539.93	4.85
540.276	5.07
540.621	5.06
540.966	4.93
541.311	5.05
541.656	5.05
542.001	5.08
542.346	5.1
542.691	4.97
543.036	4.97
543.381	4.8
543.726	4.82
544.071	4.85
544.415	4.89
544.76	4.95
545.105	4.98
545.449	4.96
545.794	5.01
546.138	5.06
546.483	5.04
546.827	5.05
547.171	5.26
547.516	5.11
547.86	5.23
548.204	5.13
548.548	5.27
548.892	5.12
549.236	5.17
549.58	5.17
549.924	5.19
550.268	5.21
550.612	5.31
550.956	5.48
551.3	5.34
551.643	5.38
551.987	5.51
552.33	5.47
552.674	5.41
553.017	5.44
553.361	5.48
553.704	5.52
554.048	5.57
554.391	5.52
554.734	5.42
555.077	5.44
555.42	5.41
555.764	5.53
556.107	5.67
556.45	5.54
556.793	5.58
557.135	5.55
557.478	5.5
557.821	5.87
558.164	5.8
558.507	5.89
558.849	5.64
559.192	5.86
559.534	5.8
559.877	5.76
560.219	5.99
560.562	5.87
560.904	5.6
561.246	5.9
561.589	5.73
561.931	5.88
562.273	6.08
562.615	5.94
562.957	5.99
563.299	6.04
563.641	5.85
563.983	5.89
564.325	5.76
564.667	6.04
565.008	5.84
565.35	6.05
565.692	6.01
566.033	6.17
566.375	6.04
566.716	6.16
567.058	6.14
567.399	6.13
567.741	6.1
568.082	6.23
568.423	6.26
568.764	6.1
569.105	6.17
569.447	6.15
569.788	6.19
570.129	6.1
570.47	6.18
570.811	6.44
571.151	6.28
571.492	6.36
571.833	6.51
572.174	6.42
572.514	6.44
572.855	6.39
573.195	6.63
573.536	6.36
573.876	6.53
574.217	6.46
574.557	6.27
574.898	6.42
575.238	6.47
575.578	6.42
575.918	6.45
576.258	6.49
576.598	6.71
576.938	6.66
577.278	6.6
577.618	6.59
577.958	6.6
578.298	6.7
578.638	6.79
578.977	6.76
579.317	6.74
579.657	6.7
579.996	6.83
580.336	7.05
580.675	6.88
581.014	6.86
581.354	6.94
581.693	7.04
582.032	7.05
582.372	7.14
582.711	7.17
583.05	7.21
583.389	7.02
583.728	7.23
584.067	7.14
584.406	7.07
584.745	7.13
585.083	7.2
585.422	7.29
585.761	7.16
586.1	7.45
586.438	7.06
586.777	7.44
587.115	7.45
587.454	7.46
587.792	7.34
588.13	7.42
588.469	7.82
588.807	7.38
589.145	7.63
589.483	7.54
589.821	7.38
590.159	7.44
590.497	7.57
590.835	7.62
591.173	7.79
591.511	7.74
591.849	7.67
592.187	7.73
592.524	7.64
592.862	7.96
593.2	7.89
593.537	7.68
593.875	7.59
594.212	8.09
594.55	7.84
594.887	8.02
595.224	7.74
595.561	7.81
595.899	7.79
596.236	8.06
596.573	7.98
596.91	7.99
597.247	8.16
597.584	8.01
597.921	8.17
598.258	8.21
598.594	8.17
598.931	8.18
599.268	8.15
599.604	8.14
599.941	8.16
600.277	8.24
600.614	8.42
600.95	8.52
601.287	8.04
601.623	8.5
601.959	8.5
602.296	8.59
602.632	8.46
602.968	8.36
603.304	8.58
603.64	8.57
603.976	8.76
604.312	8.88
604.648	8.76
604.984	8.63
605.319	8.65
605.655	8.56
605.991	8.66
606.326	8.65
606.662	8.56
606.998	8.65
607.333	8.69
607.668	8.55
608.004	8.93
608.339	8.72
608.674	9.21
609.01	9.16
609.345	9.24
609.68	9.25
610.015	9.1
610.35	9.09
610.685	9.34
611.02	9.2
611.355	8.97
611.689	9.07
612.024	9.29
612.359	9.11
612.694	9.21
613.028	9.21
613.363	9.19
613.697	9.29
614.032	9.28
614.366	9.5
614.7	9.41
615.035	9.34
615.369	9.58
615.703	9.64
616.037	9.72
616.371	9.52
616.705	9.72
617.039	9.6
617.373	9.71
617.707	9.95
618.041	9.75
618.375	9.5
618.709	9.89
619.042	9.67
619.376	10.08
619.71	9.8
620.043	10.32
620.377	9.54
620.71	10.05
621.043	10.23
621.377	9.92
621.71	9.86
622.043	10.2
622.376	10.27
622.709	10.32
623.043	10.13
623.376	10.22
623.709	10.19
624.041	10.09
624.374	10.61
624.707	10.06
625.04	10.8
625.373	10.43
625.705	10.26
626.038	10.68
626.37	9.98
626.703	10.78
627.035	10.4
627.368	10.53
627.7	10.62
628.032	10.47
628.365	10.72
628.697	10.64
629.029	10.76
629.361	10.64
629.693	10.75
630.025	11.02
630.357	11.01
630.689	10.84
631.021	10.98
631.353	10.87
631.684	10.82
632.016	10.81
632.348	10.89
632.679	11.04
633.011	11.31
633.342	10.78
633.674	11.02
634.005	11.17
634.336	11.49
634.668	11.27
634.999	10.9
635.33	10.99
635.661	11.32
635.992	11.69
636.323	11.48
636.654	11.55
636.985	11.56
637.316	11.54
637.647	11.57
637.977	11.24
638.308	11.68
638.639	11.93
638.969	11.97
639.3	11.37
639.63	11.63
639.961	11.41
640.291	11.76
640.622	11.82
640.952	11.7
641.282	11.98
641.612	11.75
641.943	12.42
642.273	11.45
642.603	12.01
642.933	12.27
643.263	12.62
643.592	12.13
643.922	12.67
644.252	12
644.582	12.05
644.911	12.54
645.241	12.64
645.571	12.9
645.9	12.15
646.23	12.29
646.559	12.15
646.888	12.78
647.218	12.41
647.547	12.44
647.876	12.33
648.205	12.52
648.534	12.42
648.863	12.42
649.192	12.64
649.521	12.86
649.85	12.74
650.179	12.59
650.508	12.75
650.837	13.29
651.165	12.95
651.494	12.47
651.822	13.47
652.151	12.91
652.479	12.87
652.808	13.16
653.136	12.99
653.465	13.3
653.793	13.19
654.121	13.51
654.449	13.24
654.777	13.53
655.105	13.5
655.433	13.41
655.761	13.52
656.089	13.39
656.417	12.9
656.745	13.24
657.073	13.52
657.4	14.04
657.728	13.77
658.056	13.64
658.383	13.33
658.711	13.33
659.038	13.44
659.365	13.92
659.693	14.12
660.02	13.78
660.347	14.01
660.674	13.63
661.001	13.39
661.329	13.99
661.656	13.61
661.982	13.65
662.309	14.07
662.636	14.07
662.963	14.21
663.29	14.4
663.616	14.17
663.943	14
664.27	13.94
664.596	14.13
664.923	13.86
665.249	14.13
665.576	13.79
665.902	14.62
666.228	14.74
666.554	14.56
666.881	14.31
667.207	14.45
667.533	14.18
667.859	15.24
668.185	14.97
668.511	15.01
668.837	14.88
669.162	15.2
669.488	15.34
669.814	14.55
670.139	14.69
670.465	14.77
670.791	15.11
671.116	14.98
671.442	14.79
671.767	15.31
672.092	14.9
672.418	14.96
672.743	14.65
673.068	16.33
673.393	15.12
673.718	15.29
674.043	14.95
674.368	15.31
674.693	15.69
675.018	15.93
675.343	15.45
675.667	15.55
675.992	15.77
676.317	15.52
676.641	15.89
676.966	15.4
677.29	15.24
677.615	15.87
677.939	15.72
678.264	16.19
678.588	15.16
678.912	15.98
679.236	15.58
679.56	15.73
679.885	15.65
680.209	16.03
680.532	15.93
680.856	15.32
681.18	16.25
681.504	16.45
681.828	16.3
682.152	16.22
682.475	16.07
682.799	16.12
683.122	16.37
683.446	15.97
683.769	16.57
684.093	15.8
684.416	16.1
684.739	15.41
685.062	15.75
685.386	16.45
685.709	16.36
686.032	16.15
686.355	16.85
686.678	16.34
687.001	16.89
687.324	15.73
687.646	16.76
687.969	17.1
688.292	17.24
688.614	16.97
