Data from 0264_crown_Reflection__1__159.txt Node

Date: Fri Oct 20 21:55:02 CDT 2023
User: ToomeyLab
Spectrometer: FLMS14357
Trigger mode: 0
Integration Time (sec): 1.000000E-2
Scans to average: 100
Electric dark correction enabled: true
Nonlinearity correction enabled: false
Boxcar width: 0
XAxis mode: Wavelengths
Number of Pixels in Spectrum: 2048
>>>>>Begin Spectral Data<<<<<
189.047	-8.75
189.435	-8.75
189.823	-8.75
190.211	-0.65
190.599	219.64
190.987	71.53
191.375	25.47
191.763	65.63
192.151	-101.05
192.538	49.56
192.926	-6.79
193.314	225.32
193.702	79.08
194.089	123.81
194.477	2692.5
194.864	120.45
195.252	144.13
195.639	-429.29
196.027	259.66
196.414	77.87
196.801	167.1
197.189	10.33
197.576	-250.44
197.963	1387.5
198.351	41.62
198.738	19.32
199.125	22.79
199.512	81.06
199.899	10.32
200.286	-15.45
200.673	21.64
201.06	3.89
201.447	-6.38
201.833	33.62
202.22	14.76
202.607	44.87
202.994	20.75
203.38	-22.81
203.767	-12
204.154	45.27
204.54	43.93
204.927	14.01
205.313	52.87
205.699	49.4
206.086	39.74
206.472	31.14
206.858	59.44
207.245	-9.88
207.631	25.59
208.017	29.08
208.403	-0.98
208.789	34.12
209.175	-4.83
209.561	-10.51
209.947	4.73
210.333	26.39
210.719	25.83
211.105	18.1
211.491	44.74
211.876	0.51
212.262	25.65
212.648	3.98
213.034	12.77
213.419	28.37
213.805	-12.74
214.19	-7.23
214.576	18.99
214.961	21.85
215.346	53.31
215.732	9.63
216.117	-6.08
216.502	14.11
216.888	16.3
217.273	-0.72
217.658	23.15
218.043	8.22
218.428	11.65
218.813	22.85
219.198	6.54
219.583	-11.45
219.968	-3.98
220.353	7.49
220.738	1.3
221.122	21.51
221.507	4.56
221.892	3.74
222.276	18.78
222.661	28.65
223.046	4.2
223.43	0.7
223.815	10.83
224.199	17
224.583	-2.29
224.968	0.56
225.352	8.02
225.736	-6.41
226.121	10.84
226.505	-1.39
226.889	12.38
227.273	10.4
227.657	5.44
228.041	6.04
228.425	7.37
228.809	5.32
229.193	5.88
229.577	3.89
229.961	4.56
230.344	5.03
230.728	3.52
231.112	4.55
231.495	4.4
231.879	4.71
232.263	5.5
232.646	3.09
233.03	4.68
233.413	3.54
233.797	4.13
234.18	4.87
234.563	6.51
234.946	4.5
235.33	4.01
235.713	4.57
236.096	6.27
236.479	4.41
236.862	4
237.245	4.63
237.628	4.75
238.011	6.72
238.394	4.7
238.777	6.7
239.16	4.72
239.543	8.05
239.925	7.08
240.308	5
240.691	5.76
241.073	5.54
241.456	4.92
241.838	5.58
242.221	5.75
242.603	5.33
242.986	3.96
243.368	5.68
243.75	4.48
244.133	5.09
244.515	4.79
244.897	5.03
245.279	5.59
245.661	4.61
246.043	5
246.425	4.5
246.807	5.35
247.189	4.88
247.571	4.79
247.953	4.99
248.335	5.57
248.717	4.66
249.098	4.89
249.48	4.71
249.862	4.85
250.243	5.22
250.625	5.22
251.006	5.16
251.388	5.39
251.769	5.15
252.151	3.76
252.532	5.37
252.913	4.67
253.295	3.87
253.676	4.46
254.057	4.88
254.438	4.86
254.819	5.03
255.2	4.81
255.581	5.09
255.962	5.32
256.343	5.38
256.724	4.21
257.105	5.33
257.486	5.49
257.867	4.81
258.247	4.74
258.628	4.23
259.009	4.01
259.389	4.62
259.77	4.25
260.15	5.69
260.531	5.06
260.911	4.93
261.292	4.6
261.672	4.69
262.052	4.7
262.432	4.73
262.813	4.62
263.193	4.64
263.573	4.71
263.953	5.15
264.333	5.25
264.713	4.97
265.093	4.99
265.473	5.48
265.853	4.78
266.233	5
266.612	4.74
266.992	4.77
267.372	5.39
267.752	3.84
268.131	4.89
268.511	4.39
268.89	4.38
269.27	4.54
269.649	4.16
270.029	4.53
270.408	4.72
270.787	4.11
271.167	4.62
271.546	4.82
271.925	5.3
272.304	4.89
272.683	4.61
273.062	4.73
273.441	4.82
273.82	4.59
274.199	4.71
274.578	4.65
274.957	4.48
275.336	4.71
275.715	4.83
276.093	4.15
276.472	4.34
276.851	4.1
277.229	4.48
277.608	4.61
277.986	4.34
278.365	5.32
278.743	4.45
279.122	3.9
279.5	3.98
279.878	4.27
280.257	4.61
280.635	4.47
281.013	4.63
281.391	4.84
281.769	4.32
282.147	3.86
282.525	4.23
282.903	4.08
283.281	4.37
283.659	4.25
284.037	4.55
284.415	4.04
284.792	4.46
285.17	4.81
285.548	4.95
285.925	4.34
286.303	4.46
286.68	4.09
287.058	4.81
287.435	4.45
287.813	4.13
288.19	4.59
288.567	4.6
288.945	4.99
289.322	4.61
289.699	4.2
290.076	5.41
290.453	5.14
290.83	4.42
291.207	4.8
291.584	4.07
291.961	4.58
292.338	4.46
292.715	4.7
293.092	4.85
293.469	5.24
293.845	4.68
294.222	5.18
294.599	5.14
294.975	5.7
295.352	4.99
295.728	5.2
296.105	5.13
296.481	5.28
296.858	5.77
297.234	5.61
297.61	4.8
297.986	5.18
298.363	5.51
298.739	5.33
299.115	5.38
299.491	5.45
299.867	5.52
300.243	5.33
300.619	5.5
300.995	5.85
301.371	5.59
301.746	5.96
302.122	5.86
302.498	5.23
302.874	5.91
303.249	5.83
303.625	6
304	5.99
304.376	5.68
304.751	5.18
305.127	5.39
305.502	6.12
305.878	5.56
306.253	5.86
306.628	5.51
307.003	5.64
307.378	5.65
307.754	5.77
308.129	6.31
308.504	6.24
308.879	6.21
309.254	6.36
309.629	6.04
310.003	5.59
310.378	6.01
310.753	6.05
311.128	5.86
311.502	6.26
311.877	6.26
312.252	6.01
312.626	5.92
313.001	6.1
313.375	5.86
313.75	6.19
314.124	5.64
314.498	6.1
314.873	5.58
315.247	6.42
315.621	6.26
315.995	6.8
316.369	6.2
316.743	6.52
317.117	6.01
317.491	5.71
317.865	6.42
318.239	6.83
318.613	6.28
318.987	5.91
319.361	6.2
319.734	5.96
320.108	6.19
320.482	6.5
320.855	6.43
321.229	6.52
321.602	6.28
321.976	6.08
322.349	7.35
322.723	6.19
323.096	6.49
323.469	6.46
323.843	6.72
324.216	6.56
324.589	6.39
324.962	7.04
325.335	6.68
325.708	6.62
326.081	6.47
326.454	6.64
326.827	6.97
327.2	6.85
327.573	6.51
327.945	6.8
328.318	6.54
328.691	6.79
329.063	6.83
329.436	6.18
329.809	6.76
330.181	6.44
330.553	7.22
330.926	6.45
331.298	6.46
331.671	6.79
332.043	5.87
332.415	6.71
332.787	6.8
333.159	6.48
333.532	6.94
333.904	6.75
334.276	6.73
334.648	6.63
335.02	7.07
335.391	6.6
335.763	6.76
336.135	7.18
336.507	6.62
336.879	6.6
337.25	6.31
337.622	6.94
337.993	7.14
338.365	6.66
338.736	6.54
339.108	6.68
339.479	6.54
339.851	6.98
340.222	6.62
340.593	6.41
340.964	6.71
341.336	7.12
341.707	7.25
342.078	6.62
342.449	6.62
342.82	6.84
343.191	6.66
343.562	6.56
343.933	6.48
344.303	6.75
344.674	6.84
345.045	7.02
345.416	6.42
345.786	6.75
346.157	6.67
346.527	6.43
346.898	6.49
347.268	6.68
347.639	6.61
348.009	6.5
348.38	6.43
348.75	6.68
349.12	6.55
349.49	6.23
349.861	7.05
350.231	6.66
350.601	6.78
350.971	7.02
351.341	6.95
351.711	7.2
352.081	6.55
352.45	6.69
352.82	6.71
353.19	7.06
353.56	6.83
353.929	6.6
354.299	6.57
354.669	6.75
355.038	6.71
355.408	7.1
355.777	6.69
356.147	6.77
356.516	6.61
356.885	6.67
357.254	6.63
357.624	6.81
357.993	6.49
358.362	6.48
358.731	6.49
359.1	6.27
359.469	6.41
359.838	6.63
360.207	6.7
360.576	6.78
360.945	6.38
361.314	6.66
361.682	6.45
362.051	6.34
362.42	6.65
362.788	6.56
363.157	6.71
363.525	6.58
363.894	6.47
364.262	6.58
364.631	6.8
364.999	6.62
365.367	6.71
365.735	6.74
366.104	6.36
366.472	6.65
366.84	6.78
367.208	6.69
367.576	6.36
367.944	6.43
368.312	6.4
368.68	6.6
369.048	6.8
369.416	6.51
369.783	6.95
370.151	6.64
370.519	6.69
370.886	6.74
371.254	7.05
371.621	6.87
371.989	6.91
372.356	6.75
372.724	6.8
373.091	6.73
373.458	6.6
373.826	6.64
374.193	6.36
374.56	6.91
374.927	6.6
375.294	6.78
375.661	6.76
376.028	6.83
376.395	7.1
376.762	6.55
377.129	6.74
377.496	6.48
377.863	6.74
378.229	7.13
378.596	6.66
378.963	6.58
379.329	7.14
379.696	6.96
380.062	6.75
380.429	6.73
380.795	6.79
381.161	6.68
381.528	6.92
381.894	6.68
382.26	6.94
382.626	6.98
382.993	6.57
383.359	6.62
383.725	6.58
384.091	6.59
384.457	6.65
384.823	6.71
385.188	6.79
385.554	6.56
385.92	7.04
386.286	6.9
386.651	6.65
387.017	6.83
387.383	6.51
387.748	6.63
388.114	6.65
388.479	6.79
388.845	7.15
389.21	6.81
389.575	6.65
389.94	6.67
390.306	6.49
390.671	6.65
391.036	6.69
391.401	6.85
391.766	7.04
392.131	6.83
392.496	6.93
392.861	6.87
393.226	6.86
393.591	6.53
393.956	6.88
394.32	7.12
394.685	6.72
395.05	7.01
395.414	7.02
395.779	6.8
396.143	6.73
396.508	6.72
396.872	7.09
397.236	7.08
397.601	6.75
397.965	6.74
398.329	6.62
398.694	6.92
399.058	6.64
399.422	7.07
399.786	6.58
400.15	6.82
400.514	6.6
400.878	6.99
401.242	6.7
401.605	6.87
401.969	6.7
402.333	6.82
402.697	6.85
403.06	6.73
403.424	6.8
403.787	7.21
404.151	6.83
404.514	6.92
404.878	6.94
405.241	6.84
405.604	6.63
405.968	6.97
406.331	6.84
406.694	7.06
407.057	6.83
407.42	7.01
407.783	7.01
408.146	6.81
408.509	6.96
408.872	7.2
409.235	7.03
409.598	7.05
409.961	7.1
410.323	6.74
410.686	6.65
411.049	6.77
411.411	6.9
411.774	7.01
412.136	6.99
412.499	6.92
412.861	6.96
413.223	7.11
413.586	6.86
413.948	7.26
414.31	7.22
414.672	6.91
415.035	6.83
415.397	7.08
415.759	7.11
416.121	6.95
416.483	6.88
416.845	6.99
417.206	7.08
417.568	7.21
417.93	7.13
418.292	6.91
418.653	7.05
419.015	6.87
419.377	7.05
419.738	7.08
420.1	6.88
420.461	7.06
420.822	6.89
421.184	6.99
421.545	6.99
421.906	6.82
422.267	6.86
422.629	6.92
422.99	6.85
423.351	6.93
423.712	6.9
424.073	6.91
424.434	6.83
424.795	6.88
425.155	7.01
425.516	6.95
425.877	6.88
426.238	6.8
426.598	7.01
426.959	6.87
427.32	6.92
427.68	7
428.041	6.86
428.401	6.98
428.761	7.07
429.122	6.99
429.482	7.18
429.842	6.98
430.202	7.22
430.563	7.15
430.923	7.12
431.283	7.08
431.643	7.2
432.003	7.28
432.363	7.08
432.722	7.23
433.082	7.27
433.442	7.09
433.802	7.08
434.161	7.09
434.521	7.21
434.881	7.21
435.24	7.1
435.6	7.07
435.959	7.03
436.319	7.3
436.678	7.2
437.037	6.95
437.396	7.2
437.756	7.25
438.115	7.12
438.474	7.21
438.833	7.14
439.192	7.13
439.551	7.06
439.91	7.25
440.269	7.25
440.628	7.33
440.987	7.3
441.345	7.17
441.704	7.16
442.063	7.16
442.421	7.15
442.78	7.18
443.138	7.27
443.497	7.26
443.855	7.2
444.214	7.17
444.572	7.21
444.93	7.4
445.288	7.38
445.647	7.43
446.005	7.15
446.363	7.25
446.721	7.31
447.079	7.34
447.437	7.21
447.795	7.12
448.153	7.22
448.51	7.19
448.868	7.12
449.226	7.16
449.584	7.21
449.941	7.14
450.299	7.26
450.656	7.14
451.014	7.31
451.371	7.39
451.729	7.25
452.086	7.43
452.443	7.38
452.801	7.2
453.158	7.42
453.515	7.35
453.872	7.31
454.229	7.38
454.586	7.48
454.943	7.32
455.3	7.32
455.657	7.38
456.014	7.3
456.371	7.39
456.727	7.46
457.084	7.49
457.441	7.41
457.797	7.42
458.154	7.35
458.51	7.57
458.867	7.57
459.223	7.48
459.58	7.49
459.936	7.4
460.292	7.32
460.648	7.35
461.005	7.4
461.361	7.35
461.717	7.33
462.073	7.44
462.429	7.42
462.785	7.29
463.141	7.44
463.496	7.42
463.852	7.54
464.208	7.46
464.564	7.61
464.919	7.52
465.275	7.84
465.631	7.83
465.986	7.53
466.342	7.48
466.697	7.57
467.052	7.48
467.408	7.68
467.763	7.72
468.118	7.72
468.473	7.63
468.829	7.57
469.184	7.58
469.539	7.6
469.894	7.52
470.249	7.55
470.603	7.68
470.958	7.67
471.313	7.72
471.668	7.63
472.023	7.62
472.377	7.68
472.732	7.64
473.086	7.82
473.441	7.7
473.795	7.91
474.15	7.78
474.504	7.57
474.859	7.92
475.213	7.71
475.567	7.65
475.921	7.7
476.275	7.71
476.63	7.79
476.984	7.84
477.338	7.69
477.692	7.67
478.045	7.67
478.399	7.62
478.753	7.84
479.107	7.84
479.461	7.74
479.814	7.83
480.168	7.77
480.521	7.8
480.875	7.77
481.228	7.78
481.582	7.84
481.935	7.73
482.289	7.7
482.642	7.7
482.995	7.63
483.348	7.77
483.701	7.79
484.055	7.66
484.408	7.64
484.761	7.71
485.114	7.56
485.466	7.48
485.819	7.46
486.172	7.36
486.525	7.33
486.878	7.35
487.23	7.41
487.583	7.47
487.936	7.53
488.288	7.68
488.641	7.68
488.993	7.58
489.345	7.59
489.698	7.58
490.05	7.53
490.402	7.49
490.754	7.54
491.107	7.54
491.459	7.61
491.811	7.73
492.163	7.75
492.515	7.78
492.866	7.83
493.218	7.74
493.57	7.68
493.922	7.63
494.274	7.64
494.625	7.62
494.977	7.66
495.328	7.76
495.68	7.85
496.031	7.81
496.383	7.88
496.734	8.01
497.086	7.9
497.437	7.86
497.788	7.92
498.139	8.1
498.49	7.93
498.842	7.86
499.193	7.99
499.544	7.97
499.894	7.92
500.245	7.84
500.596	7.98
500.947	7.94
501.298	7.97
501.648	8.05
501.999	7.91
502.35	7.93
502.7	8.26
503.051	8.03
503.401	8.12
503.752	8.15
504.102	8.06
504.452	8.06
504.803	8.09
505.153	8.11
505.503	8.09
505.853	8.26
506.203	8.09
506.553	8.1
506.903	8.14
507.253	8.19
507.603	8.18
507.953	8.2
508.303	8.13
508.652	8.3
509.002	8.23
509.352	8.26
509.701	8.22
510.051	8.14
510.4	8.18
510.75	8.23
511.099	8.15
511.449	8.15
511.798	8.32
512.147	8.22
512.496	8.24
512.846	8.13
513.195	8.27
513.544	8.19
513.893	8.12
514.242	8.28
514.591	8.14
514.939	8.23
515.288	8.18
515.637	8.4
515.986	8.37
516.334	8.17
516.683	8.27
517.032	8.26
517.38	8.36
517.729	8.31
518.077	8.28
518.426	8.26
518.774	8.16
519.122	8.43
519.47	8.3
519.819	8.23
520.167	8.27
520.515	8.27
520.863	8.35
521.211	8.24
521.559	8.21
521.907	8.2
522.255	8.36
522.602	8.42
522.95	8.28
523.298	8.32
523.645	8.43
523.993	8.37
524.341	8.36
524.688	8.4
525.036	8.5
525.383	8.4
525.73	8.66
526.078	8.42
526.425	8.41
526.772	8.42
527.119	8.38
527.466	8.41
527.814	8.32
528.161	8.34
528.508	8.26
528.854	8.29
529.201	8.31
529.548	8.24
529.895	8.34
530.242	8.27
530.588	8.18
530.935	8.23
531.282	8.18
531.628	8.14
531.975	8.01
532.321	8.16
532.667	8.3
533.014	8.41
533.36	8.49
533.706	8.47
534.052	8.51
534.399	8.32
534.745	8.37
535.091	8.37
535.437	8.46
535.783	8.42
536.129	8.36
536.474	8.37
536.82	8.49
537.166	8.45
537.512	8.52
537.857	8.55
538.203	8.54
538.549	8.64
538.894	8.62
539.239	8.59
539.585	8.49
539.93	8.51
540.276	8.64
540.621	8.64
540.966	8.71
541.311	8.64
541.656	8.71
542.001	8.77
542.346	8.67
542.691	8.47
543.036	8.61
543.381	8.59
543.726	8.5
544.071	8.51
544.415	8.48
544.76	8.47
545.105	8.6
545.449	8.64
545.794	8.7
546.138	8.69
546.483	8.61
546.827	8.67
547.171	8.78
547.516	8.72
547.86	8.83
548.204	8.68
548.548	8.85
548.892	8.81
549.236	8.75
549.58	8.73
549.924	8.74
550.268	8.86
550.612	8.92
550.956	8.87
551.3	8.79
551.643	8.77
551.987	8.99
552.33	8.89
552.674	8.98
553.017	8.95
553.361	9.18
553.704	9.06
554.048	9.07
554.391	8.98
554.734	9.11
555.077	9.06
555.42	8.93
555.764	8.96
556.107	9.11
556.45	9.1
556.793	8.93
557.135	8.96
557.478	8.95
557.821	9.16
558.164	9.34
558.507	8.94
558.849	9.31
559.192	9.04
559.534	9.44
559.877	9.03
560.219	9.2
560.562	9.28
560.904	8.91
561.246	9.31
561.589	8.96
561.931	9.11
562.273	9.38
562.615	9.42
562.957	9.33
563.299	9.25
563.641	9.34
563.983	9.3
564.325	9.3
564.667	9.05
565.008	9.14
565.35	9.21
565.692	9.45
566.033	9.4
566.375	9.42
566.716	9.36
567.058	9.17
567.399	9.48
567.741	9.19
568.082	9.39
568.423	9.32
568.764	9.38
569.105	9.39
569.447	9.27
569.788	9.36
570.129	9.35
570.47	9.34
570.811	9.42
571.151	9.31
571.492	9.46
571.833	9.48
572.174	9.73
572.514	9.36
572.855	9.41
573.195	9.43
573.536	9.16
573.876	9.48
574.217	9.3
574.557	9.23
574.898	9.29
575.238	9.43
575.578	9.34
575.918	9.2
576.258	9.4
576.598	9.73
576.938	9.48
577.278	9.53
577.618	9.38
577.958	9.46
578.298	9.52
578.638	9.71
578.977	9.54
579.317	9.49
579.657	9.59
579.996	9.52
580.336	9.68
580.675	9.39
581.014	9.67
581.354	9.72
581.693	9.68
582.032	9.77
582.372	9.65
582.711	9.79
583.05	9.91
583.389	9.74
583.728	9.85
584.067	9.73
584.406	9.63
584.745	9.67
585.083	9.65
585.422	9.83
585.761	9.64
586.1	9.86
586.438	9.47
586.777	9.8
587.115	9.77
587.454	9.86
587.792	9.79
588.13	9.97
588.469	9.99
588.807	9.3
589.145	9.91
589.483	9.55
589.821	9.99
590.159	9.83
590.497	10.02
590.835	9.88
591.173	9.94
591.511	10.12
591.849	9.79
592.187	9.87
592.524	9.78
592.862	9.91
593.2	10.09
593.537	9.87
593.875	9.95
594.212	10
594.55	10.08
594.887	9.89
595.224	9.81
595.561	9.99
595.899	9.93
596.236	10
596.573	9.9
596.91	9.96
597.247	10.05
597.584	9.75
597.921	10.05
598.258	10.01
598.594	10.02
598.931	9.94
599.268	9.96
599.604	10
599.941	9.72
600.277	9.83
600.614	9.98
600.95	10.01
601.287	9.7
601.623	10.2
601.959	10.28
602.296	10.25
602.632	10.15
602.968	10.07
603.304	10.12
603.64	10.04
603.976	10.13
604.312	10.48
604.648	10.23
604.984	10.32
605.319	10.34
605.655	10.01
605.991	10.11
606.326	10.12
606.662	9.97
606.998	10.1
607.333	10.12
607.668	10.16
608.004	9.92
608.339	10.02
608.674	10.14
609.01	10.22
609.345	10.4
609.68	10.36
610.015	10.25
610.35	10.52
610.685	10.51
611.02	10.24
611.355	10.28
611.689	10.42
612.024	10.38
612.359	10.29
612.694	10.28
613.028	10.09
613.363	10.26
613.697	10.44
614.032	10.45
614.366	10.35
614.7	10.38
615.035	10.21
615.369	10.47
615.703	9.83
616.037	10.42
616.371	10.41
616.705	10.43
617.039	10.7
617.373	10.55
617.707	10.59
618.041	10.51
618.375	10.43
618.709	10.56
619.042	10.26
619.376	10.58
619.71	10.71
620.043	10.69
620.377	10.36
620.71	10.62
621.043	10.47
621.377	10.46
621.71	10.41
622.043	10.78
622.376	11.19
622.709	10.77
623.043	10.86
623.376	10.59
623.709	10.77
624.041	10.99
624.374	10.88
624.707	10.65
625.04	10.78
625.373	11.11
625.705	10.62
626.038	10.8
626.37	10.43
626.703	10.58
627.035	10.59
627.368	10.91
627.7	10.95
628.032	10.75
628.365	11.35
628.697	11.03
629.029	10.77
629.361	10.69
629.693	10.63
630.025	10.81
630.357	10.75
630.689	10.68
631.021	11.26
631.353	10.68
631.684	10.72
632.016	10.99
632.348	10.84
632.679	10.57
633.011	10.95
633.342	10.62
633.674	10.99
634.005	11.11
634.336	11.36
634.668	10.63
634.999	10.92
635.33	10.82
635.661	11.15
635.992	11.45
636.323	11.11
636.654	10.92
636.985	10.9
637.316	11.18
637.647	10.83
637.977	10.73
638.308	10.93
638.639	11.22
638.969	11.17
639.3	10.59
639.63	10.99
639.961	11
640.291	11.36
640.622	10.73
640.952	11.21
641.282	11.07
641.612	11.09
641.943	10.97
642.273	10.85
642.603	11.03
642.933	11.4
643.263	11.32
643.592	10.99
643.922	11.63
644.252	10.95
644.582	10.86
644.911	11.3
645.241	11.06
645.571	11.56
645.9	11.01
646.23	11.21
646.559	11.1
646.888	11.45
647.218	11.19
647.547	11.47
647.876	11.03
648.205	11.34
648.534	11.34
648.863	11.22
649.192	11.08
649.521	10.7
649.85	11.47
650.179	11.3
650.508	11.4
650.837	11.4
651.165	11.76
651.494	11.19
651.822	11.34
652.151	11.54
652.479	11.31
652.808	10.99
653.136	10.88
653.465	11.83
653.793	11.91
654.121	11.78
654.449	11.48
654.777	11.37
655.105	11.62
655.433	11.93
655.761	11.56
656.089	11.47
656.417	11.38
656.745	11.39
657.073	11.68
657.4	12.41
657.728	11.71
658.056	11.8
658.383	11.95
658.711	11.31
659.038	11.8
659.365	11.59
659.693	11.54
660.02	11.57
660.347	11.47
660.674	11.37
661.001	11.24
661.329	11.8
661.656	11.89
661.982	11.4
662.309	11.37
662.636	11.71
662.963	11.84
663.29	11.58
663.616	11.59
663.943	11.47
664.27	12.11
664.596	11.4
664.923	11.55
665.249	11.97
665.576	12.1
665.902	11.11
666.228	12.37
666.554	12.13
666.881	11.36
667.207	11.79
667.533	11.3
667.859	12.29
668.185	11.86
668.511	12.22
668.837	12.27
669.162	12.24
669.488	11.95
669.814	11.87
670.139	12.16
670.465	11.77
670.791	12.21
671.116	12.09
671.442	11.99
671.767	11.65
672.092	12.23
672.418	11.59
672.743	11.68
673.068	12.3
673.393	12.27
673.718	12.12
674.043	11.44
674.368	12.03
674.693	12.67
675.018	12.06
675.343	12.25
675.667	12.12
675.992	12.04
676.317	12.4
676.641	12.63
676.966	12.89
677.29	11.88
677.615	12
677.939	12.37
678.264	12.18
678.588	11.74
678.912	12.03
679.236	12.03
679.56	12.29
679.885	12.35
680.209	12.55
680.532	11.87
680.856	11.79
681.18	11.99
681.504	12.21
681.828	12.68
682.152	12.68
682.475	12.34
682.799	12.46
683.122	12.2
683.446	12.39
683.769	13.09
684.093	12.42
684.416	12.35
684.739	11.98
685.062	11.8
685.386	12.38
685.709	12.33
686.032	12.08
686.355	12.58
686.678	12.14
687.001	12.76
