Data from 0264_forehead_Reflection__1__164.txt Node

Date: Fri Oct 20 21:56:21 CDT 2023
User: ToomeyLab
Spectrometer: FLMS14357
Trigger mode: 0
Integration Time (sec): 1.000000E-2
Scans to average: 100
Electric dark correction enabled: true
Nonlinearity correction enabled: false
Boxcar width: 0
XAxis mode: Wavelengths
Number of Pixels in Spectrum: 2048
>>>>>Begin Spectral Data<<<<<
189.047	337.5
189.435	337.5
189.823	337.5
190.211	-5.44
190.599	-334.52
190.987	116.34
191.375	230.94
191.763	20.61
192.151	66.15
192.538	112.57
192.926	29.38
193.314	129.62
193.702	38.16
194.089	59.88
194.477	1885
194.864	98.48
195.252	31.63
195.639	-127.14
196.027	444.32
196.414	177.36
196.801	49.76
197.189	99.53
197.576	186.84
197.963	-2858.33
198.351	70.35
198.738	33.74
199.125	39.39
199.512	16.43
199.899	43.74
200.286	-12.8
200.673	69.31
201.06	23.26
201.447	50.6
201.833	53.9
202.22	92.32
202.607	35.82
202.994	52.49
203.38	5.7
203.767	18.49
204.154	68.41
204.54	50.57
204.927	21.41
205.313	35.4
205.699	70.02
206.086	-3.85
206.472	33.93
206.858	77.82
207.245	21.96
207.631	69.16
208.017	21.64
208.403	12.1
208.789	49.91
209.175	16.46
209.561	16.77
209.947	27.98
210.333	34.73
210.719	27.79
211.105	23.7
211.491	22.67
211.876	24.28
212.262	30.06
212.648	32.53
213.034	17
213.419	13.14
213.805	-10.69
214.19	11.4
214.576	19.89
214.961	23.9
215.346	9.22
215.732	23.49
216.117	-4.47
216.502	22.87
216.888	9.67
217.273	-1.78
217.658	47.93
218.043	1.39
218.428	27.54
218.813	12.51
219.198	16.8
219.583	-3.18
219.968	7.41
220.353	18.08
220.738	31.05
221.122	3.7
221.507	22.09
221.892	33.77
222.276	21.99
222.661	25.97
223.046	14.03
223.43	6.18
223.815	14.99
224.199	18.65
224.583	1.22
224.968	7.02
225.352	0.93
225.736	8.25
226.121	4.16
226.505	3.93
226.889	14.77
227.273	11.37
227.657	13.49
228.041	5.2
228.425	4.73
228.809	2.75
229.193	4.73
229.577	6.85
229.961	3.72
230.344	2.98
230.728	2.43
231.112	3.95
231.495	2.93
231.879	3.41
232.263	4.45
232.646	4.24
233.03	2.56
233.413	3.08
233.797	1.81
234.18	2.8
234.563	3.49
234.946	5.87
235.33	4.08
235.713	4.86
236.096	4.5
236.479	4.02
236.862	4.46
237.245	3.01
237.628	2.84
238.011	4.11
238.394	3.84
238.777	4.38
239.16	4.2
239.543	4.15
239.925	5.56
240.308	4.25
240.691	3.88
241.073	3.97
241.456	4.05
241.838	3.31
242.221	4.31
242.603	4.09
242.986	2.92
243.368	3.6
243.75	3.02
244.133	2.71
244.515	2.97
244.897	2.76
245.279	3.06
245.661	3.07
246.043	2.79
246.425	2.92
246.807	3.14
247.189	3.36
247.571	2.7
247.953	3.3
248.335	3.49
248.717	2.83
249.098	2.73
249.48	2.68
249.862	3.01
250.243	3.09
250.625	2.89
251.006	3.21
251.388	2.95
251.769	3.76
252.151	3.53
252.532	3.14
252.913	3.83
253.295	2.53
253.676	2.85
254.057	3.04
254.438	2.86
254.819	3.11
255.2	3.43
255.581	3.43
255.962	3.59
256.343	3.59
256.724	2.21
257.105	3.31
257.486	3.03
257.867	2.61
258.247	3.98
258.628	3.28
259.009	3.43
259.389	2.4
259.77	2.88
260.15	2.82
260.531	3.27
260.911	3.03
261.292	2.83
261.672	3.05
262.052	3.07
262.432	2.94
262.813	2.86
263.193	3.23
263.573	2.81
263.953	3.42
264.333	3.49
264.713	3.24
265.093	3.58
265.473	4.24
265.853	2.81
266.233	3.53
266.612	4.16
266.992	3.88
267.372	3.37
267.752	2.71
268.131	2.91
268.511	3.8
268.89	3.24
269.27	2.9
269.649	2.99
270.029	2.83
270.408	3.05
270.787	3.23
271.167	3.06
271.546	3.22
271.925	3.74
272.304	3.18
272.683	2.97
273.062	2.96
273.441	3.1
273.82	3.07
274.199	3.4
274.578	2.8
274.957	3.59
275.336	3.02
275.715	3.51
276.093	3.33
276.472	3.16
276.851	3.32
277.229	3.17
277.608	2.85
277.986	2.88
278.365	3.08
278.743	3.23
279.122	3.08
279.5	3.22
279.878	2.51
280.257	3.66
280.635	2.99
281.013	3.73
281.391	3.44
281.769	3.07
282.147	3.02
282.525	3.11
282.903	3.44
283.281	3.16
283.659	3.08
284.037	3.35
284.415	2.57
284.792	3.11
285.17	3.11
285.548	2.74
285.925	2.82
286.303	3.25
286.68	2.83
287.058	3.43
287.435	3.47
287.813	2.66
288.19	3.01
288.567	2.96
288.945	2.9
289.322	3.46
289.699	3.09
290.076	3.64
290.453	3.24
290.83	3.41
291.207	3.79
291.584	3.2
291.961	3.09
292.338	3.42
292.715	3.36
293.092	3.23
293.469	3.43
293.845	3.34
294.222	3.61
294.599	3.84
294.975	4.24
295.352	3.82
295.728	3.91
296.105	3.53
296.481	3.73
296.858	3.49
297.234	3.67
297.61	3.32
297.986	3.81
298.363	3.95
298.739	3.62
299.115	3.61
299.491	3.78
299.867	3.76
300.243	3.59
300.619	4.07
300.995	3.66
301.371	4.23
301.746	4.24
302.122	4.45
302.498	3.95
302.874	4.29
303.249	4.06
303.625	4.34
304	4.72
304.376	4.17
304.751	4.14
305.127	3.88
305.502	4.95
305.878	4.11
306.253	4.62
306.628	4.74
307.003	4.09
307.378	5.08
307.754	4.65
308.129	5.28
308.504	4.76
308.879	4.5
309.254	5.07
309.629	4.25
310.003	4.23
310.378	4.76
310.753	4.77
311.128	5.26
311.502	4.59
311.877	4.45
312.252	4.78
312.626	5.52
313.001	5.18
313.375	4.74
313.75	4.78
314.124	4.53
314.498	4.91
314.873	4.89
315.247	4.91
315.621	5.01
315.995	5.65
316.369	5.4
316.743	5.32
317.117	5.5
317.491	4.63
317.865	5.48
318.239	6.14
318.613	5.73
318.987	5.05
319.361	4.9
319.734	5.18
320.108	4.93
320.482	6.15
320.855	5.92
321.229	5.82
321.602	5.77
321.976	5.51
322.349	6.17
322.723	5.87
323.096	5.38
323.469	5.41
323.843	5.95
324.216	5.72
324.589	6
324.962	6.16
325.335	6.49
325.708	5.53
326.081	6.34
326.454	6.14
326.827	5.96
327.2	6.17
327.573	5.74
327.945	6.13
328.318	5.48
328.691	5.9
329.063	6.32
329.436	6.06
329.809	6.09
330.181	6.45
330.553	6.25
330.926	6.54
331.298	5.84
331.671	5.71
332.043	6.38
332.415	5.71
332.787	6.09
333.159	6.21
333.532	6.52
333.904	6.53
334.276	6.71
334.648	6.69
335.02	6.67
335.391	6.47
335.763	6.66
336.135	6.36
336.507	6.75
336.879	6.37
337.25	6.65
337.622	6.7
337.993	6.93
338.365	6.11
338.736	6.91
339.108	6.86
339.479	6.65
339.851	6.47
340.222	6.13
340.593	6.2
340.964	6.37
341.336	6.99
341.707	6.51
342.078	6.97
342.449	6.38
342.82	6.7
343.191	6.83
343.562	6.93
343.933	6.77
344.303	6.98
344.674	7.02
345.045	7.05
345.416	7.68
345.786	6.88
346.157	7.31
346.527	7.04
346.898	6.94
347.268	7.12
347.639	7.25
348.009	6.67
348.38	7.23
348.75	7.03
349.12	6.98
349.49	7.3
349.861	7.16
350.231	6.98
350.601	7.41
350.971	7.47
351.341	6.92
351.711	7.52
352.081	7.67
352.45	7.41
352.82	7.55
353.19	7.81
353.56	7.54
353.929	7.27
354.299	7.49
354.669	7.32
355.038	7.22
355.408	7.5
355.777	7.38
356.147	7.36
356.516	7.26
356.885	7.45
357.254	7.44
357.624	7.32
357.993	7.24
358.362	7.75
358.731	7.23
359.1	7.05
359.469	7.41
359.838	7.73
360.207	7.34
360.576	7.74
360.945	7.35
361.314	7.47
361.682	7.36
362.051	7.51
362.42	7.58
362.788	7.49
363.157	7.5
363.525	7.52
363.894	7.67
364.262	7.68
364.631	7.69
364.999	7.46
365.367	7.77
365.735	7.77
366.104	7.4
366.472	7.63
366.84	8.15
367.208	7.8
367.576	8.11
367.944	8.13
368.312	7.85
368.68	8.07
369.048	7.9
369.416	8.22
369.783	8.39
370.151	8.16
370.519	8.18
370.886	8.04
371.254	8.55
371.621	8.28
371.989	8.13
372.356	8.31
372.724	8.38
373.091	7.97
373.458	8.09
373.826	8.04
374.193	7.85
374.56	8.1
374.927	8.21
375.294	8.44
375.661	8.41
376.028	8.64
376.395	8.51
376.762	8.56
377.129	8.25
377.496	8.33
377.863	8.41
378.229	8.86
378.596	8.41
378.963	8.65
379.329	8.63
379.696	8.41
380.062	8.73
380.429	8.64
380.795	8.57
381.161	8.66
381.528	8.65
381.894	8.77
382.26	8.94
382.626	8.74
382.993	8.66
383.359	8.71
383.725	8.8
384.091	8.95
384.457	8.93
384.823	8.96
385.188	9.12
385.554	8.84
385.92	8.73
386.286	9.08
386.651	8.91
387.017	9.01
387.383	9.1
387.748	8.8
388.114	8.71
388.479	8.87
388.845	9.34
389.21	8.76
389.575	8.65
389.94	8.97
390.306	8.99
390.671	8.83
391.036	9.11
391.401	9.09
391.766	9.21
392.131	9.16
392.496	9.36
392.861	9.19
393.226	9.34
393.591	8.99
393.956	9.26
394.32	9.48
394.685	8.99
395.05	9.38
395.414	9.35
395.779	9.24
396.143	9.25
396.508	9.26
396.872	9.36
397.236	9.34
397.601	9.25
397.965	9.55
398.329	9.28
398.694	9.5
399.058	9.19
399.422	9.63
399.786	9.56
400.15	9.44
400.514	9.4
400.878	9.78
401.242	9.67
401.605	9.7
401.969	9.55
402.333	9.55
402.697	9.75
403.06	9.4
403.424	9.69
403.787	9.64
404.151	9.72
404.514	9.87
404.878	9.85
405.241	9.74
405.604	9.87
405.968	9.63
406.331	9.73
406.694	9.77
407.057	9.76
407.42	10.1
407.783	9.74
408.146	9.77
408.509	9.93
408.872	9.96
409.235	9.91
409.598	10.06
409.961	10.09
410.323	10.05
410.686	9.8
411.049	10.28
411.411	10.1
411.774	10.04
412.136	10.08
412.499	10.02
412.861	10.23
413.223	10.15
413.586	10.26
413.948	10.32
414.31	10.2
414.672	10.04
415.035	10.25
415.397	10.4
415.759	10.4
416.121	10.37
416.483	10.33
416.845	10.39
417.206	10.3
417.568	10.44
417.93	10.31
418.292	10.17
418.653	10.25
419.015	10.24
419.377	10.26
419.738	10.35
420.1	10.18
420.461	10.31
420.822	10.32
421.184	10.18
421.545	10.23
421.906	10.02
422.267	10.24
422.629	10.32
422.99	10.15
423.351	10.29
423.712	10.29
424.073	10.35
424.434	10.29
424.795	10.37
425.155	10.54
425.516	10.52
425.877	10.43
426.238	10.39
426.598	10.42
426.959	10.41
427.32	10.47
427.68	10.59
428.041	10.52
428.401	10.74
428.761	10.74
429.122	10.67
429.482	10.98
429.842	11.01
430.202	10.88
430.563	10.97
430.923	11.03
431.283	11
431.643	11.13
432.003	11.11
432.363	11.1
432.722	11.09
433.082	11.07
433.442	10.9
433.802	11.16
434.161	11.03
434.521	11.22
434.881	11.21
435.24	11.11
435.6	11.15
435.959	10.98
436.319	11.14
436.678	11.23
437.037	11.22
437.396	11.34
437.756	11.34
438.115	11.01
438.474	11.54
438.833	11.47
439.192	11.32
439.551	11.32
439.91	11.39
440.269	11.36
440.628	11.49
440.987	11.48
441.345	11.33
441.704	11.48
442.063	11.33
442.421	11.44
442.78	11.26
443.138	11.5
443.497	11.49
443.855	11.43
444.214	11.54
444.572	11.52
444.93	11.74
445.288	11.69
445.647	11.75
446.005	11.47
446.363	11.91
446.721	11.75
447.079	11.8
447.437	11.7
447.795	11.68
448.153	11.57
448.51	11.74
448.868	11.51
449.226	11.54
449.584	11.69
449.941	11.74
450.299	11.85
450.656	11.89
451.014	11.88
451.371	12.03
451.729	11.91
452.086	11.98
452.443	12.12
452.801	11.94
453.158	12.33
453.515	12.23
453.872	12.03
454.229	12.4
454.586	12.21
454.943	12.28
455.3	12.08
455.657	12.27
456.014	12.29
456.371	12.38
456.727	12.42
457.084	12.27
457.441	12.56
457.797	12.46
458.154	12.53
458.51	12.53
458.867	12.64
459.223	12.42
459.58	12.55
459.936	12.62
460.292	12.61
460.648	12.62
461.005	12.41
461.361	12.47
461.717	12.41
462.073	12.45
462.429	12.42
462.785	12.57
463.141	12.62
463.496	12.66
463.852	12.81
464.208	12.82
464.564	12.94
464.919	12.79
465.275	13.35
465.631	13.06
465.986	13.15
466.342	13
466.697	13.02
467.052	13.05
467.408	12.99
467.763	13.32
468.118	13.31
468.473	13.23
468.829	13.18
469.184	13.21
469.539	13.16
469.894	13.18
470.249	13.39
470.603	13.18
470.958	13.46
471.313	13.63
471.668	13.44
472.023	13.45
472.377	13.36
472.732	13.21
473.086	13.43
473.441	13.66
473.795	13.58
474.15	13.44
474.504	13.58
474.859	13.5
475.213	13.67
475.567	13.68
475.921	13.66
476.275	13.48
476.63	13.83
476.984	13.88
477.338	13.8
477.692	13.65
478.045	13.73
478.399	13.61
478.753	13.69
479.107	14.01
479.461	13.86
479.814	13.98
480.168	13.99
480.521	13.83
480.875	13.78
481.228	13.88
481.582	14.09
481.935	14
482.289	14.02
482.642	13.97
482.995	14.01
483.348	14.03
483.701	13.87
484.055	13.98
484.408	13.87
484.761	13.86
485.114	13.53
485.466	13.42
485.819	13.26
486.172	13.18
486.525	13.3
486.878	13.49
487.23	13.58
487.583	13.68
487.936	13.8
488.288	13.93
488.641	13.94
488.993	13.75
489.345	13.73
489.698	13.65
490.05	13.66
490.402	13.71
490.754	13.82
491.107	14
491.459	14.13
491.811	14.25
492.163	14.21
492.515	14.34
492.866	14.4
493.218	14.16
493.57	14
493.922	13.95
494.274	14.09
494.625	14.24
494.977	14.48
495.328	14.64
495.68	14.68
496.031	14.72
496.383	15
496.734	14.98
497.086	15.01
497.437	15.05
497.788	14.98
498.139	15.12
498.49	15.02
498.842	14.77
499.193	15
499.544	15.06
499.894	15.06
500.245	15.23
500.596	15.22
500.947	15.11
501.298	15.25
501.648	15.22
501.999	15.37
502.35	15.35
502.7	15.5
503.051	15.53
503.401	15.46
503.752	15.67
504.102	15.69
504.452	15.64
504.803	15.67
505.153	15.86
505.503	15.65
505.853	15.75
506.203	15.68
506.553	15.69
506.903	15.78
507.253	15.94
507.603	15.89
507.953	15.9
508.303	15.8
508.652	16.04
509.002	15.96
509.352	15.93
509.701	16.11
510.051	15.95
510.4	15.95
510.75	16.01
511.099	15.86
511.449	16.04
511.798	16.09
512.147	16.04
512.496	16.11
512.846	16.05
513.195	16.2
513.544	16.24
513.893	16.13
514.242	16.3
514.591	16.27
514.939	16.24
515.288	16.26
515.637	16.43
515.986	16.43
516.334	16.5
516.683	16.53
517.032	16.36
517.38	16.51
517.729	16.71
518.077	16.67
518.426	16.59
518.774	16.54
519.122	16.62
519.47	16.58
519.819	16.63
520.167	16.54
520.515	16.54
520.863	16.39
521.211	16.46
521.559	16.6
521.907	16.67
522.255	16.72
522.602	16.93
522.95	16.82
523.298	17.02
523.645	17.04
523.993	17.12
524.341	17.04
524.688	17.22
525.036	17.31
525.383	17.13
525.73	17.36
526.078	17.23
526.425	17.42
526.772	17.21
527.119	17.26
527.466	17.07
527.814	17.14
528.161	17.1
528.508	17.06
528.854	17.09
529.201	17.09
529.548	17.22
529.895	17.05
530.242	16.84
530.588	16.62
530.935	16.73
531.282	16.84
531.628	17.03
531.975	17.11
532.321	17.2
532.667	17.4
533.014	17.39
533.36	17.65
533.706	17.82
534.052	17.72
534.399	17.59
534.745	17.54
535.091	17.5
535.437	17.42
535.783	17.52
536.129	17.69
536.474	17.76
536.82	18.02
537.166	17.96
537.512	18.16
537.857	18.13
538.203	18.15
538.549	18.12
538.894	17.99
539.239	18.1
539.585	18.19
539.93	18.35
540.276	18.52
540.621	18.5
540.966	18.68
541.311	18.69
541.656	18.67
542.001	18.81
542.346	18.59
542.691	18.47
543.036	18.32
543.381	18.06
543.726	18.16
544.071	18.21
544.415	18.32
544.76	18.48
545.105	18.68
545.449	18.53
545.794	18.8
546.138	18.77
546.483	18.96
546.827	18.99
547.171	19.21
547.516	19.1
547.86	19.25
548.204	19.09
548.548	19.14
548.892	19.18
549.236	19.28
549.58	19.11
549.924	19.43
550.268	19.56
550.612	19.6
550.956	19.84
551.3	19.73
551.643	19.98
551.987	20.11
552.33	20.17
552.674	20.02
553.017	20.04
553.361	20.22
553.704	20.01
554.048	20.18
554.391	20.07
554.734	20.22
555.077	20.25
555.42	20.03
555.764	20.13
556.107	20.48
556.45	20.45
556.793	20.23
557.135	20.35
557.478	20.47
557.821	20.6
558.164	20.65
558.507	20.74
558.849	20.88
559.192	20.96
559.534	20.88
559.877	20.89
560.219	20.97
560.562	21.16
560.904	20.91
561.246	21.2
561.589	21.02
561.931	21.06
562.273	21.52
562.615	21.4
562.957	21.11
563.299	21.22
563.641	21.39
563.983	21.01
564.325	21.22
564.667	21.46
565.008	21.21
565.35	21.48
565.692	21.53
566.033	21.73
566.375	21.69
566.716	21.73
567.058	21.75
567.399	21.68
567.741	21.71
568.082	21.71
568.423	21.68
568.764	21.46
569.105	21.64
569.447	21.71
569.788	21.88
570.129	21.83
570.47	21.97
570.811	22.18
571.151	22.08
571.492	22.04
571.833	22.12
572.174	22.44
572.514	22.25
572.855	22.14
573.195	22.25
573.536	22.15
573.876	22.25
574.217	22.19
574.557	22.15
574.898	22.17
575.238	22.44
575.578	22.5
575.918	22.41
576.258	22.47
576.598	22.49
576.938	22.59
577.278	22.79
577.618	22.63
577.958	22.67
578.298	22.68
578.638	22.96
578.977	22.88
579.317	22.87
579.657	22.87
579.996	23.05
580.336	23.18
580.675	23.15
581.014	23.45
581.354	23.22
581.693	23.53
582.032	23.52
582.372	23.55
582.711	23.66
583.05	23.74
583.389	23.67
583.728	23.81
584.067	23.85
584.406	23.67
584.745	23.93
585.083	23.96
585.422	23.77
585.761	23.97
586.1	24.05
586.438	23.63
586.777	24.24
587.115	24.06
587.454	24.23
587.792	24.11
588.13	24.42
588.469	24.37
588.807	23.94
589.145	24.38
589.483	24.46
589.821	24.45
590.159	24.27
590.497	24.43
590.835	24.69
591.173	24.67
591.511	24.52
591.849	24.43
592.187	24.68
592.524	24.58
592.862	24.96
593.2	24.82
593.537	24.71
593.875	24.71
594.212	25.07
594.55	24.99
594.887	25.28
595.224	25.26
595.561	25.06
595.899	25.2
596.236	25.2
596.573	25.38
596.91	25.34
597.247	25.19
597.584	25.04
597.921	25.38
598.258	25.52
598.594	25.33
598.931	25.13
599.268	25.11
599.604	25.34
599.941	25.28
600.277	25.46
600.614	25.88
600.95	25.88
601.287	25.66
601.623	25.95
601.959	25.93
602.296	25.96
602.632	25.92
602.968	25.79
603.304	25.81
603.64	26.16
603.976	26.25
604.312	26.39
604.648	26.36
604.984	26.22
605.319	25.99
605.655	25.97
605.991	25.99
606.326	26.09
606.662	26.09
606.998	26.07
607.333	26.18
607.668	26.13
608.004	26.27
608.339	26.3
608.674	26.57
609.01	26.87
609.345	26.85
609.68	27.08
610.015	26.78
610.35	27.4
610.685	27.07
611.02	26.81
611.355	26.89
611.689	26.82
612.024	26.99
612.359	26.86
612.694	27.13
613.028	27.22
613.363	27.15
613.697	27.26
614.032	27.3
614.366	27.41
614.7	27.5
615.035	27.74
615.369	27.76
615.703	27.47
616.037	27.95
616.371	27.9
616.705	27.68
617.039	27.91
617.373	27.88
617.707	27.98
618.041	28.21
618.375	28.06
618.709	28.06
619.042	28.13
619.376	28.24
619.71	28.23
620.043	28.26
620.377	28.01
620.71	28.3
621.043	28.44
621.377	28.23
621.71	28.07
622.043	28.63
622.376	28.71
622.709	28.65
623.043	28.52
623.376	28.51
623.709	28.74
624.041	28.72
624.374	28.88
624.707	28.6
625.04	28.99
625.373	28.73
625.705	28.94
626.038	29.17
626.37	28.89
626.703	29.16
627.035	28.99
627.368	28.84
627.7	29.27
628.032	29.22
628.365	29.56
628.697	29.19
629.029	29.34
629.361	29.29
629.693	29.09
630.025	29.55
630.357	29.69
630.689	29.23
631.021	29.55
631.353	29.5
631.684	29.59
632.016	29.72
632.348	29.59
632.679	29.49
633.011	29.92
633.342	29.96
633.674	29.91
634.005	29.66
634.336	30.27
634.668	29.99
634.999	29.99
635.33	29.87
635.661	30.15
635.992	30.35
636.323	30.23
636.654	30.33
636.985	30.3
637.316	30.19
637.647	30.49
637.977	30.48
638.308	30.33
638.639	30.43
638.969	30.8
639.3	30.27
639.63	30.86
639.961	30.69
640.291	30.83
640.622	30.57
640.952	31
641.282	30.99
641.612	31.08
641.943	31.35
642.273	30.45
642.603	31.58
642.933	30.94
643.263	31.28
643.592	31.07
643.922	31.63
644.252	31.35
644.582	31.02
644.911	31.51
645.241	31.81
645.571	32.18
645.9	31.51
646.23	31.53
646.559	31.24
646.888	31.5
647.218	31.63
647.547	31.42
647.876	31.56
648.205	31.91
648.534	32.3
648.863	32.06
649.192	32.06
649.521	32.38
649.85	32.15
650.179	32.34
650.508	32.14
650.837	32.74
651.165	32.37
651.494	31.94
651.822	32.33
652.151	32.78
652.479	32.13
652.808	32.33
653.136	32.53
653.465	32.26
653.793	32.59
654.121	32.41
654.449	32.08
654.777	32.16
655.105	32.83
655.433	33.23
655.761	33.24
656.089	32.49
656.417	32.47
656.745	33.22
657.073	33.36
657.4	33.55
657.728	33.07
658.056	33.01
658.383	33.04
658.711	33.16
659.038	33.24
659.365	32.92
659.693	33.43
660.02	33.18
660.347	33.38
660.674	33.51
661.001	32.79
661.329	33.36
661.656	33.47
661.982	32.86
662.309	33.47
662.636	33.61
662.963	33.53
663.29	33.7
663.616	33.42
663.943	33.53
664.27	33.48
664.596	33.19
664.923	33.98
665.249	33.99
665.576	33.99
665.902	34.01
666.228	34.56
666.554	33.93
666.881	34.42
667.207	34.63
667.533	33.92
667.859	33.75
668.185	34.53
668.511	34.64
668.837	34.8
669.162	34.96
669.488	34.08
669.814	34.21
670.139	34.39
670.465	34.41
670.791	35.44
671.116	34.92
671.442	34.41
671.767	35.11
672.092	34.68
672.418	34.48
672.743	34.6
673.068	35.11
673.393	34.43
673.718	35.08
674.043	34.73
674.368	35.35
