Data from 0264_forehead_Reflection__2__165.txt Node

Date: Fri Oct 20 21:56:33 CDT 2023
User: ToomeyLab
Spectrometer: FLMS14357
Trigger mode: 0
Integration Time (sec): 1.000000E-2
Scans to average: 100
Electric dark correction enabled: true
Nonlinearity correction enabled: false
Boxcar width: 0
XAxis mode: Wavelengths
Number of Pixels in Spectrum: 2048
>>>>>Begin Spectral Data<<<<<
189.047	-281.25
189.435	-281.25
189.823	-281.25
190.211	143.13
190.599	-7.74
190.987	79.62
191.375	28.91
191.763	97.67
192.151	-0.63
192.538	87.28
192.926	-14.52
193.314	195.06
193.702	63.78
194.089	120.85
194.477	-812.5
194.864	-417.42
195.252	134.19
195.639	-287.86
196.027	442.61
196.414	82.26
196.801	145.64
197.189	143.93
197.576	194.3
197.963	-1637.5
198.351	38.84
198.738	16.23
199.125	37.96
199.512	49.27
199.899	43.94
200.286	25.21
200.673	71.58
201.06	55.91
201.447	57.41
201.833	56.04
202.22	54.94
202.607	61.81
202.994	56.88
203.38	32.71
203.767	39.82
204.154	62.55
204.54	74.83
204.927	43.06
205.313	-7
205.699	65.73
206.086	22.9
206.472	41.62
206.858	90.13
207.245	46.99
207.631	44.84
208.017	32.57
208.403	28.99
208.789	69.91
209.175	7.45
209.561	33.16
209.947	31.74
210.333	45.4
210.719	13.36
211.105	68.88
211.491	45.5
211.876	21.36
212.262	44.75
212.648	15.95
213.034	21.46
213.419	19.8
213.805	17.34
214.19	33.59
214.576	20.88
214.961	26.9
215.346	38.81
215.732	35.28
216.117	17.62
216.502	33.54
216.888	34.81
217.273	19.57
217.658	2.43
218.043	40.73
218.428	9.94
218.813	28.32
219.198	16.42
219.583	-8.27
219.968	-0.26
220.353	28.28
220.738	17.53
221.122	32.68
221.507	27.01
221.892	21.1
222.276	20.79
222.661	29.53
223.046	17.15
223.43	11.84
223.815	17.15
224.199	15.95
224.583	12.87
224.968	16.74
225.352	6.46
225.736	17.52
226.121	21.05
226.505	8.79
226.889	8.21
227.273	17.03
227.657	11.53
228.041	9.19
228.425	7.54
228.809	8.87
229.193	9.96
229.577	9.26
229.961	6.54
230.344	5.92
230.728	5.04
231.112	6.19
231.495	4.89
231.879	5.83
232.263	7.1
232.646	4.71
233.03	5.35
233.413	6.25
233.797	5.88
234.18	6.44
234.563	7.65
234.946	6.11
235.33	5.77
235.713	6.93
236.096	5.41
236.479	7.27
236.862	7.21
237.245	5.5
237.628	5.56
238.011	7.04
238.394	5.79
238.777	8.45
239.16	5.43
239.543	8.12
239.925	6.7
240.308	6.27
240.691	6.07
241.073	8.54
241.456	5.33
241.838	6.23
242.221	6.74
242.603	6.44
242.986	5.92
243.368	5.91
243.75	5.02
244.133	5.16
244.515	5.08
244.897	5.15
245.279	5.19
245.661	5.19
246.043	5.65
246.425	5.72
246.807	6.31
247.189	4.93
247.571	5.52
247.953	5.44
248.335	5.85
248.717	5.13
249.098	4.85
249.48	4.98
249.862	5.36
250.243	5.41
250.625	5.35
251.006	5.61
251.388	5.57
251.769	5.82
252.151	4.65
252.532	6.34
252.913	5.69
253.295	4.45
253.676	5.27
254.057	5.45
254.438	5.28
254.819	5.47
255.2	5.46
255.581	5.36
255.962	5.75
256.343	6.31
256.724	5.02
257.105	5.93
257.486	5.91
257.867	7.21
258.247	6.68
258.628	5.28
259.009	5.87
259.389	5.37
259.77	5.09
260.15	6.05
260.531	5.58
260.911	5.73
261.292	5.24
261.672	5.17
262.052	5.14
262.432	4.97
262.813	5.17
263.193	5.64
263.573	4.64
263.953	6.23
264.333	5.81
264.713	5.52
265.093	5.86
265.473	5.7
265.853	5.24
266.233	6.35
266.612	5.38
266.992	5.71
267.372	4.99
267.752	4.9
268.131	6.19
268.511	5.63
268.89	5.18
269.27	5.22
269.649	5.22
270.029	5.51
270.408	5.59
270.787	5.87
271.167	5.72
271.546	5.76
271.925	6.06
272.304	4.95
272.683	5.44
273.062	5.47
273.441	5.02
273.82	5.18
274.199	5.28
274.578	5.24
274.957	5.22
275.336	5.42
275.715	5.3
276.093	5.01
276.472	5.61
276.851	5.06
277.229	5.67
277.608	4.66
277.986	4.92
278.365	5.94
278.743	5.28
279.122	5.19
279.5	5.17
279.878	5
280.257	5.14
280.635	5.64
281.013	5.55
281.391	5.36
281.769	4.85
282.147	5.39
282.525	5.22
282.903	5.32
283.281	5.35
283.659	4.96
284.037	4.79
284.415	4.65
284.792	5.03
285.17	5.05
285.548	5.19
285.925	5.18
286.303	4.69
286.68	4.71
287.058	5.59
287.435	5.69
287.813	5.13
288.19	5.26
288.567	4.92
288.945	5.18
289.322	6.05
289.699	5.26
290.076	6.23
290.453	5.78
290.83	5.77
291.207	6.17
291.584	4.91
291.961	5.7
292.338	5.41
292.715	5.48
293.092	5.35
293.469	5.78
293.845	5.24
294.222	5.72
294.599	5.97
294.975	6.45
295.352	5.92
295.728	6.51
296.105	6.05
296.481	5.9
296.858	5.98
297.234	6.34
297.61	6.17
297.986	6.51
298.363	6.49
298.739	6.31
299.115	6.19
299.491	5.99
299.867	6.36
300.243	6.4
300.619	6.53
300.995	6.19
301.371	6.8
301.746	6.88
302.122	6.84
302.498	6.82
302.874	7.07
303.249	6.84
303.625	7.18
304	7.42
304.376	6.63
304.751	6.18
305.127	7.12
305.502	7.81
305.878	7.18
306.253	7.43
306.628	7.34
307.003	7.69
307.378	7.72
307.754	7.33
308.129	8.34
308.504	8.65
308.879	7.92
309.254	7.95
309.629	8.21
310.003	7.11
310.378	8.29
310.753	8.26
311.128	8.51
311.502	8.35
311.877	8.43
312.252	8.2
312.626	8.44
313.001	8.48
313.375	8.46
313.75	8.38
314.124	8.25
314.498	8.91
314.873	8.16
315.247	8.92
315.621	9.12
315.995	8.99
316.369	8.43
316.743	8.86
317.117	8.96
317.491	8.17
317.865	9.47
318.239	9.59
318.613	8.93
318.987	8.97
319.361	8.93
319.734	8.71
320.108	9.66
320.482	10.02
320.855	9.76
321.229	10.24
321.602	9.88
321.976	9.66
322.349	10.41
322.723	10.16
323.096	10.13
323.469	10.3
323.843	10.57
324.216	10.37
324.589	10.66
324.962	10.89
325.335	10.34
325.708	10.43
326.081	10.45
326.454	10.34
326.827	10.81
327.2	10.81
327.573	10.67
327.945	10.87
328.318	10.37
328.691	10.43
329.063	11.31
329.436	10.34
329.809	11.08
330.181	11.12
330.553	11
330.926	11.09
331.298	11.16
331.671	10.98
332.043	10.64
332.415	11.03
332.787	11.63
333.159	11.43
333.532	11.76
333.904	11.35
334.276	10.8
334.648	11.89
335.02	11.65
335.391	11.81
335.763	11.91
336.135	12.1
336.507	12.21
336.879	11.56
337.25	11.84
337.622	11.88
337.993	12.25
338.365	12.05
338.736	12.36
339.108	12.14
339.479	11.59
339.851	12.06
340.222	12.11
340.593	11.53
340.964	11.87
341.336	12.69
341.707	12.81
342.078	12.9
342.449	12.48
342.82	12.03
343.191	12.31
343.562	12.23
343.933	12.32
344.303	12.28
344.674	12.88
345.045	13.23
345.416	12.99
345.786	12.75
346.157	12.58
346.527	12.59
346.898	12.79
347.268	12.9
347.639	12.88
348.009	12.81
348.38	13.14
348.75	13.1
349.12	12.94
349.49	13.06
349.861	13.41
350.231	12.84
350.601	13.16
350.971	13.32
351.341	13.49
351.711	14.17
352.081	13.32
352.45	13.55
352.82	13.58
353.19	13.7
353.56	13.76
353.929	13.66
354.299	13.75
354.669	13.83
355.038	13.53
355.408	13.67
355.777	13.61
356.147	13.96
356.516	13.81
356.885	14.11
357.254	13.83
357.624	14.12
357.993	13.96
358.362	14.22
358.731	13.72
359.1	13.78
359.469	14.1
359.838	14.37
360.207	14.19
360.576	14.53
360.945	13.93
361.314	14.15
361.682	14.48
362.051	13.99
362.42	14.28
362.788	14.23
363.157	14.58
363.525	14.25
363.894	14.18
364.262	14.27
364.631	14.4
364.999	14.52
365.367	15.02
365.735	14.43
366.104	14.59
366.472	14.36
366.84	14.88
367.208	15.06
367.576	14.67
367.944	14.63
368.312	14.84
368.68	15.13
369.048	15.12
369.416	15.12
369.783	15.09
370.151	15.18
370.519	15.17
370.886	15.52
371.254	15.6
371.621	15.85
371.989	15.27
372.356	15.75
372.724	15.65
373.091	15.67
373.458	15.23
373.826	15.36
374.193	15.04
374.56	15.71
374.927	15.84
375.294	15.48
375.661	15.98
376.028	15.77
376.395	15.96
376.762	15.52
377.129	16.02
377.496	15.88
377.863	16.29
378.229	16.12
378.596	16.07
378.963	16.26
379.329	16.13
379.696	16.11
380.062	16.31
380.429	16.14
380.795	16.23
381.161	16.44
381.528	16.73
381.894	16.58
382.26	16.7
382.626	16.64
382.993	16.84
383.359	16.68
383.725	16.5
384.091	16.96
384.457	16.68
384.823	16.65
385.188	17.02
385.554	17.03
385.92	16.87
386.286	17.07
386.651	16.64
387.017	17.09
387.383	17.09
387.748	16.67
388.114	17.14
388.479	17.11
388.845	17.37
389.21	16.98
389.575	16.8
389.94	17.47
390.306	17.22
390.671	17.42
391.036	17.43
391.401	17.29
391.766	17.33
392.131	17.32
392.496	17.84
392.861	17.63
393.226	17.5
393.591	17.63
393.956	17.75
394.32	17.76
394.685	17.56
395.05	17.91
395.414	17.7
395.779	17.59
396.143	17.9
396.508	17.69
396.872	17.91
397.236	17.78
397.601	17.71
397.965	17.88
398.329	18.01
398.694	18.13
399.058	17.93
399.422	18.21
399.786	18.23
400.15	18.21
400.514	18.17
400.878	18.47
401.242	18.32
401.605	18.54
401.969	18.46
402.333	18.39
402.697	18.49
403.06	18.46
403.424	18.69
403.787	19.05
404.151	18.63
404.514	18.67
404.878	19
405.241	18.77
405.604	18.63
405.968	18.7
406.331	18.87
406.694	18.73
407.057	18.77
407.42	19.16
407.783	19.24
408.146	18.92
408.509	19.17
408.872	19.25
409.235	19.16
409.598	19.43
409.961	19.24
410.323	19.1
410.686	19.34
411.049	19.4
411.411	19.33
411.774	19.09
412.136	19.31
412.499	19.31
412.861	19.73
413.223	19.71
413.586	19.49
413.948	19.85
414.31	19.87
414.672	19.78
415.035	19.62
415.397	20
415.759	19.88
416.121	20.05
416.483	20.02
416.845	19.93
417.206	19.71
417.568	19.91
417.93	20.05
418.292	19.91
418.653	20.09
419.015	20.16
419.377	20.14
419.738	20.06
420.1	19.98
420.461	20.08
420.822	20
421.184	19.85
421.545	20.06
421.906	20.03
422.267	20.11
422.629	20.12
422.99	20.06
423.351	20.08
423.712	19.96
424.073	20.13
424.434	20.16
424.795	20.18
425.155	20.41
425.516	20.39
425.877	20.33
426.238	20.15
426.598	20.23
426.959	20.22
427.32	20.42
427.68	20.51
428.041	20.74
428.401	20.69
428.761	20.81
429.122	20.76
429.482	20.97
429.842	20.96
430.202	21.12
430.563	21.2
430.923	21.42
431.283	21.36
431.643	21.42
432.003	21.35
432.363	21.3
432.722	21.43
433.082	21.48
433.442	21.53
433.802	21.75
434.161	21.46
434.521	21.66
434.881	21.68
435.24	21.6
435.6	21.49
435.959	21.64
436.319	21.66
436.678	21.71
437.037	21.8
437.396	22.11
437.756	22.12
438.115	21.69
438.474	22.14
438.833	22.24
439.192	22.07
439.551	21.99
439.91	22.02
440.269	22.14
440.628	22.09
440.987	22.14
441.345	22.25
441.704	22.27
442.063	22.21
442.421	22.23
442.78	22.21
443.138	22.21
443.497	22.41
443.855	22.4
444.214	22.45
444.572	22.54
444.93	22.54
445.288	22.76
445.647	22.81
446.005	22.65
446.363	22.81
446.721	22.76
447.079	22.83
447.437	22.79
447.795	22.6
448.153	22.58
448.51	22.78
448.868	22.63
449.226	22.72
449.584	22.62
449.941	22.78
450.299	22.88
450.656	22.95
451.014	23.09
451.371	23.29
451.729	23.31
452.086	23.36
452.443	23.44
452.801	23.33
453.158	23.7
453.515	23.61
453.872	23.69
454.229	23.77
454.586	23.67
454.943	23.79
455.3	23.91
455.657	23.79
456.014	23.81
456.371	23.94
456.727	24.08
457.084	24.02
457.441	24.34
457.797	24.22
458.154	24.23
458.51	24.28
458.867	24.15
459.223	24.29
459.58	24.35
459.936	24.28
460.292	24.34
460.648	24.22
461.005	24.32
461.361	24.16
461.717	24.01
462.073	24.17
462.429	24.13
462.785	24.24
463.141	24.37
463.496	24.31
463.852	24.75
464.208	24.8
464.564	24.95
464.919	24.93
465.275	25.2
465.631	25.1
465.986	25.25
466.342	25.28
466.697	25.07
467.052	25.1
467.408	25.06
467.763	25.17
468.118	25.54
468.473	25.25
468.829	25.38
469.184	25.26
469.539	25.47
469.894	25.55
470.249	25.46
470.603	25.38
470.958	25.54
471.313	25.75
471.668	25.88
472.023	25.81
472.377	25.84
472.732	25.87
473.086	26.01
473.441	25.88
473.795	26.19
474.15	26.24
474.504	25.98
474.859	26.23
475.213	26.11
475.567	26.31
475.921	26.19
476.275	26.21
476.63	26.46
476.984	26.37
477.338	26.53
477.692	26.65
478.045	26.58
478.399	26.27
478.753	26.38
479.107	26.48
479.461	26.61
479.814	26.77
480.168	26.76
480.521	26.72
480.875	26.6
481.228	26.64
481.582	26.81
481.935	26.67
482.289	27.02
482.642	26.73
482.995	26.74
483.348	27.04
483.701	26.86
484.055	26.99
484.408	26.64
484.761	26.48
485.114	26.35
485.466	26.22
485.819	26.19
486.172	26.2
486.525	26.22
486.878	26.21
487.23	26.25
487.583	26.47
487.936	26.56
488.288	26.85
488.641	26.91
488.993	26.77
489.345	26.81
489.698	26.76
490.05	26.71
490.402	26.73
490.754	26.78
491.107	26.99
491.459	27.17
491.811	27.24
492.163	27.36
492.515	27.57
492.866	27.59
493.218	27.39
493.57	27.35
493.922	27.36
494.274	27.34
494.625	27.42
494.977	27.55
495.328	27.73
495.68	28.08
496.031	28.16
496.383	28.38
496.734	28.57
497.086	28.58
497.437	28.49
497.788	28.44
498.139	28.62
498.49	28.64
498.842	28.65
499.193	28.52
499.544	28.55
499.894	28.67
500.245	28.75
500.596	28.92
500.947	28.96
501.298	28.82
501.648	28.94
501.999	29.12
502.35	29.03
502.7	29.4
503.051	29.35
503.401	29.41
503.752	29.41
504.102	29.59
504.452	29.63
504.803	29.51
505.153	29.65
505.503	29.7
505.853	29.82
506.203	29.59
506.553	29.71
506.903	29.89
507.253	29.92
507.603	29.74
507.953	29.82
508.303	30.19
508.652	30.15
509.002	30.09
509.352	29.94
509.701	30.23
510.051	30.09
510.4	30.38
510.75	30.2
511.099	30.15
511.449	30.09
511.798	30.4
512.147	30.32
512.496	30.34
512.846	30.26
513.195	30.64
513.544	30.57
513.893	30.6
514.242	30.62
514.591	30.77
514.939	30.56
515.288	30.71
515.637	30.95
515.986	31
516.334	31.11
516.683	30.92
517.032	31.05
517.38	31.29
517.729	31.37
518.077	31.41
518.426	31.26
518.774	31.2
519.122	31.48
519.47	31.39
519.819	31.46
520.167	31.2
520.515	31.3
520.863	31.25
521.211	31.32
521.559	31.28
521.907	31.48
522.255	31.55
522.602	31.75
522.95	31.67
523.298	31.84
523.645	32.06
523.993	32.13
524.341	32.17
524.688	32.25
525.036	32.18
525.383	32.2
525.73	32.43
526.078	32.25
526.425	32.47
526.772	32.28
527.119	32.2
527.466	32.19
527.814	32.17
528.161	32.19
528.508	32.16
528.854	32.07
529.201	32.24
529.548	32.34
529.895	32.21
530.242	32.19
530.588	32.02
530.935	32.13
531.282	32.1
531.628	32.14
531.975	32.11
532.321	32.19
532.667	32.56
533.014	32.68
533.36	32.97
533.706	33.02
534.052	33
534.399	32.85
534.745	32.9
535.091	33.02
535.437	32.96
535.783	32.97
536.129	33.03
536.474	33.15
536.82	33.26
537.166	33.21
537.512	33.65
537.857	33.72
538.203	33.65
538.549	33.72
538.894	33.65
539.239	33.79
539.585	33.87
539.93	33.84
540.276	33.92
540.621	34.25
540.966	34.54
541.311	34.32
541.656	34.49
542.001	34.52
542.346	34.34
542.691	34.42
543.036	34.15
543.381	33.95
543.726	34.07
544.071	33.93
544.415	34.08
544.76	34.15
545.105	34.41
545.449	34.5
545.794	34.63
546.138	34.52
546.483	34.81
546.827	34.78
547.171	35.29
547.516	35.13
547.86	35.35
548.204	35.28
548.548	35.37
548.892	35.29
549.236	35.25
549.58	35.47
549.924	35.4
550.268	35.53
550.612	35.67
550.956	36.01
551.3	36
551.643	36.1
551.987	36.01
552.33	36.39
552.674	36.57
553.017	36.5
553.361	36.34
553.704	36.73
554.048	36.47
554.391	36.54
554.734	36.67
555.077	36.67
555.42	36.43
555.764	36.65
556.107	37.04
556.45	36.87
556.793	36.81
557.135	36.87
557.478	37.09
557.821	37.07
558.164	37.37
558.507	37.29
558.849	37.43
559.192	37.38
559.534	37.32
559.877	37.38
560.219	37.64
560.562	37.58
560.904	37.69
561.246	37.65
561.589	37.52
561.931	37.89
562.273	38.02
562.615	38.08
562.957	37.98
563.299	38.03
563.641	37.89
563.983	38.04
564.325	37.94
564.667	38.17
565.008	38.08
565.35	38.29
565.692	38.35
566.033	38.33
566.375	38.69
566.716	38.55
567.058	38.49
567.399	38.61
567.741	38.85
568.082	38.5
568.423	38.83
568.764	38.65
569.105	38.76
569.447	38.77
569.788	38.94
570.129	38.98
570.47	38.9
570.811	39.3
571.151	39.03
571.492	39.25
571.833	39.11
572.174	39.57
572.514	39.25
572.855	39.32
573.195	39.36
573.536	39.31
573.876	39.42
574.217	39.55
574.557	39.22
574.898	39.41
575.238	39.5
575.578	39.71
575.918	39.65
576.258	39.85
576.598	39.86
576.938	40.14
577.278	40.1
577.618	40.04
577.958	40.16
578.298	39.95
578.638	40.1
578.977	40.04
579.317	40.51
579.657	40.25
579.996	40.34
580.336	40.52
580.675	40.71
581.014	40.62
581.354	40.77
581.693	40.72
582.032	41.06
582.372	41
582.711	41.29
583.05	41.51
583.389	41.38
583.728	41.33
584.067	41.87
584.406	41.4
584.745	41.35
585.083	41.96
585.422	41.43
585.761	41.59
586.1	42.05
586.438	41.38
586.777	41.9
587.115	42.01
587.454	42.12
587.792	41.9
588.13	42.17
588.469	41.99
588.807	41.9
589.145	42.19
589.483	42.4
589.821	42.05
590.159	42.4
590.497	42.37
590.835	42.41
591.173	42.64
591.511	42.45
591.849	42.61
592.187	42.39
592.524	42.61
592.862	42.72
593.2	42.83
593.537	42.59
593.875	42.67
594.212	42.91
594.55	42.94
594.887	43
595.224	43.25
595.561	43.13
595.899	42.76
596.236	43.51
596.573	42.95
596.91	43.32
597.247	43.22
597.584	43.18
597.921	43.61
598.258	43.48
598.594	43.49
598.931	43.25
599.268	43.35
599.604	43.4
599.941	43.49
600.277	43.52
600.614	43.72
600.95	43.47
601.287	43.76
601.623	44.07
601.959	44.15
602.296	43.99
602.632	44.2
602.968	44.06
603.304	44.28
603.64	44.41
603.976	44.47
604.312	44.62
604.648	44.5
604.984	44.48
605.319	44.39
605.655	44.37
605.991	44.58
606.326	44.34
606.662	44.41
606.998	44.27
607.333	44.5
607.668	44.58
608.004	44.46
608.339	44.69
608.674	44.7
609.01	45.28
609.345	45.18
609.68	45.21
610.015	45.42
610.35	45.45
610.685	45.52
611.02	45.42
611.355	45.47
611.689	45.42
612.024	45.59
612.359	45.41
612.694	45.59
613.028	45.33
613.363	45.37
613.697	45.79
614.032	45.82
614.366	46.02
614.7	46.05
615.035	46.28
615.369	46.23
615.703	46.09
616.037	46.29
616.371	46.15
616.705	46.18
617.039	46.4
617.373	46.67
617.707	46.56
618.041	46.12
618.375	46.35
618.709	46.45
619.042	46.41
619.376	46.93
619.71	47.16
620.043	47
620.377	47.1
620.71	47.31
621.043	47.22
621.377	46.95
621.71	46.82
622.043	47.46
622.376	47.68
622.709	47.44
623.043	47.22
623.376	47.29
623.709	47.66
624.041	47.76
624.374	47.08
624.707	47.64
625.04	47.77
625.373	47.76
625.705	47.68
626.038	47.99
626.37	47.51
626.703	48.1
627.035	47.83
627.368	47.69
627.7	48.23
628.032	48.22
628.365	48.5
628.697	47.79
629.029	48.32
629.361	48.22
629.693	48.32
630.025	48.35
630.357	48.28
630.689	48.16
631.021	48.32
631.353	48.78
631.684	48.56
632.016	48.64
632.348	48.38
632.679	48.93
633.011	48.68
633.342	49.02
633.674	48.88
634.005	48.83
634.336	49.1
634.668	48.95
634.999	48.91
635.33	49.01
635.661	49.18
635.992	49.06
636.323	49.59
636.654	49.38
636.985	49.37
637.316	49.32
637.647	49.87
637.977	49.19
638.308	49.75
638.639	49.57
638.969	49.71
639.3	49.76
639.63	49.47
639.961	50.1
640.291	50.41
640.622	49.55
640.952	49.91
641.282	49.98
641.612	49.98
641.943	50.5
642.273	50.09
642.603	50.46
642.933	50.21
643.263	50.37
643.592	49.86
643.922	50.85
644.252	50.82
644.582	50.85
644.911	50.31
645.241	51.22
645.571	51.84
645.9	50.93
646.23	51.09
646.559	50.53
646.888	51.11
647.218	51
647.547	50.94
647.876	50.82
648.205	50.85
648.534	50.95
648.863	51.33
649.192	51.26
649.521	51.32
649.85	51.36
650.179	51.26
650.508	51.45
650.837	52.08
651.165	51.91
651.494	51.42
651.822	52.38
652.151	51.88
652.479	51.2
652.808	51.56
653.136	51.97
653.465	52.08
653.793	51.65
654.121	52.16
654.449	51.91
654.777	52.62
655.105	52.45
655.433	52.11
655.761	52.3
656.089	51.89
656.417	52.11
656.745	52.38
657.073	52.7
657.4	53.12
657.728	52.47
658.056	52.79
658.383	53.28
658.711	52.66
659.038	51.85
659.365	52.79
659.693	53.02
660.02	52.46
660.347	52.52
660.674	53.02
661.001	52.71
661.329	53.17
661.656	52.67
661.982	53
662.309	53.3
662.636	53.1
662.963	53.33
663.29	53.26
663.616	52.65
663.943	53.07
664.27	53.49
664.596	53.47
664.923	53.26
665.249	53.07
665.576	53.59
665.902	53.87
666.228	53.33
666.554	53.66
666.881	53.22
667.207	54.28
667.533	53.51
667.859	53.77
668.185	54.34
668.511	53.67
668.837	53.81
