Data from 0264_forehead_Reflection__3__166.txt Node

Date: Fri Oct 20 21:56:42 CDT 2023
User: ToomeyLab
Spectrometer: FLMS14357
Trigger mode: 0
Integration Time (sec): 1.000000E-2
Scans to average: 100
Electric dark correction enabled: true
Nonlinearity correction enabled: false
Boxcar width: 0
XAxis mode: Wavelengths
Number of Pixels in Spectrum: 2048
>>>>>Begin Spectral Data<<<<<
189.047	-12.29
189.435	-12.29
189.823	-12.29
190.211	-51.49
190.599	-220.54
190.987	30.57
191.375	166.64
191.763	65.33
192.151	24.54
192.538	117.91
192.926	-50.73
193.314	222.05
193.702	108.42
194.089	198.96
194.477	493.75
194.864	332.2
195.252	224.32
195.639	41.79
196.027	496.31
196.414	194.17
196.801	82.25
197.189	83.16
197.576	205.92
197.963	5722.92
198.351	70.28
198.738	20.47
199.125	51.61
199.512	48.81
199.899	42.95
200.286	73.92
200.673	82.28
201.06	73.92
201.447	36.58
201.833	48.65
202.22	52.23
202.607	50.28
202.994	48.27
203.38	59.34
203.767	35.05
204.154	60.98
204.54	57.4
204.927	17.87
205.313	16.61
205.699	60.99
206.086	17.43
206.472	57.52
206.858	93.58
207.245	26.84
207.631	40.74
208.017	6.73
208.403	55.97
208.789	58.14
209.175	36.01
209.561	50.9
209.947	33.83
210.333	36.97
210.719	34.65
211.105	39.23
211.491	42.63
211.876	28.04
212.262	35.09
212.648	54.94
213.034	30.24
213.419	30.37
213.805	51.63
214.19	29.38
214.576	29.92
214.961	29.43
215.346	45.62
215.732	17.01
216.117	19.96
216.502	36.47
216.888	26.01
217.273	36.51
217.658	14.44
218.043	24.78
218.428	42.64
218.813	46.19
219.198	28.58
219.583	-6.49
219.968	25.64
220.353	34.43
220.738	28.08
221.122	25.3
221.507	13.18
221.892	7.49
222.276	14.61
222.661	31.35
223.046	16.52
223.43	16.59
223.815	31.73
224.199	19.34
224.583	2.94
224.968	6.96
225.352	16.8
225.736	6.05
226.121	15.64
226.505	4.48
226.889	4.35
227.273	16.49
227.657	12.46
228.041	10.99
228.425	5.55
228.809	9.27
229.193	5.8
229.577	9.87
229.961	6.88
230.344	4.82
230.728	4.97
231.112	5.6
231.495	4.76
231.879	6.11
232.263	6.54
232.646	5.51
233.03	4.67
233.413	5.2
233.797	5.68
234.18	6.54
234.563	5.78
234.946	7.61
235.33	7.33
235.713	5.6
236.096	6.3
236.479	6.58
236.862	5.7
237.245	6.41
237.628	6.17
238.011	7.92
238.394	5.61
238.777	7.02
239.16	4.25
239.543	8.75
239.925	8.24
240.308	6.75
240.691	5.65
241.073	6.52
241.456	6.24
241.838	5.39
242.221	6.2
242.603	5.56
242.986	5.21
243.368	6.53
243.75	5.03
244.133	4.84
244.515	5.06
244.897	5.45
245.279	5.48
245.661	5.42
246.043	5.33
246.425	5.42
246.807	5.97
247.189	5.78
247.571	5.41
247.953	5.09
248.335	5.26
248.717	4.61
249.098	4.54
249.48	4.59
249.862	5
250.243	5.14
250.625	5.28
251.006	4.81
251.388	5.12
251.769	5.64
252.151	4.57
252.532	5.9
252.913	4.85
253.295	4.55
253.676	5.58
254.057	5.1
254.438	5.07
254.819	5.04
255.2	4.81
255.581	5.36
255.962	5.08
256.343	6.71
256.724	5.69
257.105	5.93
257.486	6.26
257.867	4.91
258.247	6.05
258.628	5.45
259.009	4.89
259.389	5.26
259.77	4.98
260.15	6.17
260.531	5.2
260.911	5.21
261.292	4.67
261.672	4.76
262.052	4.87
262.432	4.81
262.813	5.09
263.193	5.09
263.573	4.51
263.953	4.91
264.333	4.81
264.713	5.68
265.093	5.48
265.473	6.02
265.853	5.01
266.233	4.93
266.612	4.72
266.992	5.11
267.372	4.2
267.752	4.61
268.131	5.31
268.511	5.4
268.89	5.53
269.27	4.63
269.649	4.75
270.029	4.76
270.408	5.7
270.787	5.24
271.167	4.61
271.546	5.3
271.925	5.22
272.304	5.16
272.683	4.91
273.062	5.03
273.441	4.93
273.82	5.08
274.199	4.88
274.578	5.18
274.957	5.14
275.336	5
275.715	4.8
276.093	4.78
276.472	5.15
276.851	5.31
277.229	5.02
277.608	4.34
277.986	4.4
278.365	5.59
278.743	4.52
279.122	5.02
279.5	5.5
279.878	4.39
280.257	4.9
280.635	5.2
281.013	5.07
281.391	5.29
281.769	4.89
282.147	4.83
282.525	4.74
282.903	4.73
283.281	4.97
283.659	4.91
284.037	5.23
284.415	4.78
284.792	4.67
285.17	5.18
285.548	5.07
285.925	4.77
286.303	4.48
286.68	4.95
287.058	5.53
287.435	4.96
287.813	4.37
288.19	4.83
288.567	4.99
288.945	5.07
289.322	5.37
289.699	4.73
290.076	4.86
290.453	5.39
290.83	5.09
291.207	5.52
291.584	4.51
291.961	5.11
292.338	4.78
292.715	5.38
293.092	5.18
293.469	5.27
293.845	5.21
294.222	5.41
294.599	5.6
294.975	5.85
295.352	5.72
295.728	5.51
296.105	5.3
296.481	5.79
296.858	5.55
297.234	6.01
297.61	5.26
297.986	5.7
298.363	5.84
298.739	5.88
299.115	5.68
299.491	5.92
299.867	5.65
300.243	6.07
300.619	5.9
300.995	5.76
301.371	6.45
301.746	5.92
302.122	6.56
302.498	6.36
302.874	6.34
303.249	6.25
303.625	6.52
304	6.74
304.376	6.69
304.751	5.92
305.127	6.43
305.502	6.7
305.878	6.56
306.253	6.82
306.628	6.77
307.003	7
307.378	6.74
307.754	6.5
308.129	7.07
308.504	7.28
308.879	7.18
309.254	7.44
309.629	6.83
310.003	6.85
310.378	7.2
310.753	7.39
311.128	7.51
311.502	7.13
311.877	7.48
312.252	7.32
312.626	7.53
313.001	7.29
313.375	7.45
313.75	7.42
314.124	7.2
314.498	7.69
314.873	7.61
315.247	7.35
315.621	8.11
315.995	8.38
316.369	7.79
316.743	8.11
317.117	8.3
317.491	7.75
317.865	8.42
318.239	8.32
318.613	8.44
318.987	8.39
319.361	8.02
319.734	8.63
320.108	8.54
320.482	8.87
320.855	8.1
321.229	9.08
321.602	8.93
321.976	8.58
322.349	9.31
322.723	8.58
323.096	9.01
323.469	8.72
323.843	8.81
324.216	8.97
324.589	9.02
324.962	9.39
325.335	9.16
325.708	8.62
326.081	9.16
326.454	9.23
326.827	9.74
327.2	9.45
327.573	9.45
327.945	9.3
328.318	9.31
328.691	9.46
329.063	9.66
329.436	9.31
329.809	9.39
330.181	9.9
330.553	10.06
330.926	10.06
331.298	9.61
331.671	9.78
332.043	9.7
332.415	10.25
332.787	9.87
333.159	9.87
333.532	10.32
333.904	9.96
334.276	10.08
334.648	10.27
335.02	11.01
335.391	10.11
335.763	10.11
336.135	10.61
336.507	10.5
336.879	10.32
337.25	10.82
337.622	10.97
337.993	11.46
338.365	10.66
338.736	10.77
339.108	10.94
339.479	10.94
339.851	10.66
340.222	10.56
340.593	10.55
340.964	10.57
341.336	11.25
341.707	11.23
342.078	10.86
342.449	10.77
342.82	10.73
343.191	10.66
343.562	11.07
343.933	10.89
344.303	10.86
344.674	11.54
345.045	11.82
345.416	11.26
345.786	11.14
346.157	11.61
346.527	11.3
346.898	11.41
347.268	11.22
347.639	11.68
348.009	11.1
348.38	11.68
348.75	11.52
349.12	11.77
349.49	11.34
349.861	11.94
350.231	11.45
350.601	11.67
350.971	12.24
351.341	11.92
351.711	11.98
352.081	11.87
352.45	12.06
352.82	12.28
353.19	12.07
353.56	12.02
353.929	11.82
354.299	12.09
354.669	11.92
355.038	11.97
355.408	12.54
355.777	12.14
356.147	12.37
356.516	12.18
356.885	12.08
357.254	12.3
357.624	12.36
357.993	11.98
358.362	12.28
358.731	12.29
359.1	12.21
359.469	12.47
359.838	12.66
360.207	12.52
360.576	12.61
360.945	12.44
361.314	12.5
361.682	12.62
362.051	12.49
362.42	12.32
362.788	12.73
363.157	12.79
363.525	12.45
363.894	12.38
364.262	12.55
364.631	12.74
364.999	12.87
365.367	12.63
365.735	12.87
366.104	13.03
366.472	13.15
366.84	13.06
367.208	12.82
367.576	13.31
367.944	13.53
368.312	13.22
368.68	13.4
369.048	13.58
369.416	13.51
369.783	13.32
370.151	13.3
370.519	13.45
370.886	13.44
371.254	13.7
371.621	13.78
371.989	13.5
372.356	13.72
372.724	13.51
373.091	13.7
373.458	13.48
373.826	13.4
374.193	13.56
374.56	13.78
374.927	14.06
375.294	13.79
375.661	13.95
376.028	13.94
376.395	14.07
376.762	13.95
377.129	14.29
377.496	14.34
377.863	14.36
378.229	14.58
378.596	14.37
378.963	14.31
379.329	14.4
379.696	14.17
380.062	14.11
380.429	14.21
380.795	14.33
381.161	14.25
381.528	14.87
381.894	14.49
382.26	14.5
382.626	15.1
382.993	14.59
383.359	14.72
383.725	15
384.091	14.49
384.457	14.7
384.823	14.86
385.188	14.94
385.554	14.5
385.92	14.75
386.286	15
386.651	14.81
387.017	15.22
387.383	14.79
387.748	14.87
388.114	14.77
388.479	14.98
388.845	15.55
389.21	14.97
389.575	15.01
389.94	15.1
390.306	15.12
390.671	15.09
391.036	15.09
391.401	15.47
391.766	15.42
392.131	15.32
392.496	15.62
392.861	15.34
393.226	15.42
393.591	15.43
393.956	15.3
394.32	15.64
394.685	15.59
395.05	15.75
395.414	16
395.779	15.76
396.143	15.69
396.508	15.58
396.872	15.77
397.236	15.89
397.601	15.98
397.965	15.82
398.329	15.81
398.694	15.92
399.058	15.73
399.422	16.08
399.786	16.05
400.15	16.2
400.514	16.25
400.878	16.45
401.242	16.3
401.605	16.38
401.969	16.19
402.333	16.27
402.697	16.37
403.06	16.32
403.424	16.63
403.787	16.49
404.151	16.49
404.514	16.53
404.878	16.55
405.241	16.66
405.604	16.33
405.968	16.84
406.331	16.68
406.694	16.76
407.057	16.67
407.42	16.81
407.783	16.68
408.146	16.91
408.509	16.8
408.872	17.04
409.235	16.8
409.598	16.8
409.961	16.95
410.323	17.01
410.686	16.58
411.049	17.16
411.411	17.18
411.774	17.07
412.136	17.31
412.499	17.07
412.861	17.41
413.223	17.38
413.586	17.21
413.948	17.55
414.31	17.55
414.672	17.6
415.035	17.42
415.397	17.7
415.759	17.59
416.121	17.66
416.483	17.73
416.845	17.64
417.206	17.78
417.568	17.77
417.93	17.63
418.292	17.66
418.653	17.91
419.015	17.67
419.377	17.58
419.738	17.69
420.1	17.48
420.461	17.74
420.822	17.76
421.184	17.81
421.545	17.68
421.906	17.61
422.267	17.63
422.629	17.78
422.99	17.56
423.351	17.71
423.712	17.66
424.073	17.63
424.434	17.76
424.795	17.81
425.155	17.99
425.516	18.04
425.877	17.9
426.238	17.81
426.598	18
426.959	17.98
427.32	18.12
427.68	18.25
428.041	18.29
428.401	18.39
428.761	18.47
429.122	18.58
429.482	18.58
429.842	18.7
430.202	18.64
430.563	18.94
430.923	19.09
431.283	19
431.643	19.11
432.003	19.18
432.363	18.94
432.722	19.04
433.082	19.29
433.442	19.09
433.802	19.23
434.161	19.03
434.521	19.34
434.881	19.15
435.24	19.16
435.6	18.97
435.959	19.04
436.319	19.25
436.678	19.4
437.037	19.29
437.396	19.58
437.756	19.56
438.115	19.25
438.474	19.52
438.833	19.76
439.192	19.36
439.551	19.68
439.91	19.74
440.269	19.74
440.628	19.74
440.987	19.63
441.345	19.82
441.704	19.77
442.063	19.73
442.421	19.79
442.78	19.7
443.138	19.84
443.497	19.89
443.855	19.82
444.214	19.98
444.572	20.01
444.93	20.22
445.288	20.26
445.647	20.23
446.005	20.12
446.363	20.28
446.721	20.21
447.079	20.33
447.437	20.29
447.795	20.09
448.153	20.19
448.51	20.26
448.868	20.08
449.226	20.15
449.584	20.18
449.941	20.25
450.299	20.49
450.656	20.3
451.014	20.51
451.371	20.63
451.729	20.69
452.086	20.68
452.443	20.91
452.801	20.93
453.158	21.14
453.515	21.14
453.872	20.97
454.229	21.14
454.586	21.1
454.943	21.23
455.3	21.11
455.657	21.12
456.014	21.23
456.371	21.31
456.727	21.44
457.084	21.5
457.441	21.64
457.797	21.54
458.154	21.52
458.51	21.63
458.867	21.6
459.223	21.78
459.58	21.64
459.936	21.8
460.292	21.66
460.648	21.69
461.005	21.56
461.361	21.61
461.717	21.34
462.073	21.5
462.429	21.52
462.785	21.55
463.141	21.85
463.496	22.04
463.852	22.19
464.208	22.12
464.564	22.37
464.919	22.37
465.275	22.51
465.631	22.7
465.986	22.6
466.342	22.4
466.697	22.57
467.052	22.8
467.408	22.67
467.763	22.87
468.118	22.81
468.473	22.78
468.829	22.93
469.184	22.81
469.539	22.9
469.894	22.89
470.249	22.83
470.603	23.02
470.958	23
471.313	23.17
471.668	23.11
472.023	23.11
472.377	23.24
472.732	23.16
473.086	23.22
473.441	23.26
473.795	23.41
474.15	23.46
474.504	23.34
474.859	23.39
475.213	23.39
475.567	23.59
475.921	23.73
476.275	23.59
476.63	23.98
476.984	23.86
477.338	23.75
477.692	23.85
478.045	23.88
478.399	23.86
478.753	23.82
479.107	23.79
479.461	23.86
479.814	23.97
480.168	24.04
480.521	23.94
480.875	23.93
481.228	24.01
481.582	24.05
481.935	23.96
482.289	24.31
482.642	24.13
482.995	24.23
483.348	24.02
483.701	24.08
484.055	24.12
484.408	24.06
484.761	23.88
485.114	23.62
485.466	23.5
485.819	23.37
486.172	23.35
486.525	23.41
486.878	23.53
487.23	23.65
487.583	23.75
487.936	23.93
488.288	24.07
488.641	24.19
488.993	23.97
489.345	23.98
489.698	23.92
490.05	23.89
490.402	24.05
490.754	24.11
491.107	24.21
491.459	24.38
491.811	24.58
492.163	24.81
492.515	24.77
492.866	24.87
493.218	24.59
493.57	24.48
493.922	24.51
494.274	24.57
494.625	24.62
494.977	24.82
495.328	25.16
495.68	25.42
496.031	25.47
496.383	25.65
496.734	25.7
497.086	25.78
497.437	25.98
497.788	25.96
498.139	25.96
498.49	25.77
498.842	25.9
499.193	25.81
499.544	25.82
499.894	25.96
500.245	25.92
500.596	26.05
500.947	26.27
501.298	26.18
501.648	26.37
501.999	26.4
502.35	26.37
502.7	26.7
503.051	26.67
503.401	26.64
503.752	26.78
504.102	26.73
504.452	26.92
504.803	26.81
505.153	26.89
505.503	26.73
505.853	27.03
506.203	26.98
506.553	27
506.903	27.08
507.253	27.21
507.603	27.14
507.953	27.21
508.303	27.29
508.652	27.42
509.002	27.4
509.352	27.32
509.701	27.52
510.051	27.3
510.4	27.35
510.75	27.42
511.099	27.42
511.449	27.5
511.798	27.47
512.147	27.56
512.496	27.59
512.846	27.64
513.195	27.69
513.544	27.86
513.893	27.71
514.242	27.91
514.591	27.84
514.939	27.82
515.288	27.83
515.637	28.33
515.986	28.2
516.334	28.21
516.683	28.09
517.032	28.2
517.38	28.45
517.729	28.44
518.077	28.55
518.426	28.51
518.774	28.51
519.122	28.77
519.47	28.51
519.819	28.39
520.167	28.48
520.515	28.32
520.863	28.35
521.211	28.41
521.559	28.42
521.907	28.54
522.255	28.59
522.602	28.82
522.95	28.94
523.298	29.12
523.645	29.17
523.993	28.96
524.341	29.32
524.688	29.17
525.036	29.19
525.383	29.2
525.73	29.63
526.078	29.46
526.425	29.53
526.772	29.35
527.119	29.4
527.466	29.24
527.814	29.14
528.161	29.2
528.508	29.25
528.854	29.28
529.201	29.31
529.548	29.31
529.895	29.25
530.242	29.07
530.588	28.87
530.935	29
531.282	29.11
531.628	29.16
531.975	29.21
532.321	29.33
532.667	29.61
533.014	29.69
533.36	29.87
533.706	30.11
534.052	30.03
534.399	30.09
534.745	30
535.091	29.91
535.437	29.93
535.783	30.03
536.129	30.07
536.474	30.13
536.82	30.36
537.166	30.32
537.512	30.8
537.857	30.64
538.203	30.69
538.549	30.75
538.894	30.66
539.239	30.71
539.585	30.83
539.93	30.93
540.276	31.01
540.621	31.22
540.966	31.32
541.311	31.54
541.656	31.69
542.001	31.6
542.346	31.48
542.691	31.18
543.036	31.04
543.381	30.95
543.726	30.86
544.071	30.88
544.415	31.15
544.76	31.25
545.105	31.41
545.449	31.25
545.794	31.54
546.138	31.66
546.483	31.85
546.827	31.85
547.171	32.12
547.516	32.19
547.86	32.27
548.204	32.32
548.548	32.37
548.892	32.35
549.236	32.09
549.58	32.35
549.924	32.4
550.268	32.75
550.612	32.93
550.956	33.02
551.3	33.18
551.643	33.08
551.987	33.23
552.33	33.15
552.674	33.48
553.017	33.62
553.361	33.42
553.704	33.76
554.048	33.35
554.391	33.88
554.734	33.64
555.077	33.5
555.42	33.42
555.764	33.64
556.107	34.09
556.45	34
556.793	33.86
557.135	33.89
557.478	33.92
557.821	34.18
558.164	34.38
558.507	34.46
558.849	34.34
559.192	34.66
559.534	34.77
559.877	34.46
560.219	34.6
560.562	34.62
560.904	34.45
561.246	34.5
561.589	34.72
561.931	34.98
562.273	35.05
562.615	34.94
562.957	35.07
563.299	35
563.641	35.13
563.983	35.01
564.325	35.18
564.667	35.29
565.008	35.24
565.35	35.3
565.692	35.55
566.033	35.36
566.375	35.72
566.716	35.49
567.058	35.53
567.399	35.62
567.741	35.74
568.082	35.48
568.423	35.6
568.764	35.31
569.105	35.66
569.447	35.6
569.788	35.87
570.129	35.91
570.47	35.97
570.811	36.52
571.151	35.96
571.492	36.4
571.833	36.07
572.174	36.25
572.514	36.5
572.855	36.3
573.195	36.26
573.536	36.39
573.876	36.43
574.217	36.47
574.557	36.13
574.898	36.54
575.238	36.4
575.578	36.69
575.918	36.58
576.258	36.63
576.598	37
576.938	36.86
577.278	36.96
577.618	37.06
577.958	36.99
578.298	36.99
578.638	37.07
578.977	37.09
579.317	37.31
579.657	37.15
579.996	37.36
580.336	37.68
580.675	37.73
581.014	37.74
581.354	37.86
581.693	37.91
582.032	38.09
582.372	37.87
582.711	38.27
583.05	38.38
583.389	38.57
583.728	38.47
584.067	38.29
584.406	38.43
584.745	38.44
585.083	38.66
585.422	38.75
585.761	38.48
586.1	38.95
586.438	38.27
586.777	38.53
587.115	38.71
587.454	39.17
587.792	39.04
588.13	39.03
588.469	39.17
588.807	39.04
589.145	39.23
589.483	39.17
589.821	39.35
590.159	39.61
590.497	39.06
590.835	39.48
591.173	39.37
591.511	39.48
591.849	39.67
592.187	39.29
592.524	39.2
592.862	39.93
593.2	39.65
593.537	39.6
593.875	39.38
594.212	39.9
594.55	39.87
594.887	40.04
595.224	39.92
595.561	39.98
595.899	40.15
596.236	40.46
596.573	40.19
596.91	40.15
597.247	40.1
597.584	40.11
597.921	40.42
598.258	40.41
598.594	40.27
598.931	40.45
599.268	40.17
599.604	40.29
599.941	40.24
600.277	40.32
600.614	40.46
600.95	40.74
601.287	40.76
601.623	40.95
601.959	41.12
602.296	40.78
602.632	41.29
602.968	41.46
603.304	41.45
603.64	41.69
603.976	41.55
604.312	41.3
604.648	41.42
604.984	41.72
605.319	41.51
605.655	41.2
605.991	41.43
606.326	41.41
606.662	41.39
606.998	41.14
607.333	41.29
607.668	41.2
608.004	41.59
608.339	41.52
608.674	41.35
609.01	41.72
609.345	42.53
609.68	42.42
610.015	42.46
610.35	42.13
610.685	42.43
611.02	42.15
611.355	42.55
611.689	42.23
612.024	42.35
612.359	42.55
612.694	42.65
613.028	42.44
613.363	42.39
613.697	42.55
614.032	43
614.366	43.12
614.7	42.73
615.035	43.19
615.369	43.51
615.703	43.39
616.037	42.95
616.371	43.1
616.705	43.27
617.039	43.22
617.373	43.7
617.707	43.77
618.041	43.26
618.375	43.36
618.709	43.31
619.042	43.56
619.376	44.17
619.71	43.86
620.043	44.12
620.377	43.92
620.71	44.13
621.043	44.17
621.377	43.96
621.71	44.04
622.043	44.34
622.376	44.31
622.709	44.25
623.043	44.48
623.376	44.26
623.709	44.48
624.041	44.39
624.374	44.48
624.707	44.52
625.04	44.73
625.373	45.03
625.705	44.8
626.038	45.47
626.37	44.84
626.703	45.34
627.035	45
627.368	45.2
627.7	45.16
628.032	45.16
628.365	45.69
628.697	45.04
629.029	45.22
629.361	45.26
629.693	45.25
630.025	45.54
630.357	45.36
630.689	45.33
631.021	45.52
631.353	45.41
631.684	45.32
632.016	46.05
632.348	45.57
632.679	45.86
633.011	45.94
633.342	45.59
633.674	45.95
634.005	46.13
634.336	46.16
634.668	46.2
634.999	46.18
635.33	46.36
635.661	46.38
635.992	46.25
636.323	46.35
636.654	46.55
636.985	46.23
637.316	46.02
637.647	46.45
637.977	46.68
638.308	47.23
638.639	46.62
638.969	47.08
639.3	46.94
639.63	46.77
639.961	47.1
640.291	46.84
640.622	46.79
640.952	46.96
641.282	47.04
641.612	47.25
641.943	47.29
642.273	47.25
642.603	47.8
642.933	47.54
643.263	47.99
643.592	46.95
643.922	47.96
644.252	47.56
644.582	47.56
644.911	47.53
645.241	48.07
645.571	48.34
645.9	48.04
646.23	48.35
646.559	47.94
646.888	48.22
647.218	48.21
647.547	48.01
647.876	47.79
648.205	48.58
648.534	47.83
648.863	48.68
649.192	48.76
649.521	48.52
649.85	48.09
650.179	48.55
650.508	49.03
650.837	48.83
651.165	48.43
651.494	48.32
651.822	48.68
652.151	48.42
652.479	48.32
652.808	48.58
653.136	49.21
653.465	49.49
653.793	49.46
654.121	48.8
654.449	49.03
654.777	49.35
655.105	49.33
655.433	49.8
655.761	49.34
656.089	49.19
656.417	49.45
656.745	49.32
657.073	49.99
657.4	49.8
657.728	49.49
658.056	49.03
658.383	49.9
658.711	49.43
659.038	49.66
659.365	50.49
659.693	50.59
660.02	49.97
660.347	50.44
660.674	49.98
661.001	49.92
661.329	49.46
661.656	50.14
661.982	50.26
662.309	50.21
662.636	50.25
662.963	50.28
663.29	50.29
663.616	50.14
663.943	50.56
664.27	50.91
664.596	50.64
664.923	50.18
665.249	50.67
665.576	50.26
665.902	50.72
666.228	50.79
666.554	50.42
666.881	50.85
667.207	51.07
667.533	50.46
667.859	50.72
668.185	52.36
668.511	51.15
668.837	51.18
669.162	51.26
669.488	51.33
669.814	51.23
670.139	51.18
670.465	51.71
