Data from 0264_crown_Reflection__3__161.txt Node

Date: Fri Oct 20 21:55:20 CDT 2023
User: ToomeyLab
Spectrometer: FLMS14357
Trigger mode: 0
Integration Time (sec): 1.000000E-2
Scans to average: 100
Electric dark correction enabled: true
Nonlinearity correction enabled: false
Boxcar width: 0
XAxis mode: Wavelengths
Number of Pixels in Spectrum: 2048
>>>>>Begin Spectral Data<<<<<
189.047	52.71
189.435	52.71
189.823	52.71
190.211	95.14
190.599	-37.2
190.987	115.06
191.375	-35.23
191.763	62.13
192.151	17.24
192.538	5.04
192.926	68.51
193.314	-24.44
193.702	156.17
194.089	175.25
194.477	2023.75
194.864	480.68
195.252	149.02
195.639	-155.36
196.027	-83.24
196.414	43.5
196.801	-93.69
197.189	39.63
197.576	107.68
197.963	1722.92
198.351	26.67
198.738	22.33
199.125	23.44
199.512	66.32
199.899	43.41
200.286	-2.6
200.673	47.65
201.06	9.22
201.447	16.2
201.833	50.25
202.22	54.17
202.607	35.2
202.994	51.09
203.38	13.54
203.767	40.1
204.154	55.9
204.54	39.63
204.927	-10.82
205.313	22.73
205.699	28.01
206.086	52.03
206.472	49.49
206.858	69.64
207.245	10.05
207.631	32.83
208.017	41.42
208.403	31.18
208.789	29.64
209.175	31.2
209.561	35.67
209.947	18.9
210.333	36.64
210.719	12.85
211.105	19.44
211.491	20.15
211.876	25.68
212.262	32.91
212.648	19.52
213.034	11.69
213.419	21.3
213.805	0.6
214.19	18.82
214.576	20.62
214.961	4.61
215.346	38.36
215.732	19.26
216.117	1.79
216.502	48.97
216.888	15.34
217.273	31.57
217.658	13.84
218.043	25.45
218.428	1.55
218.813	33.64
219.198	16.44
219.583	14.53
219.968	6.25
220.353	35.22
220.738	27.74
221.122	9.18
221.507	18.65
221.892	5.35
222.276	19.07
222.661	15.71
223.046	27.57
223.43	13.36
223.815	18.89
224.199	28.33
224.583	5.96
224.968	7.89
225.352	5.01
225.736	14.44
226.121	16.44
226.505	14.53
226.889	14.12
227.273	17.31
227.657	15.97
228.041	12.99
228.425	13.44
228.809	14.06
229.193	11.69
229.577	12.39
229.961	8.86
230.344	9.08
230.728	8.64
231.112	9.84
231.495	8.66
231.879	8.8
232.263	9.49
232.646	8.47
233.03	8.5
233.413	7.73
233.797	8.98
234.18	10.55
234.563	10.57
234.946	9.74
235.33	7.82
235.713	8.33
236.096	10.41
236.479	10.34
236.862	8.45
237.245	7.73
237.628	7.97
238.011	8.94
238.394	9.65
238.777	10.18
239.16	8.13
239.543	11.18
239.925	9.52
240.308	9.86
240.691	9.31
241.073	11.31
241.456	9
241.838	7.9
242.221	9.13
242.603	9.31
242.986	9.44
243.368	9.05
243.75	8.35
244.133	8.62
244.515	8.2
244.897	8.25
245.279	8.15
245.661	8.29
246.043	7.74
246.425	9.1
246.807	8.27
247.189	8.66
247.571	8.47
247.953	8.75
248.335	8.22
248.717	7.48
249.098	7.77
249.48	7.99
249.862	8.09
250.243	8.03
250.625	8.11
251.006	8.27
251.388	8.03
251.769	8.06
252.151	7.4
252.532	8.29
252.913	8.14
253.295	7.79
253.676	8.04
254.057	8.19
254.438	7.77
254.819	8.08
255.2	8.08
255.581	7.78
255.962	7.69
256.343	8.68
256.724	7.06
257.105	7.77
257.486	7.57
257.867	8.19
258.247	8.1
258.628	7.5
259.009	7.85
259.389	7.57
259.77	7.1
260.15	7.79
260.531	7.7
260.911	7.82
261.292	7.6
261.672	7.45
262.052	7.56
262.432	7.34
262.813	7.5
263.193	7.49
263.573	7.38
263.953	7.71
264.333	7.62
264.713	8.06
265.093	8.22
265.473	7.7
265.853	7.56
266.233	7.58
266.612	6.88
266.992	7.56
267.372	7.21
267.752	7.71
268.131	7.36
268.511	8.07
268.89	7.58
269.27	7.07
269.649	6.68
270.029	7.52
270.408	7.67
270.787	7.42
271.167	7.84
271.546	7.79
271.925	7.07
272.304	7.54
272.683	7.21
273.062	7.13
273.441	7.46
273.82	7.34
274.199	7.51
274.578	6.98
274.957	7.17
275.336	7.84
275.715	6.93
276.093	7.08
276.472	7.52
276.851	7.31
277.229	6.89
277.608	6.87
277.986	6.17
278.365	7.34
278.743	7.43
279.122	6.52
279.5	6.91
279.878	6.44
280.257	6.89
280.635	6.93
281.013	7.13
281.391	6.5
281.769	6.34
282.147	6.47
282.525	6.64
282.903	6.78
283.281	7.16
283.659	7.15
284.037	6.82
284.415	6.43
284.792	6.71
285.17	6.9
285.548	6.74
285.925	6.42
286.303	6.69
286.68	6.81
287.058	6.96
287.435	6.93
287.813	6.28
288.19	6.51
288.567	6.82
288.945	6.9
289.322	6.87
289.699	6.22
290.076	7.28
290.453	6.91
290.83	6.51
291.207	6.81
291.584	6.32
291.961	6.4
292.338	6.24
292.715	6.31
293.092	6.43
293.469	6.98
293.845	6.16
294.222	6.29
294.599	6.63
294.975	6.87
295.352	6.48
295.728	6.68
296.105	6.58
296.481	6.18
296.858	6.69
297.234	6.34
297.61	5.82
297.986	5.88
298.363	6.43
298.739	6.06
299.115	6.18
299.491	6.03
299.867	6.25
300.243	6.25
300.619	6.11
300.995	5.93
301.371	6.82
301.746	6.1
302.122	6.28
302.498	6.27
302.874	6.65
303.249	6.11
303.625	6.19
304	6.68
304.376	6.1
304.751	5.77
305.127	6.06
305.502	6.78
305.878	6.46
306.253	6.1
306.628	6.04
307.003	5.95
307.378	6.03
307.754	6.27
308.129	6.43
308.504	6.28
308.879	6.31
309.254	6.32
309.629	5.95
310.003	5.38
310.378	6.06
310.753	5.89
311.128	6.18
311.502	6.22
311.877	5.99
312.252	5.61
312.626	5.89
313.001	5.97
313.375	5.89
313.75	5.9
314.124	5.43
314.498	5.91
314.873	5.85
315.247	5.91
315.621	5.44
315.995	6.1
316.369	5.66
316.743	6.03
317.117	5.87
317.491	5.32
317.865	6.09
318.239	6.05
318.613	5.73
318.987	5.67
319.361	5.07
319.734	5.53
320.108	5.61
320.482	6.02
320.855	5.69
321.229	6.43
321.602	5.89
321.976	5.83
322.349	6.25
322.723	5.62
323.096	5.94
323.469	5.16
323.843	5.76
324.216	5.84
324.589	6.25
324.962	5.84
325.335	5.85
325.708	5.49
326.081	5.52
326.454	5.74
326.827	6.13
327.2	5.79
327.573	6.03
327.945	5.63
328.318	5.46
328.691	5.53
329.063	6.05
329.436	5.13
329.809	5.75
330.181	5.91
330.553	5.55
330.926	5.7
331.298	5.06
331.671	5.04
332.043	5.41
332.415	5.45
332.787	5.84
333.159	5.55
333.532	5.77
333.904	5.77
334.276	4.82
334.648	6.05
335.02	5.72
335.391	5.18
335.763	5.98
336.135	5.71
336.507	5.46
336.879	5.22
337.25	5.79
337.622	6.04
337.993	5.74
338.365	5.33
338.736	5.89
339.108	5.83
339.479	5.59
339.851	5.33
340.222	5.42
340.593	5.48
340.964	5.51
341.336	5.84
341.707	5.67
342.078	5.55
342.449	5.25
342.82	5.12
343.191	5.51
343.562	5.85
343.933	5.39
344.303	5.49
344.674	5.68
345.045	5.8
345.416	5.57
345.786	5.63
346.157	5.59
346.527	5.61
346.898	5.47
347.268	5.55
347.639	5.81
348.009	5.52
348.38	5.7
348.75	5.53
349.12	5.16
349.49	5.47
349.861	5.7
350.231	5.21
350.601	5.49
350.971	5.88
351.341	5.52
351.711	6.26
352.081	5.77
352.45	5.44
352.82	5.44
353.19	5.89
353.56	6.15
353.929	5.56
354.299	5.52
354.669	5.43
355.038	5.59
355.408	5.78
355.777	5.48
356.147	5.46
356.516	5.65
356.885	5.42
357.254	6
357.624	5.95
357.993	5.41
358.362	5.75
358.731	5.36
359.1	5.19
359.469	5.3
359.838	5.72
360.207	5.48
360.576	5.59
360.945	5.61
361.314	5.75
361.682	5.8
362.051	5.55
362.42	5.58
362.788	5.64
363.157	5.56
363.525	5.43
363.894	5.56
364.262	5.51
364.631	5.77
364.999	5.73
365.367	5.59
365.735	5.47
366.104	5.48
366.472	5.93
366.84	5.84
367.208	5.91
367.576	5.71
367.944	5.89
368.312	5.67
368.68	5.71
369.048	5.82
369.416	5.72
369.783	5.82
370.151	5.8
370.519	5.92
370.886	5.88
371.254	5.97
371.621	6.07
371.989	5.78
372.356	6.08
372.724	5.97
373.091	5.76
373.458	5.58
373.826	5.86
374.193	5.77
374.56	5.59
374.927	5.94
375.294	6.19
375.661	5.88
376.028	6.26
376.395	6.14
376.762	5.78
377.129	5.94
377.496	6
377.863	6.03
378.229	6.2
378.596	6.32
378.963	5.97
379.329	6.05
379.696	6.07
380.062	6.1
380.429	5.95
380.795	5.99
381.161	6.18
381.528	6.31
381.894	5.99
382.26	6.08
382.626	6.24
382.993	6.17
383.359	5.78
383.725	6.19
384.091	5.86
384.457	6.45
384.823	6.07
385.188	6.16
385.554	6.18
385.92	6.09
386.286	6.19
386.651	6.03
387.017	6.03
387.383	6.12
387.748	6.04
388.114	5.96
388.479	6.21
388.845	6.42
389.21	6.1
389.575	5.8
389.94	6.32
390.306	6.08
390.671	6.23
391.036	6.18
391.401	6.66
391.766	6.54
392.131	6.34
392.496	6.26
392.861	6.1
393.226	6.26
393.591	6.26
393.956	6.24
394.32	6.54
394.685	6.32
395.05	6.68
395.414	6.55
395.779	6.34
396.143	6.23
396.508	6.24
396.872	6.38
397.236	6.45
397.601	6.2
397.965	6.18
398.329	6.19
398.694	6.5
399.058	6.23
399.422	6.54
399.786	6.27
400.15	6.12
400.514	6.28
400.878	6.35
401.242	6.55
401.605	6.57
401.969	6.15
402.333	6.38
402.697	6.57
403.06	6.41
403.424	6.53
403.787	6.7
404.151	6.57
404.514	6.58
404.878	6.6
405.241	6.42
405.604	6.59
405.968	6.61
406.331	6.44
406.694	6.68
407.057	6.35
407.42	6.76
407.783	6.5
408.146	6.41
408.509	6.39
408.872	6.63
409.235	6.5
409.598	6.68
409.961	6.66
410.323	6.85
410.686	6.5
411.049	6.61
411.411	6.64
411.774	6.71
412.136	6.59
412.499	6.75
412.861	6.71
413.223	6.55
413.586	6.64
413.948	6.89
414.31	6.8
414.672	6.72
415.035	6.73
415.397	6.83
415.759	6.78
416.121	6.68
416.483	6.76
416.845	6.78
417.206	6.72
417.568	6.72
417.93	6.59
418.292	6.41
418.653	6.89
419.015	6.56
419.377	6.57
419.738	6.62
420.1	6.66
420.461	6.61
420.822	6.55
421.184	6.65
421.545	6.6
421.906	6.51
422.267	6.54
422.629	6.61
422.99	6.39
423.351	6.65
423.712	6.57
424.073	6.53
424.434	6.54
424.795	6.54
425.155	6.66
425.516	6.69
425.877	6.68
426.238	6.5
426.598	6.52
426.959	6.55
427.32	6.58
427.68	6.74
428.041	6.69
428.401	6.73
428.761	6.76
429.122	6.75
429.482	6.79
429.842	6.9
430.202	6.92
430.563	6.84
430.923	6.77
431.283	6.91
431.643	6.84
432.003	6.97
432.363	6.81
432.722	7.14
433.082	6.78
433.442	6.72
433.802	7.01
434.161	6.82
434.521	6.92
434.881	6.82
435.24	7.04
435.6	6.85
435.959	6.77
436.319	6.88
436.678	6.86
437.037	6.92
437.396	7.01
437.756	7.04
438.115	6.71
438.474	6.96
438.833	7.11
439.192	6.76
439.551	6.88
439.91	6.9
440.269	6.93
440.628	6.91
440.987	6.83
441.345	6.89
441.704	6.89
442.063	6.91
442.421	6.95
442.78	6.91
443.138	6.96
443.497	6.92
443.855	6.95
444.214	6.92
444.572	6.95
444.93	7.09
445.288	6.99
445.647	7.13
446.005	6.85
446.363	6.93
446.721	7.05
447.079	6.98
447.437	6.91
447.795	6.93
448.153	6.92
448.51	7.05
448.868	6.78
449.226	6.89
449.584	6.93
449.941	6.92
450.299	6.96
450.656	6.94
451.014	6.94
451.371	7.04
451.729	7.01
452.086	7.09
452.443	7.11
452.801	7.16
453.158	7.08
453.515	7.13
453.872	7.17
454.229	7.27
454.586	7.16
454.943	7.14
455.3	7
455.657	7.03
456.014	7.04
456.371	7.1
456.727	7.23
457.084	7.24
457.441	7.18
457.797	7.15
458.154	7.16
458.51	7.19
458.867	6.93
459.223	7.15
459.58	7.15
459.936	7.28
460.292	7.18
460.648	6.9
461.005	6.96
461.361	7.18
461.717	6.88
462.073	7.08
462.429	7.08
462.785	7.04
463.141	7.19
463.496	7.05
463.852	7.27
464.208	7.18
464.564	7.2
464.919	7.23
465.275	7.39
465.631	7.4
465.986	7.29
466.342	7.32
466.697	7.26
467.052	7.14
467.408	7.27
467.763	7.33
468.118	7.56
468.473	7.19
468.829	7.17
469.184	7.24
469.539	7.22
469.894	7.26
470.249	7.15
470.603	7.18
470.958	7.2
471.313	7.38
471.668	7.45
472.023	7.29
472.377	7.3
472.732	7.13
473.086	7.45
473.441	7.43
473.795	7.52
474.15	7.36
474.504	7.27
474.859	7.5
475.213	7.4
475.567	7.36
475.921	7.33
476.275	7.55
476.63	7.44
476.984	7.54
477.338	7.38
477.692	7.34
478.045	7.39
478.399	7.33
478.753	7.25
479.107	7.21
479.461	7.32
479.814	7.4
480.168	7.46
480.521	7.38
480.875	7.3
481.228	7.37
481.582	7.39
481.935	7.37
482.289	7.36
482.642	7.33
482.995	7.29
483.348	7.22
483.701	7.26
484.055	7.34
484.408	7.12
484.761	7.19
485.114	7.1
485.466	7.03
485.819	6.93
486.172	6.83
486.525	6.82
486.878	6.9
487.23	6.95
487.583	7.01
487.936	7.04
488.288	7.1
488.641	7.19
488.993	7.09
489.345	7.03
489.698	6.99
490.05	6.96
490.402	6.97
490.754	7.05
491.107	7.03
491.459	7.23
491.811	7.2
492.163	7.2
492.515	7.27
492.866	7.32
493.218	7.17
493.57	7.13
493.922	7.04
494.274	7.09
494.625	7.04
494.977	7.11
495.328	7.29
495.68	7.28
496.031	7.2
496.383	7.46
496.734	7.4
497.086	7.43
497.437	7.4
497.788	7.25
498.139	7.46
498.49	7.43
498.842	7.39
499.193	7.34
499.544	7.31
499.894	7.4
500.245	7.27
500.596	7.4
500.947	7.4
501.298	7.34
501.648	7.35
501.999	7.33
502.35	7.39
502.7	7.55
503.051	7.43
503.401	7.41
503.752	7.51
504.102	7.47
504.452	7.51
504.803	7.42
505.153	7.53
505.503	7.45
505.853	7.54
506.203	7.34
506.553	7.36
506.903	7.44
507.253	7.53
507.603	7.37
507.953	7.46
508.303	7.49
508.652	7.42
509.002	7.45
509.352	7.48
509.701	7.49
510.051	7.31
510.4	7.44
510.75	7.46
511.099	7.37
511.449	7.35
511.798	7.57
512.147	7.4
512.496	7.39
512.846	7.33
513.195	7.44
513.544	7.47
513.893	7.42
514.242	7.39
514.591	7.39
514.939	7.33
515.288	7.32
515.637	7.47
515.986	7.46
516.334	7.38
516.683	7.38
517.032	7.19
517.38	7.34
517.729	7.5
518.077	7.51
518.426	7.41
518.774	7.27
519.122	7.52
519.47	7.45
519.819	7.32
520.167	7.34
520.515	7.3
520.863	7.36
521.211	7.38
521.559	7.34
521.907	7.33
522.255	7.34
522.602	7.45
522.95	7.35
523.298	7.43
523.645	7.51
523.993	7.44
524.341	7.5
524.688	7.46
525.036	7.59
525.383	7.39
525.73	7.6
526.078	7.44
526.425	7.46
526.772	7.43
527.119	7.35
527.466	7.3
527.814	7.33
528.161	7.27
528.508	7.25
528.854	7.23
529.201	7.26
529.548	7.29
529.895	7.23
530.242	7.13
530.588	7.01
530.935	7.05
531.282	7.06
531.628	7.1
531.975	7.01
532.321	7.09
532.667	7.23
533.014	7.31
533.36	7.28
533.706	7.32
534.052	7.3
534.399	7.22
534.745	7.15
535.091	7.22
535.437	7.19
535.783	7.16
536.129	7.2
536.474	7.25
536.82	7.27
537.166	7.27
537.512	7.48
537.857	7.4
538.203	7.36
538.549	7.42
538.894	7.29
539.239	7.3
539.585	7.28
539.93	7.23
540.276	7.36
540.621	7.39
540.966	7.44
541.311	7.41
541.656	7.37
542.001	7.41
542.346	7.48
542.691	7.27
543.036	7.26
543.381	7.19
543.726	7.15
544.071	7.15
544.415	7.12
544.76	7.14
545.105	7.24
545.449	7.13
545.794	7.27
546.138	7.26
546.483	7.31
546.827	7.32
547.171	7.45
547.516	7.32
547.86	7.5
548.204	7.27
548.548	7.37
548.892	7.28
549.236	7.38
549.58	7.2
549.924	7.31
550.268	7.33
550.612	7.33
550.956	7.52
551.3	7.35
551.643	7.37
551.987	7.54
552.33	7.49
552.674	7.44
553.017	7.56
553.361	7.49
553.704	7.56
554.048	7.43
554.391	7.43
554.734	7.44
555.077	7.49
555.42	7.26
555.764	7.27
556.107	7.62
556.45	7.42
556.793	7.28
557.135	7.27
557.478	7.44
557.821	7.48
558.164	7.62
558.507	7.49
558.849	7.54
559.192	7.5
559.534	7.38
559.877	7.24
560.219	7.52
560.562	7.38
560.904	7.34
561.246	7.49
561.589	7.16
561.931	7.56
562.273	7.65
562.615	7.69
562.957	7.4
563.299	7.36
563.641	7.54
563.983	7.27
564.325	7.39
564.667	7.47
565.008	7.32
565.35	7.54
565.692	7.48
566.033	7.51
566.375	7.54
566.716	7.49
567.058	7.45
567.399	7.48
567.741	7.41
568.082	7.32
568.423	7.33
568.764	7.11
569.105	7.42
569.447	7.35
569.788	7.44
570.129	7.37
570.47	7.34
570.811	7.44
571.151	7.47
571.492	7.53
571.833	7.42
572.174	7.54
572.514	7.48
572.855	7.22
573.195	7.36
573.536	7.28
573.876	7.51
574.217	7.13
574.557	7.2
574.898	7.09
575.238	7.24
575.578	7.4
575.918	7.15
576.258	7.24
576.598	7.35
576.938	7.4
577.278	7.23
577.618	7.19
577.958	7.18
578.298	7.24
578.638	7.28
578.977	7.28
579.317	7.22
579.657	7.21
579.996	7.35
580.336	7.34
580.675	7.3
581.014	7.25
581.354	7.38
581.693	7.15
582.032	7.35
582.372	7.08
582.711	7.22
583.05	7.54
583.389	7.29
583.728	7.41
584.067	7.35
584.406	7.36
584.745	7.47
585.083	7.45
585.422	7.36
585.761	7.31
586.1	7.42
586.438	7.14
586.777	7.1
587.115	7.45
587.454	7.43
587.792	7.32
588.13	7.4
588.469	7.48
588.807	6.87
589.145	7.45
589.483	7.17
589.821	7.19
590.159	7.29
590.497	7.17
590.835	7.51
591.173	7.4
591.511	7.33
591.849	7.04
592.187	7.19
592.524	7.05
592.862	7.32
593.2	7.44
593.537	7.12
593.875	7.02
594.212	7.54
594.55	7.21
594.887	7.26
595.224	7.11
595.561	7.04
595.899	7.05
596.236	7.2
596.573	7.12
596.91	7.15
597.247	7.14
597.584	7.07
597.921	7.1
598.258	7.46
598.594	7.34
598.931	6.92
599.268	6.95
599.604	7.15
599.941	7.19
600.277	6.92
600.614	7.26
600.95	7.06
601.287	7.1
601.623	7.27
601.959	7.56
602.296	7.14
602.632	7.17
602.968	6.99
603.304	7.25
603.64	6.86
603.976	7.19
604.312	7.06
604.648	7.07
604.984	7.07
605.319	6.94
605.655	6.87
605.991	6.98
606.326	6.96
606.662	6.84
606.998	6.9
607.333	6.82
607.668	6.82
608.004	7.07
608.339	6.85
608.674	7.2
609.01	7.15
609.345	7.16
609.68	7.31
610.015	6.92
610.35	7.22
610.685	7.26
611.02	6.88
611.355	6.88
611.689	6.91
612.024	7.27
612.359	7.06
612.694	6.87
613.028	7.22
613.363	6.88
613.697	6.98
614.032	7.25
614.366	7.13
614.7	6.92
615.035	7.11
615.369	7.25
615.703	6.86
616.037	7.12
616.371	7.27
616.705	7.08
617.039	7.13
617.373	6.97
617.707	7.24
618.041	7.25
618.375	6.77
618.709	6.97
619.042	7.06
619.376	7.43
619.71	7.16
620.043	7.29
620.377	7.03
620.71	7.18
621.043	7.03
621.377	7.27
621.71	6.94
622.043	7
622.376	7.32
622.709	7.11
623.043	6.95
623.376	6.93
623.709	6.75
624.041	6.93
624.374	6.82
624.707	6.47
625.04	7.23
625.373	7.08
625.705	6.98
626.038	7.04
626.37	6.31
626.703	6.85
627.035	6.81
627.368	7.26
627.7	7.17
628.032	7.14
628.365	7.08
628.697	6.82
629.029	6.75
629.361	6.9
629.693	6.87
630.025	6.77
630.357	6.96
630.689	6.97
631.021	7.05
631.353	6.92
631.684	6.79
632.016	7.04
632.348	6.92
632.679	6.64
633.011	6.83
633.342	6.72
633.674	6.73
634.005	6.93
634.336	7.27
634.668	6.69
634.999	6.99
635.33	6.46
635.661	6.91
635.992	6.76
636.323	7.27
636.654	6.94
636.985	6.73
637.316	6.84
637.647	6.34
637.977	6.55
638.308	6.85
638.639	6.94
638.969	7
639.3	6.77
639.63	6.79
639.961	6.9
640.291	6.77
640.622	6.8
640.952	6.67
641.282	6.62
641.612	6.71
641.943	6.85
642.273	6.68
642.603	7.3
642.933	6.99
643.263	7.48
643.592	6.45
643.922	7.39
644.252	6.63
644.582	6.73
644.911	7.12
645.241	6.95
645.571	7.01
645.9	6.7
646.23	6.97
646.559	6.63
646.888	6.87
647.218	6.68
647.547	6.59
647.876	6.55
648.205	7.02
648.534	6.56
648.863	7.01
649.192	6.38
649.521	6.6
649.85	6.59
650.179	6.74
650.508	6.69
650.837	6.72
651.165	6.93
651.494	6.42
651.822	6.82
652.151	7.18
652.479	6.61
652.808	6.71
653.136	6.88
653.465	6.89
653.793	6.63
654.121	6.94
654.449	6.52
654.777	6.62
655.105	6.84
655.433	7.2
655.761	7.04
656.089	7.08
656.417	6.62
656.745	6.95
657.073	6.71
657.4	7.21
657.728	7.36
658.056	6.78
658.383	7
658.711	5.98
659.038	6.89
659.365	7.26
659.693	6.62
660.02	6.9
660.347	6.86
660.674	6.57
661.001	6.58
661.329	6.68
661.656	6.99
661.982	6.75
662.309	6.63
662.636	6.55
662.963	6.97
663.29	6.62
663.616	6.75
663.943	6.48
664.27	6.76
664.596	6.66
664.923	6.81
665.249	6.81
665.576	6.58
665.902	6.93
666.228	6.97
666.554	6.95
666.881	6.79
667.207	6.49
667.533	6.68
667.859	7.22
668.185	7.16
668.511	6.88
668.837	6.87
669.162	7.04
669.488	6.83
669.814	6.35
670.139	7.06
670.465	6.68
670.791	6.98
671.116	6.73
671.442	7.17
671.767	7.12
672.092	7.11
672.418	6.25
672.743	7.02
673.068	7.24
673.393	6.52
673.718	6.27
674.043	6.78
674.368	6.55
674.693	7.18
675.018	7.85
675.343	6.95
675.667	6.91
675.992	7.2
676.317	7.12
676.641	6.67
676.966	6.68
677.29	6.85
677.615	7.48
677.939	6.58
678.264	6.86
678.588	6.06
678.912	7.15
679.236	6.87
679.56	7.04
679.885	6.45
680.209	6.86
680.532	6.32
680.856	6.6
681.18	6.6
681.504	6.72
681.828	7.42
682.152	7.08
682.475	6.58
682.799	6.47
683.122	6.58
683.446	6.77
683.769	7.07
684.093	6.8
684.416	6.56
684.739	6.43
685.062	5.8
685.386	6.55
685.709	6.9
686.032	6.78
686.355	7.71
686.678	6.68
687.001	6.89
687.324	6.68
687.646	6.95
687.969	7
688.292	6.43
688.614	7
688.937	6.89
689.26	6.67
689.582	6.39
689.904	6.64
690.227	7.12
690.549	6.77
690.871	6.54
691.194	7.23
691.516	6.6
691.838	6.94
692.16	6.86
