Data from 0264_crown_Reflection__4__162.txt Node

Date: Fri Oct 20 21:55:34 CDT 2023
User: ToomeyLab
Spectrometer: FLMS14357
Trigger mode: 0
Integration Time (sec): 1.000000E-2
Scans to average: 100
Electric dark correction enabled: true
Nonlinearity correction enabled: false
Boxcar width: 0
XAxis mode: Wavelengths
Number of Pixels in Spectrum: 2048
>>>>>Begin Spectral Data<<<<<
189.047	57.5
189.435	57.5
189.823	57.5
190.211	132.9
190.599	-132.14
190.987	160.23
191.375	21.56
191.763	91.89
192.151	44.8
192.538	92.11
192.926	61.34
193.314	151.27
193.702	142.65
194.089	129.05
194.477	1625
194.864	-589.39
195.252	-72.59
195.639	-595.71
196.027	496.59
196.414	111.82
196.801	54.95
197.189	136.12
197.576	81.58
197.963	6258.33
198.351	42.02
198.738	27.68
199.125	14.88
199.512	51.97
199.899	7.99
200.286	14.64
200.673	34.93
201.06	5.5
201.447	-27.48
201.833	30.69
202.22	74.62
202.607	29.04
202.994	48.26
203.38	24.34
203.767	47.24
204.154	59.65
204.54	46.36
204.927	25.08
205.313	36.31
205.699	40.25
206.086	17.53
206.472	22.11
206.858	53.24
207.245	-15.88
207.631	41.95
208.017	37.43
208.403	10.43
208.789	49.37
209.175	-0.78
209.561	-8.46
209.947	22.24
210.333	38.07
210.719	18.06
211.105	64.95
211.491	30.98
211.876	-1.98
212.262	56.56
212.648	26.14
213.034	8.26
213.419	29.72
213.805	11.32
214.19	9.43
214.576	-6.29
214.961	7.99
215.346	39.24
215.732	23.85
216.117	-8.99
216.502	20.79
216.888	4.74
217.273	29.71
217.658	0.65
218.043	3.74
218.428	24.04
218.813	-7.61
219.198	12.83
219.583	13.41
219.968	25.56
220.353	20.19
220.738	33.69
221.122	6.12
221.507	9.36
221.892	7.6
222.276	5.63
222.661	16.61
223.046	16.56
223.43	12.6
223.815	9.93
224.199	20.1
224.583	7.43
224.968	14.81
225.352	6.65
225.736	14.18
226.121	13.51
226.505	9.26
226.889	18.18
227.273	11.6
227.657	12.27
228.041	14.97
228.425	6.22
228.809	13.78
229.193	6.21
229.577	12.98
229.961	9.87
230.344	8.67
230.728	7.41
231.112	8.34
231.495	8.19
231.879	8.49
232.263	8.89
232.646	6.88
233.03	7.03
233.413	7.33
233.797	8.56
234.18	6.52
234.563	11.38
234.946	10.59
235.33	7.52
235.713	8.95
236.096	9.2
236.479	7.56
236.862	8.75
237.245	7.87
237.628	7.15
238.011	8.46
238.394	8.63
238.777	9.36
239.16	7.76
239.543	10.23
239.925	9.26
240.308	7.51
240.691	8.09
241.073	9.84
241.456	8.99
241.838	8.38
242.221	8.56
242.603	8.36
242.986	7.59
243.368	8.28
243.75	7.09
244.133	7.83
244.515	7.6
244.897	7.67
245.279	7.39
245.661	7.29
246.043	8.28
246.425	7.52
246.807	8.36
247.189	8.02
247.571	6.64
247.953	7.39
248.335	7.97
248.717	7.19
249.098	7.05
249.48	7.21
249.862	7.17
250.243	7.76
250.625	8.05
251.006	7.7
251.388	7.43
251.769	7.92
252.151	7.46
252.532	7.37
252.913	6.76
253.295	6.36
253.676	7.28
254.057	7.36
254.438	7.16
254.819	7.25
255.2	6.52
255.581	7.68
255.962	6.91
256.343	7.77
256.724	6.61
257.105	7.28
257.486	8.29
257.867	7.83
258.247	7.92
258.628	7.01
259.009	7.49
259.389	7.63
259.77	6.78
260.15	7.09
260.531	7.54
260.911	7.01
261.292	6.83
261.672	6.77
262.052	7.11
262.432	6.79
262.813	6.82
263.193	6.87
263.573	6.97
263.953	7.28
264.333	7.86
264.713	7.64
265.093	7.22
265.473	7.57
265.853	6.86
266.233	6.87
266.612	7.09
266.992	6.47
267.372	7.19
267.752	7.2
268.131	6.79
268.511	6.94
268.89	7.05
269.27	6.88
269.649	6.24
270.029	6.8
270.408	7.12
270.787	6.87
271.167	6.45
271.546	7.02
271.925	7.35
272.304	6.99
272.683	7.01
273.062	6.5
273.441	6.73
273.82	6.93
274.199	7.15
274.578	6.59
274.957	6.58
275.336	6.59
275.715	6.78
276.093	6.62
276.472	6.73
276.851	6.85
277.229	6.87
277.608	6.35
277.986	5.97
278.365	6.9
278.743	6.5
279.122	6.26
279.5	6.23
279.878	6.07
280.257	5.78
280.635	6.6
281.013	6.71
281.391	6.76
281.769	6.45
282.147	6.34
282.525	6.34
282.903	6.13
283.281	6.52
283.659	6.41
284.037	6.96
284.415	5.97
284.792	6.3
285.17	6.58
285.548	6.16
285.925	6.17
286.303	5.99
286.68	6.21
287.058	6.73
287.435	6.21
287.813	5.62
288.19	6.01
288.567	6
288.945	6.36
289.322	6.24
289.699	5.8
290.076	6.51
290.453	6.14
290.83	5.59
291.207	6.32
291.584	5.71
291.961	5.84
292.338	5.56
292.715	6.05
293.092	5.92
293.469	6.27
293.845	6.07
294.222	5.95
294.599	5.82
294.975	6.39
295.352	5.89
295.728	6.14
296.105	5.84
296.481	5.6
296.858	5.73
297.234	5.79
297.61	5.45
297.986	5.57
298.363	5.97
298.739	5.76
299.115	5.65
299.491	5.64
299.867	5.94
300.243	5.84
300.619	5.43
300.995	5.51
301.371	6.02
301.746	5.63
302.122	5.76
302.498	5.55
302.874	5.55
303.249	5.86
303.625	5.48
304	5.8
304.376	5.55
304.751	4.92
305.127	5.28
305.502	6.16
305.878	5.24
306.253	5.39
306.628	5.62
307.003	5.54
307.378	5.34
307.754	5.84
308.129	5.53
308.504	6.32
308.879	5.34
309.254	5.93
309.629	5.42
310.003	4.9
310.378	5.56
310.753	5.58
311.128	5.73
311.502	5.3
311.877	5.32
312.252	5.31
312.626	5.28
313.001	5.23
313.375	5.21
313.75	5.25
314.124	5.49
314.498	5.57
314.873	5.18
315.247	5.97
315.621	5.71
315.995	5.6
316.369	5.18
316.743	5.54
317.117	5.49
317.491	4.61
317.865	5.67
318.239	5.9
318.613	5.38
318.987	5.4
319.361	5.01
319.734	4.95
320.108	4.63
320.482	5.17
320.855	5.46
321.229	5.7
321.602	5.63
321.976	4.92
322.349	5.73
322.723	5.06
323.096	4.95
323.469	4.94
323.843	5.38
324.216	5.1
324.589	5.06
324.962	5.45
325.335	5.12
325.708	5.54
326.081	5.36
326.454	5.41
326.827	5.33
327.2	5.53
327.573	5.36
327.945	5.23
328.318	5.09
328.691	4.88
329.063	5.47
329.436	5.03
329.809	5.25
330.181	5.44
330.553	5.27
330.926	5.41
331.298	4.92
331.671	4.73
332.043	4.77
332.415	5.11
332.787	4.61
333.159	4.61
333.532	5.25
333.904	4.96
334.276	4.76
334.648	5.26
335.02	6.03
335.391	5.08
335.763	5.18
336.135	5.17
336.507	5.16
336.879	4.75
337.25	5.14
337.622	5.58
337.993	5.65
338.365	4.73
338.736	5
339.108	5.27
339.479	5.16
339.851	5.52
340.222	5.32
340.593	4.37
340.964	5.26
341.336	5.58
341.707	5.38
342.078	5.22
342.449	4.91
342.82	4.56
343.191	5.07
343.562	5.06
343.933	4.74
344.303	4.87
344.674	5.35
345.045	5.54
345.416	5.23
345.786	5.02
346.157	5.18
346.527	5.19
346.898	5.26
347.268	5.15
347.639	5.36
348.009	4.82
348.38	5.31
348.75	4.79
349.12	5
349.49	5.05
349.861	5.63
350.231	5.17
350.601	5.46
350.971	5.54
351.341	5.27
351.711	5.89
352.081	5.6
352.45	5.46
352.82	5.53
353.19	5.58
353.56	5.56
353.929	4.96
354.299	5.55
354.669	5.56
355.038	5.48
355.408	5.49
355.777	5.24
356.147	5.13
356.516	5.06
356.885	5.38
357.254	5.22
357.624	5.21
357.993	5.11
358.362	5.46
358.731	4.84
359.1	4.81
359.469	5.21
359.838	5.4
360.207	5.06
360.576	5.37
360.945	5.26
361.314	5.36
361.682	5.31
362.051	5.07
362.42	5.02
362.788	5.36
363.157	5.52
363.525	5.11
363.894	5.13
364.262	5.25
364.631	5.33
364.999	5.47
365.367	5.12
365.735	5.23
366.104	5.16
366.472	5.23
366.84	5.32
367.208	5.57
367.576	5.07
367.944	5.43
368.312	5.7
368.68	5.58
369.048	5.34
369.416	5.41
369.783	5.59
370.151	5.43
370.519	5.11
370.886	5.8
371.254	5.78
371.621	5.85
371.989	5.01
372.356	5.68
372.724	5.72
373.091	5.35
373.458	5.34
373.826	5.56
374.193	5.16
374.56	5.5
374.927	5.6
375.294	5.4
375.661	5.79
376.028	5.71
376.395	5.76
376.762	5.6
377.129	5.54
377.496	5.78
377.863	5.97
378.229	5.83
378.596	5.55
378.963	5.47
379.329	6
379.696	5.92
380.062	5.59
380.429	5.69
380.795	5.4
381.161	5.78
381.528	5.73
381.894	5.66
382.26	5.83
382.626	5.82
382.993	5.56
383.359	5.42
383.725	5.76
384.091	5.77
384.457	5.83
384.823	5.76
385.188	5.84
385.554	5.73
385.92	5.79
386.286	5.98
386.651	5.5
387.017	5.96
387.383	5.68
387.748	5.43
388.114	5.5
388.479	5.85
388.845	5.85
389.21	5.76
389.575	5.59
389.94	5.67
390.306	6
390.671	5.71
391.036	5.69
391.401	6.03
391.766	5.95
392.131	5.71
392.496	5.97
392.861	5.96
393.226	6.05
393.591	5.89
393.956	5.98
394.32	6
394.685	5.87
395.05	6.08
395.414	6.05
395.779	5.94
396.143	5.89
396.508	5.89
396.872	6.15
397.236	6.01
397.601	5.88
397.965	5.87
398.329	5.84
398.694	6.09
399.058	5.78
399.422	6.04
399.786	5.91
400.15	6.04
400.514	5.83
400.878	6.16
401.242	5.89
401.605	6.01
401.969	5.9
402.333	5.84
402.697	5.93
403.06	6.05
403.424	6.02
403.787	6.25
404.151	6.19
404.514	5.91
404.878	6.3
405.241	5.99
405.604	5.84
405.968	6.11
406.331	6.13
406.694	6.13
407.057	5.97
407.42	6.22
407.783	6.1
408.146	5.88
408.509	5.97
408.872	6.32
409.235	6.24
409.598	6.34
409.961	6.31
410.323	6.14
410.686	6.09
411.049	6.13
411.411	6.1
411.774	6.17
412.136	6.17
412.499	6.17
412.861	6.3
413.223	6.09
413.586	6.2
413.948	6.37
414.31	6.3
414.672	6.36
415.035	6.14
415.397	6.2
415.759	6.35
416.121	6.24
416.483	6.52
416.845	6.32
417.206	6.26
417.568	6.35
417.93	6.23
418.292	6.03
418.653	6.43
419.015	6.18
419.377	6.18
419.738	6.22
420.1	6.11
420.461	6.25
420.822	6.09
421.184	6.03
421.545	6.22
421.906	6.13
422.267	6.22
422.629	6.17
422.99	6.05
423.351	6.12
423.712	6.08
424.073	6.14
424.434	6.08
424.795	6.2
425.155	6.15
425.516	6.16
425.877	6.11
426.238	5.99
426.598	6.17
426.959	6.22
427.32	6.19
427.68	6.31
428.041	6.19
428.401	6.41
428.761	6.28
429.122	6.32
429.482	6.46
429.842	6.24
430.202	6.33
430.563	6.22
430.923	6.33
431.283	6.45
431.643	6.42
432.003	6.59
432.363	6.36
432.722	6.46
433.082	6.33
433.442	6.41
433.802	6.66
434.161	6.22
434.521	6.47
434.881	6.43
435.24	6.45
435.6	6.34
435.959	6.38
436.319	6.44
436.678	6.5
437.037	6.45
437.396	6.39
437.756	6.53
438.115	6.21
438.474	6.63
438.833	6.55
439.192	6.42
439.551	6.37
439.91	6.48
440.269	6.49
440.628	6.46
440.987	6.55
441.345	6.37
441.704	6.44
442.063	6.55
442.421	6.48
442.78	6.38
443.138	6.5
443.497	6.55
443.855	6.41
444.214	6.37
444.572	6.34
444.93	6.65
445.288	6.52
445.647	6.58
446.005	6.31
446.363	6.47
446.721	6.49
447.079	6.51
447.437	6.4
447.795	6.39
448.153	6.41
448.51	6.46
448.868	6.34
449.226	6.4
449.584	6.31
449.941	6.42
450.299	6.5
450.656	6.44
451.014	6.51
451.371	6.48
451.729	6.49
452.086	6.47
452.443	6.63
452.801	6.45
453.158	6.72
453.515	6.68
453.872	6.67
454.229	6.72
454.586	6.68
454.943	6.52
455.3	6.38
455.657	6.5
456.014	6.39
456.371	6.54
456.727	6.63
457.084	6.7
457.441	6.7
457.797	6.48
458.154	6.51
458.51	6.64
458.867	6.59
459.223	6.46
459.58	6.43
459.936	6.67
460.292	6.5
460.648	6.6
461.005	6.48
461.361	6.5
461.717	6.38
462.073	6.58
462.429	6.51
462.785	6.55
463.141	6.58
463.496	6.47
463.852	6.6
464.208	6.66
464.564	6.59
464.919	6.72
465.275	6.81
465.631	6.9
465.986	6.67
466.342	6.78
466.697	6.73
467.052	6.73
467.408	6.7
467.763	6.75
468.118	6.9
468.473	6.76
468.829	6.7
469.184	6.62
469.539	6.82
469.894	6.83
470.249	6.61
470.603	6.68
470.958	6.82
471.313	6.74
471.668	6.72
472.023	6.98
472.377	6.84
472.732	6.73
473.086	6.72
473.441	6.83
473.795	7.01
474.15	6.88
474.504	6.67
474.859	6.81
475.213	6.93
475.567	6.75
475.921	6.68
476.275	6.78
476.63	6.83
476.984	6.7
477.338	6.65
477.692	6.74
478.045	6.69
478.399	6.82
478.753	6.7
479.107	6.82
479.461	6.76
479.814	7.01
480.168	6.82
480.521	6.81
480.875	6.79
481.228	6.75
481.582	6.83
481.935	6.67
482.289	6.69
482.642	6.74
482.995	6.75
483.348	6.85
483.701	6.71
484.055	6.79
484.408	6.59
484.761	6.59
485.114	6.45
485.466	6.35
485.819	6.37
486.172	6.26
486.525	6.29
486.878	6.36
487.23	6.4
487.583	6.43
487.936	6.48
488.288	6.51
488.641	6.6
488.993	6.49
489.345	6.46
489.698	6.4
490.05	6.4
490.402	6.4
490.754	6.44
491.107	6.51
491.459	6.53
491.811	6.6
492.163	6.58
492.515	6.66
492.866	6.7
493.218	6.54
493.57	6.48
493.922	6.43
494.274	6.46
494.625	6.52
494.977	6.59
495.328	6.69
495.68	6.79
496.031	6.62
496.383	6.84
496.734	6.84
497.086	6.72
497.437	6.77
497.788	6.71
498.139	6.85
498.49	6.69
498.842	6.67
499.193	6.84
499.544	6.7
499.894	6.79
500.245	6.7
500.596	6.7
500.947	6.89
501.298	6.77
501.648	6.74
501.999	6.68
502.35	6.78
502.7	7
503.051	6.8
503.401	6.8
503.752	6.89
504.102	6.92
504.452	6.84
504.803	6.75
505.153	6.85
505.503	6.91
505.853	6.83
506.203	6.71
506.553	6.63
506.903	6.94
507.253	6.91
507.603	6.7
507.953	6.8
508.303	6.78
508.652	6.8
509.002	6.78
509.352	6.87
509.701	6.89
510.051	6.83
510.4	6.81
510.75	6.81
511.099	6.81
511.449	6.9
511.798	6.81
512.147	6.75
512.496	6.89
512.846	6.79
513.195	6.71
513.544	6.74
513.893	6.69
514.242	6.85
514.591	6.77
514.939	6.8
515.288	6.79
515.637	6.83
515.986	6.84
516.334	6.83
516.683	6.75
517.032	6.58
517.38	6.75
517.729	6.8
518.077	6.72
518.426	6.82
518.774	6.72
519.122	6.87
519.47	6.82
519.819	6.6
520.167	6.82
520.515	6.7
520.863	6.71
521.211	6.7
521.559	6.74
521.907	6.66
522.255	6.74
522.602	6.81
522.95	6.75
523.298	6.81
523.645	6.8
523.993	6.87
524.341	6.81
524.688	6.88
525.036	6.78
525.383	6.82
525.73	6.86
526.078	6.84
526.425	6.84
526.772	6.71
527.119	6.71
527.466	6.7
527.814	6.67
528.161	6.65
528.508	6.65
528.854	6.6
529.201	6.59
529.548	6.66
529.895	6.65
530.242	6.54
530.588	6.45
530.935	6.39
531.282	6.45
531.628	6.53
531.975	6.48
532.321	6.5
532.667	6.56
533.014	6.6
533.36	6.72
533.706	6.67
534.052	6.69
534.399	6.56
534.745	6.57
535.091	6.59
535.437	6.6
535.783	6.55
536.129	6.65
536.474	6.61
536.82	6.66
537.166	6.64
537.512	6.69
537.857	6.83
538.203	6.68
538.549	6.83
538.894	6.62
539.239	6.67
539.585	6.71
539.93	6.73
540.276	6.81
540.621	6.72
540.966	6.77
541.311	6.81
541.656	6.83
542.001	6.85
542.346	6.84
542.691	6.63
543.036	6.6
543.381	6.51
543.726	6.54
544.071	6.49
544.415	6.51
544.76	6.55
545.105	6.63
545.449	6.68
545.794	6.68
546.138	6.67
546.483	6.62
546.827	6.71
547.171	6.8
547.516	6.69
547.86	6.87
548.204	6.72
548.548	6.75
548.892	6.6
549.236	6.67
549.58	6.72
549.924	6.69
550.268	6.69
550.612	6.81
550.956	6.97
551.3	6.75
551.643	6.78
551.987	6.93
552.33	6.69
552.674	6.87
553.017	6.96
553.361	7
553.704	6.81
554.048	6.98
554.391	6.83
554.734	6.76
555.077	6.86
555.42	6.62
555.764	6.63
556.107	6.97
556.45	6.83
556.793	6.7
557.135	6.79
557.478	6.74
557.821	6.9
558.164	6.9
558.507	6.94
558.849	6.91
559.192	6.67
559.534	7.02
559.877	6.63
560.219	6.91
560.562	6.87
560.904	6.91
561.246	6.93
561.589	6.78
561.931	6.88
562.273	6.68
562.615	6.8
562.957	6.88
563.299	6.87
563.641	6.95
563.983	6.79
564.325	6.68
564.667	6.85
565.008	6.69
565.35	6.79
565.692	6.81
566.033	6.76
566.375	6.68
566.716	6.73
567.058	6.71
567.399	6.78
567.741	6.66
568.082	6.78
568.423	6.68
568.764	6.53
569.105	6.73
569.447	6.55
569.788	6.58
570.129	6.62
570.47	6.73
570.811	6.85
571.151	6.55
571.492	6.87
571.833	6.68
572.174	6.79
572.514	6.87
572.855	6.55
573.195	6.76
573.536	6.49
573.876	6.86
574.217	6.59
574.557	6.62
574.898	6.59
575.238	6.62
575.578	6.59
575.918	6.47
576.258	6.74
576.598	6.7
576.938	6.78
577.278	6.56
577.618	6.55
577.958	6.49
578.298	6.62
578.638	6.64
578.977	6.52
579.317	6.57
579.657	6.64
579.996	6.7
580.336	6.55
580.675	6.52
581.014	6.64
581.354	6.62
581.693	6.59
582.032	6.81
582.372	6.67
582.711	6.61
583.05	6.74
583.389	6.73
583.728	6.82
584.067	6.71
584.406	6.64
584.745	6.53
585.083	6.55
585.422	6.58
585.761	6.54
586.1	6.74
586.438	6.22
586.777	6.72
587.115	6.85
587.454	6.71
587.792	6.53
588.13	6.62
588.469	6.72
588.807	6.13
589.145	6.57
589.483	6.54
589.821	6.61
590.159	6.73
590.497	6.65
590.835	6.69
591.173	6.42
591.511	6.6
591.849	6.53
592.187	6.59
592.524	6.6
592.862	6.6
593.2	6.65
593.537	6.32
593.875	6.42
594.212	6.84
594.55	6.8
594.887	6.46
595.224	6.42
595.561	6.4
595.899	6.52
596.236	6.59
596.573	6.52
596.91	6.59
597.247	6.36
597.584	6.28
597.921	6.45
598.258	6.6
598.594	6.71
598.931	6.43
599.268	6.38
599.604	6.47
599.941	6.41
600.277	6.37
600.614	6.51
600.95	6.55
601.287	6.47
601.623	6.65
601.959	6.4
602.296	6.58
602.632	6.32
602.968	6.37
603.304	6.53
603.64	6.34
603.976	6.65
604.312	6.76
604.648	6.45
604.984	6.61
605.319	6.38
605.655	6.38
605.991	6.56
606.326	6.28
606.662	6.18
606.998	6.28
607.333	6.27
607.668	6.22
608.004	6.42
608.339	6.25
608.674	6.45
609.01	6.36
609.345	6.39
609.68	6.26
610.015	6.45
610.35	6.39
610.685	6.51
611.02	6.39
611.355	6.07
611.689	6.27
612.024	6.33
612.359	6.16
612.694	6.38
613.028	6.18
613.363	6.23
613.697	6.25
614.032	6.32
614.366	6.64
614.7	6.58
615.035	6.35
615.369	6.5
615.703	6.01
616.037	6.6
616.371	6.24
616.705	6.34
617.039	6.24
617.373	6.59
617.707	7.02
618.041	6.56
618.375	6.09
618.709	6.22
619.042	6.19
619.376	6.76
619.71	6.82
620.043	6.23
620.377	6.25
620.71	6.66
621.043	6.17
621.377	6.19
621.71	6.43
622.043	6.16
622.376	6.55
622.709	6.28
623.043	6.22
623.376	6.38
623.709	5.95
624.041	6.28
624.374	6.14
624.707	5.99
625.04	6.5
625.373	6.39
625.705	5.91
626.038	6.36
626.37	5.98
626.703	6.37
627.035	6
627.368	6.13
627.7	6.36
628.032	6.34
628.365	6.26
628.697	6.29
629.029	6.03
629.361	6.39
629.693	6.19
630.025	6.36
630.357	6.25
630.689	6.34
631.021	6.54
631.353	6.4
631.684	5.95
632.016	6.11
632.348	5.86
632.679	5.97
633.011	6.24
633.342	6.38
633.674	6.26
634.005	6.37
634.336	6.59
634.668	6.27
634.999	5.9
635.33	5.98
635.661	6.5
635.992	6.13
636.323	6.18
636.654	6.16
636.985	5.73
637.316	5.98
637.647	6.22
637.977	6
638.308	6.08
638.639	5.82
638.969	6.27
639.3	5.84
639.63	6.29
639.961	6.3
640.291	6.18
640.622	6.16
640.952	6.3
641.282	6.06
641.612	6.09
641.943	6.2
642.273	5.72
642.603	6.44
642.933	5.82
643.263	6.29
643.592	6.03
643.922	6.33
644.252	6.21
644.582	6.01
644.911	6.18
645.241	6.64
645.571	6.64
645.9	5.91
646.23	5.89
646.559	5.96
646.888	6.8
647.218	6.48
647.547	6
647.876	6.27
648.205	6.21
648.534	6.06
648.863	6.3
649.192	5.87
649.521	6.23
649.85	5.56
650.179	6.22
650.508	6.12
650.837	6.37
651.165	6.05
651.494	5.99
651.822	6.46
652.151	6.17
652.479	5.9
652.808	6.11
653.136	5.96
653.465	6.26
653.793	6.23
654.121	6.4
654.449	6.18
654.777	5.91
655.105	6.4
655.433	6.66
655.761	6.33
656.089	6.07
656.417	6.26
656.745	6
657.073	5.87
657.4	6.59
657.728	6.46
658.056	6.23
658.383	6.38
658.711	5.58
659.038	6.46
659.365	6.49
659.693	6.15
660.02	5.91
660.347	5.63
660.674	5.87
661.001	5.64
661.329	6.15
661.656	6.17
661.982	6
662.309	6.18
662.636	5.92
662.963	6.05
663.29	6.1
663.616	6.25
663.943	5.7
664.27	6.3
664.596	5.86
664.923	5.74
665.249	6.17
665.576	6.13
665.902	6.17
666.228	6.16
666.554	6.32
666.881	5.39
667.207	5.87
667.533	5.92
667.859	6.1
668.185	6.37
668.511	6.49
668.837	5.9
669.162	6.14
669.488	6.32
669.814	6.3
670.139	6.4
670.465	5.69
670.791	6.23
671.116	6.22
671.442	6.03
671.767	6.35
672.092	6.26
672.418	6.17
672.743	6.27
673.068	6.5
673.393	5.92
673.718	6.54
674.043	6.2
674.368	6.32
674.693	6.35
675.018	6.96
675.343	6.16
675.667	5.74
675.992	6.32
676.317	5.79
676.641	6.59
676.966	6.53
677.29	5.92
677.615	6.47
677.939	5.37
678.264	5.96
678.588	5.31
678.912	6.16
679.236	5.8
679.56	6.54
679.885	7.03
680.209	6.2
680.532	5.98
680.856	5.91
681.18	5.78
681.504	6.66
681.828	6.12
682.152	6.48
682.475	5.57
682.799	6.42
683.122	5.88
683.446	6.07
683.769	6.31
684.093	5.99
684.416	6.22
684.739	6.03
685.062	5.55
685.386	5.77
685.709	6.23
686.032	6.07
686.355	6.37
686.678	5.99
687.001	6.58
687.324	5.13
687.646	6.11
687.969	6.8
688.292	6.61
688.614	5.94
688.937	6.15
689.26	5.97
689.582	5.94
689.904	5.54
690.227	6.2
690.549	6.19
690.871	5.97
691.194	6.71
691.516	5.94
691.838	6.59
692.16	6.42
692.482	6.45
692.804	6.62
693.126	5.29
