Data from 0264_chest_Reflection__0__153.txt Node

Date: Fri Oct 20 21:51:40 CDT 2023
User: ToomeyLab
Spectrometer: FLMS14357
Trigger mode: 0
Integration Time (sec): 1.000000E-2
Scans to average: 100
Electric dark correction enabled: true
Nonlinearity correction enabled: false
Boxcar width: 0
XAxis mode: Wavelengths
Number of Pixels in Spectrum: 2048
>>>>>Begin Spectral Data<<<<<
189.047	4.48
189.435	4.48
189.823	4.48
190.211	111.76
190.599	15.03
190.987	173.49
191.375	114.18
191.763	82.63
192.151	57.11
192.538	28.47
192.926	43.41
193.314	105.53
193.702	40.28
194.089	111.59
194.477	3813.12
194.864	741.48
195.252	123.08
195.639	-220.89
196.027	498.44
196.414	45.48
196.801	7.22
197.189	105.9
197.576	0.55
197.963	3171.88
198.351	27.53
198.738	49.5
199.125	22.6
199.512	53.77
199.899	43.53
200.286	-21.97
200.673	5.89
201.06	3.45
201.447	11.76
201.833	32.77
202.22	26.51
202.607	18.22
202.994	30.52
203.38	34.49
203.767	33.3
204.154	57.79
204.54	67.36
204.927	9.91
205.313	3.01
205.699	39.2
206.086	44.68
206.472	38.84
206.858	46.03
207.245	45.83
207.631	27.18
208.017	30.15
208.403	19.51
208.789	44.12
209.175	0.49
209.561	35.28
209.947	31.78
210.333	33.86
210.719	24.12
211.105	19.86
211.491	18.92
211.876	2.75
212.262	2.65
212.648	38.7
213.034	16.81
213.419	21.67
213.805	-4.9
214.19	7.77
214.576	16.74
214.961	20.37
215.346	40.69
215.732	28.47
216.117	8.82
216.502	-15.61
216.888	-2.02
217.273	0.54
217.658	4.62
218.043	12.17
218.428	11.64
218.813	23.92
219.198	2.57
219.583	-19.66
219.968	-6.98
220.353	23.69
220.738	18.24
221.122	2.95
221.507	0.81
221.892	14.48
222.276	14.81
222.661	26.27
223.046	19.05
223.43	12.43
223.815	10.28
224.199	16.38
224.583	1.5
224.968	6.06
225.352	3.44
225.736	5.89
226.121	12.64
226.505	4.37
226.889	9.89
227.273	10.51
227.657	10.59
228.041	6.24
228.425	7.6
228.809	3.46
229.193	4.47
229.577	7.7
229.961	5.99
230.344	4.05
230.728	3.79
231.112	5.35
231.495	4
231.879	4.63
232.263	5.82
232.646	4.06
233.03	3.79
233.413	3.85
233.797	3.83
234.18	5.41
234.563	6.7
234.946	6.33
235.33	5.6
235.713	4.78
236.096	3.98
236.479	5.01
236.862	5.82
237.245	5.34
237.628	5.37
238.011	5.82
238.394	4.19
238.777	5.05
239.16	4.14
239.543	6.07
239.925	5.18
240.308	5.26
240.691	5.17
241.073	4.89
241.456	5.35
241.838	4.05
242.221	4.88
242.603	5.41
242.986	4.58
243.368	5.65
243.75	4.4
244.133	4.18
244.515	3.92
244.897	4.35
245.279	4.6
245.661	4.3
246.043	3.5
246.425	4.8
246.807	4.53
247.189	4.35
247.571	4.12
247.953	4.21
248.335	4.97
248.717	4.04
249.098	4.11
249.48	4.14
249.862	4.28
250.243	4.78
250.625	4.4
251.006	4.56
251.388	4.26
251.769	4.79
252.151	3.61
252.532	5.29
252.913	4.71
253.295	3.63
253.676	4.79
254.057	4.35
254.438	4.25
254.819	4.46
255.2	4.19
255.581	3.96
255.962	3.98
256.343	4.5
256.724	4.38
257.105	5.68
257.486	4.57
257.867	4.6
258.247	4.33
258.628	3.58
259.009	4.58
259.389	3.89
259.77	4.93
260.15	3.96
260.531	4.14
260.911	4.18
261.292	3.81
261.672	4.18
262.052	4.04
262.432	4.12
262.813	3.89
263.193	4.29
263.573	3.69
263.953	4.23
264.333	4.28
264.713	4.71
265.093	4.19
265.473	5.17
265.853	3.22
266.233	4.44
266.612	4.66
266.992	3.72
267.372	4.34
267.752	4.52
268.131	4.47
268.511	4.18
268.89	4.11
269.27	3.77
269.649	3.85
270.029	4.2
270.408	3.93
270.787	3.9
271.167	4
271.546	3.99
271.925	4.51
272.304	4.62
272.683	4.46
273.062	4.17
273.441	4.2
273.82	4.23
274.199	4.35
274.578	3.81
274.957	4.05
275.336	4.17
275.715	3.99
276.093	3.64
276.472	4.3
276.851	4.2
277.229	4.34
277.608	4.02
277.986	3.9
278.365	4.52
278.743	4.19
279.122	3.68
279.5	3.94
279.878	3.6
280.257	3.74
280.635	4
281.013	4.33
281.391	4.37
281.769	3.63
282.147	3.94
282.525	4.21
282.903	4.04
283.281	3.66
283.659	3.97
284.037	3.87
284.415	3.49
284.792	3.63
285.17	4.2
285.548	4.09
285.925	3.75
286.303	3.99
286.68	3.39
287.058	4.59
287.435	4.09
287.813	3.37
288.19	3.79
288.567	4.07
288.945	4.14
289.322	4.32
289.699	3.63
290.076	4.33
290.453	4.12
290.83	4.34
291.207	4.51
291.584	3.76
291.961	4.22
292.338	3.66
292.715	3.86
293.092	3.89
293.469	4.17
293.845	4.02
294.222	3.91
294.599	3.76
294.975	4.76
295.352	4.36
295.728	4.5
296.105	3.89
296.481	4
296.858	4.33
297.234	4.18
297.61	3.92
297.986	4.05
298.363	4.27
298.739	4.29
299.115	4.16
299.491	4.2
299.867	4.37
300.243	4.11
300.619	4.16
300.995	4.42
301.371	4.5
301.746	4.44
302.122	4.44
302.498	4.1
302.874	4.44
303.249	4.61
303.625	4.5
304	4.83
304.376	3.68
304.751	4.24
305.127	4.43
305.502	4.6
305.878	4.28
306.253	4.58
306.628	4.37
307.003	4.25
307.378	4.4
307.754	4.82
308.129	4.91
308.504	4.81
308.879	4.75
309.254	4.33
309.629	4.56
310.003	4.11
310.378	5.39
310.753	4.51
311.128	4.82
311.502	4.47
311.877	4.78
312.252	4.02
312.626	4.68
313.001	4.65
313.375	4.48
313.75	4.67
314.124	4.52
314.498	4.48
314.873	4.43
315.247	5.11
315.621	5.11
315.995	4.97
316.369	4.7
316.743	4.56
317.117	4.55
317.491	4.62
317.865	5.1
318.239	5.14
318.613	5.08
318.987	4.52
319.361	4.29
319.734	4.36
320.108	4.21
320.482	4.68
320.855	5.09
321.229	5.09
321.602	4.76
321.976	4.46
322.349	5.25
322.723	4.84
323.096	5.11
323.469	5.02
323.843	4.94
324.216	4.96
324.589	4.79
324.962	4.73
325.335	5.16
325.708	4.9
326.081	5
326.454	5.11
326.827	4.95
327.2	4.94
327.573	5.22
327.945	4.76
328.318	4.32
328.691	4.69
329.063	5.49
329.436	4.67
329.809	5.05
330.181	4.77
330.553	4.91
330.926	5.24
331.298	4.39
331.671	4.62
332.043	4.61
332.415	4.82
332.787	4.84
333.159	4.32
333.532	5.1
333.904	4.77
334.276	4.66
334.648	5.12
335.02	5.18
335.391	4.34
335.763	5.03
336.135	4.85
336.507	5.53
336.879	4.66
337.25	5.11
337.622	5.39
337.993	5.46
338.365	5.31
338.736	4.96
339.108	5.26
339.479	4.43
339.851	5.08
340.222	4.62
340.593	4.5
340.964	4.89
341.336	5.23
341.707	5.08
342.078	5.3
342.449	4.98
342.82	4.59
343.191	5.21
343.562	5.08
343.933	5.02
344.303	4.82
344.674	5.45
345.045	5.28
345.416	5.05
345.786	4.54
346.157	5.18
346.527	5.1
346.898	4.79
347.268	5.33
347.639	5.17
348.009	4.67
348.38	5.26
348.75	4.95
349.12	5.07
349.49	4.63
349.861	5.23
350.231	5.07
350.601	5.16
350.971	5.31
351.341	4.97
351.711	5.17
352.081	5.05
352.45	4.97
352.82	5.35
353.19	5.04
353.56	5.11
353.929	4.93
354.299	5.07
354.669	5.39
355.038	5.26
355.408	5.39
355.777	4.53
356.147	5.06
356.516	4.96
356.885	5.06
357.254	5.32
357.624	5.1
357.993	4.87
358.362	5.04
358.731	5.07
359.1	4.67
359.469	4.89
359.838	4.99
360.207	5.04
360.576	5.42
360.945	4.74
361.314	5.18
361.682	5.2
362.051	5.01
362.42	4.85
362.788	5.26
363.157	5.23
363.525	4.9
363.894	5.07
364.262	4.95
364.631	5.19
364.999	5.24
365.367	5.08
365.735	5.04
366.104	4.93
366.472	5.22
366.84	5.3
367.208	5.44
367.576	5.02
367.944	5.06
368.312	5
368.68	5.05
369.048	5.34
369.416	5.25
369.783	5.39
370.151	5.05
370.519	5.17
370.886	5.31
371.254	5.72
371.621	5.44
371.989	5.38
372.356	5.42
372.724	5.49
373.091	5.42
373.458	4.81
373.826	4.88
374.193	5.11
374.56	5.26
374.927	5.11
375.294	5.28
375.661	5.4
376.028	5.29
376.395	5.38
376.762	5.22
377.129	5.3
377.496	5.38
377.863	5.48
378.229	5.45
378.596	5.43
378.963	5.43
379.329	5.57
379.696	5.47
380.062	5.36
380.429	5.14
380.795	5.33
381.161	5.31
381.528	5.58
381.894	5.33
382.26	5.47
382.626	5.86
382.993	5.07
383.359	5.39
383.725	5.5
384.091	5.56
384.457	5.3
384.823	5.42
385.188	5.54
385.554	5.44
385.92	5.31
386.286	5.64
386.651	5.11
387.017	5.47
387.383	5.18
387.748	5.1
388.114	5.18
388.479	5.44
388.845	5.56
389.21	5.3
389.575	4.93
389.94	5.61
390.306	5.51
390.671	5.44
391.036	5.29
391.401	5.67
391.766	5.55
392.131	5.43
392.496	5.44
392.861	5.53
393.226	5.35
393.591	5.29
393.956	5.56
394.32	5.54
394.685	5.3
395.05	5.69
395.414	5.62
395.779	5.44
396.143	5.25
396.508	5.44
396.872	5.52
397.236	5.45
397.601	5.36
397.965	5.21
398.329	5.42
398.694	5.28
399.058	5.42
399.422	5.42
399.786	5.2
400.15	5.52
400.514	5.32
400.878	5.65
401.242	5.53
401.605	5.45
401.969	5.42
402.333	5.48
402.697	5.66
403.06	5.41
403.424	5.58
403.787	5.53
404.151	5.61
404.514	5.49
404.878	5.59
405.241	5.42
405.604	5.57
405.968	5.63
406.331	5.4
406.694	5.45
407.057	5.53
407.42	5.69
407.783	5.4
408.146	5.54
408.509	5.52
408.872	5.63
409.235	5.54
409.598	5.6
409.961	5.58
410.323	5.58
410.686	5.23
411.049	5.57
411.411	5.54
411.774	5.73
412.136	5.53
412.499	5.58
412.861	5.75
413.223	5.58
413.586	5.64
413.948	5.9
414.31	5.85
414.672	5.64
415.035	5.62
415.397	5.75
415.759	5.71
416.121	5.66
416.483	5.84
416.845	5.69
417.206	5.6
417.568	5.7
417.93	5.83
418.292	5.63
418.653	5.73
419.015	5.65
419.377	5.51
419.738	5.54
420.1	5.56
420.461	5.6
420.822	5.61
421.184	5.57
421.545	5.68
421.906	5.67
422.267	5.56
422.629	5.65
422.99	5.52
423.351	5.62
423.712	5.53
424.073	5.6
424.434	5.48
424.795	5.53
425.155	5.59
425.516	5.67
425.877	5.54
426.238	5.5
426.598	5.53
426.959	5.54
427.32	5.65
427.68	5.61
428.041	5.53
428.401	5.5
428.761	5.67
429.122	5.7
429.482	5.74
429.842	5.82
430.202	5.79
430.563	5.77
430.923	5.87
431.283	5.74
431.643	5.9
432.003	6.09
432.363	5.84
432.722	5.85
433.082	5.87
433.442	5.85
433.802	6.08
434.161	5.74
434.521	5.94
434.881	5.87
435.24	5.86
435.6	5.76
435.959	5.77
436.319	5.82
436.678	5.75
437.037	5.82
437.396	5.92
437.756	5.96
438.115	5.71
438.474	5.93
438.833	5.93
439.192	5.68
439.551	5.76
439.91	5.84
440.269	6
440.628	5.93
440.987	5.79
441.345	5.66
441.704	5.77
442.063	5.75
442.421	5.8
442.78	5.74
443.138	5.89
443.497	5.84
443.855	5.84
444.214	5.85
444.572	5.99
444.93	6.01
445.288	6.1
445.647	6.09
446.005	5.73
446.363	6.02
446.721	5.9
447.079	6.07
447.437	5.92
447.795	5.72
448.153	5.85
448.51	5.91
448.868	5.75
449.226	5.86
449.584	5.88
449.941	5.88
450.299	5.85
450.656	5.91
451.014	5.94
451.371	5.94
451.729	5.9
452.086	6.01
452.443	6
452.801	6.01
453.158	6.19
453.515	6.02
453.872	6.03
454.229	6.15
454.586	6.08
454.943	6.08
455.3	6.12
455.657	5.97
456.014	6.08
456.371	6.07
456.727	6.07
457.084	6.14
457.441	6.19
457.797	5.99
458.154	6.02
458.51	6.07
458.867	6.25
459.223	6.15
459.58	6.15
459.936	6.25
460.292	6.2
460.648	6.08
461.005	6.04
461.361	6.17
461.717	5.86
462.073	6.04
462.429	6.02
462.785	6.01
463.141	6.21
463.496	6.16
463.852	6.15
464.208	6.24
464.564	6.33
464.919	6.2
465.275	6.33
465.631	6.31
465.986	6.3
466.342	6.32
466.697	6.31
467.052	6.22
467.408	6.35
467.763	6.41
468.118	6.46
468.473	6.28
468.829	6.32
469.184	6.4
469.539	6.3
469.894	6.35
470.249	6.31
470.603	6.28
470.958	6.43
471.313	6.55
471.668	6.47
472.023	6.38
472.377	6.32
472.732	6.25
473.086	6.62
473.441	6.66
473.795	6.59
474.15	6.31
474.504	6.36
474.859	6.43
475.213	6.4
475.567	6.5
475.921	6.37
476.275	6.45
476.63	6.54
476.984	6.42
477.338	6.47
477.692	6.52
478.045	6.6
478.399	6.31
478.753	6.45
479.107	6.4
479.461	6.4
479.814	6.64
480.168	6.55
480.521	6.63
480.875	6.42
481.228	6.49
481.582	6.51
481.935	6.46
482.289	6.52
482.642	6.33
482.995	6.34
483.348	6.37
483.701	6.32
484.055	6.43
484.408	6.33
484.761	6.3
485.114	6.22
485.466	6.18
485.819	6.12
486.172	6.04
486.525	6.13
486.878	6.18
487.23	6.26
487.583	6.25
487.936	6.31
488.288	6.38
488.641	6.43
488.993	6.3
489.345	6.26
489.698	6.28
490.05	6.24
490.402	6.29
490.754	6.35
491.107	6.38
491.459	6.47
491.811	6.51
492.163	6.42
492.515	6.63
492.866	6.49
493.218	6.43
493.57	6.41
493.922	6.38
494.274	6.4
494.625	6.46
494.977	6.53
495.328	6.64
495.68	6.75
496.031	6.66
496.383	6.79
496.734	6.83
497.086	6.79
497.437	6.83
497.788	6.72
498.139	6.85
498.49	6.67
498.842	6.65
499.193	6.68
499.544	6.85
499.894	6.83
500.245	6.68
500.596	6.75
500.947	6.79
501.298	6.85
501.648	6.91
501.999	6.87
502.35	6.93
502.7	7
503.051	6.9
503.401	6.89
503.752	7.08
504.102	7
504.452	7.08
504.803	6.91
505.153	6.87
505.503	7.02
505.853	7.01
506.203	6.88
506.553	6.98
506.903	6.91
507.253	7.05
507.603	6.99
507.953	6.91
508.303	7.12
508.652	7.21
509.002	7.09
509.352	7.13
509.701	7.19
510.051	7.07
510.4	7.07
510.75	7.11
511.099	7.17
511.449	7.05
511.798	7.12
512.147	7.1
512.496	7.14
512.846	7.12
513.195	7.11
513.544	7.19
513.893	7.08
514.242	7.13
514.591	7.21
514.939	7.09
515.288	7.22
515.637	7.23
515.986	7.27
516.334	7.19
516.683	7.2
517.032	7.11
517.38	7.19
517.729	7.5
518.077	7.37
518.426	7.34
518.774	7.32
519.122	7.38
519.47	7.34
519.819	7.37
520.167	7.22
520.515	7.31
520.863	7.29
521.211	7.3
521.559	7.32
521.907	7.33
522.255	7.32
522.602	7.52
522.95	7.44
523.298	7.48
523.645	7.53
523.993	7.48
524.341	7.63
524.688	7.55
525.036	7.54
525.383	7.47
525.73	7.68
526.078	7.62
526.425	7.63
526.772	7.5
527.119	7.58
527.466	7.52
527.814	7.52
528.161	7.53
528.508	7.47
528.854	7.48
529.201	7.59
529.548	7.53
529.895	7.54
530.242	7.42
530.588	7.38
530.935	7.33
531.282	7.41
531.628	7.46
531.975	7.51
532.321	7.56
532.667	7.67
533.014	7.65
533.36	7.71
533.706	7.81
534.052	7.82
534.399	7.76
534.745	7.67
535.091	7.73
535.437	7.72
535.783	7.71
536.129	7.76
536.474	7.83
536.82	7.9
537.166	7.82
537.512	8.05
537.857	8.09
538.203	7.84
538.549	8.04
538.894	7.91
539.239	7.93
539.585	7.94
539.93	8.12
540.276	8.24
540.621	8.21
540.966	8.29
541.311	8.26
541.656	8.21
542.001	8.24
542.346	8.32
542.691	8.19
543.036	8.1
543.381	7.99
543.726	8.02
544.071	8.1
544.415	8.09
544.76	8.09
545.105	8.3
545.449	8.27
545.794	8.39
546.138	8.3
546.483	8.39
546.827	8.41
547.171	8.58
547.516	8.41
547.86	8.58
548.204	8.41
548.548	8.56
548.892	8.53
549.236	8.56
549.58	8.51
549.924	8.52
550.268	8.68
550.612	8.74
550.956	8.99
551.3	8.76
551.643	8.81
551.987	8.97
552.33	8.95
552.674	8.95
553.017	8.69
553.361	9.04
553.704	9.11
554.048	9.05
554.391	9.06
554.734	9.08
555.077	8.92
555.42	8.83
555.764	9.12
556.107	9.39
556.45	9.17
556.793	8.98
557.135	9.01
557.478	9.2
557.821	9.36
558.164	9.44
558.507	9.28
558.849	9.38
559.192	9.33
559.534	9.47
559.877	9.16
560.219	9.54
560.562	9.44
560.904	9.35
561.246	9.74
561.589	9.37
561.931	9.49
562.273	9.79
562.615	9.53
562.957	9.71
563.299	9.71
563.641	9.67
563.983	9.72
564.325	9.49
564.667	9.82
565.008	9.63
565.35	9.64
565.692	9.72
566.033	10
566.375	9.97
566.716	9.71
567.058	9.67
567.399	9.85
567.741	9.71
568.082	9.83
568.423	10.06
568.764	9.84
569.105	10.05
569.447	10.03
569.788	10.05
570.129	10.13
570.47	10.03
570.811	10.29
571.151	10.09
571.492	10.21
571.833	10.23
572.174	10.43
572.514	10.38
572.855	10.25
573.195	10.39
573.536	10.18
573.876	10.46
574.217	10.27
574.557	10.29
574.898	10.34
575.238	10.45
575.578	10.5
575.918	10.37
576.258	10.48
576.598	10.53
576.938	10.5
577.278	10.56
577.618	10.62
577.958	10.72
578.298	10.72
578.638	10.75
578.977	10.76
579.317	10.82
579.657	10.8
579.996	10.92
580.336	11.04
580.675	10.95
581.014	10.92
581.354	10.98
581.693	11.1
582.032	11.11
582.372	11.17
582.711	11.53
583.05	11.45
583.389	11.21
583.728	11.03
584.067	11.23
584.406	11.42
584.745	11.28
585.083	11.23
585.422	11.36
585.761	11.29
586.1	11.82
586.438	11.14
586.777	11.44
587.115	11.5
587.454	11.74
587.792	11.61
588.13	11.7
588.469	11.81
588.807	11.48
589.145	11.67
589.483	11.62
589.821	11.74
590.159	11.57
590.497	11.82
590.835	11.77
591.173	11.83
591.511	12.08
591.849	11.93
592.187	12.03
592.524	11.79
592.862	11.96
593.2	12.16
593.537	12.19
593.875	12.12
594.212	12.4
594.55	12.29
594.887	12.17
595.224	12.12
595.561	11.99
595.899	12.05
596.236	12.56
596.573	12.27
596.91	12.42
597.247	12.48
597.584	12.41
597.921	12.71
598.258	12.32
598.594	12.54
598.931	12.49
599.268	12.52
599.604	12.58
599.941	12.58
600.277	12.47
600.614	12.61
600.95	12.6
601.287	12.51
601.623	12.94
601.959	13.02
602.296	12.8
602.632	12.99
602.968	12.87
603.304	12.99
603.64	13.14
603.976	13.25
604.312	12.95
604.648	13.05
604.984	13.17
605.319	13.13
605.655	13.05
605.991	13.17
606.326	12.92
606.662	12.89
606.998	13.23
607.333	13.13
607.668	13.07
608.004	13.36
608.339	13.52
608.674	13.4
609.01	13.48
609.345	13.83
609.68	13.74
610.015	13.62
610.35	14.06
610.685	13.66
611.02	13.63
611.355	13.5
611.689	13.58
612.024	13.97
612.359	13.65
612.694	14.04
613.028	14.04
613.363	13.94
613.697	14.16
614.032	13.94
614.366	14.16
614.7	14.07
615.035	13.99
615.369	14.06
615.703	14.12
616.037	14.17
616.371	14.13
616.705	14.36
617.039	14.21
617.373	14.34
617.707	14.81
618.041	14.61
618.375	14.35
618.709	14.68
619.042	14.3
619.376	14.57
619.71	14.5
620.043	14.73
620.377	14.35
620.71	15.01
621.043	15.08
621.377	14.9
621.71	14.56
622.043	14.58
622.376	14.8
622.709	14.72
623.043	14.87
623.376	14.64
623.709	14.77
624.041	14.83
624.374	15.13
624.707	15.1
625.04	15.11
625.373	15.3
625.705	15.04
626.038	15.67
626.37	14.97
626.703	15.41
627.035	15.04
627.368	15.38
627.7	15.39
628.032	15.14
628.365	15.38
628.697	15.35
629.029	15.57
629.361	15.5
629.693	15.48
630.025	15.42
630.357	15.52
630.689	15.47
631.021	15.82
631.353	15.77
631.684	15.46
632.016	15.78
632.348	15.82
632.679	15.77
633.011	15.93
633.342	15.52
633.674	16.01
634.005	15.86
634.336	16.19
634.668	16.03
634.999	15.89
635.33	16.19
635.661	16.21
635.992	16.22
636.323	16.38
636.654	16.33
636.985	15.97
637.316	16.27
637.647	16.07
637.977	16.18
638.308	16.43
638.639	16.55
638.969	16.45
639.3	16.1
639.63	16.16
639.961	16.44
640.291	16.68
640.622	16.44
640.952	16.82
641.282	16.54
641.612	16.57
641.943	16.77
642.273	16.73
642.603	16.94
642.933	16.84
643.263	17.26
643.592	16.65
643.922	16.87
644.252	16.68
644.582	16.75
644.911	17.01
645.241	17.3
645.571	17.65
645.9	17.04
646.23	17.17
646.559	17.08
646.888	17.4
647.218	17.11
647.547	17.19
647.876	17.39
648.205	17.42
648.534	17.03
648.863	17.45
649.192	17.4
649.521	17.9
649.85	17.46
650.179	17.44
650.508	17.57
650.837	18
651.165	17.89
651.494	17.33
651.822	17.97
652.151	17.92
652.479	17.38
652.808	17.31
653.136	17.73
653.465	18.84
653.793	17.76
654.121	17.68
654.449	17.85
654.777	17.68
655.105	17.74
655.433	18.38
655.761	18.23
656.089	18.14
656.417	18.28
656.745	18.43
657.073	18.41
657.4	19.12
657.728	18.37
658.056	18.26
658.383	18.54
658.711	18.34
659.038	18.86
659.365	18.99
659.693	18.9
660.02	18.63
660.347	18.22
660.674	18.63
661.001	18.29
661.329	18.6
661.656	18.73
661.982	18.67
662.309	18.45
662.636	18.89
662.963	18.74
663.29	18.6
663.616	18.64
663.943	18.03
664.27	19.05
664.596	19.23
664.923	19.09
665.249	18.93
665.576	18.86
665.902	19.31
666.228	19.2
666.554	19.3
666.881	19.44
667.207	19.37
667.533	19.48
667.859	18.88
668.185	19.39
668.511	19.47
668.837	19.65
669.162	20.08
669.488	19.24
669.814	19.6
670.139	19.49
670.465	18.97
670.791	19.36
671.116	19.92
671.442	19.42
671.767	19.45
672.092	19.8
672.418	19.58
672.743	20.22
673.068	20.64
673.393	19.82
673.718	19.66
674.043	19.88
674.368	20.26
674.693	20.31
675.018	20.56
675.343	19.94
675.667	19.52
675.992	19.68
676.317	20.3
676.641	20.27
676.966	20.86
677.29	20.31
677.615	20.48
677.939	20.25
678.264	20.52
678.588	20.2
678.912	20.83
679.236	19.98
679.56	20.53
679.885	20.2
680.209	20.44
680.532	20.23
680.856	20.53
681.18	20.71
681.504	20.95
681.828	20.82
682.152	20.79
682.475	20.91
682.799	20.94
683.122	20.88
683.446	20.67
683.769	20.75
684.093	20.85
684.416	21.01
684.739	20.33
685.062	20.67
