Data from 0264_crown_Reflection__2__160.txt Node

Date: Fri Oct 20 21:55:11 CDT 2023
User: ToomeyLab
Spectrometer: FLMS14357
Trigger mode: 0
Integration Time (sec): 1.000000E-2
Scans to average: 100
Electric dark correction enabled: true
Nonlinearity correction enabled: false
Boxcar width: 0
XAxis mode: Wavelengths
Number of Pixels in Spectrum: 2048
>>>>>Begin Spectral Data<<<<<
189.047	205
189.435	205
189.823	205
190.211	26.42
190.599	-285.71
190.987	43.56
191.375	120.63
191.763	99.47
192.151	-38.48
192.538	-8.19
192.926	49.48
193.314	328.03
193.702	18.37
194.089	149.01
194.477	1880
194.864	-178.79
195.252	86.14
195.639	-288.57
196.027	54.55
196.414	146.62
196.801	60.85
197.189	57.1
197.576	154.39
197.963	1666.67
198.351	45.56
198.738	16.78
199.125	38.69
199.512	39.85
199.899	16.09
200.286	-37.06
200.673	52.42
201.06	5.99
201.447	1.71
201.833	37.41
202.22	59.89
202.607	47.79
202.994	27.16
203.38	11.51
203.767	42.72
204.154	16.29
204.54	53.37
204.927	38.74
205.313	35.47
205.699	38.73
206.086	32.3
206.472	36.25
206.858	53.72
207.245	-8.76
207.631	28.06
208.017	1.5
208.403	-6.44
208.789	35.75
209.175	7.42
209.561	18.3
209.947	54.98
210.333	34.67
210.719	17.48
211.105	68.23
211.491	48.81
211.876	11.9
212.262	27.34
212.648	25.56
213.034	15.25
213.419	46.15
213.805	33.63
214.19	3.75
214.576	-5.83
214.961	8.62
215.346	41.81
215.732	35.26
216.117	-24.71
216.502	31.07
216.888	12.26
217.273	18.39
217.658	14.04
218.043	-4.12
218.428	-29.67
218.813	29.64
219.198	4.27
219.583	-14.84
219.968	9.01
220.353	22.99
220.738	27.25
221.122	11
221.507	12.01
221.892	15.19
222.276	-0.15
222.661	17.35
223.046	-2.95
223.43	14.17
223.815	17.21
224.199	30
224.583	1.85
224.968	9.19
225.352	3.26
225.736	3.44
226.121	15.3
226.505	4.24
226.889	5.61
227.273	5.09
227.657	15.99
228.041	12.78
228.425	5.25
228.809	8.11
229.193	9.66
229.577	7.7
229.961	6.57
230.344	6.59
230.728	5.59
231.112	6.71
231.495	5.99
231.879	6.86
232.263	6.89
232.646	5.51
233.03	6.73
233.413	5.59
233.797	6.53
234.18	5.97
234.563	7.5
234.946	8.53
235.33	7.39
235.713	5.61
236.096	7.05
236.479	7.47
236.862	6.31
237.245	6.4
237.628	3.62
238.011	6.88
238.394	6.9
238.777	8.72
239.16	6.59
239.543	8.9
239.925	8.54
240.308	5.66
240.691	6.21
241.073	6.98
241.456	6.3
241.838	7.27
242.221	7.78
242.603	6.27
242.986	6.34
243.368	6.99
243.75	6.46
244.133	6.51
244.515	5.91
244.897	6.56
245.279	6.72
245.661	5.94
246.043	6.4
246.425	6.05
246.807	6.67
247.189	6.06
247.571	5.36
247.953	7
248.335	6.39
248.717	5.73
249.098	5.72
249.48	5.94
249.862	6.11
250.243	6.4
250.625	6.54
251.006	6.24
251.388	6.02
251.769	6.45
252.151	5.98
252.532	6.05
252.913	6.46
253.295	5.38
253.676	6.45
254.057	6.08
254.438	5.95
254.819	6.14
255.2	5.74
255.581	5.56
255.962	5.74
256.343	6.28
256.724	5.99
257.105	5.8
257.486	5.86
257.867	5.74
258.247	5.58
258.628	5.41
259.009	5.45
259.389	5.5
259.77	5.61
260.15	5.71
260.531	5.86
260.911	5.82
261.292	5.47
261.672	5.52
262.052	5.62
262.432	5.7
262.813	5.84
263.193	5.86
263.573	5.6
263.953	5.83
264.333	5.53
264.713	6.4
265.093	5.9
265.473	6.04
265.853	5.44
266.233	6.21
266.612	5.64
266.992	6.26
267.372	5.45
267.752	5.59
268.131	5.89
268.511	5.81
268.89	5.8
269.27	5.35
269.649	5.46
270.029	5.63
270.408	5.43
270.787	5.78
271.167	5.58
271.546	5.4
271.925	6.07
272.304	6.16
272.683	5.7
273.062	5.61
273.441	5.56
273.82	5.69
274.199	5.82
274.578	5.67
274.957	5.44
275.336	5.61
275.715	5.47
276.093	5.67
276.472	5.73
276.851	5.7
277.229	5.53
277.608	4.97
277.986	5.43
278.365	6.1
278.743	5.09
279.122	5.23
279.5	5.31
279.878	4
280.257	5.05
280.635	5.42
281.013	5.29
281.391	5.19
281.769	4.7
282.147	4.99
282.525	5.47
282.903	4.81
283.281	5.11
283.659	5.02
284.037	5.48
284.415	4.57
284.792	5.06
285.17	5.32
285.548	5.17
285.925	4.97
286.303	4.73
286.68	5.04
287.058	5.51
287.435	4.86
287.813	4.74
288.19	5.16
288.567	5.01
288.945	5.19
289.322	5.38
289.699	4.49
290.076	5.14
290.453	5.03
290.83	5.15
291.207	5.3
291.584	4.42
291.961	4.94
292.338	4.96
292.715	4.92
293.092	4.96
293.469	5.3
293.845	4.89
294.222	4.66
294.599	5.23
294.975	5.26
295.352	5.15
295.728	4.92
296.105	4.7
296.481	4.61
296.858	5.18
297.234	5.07
297.61	4.63
297.986	4.48
298.363	4.82
298.739	4.79
299.115	4.5
299.491	4.64
299.867	4.59
300.243	4.67
300.619	4.63
300.995	4.83
301.371	4.78
301.746	5.2
302.122	5.14
302.498	4.55
302.874	4.32
303.249	4.55
303.625	4.94
304	5.27
304.376	4.86
304.751	4.31
305.127	4.48
305.502	5.46
305.878	4.48
306.253	4.63
306.628	4.94
307.003	4.45
307.378	4.43
307.754	4.43
308.129	5.23
308.504	4.98
308.879	4.81
309.254	5.07
309.629	4.58
310.003	4.18
310.378	5.38
310.753	4.61
311.128	4.94
311.502	4.3
311.877	5.1
312.252	4.39
312.626	4.93
313.001	4.59
313.375	4.66
313.75	4.63
314.124	4.17
314.498	4.83
314.873	4.62
315.247	4.85
315.621	4.78
315.995	4.62
316.369	4.21
316.743	4.56
317.117	4.59
317.491	3.81
317.865	4.67
318.239	5.06
318.613	4.53
318.987	4.27
319.361	4.13
319.734	4.15
320.108	3.76
320.482	4.59
320.855	4.82
321.229	4.86
321.602	4.31
321.976	4.23
322.349	4.86
322.723	4.97
323.096	4.56
323.469	4.41
323.843	4.52
324.216	4.47
324.589	4.82
324.962	5.08
325.335	4.68
325.708	4.63
326.081	4.63
326.454	4.77
326.827	5.06
327.2	5.18
327.573	4.4
327.945	4.49
328.318	4.36
328.691	4.4
329.063	5.28
329.436	4.23
329.809	4.88
330.181	4.58
330.553	4.6
330.926	4.66
331.298	4.68
331.671	4.55
332.043	4.38
332.415	4.7
332.787	4.7
333.159	3.68
333.532	4.41
333.904	4.84
334.276	3.78
334.648	4.39
335.02	5.13
335.391	4.15
335.763	4.82
336.135	4.67
336.507	4.78
336.879	4.64
337.25	4.63
337.622	4.73
337.993	5.01
338.365	4.34
338.736	4.54
339.108	5.02
339.479	4.54
339.851	5.13
340.222	4.42
340.593	4.05
340.964	4.46
341.336	4.98
341.707	4.83
342.078	4.57
342.449	4.8
342.82	4.9
343.191	4.2
343.562	4.45
343.933	4.67
344.303	4.69
344.674	4.75
345.045	4.62
345.416	4.99
345.786	4.61
346.157	4.72
346.527	4.69
346.898	4.6
347.268	4.94
347.639	4.94
348.009	4.19
348.38	4.93
348.75	4.6
349.12	4.64
349.49	4.66
349.861	4.94
350.231	3.92
350.601	4.83
350.971	5.35
351.341	4.68
351.711	5.46
352.081	5.01
352.45	4.56
352.82	4.79
353.19	4.52
353.56	4.68
353.929	4.5
354.299	4.68
354.669	4.46
355.038	4.95
355.408	4.81
355.777	4.72
356.147	4.8
356.516	4.65
356.885	4.79
357.254	4.89
357.624	4.62
357.993	4.49
358.362	4.64
358.731	4.26
359.1	4.28
359.469	4.44
359.838	4.56
360.207	4.8
360.576	4.88
360.945	4.44
361.314	4.81
361.682	4.79
362.051	4.39
362.42	4.76
362.788	4.72
363.157	4.7
363.525	4.76
363.894	4.64
364.262	4.71
364.631	5
364.999	4.89
365.367	4.89
365.735	4.54
366.104	4.57
366.472	4.92
366.84	4.77
367.208	4.88
367.576	4.79
367.944	5.05
368.312	4.66
368.68	5.28
369.048	4.76
369.416	5.22
369.783	4.97
370.151	5.03
370.519	4.76
370.886	5.06
371.254	4.94
371.621	5.06
371.989	4.7
372.356	5.17
372.724	4.89
373.091	5.06
373.458	4.67
373.826	4.85
374.193	4.83
374.56	5.04
374.927	5.12
375.294	5.25
375.661	5.22
376.028	4.98
376.395	4.92
376.762	4.82
377.129	5.24
377.496	4.88
377.863	5.07
378.229	5.42
378.596	5.15
378.963	5.31
379.329	5.06
379.696	4.88
380.062	5.18
380.429	4.99
380.795	4.88
381.161	5.03
381.528	5.26
381.894	5.11
382.26	4.98
382.626	5.51
382.993	5.26
383.359	5.18
383.725	5.19
384.091	5.38
384.457	5.29
384.823	4.96
385.188	5.39
385.554	5.2
385.92	5.41
386.286	5.19
386.651	5.06
387.017	5.34
387.383	5.21
387.748	5.06
388.114	4.92
388.479	5.1
388.845	5.42
389.21	5.06
389.575	4.84
389.94	5.19
390.306	5.05
390.671	5.17
391.036	5.1
391.401	5.15
391.766	5.56
392.131	5.07
392.496	5.51
392.861	5.47
393.226	5.32
393.591	5.19
393.956	5.35
394.32	5.37
394.685	5.27
395.05	5.46
395.414	5.43
395.779	5.14
396.143	5.15
396.508	5.24
396.872	5.25
397.236	5.11
397.601	5.13
397.965	5.06
398.329	5.33
398.694	5.39
399.058	5.28
399.422	5.36
399.786	5.26
400.15	5.47
400.514	5.23
400.878	5.4
401.242	5.49
401.605	5.55
401.969	5.26
402.333	5.4
402.697	5.66
403.06	5.31
403.424	5.43
403.787	5.51
404.151	5.51
404.514	5.4
404.878	5.48
405.241	5.5
405.604	5.45
405.968	5.55
406.331	5.39
406.694	5.29
407.057	5.59
407.42	5.73
407.783	5.46
408.146	5.46
408.509	5.45
408.872	5.73
409.235	5.52
409.598	5.67
409.961	5.58
410.323	5.42
410.686	5.13
411.049	5.48
411.411	5.44
411.774	5.48
412.136	5.81
412.499	5.4
412.861	5.48
413.223	5.82
413.586	5.49
413.948	5.67
414.31	5.86
414.672	5.48
415.035	5.65
415.397	5.75
415.759	5.77
416.121	5.71
416.483	5.89
416.845	5.58
417.206	5.64
417.568	5.73
417.93	5.87
418.292	5.54
418.653	5.65
419.015	5.51
419.377	5.62
419.738	5.55
420.1	5.53
420.461	5.51
420.822	5.48
421.184	5.56
421.545	5.54
421.906	5.53
422.267	5.53
422.629	5.59
422.99	5.54
423.351	5.51
423.712	5.47
424.073	5.56
424.434	5.4
424.795	5.48
425.155	5.56
425.516	5.41
425.877	5.46
426.238	5.42
426.598	5.54
426.959	5.43
427.32	5.49
427.68	5.62
428.041	5.51
428.401	5.6
428.761	5.62
429.122	5.55
429.482	5.47
429.842	5.56
430.202	5.65
430.563	5.7
430.923	5.64
431.283	5.62
431.643	5.76
432.003	5.89
432.363	5.57
432.722	5.84
433.082	5.85
433.442	5.84
433.802	5.99
434.161	5.7
434.521	5.81
434.881	5.81
435.24	5.88
435.6	5.69
435.959	5.66
436.319	5.73
436.678	5.86
437.037	5.88
437.396	5.8
437.756	5.81
438.115	5.61
438.474	5.76
438.833	5.76
439.192	5.63
439.551	5.71
439.91	5.8
440.269	5.95
440.628	5.91
440.987	5.82
441.345	5.7
441.704	5.89
442.063	5.79
442.421	5.65
442.78	5.66
443.138	5.79
443.497	5.8
443.855	5.75
444.214	5.82
444.572	5.74
444.93	6.02
445.288	5.98
445.647	5.99
446.005	5.65
446.363	5.81
446.721	5.84
447.079	6.01
447.437	5.77
447.795	5.64
448.153	5.64
448.51	5.78
448.868	5.65
449.226	5.72
449.584	5.71
449.941	5.63
450.299	5.8
450.656	5.7
451.014	5.81
451.371	5.83
451.729	5.81
452.086	5.76
452.443	5.87
452.801	5.77
453.158	6.05
453.515	5.88
453.872	5.82
454.229	5.94
454.586	5.9
454.943	5.96
455.3	5.85
455.657	6.03
456.014	5.81
456.371	5.98
456.727	6.02
457.084	6.02
457.441	5.96
457.797	6.04
458.154	5.87
458.51	5.96
458.867	5.86
459.223	6.08
459.58	5.89
459.936	6
460.292	5.97
460.648	5.78
461.005	5.8
461.361	6.11
461.717	5.72
462.073	5.84
462.429	5.77
462.785	5.83
463.141	5.93
463.496	5.95
463.852	6.11
464.208	6.02
464.564	6.02
464.919	5.95
465.275	6.26
465.631	6.29
465.986	5.89
466.342	6.16
466.697	5.9
467.052	5.89
467.408	6.01
467.763	6.03
468.118	6.18
468.473	6.19
468.829	6.12
469.184	6.06
469.539	6.18
469.894	6.1
470.249	6.05
470.603	6
470.958	6.14
471.313	6.15
471.668	6.22
472.023	6.1
472.377	6.11
472.732	5.97
473.086	6.35
473.441	6.24
473.795	6.25
474.15	6.16
474.504	6.04
474.859	6.15
475.213	6.2
475.567	6.14
475.921	6.12
476.275	6.09
476.63	6.1
476.984	6.27
477.338	6.16
477.692	6.1
478.045	6.06
478.399	5.97
478.753	6.06
479.107	6.18
479.461	6.21
479.814	6.16
480.168	6.21
480.521	6.22
480.875	6.16
481.228	6.16
481.582	6.28
481.935	6.01
482.289	6.06
482.642	6.02
482.995	6.11
483.348	6.14
483.701	6.06
484.055	5.98
484.408	5.89
484.761	5.9
485.114	5.8
485.466	5.78
485.819	5.66
486.172	5.54
486.525	5.63
486.878	5.71
487.23	5.78
487.583	5.81
487.936	5.92
488.288	5.97
488.641	5.97
488.993	5.8
489.345	5.76
489.698	5.79
490.05	5.76
490.402	5.77
490.754	5.83
491.107	5.9
491.459	5.96
491.811	5.97
492.163	5.91
492.515	6.08
492.866	6.04
493.218	5.84
493.57	5.81
493.922	5.76
494.274	5.82
494.625	5.83
494.977	5.88
495.328	6.05
495.68	6.14
496.031	6.09
496.383	6.12
496.734	6.14
497.086	6.2
497.437	6.04
497.788	6.01
498.139	6.19
498.49	6.1
498.842	5.99
499.193	6.1
499.544	6.09
499.894	6.11
500.245	6.11
500.596	6.07
500.947	6.09
501.298	6.11
501.648	6.1
501.999	6.24
502.35	6.13
502.7	6.32
503.051	6.22
503.401	6.22
503.752	6.26
504.102	6.29
504.452	6.17
504.803	6.15
505.153	6.13
505.503	6.16
505.853	6.24
506.203	6.14
506.553	6.17
506.903	6.17
507.253	6.27
507.603	6.17
507.953	6.23
508.303	6.04
508.652	6.34
509.002	6.25
509.352	6.3
509.701	6.17
510.051	6.1
510.4	6.08
510.75	6.25
511.099	6.08
511.449	6.17
511.798	6.26
512.147	6.17
512.496	6.03
512.846	6.14
513.195	6.22
513.544	6.15
513.893	6.03
514.242	6.1
514.591	6.15
514.939	6.06
515.288	6.07
515.637	6.26
515.986	6.29
516.334	6.11
516.683	6.22
517.032	6.16
517.38	6.08
517.729	6.26
518.077	6.15
518.426	6.05
518.774	6.09
519.122	6.03
519.47	6.15
519.819	6.06
520.167	5.99
520.515	6.03
520.863	6.11
521.211	5.98
521.559	6.08
521.907	6.06
522.255	6.11
522.602	6.33
522.95	6.09
523.298	6.2
523.645	6.17
523.993	6.11
524.341	6.14
524.688	6.31
525.036	6.17
525.383	6.09
525.73	6.32
526.078	6.3
526.425	6.25
526.772	6.11
527.119	6.15
527.466	6
527.814	6.05
528.161	6.02
528.508	5.96
528.854	6.02
529.201	5.97
529.548	6.04
529.895	6.06
530.242	5.88
530.588	5.77
530.935	5.7
531.282	5.83
531.628	5.91
531.975	5.87
532.321	5.9
532.667	5.95
533.014	6.04
533.36	6.09
533.706	6.17
534.052	6.08
534.399	5.94
534.745	5.87
535.091	5.94
535.437	5.94
535.783	5.91
536.129	5.97
536.474	6.01
536.82	6.07
537.166	6.02
537.512	6.11
537.857	6.15
538.203	6.07
538.549	6.11
538.894	6.02
539.239	6.02
539.585	6.13
539.93	6.14
540.276	6.15
540.621	6.15
540.966	6.14
541.311	6.24
541.656	6.2
542.001	6.29
542.346	6.09
542.691	6.03
543.036	5.98
543.381	5.85
543.726	5.81
544.071	5.92
544.415	5.89
544.76	6.02
545.105	6.03
545.449	5.97
545.794	6.09
546.138	6
546.483	6.1
546.827	6.09
547.171	6.26
547.516	6.09
547.86	6.16
548.204	6.07
548.548	6.07
548.892	6.11
549.236	5.98
549.58	6.01
549.924	5.93
550.268	6.22
550.612	6.14
550.956	6.38
551.3	6.17
551.643	6.24
551.987	6.27
552.33	6.29
552.674	6.24
553.017	6.28
553.361	6.24
553.704	6.35
554.048	6.23
554.391	6.34
554.734	6.3
555.077	6.2
555.42	6.09
555.764	6.1
556.107	6.38
556.45	6.14
556.793	6.18
557.135	6.17
557.478	6.09
557.821	6.2
558.164	6.21
558.507	6.23
558.849	6.27
559.192	6.25
559.534	6.29
559.877	6.11
560.219	6.26
560.562	6.27
560.904	6.3
561.246	6.26
561.589	6.12
561.931	6.23
562.273	6.18
562.615	6.31
562.957	6.42
563.299	6.23
563.641	6.35
563.983	6.24
564.325	6.08
564.667	6.16
565.008	6.26
565.35	6.24
565.692	6.3
566.033	6.11
566.375	6.31
566.716	6.13
567.058	6.16
567.399	6.33
567.741	6.05
568.082	6.09
568.423	6.12
568.764	6.05
569.105	6.21
569.447	6.05
569.788	6.25
570.129	6.2
570.47	6.07
570.811	6.58
571.151	6.07
571.492	6.32
571.833	6.44
572.174	6.38
572.514	6.29
572.855	6.27
573.195	6.21
573.536	6.11
573.876	6.18
574.217	6.02
574.557	6.11
574.898	6.17
575.238	6.06
575.578	6.24
575.918	5.99
576.258	6.14
576.598	6.15
576.938	6.18
577.278	6.26
577.618	5.91
577.958	6
578.298	6
578.638	6.26
578.977	6.19
579.317	6.07
579.657	6.06
579.996	6.18
580.336	6.32
580.675	6.34
581.014	6.1
581.354	6.29
581.693	6.19
582.032	6.17
582.372	6.29
582.711	6.16
583.05	6.4
583.389	6.24
583.728	6.19
584.067	6.25
584.406	6.33
584.745	6.2
585.083	6.12
585.422	6.32
585.761	5.99
586.1	6.37
586.438	5.93
586.777	5.91
587.115	6.31
587.454	6.14
587.792	6.34
588.13	6.19
588.469	6.17
588.807	6.09
589.145	6.1
589.483	6.08
589.821	6.16
590.159	6.15
590.497	6.16
590.835	6.24
591.173	6.02
591.511	6.12
591.849	6.07
592.187	6.24
592.524	5.82
592.862	6.13
593.2	6.13
593.537	6.04
593.875	6.16
594.212	6.4
594.55	6.23
594.887	6.37
595.224	6.11
595.561	5.98
595.899	6.08
596.236	6.14
596.573	6.05
596.91	6.24
597.247	6.06
597.584	5.84
597.921	6.19
598.258	6.04
598.594	6.22
598.931	5.92
599.268	5.78
599.604	6.09
599.941	6
600.277	5.99
600.614	6.02
600.95	6.17
601.287	5.93
601.623	6.11
601.959	6.24
602.296	6.06
602.632	6.08
602.968	5.89
603.304	6.21
603.64	6.05
603.976	6.04
604.312	6.3
604.648	6.08
604.984	6.41
605.319	5.97
605.655	5.93
605.991	6
606.326	6.07
606.662	5.76
606.998	5.78
607.333	5.93
607.668	5.66
608.004	5.85
608.339	5.9
608.674	5.96
609.01	6.21
609.345	6.08
609.68	6.17
610.015	5.74
610.35	6.1
610.685	6.17
611.02	5.89
611.355	5.83
611.689	5.91
612.024	5.99
612.359	6.09
612.694	5.96
613.028	5.95
613.363	5.93
613.697	6.13
614.032	6.07
614.366	6.19
614.7	6.14
615.035	5.96
615.369	5.79
615.703	5.71
616.037	6.16
616.371	6.07
616.705	5.96
617.039	6
617.373	6.2
617.707	6.28
618.041	5.84
618.375	5.91
618.709	6.16
619.042	5.87
619.376	6.36
619.71	6.1
620.043	6.07
620.377	5.85
620.71	6.02
621.043	6.4
621.377	5.91
621.71	6.32
622.043	6.18
622.376	6.29
622.709	6.17
623.043	5.96
623.376	6.26
623.709	5.86
624.041	6.09
624.374	6.17
624.707	5.67
625.04	6.15
625.373	6.06
625.705	5.89
626.038	6.29
626.37	5.74
626.703	5.92
627.035	5.87
627.368	6.14
627.7	5.88
628.032	6.15
628.365	6.25
628.697	6.18
629.029	6.02
629.361	5.88
629.693	5.93
630.025	5.97
630.357	5.83
630.689	5.91
631.021	6.24
631.353	6.04
631.684	5.61
632.016	6.14
632.348	5.99
632.679	5.74
633.011	5.91
633.342	5.88
633.674	5.93
634.005	6.07
634.336	6.2
634.668	5.68
634.999	5.91
635.33	5.81
635.661	6.14
635.992	6.09
636.323	6.22
636.654	6.13
636.985	5.85
637.316	6.22
637.647	5.66
637.977	5.7
638.308	5.84
638.639	5.92
638.969	6.19
639.3	5.78
639.63	5.74
639.961	6.03
640.291	6.32
640.622	6.1
640.952	5.94
641.282	5.93
641.612	5.77
641.943	6.28
642.273	6.1
642.603	6.01
642.933	6.04
643.263	6.54
643.592	6.3
643.922	6.28
644.252	5.95
644.582	6.15
644.911	6.05
645.241	6.16
645.571	6.55
645.9	6
646.23	6.17
646.559	5.65
646.888	6.4
647.218	6.34
647.547	5.87
647.876	5.93
648.205	6.07
648.534	5.93
648.863	6.26
649.192	5.89
649.521	6.2
649.85	5.98
650.179	6.01
650.508	5.54
650.837	6.67
651.165	6.24
651.494	5.66
651.822	6.31
652.151	6.08
652.479	5.45
652.808	5.82
653.136	6.05
653.465	5.77
653.793	6.31
654.121	6.13
654.449	6.17
654.777	5.73
655.105	5.83
655.433	6.51
655.761	6.41
656.089	5.92
656.417	6.26
656.745	5.63
657.073	6.1
657.4	6.89
657.728	6.42
658.056	5.94
658.383	5.78
658.711	6.17
659.038	6.18
659.365	5.96
659.693	6.35
660.02	6.41
660.347	5.81
660.674	6.02
661.001	5.82
661.329	5.91
661.656	6.03
661.982	6.08
662.309	5.79
662.636	5.99
662.963	5.77
663.29	6.21
663.616	6.02
663.943	5.78
664.27	6.03
664.596	6.44
664.923	5.77
665.249	5.59
665.576	5.91
665.902	6.41
666.228	6.55
666.554	6.44
666.881	5.93
667.207	6.37
667.533	6.03
667.859	6.35
668.185	6.28
668.511	6.3
668.837	6.18
669.162	6.75
669.488	6.53
669.814	5.9
670.139	6.07
670.465	6.4
670.791	6.31
671.116	5.78
671.442	6.27
671.767	6.2
672.092	5.87
672.418	6.3
672.743	5.89
673.068	5.8
673.393	5.77
673.718	5.81
674.043	5.33
674.368	5.9
674.693	6.67
675.018	6.79
675.343	5.83
675.667	5.79
675.992	6.1
676.317	6.59
676.641	6.43
676.966	5.93
677.29	5.94
677.615	5.84
677.939	5.93
678.264	6.2
678.588	5.96
678.912	6.2
679.236	5.85
679.56	6.08
679.885	6.35
680.209	6.23
680.532	5.69
680.856	5.83
681.18	5.52
681.504	6.17
681.828	6.64
682.152	6.37
682.475	6.14
682.799	6.35
683.122	5.97
683.446	6.36
683.769	6.15
684.093	5.75
684.416	6.24
684.739	5.92
685.062	5.47
685.386	5.72
685.709	6.26
686.032	5.61
686.355	6.19
686.678	6.12
687.001	6.16
687.324	6.29
687.646	6.31
687.969	6.79
688.292	6.69
688.614	6.32
688.937	6.12
689.26	5.96
689.582	6.05
689.904	5.59
690.227	6.37
690.549	6.45
690.871	7.02
691.194	7
691.516	6.07
691.838	7.39
692.16	5.6
692.482	6.22
692.804	5.59
693.126	5.83
693.448	7.11
