Data from 0015_forehead_Reflection__4__49.txt Node

Date: Mon Oct 17 14:47:34 CDT 2022
User: ToomeyLab
Spectrometer: FLMS14357
Trigger mode: 0
Integration Time (sec): 1.000000E-2
Scans to average: 100
Electric dark correction enabled: true
Nonlinearity correction enabled: false
Boxcar width: 0
XAxis mode: Wavelengths
Number of Pixels in Spectrum: 2048
>>>>>Begin Spectral Data<<<<<
189.047	-240.76
189.435	-240.76
189.823	-240.76
190.211	175.63
190.599	94.46
190.987	279.15
191.375	84.24
191.763	-139.64
192.151	-725
192.538	-29.59
192.926	391.92
193.314	761.79
193.702	-120.53
194.089	94.06
194.477	143.66
194.864	-340.45
195.252	-974.48
195.639	-1300.51
196.027	143.22
196.414	82.02
196.801	-0.25
197.189	146.31
197.576	104.08
197.963	-239.89
198.351	-124.09
198.738	8.19
199.125	-8.61
199.512	-50.39
199.899	-15.89
200.286	14.68
200.673	-0.61
201.06	-55.91
201.447	22.52
201.833	29.13
202.22	2.22
202.607	-17.01
202.994	-19.61
203.38	-4.02
203.767	20.05
204.154	32.07
204.54	26.3
204.927	18.7
205.313	-16.02
205.699	14.95
206.086	-80.1
206.472	14.98
206.858	-0.46
207.245	22.7
207.631	59.91
208.017	15.08
208.403	39.53
208.789	24.24
209.175	-1.43
209.561	-7.4
209.947	13.87
210.333	40.19
210.719	43.04
211.105	20.42
211.491	28.18
211.876	16.15
212.262	28.62
212.648	-8.57
213.034	-24.74
213.419	-11.82
213.805	-7.98
214.19	20.59
214.576	10.9
214.961	-17.86
215.346	17.67
215.732	-17.29
216.117	26.96
216.502	7.82
216.888	-14.95
217.273	34.82
217.658	22.13
218.043	-10.54
218.428	-19.49
218.813	40.37
219.198	-7.22
219.583	-2.35
219.968	13.1
220.353	9.4
220.738	-13.59
221.122	-1.64
221.507	-10.06
221.892	-3.31
222.276	-2.45
222.661	3.76
223.046	5.58
223.43	8.28
223.815	-5.61
224.199	1.24
224.583	-12.28
224.968	-3.17
225.352	-15.06
225.736	4.75
226.121	-9.19
226.505	-0.01
226.889	5.36
227.273	0.64
227.657	0.52
228.041	3.64
228.425	2.54
228.809	3.77
229.193	-0.03
229.577	2.42
229.961	3.84
230.344	1.1
230.728	1.77
231.112	2.22
231.495	2.32
231.879	3.02
232.263	1.79
232.646	1.2
233.03	2.21
233.413	-0.93
233.797	1.97
234.18	2.61
234.563	0.59
234.946	2.59
235.33	2.19
235.713	2.54
236.096	3.26
236.479	0.49
236.862	2.48
237.245	1.47
237.628	2.65
238.011	0.91
238.394	0.66
238.777	1.28
239.16	1.26
239.543	0.95
239.925	1.6
240.308	2.53
240.691	0.93
241.073	3
241.456	1.53
241.838	1.5
242.221	0.96
242.603	2.35
242.986	1.27
243.368	2.45
243.75	2.24
244.133	1.81
244.515	2.17
244.897	2.42
245.279	2.71
245.661	2.49
246.043	2.3
246.425	1.69
246.807	2.05
247.189	2.48
247.571	1.96
247.953	1.98
248.335	2.03
248.717	1.99
249.098	2.29
249.48	1.9
249.862	1.87
250.243	1.75
250.625	2.53
251.006	1.81
251.388	1.76
251.769	2.56
252.151	1.73
252.532	1.97
252.913	2.16
253.295	1.96
253.676	2.4
254.057	2.22
254.438	1.8
254.819	2.37
255.2	3.38
255.581	1.53
255.962	1.36
256.343	2.08
256.724	1.14
257.105	2.11
257.486	0.6
257.867	1.11
258.247	1.88
258.628	1.89
259.009	2.83
259.389	2.29
259.77	2.27
260.15	2.41
260.531	1.93
260.911	1.81
261.292	1.85
261.672	1.85
262.052	2
262.432	1.91
262.813	1.8
263.193	2.49
263.573	2.27
263.953	1.37
264.333	2.13
264.713	1.8
265.093	2.03
265.473	2.17
265.853	2.1
266.233	2.92
266.612	1.87
266.992	2.48
267.372	1.92
267.752	2.03
268.131	2.03
268.511	2.11
268.89	1.71
269.27	2.29
269.649	2.11
270.029	2.14
270.408	2.38
270.787	1.81
271.167	1.78
271.546	1.87
271.925	1.49
272.304	1.87
272.683	2.35
273.062	1.71
273.441	1.72
273.82	2.19
274.199	2.37
274.578	2.04
274.957	2.12
275.336	2.01
275.715	1.93
276.093	1.82
276.472	1.49
276.851	1.84
277.229	1.46
277.608	2.07
277.986	1.54
278.365	2.09
278.743	1.88
279.122	1.54
279.5	2.43
279.878	2.57
280.257	2.18
280.635	1.97
281.013	1.81
281.391	1.95
281.769	1.87
282.147	2.61
282.525	1.9
282.903	1.55
283.281	1.88
283.659	1.73
284.037	1.83
284.415	2.12
284.792	1.93
285.17	1.16
285.548	1.24
285.925	2.32
286.303	2.11
286.68	2.09
287.058	1.99
287.435	2.09
287.813	1.88
288.19	1.97
288.567	1.86
288.945	1.8
289.322	2.35
289.699	1.95
290.076	1.94
290.453	1.72
290.83	2.21
291.207	2.14
291.584	2.14
291.961	1.84
292.338	1.79
292.715	1.93
293.092	1.88
293.469	2.05
293.845	2.28
294.222	2.51
294.599	2.63
294.975	1.86
295.352	1.99
295.728	1.91
296.105	1.76
296.481	1.89
296.858	2.52
297.234	1.82
297.61	1.88
297.986	1.88
298.363	2.02
298.739	2.36
299.115	2.1
299.491	2.29
299.867	2.04
300.243	2.15
300.619	1.87
300.995	2
301.371	2.33
301.746	1.73
302.122	1.8
302.498	2.18
302.874	2.59
303.249	2.37
303.625	2.86
304	2.04
304.376	2.61
304.751	2.8
305.127	2.25
305.502	2.2
305.878	2.33
306.253	2.39
306.628	2.16
307.003	1.8
307.378	2.22
307.754	2.31
308.129	2.52
308.504	2.68
308.879	2.58
309.254	2.07
309.629	2.34
310.003	2.63
310.378	2.29
310.753	2.6
311.128	2.6
311.502	2.9
311.877	2.67
312.252	2.69
312.626	2.4
313.001	2.21
313.375	2.39
313.75	2.58
314.124	2.4
314.498	2.77
314.873	2.56
315.247	2.55
315.621	3.07
315.995	2.74
316.369	2.15
316.743	3.1
317.117	2.86
317.491	3.13
317.865	3.04
318.239	2.78
318.613	2.87
318.987	2.7
319.361	2.33
319.734	2.74
320.108	2.62
320.482	2.8
320.855	2.78
321.229	2.37
321.602	3.11
321.976	2.58
322.349	2.81
322.723	2.94
323.096	3.11
323.469	3.31
323.843	2.84
324.216	2.76
324.589	2.46
324.962	3.12
325.335	2.63
325.708	3.27
326.081	2.43
326.454	3.19
326.827	3.12
327.2	2.77
327.573	2.86
327.945	2.65
328.318	3.13
328.691	2.87
329.063	2.91
329.436	2.34
329.809	3.02
330.181	3.63
330.553	3.42
330.926	3.36
331.298	3.18
331.671	3.6
332.043	3.39
332.415	3.45
332.787	3.69
333.159	3.33
333.532	2.91
333.904	2.56
334.276	3.25
334.648	3.42
335.02	3.41
335.391	3.46
335.763	3.41
336.135	3.48
336.507	3.45
336.879	3.37
337.25	3.71
337.622	3.31
337.993	3.07
338.365	3.49
338.736	3.09
339.108	3.59
339.479	3.01
339.851	3.63
340.222	3.22
340.593	3.71
340.964	3.59
341.336	3.25
341.707	3.4
342.078	3.54
342.449	3.64
342.82	3.53
343.191	3.7
343.562	3.35
343.933	3.45
344.303	3.35
344.674	3.81
345.045	3.79
345.416	3.55
345.786	3.42
346.157	3.95
346.527	3.62
346.898	3.69
347.268	3.98
347.639	3.5
348.009	3.44
348.38	3.44
348.75	3.42
349.12	3.47
349.49	3.57
349.861	3.7
350.231	3.58
350.601	3.42
350.971	3.66
351.341	3.67
351.711	3.56
352.081	3.78
352.45	4.07
352.82	3.9
353.19	3.41
353.56	3.54
353.929	3.93
354.299	3.86
354.669	3.54
355.038	4.06
355.408	4.12
355.777	3.58
356.147	3.86
356.516	3.77
356.885	3.71
357.254	4.36
357.624	4.02
357.993	4.05
358.362	3.73
358.731	3.77
359.1	3.79
359.469	3.73
359.838	4.1
360.207	4.26
360.576	3.85
360.945	4.32
361.314	4.25
361.682	4.13
362.051	4.06
362.42	4.08
362.788	4.09
363.157	4.12
363.525	4.07
363.894	4.3
364.262	4.17
364.631	4.13
364.999	4.16
365.367	4.03
365.735	4.09
366.104	3.72
366.472	3.9
366.84	4.02
367.208	4.41
367.576	4.19
367.944	4.04
368.312	4.34
368.68	4.34
369.048	4.32
369.416	4.47
369.783	4.39
370.151	4.28
370.519	4.15
370.886	4.5
371.254	4.3
371.621	4.18
371.989	4.26
372.356	4.38
372.724	4.5
373.091	4.25
373.458	4.09
373.826	4.61
374.193	4.51
374.56	4.69
374.927	4.49
375.294	4.4
375.661	4.52
376.028	4.52
376.395	4.56
376.762	4.51
377.129	4.37
377.496	4.37
377.863	4.29
378.229	4.64
378.596	4.71
378.963	4.61
379.329	4.58
379.696	4.3
380.062	4.72
380.429	4.41
380.795	4.62
381.161	4.69
381.528	4.42
381.894	4.56
382.26	4.85
382.626	4.76
382.993	4.91
383.359	4.84
383.725	4.87
384.091	4.54
384.457	4.85
384.823	4.63
385.188	4.55
385.554	4.84
385.92	4.95
386.286	4.76
386.651	4.75
387.017	4.59
387.383	4.95
387.748	4.81
388.114	4.76
388.479	4.9
388.845	4.9
389.21	4.89
389.575	4.86
389.94	5.08
390.306	5.12
390.671	5.12
391.036	5.09
391.401	5.02
391.766	5.16
392.131	5.18
392.496	5.16
392.861	5.26
393.226	4.94
393.591	5.17
393.956	5.04
394.32	5.07
394.685	5.18
395.05	5.36
395.414	5.2
395.779	5.08
396.143	5.17
396.508	5.21
396.872	5.17
397.236	5.07
397.601	5.34
397.965	5.29
398.329	5.43
398.694	5.18
399.058	5.28
399.422	5.38
399.786	5.36
400.15	5.36
400.514	5.19
400.878	5.32
401.242	5.4
401.605	5.41
401.969	5.36
402.333	5.24
402.697	5.36
403.06	5.33
403.424	5.4
403.787	5.41
404.151	5.47
404.514	5.23
404.878	5.63
405.241	5.55
405.604	5.5
405.968	5.65
406.331	5.38
406.694	5.45
407.057	5.37
407.42	5.29
407.783	5.66
408.146	5.66
408.509	5.78
408.872	5.44
409.235	5.63
409.598	5.55
409.961	5.34
410.323	5.76
410.686	5.71
411.049	5.13
411.411	5.69
411.774	5.73
412.136	5.72
412.499	5.82
412.861	5.8
413.223	5.69
413.586	5.73
413.948	5.84
414.31	5.49
414.672	5.69
415.035	5.97
415.397	5.88
415.759	5.9
416.121	5.77
416.483	6.03
416.845	5.89
417.206	5.87
417.568	6.09
417.93	5.83
418.292	6.07
418.653	5.82
419.015	5.92
419.377	5.98
419.738	5.87
420.1	6.03
420.461	6.02
420.822	6.01
421.184	5.88
421.545	6
421.906	5.95
422.267	5.96
422.629	5.87
422.99	5.83
423.351	6.01
423.712	6
424.073	6.11
424.434	6.02
424.795	6.12
425.155	6.16
425.516	5.91
425.877	6
426.238	5.99
426.598	6.16
426.959	6.13
427.32	6.26
427.68	6.22
428.041	6.2
428.401	6.41
428.761	6.37
429.122	6.39
429.482	6.39
429.842	6.42
430.202	6.62
430.563	6.48
430.923	6.63
431.283	6.47
431.643	6.42
432.003	6.46
432.363	6.58
432.722	6.58
433.082	6.57
433.442	6.67
433.802	6.52
434.161	6.6
434.521	6.72
434.881	6.53
435.24	6.54
435.6	6.69
435.959	6.68
436.319	6.77
436.678	6.62
437.037	6.79
437.396	6.73
437.756	6.74
438.115	6.51
438.474	6.7
438.833	6.61
439.192	6.78
439.551	6.69
439.91	6.77
440.269	6.81
440.628	6.76
440.987	6.9
441.345	6.81
441.704	6.95
442.063	6.77
442.421	6.9
442.78	6.85
443.138	6.98
443.497	6.95
443.855	7.03
444.214	7.06
444.572	6.98
444.93	7.2
445.288	7.04
445.647	7.17
446.005	7.22
446.363	7.28
446.721	7.1
447.079	6.97
447.437	7.11
447.795	7.19
448.153	7.11
448.51	7.07
448.868	7.15
449.226	7.13
449.584	7.16
449.941	7.12
450.299	7.36
450.656	7.19
451.014	7.34
451.371	7.47
451.729	7.31
452.086	7.43
452.443	7.38
452.801	7.61
453.158	7.46
453.515	7.43
453.872	7.48
454.229	7.48
454.586	7.37
454.943	7.42
455.3	7.62
455.657	7.57
456.014	7.62
456.371	7.86
456.727	7.71
457.084	7.73
457.441	7.66
457.797	7.8
458.154	7.84
458.51	7.74
458.867	7.88
459.223	7.97
459.58	7.75
459.936	7.67
460.292	7.84
460.648	7.72
461.005	7.68
461.361	7.68
461.717	7.62
462.073	7.73
462.429	7.82
462.785	7.87
463.141	8.23
463.496	7.87
463.852	8.19
464.208	8.26
464.564	8.14
464.919	8.05
465.275	8.14
465.631	8.22
465.986	8.3
466.342	8.2
466.697	8.16
467.052	8.19
467.408	8.16
467.763	8.11
468.118	8.34
468.473	8.37
468.829	8.18
469.184	8.15
469.539	8.29
469.894	8.46
470.249	8.5
470.603	8.46
470.958	8.44
471.313	8.4
471.668	8.66
472.023	8.39
472.377	8.46
472.732	8.52
473.086	8.5
473.441	8.54
473.795	8.55
474.15	8.44
474.504	8.62
474.859	8.47
475.213	8.64
475.567	8.59
475.921	8.59
476.275	8.59
476.63	8.54
476.984	8.69
477.338	8.75
477.692	8.77
478.045	8.77
478.399	8.8
478.753	8.76
479.107	8.7
479.461	8.85
479.814	8.87
480.168	8.71
480.521	8.76
480.875	8.81
481.228	8.84
481.582	8.99
481.935	9.01
482.289	8.94
482.642	8.97
482.995	8.91
483.348	8.95
483.701	8.92
484.055	8.76
484.408	8.75
484.761	8.62
485.114	8.47
485.466	8.35
485.819	8.37
486.172	8.45
486.525	8.61
486.878	8.72
487.23	8.8
487.583	8.97
487.936	8.92
488.288	8.86
488.641	8.8
488.993	8.7
489.345	8.69
489.698	8.78
490.05	8.78
490.402	8.87
490.754	8.99
491.107	9.05
491.459	9.18
491.811	9.24
492.163	9.24
492.515	9.11
492.866	8.98
493.218	8.91
493.57	8.97
493.922	9.03
494.274	9.17
494.625	9.35
494.977	9.33
495.328	9.48
495.68	9.56
496.031	9.65
496.383	9.57
496.734	9.7
497.086	9.6
497.437	9.77
497.788	9.78
498.139	9.46
498.49	9.54
498.842	9.59
499.193	9.55
499.544	9.71
499.894	9.74
500.245	9.64
500.596	9.78
500.947	9.93
501.298	9.88
501.648	9.86
501.999	9.87
502.35	10.02
502.7	10.1
503.051	10.04
503.401	10.14
503.752	10.11
504.102	10.01
504.452	9.96
504.803	10.14
505.153	10.09
505.503	10.08
505.853	10.06
506.203	10.18
506.553	10.21
506.903	10.12
507.253	10.19
507.603	10.09
507.953	10.29
508.303	10.22
508.652	10.37
509.002	10.41
509.352	10.16
509.701	10.24
510.051	10.41
510.4	10.12
510.75	10.2
511.099	10.2
511.449	10.32
511.798	10.26
512.147	10.23
512.496	10.34
512.846	10.39
513.195	10.48
513.544	10.42
513.893	10.36
514.242	10.62
514.591	10.48
514.939	10.46
515.288	10.44
515.637	10.49
515.986	10.64
516.334	10.58
516.683	10.67
517.032	10.66
517.38	10.75
517.729	10.82
518.077	10.85
518.426	10.72
518.774	10.64
519.122	10.59
519.47	10.66
519.819	10.62
520.167	10.66
520.515	10.51
520.863	10.67
521.211	10.72
521.559	10.72
521.907	10.87
522.255	10.78
522.602	10.95
522.95	10.91
523.298	10.93
523.645	11.02
523.993	11.06
524.341	11.13
524.688	11.14
525.036	10.99
525.383	11.14
525.73	11.12
526.078	10.95
526.425	11
526.772	10.94
527.119	10.84
527.466	10.71
527.814	10.9
528.161	10.94
528.508	11
528.854	11.04
529.201	10.96
529.548	10.83
529.895	10.69
530.242	10.59
530.588	10.54
530.935	10.67
531.282	10.77
531.628	10.89
531.975	10.98
532.321	11.06
532.667	11.19
533.014	11.26
533.36	11.35
533.706	11.39
534.052	11.35
534.399	11.15
534.745	11.08
535.091	11.05
535.437	11.16
535.783	11.2
536.129	11.3
536.474	11.42
536.82	11.5
537.166	11.58
537.512	11.57
537.857	11.54
538.203	11.45
538.549	11.38
538.894	11.39
539.239	11.6
539.585	11.62
539.93	11.76
540.276	11.81
540.621	11.8
540.966	11.91
541.311	11.78
541.656	11.8
542.001	11.85
542.346	11.6
542.691	11.51
543.036	11.41
543.381	11.49
543.726	11.49
544.071	11.61
544.415	11.69
544.76	11.79
545.105	11.75
545.449	11.85
545.794	11.97
546.138	11.97
546.483	12.11
546.827	12.14
547.171	12.09
547.516	12.11
547.86	12.17
548.204	12.13
548.548	12.07
548.892	12.14
549.236	12.25
549.58	12.35
549.924	12.31
550.268	12.46
550.612	12.48
550.956	12.52
551.3	12.51
551.643	12.74
551.987	12.62
552.33	12.71
552.674	12.55
553.017	12.67
553.361	12.66
553.704	12.66
554.048	12.59
554.391	12.8
554.734	12.46
555.077	12.66
555.42	12.88
555.764	12.68
556.107	12.72
556.45	12.9
556.793	12.77
557.135	13.02
557.478	13.04
557.821	13.05
558.164	13.03
558.507	13.04
558.849	13.08
559.192	13.08
559.534	13.11
559.877	12.98
560.219	12.88
560.562	13
560.904	13.05
561.246	13.24
561.589	13.25
561.931	13.1
562.273	13.29
562.615	13.17
562.957	13.3
563.299	13.09
563.641	13.38
563.983	13.2
564.325	13.4
564.667	13.27
565.008	13.59
565.35	13.49
565.692	13.38
566.033	13.14
566.375	13.22
566.716	13.51
567.058	13.22
567.399	13.39
567.741	13.28
568.082	13.42
568.423	13.34
568.764	13.57
569.105	13.49
569.447	13.5
569.788	13.58
570.129	13.64
570.47	13.6
570.811	13.57
571.151	13.69
571.492	13.64
571.833	13.62
572.174	13.69
572.514	13.79
572.855	13.79
573.195	13.58
573.536	13.54
573.876	13.57
574.217	13.76
574.557	13.56
574.898	13.81
575.238	13.86
575.578	13.88
575.918	13.73
576.258	13.88
576.598	13.74
576.938	14.09
577.278	13.79
577.618	14
577.958	13.84
578.298	13.99
578.638	14.13
578.977	14.07
579.317	14.05
579.657	14.16
579.996	14.18
580.336	14.18
580.675	14.04
581.014	14.11
581.354	14.3
581.693	14.39
582.032	14.4
582.372	14.19
582.711	14.44
583.05	14.3
583.389	14.42
583.728	14.68
584.067	14.56
584.406	14.53
584.745	14.44
585.083	14.62
585.422	14.61
585.761	14.59
586.1	14.85
586.438	14.9
586.777	14.65
587.115	14.68
587.454	14.78
587.792	14.88
588.13	14.69
588.469	14.95
588.807	15.02
589.145	15.02
589.483	14.8
589.821	14.62
590.159	14.71
590.497	14.81
590.835	14.75
591.173	14.96
591.511	14.81
591.849	14.68
592.187	14.78
592.524	15.1
592.862	14.85
593.2	15
593.537	15.12
593.875	14.98
594.212	15.2
594.55	15.02
594.887	15.09
595.224	15.34
595.561	15.23
595.899	15
596.236	15.39
596.573	15.1
596.91	15.18
597.247	15.3
597.584	15.11
597.921	15.29
598.258	15.05
598.594	15.06
598.931	15.05
599.268	15.34
599.604	15.3
599.941	15.11
600.277	15.46
600.614	15.62
600.95	15.63
601.287	15.43
601.623	15.47
601.959	15.67
602.296	15.42
602.632	15.39
602.968	15.35
603.304	15.54
603.64	15.37
603.976	15.64
604.312	15.84
604.648	15.48
604.984	15.49
605.319	15.42
605.655	15.51
605.991	15.59
606.326	15.5
606.662	15.67
606.998	15.52
607.333	15.58
607.668	15.43
608.004	15.55
608.339	15.59
608.674	15.69
609.01	15.8
609.345	16.02
609.68	16.14
610.015	15.8
610.35	15.74
610.685	15.81
611.02	15.71
611.355	15.9
611.689	15.68
612.024	16
612.359	15.94
612.694	16.01
613.028	15.95
613.363	16.17
613.697	15.92
614.032	16.2
614.366	16.3
614.7	16.44
615.035	16.13
615.369	16.25
615.703	16.15
616.037	16.2
616.371	16.31
616.705	16.57
617.039	16.67
617.373	16.62
617.707	16.45
618.041	16.17
618.375	16.42
618.709	16.73
619.042	16.49
619.376	16.12
619.71	16.35
620.043	16.7
620.377	16.47
620.71	16.62
621.043	16.96
621.377	16.57
621.71	16.73
622.043	16.34
622.376	16.71
622.709	16.94
623.043	17.02
623.376	16.66
623.709	17.06
624.041	16.66
624.374	16.72
624.707	16.79
625.04	16.87
625.373	17.11
625.705	16.52
626.038	16.62
626.37	16.91
626.703	17.04
627.035	16.86
627.368	16.98
627.7	16.88
628.032	16.94
628.365	16.58
628.697	17.02
629.029	17.02
629.361	17.18
629.693	16.93
630.025	17.09
630.357	16.95
630.689	16.73
631.021	17.06
631.353	16.89
631.684	17.15
632.016	17.14
632.348	17.05
632.679	17.19
633.011	17.12
633.342	17.28
633.674	17.2
634.005	17.07
634.336	16.86
634.668	17.38
634.999	17.41
635.33	17.45
635.661	17.36
635.992	17.13
636.323	17.29
636.654	17.37
636.985	17.42
637.316	17.22
637.647	17.47
637.977	17.68
638.308	17.3
638.639	17.8
638.969	17.54
639.3	17.78
639.63	17.54
639.961	17.63
640.291	17.35
640.622	17.87
640.952	17.7
641.282	17.5
641.612	17.66
641.943	17.58
642.273	17.23
642.603	17.89
642.933	18.2
643.263	17.85
643.592	18.01
643.922	17.86
644.252	18.01
644.582	18.38
644.911	17.95
645.241	17.86
645.571	18.18
645.9	18.3
646.23	17.64
646.559	17.54
646.888	17.28
647.218	17.72
647.547	18.35
647.876	17.9
648.205	18.34
648.534	18.08
648.863	18.36
649.192	18.21
649.521	17.99
649.85	18.26
650.179	18.36
650.508	17.84
650.837	17.95
651.165	18.5
651.494	18.24
651.822	18.49
652.151	18.37
652.479	18.61
652.808	18.27
653.136	18.71
653.465	17.61
653.793	18.34
654.121	18.18
654.449	18.82
654.777	18.52
655.105	18.12
655.433	19
655.761	18.82
656.089	18.17
656.417	18.28
656.745	18.16
657.073	18.61
657.4	18.36
657.728	18.48
658.056	18.48
658.383	19.5
658.711	18.48
659.038	18.57
659.365	18.49
659.693	17.98
660.02	18.45
660.347	18.86
660.674	18.26
661.001	18.42
661.329	19.01
661.656	18.7
661.982	18.66
662.309	19
662.636	19.35
662.963	18.8
663.29	18.85
663.616	18.61
663.943	18.89
664.27	19.05
664.596	18.83
664.923	19.6
665.249	18.92
665.576	18.67
665.902	19.23
666.228	18.27
666.554	19.02
666.881	19.09
667.207	19.6
667.533	18.83
667.859	19.71
668.185	19.57
668.511	19.32
668.837	18.67
669.162	19.33
669.488	19.24
669.814	19.56
670.139	19.84
670.465	19.2
670.791	19.54
671.116	19.66
671.442	19.78
671.767	19.79
672.092	19.44
672.418	19.88
672.743	19.19
673.068	19.35
673.393	19.83
673.718	19.71
674.043	19.56
674.368	19.11
674.693	20.03
675.018	20.16
675.343	19.97
675.667	19.67
675.992	19.24
676.317	19.64
676.641	19.36
676.966	19.96
677.29	19.84
677.615	19.5
677.939	19.8
678.264	19.34
678.588	19.13
678.912	19.75
679.236	20.1
679.56	19.83
679.885	19.98
680.209	19.73
