Data from 0015_chest_Reflection__3__38.txt Node

Date: Mon Oct 17 14:44:07 CDT 2022
User: ToomeyLab
Spectrometer: FLMS14357
Trigger mode: 0
Integration Time (sec): 1.000000E-2
Scans to average: 100
Electric dark correction enabled: true
Nonlinearity correction enabled: false
Boxcar width: 0
XAxis mode: Wavelengths
Number of Pixels in Spectrum: 2048
>>>>>Begin Spectral Data<<<<<
189.047	-159.7
189.435	-159.7
189.823	-159.7
190.211	66.91
190.599	52.7
190.987	202.25
191.375	117.03
191.763	-52.95
192.151	-363.22
192.538	-89.36
192.926	1311.54
193.314	768.49
193.702	343.47
194.089	68.06
194.477	83.5
194.864	-228.11
195.252	-1055.15
195.639	-2480.61
196.027	26.73
196.414	10.53
196.801	-26.04
197.189	599.37
197.576	109.72
197.963	-139.64
198.351	-107.45
198.738	24.67
199.125	-2.19
199.512	18.9
199.899	-0.14
200.286	-23.12
200.673	-36.69
201.06	0.75
201.447	34.95
201.833	18.73
202.22	30.95
202.607	-69.74
202.994	42.09
203.38	30.98
203.767	57.97
204.154	30.72
204.54	3.31
204.927	10.07
205.313	8.34
205.699	29.53
206.086	-56.45
206.472	44.24
206.858	3.54
207.245	13.86
207.631	40.03
208.017	16.12
208.403	11.76
208.789	9.72
209.175	-8.48
209.561	-23.53
209.947	-54.07
210.333	36.24
210.719	-5.21
211.105	23.28
211.491	-43.63
211.876	-1.14
212.262	41.49
212.648	3.17
213.034	31.33
213.419	10.11
213.805	19.57
214.19	-1.9
214.576	-4.65
214.961	-9.73
215.346	-18.73
215.732	19.18
216.117	26.52
216.502	35.1
216.888	4.77
217.273	-9.48
217.658	-12.52
218.043	-14.51
218.428	-30.29
218.813	0.84
219.198	9.84
219.583	13.83
219.968	-1.39
220.353	17.68
220.738	0.58
221.122	1.84
221.507	-5.3
221.892	-4.24
222.276	-1.18
222.661	7.74
223.046	7.02
223.43	5.33
223.815	-3.04
224.199	3.04
224.583	-6.49
224.968	-10.82
225.352	-16.95
225.736	5.3
226.121	0.74
226.505	3.71
226.889	1.29
227.273	1.17
227.657	2.6
228.041	3.49
228.425	1.82
228.809	1.22
229.193	2.89
229.577	2.84
229.961	4.32
230.344	2.69
230.728	2.16
231.112	2.45
231.495	2.26
231.879	2.28
232.263	2.86
232.646	2.81
233.03	2.08
233.413	-0.52
233.797	2.78
234.18	5.55
234.563	1
234.946	3.12
235.33	2.2
235.713	0.75
236.096	3.31
236.479	2.23
236.862	2.58
237.245	2.41
237.628	0.5
238.011	2.2
238.394	2.75
238.777	2.59
239.16	3.81
239.543	0.47
239.925	2.82
240.308	3.5
240.691	1.19
241.073	3.59
241.456	3.19
241.838	2.89
242.221	2.44
242.603	2.41
242.986	2.17
243.368	3.13
243.75	2.46
244.133	2.44
244.515	2.85
244.897	2.53
245.279	2.91
245.661	2.6
246.043	2.95
246.425	2
246.807	1.83
247.189	3.36
247.571	2.46
247.953	2.54
248.335	2.64
248.717	2.62
249.098	2.89
249.48	2.67
249.862	2.78
250.243	2.02
250.625	2.61
251.006	2.45
251.388	2.75
251.769	3.05
252.151	2.09
252.532	1.66
252.913	1.72
253.295	1.59
253.676	2.98
254.057	3.12
254.438	2.76
254.819	3.9
255.2	3.23
255.581	3.18
255.962	1.65
256.343	2.15
256.724	2.86
257.105	2.05
257.486	1.66
257.867	2.79
258.247	2.9
258.628	2.88
259.009	2.85
259.389	2.34
259.77	3.19
260.15	2.56
260.531	2.26
260.911	2.63
261.292	2.71
261.672	2.5
262.052	2.69
262.432	2.54
262.813	2.56
263.193	2.75
263.573	2.73
263.953	2.69
264.333	2.99
264.713	2.79
265.093	2.38
265.473	2.04
265.853	2.37
266.233	3.44
266.612	2.3
266.992	2.37
267.372	2.48
267.752	3.03
268.131	2.89
268.511	2.64
268.89	2.28
269.27	2.32
269.649	2.65
270.029	2.57
270.408	3.03
270.787	2.19
271.167	2.02
271.546	2.36
271.925	2.26
272.304	2.41
272.683	2.51
273.062	2.38
273.441	2.58
273.82	2.49
274.199	2.95
274.578	2.63
274.957	2.36
275.336	2.33
275.715	2.62
276.093	2.27
276.472	2.25
276.851	3.01
277.229	2.32
277.608	2.09
277.986	2.92
278.365	2.6
278.743	2.99
279.122	1.95
279.5	2.48
279.878	2.25
280.257	2.73
280.635	1.81
281.013	2.49
281.391	2.16
281.769	2.32
282.147	3.29
282.525	2.51
282.903	2.2
283.281	2.06
283.659	1.85
284.037	1.92
284.415	2.23
284.792	2.29
285.17	2.11
285.548	2.39
285.925	2.7
286.303	2.45
286.68	2.86
287.058	2.74
287.435	2.74
287.813	2.25
288.19	2.75
288.567	2.42
288.945	2.49
289.322	3.06
289.699	2.36
290.076	2.65
290.453	2.44
290.83	2.59
291.207	2.68
291.584	2.64
291.961	2.29
292.338	2.53
292.715	2.65
293.092	2.54
293.469	2.51
293.845	2.63
294.222	2.78
294.599	2.82
294.975	2.93
295.352	2.07
295.728	2.33
296.105	2.43
296.481	2.72
296.858	2.92
297.234	2.22
297.61	2.57
297.986	2.59
298.363	2.73
298.739	2.93
299.115	2.65
299.491	2.76
299.867	2.86
300.243	2.88
300.619	2.71
300.995	2.86
301.371	2.59
301.746	2.67
302.122	2.49
302.498	2.86
302.874	3.04
303.249	3.08
303.625	3.49
304	2.77
304.376	2.66
304.751	2.58
305.127	2.39
305.502	2.86
305.878	2.69
306.253	2.63
306.628	3.08
307.003	2.87
307.378	2.93
307.754	2.43
308.129	2.87
308.504	3.01
308.879	3.04
309.254	2.86
309.629	2.63
310.003	3.06
310.378	2.81
310.753	3
311.128	2.94
311.502	3.09
311.877	3.34
312.252	2.9
312.626	3.09
313.001	2.76
313.375	2.86
313.75	2.96
314.124	3.19
314.498	2.86
314.873	2.85
315.247	2.94
315.621	3.42
315.995	3.44
316.369	2.93
316.743	3.21
317.117	3.54
317.491	2.74
317.865	3.81
318.239	3.46
318.613	3.1
318.987	2.91
319.361	3.17
319.734	3.56
320.108	3.37
320.482	3.3
320.855	3.07
321.229	3.43
321.602	3.39
321.976	2.68
322.349	3.21
322.723	3.52
323.096	3.33
323.469	3.34
323.843	3.12
324.216	3.22
324.589	2.8
324.962	3.26
325.335	2.99
325.708	3.35
326.081	3.2
326.454	3.48
326.827	3.24
327.2	2.87
327.573	3.4
327.945	3.25
328.318	3.09
328.691	3.25
329.063	3.1
329.436	2.81
329.809	3.1
330.181	3.42
330.553	3.11
330.926	3.68
331.298	3.62
331.671	3.57
332.043	3.27
332.415	3.54
332.787	3.28
333.159	3.62
333.532	3.04
333.904	2.68
334.276	3.23
334.648	2.94
335.02	3.49
335.391	3.65
335.763	3.72
336.135	2.98
336.507	3.61
336.879	3.7
337.25	3.73
337.622	3.52
337.993	3.41
338.365	3.74
338.736	3.47
339.108	3.92
339.479	3.2
339.851	3.82
340.222	3.18
340.593	3.5
340.964	3.37
341.336	3.21
341.707	3.5
342.078	3.61
342.449	3.41
342.82	3.22
343.191	3.23
343.562	3.31
343.933	3.38
344.303	3.78
344.674	3.9
345.045	3.54
345.416	3.53
345.786	3.43
346.157	3.48
346.527	3.35
346.898	3.53
347.268	3.52
347.639	3.35
348.009	3.56
348.38	3.59
348.75	3.2
349.12	3.58
349.49	3.14
349.861	3.7
350.231	3.22
350.601	3.46
350.971	3.48
351.341	3.44
351.711	3.23
352.081	3.8
352.45	3.69
352.82	3.76
353.19	3.35
353.56	3.05
353.929	3.61
354.299	3.72
354.669	3.38
355.038	3.38
355.408	3.6
355.777	3.36
356.147	3.87
356.516	3.68
356.885	3.51
357.254	3.95
357.624	3.58
357.993	3.68
358.362	3.54
358.731	3.58
359.1	3.43
359.469	3.5
359.838	3.63
360.207	3.66
360.576	3.32
360.945	3.36
361.314	3.77
361.682	3.58
362.051	3.6
362.42	3.61
362.788	3.65
363.157	3.77
363.525	3.6
363.894	3.67
364.262	3.71
364.631	3.75
364.999	3.7
365.367	3.41
365.735	3.81
366.104	3.68
366.472	3.41
366.84	4.02
367.208	3.78
367.576	3.53
367.944	3.52
368.312	3.58
368.68	4
369.048	3.64
369.416	3.66
369.783	3.99
370.151	3.93
370.519	4.03
370.886	3.68
371.254	3.75
371.621	3.85
371.989	4.01
372.356	3.73
372.724	3.71
373.091	3.61
373.458	3.79
373.826	3.93
374.193	3.96
374.56	3.69
374.927	3.97
375.294	3.64
375.661	3.73
376.028	4.21
376.395	3.9
376.762	3.88
377.129	3.77
377.496	3.6
377.863	3.4
378.229	3.81
378.596	3.63
378.963	3.89
379.329	3.8
379.696	3.5
380.062	4.06
380.429	3.48
380.795	3.95
381.161	3.91
381.528	3.67
381.894	3.88
382.26	4.05
382.626	3.82
382.993	3.99
383.359	3.83
383.725	3.78
384.091	3.86
384.457	3.84
384.823	3.67
385.188	3.83
385.554	3.9
385.92	4.11
386.286	3.78
386.651	3.96
387.017	3.73
387.383	3.98
387.748	3.88
388.114	3.72
388.479	4.05
388.845	4.04
389.21	3.81
389.575	3.92
389.94	4.11
390.306	4.02
390.671	4.07
391.036	4.03
391.401	3.89
391.766	3.91
392.131	3.87
392.496	4.14
392.861	3.84
393.226	3.76
393.591	3.74
393.956	3.76
394.32	3.97
394.685	4.08
395.05	4.12
395.414	3.96
395.779	4.06
396.143	3.88
396.508	3.94
396.872	4.1
397.236	3.78
397.601	3.89
397.965	3.87
398.329	4.14
398.694	4.32
399.058	4.17
399.422	4.11
399.786	3.94
400.15	4.3
400.514	3.96
400.878	4.04
401.242	4.09
401.605	4.23
401.969	3.92
402.333	4.14
402.697	4.14
403.06	3.91
403.424	4.05
403.787	3.91
404.151	4.05
404.514	4.21
404.878	4.22
405.241	4.04
405.604	4.02
405.968	4.18
406.331	4.06
406.694	4.02
407.057	3.93
407.42	3.99
407.783	4.26
408.146	4.19
408.509	4.38
408.872	3.94
409.235	4.06
409.598	4.14
409.961	4.04
410.323	4.09
410.686	4.14
411.049	4.08
411.411	4.18
411.774	4.23
412.136	4.21
412.499	4.39
412.861	4.46
413.223	4.21
413.586	4.12
413.948	4.27
414.31	4.09
414.672	4.02
415.035	4.28
415.397	4.47
415.759	4.43
416.121	3.97
416.483	4.25
416.845	4.33
417.206	4.38
417.568	4.19
417.93	4.14
418.292	4.28
418.653	4.08
419.015	4.23
419.377	4.38
419.738	4.1
420.1	4.25
420.461	4.17
420.822	4.27
421.184	4.17
421.545	4.21
421.906	4.21
422.267	4.21
422.629	4.13
422.99	4.19
423.351	4.24
423.712	4.23
424.073	4.22
424.434	4.23
424.795	4.23
425.155	4.33
425.516	4.11
425.877	4.12
426.238	4.13
426.598	4.14
426.959	4.19
427.32	4.3
427.68	4.31
428.041	4.23
428.401	4.31
428.761	4.31
429.122	4.5
429.482	4.36
429.842	4.24
430.202	4.74
430.563	4.52
430.923	4.54
431.283	4.61
431.643	4.62
432.003	4.39
432.363	4.59
432.722	4.44
433.082	4.35
433.442	4.59
433.802	4.3
434.161	4.23
434.521	4.6
434.881	4.34
435.24	4.25
435.6	4.55
435.959	4.36
436.319	4.64
436.678	4.42
437.037	4.54
437.396	4.31
437.756	4.43
438.115	4.32
438.474	4.48
438.833	4.4
439.192	4.55
439.551	4.43
439.91	4.44
440.269	4.4
440.628	4.44
440.987	4.36
441.345	4.48
441.704	4.4
442.063	4.35
442.421	4.47
442.78	4.47
443.138	4.5
443.497	4.48
443.855	4.53
444.214	4.54
444.572	4.4
444.93	4.54
445.288	4.55
445.647	4.64
446.005	4.72
446.363	4.55
446.721	4.47
447.079	4.47
447.437	4.46
447.795	4.6
448.153	4.49
448.51	4.51
448.868	4.53
449.226	4.51
449.584	4.52
449.941	4.49
450.299	4.58
450.656	4.5
451.014	4.58
451.371	4.77
451.729	4.63
452.086	4.67
452.443	4.76
452.801	4.65
453.158	4.74
453.515	4.52
453.872	4.6
454.229	4.62
454.586	4.64
454.943	4.68
455.3	4.68
455.657	4.63
456.014	4.79
456.371	4.78
456.727	4.79
457.084	4.7
457.441	4.81
457.797	4.66
458.154	4.78
458.51	4.7
458.867	4.72
459.223	4.74
459.58	4.82
459.936	4.66
460.292	4.76
460.648	4.7
461.005	4.76
461.361	4.61
461.717	4.61
462.073	4.7
462.429	4.62
462.785	4.73
463.141	4.94
463.496	4.77
463.852	4.78
464.208	4.94
464.564	4.83
464.919	4.91
465.275	4.82
465.631	4.8
465.986	4.9
466.342	4.95
466.697	4.9
467.052	4.97
467.408	4.74
467.763	4.72
468.118	4.98
468.473	4.95
468.829	4.8
469.184	4.9
469.539	4.94
469.894	4.98
470.249	4.81
470.603	4.99
470.958	4.93
471.313	4.7
471.668	5.05
472.023	4.96
472.377	5.13
472.732	5.08
473.086	4.98
473.441	5.1
473.795	4.94
474.15	4.96
474.504	4.9
474.859	4.97
475.213	5.11
475.567	5.09
475.921	4.86
476.275	5.03
476.63	5.09
476.984	4.99
477.338	5.13
477.692	4.98
478.045	5.14
478.399	5.06
478.753	5.04
479.107	5.05
479.461	5.05
479.814	5.03
480.168	5.04
480.521	5.1
480.875	4.91
481.228	5.07
481.582	5.21
481.935	5.25
482.289	4.88
482.642	5.03
482.995	5.11
483.348	5.03
483.701	5.07
484.055	4.98
484.408	5
484.761	4.86
485.114	4.8
485.466	4.74
485.819	4.73
486.172	4.75
486.525	4.87
486.878	4.91
487.23	4.94
487.583	4.99
487.936	5
488.288	5.03
488.641	4.92
488.993	4.85
489.345	4.86
489.698	4.91
490.05	4.92
490.402	4.93
490.754	4.98
491.107	5.05
491.459	5.11
491.811	5.24
492.163	5.09
492.515	5.13
492.866	4.96
493.218	4.98
493.57	5.03
493.922	5.05
494.274	5.04
494.625	5.14
494.977	5.25
495.328	5.12
495.68	5.31
496.031	5.4
496.383	5.34
496.734	5.29
497.086	5.2
497.437	5.25
497.788	5.33
498.139	5.25
498.49	5.31
498.842	5.27
499.193	5.27
499.544	5.19
499.894	5.26
500.245	5.35
500.596	5.3
500.947	5.4
501.298	5.49
501.648	5.49
501.999	5.39
502.35	5.44
502.7	5.48
503.051	5.4
503.401	5.35
503.752	5.59
504.102	5.58
504.452	5.44
504.803	5.53
505.153	5.51
505.503	5.57
505.853	5.46
506.203	5.49
506.553	5.55
506.903	5.52
507.253	5.42
507.603	5.45
507.953	5.45
508.303	5.54
508.652	5.49
509.002	5.61
509.352	5.55
509.701	5.53
510.051	5.67
510.4	5.49
510.75	5.59
511.099	5.54
511.449	5.5
511.798	5.63
512.147	5.62
512.496	5.65
512.846	5.53
513.195	5.56
513.544	5.57
513.893	5.56
514.242	5.69
514.591	5.5
514.939	5.67
515.288	5.58
515.637	5.64
515.986	5.72
516.334	5.77
516.683	5.83
517.032	5.65
517.38	5.69
517.729	5.91
518.077	5.75
518.426	5.82
518.774	5.74
519.122	5.66
519.47	5.77
519.819	5.73
520.167	5.61
520.515	5.6
520.863	5.62
521.211	5.75
521.559	5.7
521.907	5.84
522.255	5.75
522.602	5.87
522.95	5.96
523.298	5.82
523.645	5.9
523.993	6.02
524.341	6.03
524.688	5.93
525.036	6.12
525.383	5.89
525.73	5.9
526.078	5.86
526.425	5.81
526.772	5.81
527.119	5.84
527.466	5.71
527.814	5.77
528.161	5.88
528.508	5.86
528.854	5.89
529.201	5.86
529.548	5.81
529.895	5.65
530.242	5.65
530.588	5.64
530.935	5.71
531.282	5.79
531.628	5.84
531.975	5.87
532.321	5.81
532.667	5.98
533.014	6.05
533.36	6.07
533.706	6.04
534.052	6.05
534.399	5.94
534.745	5.85
535.091	5.88
535.437	5.96
535.783	5.95
536.129	6.04
536.474	6.14
536.82	6.14
537.166	6.25
537.512	6.18
537.857	6.15
538.203	6.11
538.549	6.01
538.894	6.11
539.239	6.22
539.585	6.25
539.93	6.3
540.276	6.23
540.621	6.25
540.966	6.34
541.311	6.28
541.656	6.39
542.001	6.29
542.346	6.22
542.691	6.19
543.036	6.07
543.381	6.11
543.726	6.17
544.071	6.19
544.415	6.25
544.76	6.22
545.105	6.19
545.449	6.38
545.794	6.38
546.138	6.43
546.483	6.52
546.827	6.55
547.171	6.53
547.516	6.54
547.86	6.53
548.204	6.55
548.548	6.48
548.892	6.48
549.236	6.57
549.58	6.51
549.924	6.55
550.268	6.76
550.612	6.62
550.956	6.84
551.3	6.67
551.643	6.87
551.987	6.75
552.33	6.83
552.674	6.85
553.017	6.86
553.361	6.69
553.704	6.78
554.048	6.81
554.391	6.96
554.734	6.83
555.077	6.96
555.42	6.96
555.764	6.91
556.107	6.93
556.45	6.84
556.793	6.96
557.135	6.98
557.478	7.12
557.821	7.09
558.164	7.03
558.507	7
558.849	7.03
559.192	7.09
559.534	7.05
559.877	6.99
560.219	6.99
560.562	7.03
560.904	7.22
561.246	7.2
561.589	7.16
561.931	7.19
562.273	7.27
562.615	7.17
562.957	7.24
563.299	7.19
563.641	7.26
563.983	7.09
564.325	7.68
564.667	7.44
565.008	7.34
565.35	7.32
565.692	7.44
566.033	7.41
566.375	7.4
566.716	7.47
567.058	7.3
567.399	7.22
567.741	7.34
568.082	7.36
568.423	7.32
568.764	7.42
569.105	7.33
569.447	7.42
569.788	7.38
570.129	7.58
570.47	7.51
570.811	7.6
571.151	7.41
571.492	7.53
571.833	7.42
572.174	7.64
572.514	7.64
572.855	7.58
573.195	7.53
573.536	7.54
573.876	7.55
574.217	7.65
574.557	7.51
574.898	7.62
575.238	7.69
575.578	7.79
575.918	7.77
576.258	7.71
576.598	7.68
576.938	7.81
577.278	7.78
577.618	7.86
577.958	7.75
578.298	7.79
578.638	7.75
578.977	7.82
579.317	7.64
579.657	7.65
579.996	7.88
580.336	8.08
580.675	7.8
581.014	7.68
581.354	8.08
581.693	7.96
582.032	8.21
582.372	8.16
582.711	8.27
583.05	8.21
583.389	7.83
583.728	8.07
584.067	8.3
584.406	8.22
584.745	8.13
585.083	8.26
585.422	8.41
585.761	8.2
586.1	8.3
586.438	8.46
586.777	8.04
587.115	8.37
587.454	8.37
587.792	8.55
588.13	8.38
588.469	8.43
588.807	8.43
589.145	8.44
589.483	8.3
589.821	8.3
590.159	8.36
590.497	8.78
590.835	8.68
591.173	8.42
591.511	8.56
591.849	8.39
592.187	8.51
592.524	8.39
592.862	8.51
593.2	8.48
593.537	8.67
593.875	8.84
594.212	8.94
594.55	8.6
594.887	8.65
595.224	8.79
595.561	8.81
595.899	8.96
596.236	8.79
596.573	8.76
596.91	8.66
597.247	8.9
597.584	8.68
597.921	8.82
598.258	8.78
598.594	8.79
598.931	8.76
599.268	8.79
599.604	8.77
599.941	9.01
600.277	8.99
600.614	8.82
600.95	8.91
601.287	8.95
601.623	8.87
601.959	9.08
602.296	9.06
602.632	8.89
602.968	8.83
603.304	9.05
603.64	9.07
603.976	8.97
604.312	9.23
604.648	8.99
604.984	9.16
605.319	9.03
605.655	9.08
605.991	9.13
606.326	9
606.662	9.25
606.998	9.09
607.333	9.24
607.668	9.18
608.004	9.29
608.339	9.22
608.674	9.43
609.01	9.29
609.345	9.54
609.68	9.53
610.015	9.7
610.35	9.49
610.685	9.05
611.02	9.57
611.355	9.45
611.689	9.27
612.024	9.56
612.359	9.51
612.694	9.62
613.028	9.58
613.363	10
613.697	9.55
614.032	9.87
614.366	9.62
614.7	9.93
615.035	9.91
615.369	9.79
615.703	9.61
616.037	10.02
616.371	10.02
616.705	10
617.039	9.99
617.373	9.89
617.707	9.92
618.041	9.84
618.375	9.97
618.709	10.25
619.042	10.17
619.376	9.99
619.71	10.05
620.043	10.14
620.377	10.15
620.71	10.35
621.043	10.42
621.377	10.29
621.71	10.42
622.043	10.36
622.376	10.1
622.709	10.36
623.043	10.28
623.376	9.92
623.709	10.38
624.041	10.41
624.374	10.37
624.707	10.43
625.04	10.22
625.373	10.55
625.705	10.4
626.038	10.35
626.37	10.09
626.703	10.51
627.035	10.3
627.368	10.37
627.7	10.58
628.032	10.31
628.365	10.14
628.697	10.52
629.029	10.45
629.361	10.68
629.693	10.16
630.025	10.58
630.357	10.89
630.689	10.36
631.021	10.73
631.353	10.4
631.684	10.62
632.016	10.37
632.348	10.94
632.679	11.09
633.011	10.84
633.342	10.54
633.674	11.04
634.005	10.89
634.336	10.54
634.668	10.85
634.999	10.71
635.33	10.69
635.661	11.07
635.992	10.85
636.323	10.9
636.654	11.13
636.985	10.97
637.316	10.99
637.647	10.78
637.977	11.13
638.308	11.28
638.639	10.99
638.969	11.34
639.3	10.65
639.63	11.4
639.961	10.82
640.291	11.13
640.622	11.05
640.952	11.18
641.282	11.61
641.612	11.4
641.943	11.27
642.273	11.24
642.603	10.91
642.933	11.41
643.263	11.41
643.592	11.41
643.922	11.13
644.252	11.39
644.582	11.73
644.911	11.8
645.241	11.34
645.571	11.49
645.9	11.68
646.23	11.58
646.559	11.62
646.888	11.31
647.218	11.44
647.547	11.35
647.876	11.63
648.205	11.38
648.534	11.44
648.863	11.74
649.192	11.42
649.521	11.74
649.85	11.72
650.179	12.41
650.508	11.57
650.837	11.72
651.165	12.03
651.494	11.81
651.822	11.6
652.151	11.73
652.479	11.92
652.808	11.86
653.136	11.75
653.465	11.77
653.793	11.92
654.121	11.91
654.449	12.31
654.777	12.27
655.105	11.57
655.433	12.16
655.761	12.05
656.089	11.85
656.417	12
656.745	12.18
657.073	12.7
657.4	11.45
657.728	12.39
658.056	11.96
658.383	12.51
658.711	11.94
659.038	11.85
659.365	12.29
659.693	12.03
660.02	12.14
660.347	12.3
660.674	12.27
661.001	12.15
661.329	12.53
661.656	12
661.982	12.55
662.309	12.43
662.636	12.69
662.963	12.34
663.29	12.43
663.616	12.56
663.943	12.37
664.27	12.58
664.596	12.35
664.923	13.13
665.249	12.28
665.576	12.4
665.902	12.42
666.228	12.57
666.554	12.45
666.881	12.74
667.207	13
667.533	13.38
667.859	13.02
668.185	13.32
668.511	12.75
668.837	12.84
669.162	13.2
669.488	12.62
669.814	13.56
670.139	13.2
670.465	12.53
670.791	12.73
671.116	13.24
671.442	12.86
671.767	12.99
672.092	12.56
672.418	13.26
672.743	12.8
673.068	13.04
673.393	13.39
673.718	13.12
674.043	13.5
674.368	12.93
674.693	13.23
675.018	13.04
675.343	13.66
675.667	13.31
675.992	12.89
676.317	13.52
676.641	12.8
676.966	13.77
677.29	12.93
677.615	13.34
677.939	13.47
678.264	12.71
678.588	13.53
678.912	13.13
679.236	13.76
679.56	12.9
679.885	13.55
680.209	13.58
680.532	13.27
680.856	13.65
681.18	13.55
681.504	14.01
681.828	13.77
682.152	13.33
682.475	13.49
682.799	13.66
683.122	13
683.446	13.58
683.769	13.76
684.093	13.64
684.416	13.72
684.739	13.77
685.062	14.51
685.386	14
685.709	14.06
686.032	13.92
686.355	13.6
686.678	14.04
687.001	13.83
687.324	13.3
687.646	13.4
