Data from 0015_chest_Reflection__0__35.txt Node

Date: Mon Oct 17 14:43:09 CDT 2022
User: ToomeyLab
Spectrometer: FLMS14357
Trigger mode: 0
Integration Time (sec): 1.000000E-2
Scans to average: 100
Electric dark correction enabled: true
Nonlinearity correction enabled: false
Boxcar width: 0
XAxis mode: Wavelengths
Number of Pixels in Spectrum: 2048
>>>>>Begin Spectral Data<<<<<
189.047	-617.58
189.435	-617.58
189.823	-617.58
190.211	12.9
190.599	47.08
190.987	12.8
191.375	-53.38
191.763	-53.96
192.151	-736.36
192.538	201.68
192.926	1355.38
193.314	170.94
193.702	-245.02
194.089	-144.82
194.477	52.99
194.864	-160.94
195.252	-1170.1
195.639	-1091.84
196.027	15.05
196.414	89.1
196.801	-44.16
197.189	604.64
197.576	134.05
197.963	-192.56
198.351	-87.82
198.738	22.75
199.125	-14.25
199.512	-38.07
199.899	25.68
200.286	32.41
200.673	-19.05
201.06	7.82
201.447	24.16
201.833	9.9
202.22	27.95
202.607	0.46
202.994	8.21
203.38	18.31
203.767	38.99
204.154	63.85
204.54	5.17
204.927	-15.31
205.313	-37.07
205.699	18.55
206.086	-0.24
206.472	3.01
206.858	-17.83
207.245	38.77
207.631	-8.79
208.017	29.15
208.403	26.76
208.789	30.55
209.175	-12.44
209.561	-23.29
209.947	-11.66
210.333	10.87
210.719	-15.47
211.105	12.86
211.491	9
211.876	1.83
212.262	48.67
212.648	22.81
213.034	-8.24
213.419	14.05
213.805	-12.19
214.19	8.86
214.576	-0.33
214.961	-21.41
215.346	9.63
215.732	-24.01
216.117	18.09
216.502	20.39
216.888	21.51
217.273	2.57
217.658	29.5
218.043	-5.4
218.428	16.54
218.813	12.04
219.198	-2.46
219.583	-11.37
219.968	-5.12
220.353	-4.48
220.738	-10.77
221.122	2.93
221.507	-5.92
221.892	7.93
222.276	4.6
222.661	1.18
223.046	6.66
223.43	4.7
223.815	-2.37
224.199	2.98
224.583	-5.44
224.968	-7.05
225.352	-16.58
225.736	2.48
226.121	-1.42
226.505	-1.33
226.889	2.47
227.273	2.4
227.657	5.52
228.041	0.89
228.425	2.17
228.809	1.57
229.193	-0.48
229.577	0.57
229.961	2.44
230.344	0.93
230.728	1.14
231.112	1.71
231.495	1.1
231.879	2.01
232.263	2.07
232.646	3.02
233.03	0.71
233.413	-0.68
233.797	0.73
234.18	1.64
234.563	-2.14
234.946	-0.06
235.33	0.39
235.713	0.24
236.096	1.16
236.479	0.82
236.862	0.48
237.245	1.16
237.628	2.22
238.011	1.29
238.394	1.51
238.777	2.88
239.16	2.38
239.543	0.78
239.925	2.88
240.308	2.97
240.691	-0.29
241.073	0.86
241.456	2.11
241.838	2.21
242.221	0.73
242.603	1.36
242.986	0.89
243.368	1.88
243.75	1.41
244.133	1.39
244.515	1.81
244.897	1.72
245.279	2.14
245.661	2.09
246.043	1.38
246.425	1.11
246.807	1.04
247.189	1.99
247.571	1.72
247.953	1.57
248.335	1.5
248.717	1.75
249.098	1.49
249.48	1.6
249.862	1.31
250.243	1.13
250.625	1.6
251.006	1.62
251.388	1.56
251.769	1.73
252.151	1.07
252.532	1.53
252.913	2.09
253.295	1.27
253.676	1.62
254.057	1.63
254.438	1.84
254.819	2.19
255.2	2.06
255.581	1.36
255.962	1.32
256.343	1.28
256.724	1.35
257.105	1.07
257.486	0.93
257.867	1.07
258.247	1.13
258.628	2.39
259.009	1.91
259.389	1.46
259.77	1.75
260.15	1.83
260.531	1.04
260.911	1.44
261.292	1.68
261.672	1.34
262.052	1.65
262.432	1.24
262.813	1.8
263.193	1.5
263.573	1.93
263.953	1.3
264.333	1.35
264.713	0.45
265.093	1.93
265.473	1.42
265.853	0.96
266.233	2.61
266.612	1.51
266.992	2.56
267.372	1.05
267.752	2.45
268.131	1.89
268.511	1.47
268.89	1.49
269.27	1.59
269.649	1.39
270.029	1.22
270.408	1.79
270.787	1.16
271.167	1.52
271.546	1.22
271.925	1.26
272.304	1.91
272.683	1.17
273.062	1.24
273.441	1.64
273.82	1.33
274.199	1.52
274.578	1.72
274.957	1.42
275.336	1.41
275.715	1.43
276.093	1.55
276.472	0.99
276.851	1.76
277.229	1.45
277.608	1.34
277.986	1.24
278.365	1.63
278.743	1.62
279.122	1.29
279.5	2.14
279.878	1.59
280.257	1.33
280.635	1.5
281.013	1.45
281.391	1.64
281.769	0.99
282.147	1.81
282.525	1.58
282.903	1.05
283.281	1.25
283.659	1.49
284.037	1.32
284.415	1.73
284.792	1.41
285.17	1.31
285.548	1.42
285.925	1.3
286.303	1.35
286.68	1.32
287.058	1.54
287.435	1.69
287.813	1.33
288.19	1.59
288.567	1.65
288.945	1.52
289.322	1.72
289.699	1.96
290.076	1.26
290.453	1.49
290.83	1
291.207	1.77
291.584	1.39
291.961	1.54
292.338	1.48
292.715	1.78
293.092	1.2
293.469	1.81
293.845	1.42
294.222	2.09
294.599	1.98
294.975	1.5
295.352	1.57
295.728	1.55
296.105	1.4
296.481	1.77
296.858	1.78
297.234	1.45
297.61	1.58
297.986	1.5
298.363	1.59
298.739	1.98
299.115	1.52
299.491	1.63
299.867	1.57
300.243	1.66
300.619	1.48
300.995	1.94
301.371	1.55
301.746	1.46
302.122	1.59
302.498	1.74
302.874	2.16
303.249	2
303.625	2.08
304	1.99
304.376	2.19
304.751	2.26
305.127	1.9
305.502	1.71
305.878	2.06
306.253	1.75
306.628	2
307.003	1.76
307.378	1.99
307.754	1.71
308.129	1.92
308.504	1.81
308.879	1.61
309.254	1.69
309.629	1.37
310.003	2.25
310.378	1.99
310.753	1.42
311.128	1.82
311.502	2.2
311.877	1.64
312.252	2.04
312.626	1.82
313.001	1.59
313.375	1.76
313.75	1.67
314.124	2.07
314.498	1.81
314.873	1.88
315.247	1.75
315.621	2.42
315.995	2.11
316.369	1.46
316.743	2.07
317.117	2.25
317.491	1.95
317.865	2.35
318.239	2.43
318.613	2.12
318.987	1.82
319.361	1.97
319.734	2.15
320.108	2.11
320.482	2.26
320.855	1.81
321.229	1.68
321.602	2.14
321.976	1.49
322.349	2.32
322.723	1.8
323.096	2.11
323.469	2.38
323.843	2.3
324.216	2.41
324.589	1.29
324.962	1.85
325.335	1.6
325.708	2.24
326.081	2.39
326.454	2.32
326.827	2.12
327.2	1.82
327.573	2.16
327.945	1.93
328.318	2.26
328.691	1.76
329.063	2.26
329.436	2.16
329.809	1.75
330.181	2.47
330.553	2.52
330.926	2.2
331.298	1.71
331.671	2.92
332.043	2.28
332.415	2.35
332.787	2.6
333.159	2.17
333.532	1.82
333.904	2.42
334.276	2.02
334.648	1.77
335.02	2.27
335.391	2.44
335.763	2.19
336.135	2.06
336.507	2.08
336.879	2.29
337.25	2.9
337.622	2.13
337.993	2.19
338.365	2.34
338.736	1.43
339.108	2.39
339.479	2.02
339.851	2.5
340.222	1.95
340.593	2.17
340.964	2.13
341.336	2.21
341.707	2.44
342.078	2.27
342.449	2.44
342.82	2.03
343.191	2.27
343.562	1.97
343.933	2.13
344.303	2.19
344.674	2.58
345.045	2.28
345.416	1.95
345.786	2.49
346.157	1.86
346.527	2.16
346.898	2.26
347.268	2.62
347.639	2.17
348.009	2.28
348.38	2.3
348.75	2.3
349.12	2.19
349.49	2.11
349.861	2.64
350.231	2.3
350.601	2.17
350.971	2.11
351.341	2.17
351.711	2.08
352.081	2.52
352.45	2.48
352.82	2.5
353.19	2.12
353.56	1.89
353.929	2.18
354.299	2.34
354.669	2.41
355.038	2.59
355.408	2.51
355.777	2.08
356.147	2.19
356.516	2.52
356.885	2.2
357.254	2.38
357.624	2.54
357.993	2.31
358.362	2.46
358.731	2.21
359.1	2.28
359.469	1.92
359.838	2.28
360.207	2.37
360.576	2.21
360.945	2.24
361.314	2.39
361.682	2.52
362.051	2.49
362.42	2.26
362.788	2.41
363.157	2.47
363.525	2.19
363.894	2.42
364.262	2.38
364.631	2.58
364.999	2.55
365.367	2.56
365.735	2.37
366.104	2.38
366.472	2.22
366.84	2.69
367.208	2.37
367.576	2.47
367.944	2.07
368.312	2.34
368.68	2.51
369.048	2.59
369.416	2.43
369.783	2.58
370.151	2.56
370.519	2.39
370.886	2.54
371.254	2.43
371.621	2.58
371.989	2.76
372.356	2.29
372.724	2.35
373.091	2.66
373.458	2.28
373.826	2.45
374.193	2.84
374.56	2.31
374.927	2.51
375.294	2.42
375.661	2.53
376.028	2.55
376.395	2.12
376.762	2.55
377.129	2.56
377.496	2.36
377.863	2.07
378.229	2.33
378.596	2.61
378.963	2.45
379.329	2.33
379.696	2.34
380.062	2.77
380.429	2.21
380.795	2.53
381.161	2.57
381.528	2.35
381.894	2.51
382.26	2.45
382.626	2.77
382.993	2.67
383.359	2.47
383.725	2.57
384.091	2.54
384.457	2.6
384.823	2.21
385.188	2.2
385.554	2.57
385.92	2.58
386.286	2.5
386.651	2.82
387.017	2.17
387.383	2.49
387.748	2.42
388.114	2.41
388.479	2.52
388.845	2.92
389.21	2.55
389.575	2.63
389.94	2.67
390.306	2.68
390.671	2.9
391.036	2.48
391.401	2.69
391.766	2.6
392.131	2.77
392.496	2.67
392.861	2.39
393.226	2.52
393.591	2.47
393.956	2.62
394.32	2.67
394.685	2.88
395.05	2.63
395.414	2.77
395.779	2.58
396.143	2.74
396.508	2.68
396.872	2.59
397.236	2.52
397.601	2.7
397.965	2.69
398.329	2.68
398.694	2.63
399.058	2.65
399.422	2.72
399.786	2.87
400.15	2.73
400.514	2.6
400.878	2.76
401.242	2.78
401.605	2.78
401.969	2.84
402.333	2.77
402.697	2.59
403.06	2.48
403.424	2.82
403.787	2.43
404.151	2.52
404.514	2.77
404.878	2.9
405.241	2.71
405.604	2.91
405.968	2.85
406.331	2.61
406.694	2.6
407.057	2.67
407.42	2.66
407.783	2.85
408.146	2.86
408.509	2.98
408.872	2.64
409.235	2.81
409.598	2.69
409.961	2.53
410.323	2.73
410.686	2.65
411.049	2.75
411.411	2.87
411.774	2.63
412.136	2.87
412.499	2.93
412.861	2.82
413.223	2.86
413.586	2.77
413.948	2.87
414.31	2.66
414.672	2.74
415.035	2.89
415.397	3.06
415.759	2.86
416.121	2.63
416.483	2.74
416.845	2.92
417.206	2.82
417.568	2.89
417.93	2.6
418.292	2.94
418.653	2.75
419.015	2.8
419.377	2.9
419.738	2.74
420.1	2.83
420.461	2.8
420.822	2.86
421.184	2.81
421.545	2.73
421.906	2.8
422.267	2.73
422.629	2.76
422.99	2.73
423.351	2.74
423.712	2.79
424.073	2.83
424.434	2.83
424.795	2.91
425.155	2.93
425.516	2.73
425.877	2.78
426.238	2.81
426.598	2.86
426.959	2.79
427.32	2.86
427.68	2.93
428.041	2.83
428.401	3.02
428.761	2.87
429.122	2.9
429.482	3
429.842	2.81
430.202	2.97
430.563	2.99
430.923	3.01
431.283	3
431.643	3.02
432.003	3.06
432.363	3.22
432.722	3.07
433.082	3.09
433.442	3.07
433.802	3.05
434.161	2.87
434.521	3.19
434.881	3.05
435.24	2.82
435.6	3.06
435.959	2.94
436.319	3.04
436.678	2.99
437.037	3.01
437.396	2.82
437.756	3.12
438.115	2.84
438.474	2.92
438.833	3.01
439.192	2.87
439.551	3.06
439.91	3.03
440.269	2.89
440.628	2.91
440.987	3.07
441.345	3.03
441.704	3.01
442.063	2.9
442.421	3.04
442.78	2.92
443.138	3.01
443.497	3.05
443.855	3.03
444.214	3.09
444.572	2.96
444.93	3.1
445.288	2.89
445.647	3.13
446.005	3.23
446.363	3.23
446.721	3.06
447.079	2.98
447.437	3.13
447.795	2.99
448.153	3.17
448.51	3.02
448.868	3.15
449.226	3.04
449.584	3.06
449.941	3
450.299	3.22
450.656	3.06
451.014	3.05
451.371	3.3
451.729	3.24
452.086	3.14
452.443	3.23
452.801	3.22
453.158	3.48
453.515	3.13
453.872	3.07
454.229	3.2
454.586	3.01
454.943	3.13
455.3	3.21
455.657	3.21
456.014	3.27
456.371	3.39
456.727	3.12
457.084	3.19
457.441	3.32
457.797	3.14
458.154	3.33
458.51	3.25
458.867	3.41
459.223	3.32
459.58	3.09
459.936	3.15
460.292	3.3
460.648	3.23
461.005	3.25
461.361	3.12
461.717	3.13
462.073	3.13
462.429	3.16
462.785	3.29
463.141	3.39
463.496	3.24
463.852	3.35
464.208	3.4
464.564	3.15
464.919	3.45
465.275	3.19
465.631	3.38
465.986	3.3
466.342	3.35
466.697	3.27
467.052	3.32
467.408	3.32
467.763	3.26
468.118	3.33
468.473	3.48
468.829	3.37
469.184	3.45
469.539	3.39
469.894	3.44
470.249	3.42
470.603	3.43
470.958	3.51
471.313	3.29
471.668	3.44
472.023	3.28
472.377	3.55
472.732	3.33
473.086	3.29
473.441	3.47
473.795	3.49
474.15	3.45
474.504	3.47
474.859	3.48
475.213	3.48
475.567	3.52
475.921	3.43
476.275	3.47
476.63	3.43
476.984	3.57
477.338	3.46
477.692	3.47
478.045	3.49
478.399	3.57
478.753	3.39
479.107	3.46
479.461	3.36
479.814	3.53
480.168	3.47
480.521	3.4
480.875	3.35
481.228	3.5
481.582	3.65
481.935	3.51
482.289	3.38
482.642	3.55
482.995	3.6
483.348	3.51
483.701	3.4
484.055	3.4
484.408	3.47
484.761	3.37
485.114	3.25
485.466	3.22
485.819	3.21
486.172	3.26
486.525	3.37
486.878	3.42
487.23	3.5
487.583	3.49
487.936	3.48
488.288	3.41
488.641	3.38
488.993	3.29
489.345	3.37
489.698	3.36
490.05	3.42
490.402	3.38
490.754	3.46
491.107	3.43
491.459	3.57
491.811	3.59
492.163	3.58
492.515	3.54
492.866	3.46
493.218	3.42
493.57	3.45
493.922	3.51
494.274	3.53
494.625	3.61
494.977	3.7
495.328	3.62
495.68	3.69
496.031	3.87
496.383	3.68
496.734	3.71
497.086	3.51
497.437	3.72
497.788	3.81
498.139	3.57
498.49	3.7
498.842	3.59
499.193	3.6
499.544	3.7
499.894	3.71
500.245	3.61
500.596	3.77
500.947	3.78
501.298	3.86
501.648	3.77
501.999	3.76
502.35	3.89
502.7	3.76
503.051	3.89
503.401	3.99
503.752	3.84
504.102	3.9
504.452	3.79
504.803	3.94
505.153	3.84
505.503	3.89
505.853	3.82
506.203	3.82
506.553	3.99
506.903	3.83
507.253	3.89
507.603	3.76
507.953	3.94
508.303	3.86
508.652	3.86
509.002	4.01
509.352	3.92
509.701	3.93
510.051	3.94
510.4	3.85
510.75	3.87
511.099	3.94
511.449	3.88
511.798	4
512.147	3.96
512.496	3.87
512.846	3.9
513.195	3.96
513.544	3.92
513.893	3.88
514.242	4
514.591	4.04
514.939	3.89
515.288	3.89
515.637	4.01
515.986	3.97
516.334	4.03
516.683	4.11
517.032	4.02
517.38	3.9
517.729	4.04
518.077	4.13
518.426	4.04
518.774	4
519.122	3.95
519.47	3.99
519.819	4.1
520.167	4.04
520.515	3.95
520.863	4.01
521.211	4.05
521.559	4.01
521.907	4.15
522.255	4.09
522.602	4.1
522.95	4.21
523.298	4.08
523.645	4.12
523.993	4.22
524.341	4.22
524.688	4.1
525.036	4.22
525.383	4.19
525.73	4.19
526.078	4.19
526.425	4.1
526.772	4.16
527.119	4.05
527.466	4
527.814	4.15
528.161	4.12
528.508	4.19
528.854	4.11
529.201	4.15
529.548	4.14
529.895	4.02
530.242	3.94
530.588	3.98
530.935	4.03
531.282	4.11
531.628	4.11
531.975	4.19
532.321	4.17
532.667	4.33
533.014	4.29
533.36	4.26
533.706	4.29
534.052	4.3
534.399	4.2
534.745	4.17
535.091	4.13
535.437	4.25
535.783	4.33
536.129	4.3
536.474	4.39
536.82	4.41
537.166	4.47
537.512	4.43
537.857	4.51
538.203	4.44
538.549	4.31
538.894	4.34
539.239	4.51
539.585	4.42
539.93	4.46
540.276	4.48
540.621	4.46
540.966	4.48
541.311	4.4
541.656	4.58
542.001	4.48
542.346	4.49
542.691	4.46
543.036	4.32
543.381	4.37
543.726	4.42
544.071	4.4
544.415	4.46
544.76	4.52
545.105	4.48
545.449	4.65
545.794	4.52
546.138	4.56
546.483	4.68
546.827	4.77
547.171	4.63
547.516	4.72
547.86	4.7
548.204	4.62
548.548	4.71
548.892	4.69
549.236	4.78
549.58	4.78
549.924	4.76
550.268	4.97
550.612	4.85
550.956	4.92
551.3	4.79
551.643	5.06
551.987	4.99
552.33	4.89
552.674	4.91
553.017	4.96
553.361	5.05
553.704	4.92
554.048	4.9
554.391	4.97
554.734	4.89
555.077	4.88
555.42	5.06
555.764	5
556.107	4.96
556.45	5.06
556.793	5.01
557.135	5.25
557.478	5.1
557.821	5.17
558.164	4.99
558.507	4.98
558.849	4.98
559.192	5.13
559.534	5.26
559.877	4.99
560.219	5.06
560.562	5.12
560.904	5.2
561.246	5.45
561.589	5.36
561.931	5.18
562.273	5.4
562.615	5.19
562.957	5.29
563.299	5.24
563.641	5.25
563.983	5.33
564.325	5.44
564.667	5.45
565.008	5.42
565.35	5.48
565.692	5.59
566.033	5.43
566.375	5.37
566.716	5.44
567.058	5.27
567.399	5.29
567.741	5.36
568.082	5.47
568.423	5.27
568.764	5.42
569.105	5.44
569.447	5.34
569.788	5.5
570.129	5.58
570.47	5.61
570.811	5.58
571.151	5.4
571.492	5.68
571.833	5.54
572.174	5.6
572.514	5.68
572.855	5.62
573.195	5.5
573.536	5.47
573.876	5.39
574.217	5.51
574.557	5.5
574.898	5.69
575.238	5.66
575.578	5.64
575.918	5.88
576.258	5.64
576.598	5.61
576.938	5.91
577.278	5.8
577.618	5.9
577.958	5.78
578.298	5.76
578.638	5.89
578.977	5.88
579.317	5.71
579.657	5.83
579.996	5.85
580.336	6.02
580.675	5.83
581.014	5.75
581.354	5.91
581.693	6.04
582.032	6.02
582.372	6.19
582.711	5.85
583.05	6.08
583.389	5.78
583.728	6.09
584.067	6.24
584.406	5.86
584.745	6.41
585.083	6.24
585.422	6.22
585.761	6.37
586.1	6.25
586.438	6.35
586.777	6.16
587.115	6.25
587.454	6.06
587.792	6.21
588.13	6.27
588.469	6.41
588.807	6.36
589.145	6.44
589.483	6.3
589.821	6.36
590.159	6.27
590.497	6.22
590.835	6.41
591.173	6.39
591.511	6.43
591.849	6.36
592.187	6.47
592.524	6.46
592.862	6.4
593.2	6.36
593.537	6.58
593.875	6.66
594.212	6.55
594.55	6.42
594.887	6.39
595.224	6.65
595.561	6.7
595.899	6.62
596.236	6.82
596.573	6.59
596.91	6.55
597.247	6.73
597.584	6.63
597.921	6.76
598.258	6.52
598.594	6.66
598.931	6.58
599.268	6.62
599.604	6.58
599.941	6.65
600.277	6.71
600.614	6.73
600.95	6.84
601.287	6.92
601.623	7.02
601.959	6.85
602.296	7.07
602.632	6.64
602.968	6.61
603.304	7.03
603.64	6.77
603.976	6.83
604.312	7.14
604.648	6.8
604.984	6.82
605.319	6.82
605.655	6.9
605.991	7.07
606.326	6.78
606.662	7.01
606.998	6.94
607.333	6.99
607.668	7.05
608.004	7.04
608.339	7.04
608.674	7.21
609.01	7.32
609.345	7.2
609.68	7.31
610.015	7.41
610.35	7.1
610.685	7.11
611.02	7.45
611.355	7.13
611.689	7.25
612.024	7.18
612.359	7.09
612.694	7.3
613.028	7.08
613.363	7.58
613.697	7.29
614.032	7.54
614.366	7.49
614.7	7.27
615.035	7.61
615.369	7.59
615.703	7.52
616.037	7.67
616.371	7.5
616.705	7.3
617.039	7.86
617.373	7.91
617.707	7.69
618.041	7.59
618.375	7.54
618.709	7.81
619.042	8.03
619.376	7.61
619.71	7.62
620.043	7.72
620.377	7.82
620.71	8.09
621.043	7.97
621.377	7.91
621.71	7.88
622.043	7.84
622.376	7.87
622.709	7.95
623.043	7.64
623.376	7.55
623.709	7.5
624.041	8.13
624.374	8.11
624.707	7.71
625.04	7.97
625.373	7.92
625.705	7.93
626.038	7.86
626.37	7.93
626.703	8.22
627.035	7.83
627.368	8.11
627.7	8.16
628.032	8.09
628.365	8.18
628.697	8.24
629.029	8.26
629.361	8.02
629.693	8.08
630.025	8.16
630.357	8.25
630.689	7.95
631.021	8.02
631.353	8.18
631.684	8.23
632.016	8.16
632.348	8.28
632.679	8.19
633.011	8.12
633.342	8.2
633.674	8.59
634.005	8.3
634.336	8.31
634.668	8.58
634.999	8.17
635.33	8.48
635.661	8.56
635.992	8.4
636.323	8.5
636.654	8.51
636.985	8.32
637.316	8.67
637.647	8.5
637.977	8.47
638.308	8.26
638.639	8.32
638.969	8.61
639.3	8.56
639.63	8.79
639.961	8.73
640.291	8.56
640.622	8.98
640.952	8.87
641.282	8.82
641.612	8.57
641.943	8.47
642.273	8.8
642.603	8.64
642.933	9.06
643.263	8.82
643.592	8.86
643.922	8.75
644.252	8.8
644.582	8.97
644.911	9.39
645.241	9.14
645.571	8.83
645.9	9.06
646.23	8.67
646.559	8.73
646.888	9.1
647.218	8.9
647.547	9.04
647.876	9.26
648.205	8.74
648.534	8.97
648.863	9.18
649.192	8.85
649.521	9.14
649.85	9.26
650.179	9.58
650.508	9.09
650.837	9.02
651.165	9.78
651.494	9.29
651.822	9.25
652.151	9.15
652.479	9.02
652.808	8.93
653.136	9.52
653.465	9
653.793	9.44
654.121	9.32
654.449	9.57
654.777	9.53
655.105	9.16
655.433	9.42
655.761	9.25
656.089	9.27
656.417	9.33
656.745	9.24
657.073	9.67
657.4	9.41
657.728	9.75
658.056	9.85
658.383	9.87
658.711	9.34
659.038	9.4
659.365	9.01
659.693	9.31
660.02	9.01
660.347	9.74
660.674	9.35
661.001	9.61
661.329	9.88
661.656	9.51
661.982	9.57
662.309	10.02
662.636	9.55
662.963	9.48
663.29	9.44
663.616	9.96
663.943	9.75
664.27	9.77
664.596	9.69
664.923	10.25
665.249	9.69
665.576	9.89
665.902	9.77
666.228	10.04
666.554	10.43
666.881	9.74
667.207	10.22
667.533	10.13
667.859	10.22
668.185	10.78
668.511	10.08
668.837	10.35
669.162	10.07
669.488	10.36
669.814	10.91
670.139	10.52
670.465	9.52
670.791	10.89
671.116	9.65
671.442	10.35
671.767	10.28
672.092	10.03
672.418	10.09
672.743	10.49
673.068	10.46
673.393	10.12
673.718	10.66
674.043	10.62
674.368	10.15
674.693	10.58
675.018	10.76
675.343	11.5
675.667	10.7
675.992	10.86
676.317	10.51
676.641	9.76
676.966	10.69
677.29	10.48
677.615	9.93
677.939	10.53
678.264	10.76
678.588	10.54
678.912	11.11
679.236	10.79
679.56	10.7
679.885	10.52
680.209	10.98
680.532	10.37
680.856	10.61
681.18	10.4
681.504	11.1
681.828	10.91
682.152	10.9
682.475	10.8
682.799	10.79
683.122	10.36
683.446	11.13
683.769	11.06
684.093	10.45
684.416	11.43
684.739	11.49
685.062	11.16
685.386	10.92
685.709	11.41
686.032	11.24
686.355	11.02
686.678	10.55
687.001	10.75
687.324	11.17
687.646	10.72
687.969	11.3
688.292	11.53
688.614	11.45
688.937	11.93
689.26	11.53
689.582	10.99
689.904	11.69
690.227	11.7
690.549	12.02
