Data from 0015_chest_Reflection__1__36.txt Node

Date: Mon Oct 17 14:43:31 CDT 2022
User: ToomeyLab
Spectrometer: FLMS14357
Trigger mode: 0
Integration Time (sec): 1.000000E-2
Scans to average: 100
Electric dark correction enabled: true
Nonlinearity correction enabled: false
Boxcar width: 0
XAxis mode: Wavelengths
Number of Pixels in Spectrum: 2048
>>>>>Begin Spectral Data<<<<<
189.047	-429.55
189.435	-429.55
189.823	-429.55
190.211	-76.27
190.599	83.45
190.987	-153.89
191.375	42.38
191.763	-145.37
192.151	-179.13
192.538	157.31
192.926	1051.15
193.314	168.77
193.702	63.49
194.089	368.14
194.477	26.18
194.864	-68.99
195.252	-334.79
195.639	-3528.06
196.027	56.49
196.414	-52.13
196.801	67.97
197.189	50.32
197.576	69.73
197.963	-94.74
198.351	-119.3
198.738	3.75
199.125	-23.39
199.512	-36.17
199.899	35.41
200.286	-13.35
200.673	-8.01
201.06	5.75
201.447	20.57
201.833	31.96
202.22	58.45
202.607	-25.78
202.994	6.01
203.38	-24.89
203.767	-10.28
204.154	33.83
204.54	18.41
204.927	2.01
205.313	5.52
205.699	8.95
206.086	-113.04
206.472	29.89
206.858	-18.2
207.245	-3.36
207.631	36.85
208.017	23.94
208.403	-8.44
208.789	6.42
209.175	-21.52
209.561	-33.16
209.947	-41.15
210.333	46.69
210.719	26
211.105	-1.79
211.491	0.58
211.876	-60.54
212.262	-6.78
212.648	5.88
213.034	-11.77
213.419	17.58
213.805	-2.59
214.19	25.3
214.576	20.23
214.961	-15.2
215.346	2.76
215.732	-18.95
216.117	-6.49
216.502	8.01
216.888	-8.79
217.273	23.27
217.658	10.45
218.043	-1.51
218.428	-22.98
218.813	16.76
219.198	13.91
219.583	-24.46
219.968	0.24
220.353	-3.46
220.738	-4.23
221.122	8.69
221.507	-12.16
221.892	0.47
222.276	-18.41
222.661	-8.96
223.046	5.54
223.43	4.59
223.815	-8.02
224.199	-2.45
224.583	-12.44
224.968	-9.15
225.352	-19.5
225.736	-5.92
226.121	-5.56
226.505	3.2
226.889	2.38
227.273	0.71
227.657	3.35
228.041	-1.5
228.425	1.65
228.809	2.21
229.193	1.83
229.577	3.05
229.961	2.87
230.344	0.7
230.728	1.19
231.112	1.74
231.495	1.71
231.879	3.09
232.263	2.71
232.646	2.59
233.03	1.92
233.413	-0.38
233.797	2.22
234.18	1.23
234.563	1.84
234.946	1.68
235.33	2.95
235.713	1.13
236.096	3.26
236.479	1.46
236.862	1.17
237.245	1.56
237.628	0.67
238.011	2.08
238.394	2.77
238.777	2.27
239.16	1.32
239.543	0.99
239.925	2
240.308	2.45
240.691	-0.11
241.073	2.68
241.456	1.63
241.838	1.31
242.221	1.27
242.603	2.1
242.986	1.45
243.368	2.68
243.75	1.71
244.133	2.12
244.515	2.33
244.897	2.21
245.279	2.5
245.661	2.58
246.043	2.28
246.425	0.76
246.807	1.62
247.189	2.92
247.571	2.14
247.953	2.01
248.335	2.26
248.717	2.16
249.098	2.33
249.48	2.16
249.862	2.08
250.243	1.76
250.625	2.05
251.006	1.84
251.388	2.37
251.769	2.02
252.151	2.17
252.532	2.47
252.913	2.06
253.295	1.44
253.676	2.28
254.057	2.36
254.438	1.99
254.819	3.24
255.2	1.69
255.581	3.19
255.962	1.05
256.343	1.02
256.724	1.42
257.105	1.35
257.486	1.17
257.867	1.96
258.247	1.39
258.628	2.82
259.009	2.6
259.389	1.72
259.77	1.95
260.15	2.1
260.531	1.45
260.911	1.73
261.292	1.97
261.672	2.07
262.052	2.1
262.432	1.95
262.813	2.01
263.193	1.77
263.573	2.09
263.953	1.84
264.333	1.77
264.713	1.26
265.093	2.18
265.473	2.9
265.853	1.24
266.233	2.94
266.612	1.72
266.992	2.41
267.372	2.22
267.752	2.24
268.131	2.34
268.511	2.18
268.89	2.58
269.27	1.92
269.649	1.55
270.029	2.05
270.408	2.19
270.787	2.16
271.167	2.04
271.546	1.94
271.925	1.87
272.304	1.92
272.683	2.04
273.062	1.97
273.441	1.75
273.82	2.13
274.199	2.19
274.578	2.22
274.957	1.67
275.336	1.98
275.715	2.15
276.093	1.92
276.472	1.64
276.851	2.21
277.229	1.31
277.608	1.44
277.986	1.81
278.365	1.65
278.743	2.24
279.122	1.59
279.5	2.14
279.878	1.98
280.257	2.22
280.635	2.22
281.013	2.12
281.391	1.66
281.769	1.88
282.147	2.05
282.525	1.93
282.903	1.53
283.281	1.82
283.659	1.48
284.037	1.75
284.415	1.9
284.792	1.57
285.17	1.32
285.548	1.32
285.925	2.2
286.303	1.97
286.68	2.06
287.058	2.28
287.435	2.06
287.813	1.86
288.19	1.79
288.567	1.74
288.945	2.15
289.322	2.47
289.699	1.63
290.076	1.77
290.453	1.88
290.83	2.06
291.207	1.94
291.584	1.78
291.961	1.8
292.338	2.05
292.715	1.85
293.092	1.82
293.469	1.64
293.845	1.96
294.222	2.06
294.599	1.95
294.975	1.77
295.352	1.81
295.728	1.47
296.105	1.77
296.481	1.95
296.858	2.43
297.234	2.03
297.61	2.02
297.986	1.83
298.363	2.08
298.739	2.21
299.115	2
299.491	2.31
299.867	1.85
300.243	2.1
300.619	2.01
300.995	1.89
301.371	1.95
301.746	1.59
302.122	1.82
302.498	2.12
302.874	2.08
303.249	2.23
303.625	2.14
304	2.35
304.376	2.23
304.751	1.99
305.127	2.44
305.502	2.05
305.878	2.39
306.253	2.21
306.628	2.39
307.003	2.24
307.378	2.3
307.754	1.6
308.129	1.98
308.504	2.5
308.879	2.02
309.254	2.27
309.629	2.13
310.003	2.29
310.378	2.29
310.753	2.24
311.128	2.55
311.502	2.34
311.877	2.44
312.252	2.21
312.626	2.09
313.001	2.17
313.375	2.02
313.75	2.21
314.124	2.66
314.498	2.09
314.873	2.25
315.247	2.2
315.621	3.04
315.995	2.21
316.369	2
316.743	1.99
317.117	2.59
317.491	2.19
317.865	2.51
318.239	2.56
318.613	2.72
318.987	1.91
319.361	2.13
319.734	2.58
320.108	2.32
320.482	2.41
320.855	1.88
321.229	1.78
321.602	2.22
321.976	1.86
322.349	1.93
322.723	1.97
323.096	2.14
323.469	2.38
323.843	1.75
324.216	2.2
324.589	1.68
324.962	2.16
325.335	1.98
325.708	2.44
326.081	2.11
326.454	2.47
326.827	2.04
327.2	1.92
327.573	2.09
327.945	1.99
328.318	2.26
328.691	2.06
329.063	2.2
329.436	2.33
329.809	2.45
330.181	2.91
330.553	1.79
330.926	2.01
331.298	2.67
331.671	2.6
332.043	2.21
332.415	1.92
332.787	2.53
333.159	2.57
333.532	2.53
333.904	2.42
334.276	2.62
334.648	1.95
335.02	2.39
335.391	2.53
335.763	2.74
336.135	2.12
336.507	2.73
336.879	2.57
337.25	2.52
337.622	2.05
337.993	2.1
338.365	2.3
338.736	2.48
339.108	2.83
339.479	2.12
339.851	2.56
340.222	2.08
340.593	2.58
340.964	2.51
341.336	2.42
341.707	2.48
342.078	2.41
342.449	2.46
342.82	2.74
343.191	2.33
343.562	2.45
343.933	2.46
344.303	1.79
344.674	3.03
345.045	2.5
345.416	2.36
345.786	2.44
346.157	2.52
346.527	2.59
346.898	2.39
347.268	2.73
347.639	2.18
348.009	2.36
348.38	2.4
348.75	2.3
349.12	2.41
349.49	2.34
349.861	2.44
350.231	2.35
350.601	2.28
350.971	2.4
351.341	2
351.711	2.3
352.081	2.17
352.45	2.5
352.82	2.88
353.19	2.18
353.56	2.19
353.929	2.43
354.299	2.62
354.669	2.33
355.038	2.56
355.408	2.77
355.777	2.01
356.147	2.31
356.516	2.33
356.885	2.28
357.254	2.84
357.624	2.8
357.993	2.43
358.362	2.26
358.731	2.45
359.1	2.43
359.469	2.36
359.838	2.75
360.207	2.64
360.576	2.59
360.945	2.48
361.314	2.73
361.682	2.67
362.051	2.51
362.42	2.56
362.788	2.46
363.157	2.61
363.525	2.38
363.894	2.47
364.262	2.63
364.631	2.89
364.999	2.48
365.367	2.51
365.735	2.62
366.104	2.36
366.472	2.36
366.84	2.55
367.208	2.66
367.576	2.53
367.944	2.5
368.312	2.61
368.68	2.62
369.048	2.47
369.416	2.71
369.783	2.57
370.151	2.57
370.519	2.48
370.886	2.51
371.254	2.42
371.621	2.29
371.989	2.55
372.356	2.65
372.724	2.78
373.091	2.47
373.458	2.64
373.826	2.74
374.193	2.87
374.56	2.53
374.927	2.32
375.294	2.38
375.661	2.57
376.028	2.85
376.395	2.56
376.762	2.6
377.129	2.56
377.496	2.27
377.863	2.24
378.229	2.61
378.596	2.53
378.963	2.52
379.329	2.54
379.696	2.45
380.062	2.92
380.429	2.48
380.795	2.49
381.161	2.67
381.528	2.5
381.894	2.73
382.26	2.54
382.626	2.69
382.993	2.76
383.359	2.8
383.725	2.62
384.091	2.79
384.457	2.75
384.823	2.41
385.188	2.38
385.554	2.74
385.92	2.58
386.286	2.6
386.651	2.89
387.017	2.33
387.383	2.79
387.748	2.65
388.114	2.53
388.479	2.71
388.845	2.79
389.21	2.48
389.575	2.55
389.94	2.82
390.306	2.86
390.671	2.78
391.036	2.61
391.401	2.79
391.766	2.71
392.131	2.71
392.496	2.8
392.861	2.58
393.226	2.71
393.591	2.61
393.956	2.72
394.32	2.75
394.685	2.49
395.05	2.77
395.414	2.77
395.779	2.96
396.143	2.82
396.508	2.63
396.872	2.7
397.236	2.81
397.601	2.58
397.965	2.52
398.329	2.84
398.694	2.75
399.058	2.62
399.422	2.84
399.786	2.76
400.15	2.83
400.514	2.78
400.878	2.65
401.242	2.77
401.605	2.97
401.969	2.96
402.333	2.71
402.697	2.63
403.06	2.7
403.424	2.67
403.787	2.65
404.151	2.6
404.514	2.77
404.878	2.79
405.241	2.79
405.604	2.86
405.968	2.79
406.331	2.72
406.694	2.81
407.057	2.68
407.42	2.76
407.783	2.87
408.146	3.02
408.509	3.01
408.872	2.81
409.235	2.78
409.598	2.85
409.961	2.6
410.323	2.83
410.686	2.95
411.049	2.82
411.411	2.86
411.774	2.86
412.136	2.58
412.499	2.98
412.861	2.75
413.223	2.89
413.586	2.92
413.948	2.93
414.31	2.67
414.672	3
415.035	3.14
415.397	2.96
415.759	2.89
416.121	3.02
416.483	2.91
416.845	2.94
417.206	2.87
417.568	2.99
417.93	2.86
418.292	2.96
418.653	2.87
419.015	2.89
419.377	2.82
419.738	2.76
420.1	2.88
420.461	2.77
420.822	2.93
421.184	2.81
421.545	2.88
421.906	2.84
422.267	2.84
422.629	2.81
422.99	2.76
423.351	2.82
423.712	2.87
424.073	2.87
424.434	2.93
424.795	2.89
425.155	2.89
425.516	2.76
425.877	2.84
426.238	2.82
426.598	2.83
426.959	2.81
427.32	2.89
427.68	2.9
428.041	2.73
428.401	3.06
428.761	2.97
429.122	3.12
429.482	2.99
429.842	2.84
430.202	3.05
430.563	2.94
430.923	2.93
431.283	3.09
431.643	3.1
432.003	2.92
432.363	3.05
432.722	3.02
433.082	2.87
433.442	3.14
433.802	2.99
434.161	2.93
434.521	3.15
434.881	2.97
435.24	2.85
435.6	3.14
435.959	3.06
436.319	3.11
436.678	2.87
437.037	3.07
437.396	3.06
437.756	3.19
438.115	2.91
438.474	3.06
438.833	2.99
439.192	2.89
439.551	2.91
439.91	2.99
440.269	2.87
440.628	3.01
440.987	2.98
441.345	2.94
441.704	3.05
442.063	2.92
442.421	3.02
442.78	3.01
443.138	3.01
443.497	3.16
443.855	3.13
444.214	3.12
444.572	3.08
444.93	3.14
445.288	3.12
445.647	3.16
446.005	3.17
446.363	3.15
446.721	3.05
447.079	2.99
447.437	3.04
447.795	3.13
448.153	3.12
448.51	3.06
448.868	3.1
449.226	3.05
449.584	3.21
449.941	3.05
450.299	3.18
450.656	3.06
451.014	3.03
451.371	3.11
451.729	3.11
452.086	3.24
452.443	3.38
452.801	3.21
453.158	3.39
453.515	3.07
453.872	3.13
454.229	3.11
454.586	3.08
454.943	3.09
455.3	3.14
455.657	3.06
456.014	3.07
456.371	3.23
456.727	3.23
457.084	3.21
457.441	3.23
457.797	3.14
458.154	3.19
458.51	3.1
458.867	3.24
459.223	3.29
459.58	3.18
459.936	3.17
460.292	3.2
460.648	3.19
461.005	3.19
461.361	3.1
461.717	3.13
462.073	3.16
462.429	3.21
462.785	3.23
463.141	3.32
463.496	3.2
463.852	3.3
464.208	3.42
464.564	3.24
464.919	3.28
465.275	3.21
465.631	3.31
465.986	3.23
466.342	3.34
466.697	3.42
467.052	3.3
467.408	3.28
467.763	3.02
468.118	3.24
468.473	3.52
468.829	3.38
469.184	3.38
469.539	3.25
469.894	3.42
470.249	3.37
470.603	3.39
470.958	3.44
471.313	3.32
471.668	3.42
472.023	3.38
472.377	3.43
472.732	3.38
473.086	3.43
473.441	3.45
473.795	3.34
474.15	3.35
474.504	3.38
474.859	3.4
475.213	3.5
475.567	3.54
475.921	3.31
476.275	3.28
476.63	3.6
476.984	3.59
477.338	3.42
477.692	3.48
478.045	3.55
478.399	3.34
478.753	3.39
479.107	3.44
479.461	3.46
479.814	3.51
480.168	3.44
480.521	3.5
480.875	3.39
481.228	3.43
481.582	3.57
481.935	3.49
482.289	3.4
482.642	3.41
482.995	3.46
483.348	3.47
483.701	3.39
484.055	3.4
484.408	3.43
484.761	3.4
485.114	3.26
485.466	3.23
485.819	3.24
486.172	3.27
486.525	3.37
486.878	3.44
487.23	3.5
487.583	3.5
487.936	3.44
488.288	3.49
488.641	3.37
488.993	3.37
489.345	3.35
489.698	3.38
490.05	3.36
490.402	3.4
490.754	3.48
491.107	3.49
491.459	3.57
491.811	3.59
492.163	3.54
492.515	3.48
492.866	3.44
493.218	3.45
493.57	3.45
493.922	3.46
494.274	3.54
494.625	3.65
494.977	3.66
495.328	3.61
495.68	3.67
496.031	3.74
496.383	3.73
496.734	3.59
497.086	3.58
497.437	3.63
497.788	3.68
498.139	3.66
498.49	3.64
498.842	3.55
499.193	3.59
499.544	3.7
499.894	3.66
500.245	3.65
500.596	3.81
500.947	3.83
501.298	3.77
501.648	3.69
501.999	3.71
502.35	3.77
502.7	3.83
503.051	3.75
503.401	3.82
503.752	3.91
504.102	3.77
504.452	3.71
504.803	3.91
505.153	3.79
505.503	3.86
505.853	3.76
506.203	3.75
506.553	3.89
506.903	3.82
507.253	3.76
507.603	3.81
507.953	3.88
508.303	3.86
508.652	3.92
509.002	3.9
509.352	3.94
509.701	3.83
510.051	3.97
510.4	3.82
510.75	3.82
511.099	3.85
511.449	3.87
511.798	3.87
512.147	3.89
512.496	3.97
512.846	3.95
513.195	3.9
513.544	3.96
513.893	3.98
514.242	4.02
514.591	3.92
514.939	3.98
515.288	3.94
515.637	3.99
515.986	4.12
516.334	4.03
516.683	4.07
517.032	4.05
517.38	3.89
517.729	3.99
518.077	4.09
518.426	4.03
518.774	4
519.122	3.98
519.47	3.97
519.819	4.14
520.167	4.04
520.515	4
520.863	4.06
521.211	4.09
521.559	4.03
521.907	4.13
522.255	4.15
522.602	4.09
522.95	4.2
523.298	4.08
523.645	4.21
523.993	4.18
524.341	4.32
524.688	4.2
525.036	4.32
525.383	4.26
525.73	4.23
526.078	4.23
526.425	4.18
526.772	4.28
527.119	4.14
527.466	4.12
527.814	4.15
528.161	4.24
528.508	4.16
528.854	4.18
529.201	4.2
529.548	4.13
529.895	4.13
530.242	4.06
530.588	4.08
530.935	4.14
531.282	4.21
531.628	4.28
531.975	4.34
532.321	4.26
532.667	4.38
533.014	4.46
533.36	4.42
533.706	4.45
534.052	4.4
534.399	4.34
534.745	4.28
535.091	4.3
535.437	4.33
535.783	4.42
536.129	4.46
536.474	4.53
536.82	4.57
537.166	4.59
537.512	4.54
537.857	4.6
538.203	4.54
538.549	4.48
538.894	4.51
539.239	4.52
539.585	4.49
539.93	4.7
540.276	4.67
540.621	4.6
540.966	4.76
541.311	4.68
541.656	4.7
542.001	4.75
542.346	4.65
542.691	4.63
543.036	4.47
543.381	4.55
543.726	4.6
544.071	4.62
544.415	4.69
544.76	4.75
545.105	4.63
545.449	4.8
545.794	4.78
546.138	4.81
546.483	4.84
546.827	4.89
547.171	4.76
547.516	4.93
547.86	4.9
548.204	4.89
548.548	4.86
548.892	4.95
549.236	4.87
549.58	4.99
549.924	4.94
550.268	5.08
550.612	5.12
550.956	5.17
551.3	4.98
551.643	5.32
551.987	5.16
552.33	5.07
552.674	5.16
553.017	5.25
553.361	5.12
553.704	5.09
554.048	5.06
554.391	5.09
554.734	5.13
555.077	5.19
555.42	5.17
555.764	5.15
556.107	5.27
556.45	5.38
556.793	5.18
557.135	5.42
557.478	5.38
557.821	5.47
558.164	5.43
558.507	5.34
558.849	5.2
559.192	5.4
559.534	5.37
559.877	5.28
560.219	5.21
560.562	5.08
560.904	5.5
561.246	5.65
561.589	5.48
561.931	5.54
562.273	5.69
562.615	5.46
562.957	5.64
563.299	5.53
563.641	5.64
563.983	5.7
564.325	5.72
564.667	5.65
565.008	5.86
565.35	5.79
565.692	5.76
566.033	5.7
566.375	5.64
566.716	5.87
567.058	5.71
567.399	5.73
567.741	5.74
568.082	5.73
568.423	5.78
568.764	5.88
569.105	5.82
569.447	5.94
569.788	5.9
570.129	6.07
570.47	5.85
570.811	5.91
571.151	5.96
571.492	6.12
571.833	6.1
572.174	6.15
572.514	6
572.855	6.04
573.195	6.02
573.536	6.05
573.876	5.99
574.217	6.11
574.557	5.93
574.898	6.11
575.238	6.19
575.578	6.09
575.918	6.34
576.258	6.21
576.598	6.19
576.938	6.37
577.278	6.27
577.618	6.38
577.958	6.19
578.298	6.38
578.638	6.41
578.977	6.43
579.317	6.23
579.657	6.26
579.996	6.3
580.336	6.38
580.675	6.59
581.014	6.35
581.354	6.41
581.693	6.39
582.032	6.45
582.372	6.53
582.711	6.61
583.05	6.53
583.389	6.61
583.728	6.65
584.067	6.65
584.406	6.44
584.745	6.81
585.083	6.87
585.422	6.81
585.761	6.74
586.1	7.01
586.438	6.78
586.777	6.88
587.115	6.81
587.454	7.02
587.792	6.95
588.13	6.98
588.469	6.96
588.807	7.06
589.145	7.04
589.483	6.83
589.821	7.01
590.159	7.06
590.497	6.95
590.835	7.12
591.173	7.17
591.511	7.28
591.849	7.23
592.187	7.18
592.524	7.08
592.862	7.15
593.2	7.18
593.537	7.42
593.875	7.14
594.212	7.35
594.55	7.29
594.887	7.53
595.224	7.49
595.561	7.28
595.899	7.24
596.236	7.59
596.573	7.34
596.91	7.42
597.247	7.5
597.584	7.55
597.921	7.48
598.258	7.49
598.594	7.5
598.931	7.44
599.268	7.35
599.604	7.72
599.941	7.78
600.277	7.68
600.614	7.71
600.95	7.73
601.287	7.48
601.623	7.8
601.959	7.84
602.296	7.69
602.632	7.51
602.968	7.84
603.304	7.91
603.64	7.69
603.976	7.69
604.312	7.96
604.648	7.97
604.984	7.89
605.319	7.58
605.655	8.1
605.991	8.12
606.326	7.98
606.662	8.01
606.998	8
607.333	8.06
607.668	8.01
608.004	8.13
608.339	8.36
608.674	8.19
609.01	8.29
609.345	8.34
609.68	8.31
610.015	8.71
610.35	8.08
610.685	8.24
611.02	8.44
611.355	8.45
611.689	8.17
612.024	8.47
612.359	8.35
612.694	8.57
613.028	8.48
613.363	8.58
613.697	8.45
614.032	8.82
614.366	8.62
614.7	8.66
615.035	8.67
615.369	8.75
615.703	8.6
616.037	9.02
616.371	8.41
616.705	8.71
617.039	8.99
617.373	8.99
617.707	8.97
618.041	8.85
618.375	8.62
618.709	8.85
619.042	9.15
619.376	8.97
619.71	8.86
620.043	8.96
620.377	9.35
620.71	9.4
621.043	9.49
621.377	9.26
621.71	9.33
622.043	9.15
622.376	9.17
622.709	9.11
623.043	9.11
623.376	8.93
623.709	9.17
624.041	9.17
624.374	9.4
624.707	9.26
625.04	9.3
625.373	9.81
625.705	9.22
626.038	9.09
626.37	9.39
626.703	9.7
627.035	9.22
627.368	9.41
627.7	9.28
628.032	9.56
628.365	9.47
628.697	9.51
629.029	9.79
629.361	9.81
629.693	9.79
630.025	9.28
630.357	9.54
630.689	9.55
631.021	9.82
631.353	9.57
631.684	9.45
632.016	9.62
632.348	9.98
632.679	10.02
633.011	9.57
633.342	10.2
633.674	10.39
634.005	9.87
634.336	9.64
634.668	10.36
634.999	10.01
635.33	9.94
635.661	10.32
635.992	10.11
636.323	10.26
636.654	10.16
636.985	9.87
637.316	10.1
637.647	10.36
637.977	10.06
638.308	10.07
638.639	10.26
638.969	10.21
639.3	10.17
639.63	10.43
639.961	10.08
640.291	10.29
640.622	10.07
640.952	10.33
641.282	10.42
641.612	10.46
641.943	10.23
642.273	10.47
642.603	10.66
642.933	10.53
643.263	10.69
643.592	10.95
643.922	10.72
644.252	10.84
644.582	10.87
644.911	10.68
645.241	11.09
645.571	10.56
645.9	10.57
646.23	10.76
646.559	10.69
646.888	10.56
647.218	10.81
647.547	11.16
647.876	10.91
648.205	10.74
648.534	10.95
648.863	10.98
649.192	11.12
649.521	11.1
649.85	10.94
650.179	11.13
650.508	10.96
650.837	11.02
651.165	11.2
651.494	11.64
651.822	11.43
652.151	11.1
652.479	11.51
652.808	11.16
653.136	11.42
653.465	11.34
653.793	11.61
654.121	11.35
654.449	11.4
654.777	11.37
655.105	11.42
655.433	11.32
655.761	11.33
656.089	11.54
656.417	11.54
656.745	11.14
657.073	11.74
657.4	11.61
657.728	11.71
658.056	11.67
658.383	11.8
658.711	11.94
659.038	11.92
659.365	11.38
659.693	11.87
660.02	11.73
660.347	12.25
660.674	12.28
661.001	11.98
661.329	12.07
661.656	12.26
661.982	11.76
662.309	12.32
662.636	12.18
662.963	12.09
663.29	12.33
663.616	12.15
663.943	11.78
664.27	12.11
664.596	11.63
664.923	11.51
665.249	12.33
665.576	12.15
665.902	12.33
666.228	12.18
666.554	12.51
666.881	12.5
667.207	12.94
667.533	12.46
667.859	12.59
668.185	12.88
668.511	12.58
668.837	12.47
669.162	12.52
669.488	12.63
669.814	12.55
670.139	12.78
670.465	12.3
670.791	12.21
671.116	12.66
671.442	12.9
671.767	12.64
672.092	12.37
672.418	12.61
672.743	12.31
673.068	12.59
673.393	12.14
673.718	12.43
674.043	13.08
674.368	12.3
674.693	12.62
675.018	13.27
675.343	13.34
675.667	12.76
675.992	12.67
676.317	12.91
676.641	12.9
676.966	13.24
677.29	12.88
677.615	12.99
677.939	13
678.264	13.14
678.588	13.36
678.912	13.4
679.236	13.39
679.56	12.65
679.885	12.82
680.209	12.94
680.532	13.08
680.856	13.2
681.18	12.69
681.504	13.56
681.828	13.49
682.152	13.48
682.475	13.17
682.799	13.64
683.122	12.79
683.446	14.02
683.769	13.75
684.093	13.14
684.416	13.76
684.739	13.87
685.062	13.68
685.386	14.21
685.709	13.73
686.032	14.24
686.355	13.56
686.678	13.9
687.001	13.26
687.324	13.66
687.646	12.69
687.969	13.9
