Data from 0015_chest_Reflection__2__37.txt Node

Date: Mon Oct 17 14:43:42 CDT 2022
User: ToomeyLab
Spectrometer: FLMS14357
Trigger mode: 0
Integration Time (sec): 1.000000E-2
Scans to average: 100
Electric dark correction enabled: true
Nonlinearity correction enabled: false
Boxcar width: 0
XAxis mode: Wavelengths
Number of Pixels in Spectrum: 2048
>>>>>Begin Spectral Data<<<<<
189.047	514.09
189.435	514.09
189.823	514.09
190.211	251.22
190.599	-7.69
190.987	405.62
191.375	-37.48
191.763	-143.12
192.151	-723.76
192.538	-38.55
192.926	-725.77
193.314	658.21
193.702	328.44
194.089	-155.27
194.477	3.94
194.864	10.41
195.252	-32.73
195.639	-652.55
196.027	67.47
196.414	-5.97
196.801	-123.51
197.189	796.73
197.576	100.57
197.963	208.5
198.351	-96.83
198.738	43.23
199.125	22.08
199.512	-39.72
199.899	33.82
200.286	-31.32
200.673	1.12
201.06	-22.58
201.447	-10.9
201.833	34.33
202.22	7.3
202.607	-124.13
202.994	13.14
203.38	13.06
203.767	16.6
204.154	31.73
204.54	-33.97
204.927	-7.33
205.313	-15.05
205.699	3.9
206.086	-12.39
206.472	17.4
206.858	30.37
207.245	16.42
207.631	15.53
208.017	27.96
208.403	31.54
208.789	34.08
209.175	-15.15
209.561	-49.98
209.947	-30.36
210.333	9.38
210.719	-0.08
211.105	19.94
211.491	-2.26
211.876	-29.42
212.262	8.96
212.648	11.4
213.034	-37.78
213.419	35.39
213.805	22.74
214.19	21.98
214.576	2.93
214.961	-17.95
215.346	18.29
215.732	-26.29
216.117	-0.63
216.502	19.31
216.888	-0.24
217.273	12.6
217.658	25.21
218.043	11.78
218.428	-24.76
218.813	8.18
219.198	4.26
219.583	7.06
219.968	6.97
220.353	-3.2
220.738	-5.64
221.122	3.62
221.507	7.87
221.892	8.18
222.276	-16.42
222.661	-6.48
223.046	7.67
223.43	0.77
223.815	0.29
224.199	13.5
224.583	1.15
224.968	-8.78
225.352	-13.17
225.736	6.94
226.121	-1.35
226.505	4.04
226.889	5.63
227.273	7.18
227.657	8.19
228.041	8.35
228.425	4.61
228.809	4.47
229.193	3.17
229.577	5.52
229.961	4.02
230.344	2.73
230.728	3.04
231.112	3.87
231.495	2.97
231.879	3.51
232.263	4.24
232.646	4.16
233.03	2.29
233.413	1.41
233.797	2.2
234.18	4.85
234.563	0.69
234.946	4.44
235.33	1.94
235.713	2.97
236.096	3.91
236.479	3.57
236.862	2.15
237.245	2.53
237.628	3.29
238.011	3.92
238.394	2.99
238.777	5.12
239.16	4.12
239.543	2.79
239.925	5.8
240.308	3.91
240.691	3.43
241.073	3.3
241.456	3.04
241.838	3.61
242.221	3.1
242.603	2.88
242.986	3.33
243.368	3.45
243.75	3.55
244.133	3.67
244.515	3.43
244.897	4.17
245.279	3.73
245.661	3.84
246.043	4.59
246.425	2.83
246.807	3.16
247.189	3.97
247.571	3.17
247.953	3.07
248.335	3.22
248.717	3.53
249.098	3.69
249.48	3.46
249.862	3.2
250.243	3.06
250.625	3.58
251.006	3.31
251.388	3.66
251.769	3.7
252.151	4.02
252.532	3.88
252.913	2.93
253.295	2.94
253.676	4.02
254.057	3.98
254.438	3.75
254.819	3.88
255.2	4.78
255.581	3.93
255.962	2.66
256.343	3.26
256.724	3.32
257.105	4.43
257.486	2.4
257.867	3.63
258.247	3.25
258.628	3.66
259.009	3.99
259.389	2.66
259.77	3.77
260.15	3.57
260.531	3.39
260.911	3.28
261.292	3.37
261.672	3.1
262.052	3.19
262.432	3.3
262.813	3.31
263.193	3.53
263.573	4.19
263.953	3.47
264.333	3.49
264.713	2.77
265.093	3.26
265.473	2.97
265.853	2.95
266.233	4.26
266.612	3.18
266.992	3.7
267.372	3.98
267.752	3.84
268.131	3.13
268.511	3.51
268.89	3.24
269.27	3.31
269.649	3.43
270.029	3.36
270.408	3.54
270.787	3.72
271.167	3.39
271.546	2.88
271.925	3.59
272.304	3.28
272.683	3.35
273.062	3.32
273.441	3.08
273.82	3.14
274.199	3.45
274.578	3.24
274.957	3.13
275.336	3.5
275.715	2.57
276.093	3
276.472	3.08
276.851	3.62
277.229	3.03
277.608	3.17
277.986	3.18
278.365	3.26
278.743	2.99
279.122	3.05
279.5	3.15
279.878	3.52
280.257	2.64
280.635	2.99
281.013	3.13
281.391	3.2
281.769	3.09
282.147	3.35
282.525	3.16
282.903	2.74
283.281	2.85
283.659	3.02
284.037	2.65
284.415	3.33
284.792	3.3
285.17	2.49
285.548	2.74
285.925	3.04
286.303	2.97
286.68	3.25
287.058	3.61
287.435	3.27
287.813	3.19
288.19	3.32
288.567	3.1
288.945	3.59
289.322	3.61
289.699	3.23
290.076	3.2
290.453	3.22
290.83	3.23
291.207	3.29
291.584	3.17
291.961	3.09
292.338	3.37
292.715	3.27
293.092	3.58
293.469	3.63
293.845	3.79
294.222	3.28
294.599	3.63
294.975	2.93
295.352	3.47
295.728	3.01
296.105	3.16
296.481	3.22
296.858	3.73
297.234	3.26
297.61	3.14
297.986	3.18
298.363	3.36
298.739	3.65
299.115	3.33
299.491	3.4
299.867	3.34
300.243	3.56
300.619	2.7
300.995	3.18
301.371	3.23
301.746	2.82
302.122	3.22
302.498	3.21
302.874	3.78
303.249	3.5
303.625	3.98
304	3.48
304.376	3.59
304.751	3.93
305.127	3.83
305.502	3.38
305.878	3.48
306.253	3.23
306.628	3.45
307.003	3.32
307.378	3.63
307.754	3.41
308.129	3.09
308.504	3.41
308.879	3.32
309.254	3.17
309.629	3.15
310.003	3.58
310.378	3.45
310.753	3.19
311.128	3.7
311.502	3.52
311.877	3.51
312.252	3.59
312.626	3.5
313.001	3.27
313.375	3.57
313.75	3.35
314.124	3.73
314.498	3.47
314.873	3.42
315.247	3.72
315.621	3.83
315.995	3.38
316.369	3.43
316.743	3.87
317.117	3.78
317.491	3.82
317.865	3.51
318.239	4.2
318.613	3.6
318.987	3.25
319.361	3.19
319.734	4.14
320.108	3.39
320.482	3.24
320.855	3.33
321.229	3.72
321.602	3.79
321.976	3.19
322.349	3.12
322.723	3.01
323.096	3.43
323.469	3.41
323.843	3.29
324.216	3.97
324.589	3.11
324.962	3.8
325.335	3.42
325.708	3.65
326.081	3.53
326.454	3.94
326.827	3.38
327.2	3.48
327.573	3.58
327.945	3.28
328.318	3.58
328.691	3.83
329.063	3.54
329.436	3.42
329.809	3.26
330.181	3.95
330.553	3.32
330.926	3.7
331.298	4.1
331.671	4.07
332.043	3.38
332.415	3.31
332.787	3.64
333.159	3.61
333.532	3.12
333.904	3.42
334.276	3.43
334.648	3.14
335.02	3.76
335.391	3.73
335.763	3.65
336.135	3.6
336.507	4.02
336.879	4.05
337.25	3.86
337.622	3.59
337.993	3.61
338.365	3.47
338.736	3.4
339.108	3.58
339.479	3.29
339.851	3.75
340.222	3.52
340.593	3.73
340.964	3.77
341.336	3.33
341.707	3.97
342.078	3.96
342.449	3.86
342.82	3.83
343.191	3.59
343.562	3.89
343.933	3.63
344.303	3.44
344.674	4.03
345.045	4.18
345.416	3.83
345.786	3.68
346.157	3.94
346.527	3.77
346.898	3.87
347.268	4.27
347.639	3.4
348.009	3.72
348.38	3.99
348.75	3.58
349.12	3.74
349.49	3.55
349.861	4.15
350.231	3.73
350.601	3.93
350.971	3.61
351.341	3.69
351.711	3.31
352.081	3.59
352.45	3.57
352.82	3.66
353.19	3.46
353.56	3.62
353.929	3.73
354.299	3.89
354.669	3.72
355.038	3.85
355.408	3.89
355.777	3.54
356.147	3.74
356.516	3.82
356.885	3.94
357.254	3.68
357.624	3.92
357.993	3.86
358.362	3.5
358.731	3.59
359.1	3.89
359.469	3.86
359.838	4.03
360.207	3.83
360.576	3.36
360.945	3.73
361.314	4.09
361.682	3.69
362.051	3.82
362.42	3.73
362.788	3.7
363.157	3.97
363.525	3.71
363.894	3.92
364.262	3.93
364.631	3.92
364.999	3.85
365.367	3.65
365.735	3.58
366.104	3.6
366.472	3.55
366.84	3.79
367.208	3.88
367.576	3.93
367.944	3.91
368.312	3.79
368.68	3.84
369.048	4.02
369.416	3.89
369.783	3.88
370.151	3.89
370.519	3.97
370.886	4.18
371.254	3.91
371.621	4.01
371.989	4.04
372.356	3.81
372.724	3.86
373.091	3.79
373.458	3.89
373.826	3.89
374.193	3.99
374.56	4.18
374.927	4.08
375.294	3.84
375.661	3.77
376.028	4
376.395	3.95
376.762	3.9
377.129	3.54
377.496	3.5
377.863	3.63
378.229	3.9
378.596	3.82
378.963	3.83
379.329	3.81
379.696	3.94
380.062	4.25
380.429	3.77
380.795	4.09
381.161	4.13
381.528	3.87
381.894	3.69
382.26	4.06
382.626	4.06
382.993	3.94
383.359	4.09
383.725	4.07
384.091	4.08
384.457	3.84
384.823	3.87
385.188	3.78
385.554	3.98
385.92	3.97
386.286	3.78
386.651	3.9
387.017	3.79
387.383	3.81
387.748	3.75
388.114	3.89
388.479	4.05
388.845	4
389.21	4.04
389.575	3.85
389.94	4.15
390.306	4.34
390.671	4.35
391.036	4.13
391.401	3.88
391.766	4.09
392.131	4.21
392.496	4.18
392.861	3.67
393.226	3.97
393.591	3.67
393.956	3.82
394.32	4.07
394.685	3.83
395.05	3.92
395.414	4.11
395.779	3.88
396.143	4.03
396.508	3.98
396.872	4
397.236	3.83
397.601	4.17
397.965	3.94
398.329	4.26
398.694	3.9
399.058	4.1
399.422	4.28
399.786	4.03
400.15	4.07
400.514	3.95
400.878	3.92
401.242	3.97
401.605	4.04
401.969	4.06
402.333	4.09
402.697	4.03
403.06	3.83
403.424	4.04
403.787	3.78
404.151	3.79
404.514	4.24
404.878	4.08
405.241	4.12
405.604	3.99
405.968	4.14
406.331	4.05
406.694	3.99
407.057	3.82
407.42	4
407.783	4.16
408.146	4.24
408.509	4.29
408.872	4.08
409.235	3.97
409.598	4.21
409.961	3.77
410.323	4.02
410.686	3.89
411.049	4.13
411.411	4.24
411.774	4.07
412.136	4.01
412.499	4.17
412.861	4.07
413.223	4.02
413.586	4.1
413.948	3.94
414.31	3.97
414.672	4.13
415.035	4.17
415.397	4.2
415.759	4.16
416.121	4.22
416.483	4.1
416.845	4.24
417.206	4.16
417.568	4.17
417.93	4.24
418.292	4.19
418.653	4.14
419.015	4.07
419.377	4.2
419.738	4.06
420.1	4.15
420.461	4.15
420.822	4.19
421.184	4.01
421.545	4.06
421.906	4.14
422.267	4.04
422.629	3.99
422.99	4.02
423.351	4.07
423.712	4.1
424.073	4.02
424.434	4.19
424.795	4.14
425.155	4.12
425.516	4.05
425.877	4.06
426.238	4.07
426.598	4.16
426.959	4.06
427.32	4.08
427.68	4.09
428.041	4.07
428.401	4.31
428.761	4.19
429.122	4.29
429.482	4.1
429.842	4.19
430.202	4.37
430.563	4.32
430.923	4.18
431.283	4.36
431.643	4.05
432.003	4.28
432.363	4.52
432.722	4.27
433.082	4.14
433.442	4.33
433.802	4.07
434.161	4.14
434.521	4.27
434.881	4.14
435.24	4.08
435.6	4.28
435.959	4.16
436.319	4.24
436.678	4.22
437.037	4.29
437.396	4.08
437.756	4.43
438.115	4.07
438.474	4.22
438.833	4.06
439.192	4.14
439.551	4.11
439.91	4.32
440.269	4.2
440.628	4.19
440.987	4.23
441.345	4.25
441.704	4.24
442.063	4.13
442.421	4.26
442.78	4.18
443.138	4.32
443.497	4.31
443.855	4.28
444.214	4.3
444.572	4.31
444.93	4.43
445.288	4.28
445.647	4.2
446.005	4.46
446.363	4.31
446.721	4.28
447.079	4.17
447.437	4.24
447.795	4.26
448.153	4.37
448.51	4.24
448.868	4.22
449.226	4.2
449.584	4.31
449.941	4.28
450.299	4.41
450.656	4.36
451.014	4.36
451.371	4.49
451.729	4.55
452.086	4.27
452.443	4.58
452.801	4.44
453.158	4.45
453.515	4.36
453.872	4.37
454.229	4.31
454.586	4.39
454.943	4.47
455.3	4.45
455.657	4.35
456.014	4.62
456.371	4.52
456.727	4.37
457.084	4.42
457.441	4.4
457.797	4.47
458.154	4.54
458.51	4.45
458.867	4.44
459.223	4.4
459.58	4.41
459.936	4.33
460.292	4.46
460.648	4.49
461.005	4.39
461.361	4.36
461.717	4.25
462.073	4.3
462.429	4.43
462.785	4.46
463.141	4.6
463.496	4.39
463.852	4.5
464.208	4.56
464.564	4.63
464.919	4.43
465.275	4.55
465.631	4.57
465.986	4.57
466.342	4.59
466.697	4.51
467.052	4.69
467.408	4.55
467.763	4.39
468.118	4.5
468.473	4.64
468.829	4.66
469.184	4.49
469.539	4.4
469.894	4.56
470.249	4.57
470.603	4.55
470.958	4.65
471.313	4.59
471.668	4.52
472.023	4.48
472.377	4.56
472.732	4.47
473.086	4.58
473.441	4.61
473.795	4.61
474.15	4.51
474.504	4.59
474.859	4.77
475.213	4.63
475.567	4.81
475.921	4.69
476.275	4.54
476.63	4.48
476.984	4.71
477.338	4.67
477.692	4.67
478.045	4.69
478.399	4.73
478.753	4.58
479.107	4.65
479.461	4.57
479.814	4.67
480.168	4.58
480.521	4.56
480.875	4.6
481.228	4.69
481.582	4.77
481.935	4.72
482.289	4.5
482.642	4.68
482.995	4.69
483.348	4.73
483.701	4.58
484.055	4.56
484.408	4.64
484.761	4.45
485.114	4.45
485.466	4.41
485.819	4.36
486.172	4.42
486.525	4.47
486.878	4.5
487.23	4.54
487.583	4.67
487.936	4.57
488.288	4.59
488.641	4.51
488.993	4.49
489.345	4.53
489.698	4.52
490.05	4.51
490.402	4.56
490.754	4.58
491.107	4.63
491.459	4.65
491.811	4.74
492.163	4.7
492.515	4.6
492.866	4.63
493.218	4.59
493.57	4.63
493.922	4.63
494.274	4.66
494.625	4.63
494.977	4.76
495.328	4.75
495.68	4.83
496.031	4.89
496.383	4.8
496.734	4.92
497.086	4.83
497.437	4.86
497.788	4.87
498.139	4.75
498.49	4.77
498.842	4.78
499.193	4.77
499.544	4.77
499.894	4.84
500.245	4.92
500.596	4.87
500.947	4.97
501.298	4.94
501.648	4.79
501.999	4.9
502.35	4.97
502.7	4.92
503.051	5.01
503.401	5.15
503.752	5.14
504.102	4.97
504.452	4.91
504.803	4.91
505.153	4.95
505.503	4.92
505.853	4.95
506.203	5.02
506.553	5.01
506.903	4.97
507.253	5.07
507.603	5.1
507.953	5.13
508.303	5.11
508.652	5.11
509.002	5.1
509.352	4.95
509.701	5.09
510.051	5.21
510.4	4.89
510.75	5.08
511.099	5.02
511.449	5.1
511.798	5.1
512.147	5.02
512.496	5.05
512.846	5.06
513.195	5.18
513.544	5.06
513.893	5.18
514.242	5.13
514.591	5.15
514.939	5.05
515.288	5.13
515.637	5.1
515.986	5.2
516.334	5.27
516.683	5.25
517.032	5.16
517.38	5.12
517.729	5.22
518.077	5.26
518.426	5.05
518.774	5.13
519.122	5.14
519.47	5.19
519.819	5.23
520.167	5.12
520.515	5.13
520.863	5.18
521.211	5.19
521.559	5.24
521.907	5.3
522.255	5.3
522.602	5.23
522.95	5.27
523.298	5.19
523.645	5.36
523.993	5.41
524.341	5.33
524.688	5.36
525.036	5.37
525.383	5.4
525.73	5.45
526.078	5.41
526.425	5.44
526.772	5.38
527.119	5.28
527.466	5.27
527.814	5.37
528.161	5.39
528.508	5.41
528.854	5.34
529.201	5.35
529.548	5.34
529.895	5.23
530.242	5.22
530.588	5.2
530.935	5.27
531.282	5.3
531.628	5.29
531.975	5.38
532.321	5.39
532.667	5.58
533.014	5.58
533.36	5.54
533.706	5.59
534.052	5.44
534.399	5.46
534.745	5.42
535.091	5.49
535.437	5.56
535.783	5.53
536.129	5.58
536.474	5.61
536.82	5.65
537.166	5.66
537.512	5.67
537.857	5.64
538.203	5.59
538.549	5.59
538.894	5.67
539.239	5.77
539.585	5.77
539.93	5.74
540.276	5.73
540.621	5.8
540.966	5.81
541.311	5.77
541.656	5.84
542.001	5.86
542.346	5.7
542.691	5.74
543.036	5.67
543.381	5.72
543.726	5.72
544.071	5.8
544.415	5.82
544.76	5.86
545.105	5.82
545.449	5.92
545.794	5.87
546.138	5.97
546.483	6
546.827	6.1
547.171	6.01
547.516	6.07
547.86	6.1
548.204	6.03
548.548	6.06
548.892	6.08
549.236	6.01
549.58	6.05
549.924	6.12
550.268	6.11
550.612	6.15
550.956	6.33
551.3	6.24
551.643	6.23
551.987	6.38
552.33	6.42
552.674	6.28
553.017	6.59
553.361	6.33
553.704	6.33
554.048	6.35
554.391	6.41
554.734	6.35
555.077	6.43
555.42	6.49
555.764	6.44
556.107	6.49
556.45	6.45
556.793	6.38
557.135	6.64
557.478	6.51
557.821	6.61
558.164	6.57
558.507	6.54
558.849	6.63
559.192	6.57
559.534	6.58
559.877	6.6
560.219	6.41
560.562	6.56
560.904	6.68
561.246	6.76
561.589	6.79
561.931	6.6
562.273	6.84
562.615	6.75
562.957	6.97
563.299	6.91
563.641	6.79
563.983	6.91
564.325	7.05
564.667	6.95
565.008	7.09
565.35	6.96
565.692	6.97
566.033	6.86
566.375	6.83
566.716	6.99
567.058	6.95
567.399	6.91
567.741	6.93
568.082	7.03
568.423	7.11
568.764	6.95
569.105	7.09
569.447	6.93
569.788	7.2
570.129	7.27
570.47	7.22
570.811	7.18
571.151	7.05
571.492	7.27
571.833	7.22
572.174	7.33
572.514	7.4
572.855	7.23
573.195	7.3
573.536	7.31
573.876	7.35
574.217	7.36
574.557	7.34
574.898	7.32
575.238	7.43
575.578	7.52
575.918	7.39
576.258	7.51
576.598	7.45
576.938	7.6
577.278	7.6
577.618	7.76
577.958	7.44
578.298	7.68
578.638	7.63
578.977	7.83
579.317	7.48
579.657	7.64
579.996	7.54
580.336	7.72
580.675	7.53
581.014	7.7
581.354	7.77
581.693	7.73
582.032	7.91
582.372	7.76
582.711	7.65
583.05	7.66
583.389	7.64
583.728	8.1
584.067	7.96
584.406	7.65
584.745	8.04
585.083	8.06
585.422	8.27
585.761	7.98
586.1	8.1
586.438	8.33
586.777	8.46
587.115	8.18
587.454	8.36
587.792	8.21
588.13	8.23
588.469	8.53
588.807	8.45
589.145	8.43
589.483	8.33
589.821	8.37
590.159	8.47
590.497	8.51
590.835	8.52
591.173	8.49
591.511	8.48
591.849	8.49
592.187	8.41
592.524	8.51
592.862	8.49
593.2	8.37
593.537	8.68
593.875	8.5
594.212	8.55
594.55	8.49
594.887	8.76
595.224	8.84
595.561	8.64
595.899	8.98
596.236	9.06
596.573	8.68
596.91	8.71
597.247	8.91
597.584	8.85
597.921	8.93
598.258	8.67
598.594	8.76
598.931	8.79
599.268	8.75
599.604	8.94
599.941	8.88
600.277	9.03
600.614	9.31
600.95	9.03
601.287	8.86
601.623	8.8
601.959	9.32
602.296	9.05
602.632	8.95
602.968	9.05
603.304	9.21
603.64	9.44
603.976	9.2
604.312	9.46
604.648	9.45
604.984	9.25
605.319	9.28
605.655	9.21
605.991	9.41
606.326	9.21
606.662	9.34
606.998	9.45
607.333	9.47
607.668	9.26
608.004	9.49
608.339	9.48
608.674	9.65
609.01	9.58
609.345	9.84
609.68	9.77
610.015	10.1
610.35	9.66
610.685	9.52
611.02	9.9
611.355	9.63
611.689	9.77
612.024	9.85
612.359	9.73
612.694	9.81
613.028	9.78
613.363	10.08
613.697	10.16
614.032	10.19
614.366	9.83
614.7	9.98
615.035	9.86
615.369	10.2
615.703	10.14
616.037	10.39
616.371	10.19
616.705	10.44
617.039	10.56
617.373	10.36
617.707	10.22
618.041	10.55
618.375	9.76
618.709	10.55
619.042	10.67
619.376	10.38
619.71	10.6
620.043	10.33
620.377	10.59
620.71	10.7
621.043	10.7
621.377	10.84
621.71	10.76
622.043	10.74
622.376	10.67
622.709	10.84
623.043	10.26
623.376	10.59
623.709	10.67
624.041	10.74
624.374	10.93
624.707	11.01
625.04	10.98
625.373	10.95
625.705	10.71
626.038	10.79
626.37	11.26
626.703	11.38
627.035	11.03
627.368	10.97
627.7	10.95
628.032	11.09
628.365	11.05
628.697	10.86
629.029	11.23
629.361	11.07
629.693	11.3
630.025	11.13
630.357	11.26
630.689	11.12
631.021	11.3
631.353	11.07
631.684	11.33
632.016	11.12
632.348	11.74
632.679	11.23
633.011	11.31
633.342	11.58
633.674	11.84
634.005	11.39
634.336	11.13
634.668	11.68
634.999	11.68
635.33	11.32
635.661	11.83
635.992	11.52
636.323	11.68
636.654	11.69
636.985	11.81
637.316	11.76
637.647	11.69
637.977	11.89
638.308	11.76
638.639	11.64
638.969	11.87
639.3	11.82
639.63	12.05
639.961	11.83
640.291	11.55
640.622	11.63
640.952	12.08
641.282	12.14
641.612	12.16
641.943	11.95
642.273	12.09
642.603	12.02
642.933	12.31
643.263	12.43
643.592	12.25
643.922	12.42
644.252	12.33
644.582	12.63
644.911	12.42
645.241	12.49
645.571	12.2
645.9	12.18
646.23	12.62
646.559	12.51
646.888	12.23
647.218	12.45
647.547	12.63
647.876	12.61
648.205	12.51
648.534	12.7
648.863	12.59
649.192	12.52
649.521	12.18
649.85	12.66
650.179	12.85
650.508	12.59
650.837	12.5
651.165	12.82
651.494	13.15
651.822	12.82
652.151	12.5
652.479	12.88
652.808	12.63
653.136	12.82
653.465	12.89
653.793	13.12
654.121	13.2
654.449	13.31
654.777	13.44
655.105	12.82
655.433	13.01
655.761	12.7
656.089	13.17
656.417	13.24
656.745	13.29
657.073	13.63
657.4	13.38
657.728	13.25
658.056	12.82
658.383	13.74
658.711	13.3
659.038	13.23
659.365	13.27
659.693	13.26
660.02	13.33
660.347	13.92
660.674	13.72
661.001	13.44
661.329	13.72
661.656	13.74
661.982	13.68
662.309	13.55
662.636	13.73
662.963	13.44
663.29	13.78
663.616	13.55
663.943	13.83
664.27	14.04
664.596	13.2
664.923	13.79
665.249	13.67
665.576	13.74
665.902	13.94
666.228	13.91
666.554	13.54
666.881	14.09
667.207	14.35
667.533	14.43
667.859	13.93
668.185	14.58
668.511	14.42
668.837	14.24
669.162	14.29
669.488	14.59
669.814	14.27
670.139	14.01
670.465	14.52
670.791	14.49
671.116	14.52
671.442	14.36
671.767	14.54
672.092	14.51
672.418	14.53
672.743	14.1
673.068	14.64
673.393	14.34
673.718	14.27
674.043	14.48
674.368	14.57
674.693	14.39
675.018	15.34
675.343	14.89
675.667	14.82
675.992	14.81
676.317	14.64
676.641	14.51
676.966	14.92
677.29	14.87
677.615	14.69
677.939	14.57
678.264	14.83
678.588	14.63
678.912	14.83
679.236	14.7
679.56	14.93
679.885	15.26
680.209	15.26
680.532	15.12
680.856	14.94
681.18	14.67
681.504	15.58
681.828	15.58
682.152	15.4
682.475	15.05
682.799	15.39
683.122	15
683.446	15.24
683.769	15.43
684.093	15.16
684.416	15.61
684.739	15.38
685.062	15.85
685.386	15.37
685.709	15.6
686.032	16.02
686.355	15.49
686.678	15.07
687.001	15.41
