Data from 0015_crown_Reflection__1__41.txt Node

Date: Mon Oct 17 14:45:34 CDT 2022
User: ToomeyLab
Spectrometer: FLMS14357
Trigger mode: 0
Integration Time (sec): 1.000000E-2
Scans to average: 100
Electric dark correction enabled: true
Nonlinearity correction enabled: false
Boxcar width: 0
XAxis mode: Wavelengths
Number of Pixels in Spectrum: 2048
>>>>>Begin Spectral Data<<<<<
189.047	-268.94
189.435	-268.94
189.823	-268.94
190.211	44.03
190.599	43.69
190.987	110.81
191.375	106.52
191.763	-37.81
192.151	489.46
192.538	78.45
192.926	-307.31
193.314	324.62
193.702	-79.81
194.089	256.77
194.477	64.67
194.864	-29.08
195.252	589.95
195.639	-48.47
196.027	137.87
196.414	60.09
196.801	-229.65
197.189	474.37
197.576	69.66
197.963	-14.16
198.351	-53.45
198.738	17.02
199.125	-7.39
199.512	-6.64
199.899	-4.89
200.286	8
200.673	-5.37
201.06	6.16
201.447	13.7
201.833	28.22
202.22	9.19
202.607	-106.86
202.994	8.45
203.38	0.01
203.767	14.41
204.154	40.4
204.54	-23.96
204.927	54.07
205.313	-11.74
205.699	22.34
206.086	-106.76
206.472	-24.04
206.858	-19.56
207.245	0.08
207.631	14.68
208.017	25.79
208.403	36.33
208.789	13.54
209.175	2.48
209.561	-28.67
209.947	-57.72
210.333	29.81
210.719	-8.87
211.105	34.34
211.491	-27.74
211.876	-7.96
212.262	26.67
212.648	-14.03
213.034	-16.4
213.419	-2.94
213.805	-4.88
214.19	-25.23
214.576	18.93
214.961	-16.7
215.346	-50.44
215.732	13.69
216.117	7.42
216.502	-8.9
216.888	0.91
217.273	38.99
217.658	33.23
218.043	-6.51
218.428	-44.66
218.813	29.88
219.198	1.09
219.583	23.29
219.968	20.85
220.353	-4.24
220.738	-13.56
221.122	-2.64
221.507	-12.2
221.892	7.65
222.276	13.2
222.661	20.28
223.046	7.35
223.43	12.42
223.815	-5.03
224.199	8.52
224.583	-5.67
224.968	-2.22
225.352	-5.7
225.736	14.2
226.121	3.05
226.505	5.14
226.889	8.7
227.273	6.5
227.657	10.24
228.041	9.13
228.425	6.94
228.809	4.98
229.193	6.63
229.577	9.16
229.961	8.74
230.344	7.02
230.728	7.19
231.112	7.26
231.495	8.17
231.879	8.7
232.263	6.36
232.646	8.42
233.03	6.75
233.413	5.42
233.797	6.24
234.18	9.15
234.563	6.48
234.946	8.33
235.33	6.64
235.713	6.86
236.096	9.07
236.479	6.85
236.862	7.54
237.245	7.23
237.628	7.41
238.011	7.38
238.394	7.08
238.777	8.23
239.16	7.52
239.543	6.33
239.925	7.11
240.308	7.19
240.691	6.41
241.073	7.47
241.456	7.47
241.838	8.61
242.221	6.02
242.603	7.52
242.986	6.51
243.368	7.93
243.75	6.99
244.133	7.25
244.515	7.37
244.897	7.67
245.279	7.46
245.661	7.33
246.043	7.25
246.425	5.97
246.807	7.95
247.189	7.21
247.571	6.34
247.953	6.7
248.335	6.92
248.717	7.08
249.098	7.06
249.48	6.81
249.862	7.06
250.243	6.67
250.625	6.68
251.006	6.65
251.388	6.43
251.769	6.42
252.151	6.52
252.532	6.8
252.913	6.53
253.295	6.41
253.676	6.89
254.057	7.09
254.438	6.59
254.819	7.28
255.2	7.6
255.581	6.05
255.962	6.88
256.343	5.75
256.724	6.01
257.105	6.13
257.486	5.43
257.867	5.6
258.247	6.36
258.628	6.98
259.009	7.2
259.389	6.06
259.77	6.72
260.15	6.47
260.531	5.97
260.911	6.56
261.292	6.61
261.672	6.49
262.052	6.55
262.432	6.5
262.813	6.6
263.193	6.21
263.573	6.86
263.953	6.25
264.333	6.35
264.713	6.41
265.093	6.48
265.473	6.52
265.853	6.5
266.233	6.97
266.612	6.24
266.992	7.05
267.372	6.45
267.752	6.65
268.131	6.68
268.511	6.43
268.89	6.54
269.27	6.16
269.649	6.62
270.029	6.23
270.408	6.41
270.787	6.01
271.167	5.87
271.546	6.22
271.925	6.23
272.304	6.49
272.683	6.33
273.062	6.21
273.441	6.19
273.82	6.52
274.199	6.46
274.578	6.29
274.957	5.98
275.336	6.24
275.715	5.83
276.093	5.71
276.472	5.63
276.851	6.06
277.229	5.79
277.608	5.87
277.986	6.01
278.365	6.11
278.743	5.94
279.122	5.83
279.5	6.29
279.878	6.4
280.257	5.93
280.635	5.85
281.013	6.46
281.391	5.78
281.769	6.05
282.147	5.99
282.525	5.45
282.903	5.4
283.281	5.76
283.659	5.95
284.037	5.74
284.415	5.71
284.792	5.29
285.17	5.23
285.548	5.38
285.925	5.83
286.303	5.66
286.68	5.88
287.058	5.95
287.435	5.81
287.813	5.79
288.19	5.66
288.567	5.49
288.945	5.7
289.322	5.9
289.699	5.81
290.076	5.75
290.453	5.67
290.83	5.78
291.207	5.65
291.584	5.69
291.961	5.24
292.338	5.59
292.715	5.51
293.092	5.61
293.469	5.59
293.845	5.53
294.222	5.79
294.599	5.96
294.975	5.17
295.352	5.45
295.728	5.45
296.105	5.14
296.481	5.29
296.858	5.89
297.234	5.41
297.61	5.22
297.986	5.18
298.363	5.5
298.739	5.63
299.115	5.25
299.491	5.39
299.867	5.27
300.243	5.52
300.619	5.28
300.995	5.05
301.371	5.16
301.746	4.97
302.122	5.27
302.498	5.37
302.874	5.48
303.249	5.51
303.625	5.72
304	5.31
304.376	5.37
304.751	5.46
305.127	5.26
305.502	5.37
305.878	5.34
306.253	5.08
306.628	5.44
307.003	5.59
307.378	5.52
307.754	4.7
308.129	4.98
308.504	5.29
308.879	5.29
309.254	5.09
309.629	4.83
310.003	5.22
310.378	5.21
310.753	4.92
311.128	5.4
311.502	5.31
311.877	5.13
312.252	5.35
312.626	5.01
313.001	4.83
313.375	5.02
313.75	5.06
314.124	5.37
314.498	5.29
314.873	5.27
315.247	5.07
315.621	5.61
315.995	4.99
316.369	4.87
316.743	5.27
317.117	5.45
317.491	5.02
317.865	5.67
318.239	5.33
318.613	5.55
318.987	4.84
319.361	4.94
319.734	4.94
320.108	5.45
320.482	5.19
320.855	4.82
321.229	5.19
321.602	4.78
321.976	4.88
322.349	4.87
322.723	5.12
323.096	4.96
323.469	5.39
323.843	5.18
324.216	4.63
324.589	4.47
324.962	5.31
325.335	4.83
325.708	4.96
326.081	4.77
326.454	5.18
326.827	4.92
327.2	4.64
327.573	4.76
327.945	5.01
328.318	5.02
328.691	4.91
329.063	4.9
329.436	4.5
329.809	4.61
330.181	5.26
330.553	4.65
330.926	5.09
331.298	4.98
331.671	5.21
332.043	4.98
332.415	5.12
332.787	4.79
333.159	5.51
333.532	5.2
333.904	4.59
334.276	4.89
334.648	4.69
335.02	5.01
335.391	4.7
335.763	5.2
336.135	4.8
336.507	4.83
336.879	5.62
337.25	5.1
337.622	4.89
337.993	4.69
338.365	5.17
338.736	4.81
339.108	5.14
339.479	4.99
339.851	5.16
340.222	4.88
340.593	5.02
340.964	4.66
341.336	4.7
341.707	4.94
342.078	5.22
342.449	5.04
342.82	4.56
343.191	4.89
343.562	4.94
343.933	4.96
344.303	4.22
344.674	5.25
345.045	5.15
345.416	4.93
345.786	5.07
346.157	4.68
346.527	4.67
346.898	5.08
347.268	4.96
347.639	4.48
348.009	5.07
348.38	5.15
348.75	4.74
349.12	5
349.49	5.2
349.861	5.36
350.231	5.33
350.601	4.94
350.971	5.1
351.341	4.75
351.711	4.71
352.081	4.98
352.45	5.3
352.82	4.89
353.19	4.79
353.56	4.56
353.929	5.18
354.299	4.83
354.669	4.85
355.038	4.94
355.408	5.4
355.777	4.8
356.147	5.18
356.516	5.14
356.885	4.9
357.254	5.17
357.624	5.22
357.993	5.38
358.362	5.21
358.731	4.84
359.1	5.15
359.469	5.09
359.838	5.08
360.207	5.3
360.576	5.07
360.945	5.31
361.314	5.2
361.682	5.09
362.051	5.14
362.42	5.15
362.788	5.03
363.157	5.11
363.525	4.85
363.894	5.12
364.262	5.21
364.631	5.29
364.999	5.25
365.367	4.82
365.735	5.27
366.104	5.02
366.472	5.04
366.84	5.04
367.208	5.43
367.576	5.31
367.944	5.11
368.312	5.11
368.68	5.17
369.048	5.03
369.416	5.25
369.783	5.25
370.151	5.19
370.519	5.14
370.886	5.28
371.254	5.11
371.621	5.23
371.989	5.35
372.356	5.39
372.724	5.45
373.091	5.27
373.458	5.1
373.826	5.44
374.193	5.31
374.56	5.14
374.927	5.2
375.294	5.12
375.661	5.3
376.028	5.22
376.395	5.11
376.762	5.27
377.129	5.42
377.496	5.18
377.863	4.98
378.229	5.18
378.596	5.24
378.963	5.28
379.329	5.14
379.696	4.82
380.062	5.66
380.429	5.1
380.795	5.43
381.161	5.57
381.528	5.4
381.894	5.1
382.26	5.43
382.626	5.55
382.993	5.25
383.359	5.23
383.725	5.5
384.091	5.51
384.457	5.3
384.823	5.08
385.188	5.29
385.554	5.2
385.92	5.42
386.286	5.53
386.651	5.43
387.017	5.23
387.383	5.62
387.748	5.23
388.114	5.08
388.479	5.36
388.845	5.48
389.21	5.21
389.575	5.52
389.94	5.58
390.306	5.47
390.671	5.7
391.036	5.65
391.401	5.69
391.766	5.46
392.131	5.43
392.496	5.71
392.861	5.38
393.226	5.43
393.591	5.18
393.956	5.5
394.32	5.51
394.685	5.32
395.05	5.51
395.414	5.6
395.779	5.65
396.143	5.4
396.508	5.59
396.872	5.46
397.236	5.46
397.601	5.51
397.965	5.54
398.329	5.74
398.694	5.58
399.058	5.39
399.422	5.69
399.786	5.64
400.15	5.61
400.514	5.45
400.878	5.53
401.242	5.54
401.605	5.59
401.969	5.55
402.333	5.62
402.697	5.63
403.06	5.49
403.424	5.62
403.787	5.56
404.151	5.64
404.514	5.65
404.878	5.69
405.241	5.51
405.604	5.62
405.968	5.75
406.331	5.54
406.694	5.51
407.057	5.36
407.42	5.61
407.783	5.78
408.146	5.78
408.509	5.89
408.872	5.49
409.235	5.73
409.598	5.69
409.961	5.46
410.323	5.8
410.686	5.59
411.049	5.57
411.411	5.66
411.774	5.73
412.136	5.55
412.499	5.56
412.861	5.73
413.223	5.79
413.586	5.59
413.948	5.68
414.31	5.38
414.672	5.71
415.035	5.84
415.397	5.67
415.759	5.68
416.121	5.53
416.483	5.76
416.845	6
417.206	5.56
417.568	5.87
417.93	5.75
418.292	5.74
418.653	5.72
419.015	5.7
419.377	5.85
419.738	5.63
420.1	5.74
420.461	5.62
420.822	5.79
421.184	5.65
421.545	5.63
421.906	5.72
422.267	5.6
422.629	5.66
422.99	5.6
423.351	5.55
423.712	5.61
424.073	5.69
424.434	5.59
424.795	5.67
425.155	5.77
425.516	5.48
425.877	5.66
426.238	5.49
426.598	5.6
426.959	5.64
427.32	5.71
427.68	5.67
428.041	5.63
428.401	5.78
428.761	5.77
429.122	5.85
429.482	5.71
429.842	5.61
430.202	6
430.563	5.83
430.923	5.8
431.283	6.01
431.643	5.8
432.003	5.8
432.363	5.93
432.722	5.87
433.082	5.72
433.442	5.96
433.802	5.82
434.161	5.69
434.521	5.98
434.881	5.84
435.24	5.65
435.6	5.89
435.959	5.66
436.319	5.95
436.678	5.82
437.037	5.8
437.396	5.77
437.756	5.88
438.115	5.74
438.474	5.79
438.833	5.63
439.192	5.64
439.551	5.89
439.91	5.85
440.269	5.93
440.628	5.71
440.987	5.69
441.345	5.8
441.704	5.75
442.063	5.69
442.421	5.86
442.78	5.8
443.138	5.81
443.497	5.86
443.855	5.88
444.214	5.91
444.572	5.77
444.93	5.85
445.288	5.86
445.647	5.88
446.005	6.01
446.363	6.03
446.721	5.79
447.079	5.85
447.437	5.77
447.795	5.8
448.153	5.84
448.51	5.72
448.868	5.79
449.226	5.74
449.584	5.93
449.941	5.81
450.299	5.95
450.656	5.79
451.014	5.76
451.371	6.05
451.729	5.88
452.086	6.02
452.443	5.97
452.801	5.89
453.158	5.96
453.515	5.95
453.872	5.98
454.229	5.92
454.586	5.91
454.943	5.9
455.3	5.88
455.657	5.9
456.014	5.97
456.371	5.97
456.727	5.99
457.084	5.72
457.441	5.89
457.797	5.94
458.154	5.94
458.51	6.06
458.867	5.95
459.223	5.99
459.58	5.94
459.936	5.9
460.292	5.93
460.648	5.86
461.005	5.91
461.361	5.95
461.717	5.76
462.073	5.79
462.429	5.86
462.785	5.83
463.141	5.97
463.496	5.93
463.852	6.03
464.208	6.11
464.564	5.99
464.919	6.03
465.275	5.93
465.631	6.08
465.986	5.97
466.342	5.85
466.697	6.13
467.052	5.85
467.408	5.99
467.763	5.9
468.118	6.07
468.473	6.13
468.829	6.15
469.184	6.06
469.539	6.03
469.894	6.08
470.249	6.01
470.603	6.12
470.958	5.89
471.313	5.85
471.668	6.19
472.023	5.86
472.377	5.96
472.732	5.86
473.086	6.05
473.441	5.98
473.795	5.96
474.15	6.04
474.504	6.02
474.859	6.08
475.213	6.07
475.567	6.21
475.921	5.9
476.275	5.95
476.63	6
476.984	6.15
477.338	5.97
477.692	6.06
478.045	6.11
478.399	6.18
478.753	6.05
479.107	6.13
479.461	5.93
479.814	6.02
480.168	5.98
480.521	5.97
480.875	5.92
481.228	5.93
481.582	6.14
481.935	6.03
482.289	5.86
482.642	5.89
482.995	5.99
483.348	6.02
483.701	5.89
484.055	5.85
484.408	5.94
484.761	5.8
485.114	5.69
485.466	5.63
485.819	5.65
486.172	5.63
486.525	5.68
486.878	5.7
487.23	5.73
487.583	5.87
487.936	5.82
488.288	5.8
488.641	5.73
488.993	5.72
489.345	5.73
489.698	5.72
490.05	5.72
490.402	5.72
490.754	5.77
491.107	5.8
491.459	5.86
491.811	6.01
492.163	5.81
492.515	5.84
492.866	5.85
493.218	5.73
493.57	5.78
493.922	5.8
494.274	5.83
494.625	5.89
494.977	5.95
495.328	5.95
495.68	6.01
496.031	6.02
496.383	6.04
496.734	6.06
497.086	5.98
497.437	6.05
497.788	6.08
498.139	6
498.49	5.98
498.842	6.01
499.193	5.93
499.544	5.92
499.894	5.98
500.245	5.99
500.596	5.97
500.947	6.09
501.298	6.03
501.648	5.98
501.999	5.95
502.35	6.13
502.7	6.13
503.051	6.19
503.401	6.13
503.752	6.27
504.102	6
504.452	5.95
504.803	6.1
505.153	6.04
505.503	5.99
505.853	5.95
506.203	5.9
506.553	6.09
506.903	6.13
507.253	5.96
507.603	6.11
507.953	5.98
508.303	6.04
508.652	5.99
509.002	6.06
509.352	6.1
509.701	6.1
510.051	6
510.4	5.94
510.75	5.92
511.099	5.97
511.449	5.86
511.798	6.01
512.147	6.02
512.496	5.99
512.846	6.01
513.195	5.95
513.544	6.01
513.893	5.98
514.242	6.15
514.591	5.99
514.939	6.05
515.288	5.97
515.637	6.04
515.986	6.08
516.334	6.16
516.683	6
517.032	6.05
517.38	5.96
517.729	6.08
518.077	6.18
518.426	6.01
518.774	6
519.122	5.93
519.47	6.11
519.819	6.01
520.167	5.89
520.515	5.98
520.863	5.95
521.211	6.01
521.559	5.89
521.907	6.04
522.255	5.96
522.602	5.95
522.95	6.03
523.298	6.02
523.645	6.06
523.993	6.11
524.341	6.15
524.688	6.08
525.036	6.09
525.383	6.07
525.73	6.07
526.078	6.02
526.425	6.05
526.772	5.99
527.119	5.89
527.466	5.85
527.814	5.94
528.161	5.97
528.508	5.97
528.854	5.89
529.201	5.92
529.548	5.93
529.895	5.8
530.242	5.78
530.588	5.7
530.935	5.73
531.282	5.73
531.628	5.78
531.975	5.84
532.321	5.81
532.667	6.02
533.014	5.99
533.36	5.91
533.706	5.99
534.052	5.91
534.399	5.87
534.745	5.8
535.091	5.86
535.437	5.83
535.783	5.91
536.129	5.85
536.474	5.94
536.82	5.95
537.166	6.01
537.512	5.99
537.857	5.99
538.203	5.91
538.549	5.84
538.894	5.9
539.239	5.92
539.585	5.83
539.93	6.02
540.276	5.97
540.621	5.99
540.966	5.93
541.311	6.01
541.656	5.94
542.001	6.03
542.346	5.95
542.691	5.88
543.036	5.77
543.381	5.74
543.726	5.82
544.071	5.88
544.415	5.83
544.76	5.83
545.105	5.83
545.449	5.97
545.794	5.92
546.138	5.86
546.483	6.04
546.827	6
547.171	5.94
547.516	5.95
547.86	5.99
548.204	5.92
548.548	5.89
548.892	5.99
549.236	5.96
549.58	6
549.924	5.9
550.268	6
550.612	5.94
550.956	6.29
551.3	5.98
551.643	6.05
551.987	6.1
552.33	6.05
552.674	6
553.017	6.08
553.361	6.08
553.704	6.08
554.048	5.86
554.391	6.05
554.734	6.04
555.077	5.98
555.42	6.09
555.764	5.96
556.107	5.97
556.45	5.91
556.793	6.11
557.135	6.04
557.478	6.1
557.821	6.05
558.164	6.07
558.507	5.98
558.849	6.02
559.192	6.01
559.534	6.2
559.877	5.85
560.219	5.99
560.562	5.7
560.904	5.91
561.246	6.15
561.589	6.08
561.931	5.96
562.273	6.1
562.615	6.05
562.957	6.09
563.299	5.97
563.641	6.05
563.983	6.05
564.325	6.22
564.667	6.05
565.008	6.05
565.35	5.99
565.692	6.18
566.033	6
566.375	5.84
566.716	5.99
567.058	5.98
567.399	5.94
567.741	5.92
568.082	5.98
568.423	5.89
568.764	5.96
569.105	5.95
569.447	5.95
569.788	5.86
570.129	5.99
570.47	6.07
570.811	5.9
571.151	5.91
571.492	6.04
571.833	5.86
572.174	6.02
572.514	6.08
572.855	5.88
573.195	5.94
573.536	6
573.876	5.89
574.217	5.91
574.557	5.83
574.898	5.9
575.238	6.1
575.578	5.9
575.918	6.03
576.258	5.94
576.598	5.94
576.938	6
577.278	5.97
577.618	5.95
577.958	5.81
578.298	5.91
578.638	5.74
578.977	5.93
579.317	5.85
579.657	5.78
579.996	6.03
580.336	5.92
580.675	5.87
581.014	5.79
581.354	5.79
581.693	5.89
582.032	6.06
582.372	5.76
582.711	5.86
583.05	6.04
583.389	5.69
583.728	5.98
584.067	5.96
584.406	5.99
584.745	5.96
585.083	6
585.422	6.14
585.761	6.06
586.1	6.09
586.438	5.9
586.777	6.12
587.115	5.77
587.454	5.78
587.792	5.99
588.13	6.07
588.469	5.99
588.807	6.08
589.145	6.01
589.483	5.88
589.821	5.82
590.159	5.83
590.497	6.05
590.835	6.06
591.173	5.98
591.511	5.89
591.849	5.72
592.187	5.88
592.524	5.98
592.862	5.95
593.2	5.76
593.537	6.01
593.875	5.76
594.212	5.88
594.55	5.78
594.887	5.75
595.224	6.07
595.561	5.84
595.899	6
596.236	6.1
596.573	5.78
596.91	5.88
597.247	5.85
597.584	5.75
597.921	5.81
598.258	5.8
598.594	5.81
598.931	5.76
599.268	5.85
599.604	5.85
599.941	5.8
600.277	5.86
600.614	5.82
600.95	5.67
601.287	5.83
601.623	6
601.959	6.08
602.296	5.88
602.632	5.6
602.968	6.03
603.304	5.99
603.64	6.06
603.976	5.81
604.312	5.78
604.648	5.7
604.984	5.83
605.319	5.67
605.655	5.67
605.991	5.89
606.326	5.64
606.662	5.8
606.998	5.65
607.333	5.89
607.668	5.59
608.004	5.81
608.339	5.94
608.674	5.9
609.01	5.94
609.345	5.83
609.68	5.98
610.015	6.07
610.35	5.75
610.685	5.46
611.02	5.94
611.355	5.85
611.689	5.68
612.024	5.81
612.359	5.81
612.694	5.81
613.028	5.85
613.363	5.95
613.697	5.54
614.032	5.68
614.366	5.79
614.7	5.86
615.035	5.91
615.369	5.76
615.703	5.6
616.037	6.12
616.371	5.58
616.705	5.69
617.039	6.27
617.373	5.77
617.707	6.07
618.041	5.87
618.375	6.01
618.709	5.81
619.042	5.89
619.376	6.11
619.71	5.91
620.043	5.73
620.377	6
620.71	5.86
621.043	5.92
621.377	5.94
621.71	6.11
622.043	5.99
622.376	5.9
622.709	5.97
623.043	5.66
623.376	5.53
623.709	5.88
624.041	5.78
624.374	5.51
624.707	5.66
625.04	5.68
625.373	5.82
625.705	5.68
626.038	5.58
626.37	5.69
626.703	6.21
627.035	5.79
627.368	5.8
627.7	6.05
628.032	5.63
628.365	5.74
628.697	5.72
629.029	5.68
629.361	5.97
629.693	5.79
630.025	5.7
630.357	5.66
630.689	5.59
631.021	5.75
631.353	5.57
631.684	5.47
632.016	5.55
632.348	6.15
632.679	5.62
633.011	5.64
633.342	5.6
633.674	5.81
634.005	5.74
634.336	5.78
634.668	5.8
634.999	5.65
635.33	5.5
635.661	5.88
635.992	5.57
636.323	6.1
636.654	5.53
636.985	5.77
637.316	5.73
637.647	5.64
637.977	5.67
638.308	5.73
638.639	5.82
638.969	5.77
639.3	5.73
639.63	6
639.961	5.74
640.291	5.62
640.622	5.58
640.952	5.94
641.282	5.63
641.612	5.81
641.943	5.91
642.273	5.45
642.603	5.44
642.933	5.36
643.263	6.16
643.592	6.21
643.922	5.64
644.252	5.72
644.582	6.05
644.911	6.18
645.241	6.26
645.571	5.78
645.9	6.02
646.23	5.19
646.559	5.71
646.888	5.27
647.218	5.62
647.547	5.61
647.876	5.58
648.205	5.44
648.534	6
648.863	5.66
649.192	5.8
649.521	5.61
649.85	5.77
650.179	6.12
650.508	5.07
650.837	5.49
651.165	5.62
651.494	5.89
651.822	6.19
652.151	5.83
652.479	5.58
652.808	5.62
653.136	6.27
653.465	5.54
653.793	5.66
654.121	5.75
654.449	5.89
654.777	5.93
655.105	5.54
655.433	5.81
655.761	5.73
656.089	5.53
656.417	5.66
656.745	5.43
657.073	5.64
657.4	5.8
657.728	5.89
658.056	5.43
658.383	5.81
658.711	5.7
659.038	5.71
659.365	6.01
659.693	5.77
660.02	5.44
660.347	5.95
660.674	5.74
661.001	5.72
661.329	5.93
661.656	5.51
661.982	5.82
662.309	6.06
662.636	5.86
662.963	5.66
663.29	5.77
663.616	5.59
663.943	5.91
664.27	5.62
664.596	5.6
664.923	5.75
665.249	5.4
665.576	5.47
665.902	5.77
666.228	6.16
666.554	5.89
666.881	5.72
667.207	5.7
667.533	5.57
667.859	5.78
668.185	6.02
668.511	5.72
668.837	5.91
669.162	6.13
669.488	5.87
669.814	5.98
670.139	5.58
670.465	5.91
670.791	5.83
671.116	5.9
671.442	6.14
671.767	5.84
672.092	5.8
672.418	5.89
672.743	5.3
673.068	5.83
673.393	5.55
673.718	5.49
674.043	6.16
674.368	5.69
674.693	5.97
675.018	6.34
675.343	6.37
675.667	5.74
675.992	5.58
676.317	5.83
676.641	5.67
676.966	6.21
677.29	5.54
677.615	5.19
677.939	6.03
678.264	5.76
678.588	5.8
678.912	5.57
679.236	6.47
679.56	4.94
679.885	5.95
680.209	6.54
680.532	5.47
680.856	5.55
681.18	5.44
681.504	6.03
681.828	6.08
682.152	5.53
682.475	6.03
682.799	5.57
683.122	5.8
683.446	6.24
683.769	5.84
684.093	5.23
684.416	6.42
684.739	5.28
685.062	6.36
685.386	6.22
685.709	5.61
686.032	6.36
686.355	5.19
686.678	5.57
687.001	5.92
687.324	5.52
687.646	5.38
687.969	5.2
688.292	5.71
688.614	5.69
688.937	6.24
689.26	5.87
689.582	5.56
689.904	6.36
690.227	6.42
690.549	6.56
690.871	6.07
691.194	5.4
691.516	5.78
691.838	5.94
692.16	6.36
692.482	5.79
692.804	5.69
693.126	6.13
