Data from 0015_forehead_Reflection__1__46.txt Node

Date: Mon Oct 17 14:46:57 CDT 2022
User: ToomeyLab
Spectrometer: FLMS14357
Trigger mode: 0
Integration Time (sec): 1.000000E-2
Scans to average: 100
Electric dark correction enabled: true
Nonlinearity correction enabled: false
Boxcar width: 0
XAxis mode: Wavelengths
Number of Pixels in Spectrum: 2048
>>>>>Begin Spectral Data<<<<<
189.047	-604.39
189.435	-604.39
189.823	-604.39
190.211	-133.88
190.599	76.99
190.987	-165.14
191.375	49.48
191.763	-30.08
192.151	-837.4
192.538	-60.22
192.926	1038.08
193.314	527.83
193.702	-153.52
194.089	-55.77
194.477	35.92
194.864	26.93
195.252	-368.3
195.639	-1496.43
196.027	37.04
196.414	0.76
196.801	-46.98
197.189	542.93
197.576	152.54
197.963	226.13
198.351	-81.82
198.738	11.38
199.125	2.43
199.512	-46.98
199.899	-29.29
200.286	0.96
200.673	26.46
201.06	-6.74
201.447	35.75
201.833	30.07
202.22	14.17
202.607	-72.11
202.994	11.88
203.38	19.73
203.767	26.6
204.154	33.73
204.54	6.02
204.927	37.17
205.313	-30.55
205.699	17.91
206.086	-65.08
206.472	32.47
206.858	0.29
207.245	-7.73
207.631	26.87
208.017	13.33
208.403	8.59
208.789	25.46
209.175	25.01
209.561	-3.49
209.947	-48.45
210.333	43.07
210.719	19.03
211.105	17.39
211.491	-6.97
211.876	-12.76
212.262	35.28
212.648	19.7
213.034	9.89
213.419	42.59
213.805	-15.44
214.19	7.86
214.576	10.97
214.961	-9.93
215.346	18.94
215.732	-3.01
216.117	0.37
216.502	11.43
216.888	3.09
217.273	1.01
217.658	25.64
218.043	15.04
218.428	-14.96
218.813	60.06
219.198	-1.8
219.583	-3.89
219.968	26.53
220.353	-5.74
220.738	3.05
221.122	4.14
221.507	-7.89
221.892	8.64
222.276	2.87
222.661	13.41
223.046	-0.09
223.43	4.92
223.815	-2
224.199	7.25
224.583	-1.22
224.968	-5.71
225.352	-14.36
225.736	10.08
226.121	5.63
226.505	0.4
226.889	7.91
227.273	-0.33
227.657	2.43
228.041	4.38
228.425	2.76
228.809	1.7
229.193	3.21
229.577	4.27
229.961	3.19
230.344	2.03
230.728	2.67
231.112	2.18
231.495	3.64
231.879	3.27
232.263	1.8
232.646	3.48
233.03	2.26
233.413	-0.02
233.797	2.07
234.18	2.76
234.563	-0.77
234.946	1.9
235.33	2.56
235.713	1.11
236.096	3.28
236.479	1.59
236.862	2.71
237.245	2.32
237.628	1.76
238.011	3.22
238.394	2.61
238.777	2.62
239.16	1.22
239.543	2.04
239.925	2.48
240.308	2.78
240.691	1.34
241.073	2.23
241.456	1.82
241.838	2.77
242.221	1.1
242.603	1.97
242.986	2.4
243.368	2.73
243.75	2.26
244.133	2.66
244.515	2.67
244.897	2.8
245.279	2.25
245.661	2.96
246.043	2.3
246.425	1.44
246.807	1.54
247.189	3.07
247.571	2.47
247.953	2.56
248.335	2.4
248.717	2.65
249.098	2.65
249.48	2.59
249.862	2.35
250.243	2.3
250.625	2.86
251.006	1.73
251.388	2.94
251.769	2.65
252.151	2.11
252.532	2.31
252.913	2.26
253.295	1.77
253.676	2.76
254.057	2.74
254.438	2.66
254.819	3.58
255.2	2.98
255.581	3.26
255.962	2.18
256.343	2.01
256.724	2.09
257.105	2.91
257.486	1.73
257.867	1.59
258.247	2.63
258.628	3.44
259.009	1.72
259.389	2.5
259.77	2.47
260.15	2.41
260.531	1.69
260.911	2.37
261.292	2.45
261.672	2.22
262.052	2.45
262.432	2.58
262.813	2.56
263.193	2.79
263.573	2.85
263.953	2.14
264.333	2.12
264.713	2.34
265.093	2.51
265.473	2.77
265.853	2.7
266.233	3.8
266.612	1.96
266.992	2.99
267.372	2.63
267.752	2.45
268.131	2.91
268.511	2.27
268.89	2.63
269.27	2.25
269.649	2.52
270.029	2.32
270.408	2.67
270.787	2.05
271.167	2.43
271.546	2.74
271.925	2.4
272.304	2.14
272.683	2.68
273.062	2.43
273.441	2.23
273.82	2.46
274.199	2.48
274.578	2.42
274.957	2.25
275.336	2.61
275.715	2.26
276.093	1.93
276.472	2.15
276.851	2.14
277.229	2.41
277.608	1.81
277.986	1.7
278.365	2.61
278.743	2.72
279.122	2.18
279.5	2.2
279.878	2.29
280.257	2.03
280.635	2.18
281.013	2.52
281.391	1.8
281.769	1.99
282.147	2.83
282.525	2.13
282.903	1.88
283.281	2.13
283.659	2.49
284.037	2.2
284.415	2.5
284.792	2.09
285.17	2.1
285.548	2.11
285.925	2.53
286.303	2.48
286.68	2.61
287.058	2.65
287.435	2.3
287.813	2.34
288.19	2.49
288.567	2.25
288.945	2.42
289.322	2.61
289.699	2.5
290.076	2.4
290.453	2.06
290.83	2.28
291.207	2.22
291.584	2.57
291.961	2.19
292.338	2.55
292.715	2.12
293.092	2.36
293.469	2.17
293.845	2.62
294.222	2.39
294.599	2.92
294.975	2.14
295.352	2.09
295.728	2.24
296.105	1.99
296.481	2.93
296.858	2.95
297.234	2.35
297.61	2.26
297.986	2.41
298.363	2.54
298.739	2.79
299.115	2.24
299.491	2.67
299.867	2.44
300.243	2.98
300.619	2.57
300.995	2.73
301.371	2.54
301.746	2.38
302.122	2.75
302.498	2.5
302.874	2.52
303.249	3.03
303.625	2.86
304	3.21
304.376	2.92
304.751	2.85
305.127	2.5
305.502	2.41
305.878	3.03
306.253	3.01
306.628	3.16
307.003	2.95
307.378	3.33
307.754	2.45
308.129	2.7
308.504	3.21
308.879	3.38
309.254	2.87
309.629	2.97
310.003	2.85
310.378	2.77
310.753	2.97
311.128	3.33
311.502	3.16
311.877	3.03
312.252	3.03
312.626	2.87
313.001	3.07
313.375	2.99
313.75	3.15
314.124	3.28
314.498	2.87
314.873	3.11
315.247	3.19
315.621	4.03
315.995	3.15
316.369	2.88
316.743	3.44
317.117	3.7
317.491	3.3
317.865	3.73
318.239	3.5
318.613	3.42
318.987	3.34
319.361	2.99
319.734	3.74
320.108	3.25
320.482	3.17
320.855	2.96
321.229	3.06
321.602	3.38
321.976	3.08
322.349	2.96
322.723	3.21
323.096	3.03
323.469	2.92
323.843	3.39
324.216	3.54
324.589	3.02
324.962	3.55
325.335	3.48
325.708	3.66
326.081	3.65
326.454	3.7
326.827	3.18
327.2	2.94
327.573	2.78
327.945	3.13
328.318	3.51
328.691	3.21
329.063	3.32
329.436	3.44
329.809	2.92
330.181	4.01
330.553	3.49
330.926	3.26
331.298	4.15
331.671	4.03
332.043	3.16
332.415	3.46
332.787	3.15
333.159	3.86
333.532	3.57
333.904	3.83
334.276	3.53
334.648	3.15
335.02	4.01
335.391	3.94
335.763	3.63
336.135	3.31
336.507	3.75
336.879	4.18
337.25	3.91
337.622	3.46
337.993	3.83
338.365	3.69
338.736	3.67
339.108	3.67
339.479	3.62
339.851	4.18
340.222	3.41
340.593	3.91
340.964	3.73
341.336	3.68
341.707	3.92
342.078	3.67
342.449	3.57
342.82	3.65
343.191	3.71
343.562	3.85
343.933	3.82
344.303	4
344.674	4.41
345.045	3.89
345.416	3.89
345.786	4.01
346.157	3.68
346.527	4.14
346.898	4.13
347.268	4.58
347.639	3.79
348.009	3.96
348.38	3.94
348.75	4.05
349.12	4.11
349.49	3.96
349.861	3.76
350.231	4.42
350.601	4.27
350.971	3.94
351.341	3.98
351.711	3.67
352.081	4.19
352.45	4.05
352.82	4.23
353.19	4.2
353.56	3.89
353.929	4.04
354.299	3.96
354.669	3.84
355.038	4.74
355.408	4.55
355.777	4.17
356.147	4.38
356.516	4.47
356.885	4.36
357.254	4.33
357.624	4.53
357.993	4.23
358.362	4.29
358.731	4.17
359.1	4.22
359.469	4.15
359.838	4.39
360.207	4.26
360.576	4.03
360.945	4.46
361.314	4.56
361.682	4.53
362.051	4.5
362.42	4.2
362.788	4.47
363.157	4.73
363.525	4.21
363.894	4.45
364.262	4.45
364.631	4.55
364.999	4.42
365.367	4.2
365.735	4.62
366.104	4.64
366.472	4.31
366.84	4.44
367.208	4.64
367.576	4.78
367.944	4.32
368.312	4.78
368.68	4.84
369.048	4.46
369.416	4.96
369.783	4.56
370.151	4.53
370.519	4.86
370.886	5.09
371.254	4.47
371.621	4.76
371.989	4.86
372.356	4.83
372.724	4.95
373.091	5.16
373.458	4.72
373.826	5
374.193	5.18
374.56	4.96
374.927	5.05
375.294	4.95
375.661	4.86
376.028	5.17
376.395	4.72
376.762	5.17
377.129	4.79
377.496	4.68
377.863	4.61
378.229	5.16
378.596	4.86
378.963	5.09
379.329	4.95
379.696	4.92
380.062	5.07
380.429	4.86
380.795	5.34
381.161	5.45
381.528	5
381.894	5.18
382.26	5.12
382.626	5.01
382.993	5.35
383.359	5.29
383.725	5.06
384.091	5.02
384.457	5.1
384.823	4.85
385.188	5.22
385.554	5.18
385.92	5.38
386.286	5.49
386.651	5.4
387.017	4.96
387.383	5.34
387.748	5.25
388.114	5.39
388.479	5.51
388.845	5.53
389.21	5.31
389.575	5.31
389.94	5.48
390.306	5.35
390.671	5.89
391.036	5.61
391.401	5.54
391.766	5.5
392.131	5.55
392.496	5.71
392.861	5.56
393.226	5.67
393.591	5.41
393.956	5.57
394.32	5.74
394.685	5.56
395.05	5.64
395.414	5.82
395.779	5.62
396.143	5.82
396.508	5.49
396.872	5.76
397.236	5.61
397.601	5.58
397.965	5.8
398.329	5.97
398.694	5.81
399.058	5.68
399.422	5.82
399.786	5.91
400.15	5.88
400.514	5.7
400.878	5.69
401.242	5.78
401.605	6.03
401.969	5.94
402.333	6
402.697	5.82
403.06	5.87
403.424	5.98
403.787	6.12
404.151	5.95
404.514	6.01
404.878	5.86
405.241	5.93
405.604	6.06
405.968	6.17
406.331	5.81
406.694	6.12
407.057	5.92
407.42	5.92
407.783	6.18
408.146	6.08
408.509	6.23
408.872	6.16
409.235	6.02
409.598	6.14
409.961	6.14
410.323	6.35
410.686	6.08
411.049	6.12
411.411	6.19
411.774	6.12
412.136	6.16
412.499	6.55
412.861	6.31
413.223	6.32
413.586	6.21
413.948	6.23
414.31	6.29
414.672	6.46
415.035	6.4
415.397	6.53
415.759	6.51
416.121	6.36
416.483	6.52
416.845	6.35
417.206	6.29
417.568	6.58
417.93	6.56
418.292	6.53
418.653	6.57
419.015	6.46
419.377	6.42
419.738	6.43
420.1	6.48
420.461	6.37
420.822	6.54
421.184	6.45
421.545	6.49
421.906	6.35
422.267	6.47
422.629	6.49
422.99	6.4
423.351	6.51
423.712	6.54
424.073	6.58
424.434	6.68
424.795	6.7
425.155	6.72
425.516	6.54
425.877	6.66
426.238	6.67
426.598	6.74
426.959	6.75
427.32	6.73
427.68	6.73
428.041	6.65
428.401	6.87
428.761	6.97
429.122	7.07
429.482	6.99
429.842	7.07
430.202	7.14
430.563	7.28
430.923	7.05
431.283	7.23
431.643	7.16
432.003	7.08
432.363	7.08
432.722	7.12
433.082	7.07
433.442	7.25
433.802	7.18
434.161	7.21
434.521	7.45
434.881	7.24
435.24	7.21
435.6	7.28
435.959	7.27
436.319	7.44
436.678	7.34
437.037	7.45
437.396	7.34
437.756	7.55
438.115	7.41
438.474	7.48
438.833	7.36
439.192	7.46
439.551	7.53
439.91	7.51
440.269	7.5
440.628	7.57
440.987	7.56
441.345	7.58
441.704	7.56
442.063	7.36
442.421	7.56
442.78	7.55
443.138	7.58
443.497	7.68
443.855	8.02
444.214	7.89
444.572	7.73
444.93	7.95
445.288	7.94
445.647	7.88
446.005	8.06
446.363	7.91
446.721	7.9
447.079	7.79
447.437	7.78
447.795	7.88
448.153	7.9
448.51	7.79
448.868	7.96
449.226	7.91
449.584	7.92
449.941	7.95
450.299	8.02
450.656	8.03
451.014	8.03
451.371	8.16
451.729	8.18
452.086	8.23
452.443	8.43
452.801	8.43
453.158	8.29
453.515	8.22
453.872	8.22
454.229	8.15
454.586	8.29
454.943	8.32
455.3	8.43
455.657	8.37
456.014	8.42
456.371	8.49
456.727	8.22
457.084	8.41
457.441	8.76
457.797	8.43
458.154	8.71
458.51	8.54
458.867	8.65
459.223	8.56
459.58	8.52
459.936	8.6
460.292	8.73
460.648	8.65
461.005	8.6
461.361	8.44
461.717	8.45
462.073	8.51
462.429	8.55
462.785	8.68
463.141	8.87
463.496	8.78
463.852	8.79
464.208	8.86
464.564	9
464.919	8.94
465.275	8.68
465.631	8.97
465.986	8.98
466.342	8.98
466.697	9.01
467.052	8.96
467.408	9.11
467.763	8.89
468.118	9.24
468.473	9.11
468.829	9.15
469.184	9.11
469.539	8.97
469.894	9.13
470.249	9.35
470.603	9.25
470.958	9.33
471.313	9.39
471.668	9.38
472.023	9.24
472.377	9.58
472.732	9.24
473.086	9.29
473.441	9.32
473.795	9.6
474.15	9.48
474.504	9.57
474.859	9.45
475.213	9.52
475.567	9.67
475.921	9.51
476.275	9.64
476.63	9.72
476.984	9.69
477.338	9.56
477.692	9.7
478.045	9.58
478.399	9.69
478.753	9.69
479.107	9.65
479.461	9.72
479.814	9.74
480.168	9.84
480.521	9.81
480.875	9.67
481.228	9.93
481.582	10.02
481.935	9.86
482.289	9.8
482.642	9.89
482.995	9.92
483.348	9.85
483.701	9.72
484.055	9.8
484.408	9.85
484.761	9.61
485.114	9.47
485.466	9.38
485.819	9.35
486.172	9.46
486.525	9.55
486.878	9.65
487.23	9.7
487.583	9.87
487.936	9.81
488.288	9.89
488.641	9.77
488.993	9.65
489.345	9.73
489.698	9.79
490.05	9.82
490.402	9.89
490.754	9.97
491.107	10.02
491.459	10.25
491.811	10.36
492.163	10.22
492.515	10.19
492.866	10.06
493.218	10.01
493.57	9.98
493.922	10.12
494.274	10.22
494.625	10.37
494.977	10.5
495.328	10.47
495.68	10.63
496.031	10.6
496.383	10.82
496.734	10.81
497.086	10.69
497.437	10.71
497.788	10.81
498.139	10.76
498.49	10.72
498.842	10.65
499.193	10.63
499.544	10.66
499.894	10.9
500.245	10.77
500.596	10.91
500.947	10.99
501.298	10.91
501.648	10.97
501.999	10.99
502.35	11.12
502.7	11.19
503.051	11.26
503.401	11.38
503.752	11.26
504.102	11.25
504.452	11.21
504.803	11.24
505.153	11.36
505.503	11.28
505.853	11.28
506.203	11.31
506.553	11.31
506.903	11.3
507.253	11.44
507.603	11.43
507.953	11.61
508.303	11.4
508.652	11.52
509.002	11.58
509.352	11.42
509.701	11.44
510.051	11.63
510.4	11.45
510.75	11.46
511.099	11.48
511.449	11.46
511.798	11.66
512.147	11.61
512.496	11.59
512.846	11.63
513.195	11.64
513.544	11.8
513.893	11.67
514.242	11.75
514.591	11.69
514.939	11.76
515.288	11.81
515.637	11.85
515.986	11.91
516.334	12.09
516.683	12.02
517.032	11.96
517.38	11.92
517.729	12.09
518.077	12.05
518.426	12.06
518.774	12.05
519.122	11.96
519.47	12.03
519.819	11.99
520.167	11.9
520.515	11.86
520.863	12.04
521.211	12.09
521.559	11.98
521.907	12.17
522.255	12.21
522.602	12.15
522.95	12.27
523.298	12.31
523.645	12.4
523.993	12.44
524.341	12.49
524.688	12.55
525.036	12.53
525.383	12.39
525.73	12.54
526.078	12.4
526.425	12.43
526.772	12.37
527.119	12.41
527.466	12.27
527.814	12.4
528.161	12.36
528.508	12.48
528.854	12.34
529.201	12.44
529.548	12.31
529.895	12.17
530.242	12.06
530.588	12.07
530.935	12.15
531.282	12.19
531.628	12.32
531.975	12.44
532.321	12.43
532.667	12.61
533.014	12.8
533.36	12.76
533.706	12.75
534.052	12.72
534.399	12.74
534.745	12.51
535.091	12.5
535.437	12.58
535.783	12.72
536.129	12.82
536.474	12.9
536.82	13.03
537.166	13.13
537.512	13.13
537.857	12.98
538.203	13.1
538.549	13
538.894	12.99
539.239	13.2
539.585	13.15
539.93	13.29
540.276	13.3
540.621	13.46
540.966	13.51
541.311	13.39
541.656	13.44
542.001	13.61
542.346	13.3
542.691	13.17
543.036	12.98
543.381	13.01
543.726	13.15
544.071	13.29
544.415	13.34
544.76	13.41
545.105	13.33
545.449	13.44
545.794	13.5
546.138	13.65
546.483	13.77
546.827	13.94
547.171	13.73
547.516	13.85
547.86	13.84
548.204	13.76
548.548	13.9
548.892	13.84
549.236	13.91
549.58	14.01
549.924	14.04
550.268	14.27
550.612	14.04
550.956	14.33
551.3	14.41
551.643	14.35
551.987	14.19
552.33	14.23
552.674	14.42
553.017	14.4
553.361	14.5
553.704	14.34
554.048	14.36
554.391	14.41
554.734	14.35
555.077	14.45
555.42	14.46
555.764	14.52
556.107	14.55
556.45	14.68
556.793	14.69
557.135	14.72
557.478	14.69
557.821	15
558.164	14.91
558.507	14.78
558.849	14.74
559.192	14.71
559.534	14.94
559.877	14.84
560.219	14.64
560.562	14.89
560.904	15.06
561.246	15.07
561.589	15.1
561.931	14.87
562.273	15.05
562.615	14.99
562.957	15.15
563.299	15.06
563.641	15.11
563.983	15.2
564.325	15.49
564.667	15.34
565.008	15.38
565.35	15.31
565.692	15.51
566.033	15.21
566.375	15.25
566.716	15.2
567.058	15.28
567.399	15.09
567.741	15.52
568.082	15.34
568.423	15.29
568.764	15.35
569.105	15.52
569.447	15.6
569.788	15.56
570.129	15.67
570.47	15.87
570.811	15.55
571.151	15.78
571.492	15.69
571.833	15.73
572.174	15.55
572.514	15.89
572.855	15.76
573.195	15.73
573.536	15.75
573.876	15.76
574.217	15.81
574.557	15.77
574.898	15.73
575.238	16.07
575.578	16.09
575.918	15.9
576.258	16.02
576.598	15.93
576.938	16.08
577.278	16.16
577.618	16.19
577.958	16.14
578.298	16.1
578.638	16.14
578.977	16.49
579.317	16.14
579.657	16.33
579.996	16.23
580.336	16.65
580.675	16.39
581.014	16.5
581.354	16.44
581.693	16.53
582.032	16.62
582.372	16.6
582.711	16.44
583.05	16.45
583.389	16.6
583.728	16.94
584.067	16.56
584.406	16.62
584.745	16.73
585.083	16.91
585.422	16.75
585.761	16.96
586.1	17.08
586.438	16.96
586.777	17.31
587.115	16.82
587.454	17.02
587.792	16.97
588.13	16.99
588.469	17.18
588.807	17.09
589.145	17.11
589.483	16.91
589.821	17.26
590.159	17.25
590.497	17.32
590.835	17.12
591.173	17.44
591.511	17.21
591.849	17.43
592.187	17.29
592.524	17.43
592.862	17.46
593.2	17.43
593.537	17.48
593.875	17.3
594.212	17.64
594.55	17.36
594.887	17.6
595.224	17.56
595.561	17.64
595.899	17.67
596.236	17.83
596.573	17.67
596.91	17.54
597.247	17.54
597.584	17.57
597.921	17.64
598.258	17.36
598.594	17.56
598.931	17.44
599.268	17.52
599.604	17.76
599.941	17.66
600.277	17.97
600.614	18.12
600.95	17.88
601.287	18.14
601.623	17.96
601.959	17.95
602.296	17.92
602.632	17.98
602.968	17.92
603.304	18.34
603.64	18.03
603.976	18.01
604.312	18.27
604.648	18.1
604.984	18.24
605.319	17.88
605.655	18.15
605.991	18.17
606.326	17.99
606.662	18.26
606.998	18
607.333	18.18
607.668	18.34
608.004	18.32
608.339	18.44
608.674	18.46
609.01	18.31
609.345	18.62
609.68	18.42
610.015	18.64
610.35	18.48
610.685	18.23
611.02	18.75
611.355	18.6
611.689	18.74
612.024	18.66
612.359	18.4
612.694	18.67
613.028	18.71
613.363	19.03
613.697	18.63
614.032	19.09
614.366	18.57
614.7	18.78
615.035	18.54
615.369	18.98
615.703	18.84
616.037	18.94
616.371	19.08
616.705	19.21
617.039	19.42
617.373	19.27
617.707	19.19
618.041	19.64
618.375	19.16
618.709	19.45
619.042	19.39
619.376	19.33
619.71	19.43
620.043	19.38
620.377	19.91
620.71	19.64
621.043	19.89
621.377	19.83
621.71	19.6
622.043	19.65
622.376	19.49
622.709	19.6
623.043	19.47
623.376	19.43
623.709	19.65
624.041	19.4
624.374	19.61
624.707	19.75
625.04	19.81
625.373	19.58
625.705	19.42
626.038	19.67
626.37	19.71
626.703	20.23
627.035	19.98
627.368	19.84
627.7	19.89
628.032	19.93
628.365	19.88
628.697	19.75
629.029	19.89
629.361	20.3
629.693	19.96
630.025	20.2
630.357	19.97
630.689	19.62
631.021	20.28
631.353	20.32
631.684	20.05
632.016	19.93
632.348	20.36
632.679	20.6
633.011	20.14
633.342	20.15
633.674	20.43
634.005	20.07
634.336	19.98
634.668	20.55
634.999	20.24
635.33	20.51
635.661	20.69
635.992	20.52
636.323	21.05
636.654	20.47
636.985	20.34
637.316	20.59
637.647	20.45
637.977	20.68
638.308	20.47
638.639	20.51
638.969	20.85
639.3	20.75
639.63	20.6
639.961	20.45
640.291	20.7
640.622	20.71
640.952	20.6
641.282	20.7
641.612	20.71
641.943	20.93
642.273	20.83
642.603	20.72
642.933	20.97
643.263	21.09
643.592	20.99
643.922	21.16
644.252	21.01
644.582	21.21
644.911	20.93
645.241	20.86
645.571	21.17
645.9	21.13
646.23	20.81
646.559	21.2
646.888	21.06
647.218	20.82
647.547	21.39
647.876	21.42
648.205	21.32
648.534	21.52
648.863	21.23
649.192	21.05
649.521	21.52
649.85	21.31
650.179	21.86
650.508	21.92
650.837	21.54
651.165	21.58
651.494	21.58
651.822	21.75
652.151	21.51
652.479	21.91
652.808	21.32
653.136	22.14
653.465	21.92
653.793	22.09
654.121	21.52
654.449	21.99
654.777	22.2
655.105	21.38
655.433	22
655.761	21.99
656.089	21.96
656.417	22.16
656.745	21.4
657.073	21.66
657.4	21.94
657.728	22.07
658.056	21.87
658.383	22.46
658.711	21.76
659.038	21.65
659.365	22.29
659.693	21.81
660.02	22.49
660.347	22.53
660.674	22.3
661.001	22.27
661.329	22.3
661.656	22.02
661.982	22.44
662.309	22.51
662.636	22.5
662.963	22.63
663.29	22.18
663.616	22.48
663.943	22.49
664.27	22.93
664.596	22.47
664.923	22.56
665.249	22.52
665.576	22.61
665.902	22.63
666.228	22.9
666.554	22.9
666.881	23.05
667.207	23.03
667.533	22.89
667.859	22.52
668.185	22.77
668.511	22.64
668.837	22.81
669.162	22.71
669.488	23.06
669.814	23.51
670.139	22.99
670.465	22.52
670.791	23.39
671.116	23.16
671.442	23.26
671.767	23.09
672.092	22.66
672.418	23.12
672.743	22.49
673.068	23.05
673.393	23.05
673.718	22.98
674.043	23.15
674.368	23.53
674.693	23.5
675.018	23.91
675.343	24.06
675.667	23.77
675.992	23.43
676.317	23.12
676.641	23.25
676.966	24.2
677.29	23.66
677.615	23.33
677.939	22.86
678.264	23.63
678.588	24.04
678.912	24.37
679.236	23.1
