Data from 0015_forehead_Reflection__0__45.txt Node

Date: Mon Oct 17 14:46:47 CDT 2022
User: ToomeyLab
Spectrometer: FLMS14357
Trigger mode: 0
Integration Time (sec): 1.000000E-2
Scans to average: 100
Electric dark correction enabled: true
Nonlinearity correction enabled: false
Boxcar width: 0
XAxis mode: Wavelengths
Number of Pixels in Spectrum: 2048
>>>>>Begin Spectral Data<<<<<
189.047	-486.82
189.435	-486.82
189.823	-486.82
190.211	116.01
190.599	89.45
190.987	12.72
191.375	43.69
191.763	-111.54
192.151	-214.26
192.538	82.2
192.926	948.85
193.314	321.79
193.702	36.86
194.089	-239.72
194.477	-3.45
194.864	-368.78
195.252	-382.73
195.639	-2243.37
196.027	101.76
196.414	-9.31
196.801	-0.64
197.189	699.05
197.576	100.54
197.963	33.9
198.351	-136.83
198.738	37.44
199.125	-16.46
199.512	16.75
199.899	42.01
200.286	-7.54
200.673	24.33
201.06	6.9
201.447	24.15
201.833	28.14
202.22	67.42
202.607	-13.15
202.994	-15.12
203.38	-6.32
203.767	34.4
204.154	49.91
204.54	-12.88
204.927	7.63
205.313	-28.9
205.699	11.94
206.086	-48.59
206.472	16.52
206.858	1.09
207.245	10.44
207.631	33.06
208.017	16.12
208.403	36.93
208.789	27.37
209.175	13.89
209.561	-15.38
209.947	-42.52
210.333	27.68
210.719	22.73
211.105	40.51
211.491	-11.34
211.876	24.44
212.262	32.05
212.648	7.85
213.034	-2.38
213.419	-0.16
213.805	35.59
214.19	17.85
214.576	-13.9
214.961	6.15
215.346	-2.76
215.732	26.92
216.117	15.56
216.502	3.01
216.888	-18.68
217.273	25.05
217.658	5.28
218.043	-18.04
218.428	-11.17
218.813	10.28
219.198	12.71
219.583	-6.74
219.968	5.27
220.353	-5.41
220.738	7.08
221.122	7.31
221.507	2.58
221.892	27.14
222.276	-1.63
222.661	-2.28
223.046	-2.15
223.43	7.6
223.815	-2.79
224.199	6.05
224.583	-4.72
224.968	-5.05
225.352	-13.86
225.736	7.54
226.121	-3.59
226.505	-4.42
226.889	0.13
227.273	1.68
227.657	2.79
228.041	0.05
228.425	3.01
228.809	3.42
229.193	0.94
229.577	2.29
229.961	2.88
230.344	1.28
230.728	1.57
231.112	1.44
231.495	2.11
231.879	3.16
232.263	2.49
232.646	2.64
233.03	1.55
233.413	0.33
233.797	1.46
234.18	3.04
234.563	0.27
234.946	1.44
235.33	0.66
235.713	-0.13
236.096	1.61
236.479	1.02
236.862	2.18
237.245	0.97
237.628	0.34
238.011	0.94
238.394	2.28
238.777	2.78
239.16	2.79
239.543	1.12
239.925	0.81
240.308	2.42
240.691	0.57
241.073	1.67
241.456	0.97
241.838	1.41
242.221	0.63
242.603	1.61
242.986	0.77
243.368	1.87
243.75	1.47
244.133	1.8
244.515	1.82
244.897	1.93
245.279	2.03
245.661	2
246.043	2.05
246.425	0.11
246.807	0.98
247.189	1.62
247.571	1.4
247.953	1.31
248.335	1.62
248.717	1.66
249.098	1.61
249.48	1.73
249.862	1.41
250.243	1.45
250.625	2.05
251.006	1.43
251.388	2.17
251.769	1.18
252.151	1.85
252.532	1.16
252.913	2.08
253.295	1.37
253.676	1.55
254.057	1.91
254.438	1.38
254.819	2.43
255.2	2.55
255.581	1.83
255.962	0.87
256.343	1.31
256.724	1.11
257.105	1.94
257.486	1.56
257.867	2
258.247	1.05
258.628	2.26
259.009	1.79
259.389	1.74
259.77	1.76
260.15	1.37
260.531	1.38
260.911	1.49
261.292	1.63
261.672	1.51
262.052	1.59
262.432	1.58
262.813	1.47
263.193	1.74
263.573	2.37
263.953	1.45
264.333	1.68
264.713	1.07
265.093	1.56
265.473	1.76
265.853	1.35
266.233	2.87
266.612	1.86
266.992	2.28
267.372	1.41
267.752	1.66
268.131	1.64
268.511	1.75
268.89	2.05
269.27	1.38
269.649	1.74
270.029	2.01
270.408	2.05
270.787	1.29
271.167	1.58
271.546	1.68
271.925	1.33
272.304	1.58
272.683	1.79
273.062	1.63
273.441	1.11
273.82	1.42
274.199	1.86
274.578	1.69
274.957	1.4
275.336	1.8
275.715	1.2
276.093	1.41
276.472	1.18
276.851	1.43
277.229	1.11
277.608	1.43
277.986	1.25
278.365	1.57
278.743	2.15
279.122	1.16
279.5	1.89
279.878	1.68
280.257	1.88
280.635	1.29
281.013	1.36
281.391	1.16
281.769	0.98
282.147	1.75
282.525	1.56
282.903	1.36
283.281	1.27
283.659	1.05
284.037	1.15
284.415	1.57
284.792	1.13
285.17	1.21
285.548	1.39
285.925	1.6
286.303	1.73
286.68	1.65
287.058	1.88
287.435	1.73
287.813	1.41
288.19	1.57
288.567	1.35
288.945	1.73
289.322	2.34
289.699	1.67
290.076	1.91
290.453	1.19
290.83	1.42
291.207	1.64
291.584	1.49
291.961	1.76
292.338	1.76
292.715	1.58
293.092	1.49
293.469	1.52
293.845	1.58
294.222	2.07
294.599	2.04
294.975	1.25
295.352	1.02
295.728	1.8
296.105	1.52
296.481	1.67
296.858	2.26
297.234	1.37
297.61	1.88
297.986	1.62
298.363	1.78
298.739	2.16
299.115	1.52
299.491	1.82
299.867	1.86
300.243	1.84
300.619	1.77
300.995	1.95
301.371	1.71
301.746	1.67
302.122	1.94
302.498	2.3
302.874	1.92
303.249	2.32
303.625	2.06
304	2.11
304.376	2.16
304.751	1.99
305.127	2.11
305.502	1.84
305.878	1.96
306.253	1.87
306.628	2.05
307.003	2.1
307.378	2.26
307.754	2.18
308.129	2.29
308.504	2.5
308.879	2.25
309.254	2.26
309.629	1.85
310.003	2.26
310.378	2.34
310.753	2.42
311.128	2.26
311.502	2.21
311.877	2.44
312.252	2.05
312.626	2.02
313.001	2.05
313.375	2.13
313.75	2.17
314.124	2.29
314.498	2.1
314.873	2.75
315.247	2.18
315.621	3.29
315.995	2.11
316.369	2.03
316.743	2.58
317.117	2.5
317.491	2.44
317.865	2.46
318.239	2.95
318.613	2.94
318.987	2.29
319.361	2.78
319.734	2.82
320.108	2.77
320.482	2.96
320.855	2.47
321.229	2.29
321.602	2.79
321.976	2.01
322.349	2.58
322.723	3.04
323.096	2.84
323.469	2.37
323.843	2.52
324.216	2.73
324.589	2.7
324.962	3.1
325.335	2.66
325.708	3.21
326.081	2.73
326.454	3.23
326.827	2.86
327.2	2.27
327.573	2.93
327.945	2.44
328.318	2.67
328.691	2.72
329.063	3.06
329.436	2.77
329.809	3.34
330.181	3.51
330.553	3.11
330.926	2.84
331.298	3.16
331.671	3.47
332.043	3.34
332.415	3.29
332.787	3.38
333.159	3.3
333.532	2.69
333.904	2.77
334.276	3.13
334.648	2.71
335.02	3.3
335.391	3.35
335.763	3.15
336.135	2.91
336.507	3.12
336.879	3
337.25	3.53
337.622	3.34
337.993	3.47
338.365	3.4
338.736	2.87
339.108	3.43
339.479	2.79
339.851	3.59
340.222	3.16
340.593	3.57
340.964	3.26
341.336	3.28
341.707	3.62
342.078	3.14
342.449	3.65
342.82	3.45
343.191	3.45
343.562	3.44
343.933	3.44
344.303	3.48
344.674	4.01
345.045	3.51
345.416	3.47
345.786	3.56
346.157	3.58
346.527	3.51
346.898	3.49
347.268	3.78
347.639	3.58
348.009	3.69
348.38	3.8
348.75	3.4
349.12	3.7
349.49	3.76
349.861	3.89
350.231	3.92
350.601	3.82
350.971	3.74
351.341	3.39
351.711	3.4
352.081	3.81
352.45	3.97
352.82	4.01
353.19	3.77
353.56	3.48
353.929	3.96
354.299	3.96
354.669	3.88
355.038	4.13
355.408	3.89
355.777	3.4
356.147	3.8
356.516	4.06
356.885	3.88
357.254	4.06
357.624	4.14
357.993	4.03
358.362	3.84
358.731	4.05
359.1	3.85
359.469	3.82
359.838	3.95
360.207	4.19
360.576	3.76
360.945	4.16
361.314	3.93
361.682	4.17
362.051	3.83
362.42	3.9
362.788	4.22
363.157	4.15
363.525	4.11
363.894	4.22
364.262	4.22
364.631	3.98
364.999	4.23
365.367	4.04
365.735	4.27
366.104	4.23
366.472	4.21
366.84	4.14
367.208	4.46
367.576	4.35
367.944	4.23
368.312	4.36
368.68	4.58
369.048	4.23
369.416	4.65
369.783	4.51
370.151	4.48
370.519	4.63
370.886	4.65
371.254	4.33
371.621	4.45
371.989	4.75
372.356	4.43
372.724	4.63
373.091	4.55
373.458	4.39
373.826	4.93
374.193	4.81
374.56	4.79
374.927	4.56
375.294	4.72
375.661	4.44
376.028	4.85
376.395	4.75
376.762	4.63
377.129	4.56
377.496	4.68
377.863	4.45
378.229	4.52
378.596	4.61
378.963	4.48
379.329	4.67
379.696	4.7
380.062	5
380.429	4.76
380.795	4.98
381.161	4.84
381.528	4.72
381.894	4.7
382.26	4.82
382.626	4.91
382.993	4.99
383.359	4.79
383.725	5.21
384.091	4.97
384.457	5.13
384.823	4.44
385.188	4.94
385.554	5.11
385.92	5.22
386.286	5.09
386.651	5.33
387.017	4.97
387.383	5.08
387.748	4.95
388.114	5.15
388.479	5.33
388.845	5.31
389.21	4.92
389.575	5.24
389.94	5.37
390.306	5.44
390.671	5.56
391.036	5.54
391.401	5.34
391.766	5.35
392.131	5.65
392.496	5.68
392.861	5.29
393.226	5.33
393.591	5.22
393.956	5.36
394.32	5.51
394.685	5.48
395.05	5.4
395.414	5.54
395.779	5.51
396.143	5.41
396.508	5.59
396.872	5.57
397.236	5.42
397.601	5.58
397.965	5.44
398.329	5.73
398.694	5.62
399.058	5.57
399.422	5.76
399.786	5.85
400.15	5.99
400.514	5.66
400.878	5.72
401.242	5.74
401.605	6.12
401.969	5.91
402.333	5.72
402.697	5.83
403.06	5.85
403.424	5.73
403.787	5.74
404.151	5.82
404.514	6.06
404.878	5.8
405.241	5.9
405.604	6.11
405.968	5.93
406.331	5.85
406.694	5.91
407.057	5.89
407.42	6.03
407.783	6.21
408.146	6.02
408.509	6.1
408.872	6.03
409.235	6.07
409.598	6.09
409.961	6
410.323	6.24
410.686	6.02
411.049	6.18
411.411	6.16
411.774	6.13
412.136	5.98
412.499	6.25
412.861	6.35
413.223	6.17
413.586	6.33
413.948	6.48
414.31	6.14
414.672	6.13
415.035	6.29
415.397	6.37
415.759	6.43
416.121	6.24
416.483	6.51
416.845	6.37
417.206	6.4
417.568	6.61
417.93	6.39
418.292	6.51
418.653	6.51
419.015	6.48
419.377	6.54
419.738	6.39
420.1	6.53
420.461	6.46
420.822	6.48
421.184	6.36
421.545	6.36
421.906	6.39
422.267	6.48
422.629	6.32
422.99	6.45
423.351	6.54
423.712	6.58
424.073	6.58
424.434	6.59
424.795	6.76
425.155	6.77
425.516	6.54
425.877	6.58
426.238	6.66
426.598	6.76
426.959	6.71
427.32	6.78
427.68	6.75
428.041	6.8
428.401	6.8
428.761	6.96
429.122	7.08
429.482	6.95
429.842	7.07
430.202	7.23
430.563	7.19
430.923	7.08
431.283	7.22
431.643	7.13
432.003	7.22
432.363	7.32
432.722	7.11
433.082	7.12
433.442	7.18
433.802	7.09
434.161	7.13
434.521	7.39
434.881	7.36
435.24	7.15
435.6	7.33
435.959	7.29
436.319	7.39
436.678	7.18
437.037	7.31
437.396	7.37
437.756	7.51
438.115	7.48
438.474	7.4
438.833	7.43
439.192	7.43
439.551	7.55
439.91	7.57
440.269	7.37
440.628	7.48
440.987	7.52
441.345	7.49
441.704	7.53
442.063	7.42
442.421	7.55
442.78	7.6
443.138	7.64
443.497	7.74
443.855	7.78
444.214	7.69
444.572	7.7
444.93	7.89
445.288	7.77
445.647	7.83
446.005	7.91
446.363	7.95
446.721	7.81
447.079	7.82
447.437	7.86
447.795	7.83
448.153	7.82
448.51	7.76
448.868	7.9
449.226	7.91
449.584	7.98
449.941	7.92
450.299	8.14
450.656	7.92
451.014	8.02
451.371	8.3
451.729	8.23
452.086	8.24
452.443	8.46
452.801	8.36
453.158	8.45
453.515	8.26
453.872	8.18
454.229	8.17
454.586	8.16
454.943	8.22
455.3	8.43
455.657	8.39
456.014	8.49
456.371	8.48
456.727	8.48
457.084	8.59
457.441	8.59
457.797	8.59
458.154	8.65
458.51	8.55
458.867	8.6
459.223	8.71
459.58	8.62
459.936	8.47
460.292	8.59
460.648	8.55
461.005	8.5
461.361	8.45
461.717	8.39
462.073	8.46
462.429	8.64
462.785	8.74
463.141	9.02
463.496	8.87
463.852	8.95
464.208	8.88
464.564	8.94
464.919	9.05
465.275	8.98
465.631	9.06
465.986	9.04
466.342	8.99
466.697	9.07
467.052	9.02
467.408	9.19
467.763	9.02
468.118	9.08
468.473	9.26
468.829	9.12
469.184	9.15
469.539	9.2
469.894	9.23
470.249	9.31
470.603	9.28
470.958	9.45
471.313	9.24
471.668	9.49
472.023	9.32
472.377	9.55
472.732	9.33
473.086	9.48
473.441	9.7
473.795	9.55
474.15	9.67
474.504	9.63
474.859	9.61
475.213	9.69
475.567	9.7
475.921	9.4
476.275	9.72
476.63	9.75
476.984	9.65
477.338	9.74
477.692	9.9
478.045	9.78
478.399	9.84
478.753	9.84
479.107	9.68
479.461	9.79
479.814	9.87
480.168	9.75
480.521	9.89
480.875	9.87
481.228	9.91
481.582	10.01
481.935	10.08
482.289	9.84
482.642	9.98
482.995	9.96
483.348	9.9
483.701	9.81
484.055	9.82
484.408	9.84
484.761	9.62
485.114	9.47
485.466	9.4
485.819	9.47
486.172	9.48
486.525	9.66
486.878	9.75
487.23	9.89
487.583	10.09
487.936	9.98
488.288	9.95
488.641	9.88
488.993	9.79
489.345	9.8
489.698	9.8
490.05	9.85
490.402	9.92
490.754	10.03
491.107	10.16
491.459	10.37
491.811	10.35
492.163	10.37
492.515	10.39
492.866	10.19
493.218	10.04
493.57	10.11
493.922	10.18
494.274	10.26
494.625	10.49
494.977	10.61
495.328	10.58
495.68	10.73
496.031	10.86
496.383	10.92
496.734	10.92
497.086	10.83
497.437	10.87
497.788	10.91
498.139	10.68
498.49	10.87
498.842	10.84
499.193	10.79
499.544	10.89
499.894	11.03
500.245	10.91
500.596	11.06
500.947	11.18
501.298	11.19
501.648	11.19
501.999	11.25
502.35	11.3
502.7	11.43
503.051	11.39
503.401	11.45
503.752	11.56
504.102	11.43
504.452	11.28
504.803	11.51
505.153	11.51
505.503	11.52
505.853	11.38
506.203	11.52
506.553	11.54
506.903	11.55
507.253	11.62
507.603	11.65
507.953	11.69
508.303	11.7
508.652	11.63
509.002	11.68
509.352	11.5
509.701	11.57
510.051	11.79
510.4	11.63
510.75	11.68
511.099	11.75
511.449	11.65
511.798	11.69
512.147	11.72
512.496	11.88
512.846	11.79
513.195	11.81
513.544	11.73
513.893	11.78
514.242	12.02
514.591	11.86
514.939	11.94
515.288	11.98
515.637	12.14
515.986	12.1
516.334	12.13
516.683	12.18
517.032	12.3
517.38	12.17
517.729	12.29
518.077	12.24
518.426	12.13
518.774	12.21
519.122	12.19
519.47	12.16
519.819	12.13
520.167	11.99
520.515	12.03
520.863	12.28
521.211	12.23
521.559	12.21
521.907	12.39
522.255	12.39
522.602	12.45
522.95	12.63
523.298	12.56
523.645	12.62
523.993	12.63
524.341	12.7
524.688	12.64
525.036	12.66
525.383	12.77
525.73	12.72
526.078	12.64
526.425	12.73
526.772	12.65
527.119	12.52
527.466	12.41
527.814	12.57
528.161	12.65
528.508	12.62
528.854	12.8
529.201	12.68
529.548	12.59
529.895	12.32
530.242	12.21
530.588	12.3
530.935	12.34
531.282	12.44
531.628	12.56
531.975	12.74
532.321	12.68
532.667	12.96
533.014	13.04
533.36	12.99
533.706	13.07
534.052	13.1
534.399	12.93
534.745	12.82
535.091	12.78
535.437	12.88
535.783	12.96
536.129	13.06
536.474	13.2
536.82	13.33
537.166	13.44
537.512	13.45
537.857	13.41
538.203	13.36
538.549	13.25
538.894	13.3
539.239	13.43
539.585	13.5
539.93	13.67
540.276	13.7
540.621	13.67
540.966	13.84
541.311	13.75
541.656	13.83
542.001	13.74
542.346	13.61
542.691	13.46
543.036	13.29
543.381	13.26
543.726	13.4
544.071	13.51
544.415	13.65
544.76	13.72
545.105	13.72
545.449	13.86
545.794	13.92
546.138	13.98
546.483	14.02
546.827	14.13
547.171	14.16
547.516	14.2
547.86	14.3
548.204	14.22
548.548	14.12
548.892	14.26
549.236	14.32
549.58	14.39
549.924	14.49
550.268	14.54
550.612	14.5
550.956	14.73
551.3	14.76
551.643	14.93
551.987	14.84
552.33	14.65
552.674	14.8
553.017	14.89
553.361	14.91
553.704	14.66
554.048	14.79
554.391	14.86
554.734	14.8
555.077	14.96
555.42	14.94
555.764	14.99
556.107	15.13
556.45	15
556.793	15.12
557.135	15.25
557.478	15.13
557.821	15.28
558.164	15.18
558.507	15.33
558.849	15.35
559.192	15.29
559.534	15.34
559.877	15.32
560.219	15.34
560.562	15.29
560.904	15.5
561.246	15.62
561.589	15.53
561.931	15.44
562.273	15.72
562.615	15.58
562.957	15.6
563.299	15.71
563.641	15.72
563.983	15.52
564.325	15.76
564.667	15.75
565.008	16.13
565.35	15.89
565.692	16
566.033	15.79
566.375	15.68
566.716	15.88
567.058	15.84
567.399	15.81
567.741	15.83
568.082	16
568.423	15.85
568.764	15.97
569.105	16.07
569.447	16.09
569.788	16.2
570.129	16.16
570.47	16.13
570.811	16.34
571.151	16.24
571.492	16.43
571.833	16.22
572.174	16.36
572.514	16.21
572.855	16.41
573.195	16.18
573.536	16.29
573.876	16.4
574.217	16.29
574.557	16.45
574.898	16.3
575.238	16.53
575.578	16.6
575.918	16.46
576.258	16.69
576.598	16.54
576.938	16.67
577.278	16.78
577.618	16.7
577.958	16.64
578.298	16.87
578.638	16.84
578.977	16.87
579.317	16.61
579.657	16.86
579.996	17.13
580.336	17.09
580.675	17.05
581.014	17.02
581.354	17.14
581.693	16.99
582.032	17.18
582.372	17.04
582.711	17.31
583.05	17.3
583.389	17.41
583.728	17.53
584.067	17.37
584.406	17.31
584.745	17.42
585.083	17.33
585.422	17.47
585.761	17.55
586.1	17.64
586.438	17.6
586.777	17.6
587.115	17.58
587.454	17.63
587.792	17.78
588.13	17.84
588.469	17.93
588.807	17.77
589.145	18.04
589.483	17.8
589.821	17.65
590.159	17.85
590.497	17.93
590.835	18.1
591.173	17.98
591.511	18.02
591.849	17.99
592.187	18.16
592.524	18.24
592.862	18.19
593.2	18.21
593.537	18.2
593.875	18.4
594.212	18.54
594.55	18.14
594.887	18.08
595.224	18.26
595.561	18.37
595.899	18.36
596.236	18.25
596.573	18.34
596.91	18.5
597.247	18.62
597.584	18.38
597.921	18.34
598.258	18.23
598.594	18.36
598.931	18.34
599.268	18.36
599.604	18.6
599.941	18.47
600.277	18.67
600.614	18.87
600.95	18.63
601.287	18.94
601.623	18.69
601.959	18.73
602.296	18.76
602.632	18.89
602.968	18.75
603.304	19.14
603.64	18.83
603.976	18.71
604.312	19.14
604.648	19
604.984	18.96
605.319	18.74
605.655	19.06
605.991	18.95
606.326	18.84
606.662	19.04
606.998	19.02
607.333	19.24
607.668	19.05
608.004	19.28
608.339	19.23
608.674	19.55
609.01	19.59
609.345	19.57
609.68	19.45
610.015	19.42
610.35	19.45
610.685	19.31
611.02	19.55
611.355	19.38
611.689	19.37
612.024	19.55
612.359	19.34
612.694	19.77
613.028	19.61
613.363	19.94
613.697	19.44
614.032	20.34
614.366	19.77
614.7	19.71
615.035	19.92
615.369	20.2
615.703	19.9
616.037	20.41
616.371	20.19
616.705	20.15
617.039	20.26
617.373	20.39
617.707	20.08
618.041	20
618.375	20.22
618.709	20.39
619.042	20.36
619.376	20.5
619.71	20.29
620.043	20.46
620.377	20.51
620.71	20.46
621.043	21
621.377	20.64
621.71	20.63
622.043	20.61
622.376	20.61
622.709	20.87
623.043	20.54
623.376	20.61
623.709	20.62
624.041	20.63
624.374	20.98
624.707	20.67
625.04	20.85
625.373	20.95
625.705	20.61
626.038	20.78
626.37	20.43
626.703	21.28
627.035	20.62
627.368	20.85
627.7	21.02
628.032	20.87
628.365	20.78
628.697	21
629.029	21.13
629.361	21.25
629.693	21.01
630.025	20.78
630.357	21.1
630.689	20.86
631.021	21.57
631.353	21.22
631.684	20.9
632.016	21.45
632.348	21.51
632.679	21.36
633.011	21.16
633.342	21.3
633.674	21.58
634.005	21.33
634.336	21.65
634.668	21.81
634.999	21.62
635.33	21.39
635.661	21.68
635.992	21.36
636.323	22
636.654	21.94
636.985	21.7
637.316	21.57
637.647	21.73
637.977	21.64
638.308	21.58
638.639	21.26
638.969	22.02
639.3	21.73
639.63	22.24
639.961	21.86
640.291	21.89
640.622	21.91
640.952	21.91
641.282	21.98
641.612	22.27
641.943	22.04
642.273	22.44
642.603	21.98
642.933	22.32
643.263	22.28
643.592	22.41
643.922	22.19
644.252	22.47
644.582	22.65
644.911	22.62
645.241	22.38
645.571	22.41
645.9	22.25
646.23	22.26
646.559	22.42
646.888	22.4
647.218	22.89
647.547	22.75
647.876	22.55
648.205	22.65
648.534	22.93
648.863	22.58
649.192	22.66
649.521	22.37
649.85	22.77
650.179	23.13
650.508	22.38
650.837	22.43
651.165	22.86
651.494	23.22
651.822	23.09
652.151	23.39
652.479	23.03
652.808	22.9
653.136	22.83
653.465	22.81
653.793	23.36
654.121	23.01
654.449	23.32
654.777	23.04
655.105	22.96
655.433	23.17
655.761	23.42
656.089	23.85
656.417	23.39
656.745	23.31
657.073	23.39
657.4	23.59
657.728	23.28
658.056	23.19
658.383	24.05
658.711	23.77
659.038	23.48
659.365	23.71
659.693	23.41
660.02	23.39
660.347	23.63
660.674	23.53
661.001	23.4
661.329	23.76
661.656	23.42
661.982	23.65
662.309	23.87
662.636	23.88
662.963	24.08
663.29	24.18
663.616	24.12
663.943	23.8
664.27	24.47
664.596	23.92
664.923	24.41
665.249	23.95
665.576	23.98
665.902	24.52
666.228	24.12
666.554	24.02
666.881	24.73
667.207	24.22
667.533	25.07
667.859	24.66
668.185	24.65
668.511	24.11
668.837	24.23
669.162	24.86
669.488	24.27
669.814	24.95
670.139	24.45
670.465	24.53
670.791	24.81
671.116	24.63
671.442	24.35
671.767	24.63
672.092	24.52
672.418	24.63
672.743	24.65
673.068	24.97
673.393	24.64
673.718	24.44
674.043	24.99
674.368	24.91
674.693	25.13
675.018	25.24
675.343	25.44
675.667	25.51
675.992	25.19
676.317	25.43
676.641	24.46
676.966	24.99
677.29	24.79
677.615	25.09
677.939	24.58
678.264	25.13
678.588	25.27
678.912	25.03
