Data from 0015_forehead_Reflection__2__47.txt Node

Date: Mon Oct 17 14:47:13 CDT 2022
User: ToomeyLab
Spectrometer: FLMS14357
Trigger mode: 0
Integration Time (sec): 1.000000E-2
Scans to average: 100
Electric dark correction enabled: true
Nonlinearity correction enabled: false
Boxcar width: 0
XAxis mode: Wavelengths
Number of Pixels in Spectrum: 2048
>>>>>Begin Spectral Data<<<<<
189.047	-272.27
189.435	-272.27
189.823	-272.27
190.211	141.81
190.599	80.84
190.987	-105.62
191.375	134.45
191.763	-160.89
192.151	187.4
192.538	185.41
192.926	-383.46
193.314	238.02
193.702	-220.88
194.089	-178.85
194.477	109.18
194.864	-261.48
195.252	-1955.93
195.639	-1896.43
196.027	54.78
196.414	109.1
196.801	-125.4
197.189	493.99
197.576	114.82
197.963	-346.04
198.351	-89.38
198.738	25.11
199.125	-31.59
199.512	-36.37
199.899	-4.95
200.286	-20.14
200.673	12
201.06	-13.97
201.447	15.53
201.833	15.11
202.22	-0.29
202.607	-161.73
202.994	-44.66
203.38	-18.07
203.767	1.93
204.154	58.91
204.54	-7.94
204.927	-13.35
205.313	-0.57
205.699	-4
206.086	-28.18
206.472	-12.06
206.858	-14.57
207.245	15.38
207.631	15.62
208.017	25.09
208.403	28.37
208.789	-7.4
209.175	5.66
209.561	-1.49
209.947	-45.13
210.333	11.64
210.719	11.02
211.105	43.07
211.491	-18.21
211.876	38.64
212.262	56.67
212.648	-10.41
213.034	8.23
213.419	13.2
213.805	-12.14
214.19	10.56
214.576	14.59
214.961	6.22
215.346	0.31
215.732	-2.18
216.117	16.78
216.502	4.47
216.888	-2.32
217.273	15.68
217.658	17.24
218.043	-13.44
218.428	-29.89
218.813	28.77
219.198	19.48
219.583	-7.37
219.968	1.37
220.353	-10.61
220.738	1.19
221.122	-3.48
221.507	1.24
221.892	14
222.276	-7.43
222.661	9.96
223.046	0.8
223.43	5.18
223.815	-8.59
224.199	3.88
224.583	2.15
224.968	-21.16
225.352	-14.73
225.736	3.33
226.121	0.28
226.505	-4.67
226.889	-1
227.273	1.94
227.657	3.26
228.041	3.82
228.425	-0.59
228.809	2.44
229.193	-0.34
229.577	0.88
229.961	2.92
230.344	0.57
230.728	0.83
231.112	1.42
231.495	1.06
231.879	1.87
232.263	0.75
232.646	1.68
233.03	0.6
233.413	-1.72
233.797	1.9
234.18	-0.3
234.563	0.4
234.946	1.12
235.33	1.3
235.713	1.26
236.096	1.81
236.479	-0.16
236.862	0.84
237.245	-0.12
237.628	0.93
238.011	1.69
238.394	0.9
238.777	0.82
239.16	1.29
239.543	0.08
239.925	0.33
240.308	1.17
240.691	0.67
241.073	0.55
241.456	-0.13
241.838	1.24
242.221	0.29
242.603	1.69
242.986	0.69
243.368	1.82
243.75	1.1
244.133	0.9
244.515	1.18
244.897	1.22
245.279	1.51
245.661	1.71
246.043	1.03
246.425	0.63
246.807	0.06
247.189	1.49
247.571	0.96
247.953	0.92
248.335	1.18
248.717	1.28
249.098	1.33
249.48	1
249.862	0.75
250.243	0.87
250.625	0.9
251.006	0.68
251.388	0.52
251.769	0.88
252.151	1.1
252.532	0.56
252.913	1.2
253.295	0.95
253.676	1.17
254.057	1.42
254.438	1.32
254.819	1.66
255.2	1.02
255.581	1.56
255.962	1.13
256.343	-0.21
256.724	1.19
257.105	0.66
257.486	-0.34
257.867	0.53
258.247	1.08
258.628	1.76
259.009	1.29
259.389	1.58
259.77	1.76
260.15	1.21
260.531	1.15
260.911	1.01
261.292	1.35
261.672	1.09
262.052	1.12
262.432	1.28
262.813	1.13
263.193	1.34
263.573	1.6
263.953	0.7
264.333	1.45
264.713	0.84
265.093	1.59
265.473	0.92
265.853	0.53
266.233	2.09
266.612	1.36
266.992	1.17
267.372	1.19
267.752	1.5
268.131	1.21
268.511	1.1
268.89	1.47
269.27	0.99
269.649	1.52
270.029	1.15
270.408	1.71
270.787	0.92
271.167	0.9
271.546	1.15
271.925	0.87
272.304	1.19
272.683	1.25
273.062	1.39
273.441	1.11
273.82	1.3
274.199	1.55
274.578	1.3
274.957	0.86
275.336	1.33
275.715	1.37
276.093	0.77
276.472	0.33
276.851	1.15
277.229	0.88
277.608	1.05
277.986	1.4
278.365	1.33
278.743	1.08
279.122	0.46
279.5	1.47
279.878	1.15
280.257	0.93
280.635	0.98
281.013	0.93
281.391	0.63
281.769	1.08
282.147	1.05
282.525	1.15
282.903	0.71
283.281	0.97
283.659	0.99
284.037	0.57
284.415	1.31
284.792	0.67
285.17	0.78
285.548	0.27
285.925	1.28
286.303	1.15
286.68	1.31
287.058	1.37
287.435	1.24
287.813	1.06
288.19	0.88
288.567	0.73
288.945	1.11
289.322	1.85
289.699	1.17
290.076	1.42
290.453	1.12
290.83	1.18
291.207	1.31
291.584	1.42
291.961	1.34
292.338	1.29
292.715	1.16
293.092	1.3
293.469	1.1
293.845	1.53
294.222	1.45
294.599	1.64
294.975	0.81
295.352	0.82
295.728	1.31
296.105	1.23
296.481	1.45
296.858	1.45
297.234	1.45
297.61	1.13
297.986	1.07
298.363	1.36
298.739	1.54
299.115	1.45
299.491	1.69
299.867	1.43
300.243	1.53
300.619	1.54
300.995	1.28
301.371	1.58
301.746	1.48
302.122	1.46
302.498	1.42
302.874	1.69
303.249	1.39
303.625	1.71
304	1.48
304.376	1.56
304.751	1.5
305.127	1.45
305.502	1.33
305.878	1.65
306.253	1.52
306.628	2.02
307.003	1.45
307.378	2.2
307.754	1.49
308.129	0.96
308.504	1.77
308.879	1.63
309.254	1.8
309.629	1.47
310.003	1.85
310.378	1.9
310.753	1.72
311.128	1.54
311.502	1.89
311.877	1.77
312.252	1.84
312.626	1.45
313.001	1.74
313.375	1.78
313.75	1.9
314.124	2.11
314.498	1.76
314.873	1.93
315.247	1.7
315.621	2.38
315.995	1.86
316.369	1.81
316.743	1.87
317.117	2.31
317.491	2.16
317.865	2.01
318.239	2.34
318.613	2.21
318.987	1.89
319.361	1.36
319.734	2.42
320.108	2.05
320.482	2.25
320.855	1.97
321.229	1.9
321.602	1.66
321.976	1.52
322.349	1.9
322.723	1.8
323.096	2
323.469	1.84
323.843	2.2
324.216	2.28
324.589	1.65
324.962	2.04
325.335	1.64
325.708	2.14
326.081	2.04
326.454	2.38
326.827	2.14
327.2	1.57
327.573	1.97
327.945	2.05
328.318	2.12
328.691	2.56
329.063	2.28
329.436	2.17
329.809	1.81
330.181	2.91
330.553	2.24
330.926	2.44
331.298	2.29
331.671	3.18
332.043	2.37
332.415	2.32
332.787	2.26
333.159	2.35
333.532	2.07
333.904	2.23
334.276	2.3
334.648	2.17
335.02	2.09
335.391	2.6
335.763	2.28
336.135	2.72
336.507	2.4
336.879	2.26
337.25	2.73
337.622	2.4
337.993	2.42
338.365	2.23
338.736	2.3
339.108	2.42
339.479	2.14
339.851	2.59
340.222	2.3
340.593	2.75
340.964	2.61
341.336	2.19
341.707	2.66
342.078	2.91
342.449	2.56
342.82	2.88
343.191	2.42
343.562	2.57
343.933	2.68
344.303	2.28
344.674	3.19
345.045	2.73
345.416	2.9
345.786	2.69
346.157	2.57
346.527	2.61
346.898	2.91
347.268	2.99
347.639	2.78
348.009	2.68
348.38	2.57
348.75	2.65
349.12	2.99
349.49	2.66
349.861	2.75
350.231	2.9
350.601	2.76
350.971	2.96
351.341	2.64
351.711	2.65
352.081	2.99
352.45	2.57
352.82	2.87
353.19	2.61
353.56	2.61
353.929	2.85
354.299	2.97
354.669	2.69
355.038	3.19
355.408	2.83
355.777	2.38
356.147	2.89
356.516	3.16
356.885	3.16
357.254	3.15
357.624	3.09
357.993	2.83
358.362	2.83
358.731	2.69
359.1	2.98
359.469	2.84
359.838	2.85
360.207	3.13
360.576	2.76
360.945	3.08
361.314	3.3
361.682	3.09
362.051	3.02
362.42	2.85
362.788	3.01
363.157	3.19
363.525	2.81
363.894	3.26
364.262	3.15
364.631	3.25
364.999	3.17
365.367	3.05
365.735	3.34
366.104	2.95
366.472	2.95
366.84	3
367.208	3.29
367.576	3.38
367.944	3.3
368.312	3.25
368.68	3.39
369.048	3.28
369.416	3.37
369.783	3.05
370.151	3.53
370.519	3.23
370.886	3.31
371.254	3.08
371.621	3.38
371.989	3.55
372.356	3.1
372.724	3.44
373.091	3.67
373.458	3.37
373.826	3.52
374.193	3.84
374.56	3.55
374.927	3.37
375.294	3.45
375.661	3.46
376.028	3.48
376.395	3.59
376.762	3.71
377.129	3.58
377.496	3.3
377.863	3.32
378.229	3.49
378.596	3.29
378.963	3.64
379.329	3.51
379.696	3.57
380.062	3.72
380.429	3.63
380.795	3.8
381.161	3.55
381.528	3.46
381.894	3.62
382.26	3.67
382.626	3.73
382.993	3.94
383.359	3.62
383.725	3.95
384.091	3.73
384.457	3.86
384.823	3.49
385.188	3.5
385.554	4.06
385.92	3.83
386.286	4.04
386.651	4.03
387.017	3.92
387.383	3.91
387.748	3.85
388.114	3.64
388.479	3.97
388.845	4.13
389.21	3.7
389.575	3.92
389.94	4.16
390.306	4.28
390.671	4.22
391.036	3.97
391.401	4.12
391.766	3.92
392.131	4.13
392.496	4.25
392.861	4.11
393.226	4
393.591	4
393.956	4.14
394.32	3.98
394.685	4.22
395.05	4.17
395.414	4.23
395.779	4.02
396.143	4.27
396.508	4.02
396.872	4.05
397.236	4.12
397.601	4.18
397.965	4.18
398.329	4.52
398.694	4.36
399.058	4.22
399.422	4.35
399.786	4.46
400.15	4.56
400.514	4.24
400.878	4.23
401.242	4.3
401.605	4.57
401.969	4.25
402.333	4.46
402.697	4.13
403.06	4.37
403.424	4.39
403.787	4.45
404.151	4.41
404.514	4.58
404.878	4.34
405.241	4.51
405.604	4.48
405.968	4.56
406.331	4.44
406.694	4.61
407.057	4.44
407.42	4.37
407.783	4.75
408.146	4.71
408.509	4.87
408.872	4.57
409.235	4.66
409.598	4.56
409.961	4.41
410.323	4.81
410.686	4.73
411.049	4.78
411.411	4.77
411.774	4.75
412.136	4.61
412.499	4.79
412.861	4.86
413.223	4.72
413.586	4.6
413.948	4.96
414.31	4.88
414.672	4.84
415.035	5.12
415.397	4.94
415.759	4.66
416.121	4.81
416.483	4.88
416.845	5.01
417.206	4.76
417.568	4.87
417.93	4.87
418.292	5
418.653	4.9
419.015	4.84
419.377	5
419.738	4.83
420.1	5.03
420.461	4.92
420.822	5.06
421.184	4.96
421.545	4.99
421.906	4.95
422.267	4.92
422.629	4.85
422.99	4.94
423.351	4.97
423.712	5.05
424.073	5.06
424.434	5.15
424.795	5.2
425.155	5.19
425.516	5.02
425.877	5.01
426.238	5.07
426.598	5.14
426.959	5.08
427.32	5.3
427.68	5.2
428.041	5.24
428.401	5.4
428.761	5.42
429.122	5.46
429.482	5.46
429.842	5.36
430.202	5.58
430.563	5.45
430.923	5.64
431.283	5.45
431.643	5.56
432.003	5.52
432.363	5.6
432.722	5.6
433.082	5.46
433.442	5.62
433.802	5.49
434.161	5.48
434.521	5.71
434.881	5.62
435.24	5.45
435.6	5.63
435.959	5.61
436.319	5.68
436.678	5.6
437.037	5.87
437.396	5.63
437.756	5.94
438.115	5.79
438.474	5.74
438.833	5.69
439.192	5.77
439.551	5.7
439.91	5.91
440.269	5.88
440.628	5.88
440.987	5.84
441.345	5.77
441.704	5.87
442.063	5.62
442.421	5.78
442.78	5.81
443.138	5.91
443.497	6.01
443.855	6.01
444.214	5.97
444.572	6.01
444.93	6.1
445.288	6.17
445.647	6.07
446.005	6.22
446.363	6.16
446.721	6.06
447.079	6.02
447.437	6.06
447.795	6.11
448.153	6.18
448.51	6.09
448.868	6.25
449.226	6.18
449.584	6.33
449.941	6.27
450.299	6.39
450.656	6.16
451.014	6.18
451.371	6.54
451.729	6.42
452.086	6.43
452.443	6.52
452.801	6.64
453.158	6.55
453.515	6.45
453.872	6.41
454.229	6.47
454.586	6.58
454.943	6.43
455.3	6.52
455.657	6.52
456.014	6.61
456.371	6.71
456.727	6.55
457.084	6.68
457.441	6.77
457.797	6.76
458.154	6.77
458.51	6.85
458.867	6.83
459.223	6.8
459.58	6.8
459.936	6.69
460.292	6.79
460.648	6.74
461.005	6.75
461.361	6.71
461.717	6.57
462.073	6.64
462.429	6.74
462.785	6.9
463.141	6.97
463.496	6.95
463.852	7.07
464.208	6.99
464.564	6.94
464.919	7.09
465.275	7.18
465.631	7.23
465.986	7.16
466.342	7.05
466.697	7.21
467.052	7.18
467.408	7.38
467.763	7.07
468.118	7.37
468.473	7.24
468.829	7.14
469.184	7.32
469.539	7.25
469.894	7.35
470.249	7.28
470.603	7.43
470.958	7.49
471.313	7.32
471.668	7.53
472.023	7.36
472.377	7.58
472.732	7.43
473.086	7.6
473.441	7.67
473.795	7.53
474.15	7.46
474.504	7.64
474.859	7.57
475.213	7.61
475.567	7.75
475.921	7.49
476.275	7.59
476.63	7.66
476.984	7.73
477.338	7.77
477.692	7.75
478.045	7.85
478.399	7.74
478.753	7.7
479.107	7.81
479.461	7.89
479.814	7.81
480.168	7.85
480.521	7.79
480.875	7.86
481.228	7.92
481.582	7.95
481.935	7.96
482.289	7.91
482.642	7.88
482.995	8.03
483.348	7.93
483.701	7.85
484.055	7.81
484.408	7.79
484.761	7.7
485.114	7.5
485.466	7.44
485.819	7.4
486.172	7.51
486.525	7.69
486.878	7.82
487.23	7.9
487.583	8.07
487.936	7.98
488.288	7.97
488.641	7.84
488.993	7.72
489.345	7.78
489.698	7.79
490.05	7.88
490.402	7.93
490.754	8.09
491.107	8.21
491.459	8.3
491.811	8.33
492.163	8.37
492.515	8.23
492.866	8.1
493.218	8.03
493.57	8.04
493.922	8.11
494.274	8.28
494.625	8.4
494.977	8.57
495.328	8.61
495.68	8.71
496.031	8.8
496.383	8.8
496.734	8.8
497.086	8.7
497.437	8.84
497.788	8.83
498.139	8.75
498.49	8.7
498.842	8.6
499.193	8.75
499.544	8.81
499.894	8.86
500.245	8.78
500.596	8.89
500.947	8.92
501.298	8.96
501.648	8.98
501.999	9.03
502.35	9.16
502.7	9.24
503.051	9.23
503.401	9.22
503.752	9.34
504.102	9.21
504.452	9.2
504.803	9.27
505.153	9.33
505.503	9.31
505.853	9.29
506.203	9.37
506.553	9.54
506.903	9.37
507.253	9.39
507.603	9.41
507.953	9.45
508.303	9.46
508.652	9.55
509.002	9.64
509.352	9.44
509.701	9.39
510.051	9.6
510.4	9.41
510.75	9.5
511.099	9.47
511.449	9.49
511.798	9.54
512.147	9.58
512.496	9.66
512.846	9.65
513.195	9.58
513.544	9.66
513.893	9.65
514.242	9.68
514.591	9.59
514.939	9.72
515.288	9.84
515.637	9.78
515.986	10.04
516.334	10.04
516.683	10
517.032	9.97
517.38	9.92
517.729	10.11
518.077	10.09
518.426	9.95
518.774	9.88
519.122	9.92
519.47	9.87
519.819	9.95
520.167	9.95
520.515	9.88
520.863	9.94
521.211	10.03
521.559	10.08
521.907	10.2
522.255	10.24
522.602	10.26
522.95	10.32
523.298	10.29
523.645	10.34
523.993	10.38
524.341	10.48
524.688	10.58
525.036	10.46
525.383	10.53
525.73	10.56
526.078	10.37
526.425	10.39
526.772	10.3
527.119	10.24
527.466	10.19
527.814	10.34
528.161	10.37
528.508	10.46
528.854	10.47
529.201	10.45
529.548	10.25
529.895	10.07
530.242	9.97
530.588	10.02
530.935	10.14
531.282	10.27
531.628	10.43
531.975	10.56
532.321	10.67
532.667	10.77
533.014	10.82
533.36	10.73
533.706	10.82
534.052	10.76
534.399	10.62
534.745	10.52
535.091	10.47
535.437	10.61
535.783	10.75
536.129	10.83
536.474	11.13
536.82	11.1
537.166	11.15
537.512	11.22
537.857	11.18
538.203	10.98
538.549	11.01
538.894	11
539.239	11.17
539.585	11.21
539.93	11.36
540.276	11.34
540.621	11.48
540.966	11.44
541.311	11.41
541.656	11.43
542.001	11.44
542.346	11.21
542.691	11.05
543.036	10.94
543.381	11.01
543.726	11.1
544.071	11.18
544.415	11.38
544.76	11.52
545.105	11.46
545.449	11.6
545.794	11.59
546.138	11.76
546.483	11.9
546.827	11.92
547.171	11.74
547.516	11.84
547.86	11.84
548.204	11.8
548.548	11.75
548.892	11.98
549.236	11.85
549.58	11.99
549.924	12.09
550.268	12.12
550.612	12.28
550.956	12.43
551.3	12.21
551.643	12.47
551.987	12.38
552.33	12.46
552.674	12.51
553.017	12.44
553.361	12.42
553.704	12.46
554.048	12.29
554.391	12.46
554.734	12.34
555.077	12.44
555.42	12.48
555.764	12.64
556.107	12.58
556.45	12.66
556.793	12.63
557.135	13
557.478	12.84
557.821	12.99
558.164	12.74
558.507	12.99
558.849	12.58
559.192	13
559.534	12.97
559.877	12.82
560.219	12.98
560.562	12.83
560.904	13.05
561.246	13.21
561.589	13.11
561.931	13.13
562.273	13.33
562.615	13.12
562.957	13.28
563.299	13.15
563.641	13.33
563.983	13.27
564.325	13.61
564.667	13.45
565.008	13.52
565.35	13.58
565.692	13.65
566.033	13.53
566.375	13.35
566.716	13.52
567.058	13.32
567.399	13.39
567.741	13.38
568.082	13.39
568.423	13.39
568.764	13.54
569.105	13.56
569.447	13.46
569.788	13.62
570.129	13.74
570.47	13.7
570.811	13.96
571.151	13.75
571.492	13.93
571.833	13.94
572.174	14.01
572.514	13.98
572.855	13.92
573.195	13.92
573.536	13.84
573.876	13.98
574.217	13.86
574.557	13.91
574.898	13.87
575.238	13.99
575.578	14.22
575.918	14.22
576.258	14.09
576.598	14.19
576.938	14.15
577.278	14.24
577.618	14.35
577.958	14.25
578.298	14.26
578.638	14.39
578.977	14.47
579.317	14.31
579.657	14.5
579.996	14.48
580.336	14.6
580.675	14.58
581.014	14.48
581.354	14.56
581.693	14.54
582.032	14.96
582.372	14.94
582.711	14.71
583.05	14.99
583.389	14.8
583.728	14.97
584.067	14.78
584.406	14.82
584.745	14.99
585.083	15.01
585.422	15.1
585.761	14.93
586.1	15.38
586.438	15.14
586.777	15.05
587.115	14.95
587.454	15.37
587.792	15.17
588.13	15.38
588.469	15.4
588.807	15.39
589.145	15.22
589.483	15.02
589.821	15.22
590.159	15.5
590.497	15.37
590.835	15.5
591.173	15.38
591.511	15.79
591.849	15.58
592.187	15.47
592.524	15.51
592.862	15.8
593.2	15.68
593.537	15.61
593.875	15.75
594.212	15.85
594.55	15.61
594.887	15.92
595.224	15.98
595.561	15.74
595.899	15.98
596.236	15.99
596.573	15.8
596.91	15.97
597.247	16.04
597.584	15.89
597.921	15.82
598.258	15.8
598.594	15.86
598.931	15.72
599.268	15.85
599.604	15.87
599.941	16.01
600.277	15.99
600.614	16.29
600.95	16.35
601.287	16.26
601.623	16.11
601.959	16.13
602.296	16.17
602.632	16.29
602.968	16.42
603.304	16.48
603.64	16.39
603.976	16.51
604.312	16.47
604.648	16.31
604.984	16.19
605.319	16.1
605.655	16.48
605.991	16.49
606.326	16.22
606.662	16.39
606.998	16.37
607.333	16.51
607.668	16.51
608.004	16.67
608.339	16.72
608.674	16.72
609.01	16.69
609.345	16.96
609.68	16.94
610.015	17.13
610.35	17.03
610.685	16.68
611.02	16.86
611.355	16.66
611.689	16.57
612.024	17.16
612.359	16.84
612.694	17.15
613.028	17.15
613.363	17.1
613.697	16.98
614.032	17.39
614.366	17.06
614.7	17.22
615.035	17.36
615.369	17.53
615.703	17.1
616.037	17.69
616.371	17.58
616.705	17.37
617.039	17.74
617.373	17.57
617.707	17.72
618.041	17.61
618.375	17.57
618.709	17.71
619.042	17.8
619.376	17.5
619.71	17.92
620.043	17.88
620.377	18.11
620.71	17.94
621.043	17.97
621.377	17.91
621.71	17.7
622.043	18.29
622.376	18
622.709	17.93
623.043	17.94
623.376	18.09
623.709	17.88
624.041	17.99
624.374	18.15
624.707	18.19
625.04	18.56
625.373	18.59
625.705	18.26
626.038	17.95
626.37	18.27
626.703	18.41
627.035	18.47
627.368	18.22
627.7	18.19
628.032	18.25
628.365	18.15
628.697	18.15
629.029	18.39
629.361	18.39
629.693	18.14
630.025	18.43
630.357	18.34
630.689	18.11
631.021	18.5
631.353	18.38
631.684	18.61
632.016	18.68
632.348	18.8
632.679	18.68
633.011	18.57
633.342	18.88
633.674	18.96
634.005	18.31
634.336	18.66
634.668	18.97
634.999	18.74
635.33	18.76
635.661	18.73
635.992	18.7
636.323	19.09
636.654	18.94
636.985	18.87
637.316	18.97
637.647	19.21
637.977	19.09
638.308	19.01
638.639	19.15
638.969	19.15
639.3	18.95
639.63	19.06
639.961	19.25
640.291	18.83
640.622	19.41
640.952	19.68
641.282	19.64
641.612	19.41
641.943	19.41
642.273	19.37
642.603	19.3
642.933	19.48
643.263	19.89
643.592	19.65
643.922	19.43
644.252	19.71
644.582	19.9
644.911	20.1
645.241	19.65
645.571	19.28
645.9	19.51
646.23	19.45
646.559	19.92
646.888	19.45
647.218	19.81
647.547	19.98
647.876	20.06
648.205	19.89
648.534	20.1
648.863	19.85
649.192	20.19
649.521	20.04
649.85	19.76
650.179	20.37
650.508	20.39
650.837	19.55
651.165	20.16
651.494	20.22
651.822	20.25
652.151	20.19
652.479	20.08
652.808	20.09
653.136	20.35
653.465	20.29
653.793	20.51
654.121	20.64
654.449	20.39
654.777	20.31
655.105	20.27
655.433	20.59
655.761	20.35
656.089	20.46
656.417	20.81
656.745	20.27
657.073	20.5
657.4	20.21
657.728	20.59
658.056	20.45
658.383	21.05
658.711	20.74
659.038	20.83
659.365	20.81
659.693	20.7
660.02	20.25
660.347	20.65
660.674	20.99
661.001	20.74
661.329	20.93
661.656	20.77
661.982	20.8
662.309	21.17
662.636	21.12
662.963	21.41
663.29	21.19
663.616	21.19
663.943	21.36
664.27	21.03
664.596	21.22
664.923	21.48
665.249	21.13
665.576	21.25
665.902	21.02
666.228	21.32
666.554	21.24
666.881	21.16
667.207	21.66
667.533	22.19
667.859	21.73
668.185	21.73
668.511	21.74
668.837	21.11
669.162	21.27
669.488	21.79
669.814	22.24
670.139	21.77
670.465	21.2
670.791	21.49
671.116	21.69
671.442	21.73
671.767	21.94
672.092	21.61
672.418	22.09
672.743	21.64
673.068	21.92
673.393	22.28
673.718	21.49
674.043	22.24
674.368	21.98
674.693	21.77
675.018	22.22
675.343	22.45
675.667	22.27
675.992	22.23
676.317	22.43
676.641	22.17
676.966	22.01
677.29	21.36
677.615	21.79
677.939	21.87
678.264	22.33
678.588	22.55
678.912	22.23
679.236	22.89
679.56	22.06
679.885	23
680.209	22.03
680.532	22.13
680.856	22.62
