Data from 0015_forehead_Reflection__3__48.txt Node

Date: Mon Oct 17 14:47:24 CDT 2022
User: ToomeyLab
Spectrometer: FLMS14357
Trigger mode: 0
Integration Time (sec): 1.000000E-2
Scans to average: 100
Electric dark correction enabled: true
Nonlinearity correction enabled: false
Boxcar width: 0
XAxis mode: Wavelengths
Number of Pixels in Spectrum: 2048
>>>>>Begin Spectral Data<<<<<
189.047	10.15
189.435	10.15
189.823	10.15
190.211	10.31
190.599	-8.69
190.987	44.55
191.375	124.24
191.763	4.63
192.151	-263.84
192.538	44.83
192.926	2382.69
193.314	196.51
193.702	-173.45
194.089	-156.77
194.477	-17.95
194.864	-3.11
195.252	-1207.47
195.639	491.33
196.027	119.51
196.414	127.44
196.801	59.55
197.189	142.09
197.576	197.46
197.963	-288.43
198.351	-125.91
198.738	8.62
199.125	12.62
199.512	-51.2
199.899	9.83
200.286	8.44
200.673	-56.15
201.06	-25.81
201.447	9.33
201.833	37.17
202.22	17.13
202.607	-112.7
202.994	4.98
203.38	-14.52
203.767	9.08
204.154	10.62
204.54	-39.75
204.927	-29.86
205.313	6.89
205.699	40.62
206.086	-15.94
206.472	14.83
206.858	1.62
207.245	11.69
207.631	4.73
208.017	23.88
208.403	11.18
208.789	15.05
209.175	-15.78
209.561	-32.78
209.947	-60.07
210.333	23.26
210.719	24.03
211.105	5.03
211.491	1.34
211.876	16.21
212.262	14.44
212.648	-12.9
213.034	-35.2
213.419	22.17
213.805	-24.91
214.19	16.01
214.576	-3.33
214.961	-38.12
215.346	-38.39
215.732	-27.11
216.117	-8.27
216.502	1.78
216.888	-14.5
217.273	-1.02
217.658	39.12
218.043	-18.74
218.428	-31.19
218.813	1.77
219.198	2.57
219.583	0.11
219.968	7.04
220.353	-22.95
220.738	-2.27
221.122	-7.29
221.507	-14.53
221.892	12.01
222.276	-4.86
222.661	-1.39
223.046	3.56
223.43	0.51
223.815	-12.9
224.199	0.11
224.583	-15.41
224.968	-9.06
225.352	-15.59
225.736	3.85
226.121	-8.49
226.505	-1.55
226.889	-1.89
227.273	4.91
227.657	3.02
228.041	1.35
228.425	1.12
228.809	0.81
229.193	-1.07
229.577	0.88
229.961	2.17
230.344	0.43
230.728	0.92
231.112	0.78
231.495	1.08
231.879	1.5
232.263	1.31
232.646	2.09
233.03	0.49
233.413	-0.3
233.797	0.83
234.18	0.65
234.563	-0.99
234.946	1.16
235.33	1.17
235.713	-1.16
236.096	0.96
236.479	0.19
236.862	0.06
237.245	1.26
237.628	0.81
238.011	1.57
238.394	0.92
238.777	2.14
239.16	0.36
239.543	-0.44
239.925	1.88
240.308	1.09
240.691	-0.49
241.073	1.19
241.456	1.11
241.838	1.51
242.221	-0.17
242.603	1.29
242.986	0.89
243.368	1.19
243.75	0.55
244.133	1.14
244.515	1.64
244.897	1.56
245.279	1.28
245.661	1.59
246.043	1.36
246.425	-0.76
246.807	0.01
247.189	0.85
247.571	1.36
247.953	1.26
248.335	1.18
248.717	1.2
249.098	1.28
249.48	1.12
249.862	1.16
250.243	1.14
250.625	1.49
251.006	0.88
251.388	1.46
251.769	1.08
252.151	0.62
252.532	0.88
252.913	0.9
253.295	0.54
253.676	1.25
254.057	1.44
254.438	1.49
254.819	1.67
255.2	1.97
255.581	0.57
255.962	1.78
256.343	0.41
256.724	0.19
257.105	0.76
257.486	1.15
257.867	1.37
258.247	0.96
258.628	1.3
259.009	0.53
259.389	1.23
259.77	2.01
260.15	1.4
260.531	0.97
260.911	1.01
261.292	1.24
261.672	1.16
262.052	1.13
262.432	1.06
262.813	1.16
263.193	1.09
263.573	1.71
263.953	1.07
264.333	1.39
264.713	0.96
265.093	1.13
265.473	0.77
265.853	0.88
266.233	2.17
266.612	1.07
266.992	2
267.372	1.16
267.752	1.16
268.131	1.49
268.511	1.48
268.89	0.98
269.27	1.2
269.649	1.49
270.029	1.19
270.408	1.68
270.787	0.94
271.167	1.34
271.546	1.44
271.925	0.8
272.304	1.22
272.683	1.13
273.062	1.33
273.441	1.41
273.82	1.13
274.199	1.87
274.578	1.23
274.957	1.47
275.336	1.58
275.715	0.98
276.093	1.05
276.472	0.96
276.851	1.24
277.229	1.06
277.608	0.73
277.986	1.23
278.365	1.54
278.743	1.28
279.122	0.77
279.5	1.08
279.878	1.9
280.257	1.33
280.635	0.97
281.013	1.48
281.391	0.87
281.769	1.07
282.147	1.44
282.525	0.79
282.903	0.64
283.281	0.89
283.659	1.18
284.037	0.74
284.415	0.96
284.792	1
285.17	0.53
285.548	0.44
285.925	1.19
286.303	1.16
286.68	1.62
287.058	1.28
287.435	1.38
287.813	1.19
288.19	1.31
288.567	1.13
288.945	1.1
289.322	1.28
289.699	1.4
290.076	1.02
290.453	1.01
290.83	1.3
291.207	1.33
291.584	1.21
291.961	1.03
292.338	1.14
292.715	1.16
293.092	1.38
293.469	1.18
293.845	1.47
294.222	1.61
294.599	1.63
294.975	1.1
295.352	1.39
295.728	1.16
296.105	1.15
296.481	1.56
296.858	1.43
297.234	1.15
297.61	0.85
297.986	1.2
298.363	1.24
298.739	1.65
299.115	1.15
299.491	1.64
299.867	1.34
300.243	1.54
300.619	1.22
300.995	1.33
301.371	1.56
301.746	1.36
302.122	1.16
302.498	1.46
302.874	1.58
303.249	1.52
303.625	2.14
304	1.57
304.376	1.62
304.751	1.77
305.127	1.16
305.502	1.33
305.878	1.68
306.253	1.41
306.628	1.77
307.003	1.71
307.378	1.36
307.754	1.44
308.129	1.21
308.504	1.59
308.879	1.61
309.254	1.49
309.629	1.26
310.003	1.68
310.378	1.5
310.753	1.68
311.128	1.82
311.502	1.84
311.877	1.81
312.252	1.48
312.626	1.42
313.001	1.36
313.375	1.38
313.75	1.53
314.124	2.05
314.498	1.26
314.873	1.81
315.247	1.71
315.621	2.19
315.995	1.72
316.369	1.46
316.743	1.83
317.117	2.08
317.491	1.49
317.865	1.84
318.239	2.33
318.613	2.08
318.987	1.46
319.361	1.6
319.734	2.07
320.108	1.81
320.482	2.06
320.855	1.64
321.229	1.41
321.602	1.92
321.976	1.72
322.349	1.89
322.723	2.03
323.096	1.93
323.469	2.2
323.843	2.3
324.216	1.82
324.589	1.65
324.962	1.42
325.335	1.3
325.708	2.02
326.081	2.46
326.454	2.01
326.827	2.01
327.2	1.8
327.573	1.82
327.945	2.1
328.318	2.37
328.691	1.79
329.063	2.38
329.436	1.88
329.809	1.94
330.181	2.74
330.553	1.9
330.926	2.22
331.298	2.03
331.671	2.37
332.043	2.24
332.415	2.39
332.787	2.05
333.159	2.55
333.532	1.79
333.904	1.87
334.276	1.61
334.648	2.05
335.02	1.95
335.391	2.59
335.763	2.26
336.135	1.84
336.507	2.23
336.879	2.57
337.25	2.65
337.622	2.32
337.993	2.48
338.365	2.42
338.736	2.17
339.108	2.22
339.479	1.86
339.851	2.29
340.222	1.88
340.593	2.34
340.964	2.25
341.336	2.28
341.707	2.6
342.078	2.84
342.449	2.4
342.82	1.8
343.191	2.56
343.562	2.49
343.933	2.69
344.303	2.23
344.674	2.78
345.045	2.75
345.416	2.28
345.786	2.74
346.157	2.49
346.527	2.58
346.898	2.62
347.268	2.63
347.639	2.08
348.009	2.47
348.38	2.54
348.75	2.26
349.12	2.61
349.49	2.37
349.861	2.79
350.231	2.29
350.601	2.81
350.971	2.73
351.341	2.43
351.711	2.44
352.081	2.82
352.45	2.81
352.82	2.96
353.19	2.55
353.56	2.43
353.929	2.51
354.299	2.57
354.669	3.18
355.038	3.1
355.408	2.55
355.777	2.69
356.147	2.71
356.516	2.71
356.885	2.95
357.254	2.75
357.624	3.19
357.993	2.7
358.362	2.84
358.731	2.5
359.1	2.68
359.469	2.75
359.838	2.73
360.207	2.84
360.576	2.71
360.945	2.81
361.314	2.92
361.682	2.95
362.051	2.89
362.42	2.77
362.788	2.94
363.157	3.13
363.525	2.83
363.894	2.93
364.262	3.06
364.631	2.92
364.999	3.24
365.367	2.46
365.735	3.05
366.104	2.76
366.472	2.83
366.84	2.99
367.208	3.1
367.576	3.18
367.944	3.13
368.312	3.16
368.68	3.19
369.048	3
369.416	3.02
369.783	3.35
370.151	3.15
370.519	3.05
370.886	3.36
371.254	3.11
371.621	3.37
371.989	3.38
372.356	3.21
372.724	3.15
373.091	3.12
373.458	3.01
373.826	3.44
374.193	3.31
374.56	3.31
374.927	3.34
375.294	3.18
375.661	3.49
376.028	3.58
376.395	3.35
376.762	3.27
377.129	3.28
377.496	3.26
377.863	3.1
378.229	3.34
378.596	3.31
378.963	3.31
379.329	3.52
379.696	3.36
380.062	3.81
380.429	3.16
380.795	3.58
381.161	3.44
381.528	3.67
381.894	3.48
382.26	3.72
382.626	3.66
382.993	3.71
383.359	3.54
383.725	3.62
384.091	3.5
384.457	3.31
384.823	3.23
385.188	3.36
385.554	3.67
385.92	3.74
386.286	3.6
386.651	3.83
387.017	3.55
387.383	3.72
387.748	3.61
388.114	3.48
388.479	4.02
388.845	3.85
389.21	3.6
389.575	3.52
389.94	4.12
390.306	3.99
390.671	4.14
391.036	3.93
391.401	3.88
391.766	3.87
392.131	3.99
392.496	4.08
392.861	3.64
393.226	3.91
393.591	3.82
393.956	3.88
394.32	4
394.685	3.7
395.05	3.9
395.414	4.23
395.779	4.05
396.143	4.21
396.508	4.06
396.872	3.97
397.236	4.05
397.601	4.05
397.965	4.18
398.329	4.14
398.694	4.05
399.058	4.23
399.422	4.13
399.786	4.19
400.15	4.33
400.514	4.04
400.878	4.18
401.242	4.05
401.605	4.29
401.969	4.13
402.333	4.2
402.697	4.03
403.06	4.09
403.424	4.38
403.787	4.27
404.151	4.1
404.514	4.52
404.878	4.26
405.241	4.27
405.604	4.55
405.968	4.43
406.331	4.26
406.694	4.19
407.057	4.32
407.42	4.38
407.783	4.53
408.146	4.6
408.509	4.69
408.872	4.37
409.235	4.41
409.598	4.46
409.961	4.43
410.323	4.51
410.686	4.59
411.049	4.49
411.411	4.66
411.774	4.35
412.136	4.38
412.499	4.58
412.861	4.59
413.223	4.58
413.586	4.62
413.948	4.74
414.31	4.59
414.672	4.76
415.035	4.79
415.397	4.76
415.759	4.87
416.121	4.9
416.483	4.7
416.845	4.8
417.206	4.73
417.568	4.91
417.93	4.82
418.292	4.95
418.653	4.77
419.015	4.84
419.377	4.92
419.738	4.83
420.1	4.93
420.461	4.84
420.822	4.84
421.184	4.76
421.545	4.76
421.906	4.91
422.267	4.87
422.629	4.73
422.99	4.8
423.351	4.89
423.712	4.96
424.073	5.04
424.434	4.93
424.795	4.99
425.155	4.99
425.516	4.92
425.877	4.93
426.238	4.9
426.598	5.06
426.959	5.08
427.32	5.1
427.68	5.12
428.041	5.06
428.401	5.2
428.761	5.35
429.122	5.32
429.482	5.31
429.842	5.42
430.202	5.33
430.563	5.37
430.923	5.27
431.283	5.4
431.643	5.35
432.003	5.43
432.363	5.57
432.722	5.41
433.082	5.39
433.442	5.62
433.802	5.34
434.161	5.32
434.521	5.52
434.881	5.55
435.24	5.38
435.6	5.61
435.959	5.56
436.319	5.63
436.678	5.47
437.037	5.6
437.396	5.54
437.756	5.82
438.115	5.58
438.474	5.63
438.833	5.61
439.192	5.68
439.551	5.68
439.91	5.72
440.269	5.7
440.628	5.76
440.987	5.79
441.345	5.76
441.704	5.78
442.063	5.67
442.421	5.76
442.78	5.73
443.138	5.7
443.497	5.91
443.855	6.03
444.214	5.96
444.572	5.96
444.93	6.09
445.288	5.97
445.647	5.96
446.005	6.18
446.363	6.08
446.721	6.09
447.079	5.97
447.437	6
447.795	5.99
448.153	6.05
448.51	6.03
448.868	6.12
449.226	6.04
449.584	6.21
449.941	6.16
450.299	6.25
450.656	6.24
451.014	6.32
451.371	6.37
451.729	6.47
452.086	6.5
452.443	6.47
452.801	6.48
453.158	6.72
453.515	6.31
453.872	6.32
454.229	6.3
454.586	6.4
454.943	6.5
455.3	6.58
455.657	6.53
456.014	6.58
456.371	6.55
456.727	6.57
457.084	6.66
457.441	6.81
457.797	6.79
458.154	6.75
458.51	6.72
458.867	6.78
459.223	6.74
459.58	6.64
459.936	6.62
460.292	6.75
460.648	6.62
461.005	6.71
461.361	6.72
461.717	6.59
462.073	6.71
462.429	6.74
462.785	6.82
463.141	7.11
463.496	7.03
463.852	7.15
464.208	7.11
464.564	6.94
464.919	7.07
465.275	6.89
465.631	7.11
465.986	7.11
466.342	7.08
466.697	7.22
467.052	7.15
467.408	7.26
467.763	7.27
468.118	7.27
468.473	7.36
468.829	7.16
469.184	7.31
469.539	7.16
469.894	7.43
470.249	7.29
470.603	7.46
470.958	7.48
471.313	7.51
471.668	7.45
472.023	7.35
472.377	7.6
472.732	7.4
473.086	7.67
473.441	7.51
473.795	7.48
474.15	7.56
474.504	7.68
474.859	7.6
475.213	7.8
475.567	7.73
475.921	7.62
476.275	7.69
476.63	7.8
476.984	7.73
477.338	7.71
477.692	7.8
478.045	7.89
478.399	7.75
478.753	7.81
479.107	7.76
479.461	7.65
479.814	7.83
480.168	7.87
480.521	7.77
480.875	7.82
481.228	7.86
481.582	8.02
481.935	7.88
482.289	7.91
482.642	7.88
482.995	7.94
483.348	7.93
483.701	7.95
484.055	7.84
484.408	7.77
484.761	7.7
485.114	7.54
485.466	7.43
485.819	7.45
486.172	7.55
486.525	7.77
486.878	7.85
487.23	8
487.583	8.07
487.936	8.03
488.288	7.97
488.641	7.85
488.993	7.74
489.345	7.79
489.698	7.87
490.05	7.93
490.402	8.02
490.754	8.15
491.107	8.24
491.459	8.34
491.811	8.46
492.163	8.35
492.515	8.31
492.866	8.19
493.218	8.13
493.57	8.06
493.922	8.19
494.274	8.35
494.625	8.49
494.977	8.62
495.328	8.64
495.68	8.87
496.031	8.84
496.383	8.85
496.734	8.75
497.086	8.74
497.437	8.86
497.788	8.82
498.139	8.68
498.49	8.68
498.842	8.82
499.193	8.77
499.544	8.9
499.894	8.93
500.245	8.89
500.596	8.99
500.947	9.15
501.298	9.07
501.648	9.15
501.999	9.14
502.35	9.22
502.7	9.27
503.051	9.39
503.401	9.36
503.752	9.5
504.102	9.32
504.452	9.34
504.803	9.34
505.153	9.34
505.503	9.36
505.853	9.38
506.203	9.25
506.553	9.39
506.903	9.5
507.253	9.43
507.603	9.46
507.953	9.57
508.303	9.53
508.652	9.57
509.002	9.71
509.352	9.52
509.701	9.54
510.051	9.61
510.4	9.4
510.75	9.55
511.099	9.53
511.449	9.56
511.798	9.67
512.147	9.66
512.496	9.67
512.846	9.64
513.195	9.64
513.544	9.64
513.893	9.7
514.242	9.85
514.591	9.74
514.939	9.76
515.288	9.8
515.637	10.02
515.986	9.97
516.334	9.99
516.683	9.94
517.032	10.09
517.38	9.91
517.729	10.06
518.077	10.07
518.426	10.04
518.774	9.95
519.122	10.03
519.47	9.95
519.819	9.94
520.167	9.93
520.515	9.98
520.863	10
521.211	10.06
521.559	10.08
521.907	10.21
522.255	10.17
522.602	10.22
522.95	10.45
523.298	10.29
523.645	10.39
523.993	10.5
524.341	10.54
524.688	10.44
525.036	10.51
525.383	10.42
525.73	10.37
526.078	10.35
526.425	10.28
526.772	10.33
527.119	10.34
527.466	10.19
527.814	10.31
528.161	10.48
528.508	10.34
528.854	10.37
529.201	10.38
529.548	10.34
529.895	10.03
530.242	9.96
530.588	10.02
530.935	10.11
531.282	10.29
531.628	10.44
531.975	10.54
532.321	10.56
532.667	10.78
533.014	10.77
533.36	10.74
533.706	10.81
534.052	10.74
534.399	10.72
534.745	10.53
535.091	10.51
535.437	10.6
535.783	10.72
536.129	10.84
536.474	10.97
536.82	11.05
537.166	11.17
537.512	11.15
537.857	11.02
538.203	10.97
538.549	10.88
538.894	10.95
539.239	11.16
539.585	11.19
539.93	11.24
540.276	11.41
540.621	11.49
540.966	11.36
541.311	11.34
541.656	11.32
542.001	11.37
542.346	11.2
542.691	11
543.036	10.9
543.381	10.97
543.726	11.05
544.071	11.23
544.415	11.32
544.76	11.33
545.105	11.42
545.449	11.51
545.794	11.54
546.138	11.6
546.483	11.71
546.827	11.66
547.171	11.72
547.516	11.84
547.86	11.84
548.204	11.67
548.548	11.7
548.892	11.85
549.236	11.87
549.58	11.92
549.924	12.06
550.268	12.09
550.612	12.15
550.956	12.4
551.3	12.2
551.643	12.27
551.987	12.37
552.33	12.37
552.674	12.35
553.017	12.38
553.361	12.4
553.704	12.25
554.048	12.23
554.391	12.54
554.734	12.31
555.077	12.34
555.42	12.44
555.764	12.41
556.107	12.61
556.45	12.71
556.793	12.64
557.135	12.78
557.478	12.73
557.821	12.81
558.164	12.62
558.507	12.74
558.849	12.83
559.192	12.89
559.534	12.87
559.877	12.78
560.219	12.85
560.562	12.84
560.904	13.04
561.246	13.14
561.589	13.05
561.931	13.09
562.273	13.14
562.615	13.08
562.957	13.06
563.299	13.04
563.641	13.2
563.983	13.11
564.325	13.49
564.667	13.41
565.008	13.34
565.35	13.43
565.692	13.61
566.033	13.25
566.375	13.14
566.716	13.37
567.058	13.33
567.399	13.23
567.741	13.07
568.082	13.3
568.423	13.36
568.764	13.36
569.105	13.48
569.447	13.46
569.788	13.56
570.129	13.6
570.47	13.67
570.811	13.75
571.151	13.61
571.492	13.79
571.833	13.52
572.174	13.78
572.514	13.69
572.855	13.84
573.195	13.57
573.536	13.5
573.876	13.58
574.217	13.77
574.557	13.72
574.898	13.77
575.238	13.96
575.578	13.89
575.918	13.87
576.258	13.73
576.598	13.98
576.938	14.11
577.278	14.19
577.618	14.17
577.958	14.11
578.298	14.02
578.638	14.09
578.977	14.32
579.317	14.05
579.657	14.12
579.996	14.36
580.336	14.28
580.675	14.33
581.014	14.16
581.354	14.53
581.693	14.29
582.032	14.32
582.372	14.53
582.711	14.63
583.05	14.44
583.389	14.48
583.728	14.72
584.067	14.75
584.406	14.54
584.745	14.79
585.083	14.9
585.422	14.77
585.761	14.53
586.1	15.14
586.438	15.02
586.777	14.88
587.115	14.73
587.454	15.06
587.792	15.01
588.13	14.85
588.469	14.97
588.807	14.97
589.145	15.06
589.483	15.09
589.821	15.21
590.159	14.97
590.497	15.13
590.835	15.01
591.173	15.32
591.511	15.22
591.849	15.29
592.187	15.41
592.524	15.36
592.862	15.33
593.2	15.24
593.537	15.49
593.875	15.45
594.212	15.38
594.55	15.52
594.887	15.38
595.224	15.37
595.561	15.39
595.899	15.72
596.236	15.58
596.573	15.5
596.91	15.46
597.247	15.92
597.584	15.48
597.921	15.7
598.258	15.43
598.594	15.4
598.931	15.4
599.268	15.49
599.604	15.76
599.941	15.67
600.277	15.9
600.614	16.01
600.95	15.95
601.287	15.85
601.623	15.86
601.959	15.9
602.296	15.8
602.632	15.87
602.968	15.87
603.304	16.03
603.64	16.08
603.976	16.21
604.312	16.24
604.648	16.02
604.984	15.91
605.319	15.9
605.655	16.21
605.991	16
606.326	15.83
606.662	16.04
606.998	16.01
607.333	16.2
607.668	16.12
608.004	16.08
608.339	16.29
608.674	16.3
609.01	16.73
609.345	16.56
609.68	16.63
610.015	16.53
610.35	16.47
610.685	16.45
611.02	16.51
611.355	16.51
611.689	16.55
612.024	16.52
612.359	16.37
612.694	16.62
613.028	16.69
613.363	16.88
613.697	16.49
614.032	16.84
614.366	16.68
614.7	17.06
615.035	16.88
615.369	17.12
615.703	16.83
616.037	17.15
616.371	16.8
616.705	17.3
617.039	17.62
617.373	17.21
617.707	16.99
618.041	17.18
618.375	16.84
618.709	17.54
619.042	17.56
619.376	17.04
619.71	17.28
620.043	17.37
620.377	17.59
620.71	17.72
621.043	17.68
621.377	17.4
621.71	17.66
622.043	17.82
622.376	17.51
622.709	17.53
623.043	17.42
623.376	17.48
623.709	17.62
624.041	17.2
624.374	17.92
624.707	17.61
625.04	17.73
625.373	17.95
625.705	17.51
626.038	17.3
626.37	17.79
626.703	18.09
627.035	17.79
627.368	18.09
627.7	17.54
628.032	17.8
628.365	17.61
628.697	17.85
629.029	17.61
629.361	17.75
629.693	17.71
630.025	17.97
630.357	17.84
630.689	17.91
631.021	18.34
631.353	17.59
631.684	18.26
632.016	18.12
632.348	18.36
632.679	18.03
633.011	18.16
633.342	18.28
633.674	18.8
634.005	18.38
634.336	18.09
634.668	18.88
634.999	17.94
635.33	18.15
635.661	18.26
635.992	18.6
636.323	18.34
636.654	18.43
636.985	18.52
637.316	18.7
637.647	18.63
637.977	18.61
638.308	18.29
638.639	18.29
638.969	18.47
639.3	18.22
639.63	18.98
639.961	18.51
640.291	18.52
640.622	18.66
640.952	19.16
641.282	18.58
641.612	19.14
641.943	18.81
642.273	18.92
642.603	18.75
642.933	19.05
643.263	19.15
643.592	18.81
643.922	18.88
644.252	19.52
644.582	19.38
644.911	19.1
645.241	19.13
645.571	18.75
645.9	19.14
646.23	19.25
646.559	19.33
646.888	18.99
647.218	18.68
647.547	19.35
647.876	19.43
648.205	19.09
648.534	19.51
648.863	19.29
649.192	19.59
649.521	19.16
649.85	19.59
650.179	19.93
650.508	19.29
650.837	19.64
651.165	19.77
651.494	19.7
651.822	19.59
652.151	19.63
652.479	19.82
652.808	19.58
653.136	19.67
653.465	19.93
653.793	19.59
654.121	20.01
654.449	19.76
654.777	19.82
655.105	19.85
655.433	20.23
655.761	19.98
656.089	19.88
656.417	19.69
656.745	19.32
657.073	19.88
657.4	20.1
657.728	20.42
658.056	19.83
658.383	20.23
658.711	19.95
659.038	19.81
659.365	20.19
659.693	20.15
660.02	20.05
660.347	20.58
660.674	20.29
661.001	19.94
661.329	20.28
661.656	20.52
661.982	20.29
662.309	20.33
662.636	20.56
662.963	20.47
663.29	20.31
663.616	20.71
663.943	20.59
664.27	20.91
664.596	20.29
664.923	20.82
665.249	20.58
665.576	20.59
665.902	20.78
666.228	20.9
666.554	20.69
666.881	21.55
667.207	20.85
667.533	21.16
667.859	21.24
668.185	21.15
668.511	20.97
668.837	20.71
669.162	21.11
669.488	21.04
669.814	21.29
670.139	21.08
670.465	20.99
670.791	21.27
671.116	21.13
671.442	21.1
671.767	20.8
672.092	21.02
672.418	21.15
672.743	21.06
673.068	21.53
673.393	21.22
673.718	20.71
674.043	22.12
674.368	21.24
674.693	21.22
675.018	21.93
675.343	21.03
675.667	21.22
675.992	21.69
676.317	21.31
676.641	21.31
676.966	22.22
677.29	21.22
677.615	21.28
677.939	21.64
678.264	21.11
678.588	22.03
678.912	22.28
679.236	21.96
679.56	21.58
679.885	21.71
680.209	22.03
680.532	22.02
