Data from 0015_crown_Reflection__3__43.txt Node

Date: Mon Oct 17 14:45:56 CDT 2022
User: ToomeyLab
Spectrometer: FLMS14357
Trigger mode: 0
Integration Time (sec): 1.000000E-2
Scans to average: 100
Electric dark correction enabled: true
Nonlinearity correction enabled: false
Boxcar width: 0
XAxis mode: Wavelengths
Number of Pixels in Spectrum: 2048
>>>>>Begin Spectral Data<<<<<
189.047	-252.12
189.435	-252.12
189.823	-252.12
190.211	144.61
190.599	60.63
190.987	346.02
191.375	120.83
191.763	-26.92
192.151	-257.85
192.538	-9.19
192.926	92.31
193.314	446.79
193.702	45.36
194.089	18.73
194.477	23.9
194.864	-252.36
195.252	-210.31
195.639	-800
196.027	106.47
196.414	6.28
196.801	-60.99
197.189	-11.81
197.576	89.85
197.963	-387.06
198.351	-186.42
198.738	8.32
199.125	-39.6
199.512	-76.22
199.899	-25.32
200.286	13.52
200.673	16.88
201.06	-36.33
201.447	13.14
201.833	2.16
202.22	14.71
202.607	-40.4
202.994	-12.06
203.38	-42.65
203.767	-3.71
204.154	38
204.54	11.85
204.927	-5.03
205.313	0.53
205.699	22.67
206.086	-61.06
206.472	31.3
206.858	-6.84
207.245	-3.73
207.631	10.96
208.017	45.15
208.403	21.74
208.789	20.72
209.175	12.68
209.561	-29.34
209.947	-48.4
210.333	28.56
210.719	10.53
211.105	31.72
211.491	-7.89
211.876	-40.22
212.262	24.77
212.648	18.41
213.034	-5.72
213.419	-1.61
213.805	4.52
214.19	-13.13
214.576	-6.19
214.961	-15.59
215.346	32.05
215.732	-28.56
216.117	-9.71
216.502	3.53
216.888	-13.37
217.273	1.91
217.658	28.87
218.043	-18.99
218.428	12.33
218.813	-6.51
219.198	-15.86
219.583	-5.51
219.968	-2.79
220.353	-15.95
220.738	-4.43
221.122	6.7
221.507	-1.37
221.892	9.45
222.276	-11.15
222.661	17.43
223.046	7.34
223.43	6.79
223.815	2.23
224.199	3.43
224.583	-12.4
224.968	-11.62
225.352	-10.52
225.736	0.38
226.121	-5.37
226.505	-1.58
226.889	-1.81
227.273	5.38
227.657	5.04
228.041	2.71
228.425	1.85
228.809	-1.47
229.193	1.48
229.577	3.95
229.961	4.11
230.344	3.04
230.728	2.75
231.112	3.09
231.495	3.17
231.879	2.62
232.263	3.58
232.646	3.36
233.03	2.7
233.413	0.06
233.797	2.05
234.18	4.7
234.563	1.59
234.946	3.54
235.33	1.89
235.713	0.75
236.096	3.62
236.479	1.7
236.862	2.69
237.245	0.89
237.628	2.66
238.011	2.52
238.394	4.48
238.777	3.51
239.16	2.31
239.543	0.49
239.925	2.57
240.308	1.81
240.691	2.08
241.073	3.62
241.456	2.21
241.838	2.98
242.221	2.17
242.603	3.16
242.986	2.47
243.368	3.65
243.75	2.74
244.133	3.13
244.515	3.04
244.897	3.44
245.279	3.04
245.661	2.98
246.043	3.12
246.425	0.94
246.807	2.24
247.189	2.9
247.571	2.89
247.953	2.91
248.335	3.07
248.717	3.2
249.098	3.16
249.48	3.08
249.862	2.74
250.243	2.75
250.625	3.26
251.006	3.01
251.388	3.08
251.769	2.88
252.151	3
252.532	3.36
252.913	2.35
253.295	2.29
253.676	3.21
254.057	3.03
254.438	2.73
254.819	3.09
255.2	3.61
255.581	3.41
255.962	1.77
256.343	2.08
256.724	2.56
257.105	2.95
257.486	2.29
257.867	1.72
258.247	2.62
258.628	2.82
259.009	3.21
259.389	2.74
259.77	2.87
260.15	2.67
260.531	2.61
260.911	2.65
261.292	2.92
261.672	2.59
262.052	2.85
262.432	2.76
262.813	2.52
263.193	2.41
263.573	3.16
263.953	2.53
264.333	2.62
264.713	2.13
265.093	2.5
265.473	2.52
265.853	2.44
266.233	3.96
266.612	3.01
266.992	3.09
267.372	3.02
267.752	2.95
268.131	3.08
268.511	2.46
268.89	2.7
269.27	2.79
269.649	2.88
270.029	2.62
270.408	3.32
270.787	2.92
271.167	2.48
271.546	3.11
271.925	2.61
272.304	3.05
272.683	2.88
273.062	2.56
273.441	2.62
273.82	2.36
274.199	3.09
274.578	2.88
274.957	2.36
275.336	2.88
275.715	2.55
276.093	2.39
276.472	2.22
276.851	2.86
277.229	2.43
277.608	2.53
277.986	2.42
278.365	3.01
278.743	3.1
279.122	2.4
279.5	2.69
279.878	2.88
280.257	2.73
280.635	2.67
281.013	1.93
281.391	2.13
281.769	2.29
282.147	2.86
282.525	2.67
282.903	2.14
283.281	2.29
283.659	2.6
284.037	2.19
284.415	2.7
284.792	2.36
285.17	1.96
285.548	2.55
285.925	2.65
286.303	2.52
286.68	2.79
287.058	2.86
287.435	2.59
287.813	2.49
288.19	2.53
288.567	2.51
288.945	2.36
289.322	2.94
289.699	3.08
290.076	2.82
290.453	2.14
290.83	2.39
291.207	2.65
291.584	2.44
291.961	2.53
292.338	2.6
292.715	2.32
293.092	2.58
293.469	2.39
293.845	2.26
294.222	2.78
294.599	3.02
294.975	2.32
295.352	1.96
295.728	2.14
296.105	2.17
296.481	2.65
296.858	2.71
297.234	2.33
297.61	2.29
297.986	2.46
298.363	2.45
298.739	2.62
299.115	2.48
299.491	2.51
299.867	2.39
300.243	2.75
300.619	2.39
300.995	2.67
301.371	2.16
301.746	2.44
302.122	2.64
302.498	2.49
302.874	2.86
303.249	2.34
303.625	2.55
304	1.93
304.376	2.34
304.751	2.57
305.127	2.5
305.502	2.18
305.878	2.42
306.253	2.31
306.628	2.38
307.003	2.83
307.378	2.75
307.754	2.29
308.129	2.27
308.504	2.68
308.879	2.42
309.254	2.53
309.629	2.45
310.003	2.46
310.378	2.45
310.753	2.45
311.128	2.74
311.502	2.37
311.877	2.41
312.252	2.54
312.626	2.29
313.001	1.73
313.375	2.01
313.75	2.27
314.124	2.47
314.498	2.32
314.873	2.24
315.247	2.52
315.621	2.88
315.995	1.88
316.369	2.04
316.743	2.4
317.117	2.68
317.491	1.97
317.865	2.75
318.239	2.41
318.613	2.09
318.987	2.16
319.361	2.53
319.734	2.37
320.108	2.12
320.482	2.54
320.855	2.36
321.229	2.49
321.602	2.1
321.976	1.72
322.349	1.84
322.723	1.96
323.096	2.05
323.469	2.58
323.843	2.13
324.216	2.3
324.589	1.86
324.962	2.2
325.335	2.18
325.708	2.65
326.081	2.02
326.454	2.17
326.827	2.34
327.2	1.76
327.573	1.82
327.945	1.88
328.318	2.28
328.691	2.32
329.063	1.99
329.436	2.45
329.809	2.17
330.181	2.64
330.553	1.85
330.926	2.74
331.298	2.63
331.671	2.65
332.043	2.2
332.415	2.82
332.787	2.24
333.159	2.3
333.532	1.84
333.904	2.18
334.276	2.32
334.648	1.6
335.02	2.18
335.391	2.5
335.763	2.51
336.135	2.03
336.507	2.51
336.879	2.46
337.25	2.7
337.622	1.9
337.993	2.27
338.365	2.5
338.736	2.26
339.108	2.17
339.479	1.84
339.851	2.57
340.222	2.12
340.593	2.16
340.964	2.18
341.336	1.87
341.707	2.4
342.078	2.53
342.449	2.21
342.82	1.98
343.191	2.15
343.562	2.22
343.933	2.18
344.303	2.04
344.674	2.5
345.045	2.6
345.416	2.22
345.786	2.47
346.157	2.37
346.527	2.49
346.898	2.46
347.268	2.44
347.639	2.19
348.009	2.53
348.38	2.08
348.75	2.39
349.12	2.25
349.49	2.02
349.861	2.43
350.231	1.96
350.601	2.32
350.971	2.37
351.341	2.09
351.711	2.35
352.081	2.49
352.45	2.49
352.82	2.17
353.19	1.95
353.56	1.91
353.929	2.37
354.299	2.38
354.669	2.14
355.038	2.66
355.408	2.13
355.777	2.23
356.147	2.17
356.516	2.03
356.885	2.31
357.254	2.62
357.624	2.59
357.993	2.42
358.362	2.3
358.731	2.29
359.1	2.19
359.469	2.5
359.838	2.41
360.207	2.44
360.576	2.49
360.945	2.37
361.314	2.6
361.682	2.48
362.051	2.27
362.42	2.37
362.788	2.53
363.157	2.5
363.525	2.38
363.894	2.41
364.262	2.59
364.631	2.33
364.999	2.35
365.367	2.25
365.735	2.42
366.104	2.42
366.472	2.01
366.84	2.24
367.208	2.46
367.576	2.41
367.944	2.18
368.312	2.36
368.68	2.21
369.048	2.26
369.416	2.43
369.783	2.39
370.151	2.34
370.519	2.68
370.886	2.54
371.254	2.42
371.621	2.17
371.989	2.54
372.356	2.29
372.724	2.48
373.091	2.22
373.458	2.24
373.826	2.28
374.193	2.72
374.56	2.2
374.927	2.27
375.294	2.3
375.661	2.31
376.028	2.73
376.395	2.52
376.762	2.44
377.129	2.46
377.496	2.27
377.863	2.15
378.229	2.83
378.596	2.19
378.963	2.57
379.329	2.32
379.696	2.4
380.062	2.87
380.429	2.36
380.795	2.48
381.161	2.48
381.528	2.68
381.894	2.31
382.26	2.42
382.626	2.46
382.993	2.58
383.359	2.42
383.725	2.47
384.091	2.56
384.457	2.46
384.823	2.21
385.188	2.16
385.554	2.42
385.92	2.37
386.286	2.55
386.651	2.56
387.017	2.2
387.383	2.69
387.748	2.29
388.114	2.44
388.479	2.69
388.845	2.64
389.21	2.48
389.575	2.4
389.94	2.79
390.306	2.65
390.671	2.69
391.036	2.33
391.401	2.72
391.766	2.65
392.131	2.78
392.496	2.62
392.861	2.3
393.226	2.53
393.591	2.5
393.956	2.51
394.32	2.36
394.685	2.7
395.05	2.5
395.414	2.64
395.779	2.45
396.143	2.58
396.508	2.52
396.872	2.54
397.236	2.45
397.601	2.64
397.965	2.4
398.329	2.81
398.694	2.64
399.058	2.62
399.422	2.61
399.786	2.58
400.15	2.53
400.514	2.52
400.878	2.58
401.242	2.58
401.605	2.77
401.969	2.42
402.333	2.68
402.697	2.49
403.06	2.39
403.424	2.45
403.787	2.69
404.151	2.52
404.514	2.63
404.878	2.59
405.241	2.55
405.604	2.52
405.968	2.63
406.331	2.56
406.694	2.6
407.057	2.5
407.42	2.6
407.783	2.87
408.146	2.79
408.509	2.63
408.872	2.61
409.235	2.49
409.598	2.76
409.961	2.32
410.323	2.54
410.686	2.63
411.049	2.54
411.411	2.8
411.774	2.65
412.136	2.58
412.499	2.9
412.861	2.53
413.223	2.61
413.586	2.75
413.948	2.85
414.31	2.54
414.672	2.57
415.035	2.56
415.397	2.9
415.759	2.69
416.121	2.46
416.483	2.62
416.845	2.76
417.206	2.57
417.568	2.86
417.93	2.64
418.292	2.86
418.653	2.68
419.015	2.53
419.377	2.74
419.738	2.52
420.1	2.62
420.461	2.55
420.822	2.72
421.184	2.6
421.545	2.68
421.906	2.57
422.267	2.69
422.629	2.59
422.99	2.71
423.351	2.63
423.712	2.68
424.073	2.69
424.434	2.61
424.795	2.72
425.155	2.71
425.516	2.56
425.877	2.57
426.238	2.66
426.598	2.7
426.959	2.62
427.32	2.74
427.68	2.56
428.041	2.62
428.401	2.84
428.761	2.67
429.122	2.72
429.482	2.84
429.842	2.76
430.202	2.92
430.563	2.72
430.923	2.9
431.283	2.76
431.643	2.77
432.003	2.6
432.363	2.86
432.722	2.78
433.082	2.72
433.442	2.71
433.802	2.69
434.161	2.73
434.521	2.9
434.881	2.69
435.24	2.77
435.6	2.81
435.959	2.71
436.319	2.86
436.678	2.59
437.037	2.87
437.396	2.72
437.756	2.91
438.115	2.63
438.474	2.68
438.833	2.69
439.192	2.68
439.551	2.71
439.91	2.84
440.269	2.78
440.628	2.61
440.987	2.73
441.345	2.77
441.704	2.72
442.063	2.67
442.421	2.75
442.78	2.72
443.138	2.81
443.497	2.86
443.855	2.83
444.214	2.86
444.572	2.72
444.93	2.88
445.288	2.74
445.647	2.82
446.005	2.86
446.363	2.85
446.721	2.71
447.079	2.69
447.437	2.76
447.795	2.81
448.153	2.81
448.51	2.71
448.868	2.86
449.226	2.85
449.584	2.83
449.941	2.79
450.299	2.83
450.656	2.7
451.014	2.8
451.371	2.89
451.729	2.89
452.086	2.81
452.443	2.99
452.801	2.84
453.158	2.77
453.515	2.88
453.872	2.77
454.229	2.71
454.586	2.76
454.943	2.81
455.3	2.89
455.657	2.8
456.014	2.9
456.371	2.86
456.727	2.88
457.084	2.78
457.441	2.94
457.797	2.81
458.154	2.93
458.51	2.86
458.867	2.97
459.223	2.87
459.58	2.86
459.936	2.76
460.292	2.93
460.648	2.85
461.005	2.81
461.361	2.78
461.717	2.76
462.073	2.81
462.429	2.81
462.785	2.93
463.141	3.05
463.496	2.86
463.852	2.92
464.208	3.07
464.564	2.82
464.919	2.94
465.275	2.93
465.631	2.85
465.986	2.94
466.342	2.94
466.697	2.98
467.052	2.9
467.408	2.98
467.763	2.84
468.118	2.98
468.473	3.08
468.829	2.93
469.184	2.95
469.539	2.84
469.894	2.9
470.249	2.81
470.603	3.02
470.958	2.97
471.313	3.01
471.668	2.98
472.023	2.98
472.377	3.19
472.732	2.93
473.086	2.98
473.441	3.06
473.795	2.99
474.15	2.93
474.504	2.98
474.859	2.94
475.213	2.99
475.567	3.09
475.921	2.85
476.275	2.95
476.63	3.09
476.984	2.89
477.338	2.97
477.692	2.93
478.045	3.15
478.399	2.94
478.753	3.04
479.107	2.96
479.461	3.02
479.814	2.96
480.168	2.93
480.521	2.92
480.875	2.99
481.228	2.91
481.582	3.15
481.935	2.94
482.289	2.86
482.642	2.92
482.995	2.97
483.348	2.94
483.701	2.96
484.055	2.92
484.408	2.93
484.761	2.88
485.114	2.73
485.466	2.72
485.819	2.72
486.172	2.76
486.525	2.85
486.878	2.91
487.23	2.93
487.583	2.98
487.936	2.95
488.288	2.9
488.641	2.77
488.993	2.81
489.345	2.8
489.698	2.85
490.05	2.79
490.402	2.88
490.754	2.91
491.107	2.93
491.459	2.94
491.811	2.96
492.163	2.9
492.515	2.91
492.866	2.87
493.218	2.86
493.57	2.87
493.922	2.91
494.274	2.98
494.625	3.05
494.977	3.08
495.328	3.08
495.68	2.97
496.031	3.16
496.383	3.08
496.734	3.02
497.086	2.91
497.437	3.06
497.788	3
498.139	2.97
498.49	2.91
498.842	2.95
499.193	2.95
499.544	3
499.894	3.05
500.245	2.99
500.596	2.99
500.947	3.1
501.298	3.11
501.648	3.05
501.999	2.95
502.35	3.06
502.7	3.08
503.051	3.06
503.401	3.17
503.752	3.18
504.102	3.06
504.452	3.03
504.803	3.06
505.153	3.12
505.503	2.91
505.853	3
506.203	2.99
506.553	3.15
506.903	3.03
507.253	3.1
507.603	3
507.953	3.18
508.303	3.12
508.652	3.08
509.002	3.12
509.352	3.08
509.701	3.03
510.051	3.09
510.4	2.94
510.75	3.05
511.099	2.98
511.449	3.02
511.798	3.03
512.147	3.05
512.496	3.05
512.846	3.04
513.195	3.06
513.544	3.04
513.893	3.05
514.242	3.15
514.591	3.09
514.939	3.11
515.288	3.01
515.637	3.06
515.986	3.1
516.334	3.18
516.683	3.22
517.032	3.15
517.38	2.98
517.729	3.11
518.077	3.12
518.426	3.04
518.774	3.02
519.122	2.99
519.47	2.98
519.819	3.18
520.167	3.03
520.515	3
520.863	3.08
521.211	3.09
521.559	3.03
521.907	3.2
522.255	3.2
522.602	3.02
522.95	3.1
523.298	3.03
523.645	3.18
523.993	3.18
524.341	3.2
524.688	3.13
525.036	3.21
525.383	3.12
525.73	3.15
526.078	3.05
526.425	3.05
526.772	3.04
527.119	3.03
527.466	2.88
527.814	3.06
528.161	3.09
528.508	3.16
528.854	3.02
529.201	2.99
529.548	3.06
529.895	2.93
530.242	2.88
530.588	2.86
530.935	2.93
531.282	3.02
531.628	3.1
531.975	3.09
532.321	3.03
532.667	3.2
533.014	3.21
533.36	3.2
533.706	3.22
534.052	3.13
534.399	3
534.745	2.98
535.091	2.95
535.437	3.05
535.783	3.1
536.129	3.12
536.474	3.22
536.82	3.22
537.166	3.19
537.512	3.2
537.857	3.12
538.203	3.01
538.549	3.04
538.894	3.15
539.239	3.27
539.585	3.06
539.93	3.23
540.276	3.21
540.621	3.07
540.966	3.18
541.311	3.1
541.656	3.07
542.001	3.1
542.346	3.02
542.691	3.08
543.036	2.93
543.381	2.98
543.726	3.08
544.071	3.07
544.415	3.12
544.76	3.14
545.105	3.1
545.449	3.16
545.794	3.13
546.138	3.16
546.483	3.14
546.827	3.24
547.171	3.22
547.516	3.12
547.86	3.18
548.204	3.17
548.548	3.14
548.892	3.1
549.236	3.16
549.58	3.06
549.924	3.15
550.268	3.37
550.612	3.19
550.956	3.34
551.3	3.21
551.643	3.35
551.987	3.24
552.33	3.4
552.674	3.18
553.017	3.27
553.361	3.26
553.704	3.1
554.048	3.04
554.391	3.25
554.734	3.13
555.077	3.16
555.42	3.2
555.764	3.26
556.107	3.21
556.45	3.26
556.793	3.13
557.135	3.35
557.478	3.18
557.821	3.22
558.164	3.25
558.507	3.17
558.849	3.13
559.192	3.11
559.534	3.23
559.877	3.08
560.219	3.06
560.562	3.05
560.904	3.24
561.246	3.32
561.589	3.25
561.931	3.12
562.273	3.39
562.615	3.12
562.957	3.31
563.299	3.33
563.641	2.99
563.983	3.22
564.325	3.52
564.667	3.2
565.008	3.21
565.35	3.3
565.692	3.38
566.033	3.22
566.375	3.13
566.716	3.3
567.058	3.25
567.399	3.14
567.741	3.3
568.082	3.25
568.423	3.23
568.764	3.23
569.105	3.18
569.447	3.16
569.788	3.28
570.129	3.45
570.47	3.21
570.811	3.31
571.151	3.19
571.492	3.15
571.833	3.21
572.174	3.31
572.514	3.32
572.855	3.12
573.195	3.26
573.536	3.2
573.876	3.26
574.217	3.18
574.557	3.15
574.898	3.15
575.238	3.23
575.578	3.14
575.918	3.38
576.258	3.29
576.598	3.2
576.938	3.29
577.278	3.35
577.618	3.33
577.958	3.17
578.298	3.28
578.638	3.32
578.977	3.38
579.317	3.14
579.657	3.34
579.996	3.33
580.336	3.27
580.675	3.27
581.014	2.98
581.354	3.12
581.693	3.52
582.032	3.41
582.372	3.2
582.711	3.19
583.05	3.12
583.389	3.11
583.728	3.37
584.067	3.14
584.406	3.1
584.745	3.43
585.083	3.41
585.422	3.26
585.761	3.3
586.1	3.34
586.438	3.41
586.777	3.28
587.115	2.97
587.454	3.11
587.792	3.49
588.13	3.36
588.469	3.32
588.807	3.09
589.145	3.22
589.483	3.09
589.821	3.2
590.159	3.31
590.497	3.5
590.835	3.3
591.173	3.31
591.511	3.08
591.849	3.16
592.187	3.27
592.524	3.41
592.862	3.13
593.2	3.04
593.537	3.51
593.875	3.22
594.212	3.36
594.55	3.14
594.887	3.34
595.224	3.54
595.561	3.22
595.899	3.42
596.236	3.47
596.573	3.35
596.91	3.33
597.247	3.3
597.584	3.18
597.921	3.31
598.258	3.35
598.594	3.32
598.931	3.25
599.268	3.26
599.604	3.16
599.941	3.22
600.277	3.41
600.614	3.4
600.95	3.16
601.287	3.17
601.623	3.24
601.959	3.16
602.296	3.13
602.632	2.96
602.968	3.23
603.304	3.14
603.64	3.34
603.976	3.23
604.312	3.19
604.648	3.08
604.984	3.38
605.319	3.15
605.655	3.13
605.991	3.19
606.326	3.26
606.662	3.3
606.998	3.21
607.333	3.35
607.668	3.15
608.004	3.35
608.339	3.2
608.674	3.38
609.01	3.25
609.345	3.46
609.68	3.47
610.015	3.29
610.35	3.07
610.685	3.2
611.02	3.21
611.355	3.24
611.689	3.38
612.024	3.45
612.359	3.21
612.694	3.48
613.028	3.3
613.363	3.45
613.697	2.99
614.032	3.34
614.366	3.63
614.7	3.4
615.035	3.37
615.369	3.37
615.703	3.11
616.037	3.68
616.371	3.57
616.705	3.4
617.039	3.66
617.373	3.64
617.707	3.34
618.041	3.62
618.375	3.37
618.709	3.81
619.042	3.48
619.376	3.38
619.71	3.32
620.043	3.28
620.377	3.52
620.71	3.62
621.043	3.62
621.377	3.52
621.71	3.7
622.043	3.6
622.376	3.51
622.709	3.28
623.043	3.41
623.376	3.28
623.709	2.9
624.041	3.15
624.374	3.53
624.707	3.21
625.04	3.6
625.373	3.49
625.705	3
626.038	3.13
626.37	3.5
626.703	3.49
627.035	3.11
627.368	3.49
627.7	3.43
628.032	3.28
628.365	3.05
628.697	3.4
629.029	3.31
629.361	3.23
629.693	3.53
630.025	3.34
630.357	3.19
630.689	2.99
631.021	3.43
631.353	3.43
631.684	3.05
632.016	3.19
632.348	3.55
632.679	3.51
633.011	3.39
633.342	3.57
633.674	3.76
634.005	3.26
634.336	3.06
634.668	3.56
634.999	3.04
635.33	3.36
635.661	3.6
635.992	3.67
636.323	3.66
636.654	3.44
636.985	3.5
637.316	3.6
637.647	3.34
637.977	3.41
638.308	3.53
638.639	3.2
638.969	3.5
639.3	3.39
639.63	3.8
639.961	3.43
640.291	3.28
640.622	3.29
640.952	3.67
641.282	3.32
641.612	3.38
641.943	3.09
642.273	3.34
642.603	3.77
642.933	3.57
643.263	3.58
643.592	3.33
643.922	3.48
644.252	3.18
644.582	3.66
644.911	3.57
645.241	3.85
645.571	3.12
645.9	3.48
646.23	3.47
646.559	3.31
646.888	3.17
647.218	3.57
647.547	3.75
647.876	3.22
648.205	3.39
648.534	3.51
648.863	3.35
649.192	3.59
649.521	2.84
649.85	3.13
650.179	3.51
650.508	3.06
650.837	3.55
651.165	3.51
651.494	3.47
651.822	3.38
652.151	3.41
652.479	3.32
652.808	3.24
653.136	3.7
653.465	3.29
653.793	3.36
654.121	3.58
654.449	3.8
654.777	3.38
655.105	3.09
655.433	3.61
655.761	3.51
656.089	3.63
656.417	3.23
656.745	2.94
657.073	3.37
657.4	3.41
657.728	3.3
658.056	3.33
658.383	3.56
658.711	3.4
659.038	3.31
659.365	3.3
659.693	3.45
660.02	3.09
660.347	3.69
660.674	3.61
661.001	3.36
661.329	3.58
661.656	3.28
661.982	3.38
662.309	3.95
662.636	3.6
662.963	3.21
663.29	3.32
663.616	3.73
663.943	3.34
664.27	3.33
664.596	3.27
664.923	3.42
665.249	3.11
665.576	3.5
665.902	3.41
666.228	3.43
666.554	4.08
666.881	3.63
667.207	4
667.533	3.93
667.859	3.79
668.185	3.67
668.511	3.65
668.837	3.48
669.162	3.61
669.488	3.48
669.814	4.06
670.139	3.59
670.465	3.58
670.791	3.69
671.116	3.78
671.442	3.21
671.767	3.55
672.092	2.91
672.418	3.55
672.743	2.93
673.068	3.95
673.393	3.5
673.718	3.29
674.043	3.43
674.368	2.82
674.693	3.72
675.018	3.88
675.343	4.18
675.667	3.54
675.992	3.17
676.317	3.1
676.641	3.1
676.966	4.02
677.29	3.66
677.615	3.45
677.939	3.54
678.264	3.52
678.588	3.54
678.912	3.72
679.236	4.03
679.56	3.42
679.885	3.78
680.209	4.04
680.532	3.83
680.856	3.55
681.18	3.56
681.504	3.99
681.828	4
682.152	3.78
682.475	3.73
682.799	3.67
683.122	3.61
683.446	3.65
683.769	3.79
684.093	2.98
684.416	3.76
684.739	3.27
685.062	4.01
685.386	3.65
685.709	3.71
686.032	4.16
686.355	3.36
686.678	2.73
687.001	2.9
687.324	3.74
687.646	3.05
687.969	3.54
688.292	3.68
688.614	3.96
688.937	3.89
689.26	3.63
689.582	3.4
689.904	4.03
690.227	3.99
690.549	4
690.871	3.76
691.194	3.46
691.516	3.63
691.838	4.07
692.16	3.69
692.482	3.4
