Data from 0015_crown_Reflection__4__44.txt Node

Date: Mon Oct 17 14:46:09 CDT 2022
User: ToomeyLab
Spectrometer: FLMS14357
Trigger mode: 0
Integration Time (sec): 1.000000E-2
Scans to average: 100
Electric dark correction enabled: true
Nonlinearity correction enabled: false
Boxcar width: 0
XAxis mode: Wavelengths
Number of Pixels in Spectrum: 2048
>>>>>Begin Spectral Data<<<<<
189.047	96.82
189.435	96.82
189.823	96.82
190.211	222.36
190.599	45.2
190.987	-58.22
191.375	29.76
191.763	-56.17
192.151	-340.7
192.538	30.59
192.926	1642.69
193.314	437.64
193.702	-419.16
194.089	-29.35
194.477	-76.81
194.864	-293.67
195.252	-412.63
195.639	-25
196.027	93.11
196.414	37.68
196.801	-45.2
197.189	180.49
197.576	68.12
197.963	165.61
198.351	-72.24
198.738	20.49
199.125	-23.38
199.512	-70.48
199.899	11.75
200.286	24.16
200.673	7.78
201.06	8.12
201.447	17.79
201.833	38.56
202.22	24.14
202.607	-112.42
202.994	14.87
203.38	-10.58
203.767	5.78
204.154	41.68
204.54	-35.31
204.927	12.89
205.313	-15.19
205.699	11.33
206.086	-102.22
206.472	3.37
206.858	19.88
207.245	36.49
207.631	8.11
208.017	18.44
208.403	23
208.789	12.78
209.175	11.71
209.561	-25.67
209.947	-5.39
210.333	15.27
210.719	50.46
211.105	29.63
211.491	-4.79
211.876	-5.66
212.262	17.5
212.648	-17.5
213.034	-3.02
213.419	4.37
213.805	-6.12
214.19	-1.36
214.576	7.44
214.961	-39.83
215.346	-6.83
215.732	-22.26
216.117	-0.32
216.502	29.09
216.888	1.39
217.273	6.45
217.658	19.78
218.043	16.63
218.428	-21.72
218.813	9.09
219.198	10.13
219.583	-41.06
219.968	-3.93
220.353	4.49
220.738	5.92
221.122	10.75
221.507	-5.99
221.892	9.02
222.276	6.73
222.661	10.16
223.046	7.79
223.43	5.43
223.815	-2.31
224.199	12.51
224.583	-1.41
224.968	7.74
225.352	-8.72
225.736	18.5
226.121	3.07
226.505	2.25
226.889	5.69
227.273	8.7
227.657	13.01
228.041	9.72
228.425	6.24
228.809	7.8
229.193	8.51
229.577	7.87
229.961	9.1
230.344	8.19
230.728	8.14
231.112	8.54
231.495	8.88
231.879	8.72
232.263	9.76
232.646	9.72
233.03	7.32
233.413	7.61
233.797	8.63
234.18	8.9
234.563	7.11
234.946	8.5
235.33	8.05
235.713	6.78
236.096	9.36
236.479	6.78
236.862	8.73
237.245	7.23
237.628	8.63
238.011	9.33
238.394	9.04
238.777	8.51
239.16	8.45
239.543	7.29
239.925	9.05
240.308	9.31
240.691	6.7
241.073	8.15
241.456	6.17
241.838	7.32
242.221	7
242.603	8.21
242.986	7.7
243.368	7.73
243.75	7.84
244.133	7.67
244.515	7.7
244.897	7.92
245.279	8.32
245.661	8.26
246.043	8.44
246.425	7
246.807	6.96
247.189	7.44
247.571	7.73
247.953	7.51
248.335	7.57
248.717	7.51
249.098	7.84
249.48	7.87
249.862	7.64
250.243	7.07
250.625	8.09
251.006	7.2
251.388	7.68
251.769	5.96
252.151	7.24
252.532	7.88
252.913	7.02
253.295	6.31
253.676	7.62
254.057	7.59
254.438	7.61
254.819	7.78
255.2	7.94
255.581	7.41
255.962	6.92
256.343	6.38
256.724	6.61
257.105	7.06
257.486	6.92
257.867	6.83
258.247	7.67
258.628	7.52
259.009	7.19
259.389	7.57
259.77	7.16
260.15	7.23
260.531	6.64
260.911	7.07
261.292	7.04
261.672	7.08
262.052	7.3
262.432	6.99
262.813	6.81
263.193	7.09
263.573	7.53
263.953	6.85
264.333	7.03
264.713	7.11
265.093	6.9
265.473	6.66
265.853	7.16
266.233	7.74
266.612	6.61
266.992	7.07
267.372	6.93
267.752	6.69
268.131	6.92
268.511	7.14
268.89	7.01
269.27	7.08
269.649	6.75
270.029	6.97
270.408	7.27
270.787	6.94
271.167	6.9
271.546	6.44
271.925	6.53
272.304	6.77
272.683	6.82
273.062	6.65
273.441	6.94
273.82	6.87
274.199	6.72
274.578	6.96
274.957	6.81
275.336	6.82
275.715	6.27
276.093	6.74
276.472	6.55
276.851	6.75
277.229	6.24
277.608	6.5
277.986	6.61
278.365	6.68
278.743	6.87
279.122	6.43
279.5	7.14
279.878	6.62
280.257	6.1
280.635	6.44
281.013	6.57
281.391	6.66
281.769	6.43
282.147	7.15
282.525	6.59
282.903	6.11
283.281	6.29
283.659	6.24
284.037	6.22
284.415	6.88
284.792	6.85
285.17	6.02
285.548	6.07
285.925	6.62
286.303	6.44
286.68	6.5
287.058	6.65
287.435	6.45
287.813	6.45
288.19	6.49
288.567	6.64
288.945	6.21
289.322	6.51
289.699	6.68
290.076	6.54
290.453	6.29
290.83	6.11
291.207	6.41
291.584	6.4
291.961	6.07
292.338	6.36
292.715	6.2
293.092	6.33
293.469	6.11
293.845	6.27
294.222	6.41
294.599	6.8
294.975	6.07
295.352	6.06
295.728	6.47
296.105	6.13
296.481	6.02
296.858	6.37
297.234	6.23
297.61	6.2
297.986	6.23
298.363	6.04
298.739	6.4
299.115	5.96
299.491	6.04
299.867	6.12
300.243	6.37
300.619	5.76
300.995	5.94
301.371	6.05
301.746	5.51
302.122	6.14
302.498	6.18
302.874	6.42
303.249	6.01
303.625	6.15
304	6.21
304.376	6.36
304.751	6.54
305.127	6.39
305.502	6.06
305.878	6.11
306.253	5.68
306.628	6.05
307.003	5.79
307.378	6.42
307.754	5.84
308.129	5.88
308.504	6.05
308.879	5.78
309.254	5.95
309.629	5.74
310.003	6.18
310.378	6.12
310.753	6.01
311.128	5.79
311.502	6.06
311.877	5.74
312.252	5.7
312.626	5.93
313.001	5.95
313.375	5.62
313.75	6.06
314.124	5.9
314.498	5.92
314.873	5.89
315.247	5.82
315.621	6.28
315.995	5.72
316.369	5.94
316.743	6.21
317.117	6.27
317.491	5.82
317.865	6.01
318.239	6.24
318.613	6.16
318.987	5.75
319.361	5.6
319.734	6.08
320.108	5.74
320.482	5.56
320.855	5.74
321.229	5.73
321.602	5.58
321.976	5.65
322.349	5.56
322.723	5.83
323.096	5.81
323.469	5.77
323.843	5.48
324.216	5.81
324.589	5.74
324.962	5.85
325.335	5.55
325.708	5.82
326.081	5.73
326.454	5.85
326.827	5.52
327.2	5.75
327.573	5.62
327.945	5.53
328.318	5.23
328.691	5.52
329.063	5.61
329.436	5.43
329.809	5.82
330.181	6.17
330.553	5.05
330.926	6.17
331.298	5.36
331.671	5.79
332.043	5.58
332.415	5.96
332.787	5.61
333.159	5.93
333.532	5.68
333.904	5.79
334.276	5.8
334.648	5.16
335.02	5.52
335.391	6.19
335.763	5.59
336.135	5.27
336.507	5.9
336.879	5.99
337.25	6.15
337.622	5.72
337.993	5.71
338.365	5.58
338.736	5.69
339.108	6.03
339.479	5.82
339.851	5.81
340.222	5.8
340.593	5.62
340.964	5.26
341.336	5.71
341.707	5.99
342.078	6.01
342.449	5.65
342.82	5.44
343.191	5.57
343.562	5.49
343.933	5.83
344.303	5.59
344.674	6.19
345.045	5.91
345.416	5.86
345.786	5.55
346.157	5.85
346.527	5.65
346.898	5.84
347.268	5.92
347.639	5.58
348.009	5.5
348.38	5.72
348.75	5.58
349.12	5.73
349.49	5.66
349.861	5.96
350.231	5.92
350.601	5.74
350.971	5.61
351.341	6.11
351.711	5.63
352.081	5.62
352.45	6.11
352.82	6.17
353.19	5.46
353.56	5.49
353.929	6.05
354.299	5.71
354.669	5.88
355.038	5.82
355.408	5.91
355.777	5.71
356.147	5.78
356.516	5.81
356.885	5.55
357.254	5.9
357.624	6.53
357.993	6.07
358.362	6.03
358.731	5.91
359.1	5.92
359.469	5.78
359.838	5.88
360.207	5.7
360.576	5.83
360.945	6.01
361.314	6.12
361.682	6.05
362.051	5.65
362.42	5.61
362.788	5.7
363.157	5.98
363.525	5.7
363.894	5.91
364.262	6.05
364.631	5.83
364.999	5.98
365.367	5.59
365.735	5.85
366.104	6.05
366.472	5.45
366.84	5.9
367.208	5.96
367.576	5.74
367.944	5.75
368.312	6
368.68	6.08
369.048	6.07
369.416	6.18
369.783	5.83
370.151	5.96
370.519	5.98
370.886	5.88
371.254	5.59
371.621	5.68
371.989	5.9
372.356	5.89
372.724	6.16
373.091	6.11
373.458	5.66
373.826	5.87
374.193	6.2
374.56	5.98
374.927	5.8
375.294	6.05
375.661	6.23
376.028	6.19
376.395	5.66
376.762	5.83
377.129	5.78
377.496	5.77
377.863	5.56
378.229	5.85
378.596	6.1
378.963	6.02
379.329	5.89
379.696	5.82
380.062	6.21
380.429	6.03
380.795	5.92
381.161	6.23
381.528	6.01
381.894	6.23
382.26	5.96
382.626	6.08
382.993	6.22
383.359	6.25
383.725	6
384.091	6.12
384.457	6
384.823	5.68
385.188	5.93
385.554	5.9
385.92	6
386.286	6.2
386.651	6.22
387.017	5.8
387.383	6.17
387.748	6.02
388.114	5.96
388.479	5.94
388.845	6.27
389.21	6.2
389.575	6.06
389.94	6.31
390.306	6.09
390.671	6.47
391.036	6.08
391.401	5.86
391.766	6.32
392.131	6.23
392.496	6.49
392.861	6.05
393.226	6.17
393.591	6.04
393.956	6.04
394.32	6.32
394.685	6.13
395.05	6.05
395.414	6.29
395.779	6.28
396.143	6.11
396.508	6.19
396.872	6.01
397.236	5.93
397.601	6.35
397.965	6.08
398.329	6.3
398.694	6.31
399.058	6.37
399.422	6.16
399.786	6.53
400.15	6.17
400.514	6.16
400.878	6.3
401.242	6
401.605	6.43
401.969	6.22
402.333	6.26
402.697	6.29
403.06	6.08
403.424	6.34
403.787	6.18
404.151	6.07
404.514	6.4
404.878	6.25
405.241	6.22
405.604	6.45
405.968	6.32
406.331	6.36
406.694	6.25
407.057	6.18
407.42	6.13
407.783	6.38
408.146	6.31
408.509	6.65
408.872	6.03
409.235	6.3
409.598	5.89
409.961	6.19
410.323	6.24
410.686	6.38
411.049	6.48
411.411	6.22
411.774	6.32
412.136	6.33
412.499	6.55
412.861	6.42
413.223	6.31
413.586	6.23
413.948	6.4
414.31	6.46
414.672	6.27
415.035	6.56
415.397	6.36
415.759	6.36
416.121	6.21
416.483	6.43
416.845	6.43
417.206	6.25
417.568	6.5
417.93	6.4
418.292	6.5
418.653	6.4
419.015	6.22
419.377	6.34
419.738	6.24
420.1	6.36
420.461	6.25
420.822	6.32
421.184	6.23
421.545	6.26
421.906	6.27
422.267	6.15
422.629	6.08
422.99	6.18
423.351	6.2
423.712	6.26
424.073	6.33
424.434	6.24
424.795	6.24
425.155	6.33
425.516	6.12
425.877	6.2
426.238	6.18
426.598	6.22
426.959	6.13
427.32	6.37
427.68	6.32
428.041	6.11
428.401	6.43
428.761	6.31
429.122	6.46
429.482	6.35
429.842	6.27
430.202	6.6
430.563	6.49
430.923	6.47
431.283	6.61
431.643	6.54
432.003	6.48
432.363	6.46
432.722	6.29
433.082	6.15
433.442	6.38
433.802	6.43
434.161	6.37
434.521	6.51
434.881	6.38
435.24	6.26
435.6	6.47
435.959	6.38
436.319	6.51
436.678	6.32
437.037	6.38
437.396	6.21
437.756	6.5
438.115	6.33
438.474	6.53
438.833	6.24
439.192	6.32
439.551	6.33
439.91	6.44
440.269	6.39
440.628	6.37
440.987	6.33
441.345	6.31
441.704	6.42
442.063	6.24
442.421	6.34
442.78	6.34
443.138	6.42
443.497	6.35
443.855	6.51
444.214	6.41
444.572	6.45
444.93	6.58
445.288	6.37
445.647	6.45
446.005	6.54
446.363	6.39
446.721	6.36
447.079	6.35
447.437	6.4
447.795	6.29
448.153	6.35
448.51	6.3
448.868	6.36
449.226	6.38
449.584	6.38
449.941	6.42
450.299	6.5
450.656	6.39
451.014	6.28
451.371	6.51
451.729	6.54
452.086	6.48
452.443	6.55
452.801	6.47
453.158	6.6
453.515	6.34
453.872	6.45
454.229	6.29
454.586	6.38
454.943	6.42
455.3	6.49
455.657	6.44
456.014	6.46
456.371	6.44
456.727	6.44
457.084	6.38
457.441	6.59
457.797	6.56
458.154	6.6
458.51	6.5
458.867	6.54
459.223	6.38
459.58	6.58
459.936	6.47
460.292	6.49
460.648	6.49
461.005	6.31
461.361	6.32
461.717	6.31
462.073	6.35
462.429	6.41
462.785	6.46
463.141	6.56
463.496	6.38
463.852	6.47
464.208	6.72
464.564	6.57
464.919	6.54
465.275	6.57
465.631	6.4
465.986	6.5
466.342	6.55
466.697	6.65
467.052	6.44
467.408	6.29
467.763	6.35
468.118	6.5
468.473	6.56
468.829	6.41
469.184	6.57
469.539	6.42
469.894	6.52
470.249	6.44
470.603	6.63
470.958	6.64
471.313	6.53
471.668	6.53
472.023	6.6
472.377	6.51
472.732	6.49
473.086	6.72
473.441	6.59
473.795	6.56
474.15	6.54
474.504	6.7
474.859	6.55
475.213	6.57
475.567	6.64
475.921	6.4
476.275	6.39
476.63	6.53
476.984	6.62
477.338	6.54
477.692	6.58
478.045	6.61
478.399	6.62
478.753	6.47
479.107	6.46
479.461	6.5
479.814	6.5
480.168	6.54
480.521	6.48
480.875	6.5
481.228	6.47
481.582	6.47
481.935	6.52
482.289	6.4
482.642	6.43
482.995	6.55
483.348	6.57
483.701	6.53
484.055	6.44
484.408	6.39
484.761	6.24
485.114	6.23
485.466	6.1
485.819	6.09
486.172	6.12
486.525	6.21
486.878	6.26
487.23	6.22
487.583	6.33
487.936	6.32
488.288	6.37
488.641	6.23
488.993	6.22
489.345	6.16
489.698	6.22
490.05	6.22
490.402	6.3
490.754	6.28
491.107	6.33
491.459	6.4
491.811	6.42
492.163	6.4
492.515	6.36
492.866	6.3
493.218	6.27
493.57	6.29
493.922	6.3
494.274	6.36
494.625	6.38
494.977	6.39
495.328	6.41
495.68	6.59
496.031	6.5
496.383	6.57
496.734	6.54
497.086	6.38
497.437	6.52
497.788	6.45
498.139	6.46
498.49	6.4
498.842	6.4
499.193	6.5
499.544	6.43
499.894	6.55
500.245	6.4
500.596	6.49
500.947	6.57
501.298	6.58
501.648	6.45
501.999	6.44
502.35	6.57
502.7	6.52
503.051	6.58
503.401	6.57
503.752	6.49
504.102	6.46
504.452	6.47
504.803	6.57
505.153	6.44
505.503	6.56
505.853	6.55
506.203	6.47
506.553	6.58
506.903	6.41
507.253	6.41
507.603	6.5
507.953	6.59
508.303	6.45
508.652	6.5
509.002	6.6
509.352	6.49
509.701	6.5
510.051	6.52
510.4	6.43
510.75	6.4
511.099	6.49
511.449	6.43
511.798	6.39
512.147	6.42
512.496	6.56
512.846	6.41
513.195	6.34
513.544	6.48
513.893	6.36
514.242	6.6
514.591	6.48
514.939	6.57
515.288	6.39
515.637	6.53
515.986	6.58
516.334	6.54
516.683	6.51
517.032	6.44
517.38	6.42
517.729	6.58
518.077	6.49
518.426	6.35
518.774	6.45
519.122	6.33
519.47	6.41
519.819	6.48
520.167	6.41
520.515	6.29
520.863	6.37
521.211	6.44
521.559	6.38
521.907	6.47
522.255	6.48
522.602	6.52
522.95	6.57
523.298	6.26
523.645	6.48
523.993	6.41
524.341	6.55
524.688	6.5
525.036	6.48
525.383	6.51
525.73	6.47
526.078	6.41
526.425	6.41
526.772	6.51
527.119	6.43
527.466	6.3
527.814	6.36
528.161	6.36
528.508	6.42
528.854	6.28
529.201	6.38
529.548	6.28
529.895	6.23
530.242	6.17
530.588	6.21
530.935	6.17
531.282	6.24
531.628	6.23
531.975	6.29
532.321	6.25
532.667	6.47
533.014	6.37
533.36	6.47
533.706	6.35
534.052	6.45
534.399	6.39
534.745	6.26
535.091	6.31
535.437	6.35
535.783	6.4
536.129	6.36
536.474	6.44
536.82	6.46
537.166	6.42
537.512	6.49
537.857	6.54
538.203	6.4
538.549	6.37
538.894	6.34
539.239	6.44
539.585	6.5
539.93	6.47
540.276	6.49
540.621	6.36
540.966	6.52
541.311	6.41
541.656	6.46
542.001	6.42
542.346	6.4
542.691	6.31
543.036	6.2
543.381	6.22
543.726	6.24
544.071	6.3
544.415	6.37
544.76	6.31
545.105	6.3
545.449	6.44
545.794	6.4
546.138	6.4
546.483	6.43
546.827	6.51
547.171	6.4
547.516	6.45
547.86	6.5
548.204	6.47
548.548	6.41
548.892	6.46
549.236	6.45
549.58	6.43
549.924	6.42
550.268	6.58
550.612	6.48
550.956	6.55
551.3	6.51
551.643	6.56
551.987	6.43
552.33	6.58
552.674	6.52
553.017	6.55
553.361	6.37
553.704	6.37
554.048	6.46
554.391	6.52
554.734	6.43
555.077	6.5
555.42	6.49
555.764	6.49
556.107	6.51
556.45	6.48
556.793	6.53
557.135	6.67
557.478	6.45
557.821	6.7
558.164	6.44
558.507	6.54
558.849	6.29
559.192	6.43
559.534	6.52
559.877	6.29
560.219	6.28
560.562	6.23
560.904	6.51
561.246	6.65
561.589	6.56
561.931	6.55
562.273	6.58
562.615	6.35
562.957	6.57
563.299	6.57
563.641	6.5
563.983	6.43
564.325	6.74
564.667	6.65
565.008	6.55
565.35	6.47
565.692	6.66
566.033	6.45
566.375	6.22
566.716	6.51
567.058	6.42
567.399	6.4
567.741	6.54
568.082	6.47
568.423	6.45
568.764	6.52
569.105	6.37
569.447	6.44
569.788	6.5
570.129	6.54
570.47	6.48
570.811	6.53
571.151	6.48
571.492	6.57
571.833	6.34
572.174	6.56
572.514	6.39
572.855	6.46
573.195	6.55
573.536	6.45
573.876	6.3
574.217	6.32
574.557	6.35
574.898	6.41
575.238	6.48
575.578	6.42
575.918	6.49
576.258	6.49
576.598	6.36
576.938	6.51
577.278	6.42
577.618	6.41
577.958	6.23
578.298	6.52
578.638	6.35
578.977	6.67
579.317	6.37
579.657	6.47
579.996	6.35
580.336	6.56
580.675	6.51
581.014	6.21
581.354	6.38
581.693	6.23
582.032	6.5
582.372	6.32
582.711	6.37
583.05	6.57
583.389	6.36
583.728	6.55
584.067	6.52
584.406	6.3
584.745	6.56
585.083	6.51
585.422	6.63
585.761	6.51
586.1	6.52
586.438	6.62
586.777	6.59
587.115	6.36
587.454	6.58
587.792	6.65
588.13	6.46
588.469	6.44
588.807	6.24
589.145	6.43
589.483	6.43
589.821	6.39
590.159	6.4
590.497	6.51
590.835	6.42
591.173	6.35
591.511	6.3
591.849	6.55
592.187	6.67
592.524	6.43
592.862	6.27
593.2	6.43
593.537	6.66
593.875	6.32
594.212	6.65
594.55	6.49
594.887	6.25
595.224	6.37
595.561	6.36
595.899	6.55
596.236	6.48
596.573	6.42
596.91	6.43
597.247	6.57
597.584	6.43
597.921	6.45
598.258	6.36
598.594	6.45
598.931	6.27
599.268	6.29
599.604	6.5
599.941	6.35
600.277	6.52
600.614	6.51
600.95	6.28
601.287	6.26
601.623	6.25
601.959	6.45
602.296	6.25
602.632	6.24
602.968	6.39
603.304	6.47
603.64	6.42
603.976	6.29
604.312	6.4
604.648	6.38
604.984	6.32
605.319	6.16
605.655	6.28
605.991	6.47
606.326	6.27
606.662	6.33
606.998	6.37
607.333	6.53
607.668	6.3
608.004	6.35
608.339	6.44
608.674	6.28
609.01	6.48
609.345	6.48
609.68	6.51
610.015	6.54
610.35	6.24
610.685	6.41
611.02	6.62
611.355	6.5
611.689	6.28
612.024	6.45
612.359	6.38
612.694	6.42
613.028	6.33
613.363	6.59
613.697	6.3
614.032	6.68
614.366	6.4
614.7	6.34
615.035	6.42
615.369	6.45
615.703	6.4
616.037	6.53
616.371	6.29
616.705	6.43
617.039	6.63
617.373	6.57
617.707	6.41
618.041	6.4
618.375	6.16
618.709	6.78
619.042	6.63
619.376	6.52
619.71	6.52
620.043	6.3
620.377	6.5
620.71	6.63
621.043	6.64
621.377	6.63
621.71	6.6
622.043	6.64
622.376	6.26
622.709	6.8
623.043	6.32
623.376	6.31
623.709	6.54
624.041	6.26
624.374	6.45
624.707	6.16
625.04	6.47
625.373	6.63
625.705	6.13
626.038	5.84
626.37	6.18
626.703	6.71
627.035	6.55
627.368	6.58
627.7	6.47
628.032	6.45
628.365	6.17
628.697	6.42
629.029	6.43
629.361	6.46
629.693	6.5
630.025	6.31
630.357	6.48
630.689	6.15
631.021	6.49
631.353	6.4
631.684	6.46
632.016	6.08
632.348	6.36
632.679	6.4
633.011	6.51
633.342	6.35
633.674	6.59
634.005	6.51
634.336	6.23
634.668	6.54
634.999	6.55
635.33	6.27
635.661	6.3
635.992	6.28
636.323	6.78
636.654	6.76
636.985	6.44
637.316	6.8
637.647	6.43
637.977	6.3
638.308	6.05
638.639	6.17
638.969	6.31
639.3	6.3
639.63	6.52
639.961	6.59
640.291	6.15
640.622	6.27
640.952	6.67
641.282	6.48
641.612	6.27
641.943	6.15
642.273	6.23
642.603	6
642.933	6.33
643.263	6.31
643.592	6.15
643.922	6.27
644.252	6.51
644.582	6.66
644.911	6.72
645.241	6.6
645.571	6.22
645.9	6.73
646.23	6.29
646.559	6.5
646.888	6.22
647.218	5.97
647.547	6.44
647.876	6.51
648.205	5.87
648.534	6.51
648.863	6.16
649.192	6.67
649.521	6.41
649.85	6.45
650.179	6.33
650.508	6.42
650.837	6.4
651.165	6.14
651.494	6.49
651.822	6.16
652.151	6.32
652.479	6.49
652.808	6.73
653.136	6.3
653.465	5.91
653.793	6.63
654.121	6.51
654.449	6.54
654.777	6.48
655.105	6.14
655.433	6.62
655.761	6.32
656.089	6.52
656.417	5.97
656.745	5.75
657.073	7
657.4	6.55
657.728	6.44
658.056	6.38
658.383	6.72
658.711	6.65
659.038	6.31
659.365	6.02
659.693	5.79
660.02	6.56
660.347	6.79
660.674	6.29
661.001	6.4
661.329	6.64
661.656	6.5
661.982	6.39
662.309	6.82
662.636	6.47
662.963	6.69
663.29	6.53
663.616	6.55
663.943	6.33
664.27	6.7
664.596	6.01
664.923	6.07
665.249	6.11
665.576	6.15
665.902	6.03
666.228	6.74
666.554	6.32
666.881	6.93
667.207	6.53
667.533	6.43
667.859	6.41
668.185	6.91
668.511	6.6
668.837	6.56
669.162	6.49
669.488	6.39
669.814	6.88
670.139	6.41
670.465	6.52
670.791	6.81
671.116	6.7
671.442	6.68
671.767	6.53
672.092	6.39
672.418	7.2
672.743	6.29
673.068	6.12
673.393	6.25
673.718	6.1
674.043	6.58
674.368	5.86
674.693	6.54
675.018	6.77
675.343	7.04
675.667	6.47
675.992	6.09
676.317	6.33
676.641	6.36
676.966	6.6
677.29	6.37
677.615	6.61
677.939	6.18
678.264	6.11
678.588	6.51
678.912	6.72
679.236	6.63
679.56	6.34
679.885	6.76
680.209	7.08
680.532	6.54
680.856	6.25
681.18	6.62
681.504	6.99
681.828	6.66
682.152	6.69
682.475	6.4
682.799	6.79
683.122	6.34
683.446	6.28
683.769	6.36
684.093	6.43
684.416	6.64
684.739	6.48
685.062	7.47
685.386	6.15
685.709	6.48
686.032	6.77
686.355	6.21
686.678	5.71
687.001	6.53
687.324	6.54
687.646	6.02
687.969	7.12
688.292	6.75
688.614	6.43
688.937	7.21
689.26	6.65
689.582	6.64
689.904	7.37
690.227	7.05
690.549	7.05
690.871	7.12
691.194	6.01
691.516	6.92
691.838	7.14
692.16	6.66
692.482	6.31
692.804	7.07
693.126	7.36
