Data from 0362_forehead_Reflection__3__29.txt Node

Date: Mon Dec 11 17:53:08 CST 2023
User: ToomeyLab
Spectrometer: FLMS14357
Trigger mode: 0
Integration Time (sec): 1.000000E-2
Scans to average: 100
Electric dark correction enabled: true
Nonlinearity correction enabled: false
Boxcar width: 0
XAxis mode: Wavelengths
Number of Pixels in Spectrum: 2048
>>>>>Begin Spectral Data<<<<<
189.047	93.3
189.435	93.3
189.823	93.3
190.211	253.68
190.599	128.12
190.987	102.16
191.375	103.51
191.763	225.03
192.151	10068.75
192.538	70.34
192.926	-312.57
193.314	319.9
193.702	-554.4
194.089	77.31
194.477	56.73
194.864	17.51
195.252	-385.13
195.639	-0.88
196.027	-309.38
196.414	-343.6
196.801	126.12
197.189	91.64
197.576	106.99
197.963	24.29
198.351	-52.78
198.738	12.44
199.125	-25.96
199.512	24.38
199.899	46.47
200.286	17.74
200.673	-57.57
201.06	36.01
201.447	1.02
201.833	29.4
202.22	26.16
202.607	15.5
202.994	-27.54
203.38	-9.3
203.767	58.05
204.154	16.52
204.54	-23.11
204.927	36.33
205.313	-6.81
205.699	14.77
206.086	-10.34
206.472	29.79
206.858	11.32
207.245	10.23
207.631	38.39
208.017	29.48
208.403	23.6
208.789	-30.24
209.175	18.97
209.561	2.77
209.947	23
210.333	22.07
210.719	58.99
211.105	16.6
211.491	29.88
211.876	-3.78
212.262	7.76
212.648	-14.43
213.034	28.36
213.419	8.24
213.805	20.61
214.19	5.12
214.576	-10.1
214.961	13.24
215.346	-2.56
215.732	12.73
216.117	29.17
216.502	19.56
216.888	15.62
217.273	30.22
217.658	-2.02
218.043	-8.45
218.428	26.16
218.813	11.68
219.198	16.02
219.583	23.4
219.968	-1.96
220.353	-18.83
220.738	29.46
221.122	13.93
221.507	22.2
221.892	8.81
222.276	3
222.661	8.41
223.046	1.68
223.43	17.51
223.815	1.47
224.199	17.13
224.583	14.38
224.968	12.62
225.352	3.74
225.736	12.08
226.121	4.41
226.505	0.44
226.889	2
227.273	8.46
227.657	11.03
228.041	5.43
228.425	1.5
228.809	-0.24
229.193	4.15
229.577	5.93
229.961	3.66
230.344	3.72
230.728	3.08
231.112	3.66
231.495	3.64
231.879	3.12
232.263	3.47
232.646	2.79
233.03	4.65
233.413	2.89
233.797	4.34
234.18	3.26
234.563	3.67
234.946	4.81
235.33	7.1
235.713	3.38
236.096	4.97
236.479	5.27
236.862	4.47
237.245	3.5
237.628	3.25
238.011	3.21
238.394	3.38
238.777	3.36
239.16	4.88
239.543	3.85
239.925	3.49
240.308	3.52
240.691	5.22
241.073	5.66
241.456	4.6
241.838	5.72
242.221	5.2
242.603	3.43
242.986	3.07
243.368	2.78
243.75	3.95
244.133	3.75
244.515	3.19
244.897	3.44
245.279	3.71
245.661	3.2
246.043	3.97
246.425	4.44
246.807	4.74
247.189	3.99
247.571	3.53
247.953	3.3
248.335	3.8
248.717	3.55
249.098	3.35
249.48	3.26
249.862	3.62
250.243	3.73
250.625	3.22
251.006	3.39
251.388	3.94
251.769	4.28
252.151	5.38
252.532	4.19
252.913	4.95
253.295	4.05
253.676	3.88
254.057	3.54
254.438	4.08
254.819	3.03
255.2	3.54
255.581	4.11
255.962	4.13
256.343	4.61
256.724	4.89
257.105	4.23
257.486	3.05
257.867	4.99
258.247	3.51
258.628	3
259.009	4.13
259.389	4.48
259.77	3.2
260.15	3.51
260.531	3.25
260.911	3.05
261.292	3.19
261.672	3.28
262.052	3.41
262.432	3.28
262.813	3.64
263.193	3.18
263.573	3.83
263.953	3.53
264.333	3.6
264.713	3.95
265.093	3.4
265.473	3.8
265.853	4
266.233	2.52
266.612	4.01
266.992	4.6
267.372	4.6
267.752	3.69
268.131	3.65
268.511	3.23
268.89	3.65
269.27	3.72
269.649	3.82
270.029	3.51
270.408	3.42
270.787	3.35
271.167	3.05
271.546	2.82
271.925	3.66
272.304	3.3
272.683	3.09
273.062	3.21
273.441	3.32
273.82	3.31
274.199	3.43
274.578	3.59
274.957	3.23
275.336	3.12
275.715	3.5
276.093	3.96
276.472	3.83
276.851	3.54
277.229	3.5
277.608	3.09
277.986	3.8
278.365	3.63
278.743	3.15
279.122	3.42
279.5	4.01
279.878	3.59
280.257	3.35
280.635	3.85
281.013	3.1
281.391	4.01
281.769	3.35
282.147	3.39
282.525	3.47
282.903	3.39
283.281	3.45
283.659	2.99
284.037	3.25
284.415	2.97
284.792	3.35
285.17	3.11
285.548	3.87
285.925	2.62
286.303	3.19
286.68	3.06
287.058	3.5
287.435	3.49
287.813	3.56
288.19	3.16
288.567	3.17
288.945	3.67
289.322	2.9
289.699	3.32
290.076	3.03
290.453	3.27
290.83	3.73
291.207	3.66
291.584	3.73
291.961	3.17
292.338	3.24
292.715	3.66
293.092	3.54
293.469	3.73
293.845	3.6
294.222	3.97
294.599	3.86
294.975	3.38
295.352	3.39
295.728	3.41
296.105	3.61
296.481	3.65
296.858	3.57
297.234	3.96
297.61	4.19
297.986	3.95
298.363	3.74
298.739	3.92
299.115	3.76
299.491	3.79
299.867	3.81
300.243	3.85
300.619	3.67
300.995	3.63
301.371	4.11
301.746	3.71
302.122	3.77
302.498	4.34
302.874	4.32
303.249	3.83
303.625	3.82
304	4.06
304.376	4.1
304.751	3.88
305.127	4.26
305.502	4.14
305.878	4.27
306.253	4.62
306.628	4.5
307.003	4.82
307.378	4.47
307.754	4.69
308.129	4.76
308.504	4.59
308.879	4.29
309.254	4.74
309.629	4.81
310.003	5.02
310.378	4.72
310.753	4.57
311.128	4.9
311.502	4.97
311.877	5.04
312.252	4.79
312.626	5.12
313.001	5.4
313.375	4.33
313.75	4.87
314.124	4.99
314.498	5.26
314.873	5.35
315.247	5.38
315.621	5.94
315.995	5.85
316.369	5.57
316.743	5.84
317.117	5.99
317.491	5.9
317.865	5.16
318.239	5.68
318.613	6.14
318.987	5.7
319.361	6.27
319.734	5.51
320.108	5.61
320.482	6.03
320.855	5.83
321.229	5.67
321.602	5.94
321.976	6.89
322.349	6.23
322.723	5.94
323.096	6.99
323.469	6.55
323.843	6.72
324.216	6.69
324.589	7.05
324.962	6.5
325.335	6.45
325.708	6.4
326.081	6.75
326.454	6.29
326.827	6.2
327.2	5.96
327.573	6.44
327.945	6.64
328.318	6.72
328.691	6.73
329.063	6.78
329.436	6.79
329.809	6.73
330.181	6.82
330.553	6.33
330.926	6.7
331.298	7.3
331.671	7.05
332.043	7.67
332.415	7.27
332.787	7.06
333.159	7.33
333.532	7.18
333.904	6.96
334.276	7.68
334.648	7.97
335.02	7.1
335.391	7.25
335.763	7.25
336.135	7.45
336.507	7
336.879	8.19
337.25	7.56
337.622	7.19
337.993	7.26
338.365	7.06
338.736	7.08
339.108	7.55
339.479	7.5
339.851	7.23
340.222	7.76
340.593	7.27
340.964	7.74
341.336	7.65
341.707	7.52
342.078	8.09
342.449	7.74
342.82	7.32
343.191	7.44
343.562	8.23
343.933	8.02
344.303	7.51
344.674	8.14
345.045	8.04
345.416	7.92
345.786	8.15
346.157	7.8
346.527	7.94
346.898	8.35
347.268	7.88
347.639	8.66
348.009	8.82
348.38	7.48
348.75	8.06
349.12	8.38
349.49	8.01
349.861	8.39
350.231	8.62
350.601	8.67
350.971	8.62
351.341	8
351.711	8.74
352.081	8.65
352.45	8.23
352.82	8.27
353.19	8.7
353.56	8.67
353.929	8.4
354.299	8.97
354.669	9
355.038	8.79
355.408	8.42
355.777	9.06
356.147	9.28
356.516	8.89
356.885	8.87
357.254	9.04
357.624	9.12
357.993	9.01
358.362	8.84
358.731	8.81
359.1	8.87
359.469	8.89
359.838	8.92
360.207	9.06
360.576	9.17
360.945	9.56
361.314	9.55
361.682	9.44
362.051	9.15
362.42	9.2
362.788	9.27
363.157	9.34
363.525	9.35
363.894	9.37
364.262	9.52
364.631	9.45
364.999	9.36
365.367	9.62
365.735	9.52
366.104	9.44
366.472	9.79
366.84	9.61
367.208	9.78
367.576	9.71
367.944	9.9
368.312	9.74
368.68	9.88
369.048	9.71
369.416	9.74
369.783	9.95
370.151	10.22
370.519	10.62
370.886	10.08
371.254	10.19
371.621	10.55
371.989	10.5
372.356	10.37
372.724	10.51
373.091	10.27
373.458	10.19
373.826	10.41
374.193	10.16
374.56	10.53
374.927	10.73
375.294	10.54
375.661	10.58
376.028	10.65
376.395	10.94
376.762	10.95
377.129	10.9
377.496	10.59
377.863	10.8
378.229	10.53
378.596	10.88
378.963	10.7
379.329	10.71
379.696	11.02
380.062	10.84
380.429	10.7
380.795	11.36
381.161	10.88
381.528	10.99
381.894	11.18
382.26	11.35
382.626	11.08
382.993	11.36
383.359	11.16
383.725	11.15
384.091	11.37
384.457	10.99
384.823	11.52
385.188	11.5
385.554	11.14
385.92	11.56
386.286	11.62
386.651	11.44
387.017	11.38
387.383	11.28
387.748	11.75
388.114	11.57
388.479	11.7
388.845	11.59
389.21	11.92
389.575	11.96
389.94	11.52
390.306	11.93
390.671	11.8
391.036	11.92
391.401	12.1
391.766	11.86
392.131	11.95
392.496	12.38
392.861	12.17
393.226	12.22
393.591	12.11
393.956	11.99
394.32	12.34
394.685	12.23
395.05	12.71
395.414	12.3
395.779	12.23
396.143	11.96
396.508	12.21
396.872	12.21
397.236	12.27
397.601	12.43
397.965	12.35
398.329	12.45
398.694	12.36
399.058	12.75
399.422	12.61
399.786	12.67
400.15	12.55
400.514	12.84
400.878	12.71
401.242	12.73
401.605	12.83
401.969	12.54
402.333	12.59
402.697	12.65
403.06	13.05
403.424	12.86
403.787	13.34
404.151	12.85
404.514	12.89
404.878	12.98
405.241	13.11
405.604	12.99
405.968	12.91
406.331	12.82
406.694	12.89
407.057	13.04
407.42	13.33
407.783	13.04
408.146	13.44
408.509	13.18
408.872	13.58
409.235	13.16
409.598	13.48
409.961	13.4
410.323	13.72
410.686	13.31
411.049	13.74
411.411	13.61
411.774	13.79
412.136	13.58
412.499	13.66
412.861	13.45
413.223	13.69
413.586	13.76
413.948	13.88
414.31	13.88
414.672	13.67
415.035	13.93
415.397	13.66
415.759	14.04
416.121	13.74
416.483	14.04
416.845	13.89
417.206	13.99
417.568	13.92
417.93	13.88
418.292	13.96
418.653	13.94
419.015	13.89
419.377	14.03
419.738	13.8
420.1	13.99
420.461	14.04
420.822	14
421.184	14.15
421.545	13.9
421.906	14.24
422.267	14.05
422.629	14.07
422.99	14.13
423.351	14.08
423.712	14.14
424.073	14.26
424.434	14.31
424.795	14.48
425.155	14.45
425.516	14.3
425.877	14.28
426.238	14.5
426.598	14.38
426.959	14.63
427.32	14.62
427.68	14.85
428.041	14.66
428.401	14.8
428.761	14.97
429.122	14.99
429.482	15.06
429.842	15.1
430.202	15.16
430.563	15.08
430.923	15.31
431.283	15.05
431.643	15.47
432.003	15.67
432.363	15.42
432.722	15.42
433.082	15.47
433.442	15.6
433.802	15.44
434.161	15.7
434.521	15.52
434.881	15.57
435.24	15.58
435.6	15.58
435.959	15.52
436.319	15.61
436.678	15.68
437.037	15.99
437.396	15.92
437.756	16.07
438.115	16.06
438.474	16.1
438.833	15.98
439.192	16.24
439.551	16.27
439.91	16.23
440.269	16.46
440.628	16.22
440.987	16.25
441.345	16.16
441.704	16.29
442.063	16.35
442.421	16.33
442.78	16.26
443.138	16.33
443.497	16.33
443.855	16.36
444.214	16.49
444.572	16.48
444.93	16.54
445.288	16.67
445.647	16.75
446.005	16.7
446.363	16.61
446.721	16.87
447.079	16.71
447.437	16.53
447.795	16.65
448.153	16.65
448.51	16.66
448.868	16.66
449.226	16.73
449.584	16.91
449.941	17.02
450.299	17
450.656	17
451.014	17.26
451.371	17.27
451.729	17.69
452.086	17.26
452.443	17.57
452.801	17.54
453.158	17.64
453.515	17.47
453.872	17.57
454.229	17.63
454.586	17.57
454.943	17.49
455.3	17.72
455.657	17.59
456.014	17.84
456.371	17.79
456.727	18
457.084	18
457.441	18.19
457.797	17.96
458.154	17.93
458.51	18.26
458.867	17.99
459.223	18.12
459.58	18.15
459.936	18.28
460.292	18.15
460.648	18.11
461.005	18.03
461.361	18.02
461.717	17.81
462.073	17.91
462.429	18.02
462.785	18.03
463.141	18.22
463.496	18.41
463.852	18.54
464.208	18.67
464.564	18.84
464.919	18.82
465.275	18.56
465.631	18.73
465.986	19
466.342	19.05
466.697	18.75
467.052	18.97
467.408	19.08
467.763	19.02
468.118	18.93
468.473	19.04
468.829	19.13
469.184	19.17
469.539	19.28
469.894	19.11
470.249	19.36
470.603	19.28
470.958	19.42
471.313	19.42
471.668	19.55
472.023	19.75
472.377	19.61
472.732	19.55
473.086	19.64
473.441	19.84
473.795	19.73
474.15	19.75
474.504	19.68
474.859	19.75
475.213	19.9
475.567	19.79
475.921	19.96
476.275	20.14
476.63	20.19
476.984	20.16
477.338	20.17
477.692	20.22
478.045	20.26
478.399	20.07
478.753	19.89
479.107	20.25
479.461	20.15
479.814	20.15
480.168	20.36
480.521	20.48
480.875	20.41
481.228	20.49
481.582	20.64
481.935	20.49
482.289	20.58
482.642	20.52
482.995	20.54
483.348	20.48
483.701	20.4
484.055	20.35
484.408	20.32
484.761	20.36
485.114	20.1
485.466	19.7
485.819	19.62
486.172	19.7
486.525	19.87
486.878	19.99
487.23	20.19
487.583	20.3
487.936	20.52
488.288	20.63
488.641	20.49
488.993	20.35
489.345	20.4
489.698	20.29
490.05	20.36
490.402	20.41
490.754	20.5
491.107	20.78
491.459	20.97
491.811	21.18
492.163	21.3
492.515	21.36
492.866	21.31
493.218	20.85
493.57	20.74
493.922	20.79
494.274	20.92
494.625	21.13
494.977	21.31
495.328	21.56
495.68	21.75
496.031	22.06
496.383	22.14
496.734	22.06
497.086	22.16
497.437	22.16
497.788	22.08
498.139	22.21
498.49	22.18
498.842	22.15
499.193	22.08
499.544	22.01
499.894	22.15
500.245	22.31
500.596	22.51
500.947	22.42
501.298	22.48
501.648	22.51
501.999	22.51
502.35	22.63
502.7	22.69
503.051	22.76
503.401	22.83
503.752	22.93
504.102	23.02
504.452	23
504.803	22.99
505.153	23.14
505.503	23.24
505.853	23.22
506.203	23.03
506.553	23.09
506.903	23.17
507.253	23.29
507.603	23.37
507.953	23.55
508.303	23.34
508.652	23.46
509.002	23.56
509.352	23.5
509.701	23.48
510.051	23.51
510.4	23.43
510.75	23.33
511.099	23.43
511.449	23.51
511.798	23.53
512.147	23.66
512.496	23.6
512.846	23.77
513.195	23.93
513.544	23.83
513.893	23.79
514.242	24.06
514.591	23.81
514.939	23.81
515.288	24.15
515.637	24.21
515.986	24.27
516.334	24.41
516.683	24.3
517.032	24.45
517.38	24.58
517.729	24.54
518.077	24.59
518.426	24.47
518.774	24.54
519.122	24.6
519.47	24.54
519.819	24.34
520.167	24.35
520.515	24.25
520.863	24.25
521.211	24.24
521.559	24.44
521.907	24.57
522.255	24.57
522.602	24.77
522.95	24.9
523.298	24.94
523.645	25.15
523.993	25.17
524.341	25.24
524.688	25.25
525.036	25.12
525.383	25.29
525.73	25.24
526.078	25.3
526.425	25.24
526.772	25.43
527.119	25.13
527.466	24.99
527.814	25.06
528.161	25.06
528.508	25.12
528.854	25.15
529.201	25.12
529.548	25.22
529.895	24.99
530.242	24.72
530.588	24.64
530.935	24.7
531.282	24.78
531.628	24.88
531.975	25.11
532.321	25.36
532.667	25.49
533.014	25.72
533.36	25.7
533.706	25.78
534.052	25.8
534.399	25.81
534.745	25.65
535.091	25.48
535.437	25.42
535.783	25.48
536.129	25.75
536.474	25.97
536.82	26.08
537.166	26.17
537.512	26.43
537.857	26.49
538.203	26.28
538.549	26.21
538.894	26.2
539.239	26.48
539.585	26.52
539.93	26.63
540.276	26.79
540.621	26.92
540.966	26.98
541.311	27.08
541.656	27.21
542.001	27.14
542.346	27.06
542.691	26.69
543.036	26.43
543.381	26.31
543.726	26.48
544.071	26.54
544.415	26.62
544.76	26.76
545.105	26.99
545.449	27.02
545.794	27.2
546.138	27.39
546.483	27.45
546.827	27.63
547.171	27.57
547.516	27.75
547.86	27.82
548.204	27.71
548.548	27.47
548.892	27.57
549.236	27.63
549.58	27.83
549.924	28.01
550.268	28.06
550.612	28.33
550.956	28.38
551.3	28.39
551.643	28.5
551.987	28.43
552.33	28.92
552.674	28.9
553.017	28.59
553.361	28.69
553.704	28.8
554.048	28.78
554.391	28.65
554.734	28.74
555.077	28.8
555.42	28.83
555.764	28.91
556.107	28.96
556.45	29.22
556.793	28.95
557.135	29.39
557.478	29.29
557.821	29.46
558.164	29.34
558.507	29.26
558.849	29.59
559.192	29.53
559.534	29.62
559.877	29.64
560.219	29.8
560.562	29.78
560.904	29.72
561.246	29.62
561.589	29.93
561.931	30.07
562.273	29.78
562.615	29.93
562.957	29.95
563.299	30.05
563.641	30.1
563.983	30.06
564.325	30.31
564.667	30.33
565.008	30.41
565.35	30.47
565.692	30.26
566.033	30.36
566.375	30.61
566.716	30.43
567.058	30.55
567.399	30.45
567.741	30.24
568.082	30.26
568.423	30.38
568.764	30.3
569.105	30.74
569.447	30.56
569.788	30.59
570.129	30.91
570.47	30.65
570.811	30.57
571.151	30.81
571.492	31.19
571.833	30.8
572.174	31.48
572.514	31.08
572.855	31.02
573.195	31.12
573.536	31.23
573.876	31.1
574.217	31.03
574.557	30.94
574.898	31.32
575.238	31.3
575.578	31.29
575.918	31.41
576.258	31.55
576.598	31.21
576.938	31.63
577.278	31.45
577.618	31.68
577.958	31.67
578.298	31.76
578.638	31.78
578.977	31.84
579.317	32.08
579.657	31.7
579.996	31.81
580.336	32.17
580.675	32.18
581.014	32.29
581.354	32.38
581.693	32.74
582.032	32.36
582.372	32.58
582.711	32.61
583.05	32.8
583.389	32.74
583.728	32.95
584.067	32.6
584.406	32.6
584.745	32.71
585.083	33.24
585.422	33
585.761	33.05
586.1	33.05
586.438	32.9
586.777	32.94
587.115	33.02
587.454	32.99
587.792	33.28
588.13	33.19
588.469	33.4
588.807	33.35
589.145	33.52
589.483	33.55
589.821	33.3
590.159	33.38
590.497	33.45
590.835	33.34
591.173	33.5
591.511	33.67
591.849	33.81
592.187	33.32
592.524	33.65
592.862	33.55
593.2	33.61
593.537	33.93
593.875	33.88
594.212	34.32
594.55	34.14
594.887	34.15
595.224	34.05
595.561	34.27
595.899	34.04
596.236	34.27
596.573	34.13
596.91	34.21
597.247	34.52
597.584	34.24
597.921	34.21
598.258	34.19
598.594	34.26
598.931	34.05
599.268	34.23
599.604	34.33
599.941	34.2
600.277	34.53
600.614	34.7
600.95	34.44
601.287	34.86
601.623	34.83
601.959	34.75
602.296	34.84
602.632	35.02
602.968	35.39
603.304	35
603.64	35.3
603.976	35.33
604.312	35.57
604.648	35.21
604.984	35.46
605.319	35.08
605.655	34.97
605.991	35.12
606.326	35.08
606.662	35.24
606.998	35
607.333	35.16
607.668	35.43
608.004	35.43
608.339	35.69
608.674	35.44
609.01	35.84
609.345	35.84
609.68	36.07
610.015	35.93
610.35	35.75
610.685	35.78
611.02	35.61
611.355	35.77
611.689	35.92
612.024	35.87
612.359	36.11
612.694	36.16
613.028	36.01
613.363	36.1
613.697	36.45
614.032	36.44
614.366	36.23
614.7	36.67
615.035	36.63
615.369	36.89
615.703	36.89
616.037	36.83
616.371	36.62
616.705	36.65
617.039	37.25
617.373	36.65
617.707	36.92
618.041	37.36
618.375	36.96
618.709	37.04
619.042	36.92
619.376	37.05
619.71	37.11
620.043	37.05
620.377	37.2
620.71	37.32
621.043	36.97
621.377	37.22
621.71	37.84
622.043	37.92
622.376	37.43
622.709	37.44
623.043	37.55
623.376	37.63
623.709	37.64
624.041	37.45
624.374	37.6
624.707	37.63
625.04	38
625.373	37.99
625.705	37.42
626.038	38.04
626.37	38.05
626.703	37.87
627.035	38.26
627.368	37.78
627.7	38.03
628.032	38.11
628.365	38.53
628.697	38.38
629.029	38.49
629.361	38.23
629.693	38.2
630.025	38.09
630.357	38.09
630.689	38.32
631.021	38.6
631.353	38.51
631.684	38.92
632.016	38.84
632.348	38.47
632.679	38.8
633.011	38.47
633.342	38.7
633.674	39.24
634.005	39.18
634.336	38.86
634.668	38.88
634.999	39.4
635.33	39.03
635.661	39.34
635.992	39.37
636.323	39.42
636.654	39.31
636.985	39.09
637.316	39.57
637.647	39.18
637.977	39.12
638.308	39.12
638.639	39.64
638.969	39.24
639.3	40.01
639.63	39.58
639.961	39.6
640.291	40.05
640.622	39.88
640.952	39.95
641.282	39.74
641.612	40.26
641.943	40.05
642.273	40.01
642.603	40.25
642.933	40.02
643.263	39.59
643.592	40.04
643.922	40.18
644.252	40.01
644.582	40.5
644.911	40.72
645.241	40.68
645.571	40.5
645.9	40.65
646.23	40.65
646.559	40.37
646.888	39.93
647.218	40.45
647.547	40.14
647.876	40.32
648.205	40.16
648.534	40.46
648.863	40.71
649.192	40.55
649.521	41.18
649.85	41.28
650.179	40.98
650.508	40.56
650.837	40.01
651.165	41.05
651.494	40.98
651.822	41.01
652.151	41.45
652.479	41.15
652.808	40.58
653.136	41.34
653.465	41.09
653.793	41.33
654.121	41.29
654.449	41.64
654.777	41.51
655.105	41.56
655.433	41.18
655.761	41.79
656.089	41.31
656.417	40.95
656.745	41.84
657.073	42.41
657.4	41.88
657.728	41.14
658.056	41.66
658.383	42.04
658.711	42.12
659.038	41.74
659.365	41.71
659.693	41.98
660.02	42
660.347	42.05
660.674	41.76
661.001	41.87
661.329	41.79
661.656	41.8
661.982	42.09
662.309	42.14
662.636	42.45
662.963	42.47
663.29	42.42
663.616	42.39
663.943	42.29
664.27	42.94
664.596	42.65
664.923	42.67
665.249	42.57
665.576	43
665.902	42.42
666.228	42.42
666.554	42.17
666.881	43.12
667.207	42.92
667.533	42.96
667.859	42.57
668.185	43.54
668.511	42.78
668.837	43.68
669.162	43.07
669.488	43.15
669.814	43.23
670.139	43.7
670.465	43.59
670.791	43.47
671.116	43.93
671.442	43.34
671.767	44.06
672.092	43.39
672.418	43.91
672.743	42.93
673.068	43.53
