Data from 0362_chest_Reflection__0__16.txt Node

Date: Mon Dec 11 17:41:54 CST 2023
User: ToomeyLab
Spectrometer: FLMS14357
Trigger mode: 0
Integration Time (sec): 1.000000E-2
Scans to average: 100
Electric dark correction enabled: true
Nonlinearity correction enabled: false
Boxcar width: 0
XAxis mode: Wavelengths
Number of Pixels in Spectrum: 2048
>>>>>Begin Spectral Data<<<<<
189.047	-48.3
189.435	-48.3
189.823	-48.3
190.211	-42.85
190.599	39.26
190.987	62.95
191.375	49.2
191.763	129.86
192.151	-39243.75
192.538	157.9
192.926	-164.93
193.314	10.14
193.702	-390.97
194.089	-84.07
194.477	22.77
194.864	189.67
195.252	-350.22
195.639	-171.5
196.027	646.88
196.414	56.1
196.801	256.19
197.189	-122.35
197.576	90.9
197.963	49.42
198.351	-21.41
198.738	4.35
199.125	-6.24
199.512	31.05
199.899	39.33
200.286	22.37
200.673	-44.13
201.06	36
201.447	-5.39
201.833	7.34
202.22	33
202.607	21.83
202.994	-52.18
203.38	-29.98
203.767	24
204.154	30.86
204.54	15.78
204.927	-80.95
205.313	-1
205.699	-53.14
206.086	-1.99
206.472	24.98
206.858	45.06
207.245	-12.7
207.631	-11.67
208.017	11.61
208.403	20.4
208.789	-30.11
209.175	9.69
209.561	-9.13
209.947	34.34
210.333	22.15
210.719	47.25
211.105	17.79
211.491	24.15
211.876	10.25
212.262	-19.65
212.648	12.84
213.034	19.01
213.419	-9.8
213.805	-6.6
214.19	30.02
214.576	-33.22
214.961	-10.15
215.346	-11.76
215.732	5.25
216.117	21.21
216.502	15
216.888	18.33
217.273	8.14
217.658	1
218.043	2.31
218.428	14.52
218.813	31.22
219.198	7.17
219.583	0.26
219.968	9.27
220.353	-10.45
220.738	33.85
221.122	6.56
221.507	32.79
221.892	14.26
222.276	8.54
222.661	-3.55
223.046	1.8
223.43	4.2
223.815	-3.96
224.199	9.79
224.583	5.24
224.968	9.39
225.352	13.37
225.736	7.63
226.121	2.21
226.505	-1.81
226.889	8.81
227.273	5.82
227.657	13.37
228.041	4.8
228.425	1.83
228.809	-0.27
229.193	6.29
229.577	4.13
229.961	3.74
230.344	3.53
230.728	2.75
231.112	3.6
231.495	4.42
231.879	3.19
232.263	3.53
232.646	2.83
233.03	3.09
233.413	3.76
233.797	4.14
234.18	4.51
234.563	6.53
234.946	3.05
235.33	5.64
235.713	3.16
236.096	2.65
236.479	3.9
236.862	4.46
237.245	1.38
237.628	3.91
238.011	3.36
238.394	3.65
238.777	4.1
239.16	3.69
239.543	4.6
239.925	3.72
240.308	4.46
240.691	3
241.073	4.43
241.456	5.58
241.838	5.13
242.221	4.89
242.603	1.99
242.986	3.94
243.368	2.65
243.75	3.37
244.133	3.22
244.515	3.18
244.897	3.02
245.279	3.34
245.661	3.42
246.043	3.01
246.425	3.34
246.807	4.12
247.189	4.52
247.571	3.74
247.953	2.92
248.335	3.71
248.717	3.47
249.098	3.14
249.48	3.16
249.862	3.4
250.243	3.3
250.625	3.22
251.006	3.32
251.388	3.86
251.769	4.01
252.151	4.37
252.532	3.49
252.913	3.58
253.295	3.49
253.676	3.23
254.057	3.4
254.438	3.48
254.819	3.34
255.2	1.87
255.581	2.71
255.962	3.98
256.343	2.92
256.724	3.64
257.105	2.4
257.486	2.95
257.867	3.73
258.247	3.07
258.628	3.27
259.009	4.65
259.389	3.51
259.77	3.56
260.15	2.84
260.531	2.99
260.911	2.93
261.292	2.84
261.672	3.16
262.052	3
262.432	3.07
262.813	3.35
263.193	3.16
263.573	3.33
263.953	3.06
264.333	2.93
264.713	3.82
265.093	3.17
265.473	3.76
265.853	3.88
266.233	2.84
266.612	2.9
266.992	3.64
267.372	4.56
267.752	3.9
268.131	3.39
268.511	2.7
268.89	3.39
269.27	3.3
269.649	3.54
270.029	3.35
270.408	3.18
270.787	2.71
271.167	2.85
271.546	2.93
271.925	3.33
272.304	3.24
272.683	3.33
273.062	2.4
273.441	3.13
273.82	3.03
274.199	2.9
274.578	2.89
274.957	3.07
275.336	3.15
275.715	3.14
276.093	3.7
276.472	3.42
276.851	3.85
277.229	3.4
277.608	3.19
277.986	3.59
278.365	2.36
278.743	3.39
279.122	3.14
279.5	3.25
279.878	3.01
280.257	2.82
280.635	3.37
281.013	2.86
281.391	3.3
281.769	2.7
282.147	2.38
282.525	2.98
282.903	3.23
283.281	2.98
283.659	2.94
284.037	2.89
284.415	3
284.792	3.2
285.17	3.07
285.548	2.69
285.925	2.52
286.303	3.27
286.68	2.98
287.058	2.8
287.435	3.26
287.813	3.36
288.19	2.81
288.567	2.71
288.945	2.96
289.322	2.78
289.699	2.83
290.076	2.49
290.453	2.88
290.83	3.18
291.207	2.93
291.584	2.72
291.961	3.18
292.338	3.42
292.715	3.36
293.092	3.23
293.469	3.18
293.845	3.15
294.222	3.39
294.599	2.7
294.975	2.99
295.352	2.84
295.728	3.41
296.105	3.28
296.481	3.2
296.858	3.17
297.234	3.52
297.61	3.47
297.986	3.63
298.363	3.38
298.739	3.4
299.115	3.08
299.491	3.22
299.867	3.28
300.243	3.13
300.619	3.24
300.995	2.92
301.371	2.78
301.746	2.98
302.122	3.04
302.498	3.5
302.874	3.32
303.249	3.32
303.625	3.45
304	3.08
304.376	3.43
304.751	3.05
305.127	3.56
305.502	3.76
305.878	3.43
306.253	3.5
306.628	3.92
307.003	3.52
307.378	3.08
307.754	3.55
308.129	3.47
308.504	3.49
308.879	3.01
309.254	3.68
309.629	4.07
310.003	3.26
310.378	3.02
310.753	3.63
311.128	3.37
311.502	3.26
311.877	3.58
312.252	3.58
312.626	3.22
313.001	3.44
313.375	3.1
313.75	3.54
314.124	3.51
314.498	3.32
314.873	3.33
315.247	3.27
315.621	3.97
315.995	3.97
316.369	3.95
316.743	3.54
317.117	3.51
317.491	3.36
317.865	3.63
318.239	3.37
318.613	3.62
318.987	3.9
319.361	3.72
319.734	3.23
320.108	3.66
320.482	3.16
320.855	3.4
321.229	3.35
321.602	3.47
321.976	4.14
322.349	3.5
322.723	3.59
323.096	3.71
323.469	3.86
323.843	4.06
324.216	4.19
324.589	4.11
324.962	3.36
325.335	3.94
325.708	3.75
326.081	4.14
326.454	4.15
326.827	3.63
327.2	3.28
327.573	3.63
327.945	3.96
328.318	3.77
328.691	3.44
329.063	3.46
329.436	3.35
329.809	3.47
330.181	3.64
330.553	3.55
330.926	3.77
331.298	4.04
331.671	3.28
332.043	3.52
332.415	3.75
332.787	3.71
333.159	3.27
333.532	3.89
333.904	3.4
334.276	4.16
334.648	3.99
335.02	3.92
335.391	3.95
335.763	3.56
336.135	4.15
336.507	4.12
336.879	3.62
337.25	3.5
337.622	3.35
337.993	3.42
338.365	3.29
338.736	3.66
339.108	4.02
339.479	3.72
339.851	3.47
340.222	3.79
340.593	3.56
340.964	3.74
341.336	3.46
341.707	3.67
342.078	4.03
342.449	4.11
342.82	3.15
343.191	3.7
343.562	3.75
343.933	3.57
344.303	3.71
344.674	3.83
345.045	3.96
345.416	3.43
345.786	3.8
346.157	3.63
346.527	3.73
346.898	3.57
347.268	3.49
347.639	3.66
348.009	3.91
348.38	3.53
348.75	3.39
349.12	3.93
349.49	3.15
349.861	3.67
350.231	3.19
350.601	4.31
350.971	3.91
351.341	3.34
351.711	3.82
352.081	3.38
352.45	4.3
352.82	2.93
353.19	3.26
353.56	3.76
353.929	3.93
354.299	3.95
354.669	3.96
355.038	3.84
355.408	3.38
355.777	3.75
356.147	4.14
356.516	3.88
356.885	3.58
357.254	3.76
357.624	3.47
357.993	3.4
358.362	3.92
358.731	3.19
359.1	3.75
359.469	3.62
359.838	3.66
360.207	3.79
360.576	3.85
360.945	4.08
361.314	4.11
361.682	3.46
362.051	3.45
362.42	3.51
362.788	3.64
363.157	3.63
363.525	3.33
363.894	3.74
364.262	3.71
364.631	3.63
364.999	3.76
365.367	3.96
365.735	3.82
366.104	3.78
366.472	3.77
366.84	3.39
367.208	3.69
367.576	4.01
367.944	4.04
368.312	3.57
368.68	3.63
369.048	4.1
369.416	3.6
369.783	3.76
370.151	3.82
370.519	4.36
370.886	3.33
371.254	4.27
371.621	3.91
371.989	3.78
372.356	4.08
372.724	4.04
373.091	4.22
373.458	3.53
373.826	4.06
374.193	3.68
374.56	3.81
374.927	4.19
375.294	3.93
375.661	3.58
376.028	3.96
376.395	3.74
376.762	3.84
377.129	4.07
377.496	3.8
377.863	3.84
378.229	3.85
378.596	3.92
378.963	4.13
379.329	3.96
379.696	3.82
380.062	3.69
380.429	3.74
380.795	3.93
381.161	3.77
381.528	3.78
381.894	3.99
382.26	4.16
382.626	3.8
382.993	3.81
383.359	3.79
383.725	3.52
384.091	3.84
384.457	3.76
384.823	4.06
385.188	3.8
385.554	3.56
385.92	3.6
386.286	3.88
386.651	3.89
387.017	3.91
387.383	3.92
387.748	3.92
388.114	3.71
388.479	3.88
388.845	3.64
389.21	3.94
389.575	3.89
389.94	3.77
390.306	3.67
390.671	3.89
391.036	3.93
391.401	4.17
391.766	3.91
392.131	3.88
392.496	3.96
392.861	3.97
393.226	3.99
393.591	3.94
393.956	3.9
394.32	3.86
394.685	3.77
395.05	4.19
395.414	4.13
395.779	3.7
396.143	3.77
396.508	3.84
396.872	4.02
397.236	4.08
397.601	3.78
397.965	4.15
398.329	3.81
398.694	3.9
399.058	4.04
399.422	4.12
399.786	3.72
400.15	4.02
400.514	4.01
400.878	4.05
401.242	3.73
401.605	4.22
401.969	3.83
402.333	3.76
402.697	3.96
403.06	3.92
403.424	3.93
403.787	4.1
404.151	3.94
404.514	3.78
404.878	4.13
405.241	3.91
405.604	3.87
405.968	3.86
406.331	3.9
406.694	4.01
407.057	4.12
407.42	4.04
407.783	4.13
408.146	3.93
408.509	3.87
408.872	3.94
409.235	3.89
409.598	3.87
409.961	4.13
410.323	3.91
410.686	3.98
411.049	4.09
411.411	4.04
411.774	3.97
412.136	3.73
412.499	4.08
412.861	3.84
413.223	4.1
413.586	3.95
413.948	4.08
414.31	3.91
414.672	3.89
415.035	4.12
415.397	4
415.759	4.05
416.121	4.02
416.483	4.17
416.845	4.21
417.206	4.06
417.568	4.14
417.93	4.08
418.292	3.89
418.653	3.97
419.015	3.95
419.377	4.01
419.738	4.07
420.1	4.01
420.461	3.93
420.822	3.97
421.184	3.97
421.545	3.93
421.906	3.93
422.267	3.92
422.629	3.9
422.99	3.88
423.351	3.82
423.712	3.88
424.073	3.9
424.434	3.9
424.795	4.07
425.155	4.01
425.516	3.84
425.877	3.88
426.238	3.94
426.598	3.97
426.959	3.91
427.32	3.94
427.68	3.96
428.041	3.88
428.401	4
428.761	4.01
429.122	3.99
429.482	4.12
429.842	4.01
430.202	4
430.563	4.04
430.923	4.34
431.283	4.02
431.643	4.09
432.003	4.16
432.363	4.28
432.722	4.07
433.082	4.01
433.442	4.18
433.802	3.94
434.161	4.25
434.521	3.95
434.881	4.08
435.24	4.02
435.6	4
435.959	4.1
436.319	4.05
436.678	4.09
437.037	4.21
437.396	4.25
437.756	4.16
438.115	4.3
438.474	4.2
438.833	4.12
439.192	4
439.551	4.27
439.91	4.25
440.269	4.27
440.628	4.09
440.987	4.31
441.345	4.08
441.704	4.19
442.063	4.27
442.421	4.18
442.78	4.08
443.138	4.05
443.497	4.09
443.855	4.04
444.214	4.26
444.572	4.15
444.93	4.18
445.288	4.2
445.647	4.29
446.005	4.05
446.363	4.11
446.721	4.22
447.079	4.13
447.437	4.18
447.795	4.07
448.153	4.2
448.51	4.13
448.868	4.02
449.226	3.93
449.584	4.18
449.941	4.14
450.299	4.15
450.656	4.11
451.014	4.26
451.371	4.08
451.729	4.31
452.086	4.23
452.443	4.41
452.801	4.28
453.158	4.23
453.515	4.23
453.872	4.15
454.229	4.1
454.586	4.31
454.943	4.27
455.3	4.24
455.657	4.34
456.014	4.22
456.371	4.33
456.727	4.41
457.084	4.34
457.441	4.26
457.797	4.19
458.154	4.4
458.51	4.39
458.867	4.2
459.223	4.24
459.58	4.23
459.936	4.28
460.292	4.31
460.648	4.24
461.005	4.21
461.361	4.19
461.717	4.07
462.073	4.24
462.429	4.17
462.785	4.26
463.141	4.32
463.496	4.5
463.852	4.23
464.208	4.29
464.564	4.31
464.919	4.2
465.275	4.24
465.631	4.14
465.986	4.39
466.342	4.43
466.697	4.34
467.052	4.35
467.408	4.38
467.763	4.26
468.118	4.12
468.473	4.4
468.829	4.38
469.184	4.64
469.539	4.39
469.894	4.29
470.249	4.44
470.603	4.35
470.958	4.41
471.313	4.26
471.668	4.6
472.023	4.6
472.377	4.52
472.732	4.25
473.086	4.47
473.441	4.43
473.795	4.46
474.15	4.44
474.504	4.36
474.859	4.53
475.213	4.3
475.567	4.3
475.921	4.49
476.275	4.27
476.63	4.37
476.984	4.38
477.338	4.22
477.692	4.4
478.045	4.44
478.399	4.29
478.753	4.27
479.107	4.4
479.461	4.43
479.814	4.32
480.168	4.49
480.521	4.56
480.875	4.47
481.228	4.49
481.582	4.57
481.935	4.36
482.289	4.62
482.642	4.5
482.995	4.52
483.348	4.4
483.701	4.23
484.055	4.4
484.408	4.37
484.761	4.27
485.114	4.27
485.466	4.17
485.819	4.09
486.172	4.13
486.525	4.17
486.878	4.26
487.23	4.29
487.583	4.28
487.936	4.32
488.288	4.33
488.641	4.29
488.993	4.23
489.345	4.29
489.698	4.28
490.05	4.2
490.402	4.23
490.754	4.33
491.107	4.29
491.459	4.32
491.811	4.48
492.163	4.5
492.515	4.42
492.866	4.31
493.218	4.27
493.57	4.24
493.922	4.27
494.274	4.36
494.625	4.4
494.977	4.45
495.328	4.48
495.68	4.61
496.031	4.5
496.383	4.34
496.734	4.56
497.086	4.6
497.437	4.59
497.788	4.57
498.139	4.49
498.49	4.48
498.842	4.54
499.193	4.58
499.544	4.5
499.894	4.62
500.245	4.57
500.596	4.72
500.947	4.48
501.298	4.6
501.648	4.56
501.999	4.52
502.35	4.63
502.7	4.61
503.051	4.51
503.401	4.65
503.752	4.54
504.102	4.73
504.452	4.55
504.803	4.76
505.153	4.58
505.503	4.75
505.853	4.68
506.203	4.62
506.553	4.7
506.903	4.57
507.253	4.72
507.603	4.63
507.953	4.74
508.303	4.71
508.652	4.68
509.002	4.73
509.352	4.86
509.701	4.61
510.051	4.68
510.4	4.5
510.75	4.65
511.099	4.67
511.449	4.66
511.798	4.68
512.147	4.76
512.496	4.59
512.846	4.7
513.195	4.78
513.544	4.74
513.893	4.68
514.242	4.76
514.591	4.6
514.939	4.64
515.288	4.73
515.637	4.77
515.986	4.62
516.334	4.85
516.683	4.84
517.032	4.74
517.38	4.83
517.729	4.85
518.077	4.91
518.426	4.87
518.774	4.91
519.122	4.73
519.47	4.71
519.819	4.7
520.167	4.65
520.515	4.57
520.863	4.69
521.211	4.73
521.559	4.72
521.907	4.75
522.255	4.69
522.602	4.83
522.95	4.78
523.298	4.82
523.645	4.92
523.993	4.95
524.341	5.04
524.688	4.74
525.036	4.81
525.383	4.88
525.73	4.89
526.078	4.87
526.425	4.8
526.772	4.84
527.119	4.86
527.466	4.82
527.814	4.8
528.161	4.71
528.508	4.78
528.854	4.73
529.201	4.77
529.548	4.78
529.895	4.78
530.242	4.66
530.588	4.65
530.935	4.64
531.282	4.7
531.628	4.72
531.975	4.78
532.321	4.79
532.667	4.87
533.014	4.85
533.36	4.85
533.706	4.97
534.052	4.88
534.399	4.98
534.745	4.91
535.091	4.81
535.437	4.79
535.783	4.8
536.129	4.98
536.474	4.98
536.82	4.96
537.166	4.92
537.512	4.97
537.857	5.11
538.203	4.93
538.549	4.96
538.894	4.99
539.239	5.1
539.585	5.05
539.93	4.97
540.276	5.08
540.621	5.22
540.966	5.13
541.311	5.15
541.656	5.05
542.001	5.14
542.346	5.09
542.691	5.07
543.036	4.89
543.381	4.87
543.726	4.94
544.071	4.98
544.415	5.02
544.76	5.01
545.105	5.03
545.449	5.04
545.794	5.07
546.138	5.05
546.483	5.03
546.827	5.12
547.171	5.22
547.516	5.15
547.86	5.22
548.204	5.2
548.548	5.1
548.892	5.14
549.236	5.24
549.58	5.25
549.924	5.31
550.268	5.27
550.612	5.35
550.956	5.21
551.3	5.28
551.643	5.34
551.987	5.53
552.33	5.43
552.674	5.46
553.017	5.32
553.361	5.24
553.704	5.38
554.048	5.53
554.391	5.33
554.734	5.38
555.077	5.33
555.42	5.55
555.764	5.32
556.107	5.46
556.45	5.47
556.793	5.43
557.135	5.64
557.478	5.43
557.821	5.56
558.164	5.46
558.507	5.4
558.849	5.58
559.192	5.32
559.534	5.62
559.877	5.52
560.219	5.5
560.562	5.56
560.904	5.66
561.246	5.5
561.589	5.74
561.931	5.58
562.273	5.63
562.615	5.71
562.957	5.58
563.299	5.65
563.641	5.58
563.983	5.74
564.325	5.87
564.667	5.74
565.008	5.76
565.35	5.79
565.692	5.73
566.033	5.71
566.375	5.93
566.716	5.85
567.058	5.63
567.399	5.74
567.741	5.65
568.082	5.73
568.423	5.56
568.764	5.72
569.105	5.83
569.447	5.82
569.788	5.65
570.129	5.81
570.47	5.9
570.811	5.7
571.151	5.9
571.492	5.87
571.833	5.78
572.174	5.98
572.514	5.96
572.855	5.81
573.195	5.95
573.536	5.95
573.876	5.73
574.217	5.98
574.557	5.86
574.898	5.89
575.238	6.07
575.578	6.08
575.918	5.95
576.258	6.03
576.598	6.05
576.938	6.14
577.278	5.88
577.618	5.86
577.958	5.93
578.298	6.07
578.638	6.17
578.977	5.99
579.317	6
579.657	5.96
579.996	5.98
580.336	6.17
580.675	6.17
581.014	6.14
581.354	6.04
581.693	6.44
582.032	5.94
582.372	6.33
582.711	6.29
583.05	6.23
583.389	6.17
583.728	6.51
584.067	6.01
584.406	6.2
584.745	6.36
585.083	6.38
585.422	6.24
585.761	6.55
586.1	6.34
586.438	6.08
586.777	6.38
587.115	6.08
587.454	6.38
587.792	6.18
588.13	6.42
588.469	6.28
588.807	6.36
589.145	6.43
589.483	6.58
589.821	6.09
590.159	6.32
590.497	6.38
590.835	6.53
591.173	6.44
591.511	6.39
591.849	6.57
592.187	6.43
592.524	6.54
592.862	6.55
593.2	6.32
593.537	6.52
593.875	6.6
594.212	6.62
594.55	6.6
594.887	6.61
595.224	6.6
595.561	6.72
595.899	6.48
596.236	6.61
596.573	6.67
596.91	6.46
597.247	6.57
597.584	6.55
597.921	6.57
598.258	6.69
598.594	6.56
598.931	6.51
599.268	6.65
599.604	6.78
599.941	6.79
600.277	6.69
600.614	6.9
600.95	6.68
601.287	6.86
601.623	6.95
601.959	6.77
602.296	6.85
602.632	6.67
602.968	6.69
603.304	6.78
603.64	6.8
603.976	7.08
604.312	6.91
604.648	6.95
604.984	7.23
605.319	6.81
605.655	6.87
605.991	6.87
606.326	6.73
606.662	6.78
606.998	6.91
607.333	6.91
607.668	6.91
608.004	6.92
608.339	7.19
608.674	7.21
609.01	7.07
609.345	7.11
609.68	6.95
610.015	7.17
610.35	7.21
610.685	6.87
611.02	7.06
611.355	7.19
611.689	7.11
612.024	7.07
612.359	7.27
612.694	7.05
613.028	7.07
613.363	7.17
613.697	7.35
614.032	7.3
614.366	7.31
614.7	7.19
615.035	7.33
615.369	7.23
615.703	7.24
616.037	7.43
616.371	7.33
616.705	7.46
617.039	7.43
617.373	7.45
617.707	7.61
618.041	7.7
618.375	7.56
618.709	7.36
619.042	7.4
619.376	7.83
619.71	7.75
620.043	7.16
620.377	7.16
620.71	7.39
621.043	7.65
621.377	7.17
621.71	7.61
622.043	7.52
622.376	7.82
622.709	8
623.043	7.79
623.376	7.72
623.709	7.66
624.041	7.5
624.374	7.85
624.707	7.37
625.04	8.05
625.373	7.6
625.705	7.46
626.038	7.97
626.37	8.02
626.703	7.8
627.035	8.03
627.368	7.65
627.7	7.8
628.032	8.04
628.365	7.73
628.697	7.67
629.029	8.04
629.361	7.66
629.693	7.75
630.025	7.65
630.357	7.89
630.689	7.52
631.021	7.81
631.353	7.87
631.684	7.92
632.016	8.05
632.348	7.99
632.679	8.16
633.011	8.05
633.342	7.89
633.674	8.23
634.005	8.36
634.336	8.08
634.668	8.21
634.999	8.51
635.33	8.39
635.661	8.31
635.992	8.48
636.323	8.24
636.654	8.62
636.985	8.17
637.316	8.22
637.647	8.47
637.977	8.42
638.308	8.18
638.639	8.26
638.969	8.12
639.3	8.46
639.63	8.3
639.961	8.7
640.291	8.78
640.622	8.22
640.952	8.66
641.282	8.67
641.612	9.09
641.943	8.28
642.273	8.09
642.603	8.61
642.933	8.34
643.263	8.79
643.592	8.38
643.922	8.62
644.252	8.67
644.582	8.98
644.911	8.99
645.241	8.56
645.571	8.93
645.9	8.6
646.23	8.68
646.559	8.63
646.888	8.68
647.218	8.36
647.547	7.94
647.876	8.74
648.205	8.46
648.534	8.51
648.863	8.5
649.192	8.32
649.521	8.99
649.85	8.86
650.179	8.77
650.508	8.89
650.837	8.8
651.165	8.93
651.494	8.77
651.822	8.98
652.151	9.44
652.479	8.87
652.808	9.03
653.136	8.77
653.465	8.69
653.793	8.82
654.121	9.05
654.449	8.95
654.777	9.09
655.105	8.79
655.433	9.24
655.761	9.21
656.089	9.06
656.417	8.72
656.745	9.19
657.073	9.2
657.4	9.13
657.728	9.51
658.056	9.82
658.383	9.45
658.711	9.6
659.038	9.37
659.365	9.73
659.693	9.11
660.02	8.83
660.347	9.42
660.674	9.42
661.001	9.26
661.329	9.37
661.656	9.3
661.982	9.06
662.309	9.18
662.636	9.52
662.963	9.95
663.29	9.44
663.616	9.23
663.943	9.37
664.27	9.19
664.596	9.63
664.923	9.78
665.249	9.84
665.576	9.65
665.902	9.9
666.228	9.54
666.554	9.98
666.881	9.26
667.207	9.9
667.533	9.99
667.859	9.61
668.185	9.68
668.511	9.98
668.837	10.08
669.162	9.19
669.488	9.45
669.814	9.64
670.139	9.49
670.465	10.01
670.791	10.1
671.116	10.13
671.442	10.13
671.767	9.88
672.092	9.86
672.418	10.38
672.743	9.26
673.068	9.74
673.393	10.31
673.718	9.97
674.043	10.38
674.368	9.99
674.693	9.71
675.018	10.2
675.343	10.08
675.667	10.04
675.992	10.41
676.317	9.94
676.641	10.34
676.966	10.45
677.29	9.58
677.615	10.68
677.939	10.3
678.264	10.14
678.588	11.01
678.912	10.04
679.236	10.31
679.56	10.49
679.885	9.94
680.209	10.39
680.532	10.67
680.856	11.02
681.18	10.29
681.504	10.5
681.828	10.42
682.152	9.82
682.475	10.61
682.799	10.76
683.122	10.89
683.446	10.13
683.769	10.33
684.093	10.77
684.416	10.63
684.739	11.02
685.062	10.91
685.386	11.02
685.709	11.06
686.032	10.68
686.355	10.54
686.678	10.94
687.001	11.05
687.324	10.43
687.646	10.25
687.969	10.66
688.292	11
688.614	11.37
688.937	11.27
689.26	10.75
689.582	11.32
689.904	10.8
690.227	11.32
690.549	11.04
690.871	10.72
691.194	11.05
691.516	10.93
691.838	11.19
