Data from 0362_crown_Reflection__4__25.txt Node

Date: Mon Dec 11 17:52:11 CST 2023
User: ToomeyLab
Spectrometer: FLMS14357
Trigger mode: 0
Integration Time (sec): 1.000000E-2
Scans to average: 100
Electric dark correction enabled: true
Nonlinearity correction enabled: false
Boxcar width: 0
XAxis mode: Wavelengths
Number of Pixels in Spectrum: 2048
>>>>>Begin Spectral Data<<<<<
189.047	-474.77
189.435	-474.77
189.823	-474.77
190.211	55.42
190.599	24.34
190.987	40.35
191.375	62.38
191.763	23.74
192.151	-33187.5
192.538	86.48
192.926	-139.86
193.314	230.81
193.702	-244.91
194.089	-94.36
194.477	87.44
194.864	202.1
195.252	-283.19
195.639	-33.05
196.027	1971.53
196.414	-342.56
196.801	134.08
197.189	19.43
197.576	81.04
197.963	-43.74
198.351	-12.48
198.738	2.12
199.125	-23.53
199.512	12.74
199.899	-10.16
200.286	35.01
200.673	-98.06
201.06	32.12
201.447	14.02
201.833	27.01
202.22	41.99
202.607	9.08
202.994	-47.45
203.38	-40.87
203.767	17.5
204.154	19.55
204.54	-4.67
204.927	-11.99
205.313	-3.55
205.699	-56.89
206.086	-36.01
206.472	20.45
206.858	20.66
207.245	6.67
207.631	31.45
208.017	13.22
208.403	0.51
208.789	-22.37
209.175	17.71
209.561	-3.46
209.947	-28.81
210.333	9.3
210.719	12.46
211.105	-22.87
211.491	22.65
211.876	21.55
212.262	6.98
212.648	12.15
213.034	13.87
213.419	-15.04
213.805	-16.75
214.19	9.06
214.576	4.82
214.961	-4.38
215.346	-2.53
215.732	1.59
216.117	13.23
216.502	1.01
216.888	17.91
217.273	8.35
217.658	8.51
218.043	-8.71
218.428	11.58
218.813	11.59
219.198	-6.36
219.583	-7.07
219.968	-2.27
220.353	13.27
220.738	36.54
221.122	9.36
221.507	26.53
221.892	6.27
222.276	3.4
222.661	9.2
223.046	-1.53
223.43	9.77
223.815	-0.33
224.199	5.65
224.583	-4.26
224.968	2.62
225.352	9.83
225.736	2.66
226.121	1.28
226.505	-2.93
226.889	0.31
227.273	3.65
227.657	10.5
228.041	5.63
228.425	-0.66
228.809	-1.25
229.193	3.1
229.577	5.62
229.961	3.97
230.344	3
230.728	2.36
231.112	2.85
231.495	3.42
231.879	2.26
232.263	3.4
232.646	3.06
233.03	3.21
233.413	2.99
233.797	3.76
234.18	3.89
234.563	2.42
234.946	3.81
235.33	4.56
235.713	2.62
236.096	3.35
236.479	3.23
236.862	2.35
237.245	3.38
237.628	2.48
238.011	3.35
238.394	1.42
238.777	1.16
239.16	2.44
239.543	4.03
239.925	2.71
240.308	4.66
240.691	2.73
241.073	4.15
241.456	3.7
241.838	4.88
242.221	3.7
242.603	2.53
242.986	2.31
243.368	2.8
243.75	3.03
244.133	2.99
244.515	2.8
244.897	2.74
245.279	2.94
245.661	3.01
246.043	2.67
246.425	3.69
246.807	3.94
247.189	2.87
247.571	2.79
247.953	2.11
248.335	3.2
248.717	3.18
249.098	2.69
249.48	2.77
249.862	2.91
250.243	3.04
250.625	2.61
251.006	2.59
251.388	2.93
251.769	3.05
252.151	4.33
252.532	3.57
252.913	2.96
253.295	3.3
253.676	2.68
254.057	2.89
254.438	3.11
254.819	2.35
255.2	2.84
255.581	2.09
255.962	3.36
256.343	1.59
256.724	4.49
257.105	2.4
257.486	2.87
257.867	4.32
258.247	1.13
258.628	2.83
259.009	3.38
259.389	2.98
259.77	2.05
260.15	2.49
260.531	2.81
260.911	2.36
261.292	2.52
261.672	2.68
262.052	2.67
262.432	2.61
262.813	2.56
263.193	2.41
263.573	2.24
263.953	2.64
264.333	2.35
264.713	2.58
265.093	2.86
265.473	3.39
265.853	2.69
266.233	2.67
266.612	3.23
266.992	3.72
267.372	3.24
267.752	3.59
268.131	2.62
268.511	2.24
268.89	2.88
269.27	2.82
269.649	2.78
270.029	3.24
270.408	2.19
270.787	2.37
271.167	1.57
271.546	2.28
271.925	2.5
272.304	2.67
272.683	2.3
273.062	2.09
273.441	2.49
273.82	2.51
274.199	2.49
274.578	2.3
274.957	2.91
275.336	2.56
275.715	2.5
276.093	2.93
276.472	2.62
276.851	2.56
277.229	2.22
277.608	2.55
277.986	2.91
278.365	2.04
278.743	2.83
279.122	2.48
279.5	2.7
279.878	2.28
280.257	2.46
280.635	3.14
281.013	1.85
281.391	2.97
281.769	2.47
282.147	2.39
282.525	2.38
282.903	2.58
283.281	2.57
283.659	2.23
284.037	2.22
284.415	2.53
284.792	2.61
285.17	2.34
285.548	2.64
285.925	2.6
286.303	2.16
286.68	2.58
287.058	2.61
287.435	2.48
287.813	2.54
288.19	2.55
288.567	2.31
288.945	2.37
289.322	2.06
289.699	2.44
290.076	2.3
290.453	2.68
290.83	2.53
291.207	2.31
291.584	2.26
291.961	2.46
292.338	2.13
292.715	2.82
293.092	2.2
293.469	2.39
293.845	2.62
294.222	2.75
294.599	2.51
294.975	1.88
295.352	2.25
295.728	2.54
296.105	2.45
296.481	2.19
296.858	2.69
297.234	2.58
297.61	2.39
297.986	2.61
298.363	2.7
298.739	2.44
299.115	2.43
299.491	2.51
299.867	2.41
300.243	2.65
300.619	2.54
300.995	2.48
301.371	2.12
301.746	2.23
302.122	2.53
302.498	2.5
302.874	2.85
303.249	2.5
303.625	2.71
304	2.44
304.376	2.41
304.751	2.54
305.127	2.59
305.502	2.84
305.878	2.65
306.253	2.84
306.628	2.56
307.003	2.67
307.378	2.42
307.754	2.51
308.129	2.37
308.504	2.7
308.879	1.97
309.254	3.1
309.629	3.02
310.003	2.59
310.378	2.69
310.753	2.49
311.128	2.33
311.502	2.32
311.877	2.71
312.252	2.99
312.626	2.5
313.001	2.52
313.375	2.25
313.75	2.31
314.124	2.51
314.498	2.6
314.873	2.69
315.247	3.04
315.621	2.9
315.995	2.79
316.369	2.49
316.743	2.78
317.117	2.35
317.491	3.21
317.865	2.83
318.239	3.23
318.613	2.81
318.987	2.64
319.361	2.82
319.734	2.25
320.108	2.95
320.482	2.66
320.855	2.46
321.229	2.19
321.602	2.47
321.976	2.88
322.349	2.77
322.723	3.11
323.096	3.18
323.469	3.15
323.843	2.71
324.216	3.05
324.589	3.02
324.962	2.65
325.335	2.45
325.708	2.13
326.081	2.75
326.454	2.82
326.827	2.62
327.2	2.4
327.573	2.36
327.945	2.91
328.318	3.13
328.691	2.68
329.063	2.8
329.436	2.45
329.809	2.65
330.181	3.14
330.553	2.46
330.926	2.42
331.298	3.27
331.671	2.56
332.043	3.46
332.415	3.05
332.787	2.98
333.159	2.51
333.532	3.29
333.904	2.86
334.276	2.85
334.648	3.25
335.02	2.37
335.391	2.99
335.763	2.63
336.135	2.78
336.507	2.58
336.879	2.93
337.25	2.26
337.622	2.93
337.993	2.97
338.365	2.56
338.736	2.97
339.108	3.08
339.479	3.04
339.851	2.66
340.222	2.98
340.593	2.43
340.964	3.22
341.336	2.98
341.707	2.37
342.078	2.82
342.449	2.9
342.82	2.07
343.191	2.68
343.562	2.62
343.933	2.84
344.303	2.75
344.674	2.93
345.045	3.02
345.416	2.45
345.786	3.07
346.157	2.85
346.527	2.85
346.898	3.05
347.268	2.72
347.639	2.67
348.009	3
348.38	2.85
348.75	2.72
349.12	3.14
349.49	2.35
349.861	2.62
350.231	2.83
350.601	3.27
350.971	2.95
351.341	2.25
351.711	3.08
352.081	2.61
352.45	3.04
352.82	2.61
353.19	2.85
353.56	2.49
353.929	2.73
354.299	3.13
354.669	3.09
355.038	2.93
355.408	2.33
355.777	3.01
356.147	2.56
356.516	2.78
356.885	2.66
357.254	2.9
357.624	2.99
357.993	2.51
358.362	3.12
358.731	2.37
359.1	2.7
359.469	2.69
359.838	2.9
360.207	2.46
360.576	2.57
360.945	2.91
361.314	3.09
361.682	2.64
362.051	2.55
362.42	2.69
362.788	2.41
363.157	2.68
363.525	2.48
363.894	2.77
364.262	2.82
364.631	2.85
364.999	2.97
365.367	2.95
365.735	2.81
366.104	2.83
366.472	2.91
366.84	2.63
367.208	2.58
367.576	3.06
367.944	3
368.312	3.06
368.68	2.69
369.048	2.76
369.416	2.52
369.783	2.78
370.151	3.07
370.519	3.2
370.886	2.72
371.254	3.08
371.621	2.93
371.989	2.87
372.356	3.3
372.724	3
373.091	2.8
373.458	2.7
373.826	3.2
374.193	2.75
374.56	3.18
374.927	3.04
375.294	2.8
375.661	2.84
376.028	3.14
376.395	2.89
376.762	3.21
377.129	3.23
377.496	2.93
377.863	3.28
378.229	2.74
378.596	2.79
378.963	3.13
379.329	2.92
379.696	3.03
380.062	2.61
380.429	2.73
380.795	3.13
381.161	2.62
381.528	3.09
381.894	2.79
382.26	2.65
382.626	3.01
382.993	3.02
383.359	3.1
383.725	2.95
384.091	2.91
384.457	2.89
384.823	3.21
385.188	2.97
385.554	2.76
385.92	2.89
386.286	3.07
386.651	3.04
387.017	3.28
387.383	2.97
387.748	2.93
388.114	2.79
388.479	2.9
388.845	2.75
389.21	2.89
389.575	3.2
389.94	2.88
390.306	3.14
390.671	3.14
391.036	2.9
391.401	3.38
391.766	3.03
392.131	3.14
392.496	3.24
392.861	3.16
393.226	3.11
393.591	3.06
393.956	2.96
394.32	2.95
394.685	3.09
395.05	3.24
395.414	3.16
395.779	2.87
396.143	3.13
396.508	2.88
396.872	3
397.236	3.1
397.601	2.89
397.965	2.93
398.329	3.23
398.694	2.99
399.058	2.93
399.422	3.18
399.786	3.04
400.15	2.93
400.514	3.17
400.878	3.04
401.242	3.07
401.605	3.08
401.969	2.95
402.333	2.76
402.697	3.05
403.06	3.02
403.424	3.12
403.787	3.34
404.151	3.01
404.514	2.63
404.878	3.07
405.241	3.01
405.604	2.87
405.968	2.97
406.331	2.9
406.694	3.12
407.057	2.91
407.42	3.19
407.783	2.94
408.146	3.16
408.509	2.92
408.872	3.02
409.235	2.96
409.598	2.85
409.961	3.06
410.323	3.11
410.686	3.24
411.049	3.21
411.411	3.05
411.774	3.26
412.136	2.91
412.499	3.15
412.861	2.89
413.223	2.93
413.586	3.11
413.948	3.1
414.31	3
414.672	2.98
415.035	2.95
415.397	2.78
415.759	3.29
416.121	3
416.483	3.26
416.845	3.11
417.206	3.03
417.568	3.21
417.93	3.18
418.292	3.1
418.653	3.01
419.015	2.86
419.377	3.08
419.738	2.94
420.1	2.94
420.461	3.06
420.822	3.05
421.184	3.09
421.545	3.1
421.906	2.97
422.267	3.1
422.629	2.93
422.99	2.94
423.351	2.98
423.712	2.98
424.073	2.96
424.434	2.99
424.795	3.08
425.155	3
425.516	2.96
425.877	2.87
426.238	3.01
426.598	3
426.959	3.01
427.32	3.11
427.68	3.13
428.041	2.96
428.401	2.94
428.761	3.07
429.122	3.04
429.482	3.04
429.842	3.22
430.202	3.24
430.563	3.05
430.923	3.24
431.283	3.04
431.643	3.24
432.003	3.17
432.363	3.3
432.722	3.16
433.082	3.11
433.442	3.22
433.802	3.2
434.161	3.36
434.521	3.06
434.881	3.1
435.24	3.02
435.6	3.08
435.959	3.06
436.319	3.05
436.678	3.12
437.037	3.16
437.396	3.07
437.756	3.21
438.115	3.31
438.474	3.11
438.833	3.12
439.192	3.13
439.551	3.16
439.91	3.22
440.269	3.22
440.628	3.01
440.987	3.2
441.345	3.05
441.704	3.1
442.063	3.07
442.421	3.23
442.78	3.07
443.138	3.04
443.497	3.09
443.855	3.03
444.214	3.2
444.572	3.18
444.93	3.24
445.288	3.15
445.647	3.31
446.005	3.14
446.363	3.06
446.721	3.17
447.079	3.11
447.437	3.11
447.795	3.12
448.153	3.23
448.51	3.08
448.868	3.06
449.226	3.04
449.584	3.14
449.941	3.19
450.299	3.09
450.656	3.1
451.014	3.14
451.371	3.05
451.729	3.29
452.086	3.15
452.443	3.32
452.801	3.19
453.158	3.25
453.515	3.03
453.872	3.28
454.229	3.2
454.586	3.11
454.943	3.12
455.3	3.24
455.657	3.16
456.014	3.08
456.371	3.38
456.727	3.15
457.084	3.13
457.441	3.3
457.797	3.31
458.154	3.27
458.51	3.37
458.867	3
459.223	3.23
459.58	3.15
459.936	3.38
460.292	3.15
460.648	3.15
461.005	3.05
461.361	3.08
461.717	3.07
462.073	3.13
462.429	3.07
462.785	3.07
463.141	3.19
463.496	3.29
463.852	3.15
464.208	3.06
464.564	3.25
464.919	3.07
465.275	2.94
465.631	2.98
465.986	3.3
466.342	3.4
466.697	3.15
467.052	3.07
467.408	3.28
467.763	3.13
468.118	3.29
468.473	3.13
468.829	3.11
469.184	3.43
469.539	3.26
469.894	3.01
470.249	3.09
470.603	3.12
470.958	3.23
471.313	3.12
471.668	3.31
472.023	3.41
472.377	3.22
472.732	3.17
473.086	3.35
473.441	3.16
473.795	3.2
474.15	3.33
474.504	3.05
474.859	3.22
475.213	3.17
475.567	3.27
475.921	3.16
476.275	3.23
476.63	3.14
476.984	3.42
477.338	3.08
477.692	3.24
478.045	3.15
478.399	3.07
478.753	3.07
479.107	3.14
479.461	3.19
479.814	3.06
480.168	3.31
480.521	3.31
480.875	3.1
481.228	3.12
481.582	3.45
481.935	3.25
482.289	3.24
482.642	3.18
482.995	3.24
483.348	3.22
483.701	3.09
484.055	3.23
484.408	3.2
484.761	3.14
485.114	3.07
485.466	3.01
485.819	2.93
486.172	2.95
486.525	3
486.878	3.07
487.23	3.1
487.583	3.11
487.936	3.1
488.288	3.15
488.641	3.07
488.993	2.98
489.345	3.09
489.698	3.03
490.05	3.01
490.402	3.03
490.754	3.07
491.107	3.06
491.459	3.09
491.811	3.16
492.163	3.2
492.515	3.21
492.866	3.18
493.218	3.07
493.57	3.04
493.922	3.05
494.274	3.13
494.625	3.15
494.977	3.25
495.328	3.17
495.68	3.32
496.031	3.16
496.383	3.16
496.734	3.22
497.086	3.26
497.437	3.22
497.788	3.32
498.139	3.18
498.49	3.22
498.842	3.28
499.193	3.21
499.544	3.1
499.894	3.32
500.245	3.14
500.596	3.32
500.947	3.26
501.298	3.38
501.648	3.21
501.999	3.2
502.35	3.27
502.7	3.28
503.051	3.26
503.401	3.2
503.752	3.24
504.102	3.17
504.452	3.23
504.803	3.37
505.153	3.38
505.503	3.28
505.853	3.3
506.203	3.31
506.553	3.27
506.903	3.26
507.253	3.32
507.603	3.12
507.953	3.33
508.303	3.23
508.652	3.22
509.002	3.27
509.352	3.35
509.701	3.34
510.051	3.23
510.4	3.11
510.75	3.2
511.099	3.23
511.449	3.15
511.798	3.22
512.147	3.35
512.496	3.21
512.846	3.26
513.195	3.31
513.544	3.32
513.893	3.16
514.242	3.2
514.591	3.22
514.939	3.18
515.288	3.33
515.637	3.18
515.986	3.24
516.334	3.38
516.683	3.41
517.032	3.42
517.38	3.33
517.729	3.31
518.077	3.28
518.426	3.25
518.774	3.26
519.122	3.24
519.47	3.14
519.819	3.19
520.167	3.16
520.515	3.18
520.863	3.13
521.211	3.23
521.559	3.21
521.907	3.19
522.255	3.28
522.602	3.26
522.95	3.3
523.298	3.23
523.645	3.49
523.993	3.29
524.341	3.34
524.688	3.21
525.036	3.16
525.383	3.22
525.73	3.33
526.078	3.31
526.425	3.32
526.772	3.25
527.119	3.25
527.466	3.24
527.814	3.21
528.161	3.21
528.508	3.23
528.854	3.17
529.201	3.14
529.548	3.23
529.895	3.07
530.242	3.07
530.588	3.06
530.935	3.08
531.282	3.11
531.628	3.21
531.975	3.16
532.321	3.2
532.667	3.2
533.014	3.17
533.36	3.26
533.706	3.28
534.052	3.19
534.399	3.2
534.745	3.2
535.091	3.14
535.437	3.16
535.783	3.18
536.129	3.24
536.474	3.23
536.82	3.29
537.166	3.19
537.512	3.31
537.857	3.24
538.203	3.25
538.549	3.25
538.894	3.27
539.239	3.35
539.585	3.32
539.93	3.37
540.276	3.27
540.621	3.3
540.966	3.43
541.311	3.29
541.656	3.38
542.001	3.37
542.346	3.23
542.691	3.25
543.036	3.1
543.381	3.09
543.726	3.15
544.071	3.26
544.415	3.2
544.76	3.22
545.105	3.21
545.449	3.2
545.794	3.27
546.138	3.26
546.483	3.29
546.827	3.29
547.171	3.26
547.516	3.26
547.86	3.36
548.204	3.32
548.548	3.26
548.892	3.21
549.236	3.26
549.58	3.42
549.924	3.38
550.268	3.36
550.612	3.25
550.956	3.39
551.3	3.34
551.643	3.32
551.987	3.44
552.33	3.44
552.674	3.53
553.017	3.44
553.361	3.18
553.704	3.32
554.048	3.39
554.391	3.2
554.734	3.39
555.077	3.33
555.42	3.41
555.764	3.3
556.107	3.47
556.45	3.29
556.793	3.34
557.135	3.42
557.478	3.27
557.821	3.31
558.164	3.39
558.507	3.33
558.849	3.32
559.192	3.3
559.534	3.49
559.877	3.44
560.219	3.26
560.562	3.57
560.904	3.28
561.246	3.47
561.589	3.35
561.931	3.55
562.273	3.29
562.615	3.52
562.957	3.39
563.299	3.28
563.641	3.27
563.983	3.63
564.325	3.49
564.667	3.39
565.008	3.43
565.35	3.65
565.692	3.53
566.033	3.33
566.375	3.44
566.716	3.45
567.058	3.39
567.399	3.21
567.741	3.23
568.082	3.45
568.423	3.25
568.764	3.4
569.105	3.44
569.447	3.51
569.788	3.22
570.129	3.3
570.47	3.3
570.811	3.25
571.151	3.47
571.492	3.25
571.833	3.43
572.174	3.5
572.514	3.35
572.855	3.21
573.195	3.47
573.536	3.42
573.876	3.41
574.217	3.45
574.557	3.41
574.898	3.5
575.238	3.58
575.578	3.47
575.918	3.52
576.258	3.51
576.598	3.48
576.938	3.4
577.278	3.37
577.618	3.28
577.958	3.26
578.298	3.6
578.638	3.38
578.977	3.56
579.317	3.31
579.657	3.32
579.996	3.39
580.336	3.52
580.675	3.64
581.014	3.38
581.354	3.31
581.693	3.36
582.032	3.18
582.372	3.39
582.711	3.23
583.05	3.5
583.389	3.62
583.728	3.59
584.067	3.52
584.406	3.31
584.745	3.47
585.083	3.51
585.422	3.64
585.761	3.45
586.1	3.47
586.438	3.41
586.777	3.64
587.115	3.18
587.454	3.42
587.792	3.52
588.13	3.75
588.469	3.31
588.807	3.42
589.145	3.75
589.483	3.59
589.821	3.33
590.159	3.65
590.497	3.46
590.835	3.6
591.173	3.58
591.511	3.62
591.849	3.38
592.187	3.29
592.524	3.38
592.862	3.46
593.2	3.35
593.537	3.36
593.875	3.52
594.212	3.61
594.55	3.51
594.887	3.52
595.224	3.62
595.561	3.53
595.899	3.22
596.236	3.59
596.573	3.42
596.91	3.39
597.247	3.61
597.584	3.34
597.921	3.37
598.258	3.35
598.594	3.34
598.931	3.3
599.268	3.37
599.604	3.47
599.941	3.54
600.277	3.37
600.614	3.55
600.95	3.4
601.287	3.58
601.623	3.54
601.959	3.59
602.296	3.42
602.632	3.46
602.968	3.32
603.304	3.64
603.64	3.56
603.976	3.75
604.312	3.62
604.648	3.44
604.984	3.67
605.319	3.31
605.655	3.37
605.991	3.49
606.326	3.55
606.662	3.62
606.998	3.42
607.333	3.5
607.668	3.53
608.004	3.27
608.339	3.6
608.674	3.75
609.01	3.37
609.345	3.41
609.68	3.41
610.015	3.68
610.35	3.61
610.685	3.44
611.02	3.27
611.355	3.58
611.689	3.47
612.024	3.45
612.359	3.52
612.694	3.54
613.028	3.46
613.363	3.38
613.697	3.51
614.032	3.39
614.366	3.37
614.7	3.45
615.035	3.54
615.369	3.64
615.703	3.56
616.037	3.92
616.371	3.56
616.705	3.66
617.039	3.78
617.373	3.55
617.707	3.49
618.041	3.87
618.375	3.8
618.709	3.37
619.042	3.39
619.376	3.68
619.71	3.3
620.043	3.59
620.377	3.49
620.71	3.73
621.043	3.34
621.377	2.9
621.71	3.39
622.043	3.39
622.376	3.61
622.709	3.81
623.043	3.79
623.376	3.64
623.709	3.88
624.041	3.39
624.374	3.63
624.707	3.38
625.04	3.98
625.373	3.87
625.705	3.64
626.038	3.53
626.37	3.6
626.703	3.77
627.035	3.51
627.368	3.88
627.7	3.32
628.032	3.61
628.365	3.77
628.697	3.22
629.029	3.61
629.361	3.42
629.693	3.81
630.025	3.59
630.357	3.25
630.689	3.29
631.021	3.49
631.353	3.3
631.684	3.51
632.016	3.74
632.348	3.54
632.679	3.72
633.011	3.38
633.342	3.93
633.674	3.9
634.005	3.55
634.336	3.76
634.668	3.46
634.999	3.93
635.33	3.42
635.661	3.57
635.992	3.88
636.323	3.44
636.654	3.74
636.985	3.49
637.316	3.5
637.647	3.7
637.977	3.67
638.308	3.52
638.639	3.32
638.969	3.26
639.3	3.67
639.63	3.38
639.961	3.75
640.291	3.96
640.622	3.79
640.952	4.06
641.282	3.54
641.612	3.79
641.943	3.67
642.273	3.5
642.603	4.01
642.933	3.42
643.263	3.81
643.592	3.63
643.922	3.69
644.252	3.11
644.582	3.38
644.911	3.83
645.241	3.49
645.571	4.02
645.9	3.5
646.23	3.67
646.559	3.75
646.888	4.05
647.218	3.72
647.547	3.49
647.876	3.44
648.205	3.15
648.534	3.56
648.863	3.87
649.192	3.21
649.521	3.79
649.85	3.89
650.179	3.71
650.508	3.73
650.837	3.04
651.165	4.07
651.494	3.7
651.822	3.33
652.151	4.17
652.479	3.51
652.808	3.4
653.136	3.67
653.465	4.13
653.793	3.61
654.121	3.74
654.449	4.11
654.777	3.68
655.105	3.86
655.433	3.73
655.761	3.85
656.089	3.39
656.417	3.63
656.745	4
657.073	4.41
657.4	4.05
657.728	3.81
658.056	4.34
658.383	3.63
658.711	3.76
659.038	3.86
659.365	3.69
659.693	3.66
660.02	3.7
660.347	4.03
660.674	3.68
661.001	3.38
661.329	3.77
661.656	3.64
661.982	3.83
662.309	4.12
662.636	3.59
662.963	3.54
663.29	3.55
663.616	3.3
663.943	3.06
664.27	3.98
664.596	4.1
664.923	3.54
665.249	4.02
665.576	3.7
665.902	3.02
666.228	3.94
666.554	3.7
666.881	3.42
667.207	4.19
667.533	3.36
667.859	3.85
668.185	4.36
668.511	3.81
668.837	4.28
669.162	4
669.488	3.85
669.814	3.58
670.139	4.06
670.465	3.85
670.791	4.29
671.116	3.98
671.442	4.45
671.767	3.76
672.092	3.71
672.418	3.91
672.743	3.52
673.068	3.31
673.393	3.5
673.718	3.95
674.043	3.99
674.368	4.14
674.693	3.81
675.018	4.04
675.343	3.28
675.667	3.53
675.992	3.98
676.317	3.45
676.641	3.94
676.966	3.66
677.29	3.11
677.615	4.36
677.939	3.15
678.264	3.69
678.588	4.1
678.912	3.23
679.236	3.69
679.56	4.15
679.885	3.99
680.209	3.75
680.532	4.49
680.856	4.82
681.18	3.92
681.504	3.47
681.828	3.71
682.152	3.66
682.475	3.9
682.799	3.82
683.122	3.95
683.446	3.67
683.769	3.6
684.093	4.34
684.416	4.02
684.739	4.2
685.062	4.08
685.386	3.84
685.709	3.78
686.032	3.6
686.355	3.74
686.678	3.9
687.001	4.47
687.324	3.26
687.646	4.28
687.969	3.8
688.292	4.43
688.614	4.38
688.937	4.39
689.26	3.87
689.582	3.89
689.904	4.02
690.227	4
690.549	4.75
690.871	4.04
691.194	3.83
691.516	3.13
691.838	3.6
692.16	4.02
692.482	4.77
692.804	3.53
