Data from 0362_crown_Reflection__0__21.txt Node

Date: Mon Dec 11 17:51:30 CST 2023
User: ToomeyLab
Spectrometer: FLMS14357
Trigger mode: 0
Integration Time (sec): 1.000000E-2
Scans to average: 100
Electric dark correction enabled: true
Nonlinearity correction enabled: false
Boxcar width: 0
XAxis mode: Wavelengths
Number of Pixels in Spectrum: 2048
>>>>>Begin Spectral Data<<<<<
189.047	-240.34
189.435	-240.34
189.823	-240.34
190.211	116.46
190.599	150.33
190.987	11.86
191.375	18.26
191.763	138.53
192.151	-6581.25
192.538	108.56
192.926	-347.57
193.314	162.45
193.702	-171.06
194.089	-25.56
194.477	100.82
194.864	68.5
195.252	-638.58
195.639	16.13
196.027	1571.18
196.414	231.4
196.801	189.8
197.189	48.71
197.576	113
197.963	44.2
198.351	-10.78
198.738	16.17
199.125	-25.51
199.512	20.98
199.899	6.86
200.286	10.33
200.673	-68.15
201.06	15.02
201.447	-23.72
201.833	14.42
202.22	29.59
202.607	-34.04
202.994	-40.4
203.38	24.81
203.767	33.98
204.154	25.37
204.54	14.4
204.927	-32.96
205.313	13.93
205.699	-18.05
206.086	11.16
206.472	4.29
206.858	21.25
207.245	17.3
207.631	38.45
208.017	10.6
208.403	2.21
208.789	0.76
209.175	25.39
209.561	25.36
209.947	11.37
210.333	33.64
210.719	5.88
211.105	8.07
211.491	-3.46
211.876	5.25
212.262	33.2
212.648	9.79
213.034	-17.11
213.419	-3.61
213.805	-22.4
214.19	19.06
214.576	-3.49
214.961	0.6
215.346	-20.03
215.732	4.24
216.117	14.68
216.502	8.06
216.888	10.13
217.273	17.11
217.658	0.91
218.043	-7.39
218.428	5.83
218.813	21.66
219.198	1.09
219.583	13.66
219.968	-14.1
220.353	-4.66
220.738	20.97
221.122	12.46
221.507	16.28
221.892	8.5
222.276	0.49
222.661	12.27
223.046	5.38
223.43	17.76
223.815	-3.94
224.199	4.86
224.583	10.81
224.968	-5.87
225.352	7.41
225.736	4.83
226.121	9.9
226.505	1.42
226.889	7.78
227.273	5.85
227.657	9.06
228.041	4.87
228.425	3.74
228.809	1.11
229.193	7.26
229.577	6.28
229.961	3.34
230.344	4.76
230.728	4.08
231.112	4.03
231.495	4.56
231.879	4.25
232.263	3.73
232.646	3.14
233.03	3.43
233.413	4.5
233.797	8.04
234.18	4.13
234.563	5.48
234.946	6.07
235.33	6.5
235.713	3.84
236.096	5.59
236.479	6
236.862	3.09
237.245	4.76
237.628	5.36
238.011	4.9
238.394	4.26
238.777	4.54
239.16	4.42
239.543	4.78
239.925	4.17
240.308	4.59
240.691	3.76
241.073	4.9
241.456	5.54
241.838	6.22
242.221	4.44
242.603	5.17
242.986	3.47
243.368	4
243.75	4.24
244.133	4.5
244.515	4.03
244.897	4.05
245.279	3.62
245.661	3.72
246.043	4.01
246.425	5.12
246.807	3.91
247.189	4.49
247.571	3.67
247.953	3.84
248.335	4.2
248.717	4.36
249.098	3.92
249.48	4.02
249.862	4.12
250.243	4.27
250.625	3.96
251.006	3.7
251.388	4.39
251.769	4.09
252.151	5.06
252.532	4.16
252.913	3.91
253.295	4.24
253.676	4.35
254.057	3.89
254.438	4.21
254.819	3.7
255.2	3.62
255.581	3.78
255.962	4.44
256.343	4.35
256.724	4.06
257.105	4.8
257.486	3.5
257.867	5.08
258.247	4.06
258.628	4.35
259.009	5
259.389	4.29
259.77	3.75
260.15	4.04
260.531	3.53
260.911	3.56
261.292	3.78
261.672	3.62
262.052	3.74
262.432	3.81
262.813	4.17
263.193	3.97
263.573	4.25
263.953	3.67
264.333	3.33
264.713	4.09
265.093	3.28
265.473	4.18
265.853	4.63
266.233	3.88
266.612	2.98
266.992	4.51
267.372	5.47
267.752	4.71
268.131	3.75
268.511	3.62
268.89	3.88
269.27	4.02
269.649	3.36
270.029	4.15
270.408	3.32
270.787	3.18
271.167	3.16
271.546	3.64
271.925	3.61
272.304	3.49
272.683	3.65
273.062	3.63
273.441	3.59
273.82	3.51
274.199	4.14
274.578	3.6
274.957	3.71
275.336	3.39
275.715	4.18
276.093	4.41
276.472	3.64
276.851	3.97
277.229	4.06
277.608	3.96
277.986	4.77
278.365	3.44
278.743	3.75
279.122	3.76
279.5	4.25
279.878	3.76
280.257	3.58
280.635	3.86
281.013	3.44
281.391	3.78
281.769	3.51
282.147	3.46
282.525	3.11
282.903	3.63
283.281	3.9
283.659	3.47
284.037	3.42
284.415	3.62
284.792	3.7
285.17	3.93
285.548	3.34
285.925	3.24
286.303	3.91
286.68	3.67
287.058	3.82
287.435	3.78
287.813	3.69
288.19	3.75
288.567	3.21
288.945	3.4
289.322	3.56
289.699	3.11
290.076	3.41
290.453	3.51
290.83	3.65
291.207	3.55
291.584	3.44
291.961	3.54
292.338	3.68
292.715	3.83
293.092	3.49
293.469	3.87
293.845	3.93
294.222	3.75
294.599	3.78
294.975	3.6
295.352	3.32
295.728	3.88
296.105	3.83
296.481	3.25
296.858	3.17
297.234	4.27
297.61	4.06
297.986	3.97
298.363	3.69
298.739	3.66
299.115	3.73
299.491	3.96
299.867	3.61
300.243	3.52
300.619	3.61
300.995	3.47
301.371	3.59
301.746	3.91
302.122	3.67
302.498	3.95
302.874	3.86
303.249	3.78
303.625	3.77
304	3.96
304.376	3.69
304.751	3.62
305.127	3.87
305.502	4.07
305.878	3.62
306.253	4.01
306.628	3.92
307.003	4.33
307.378	3.13
307.754	4
308.129	3.92
308.504	3.58
308.879	3.41
309.254	4.04
309.629	4.18
310.003	4.4
310.378	3.61
310.753	3.75
311.128	3.98
311.502	3.39
311.877	3.99
312.252	3.76
312.626	3.86
313.001	3.88
313.375	3.76
313.75	3.62
314.124	3.6
314.498	3.61
314.873	3.71
315.247	3.7
315.621	4.62
315.995	4.12
316.369	3.76
316.743	4.17
317.117	3.85
317.491	4.28
317.865	3.67
318.239	4.2
318.613	4.39
318.987	3.7
319.361	4.41
319.734	3.52
320.108	4.02
320.482	4.2
320.855	3.66
321.229	3.69
321.602	4.25
321.976	4.39
322.349	3.56
322.723	3.93
323.096	5.02
323.469	4.12
323.843	4.21
324.216	5.11
324.589	4.4
324.962	3.9
325.335	3.77
325.708	4.81
326.081	4.41
326.454	3.93
326.827	3.94
327.2	3.86
327.573	3.74
327.945	4.13
328.318	3.77
328.691	4.03
329.063	3.96
329.436	3.65
329.809	3.52
330.181	4.18
330.553	4.62
330.926	3.8
331.298	4.19
331.671	3.98
332.043	4.62
332.415	3.94
332.787	4.23
333.159	3.98
333.532	4.07
333.904	4.16
334.276	4.03
334.648	4.39
335.02	3.94
335.391	4.26
335.763	4.21
336.135	4.44
336.507	3.87
336.879	4.18
337.25	4.2
337.622	3.93
337.993	3.84
338.365	4.05
338.736	4.19
339.108	4.53
339.479	4.16
339.851	3.9
340.222	4.07
340.593	4.05
340.964	4.24
341.336	3.85
341.707	4.12
342.078	4.42
342.449	3.81
342.82	4.14
343.191	4.25
343.562	4.09
343.933	4.09
344.303	3.92
344.674	4.06
345.045	4.09
345.416	3.88
345.786	4.26
346.157	3.75
346.527	4.22
346.898	4.07
347.268	3.8
347.639	4.06
348.009	4.43
348.38	3.61
348.75	3.84
349.12	3.92
349.49	4.01
349.861	4.06
350.231	4.12
350.601	4.11
350.971	4.25
351.341	3.45
351.711	4.18
352.081	4.07
352.45	4.51
352.82	3.7
353.19	3.93
353.56	3.58
353.929	3.95
354.299	4.12
354.669	4.29
355.038	4.47
355.408	3.8
355.777	4.09
356.147	4.07
356.516	3.99
356.885	4.1
357.254	4.04
357.624	4.12
357.993	3.85
358.362	3.93
358.731	3.98
359.1	3.99
359.469	4.15
359.838	4.26
360.207	3.85
360.576	3.92
360.945	4.46
361.314	4.46
361.682	3.99
362.051	4.25
362.42	3.92
362.788	3.94
363.157	4.11
363.525	3.61
363.894	4.05
364.262	3.97
364.631	4.16
364.999	3.85
365.367	4.28
365.735	4.29
366.104	3.86
366.472	4.12
366.84	3.54
367.208	3.91
367.576	4.28
367.944	4.12
368.312	3.84
368.68	4.17
369.048	3.87
369.416	3.91
369.783	4.17
370.151	4.43
370.519	4.6
370.886	3.93
371.254	4.6
371.621	4.33
371.989	4.27
372.356	4.18
372.724	4.42
373.091	4.35
373.458	4.02
373.826	4.16
374.193	3.97
374.56	4.51
374.927	4.39
375.294	4.14
375.661	4.15
376.028	4.46
376.395	4.17
376.762	4.33
377.129	4.57
377.496	4.27
377.863	4.06
378.229	4.38
378.596	4.06
378.963	4.13
379.329	4.35
379.696	4.2
380.062	4.01
380.429	3.87
380.795	4.58
381.161	4.1
381.528	4.15
381.894	4.21
382.26	4.23
382.626	4.18
382.993	4.28
383.359	4.06
383.725	3.92
384.091	4.22
384.457	4.13
384.823	4.74
385.188	4.09
385.554	4.03
385.92	4.17
386.286	4.32
386.651	4.09
387.017	4.47
387.383	4.15
387.748	4.41
388.114	4.37
388.479	4.21
388.845	4.08
389.21	4.14
389.575	4.22
389.94	4.41
390.306	4.46
390.671	4.41
391.036	4.42
391.401	4.47
391.766	4.2
392.131	4.12
392.496	4.57
392.861	4.43
393.226	4.41
393.591	4.2
393.956	4.08
394.32	4.21
394.685	4.11
395.05	4.32
395.414	4.27
395.779	4.06
396.143	4.15
396.508	3.98
396.872	4.16
397.236	3.95
397.601	3.98
397.965	4.31
398.329	4.4
398.694	4.22
399.058	4.14
399.422	4.4
399.786	4.05
400.15	4.3
400.514	4.78
400.878	4.4
401.242	4.31
401.605	4.33
401.969	4.06
402.333	4.15
402.697	4.29
403.06	4.29
403.424	4.35
403.787	4.57
404.151	4.1
404.514	4.26
404.878	4.54
405.241	4.13
405.604	4.23
405.968	4.11
406.331	4.15
406.694	4.24
407.057	4.16
407.42	4.5
407.783	4.32
408.146	4.31
408.509	4.17
408.872	4.21
409.235	4.21
409.598	4.62
409.961	4.31
410.323	4.44
410.686	4.57
411.049	4.37
411.411	4.4
411.774	4.47
412.136	4.29
412.499	4.55
412.861	4.14
413.223	4.21
413.586	4.7
413.948	4.21
414.31	4.23
414.672	4.09
415.035	4.25
415.397	4.13
415.759	4.37
416.121	4.25
416.483	4.48
416.845	4.48
417.206	4.36
417.568	4.35
417.93	4.46
418.292	4.21
418.653	4.27
419.015	4.22
419.377	4.31
419.738	4.23
420.1	4.41
420.461	4.28
420.822	4.26
421.184	4.39
421.545	4.12
421.906	4.23
422.267	4.31
422.629	4.23
422.99	4.27
423.351	4.16
423.712	4.15
424.073	4.24
424.434	4.24
424.795	4.3
425.155	4.34
425.516	4.24
425.877	4.28
426.238	4.28
426.598	4.29
426.959	4.26
427.32	4.37
427.68	4.3
428.041	4.25
428.401	4.31
428.761	4.36
429.122	4.43
429.482	4.46
429.842	4.43
430.202	4.47
430.563	4.41
430.923	4.58
431.283	4.38
431.643	4.47
432.003	4.46
432.363	4.44
432.722	4.39
433.082	4.44
433.442	4.46
433.802	4.41
434.161	4.62
434.521	4.34
434.881	4.49
435.24	4.25
435.6	4.29
435.959	4.46
436.319	4.29
436.678	4.45
437.037	4.38
437.396	4.5
437.756	4.58
438.115	4.71
438.474	4.59
438.833	4.62
439.192	4.49
439.551	4.57
439.91	4.39
440.269	4.62
440.628	4.36
440.987	4.51
441.345	4.33
441.704	4.45
442.063	4.35
442.421	4.46
442.78	4.36
443.138	4.46
443.497	4.31
443.855	4.32
444.214	4.47
444.572	4.26
444.93	4.58
445.288	4.67
445.647	4.57
446.005	4.31
446.363	4.41
446.721	4.4
447.079	4.32
447.437	4.39
447.795	4.4
448.153	4.4
448.51	4.3
448.868	4.25
449.226	4.31
449.584	4.43
449.941	4.47
450.299	4.42
450.656	4.41
451.014	4.55
451.371	4.44
451.729	4.59
452.086	4.52
452.443	4.71
452.801	4.55
453.158	4.77
453.515	4.52
453.872	4.52
454.229	4.4
454.586	4.49
454.943	4.57
455.3	4.51
455.657	4.58
456.014	4.6
456.371	4.59
456.727	4.53
457.084	4.75
457.441	4.74
457.797	4.68
458.154	4.52
458.51	4.66
458.867	4.29
459.223	4.55
459.58	4.49
459.936	4.67
460.292	4.54
460.648	4.52
461.005	4.44
461.361	4.51
461.717	4.34
462.073	4.45
462.429	4.51
462.785	4.45
463.141	4.48
463.496	4.56
463.852	4.52
464.208	4.56
464.564	4.66
464.919	4.65
465.275	4.46
465.631	4.54
465.986	4.87
466.342	4.56
466.697	4.44
467.052	4.57
467.408	4.69
467.763	4.59
468.118	4.41
468.473	4.51
468.829	4.83
469.184	4.82
469.539	4.55
469.894	4.38
470.249	4.59
470.603	4.52
470.958	4.71
471.313	4.55
471.668	4.72
472.023	4.74
472.377	4.52
472.732	4.6
473.086	4.71
473.441	4.51
473.795	4.72
474.15	4.71
474.504	4.72
474.859	4.6
475.213	4.54
475.567	4.64
475.921	4.65
476.275	4.71
476.63	4.54
476.984	4.74
477.338	4.63
477.692	4.59
478.045	4.58
478.399	4.55
478.753	4.29
479.107	4.54
479.461	4.55
479.814	4.7
480.168	4.64
480.521	4.71
480.875	4.58
481.228	4.56
481.582	4.9
481.935	4.64
482.289	4.62
482.642	4.64
482.995	4.68
483.348	4.63
483.701	4.47
484.055	4.64
484.408	4.61
484.761	4.55
485.114	4.45
485.466	4.4
485.819	4.33
486.172	4.33
486.525	4.29
486.878	4.4
487.23	4.47
487.583	4.52
487.936	4.57
488.288	4.6
488.641	4.5
488.993	4.39
489.345	4.48
489.698	4.43
490.05	4.39
490.402	4.41
490.754	4.42
491.107	4.55
491.459	4.52
491.811	4.62
492.163	4.59
492.515	4.66
492.866	4.52
493.218	4.42
493.57	4.46
493.922	4.49
494.274	4.5
494.625	4.56
494.977	4.64
495.328	4.64
495.68	4.69
496.031	4.76
496.383	4.68
496.734	4.69
497.086	4.67
497.437	4.73
497.788	4.63
498.139	4.71
498.49	4.6
498.842	4.74
499.193	4.71
499.544	4.68
499.894	4.63
500.245	4.65
500.596	4.74
500.947	4.77
501.298	4.87
501.648	4.69
501.999	4.63
502.35	4.76
502.7	4.71
503.051	4.74
503.401	4.76
503.752	4.82
504.102	4.87
504.452	4.78
504.803	4.9
505.153	4.85
505.503	4.95
505.853	4.78
506.203	4.73
506.553	4.9
506.903	4.68
507.253	4.78
507.603	4.68
507.953	4.9
508.303	4.69
508.652	4.76
509.002	4.76
509.352	4.88
509.701	4.83
510.051	4.7
510.4	4.73
510.75	4.67
511.099	4.63
511.449	4.86
511.798	4.72
512.147	4.9
512.496	4.78
512.846	4.82
513.195	4.87
513.544	4.78
513.893	4.68
514.242	4.78
514.591	4.67
514.939	4.64
515.288	4.9
515.637	4.79
515.986	4.78
516.334	4.81
516.683	4.95
517.032	4.85
517.38	4.89
517.729	4.82
518.077	4.99
518.426	4.98
518.774	4.82
519.122	4.83
519.47	4.75
519.819	4.72
520.167	4.82
520.515	4.65
520.863	4.74
521.211	4.83
521.559	4.76
521.907	4.8
522.255	4.73
522.602	4.78
522.95	4.91
523.298	4.83
523.645	4.96
523.993	4.9
524.341	4.95
524.688	4.76
525.036	4.84
525.383	4.85
525.73	4.97
526.078	4.98
526.425	4.88
526.772	4.93
527.119	4.87
527.466	4.79
527.814	4.87
528.161	4.74
528.508	4.8
528.854	4.78
529.201	4.78
529.548	4.78
529.895	4.7
530.242	4.61
530.588	4.65
530.935	4.65
531.282	4.68
531.628	4.66
531.975	4.71
532.321	4.77
532.667	4.85
533.014	4.72
533.36	4.79
533.706	4.97
534.052	4.8
534.399	4.81
534.745	4.83
535.091	4.77
535.437	4.76
535.783	4.76
536.129	4.84
536.474	4.88
536.82	4.83
537.166	4.97
537.512	4.85
537.857	4.96
538.203	4.86
538.549	4.88
538.894	4.88
539.239	4.9
539.585	4.85
539.93	4.87
540.276	4.96
540.621	5.04
540.966	4.97
541.311	5.03
541.656	5.06
542.001	5.1
542.346	4.97
542.691	4.88
543.036	4.78
543.381	4.79
543.726	4.79
544.071	4.82
544.415	4.79
544.76	4.81
545.105	4.89
545.449	4.88
545.794	4.87
546.138	5.01
546.483	4.96
546.827	5.06
547.171	4.91
547.516	5.11
547.86	5.03
548.204	5.13
548.548	4.92
548.892	5.03
549.236	4.88
549.58	5.07
549.924	5.03
550.268	4.98
550.612	4.98
550.956	5.06
551.3	5.09
551.643	5.02
551.987	5.06
552.33	5.18
552.674	5.28
553.017	5.08
553.361	5.12
553.704	5.05
554.048	5.18
554.391	4.93
554.734	5.14
555.077	5.16
555.42	5.3
555.764	5.08
556.107	5.22
556.45	5.24
556.793	4.99
557.135	5.24
557.478	5.08
557.821	5.17
558.164	5.27
558.507	5.13
558.849	5.29
559.192	5.31
559.534	5.19
559.877	5.33
560.219	5.26
560.562	5.3
560.904	5.22
561.246	5.34
561.589	5.13
561.931	5.33
562.273	5.12
562.615	5.24
562.957	5.17
563.299	5.32
563.641	5.06
563.983	5.45
564.325	5.33
564.667	5.3
565.008	5.35
565.35	5.46
565.692	5.13
566.033	5.12
566.375	5.41
566.716	5.18
567.058	5.24
567.399	5.32
567.741	5.01
568.082	5.19
568.423	5.05
568.764	5.26
569.105	5.26
569.447	5.35
569.788	5.08
570.129	5.06
570.47	5.14
570.811	5.08
571.151	5.32
571.492	5.31
571.833	5.33
572.174	5.31
572.514	5.13
572.855	5.13
573.195	5.43
573.536	5.26
573.876	5.24
574.217	5.33
574.557	5.26
574.898	5.2
575.238	5.34
575.578	5.47
575.918	5.31
576.258	5.36
576.598	5.2
576.938	5.55
577.278	5.33
577.618	5.37
577.958	5.21
578.298	5.58
578.638	5.46
578.977	5.29
579.317	5.38
579.657	5.16
579.996	5.16
580.336	5.29
580.675	5.31
581.014	5.34
581.354	5.37
581.693	5.61
582.032	5.12
582.372	5.43
582.711	5.12
583.05	5.53
583.389	5.34
583.728	5.48
584.067	5.3
584.406	5.2
584.745	5.58
585.083	5.35
585.422	5.6
585.761	5.64
586.1	5.32
586.438	5.24
586.777	5.42
587.115	5.4
587.454	5.52
587.792	5.16
588.13	5.45
588.469	5.5
588.807	5.52
589.145	5.73
589.483	5.58
589.821	5.32
590.159	5.59
590.497	5.68
590.835	5.57
591.173	5.58
591.511	5.64
591.849	5.44
592.187	5.35
592.524	5.46
592.862	5.5
593.2	5.35
593.537	5.62
593.875	5.65
594.212	5.44
594.55	5.52
594.887	5.5
595.224	5.56
595.561	5.53
595.899	5.21
596.236	5.53
596.573	5.43
596.91	5.61
597.247	5.45
597.584	5.32
597.921	5.53
598.258	5.59
598.594	5.5
598.931	5.54
599.268	5.57
599.604	5.51
599.941	5.66
600.277	5.56
600.614	5.67
600.95	5.19
601.287	5.79
601.623	5.67
601.959	5.54
602.296	5.62
602.632	5.66
602.968	5.72
603.304	5.72
603.64	5.47
603.976	5.79
604.312	5.24
604.648	5.49
604.984	5.81
605.319	5.57
605.655	5.46
605.991	5.65
606.326	5.57
606.662	5.58
606.998	5.44
607.333	5.68
607.668	5.53
608.004	5.46
608.339	5.87
608.674	5.76
609.01	5.55
609.345	5.64
609.68	5.69
610.015	5.59
610.35	5.69
610.685	5.57
611.02	5.4
611.355	5.76
611.689	5.63
612.024	5.33
612.359	5.6
612.694	5.66
613.028	5.52
613.363	5.72
613.697	5.59
614.032	5.76
614.366	5.75
614.7	5.59
615.035	5.62
615.369	5.68
615.703	5.61
616.037	5.88
616.371	6.09
616.705	5.77
617.039	5.83
617.373	5.85
617.707	6.18
618.041	6.02
618.375	5.92
618.709	5.88
619.042	5.73
619.376	6.04
619.71	5.7
620.043	5.74
620.377	5.72
620.71	5.89
621.043	5.85
621.377	5.36
621.71	5.96
622.043	5.68
622.376	6.1
622.709	5.88
623.043	5.54
623.376	5.87
623.709	5.8
624.041	5.78
624.374	5.87
624.707	5.86
625.04	6.24
625.373	5.83
625.705	6.03
626.038	6
626.37	5.9
626.703	6.15
627.035	5.81
627.368	5.68
627.7	5.81
628.032	5.6
628.365	5.87
628.697	5.55
629.029	5.77
629.361	5.63
629.693	6
630.025	5.67
630.357	5.67
630.689	5.77
631.021	5.91
631.353	5.51
631.684	5.9
632.016	5.89
632.348	6.07
632.679	6.22
633.011	5.87
633.342	5.84
633.674	6.37
634.005	5.94
634.336	6.2
634.668	6.04
634.999	6.16
635.33	5.78
635.661	6.19
635.992	6.2
636.323	5.86
636.654	5.97
636.985	5.74
637.316	5.48
637.647	6.18
637.977	5.89
638.308	6.08
638.639	5.8
638.969	5.76
639.3	5.91
639.63	6.14
639.961	6.16
640.291	6.27
640.622	6.04
640.952	6.5
641.282	6.01
641.612	6.49
641.943	6.07
642.273	5.81
642.603	6.15
642.933	6.24
643.263	5.94
643.592	6.17
643.922	6.24
644.252	5.76
644.582	6.04
644.911	6.11
645.241	5.65
645.571	6.07
645.9	6.27
646.23	5.86
646.559	5.88
646.888	6.17
647.218	6.25
647.547	6.05
647.876	6.23
648.205	6.01
648.534	6.32
648.863	6.17
649.192	6.33
649.521	6.48
649.85	5.84
650.179	6.44
650.508	6.08
650.837	5.89
651.165	6.25
651.494	6.23
651.822	6.18
652.151	6.05
652.479	6.01
652.808	6.66
653.136	6.27
653.465	6.15
653.793	6.46
654.121	6.73
654.449	6.52
654.777	6.59
655.105	5.85
655.433	6.36
655.761	6.51
656.089	6.13
656.417	5.89
656.745	6.33
657.073	6.74
657.4	6.59
657.728	6.77
658.056	6.84
658.383	6.16
658.711	6.27
659.038	6.2
659.365	6.41
659.693	6.44
660.02	6.14
660.347	6.22
660.674	6.2
661.001	6.43
661.329	6.14
661.656	6.13
661.982	6.15
662.309	6.14
662.636	6.28
662.963	6.53
663.29	5.98
663.616	6.04
663.943	5.85
664.27	6.4
664.596	6.7
664.923	6.37
665.249	6.41
665.576	6.15
665.902	5.98
666.228	6.31
666.554	6.64
666.881	6.03
667.207	7.33
667.533	6.26
667.859	6.34
668.185	6.67
668.511	6.23
668.837	6.22
669.162	6.65
669.488	6.13
669.814	6.22
670.139	6.56
670.465	6.3
670.791	6.33
671.116	6.84
671.442	6.78
671.767	6.64
672.092	6.51
672.418	6.91
672.743	6.21
673.068	6.23
673.393	7.19
673.718	6.93
674.043	6.89
674.368	6.41
674.693	6.8
675.018	6.67
675.343	6.75
675.667	6.4
675.992	6.81
676.317	6.26
676.641	7.34
676.966	6.57
677.29	6.03
677.615	7.18
677.939	6.51
678.264	6.45
678.588	6.79
678.912	6.41
679.236	6.27
679.56	7.18
679.885	6.61
680.209	6.76
680.532	6.77
680.856	6.77
681.18	6.85
681.504	6.18
681.828	6.44
682.152	6.44
682.475	7.24
682.799	6.85
683.122	6.65
683.446	6.25
683.769	6.8
684.093	6.21
684.416	6.45
684.739	6.98
685.062	6.5
685.386	6.74
685.709	6.18
686.032	7.24
686.355	7.14
686.678	6.54
687.001	7.2
687.324	6.31
687.646	6.34
687.969	6.34
688.292	7
688.614	7.45
688.937	6.85
689.26	7.01
689.582	6.56
689.904	6.45
690.227	6.89
690.549	6.96
690.871	6.46
691.194	6.62
691.516	6.5
691.838	6.8
692.16	7.67
692.482	7.5
