Data from 0362_chest_Reflection__3__19.txt Node

Date: Mon Dec 11 17:42:31 CST 2023
User: ToomeyLab
Spectrometer: FLMS14357
Trigger mode: 0
Integration Time (sec): 1.000000E-2
Scans to average: 100
Electric dark correction enabled: true
Nonlinearity correction enabled: false
Boxcar width: 0
XAxis mode: Wavelengths
Number of Pixels in Spectrum: 2048
>>>>>Begin Spectral Data<<<<<
189.047	-403.52
189.435	-403.52
189.823	-403.52
190.211	300.07
190.599	20.37
190.987	-1.92
191.375	77.66
191.763	43.42
192.151	-1306.25
192.538	86.09
192.926	-276.74
193.314	156.09
193.702	-425.69
194.089	0.05
194.477	118.75
194.864	194
195.252	-517.03
195.639	-50.23
196.027	661.46
196.414	-409.67
196.801	-119.87
197.189	-89.06
197.576	95.67
197.963	15.04
198.351	-22.53
198.738	6.23
199.125	-15.59
199.512	15.16
199.899	50.14
200.286	4.52
200.673	-58.58
201.06	53.15
201.447	39.56
201.833	-10.27
202.22	22.15
202.607	-38.35
202.994	1.09
203.38	-2.57
203.767	34.27
204.154	38.11
204.54	-4.24
204.927	-3.9
205.313	14.02
205.699	-8.14
206.086	4.73
206.472	37.53
206.858	8.6
207.245	17.92
207.631	25.94
208.017	14.36
208.403	19.44
208.789	-4.57
209.175	12.15
209.561	5.37
209.947	64.95
210.333	47.46
210.719	43.91
211.105	32.3
211.491	24.72
211.876	20.57
212.262	-4.49
212.648	-25.89
213.034	-9.92
213.419	29.08
213.805	-2.89
214.19	-0.95
214.576	22.08
214.961	10.53
215.346	13.23
215.732	14.64
216.117	8.09
216.502	7.62
216.888	11.67
217.273	13.9
217.658	3.15
218.043	4.54
218.428	8.85
218.813	15.85
219.198	-4.01
219.583	9.31
219.968	-0.87
220.353	-6.43
220.738	41.36
221.122	20.36
221.507	18.83
221.892	1.14
222.276	20.38
222.661	8.02
223.046	2.69
223.43	9.53
223.815	6.04
224.199	1.8
224.583	0.64
224.968	4.27
225.352	12.56
225.736	4.18
226.121	6.67
226.505	10.19
226.889	-0.39
227.273	3.49
227.657	4.49
228.041	5.01
228.425	1.38
228.809	1.58
229.193	4.82
229.577	4.12
229.961	1.94
230.344	4.07
230.728	2.66
231.112	2.63
231.495	2.91
231.879	2.53
232.263	2.03
232.646	2.34
233.03	2.51
233.413	3.27
233.797	3.89
234.18	4.42
234.563	4.93
234.946	1.96
235.33	3.49
235.713	2.21
236.096	2.88
236.479	3.6
236.862	2.58
237.245	2.86
237.628	2.96
238.011	3.46
238.394	3.15
238.777	3.31
239.16	4.6
239.543	3.66
239.925	2.12
240.308	2.81
240.691	2.11
241.073	4.3
241.456	2.68
241.838	5.7
242.221	3.66
242.603	2.41
242.986	1.69
243.368	2.09
243.75	2.11
244.133	2.66
244.515	2.32
244.897	2.29
245.279	2.23
245.661	2.65
246.043	3.41
246.425	3.56
246.807	2.47
247.189	4.07
247.571	2.61
247.953	1.97
248.335	2.77
248.717	2.47
249.098	2.27
249.48	2.35
249.862	2.62
250.243	2.78
250.625	2.42
251.006	2.12
251.388	3.15
251.769	3.42
252.151	3.62
252.532	3.15
252.913	2.7
253.295	2.8
253.676	2.37
254.057	2.68
254.438	2.78
254.819	2.33
255.2	1.14
255.581	2.3
255.962	3.12
256.343	3.54
256.724	3.57
257.105	1.89
257.486	3.42
257.867	4.14
258.247	3.13
258.628	2.19
259.009	3.89
259.389	3.48
259.77	2.65
260.15	1.98
260.531	3.12
260.911	2.46
261.292	2.36
261.672	2.39
262.052	2.27
262.432	2.42
262.813	2.53
263.193	2.38
263.573	2.75
263.953	2.46
264.333	1.51
264.713	2.92
265.093	2.23
265.473	3.1
265.853	2.54
266.233	1.39
266.612	3.32
266.992	2.6
267.372	3.53
267.752	2.81
268.131	2.32
268.511	2.73
268.89	2.59
269.27	3.07
269.649	2.53
270.029	2.68
270.408	2.81
270.787	2.07
271.167	1.88
271.546	2.07
271.925	2.37
272.304	2.35
272.683	2.66
273.062	2.61
273.441	2.38
273.82	2.38
274.199	2.17
274.578	2.17
274.957	2.21
275.336	2.47
275.715	2.08
276.093	2.79
276.472	2.97
276.851	2.76
277.229	2.42
277.608	2.3
277.986	2.94
278.365	2.66
278.743	2.69
279.122	2.46
279.5	2.6
279.878	2.22
280.257	2.05
280.635	2.61
281.013	2.08
281.391	2.66
281.769	2.36
282.147	2.41
282.525	1.84
282.903	2.62
283.281	2.42
283.659	1.97
284.037	2.43
284.415	2.28
284.792	2.37
285.17	2.67
285.548	2.28
285.925	2.08
286.303	2.49
286.68	2.14
287.058	2.45
287.435	2.47
287.813	2.58
288.19	2.35
288.567	2.26
288.945	2.39
289.322	2.22
289.699	2.04
290.076	2.35
290.453	2.39
290.83	2.82
291.207	2.61
291.584	2.41
291.961	2.49
292.338	2.06
292.715	2.92
293.092	2.7
293.469	2.44
293.845	2.49
294.222	2.39
294.599	1.93
294.975	2.62
295.352	2.12
295.728	2.55
296.105	2.49
296.481	2.36
296.858	2.37
297.234	2.99
297.61	2.85
297.986	2.66
298.363	2.68
298.739	2.76
299.115	2.36
299.491	2.24
299.867	2.32
300.243	2.63
300.619	2.43
300.995	2.63
301.371	2.39
301.746	2.56
302.122	2.42
302.498	2.68
302.874	2.86
303.249	2.82
303.625	2.36
304	2.79
304.376	2.87
304.751	2.91
305.127	2.53
305.502	2.85
305.878	2.56
306.253	2.94
306.628	2.83
307.003	3.2
307.378	2.67
307.754	2.79
308.129	2.39
308.504	2.31
308.879	1.99
309.254	2.7
309.629	3.3
310.003	2.77
310.378	2.41
310.753	2.77
311.128	2.46
311.502	2.45
311.877	2.8
312.252	2.85
312.626	2.56
313.001	2.75
313.375	2.51
313.75	2.53
314.124	2.87
314.498	2.55
314.873	2.57
315.247	2.55
315.621	2.67
315.995	2.96
316.369	2.54
316.743	3.16
317.117	2.73
317.491	2.87
317.865	2.54
318.239	3.1
318.613	3.42
318.987	2.69
319.361	2.96
319.734	2.39
320.108	2.39
320.482	2.42
320.855	2.62
321.229	2.9
321.602	2.66
321.976	3.66
322.349	2.79
322.723	2.59
323.096	3.14
323.469	3.11
323.843	2.84
324.216	3
324.589	3.7
324.962	2.92
325.335	3
325.708	2.92
326.081	3.32
326.454	3.02
326.827	2.88
327.2	2.15
327.573	3.12
327.945	3.41
328.318	3.12
328.691	2.64
329.063	2.93
329.436	2.51
329.809	2.59
330.181	3.25
330.553	2.66
330.926	2.74
331.298	3.22
331.671	3.17
332.043	3.38
332.415	3.13
332.787	3.03
333.159	2.51
333.532	3.35
333.904	2.95
334.276	2.66
334.648	3.14
335.02	2.76
335.391	2.75
335.763	3.12
336.135	3.31
336.507	3.19
336.879	3.4
337.25	2.82
337.622	2.99
337.993	3.14
338.365	2.46
338.736	2.91
339.108	3.54
339.479	3.06
339.851	2.69
340.222	2.95
340.593	2.77
340.964	2.67
341.336	2.63
341.707	2.82
342.078	2.93
342.449	3.01
342.82	2.7
343.191	2.49
343.562	2.61
343.933	2.96
344.303	2.86
344.674	2.42
345.045	3.44
345.416	2.51
345.786	3.47
346.157	2.89
346.527	2.78
346.898	3.12
347.268	2.81
347.639	3.07
348.009	3
348.38	2.39
348.75	2.86
349.12	3.11
349.49	2.86
349.861	3.05
350.231	2.79
350.601	3.23
350.971	3.29
351.341	2.43
351.711	3.09
352.081	2.63
352.45	3.02
352.82	2.74
353.19	2.77
353.56	2.53
353.929	2.99
354.299	3.2
354.669	3.44
355.038	2.97
355.408	2.71
355.777	2.97
356.147	3.26
356.516	2.73
356.885	2.86
357.254	2.93
357.624	2.91
357.993	2.84
358.362	2.97
358.731	3.06
359.1	2.97
359.469	2.7
359.838	2.8
360.207	2.76
360.576	2.78
360.945	3.12
361.314	3.35
361.682	2.65
362.051	2.84
362.42	2.97
362.788	2.71
363.157	3
363.525	2.96
363.894	3.1
364.262	2.74
364.631	2.91
364.999	2.93
365.367	3.12
365.735	3.19
366.104	3.06
366.472	2.85
366.84	3
367.208	3.01
367.576	3.14
367.944	3.27
368.312	2.87
368.68	2.98
369.048	3.02
369.416	2.75
369.783	2.92
370.151	3.08
370.519	3.37
370.886	2.96
371.254	3.39
371.621	3.18
371.989	3.34
372.356	3.28
372.724	3.36
373.091	3.35
373.458	2.6
373.826	3.25
374.193	3.23
374.56	3.22
374.927	3.18
375.294	3
375.661	3.18
376.028	3.35
376.395	3.43
376.762	3.19
377.129	3.6
377.496	3.04
377.863	3.32
378.229	3.25
378.596	3.2
378.963	3.2
379.329	2.92
379.696	3.29
380.062	2.94
380.429	2.87
380.795	3.38
381.161	3.16
381.528	3.26
381.894	3.1
382.26	3.23
382.626	2.97
382.993	3.1
383.359	3.21
383.725	2.94
384.091	3.48
384.457	3
384.823	3.51
385.188	3.2
385.554	2.85
385.92	3.21
386.286	3.41
386.651	3.03
387.017	3.35
387.383	3.14
387.748	3.15
388.114	2.99
388.479	3.21
388.845	3.11
389.21	3.12
389.575	3.17
389.94	3
390.306	3.25
390.671	3.03
391.036	3.19
391.401	3.34
391.766	3.04
392.131	3.16
392.496	3.27
392.861	3.45
393.226	3.32
393.591	3.28
393.956	3.14
394.32	3.19
394.685	3.15
395.05	3.22
395.414	3.37
395.779	3.19
396.143	2.91
396.508	3.24
396.872	3.15
397.236	3.05
397.601	3.06
397.965	3.17
398.329	3.09
398.694	3.26
399.058	3.1
399.422	3.44
399.786	3.32
400.15	3.07
400.514	3.38
400.878	3.31
401.242	3.23
401.605	3.37
401.969	3.13
402.333	3.09
402.697	3.2
403.06	3.25
403.424	3.48
403.787	3.5
404.151	3.19
404.514	3.16
404.878	3.47
405.241	3.03
405.604	3.09
405.968	3.11
406.331	3
406.694	3.22
407.057	3.11
407.42	3.38
407.783	3.32
408.146	3.26
408.509	3.12
408.872	3.14
409.235	3.12
409.598	3.14
409.961	3.17
410.323	3.36
410.686	3.38
411.049	3.32
411.411	3.44
411.774	3.31
412.136	3.16
412.499	3.39
412.861	3.16
413.223	3.21
413.586	3.55
413.948	3.55
414.31	3.28
414.672	3.17
415.035	3.29
415.397	3.26
415.759	3.19
416.121	3.1
416.483	3.45
416.845	3.34
417.206	3.25
417.568	3.24
417.93	3.35
418.292	3.29
418.653	3.3
419.015	3.15
419.377	3.26
419.738	3.24
420.1	3.32
420.461	3.19
420.822	3.21
421.184	3.19
421.545	3.2
421.906	3.19
422.267	3.26
422.629	3.03
422.99	3.18
423.351	3.16
423.712	3.13
424.073	3.22
424.434	3.21
424.795	3.32
425.155	3.22
425.516	3.16
425.877	3.04
426.238	3.15
426.598	3.21
426.959	3.2
427.32	3.29
427.68	3.36
428.041	3.22
428.401	3.18
428.761	3.23
429.122	3.24
429.482	3.48
429.842	3.28
430.202	3.42
430.563	3.31
430.923	3.34
431.283	3.4
431.643	3.45
432.003	3.49
432.363	3.51
432.722	3.24
433.082	3.44
433.442	3.36
433.802	3.23
434.161	3.55
434.521	3.19
434.881	3.4
435.24	3.3
435.6	3.25
435.959	3.28
436.319	3.3
436.678	3.28
437.037	3.41
437.396	3.37
437.756	3.37
438.115	3.51
438.474	3.44
438.833	3.42
439.192	3.43
439.551	3.47
439.91	3.32
440.269	3.49
440.628	3.25
440.987	3.42
441.345	3.39
441.704	3.4
442.063	3.38
442.421	3.37
442.78	3.28
443.138	3.31
443.497	3.48
443.855	3.19
444.214	3.54
444.572	3.34
444.93	3.38
445.288	3.43
445.647	3.65
446.005	3.28
446.363	3.28
446.721	3.33
447.079	3.33
447.437	3.38
447.795	3.28
448.153	3.36
448.51	3.23
448.868	3.22
449.226	3.2
449.584	3.38
449.941	3.34
450.299	3.3
450.656	3.39
451.014	3.43
451.371	3.27
451.729	3.45
452.086	3.44
452.443	3.58
452.801	3.45
453.158	3.53
453.515	3.37
453.872	3.46
454.229	3.47
454.586	3.41
454.943	3.46
455.3	3.52
455.657	3.62
456.014	3.56
456.371	3.46
456.727	3.48
457.084	3.55
457.441	3.64
457.797	3.44
458.154	3.49
458.51	3.65
458.867	3.38
459.223	3.51
459.58	3.47
459.936	3.68
460.292	3.53
460.648	3.4
461.005	3.38
461.361	3.39
461.717	3.41
462.073	3.4
462.429	3.37
462.785	3.34
463.141	3.4
463.496	3.52
463.852	3.45
464.208	3.56
464.564	3.51
464.919	3.51
465.275	3.35
465.631	3.47
465.986	3.54
466.342	3.48
466.697	3.57
467.052	3.59
467.408	3.6
467.763	3.49
468.118	3.34
468.473	3.55
468.829	3.54
469.184	3.76
469.539	3.56
469.894	3.44
470.249	3.48
470.603	3.52
470.958	3.67
471.313	3.41
471.668	3.77
472.023	3.58
472.377	3.51
472.732	3.68
473.086	3.63
473.441	3.68
473.795	3.61
474.15	3.63
474.504	3.56
474.859	3.6
475.213	3.5
475.567	3.59
475.921	3.55
476.275	3.61
476.63	3.63
476.984	3.61
477.338	3.51
477.692	3.61
478.045	3.49
478.399	3.44
478.753	3.44
479.107	3.48
479.461	3.7
479.814	3.53
480.168	3.49
480.521	3.74
480.875	3.58
481.228	3.55
481.582	3.68
481.935	3.61
482.289	3.62
482.642	3.66
482.995	3.57
483.348	3.58
483.701	3.44
484.055	3.56
484.408	3.59
484.761	3.56
485.114	3.42
485.466	3.4
485.819	3.28
486.172	3.29
486.525	3.31
486.878	3.42
487.23	3.45
487.583	3.54
487.936	3.5
488.288	3.57
488.641	3.43
488.993	3.36
489.345	3.41
489.698	3.35
490.05	3.42
490.402	3.41
490.754	3.44
491.107	3.49
491.459	3.54
491.811	3.66
492.163	3.57
492.515	3.6
492.866	3.58
493.218	3.45
493.57	3.37
493.922	3.39
494.274	3.49
494.625	3.59
494.977	3.64
495.328	3.67
495.68	3.75
496.031	3.73
496.383	3.6
496.734	3.7
497.086	3.7
497.437	3.75
497.788	3.78
498.139	3.63
498.49	3.72
498.842	3.59
499.193	3.68
499.544	3.67
499.894	3.7
500.245	3.62
500.596	3.78
500.947	3.75
501.298	3.8
501.648	3.65
501.999	3.67
502.35	3.76
502.7	3.81
503.051	3.69
503.401	3.79
503.752	3.75
504.102	3.68
504.452	3.65
504.803	3.84
505.153	3.77
505.503	3.91
505.853	3.71
506.203	3.73
506.553	3.95
506.903	3.7
507.253	3.76
507.603	3.81
507.953	3.77
508.303	3.69
508.652	3.84
509.002	3.82
509.352	3.89
509.701	3.88
510.051	3.63
510.4	3.63
510.75	3.66
511.099	3.75
511.449	3.82
511.798	3.79
512.147	3.98
512.496	3.73
512.846	3.84
513.195	3.89
513.544	3.87
513.893	3.72
514.242	3.82
514.591	3.81
514.939	3.72
515.288	3.9
515.637	3.74
515.986	3.74
516.334	3.9
516.683	3.98
517.032	3.8
517.38	3.96
517.729	3.86
518.077	3.91
518.426	3.94
518.774	3.89
519.122	3.88
519.47	3.79
519.819	3.83
520.167	3.75
520.515	3.71
520.863	3.73
521.211	3.83
521.559	3.86
521.907	3.82
522.255	3.8
522.602	3.86
522.95	3.94
523.298	3.91
523.645	4.05
523.993	3.96
524.341	4.12
524.688	3.96
525.036	3.98
525.383	4.04
525.73	4.1
526.078	4
526.425	3.94
526.772	3.95
527.119	3.84
527.466	3.89
527.814	3.89
528.161	3.8
528.508	3.94
528.854	3.89
529.201	3.88
529.548	3.94
529.895	3.81
530.242	3.75
530.588	3.7
530.935	3.76
531.282	3.8
531.628	3.81
531.975	3.84
532.321	3.85
532.667	3.97
533.014	3.88
533.36	4.04
533.706	4.03
534.052	4.03
534.399	3.96
534.745	3.94
535.091	3.87
535.437	3.87
535.783	3.87
536.129	3.95
536.474	4
536.82	4.01
537.166	4.01
537.512	4
537.857	4.14
538.203	4.02
538.549	4.03
538.894	4.07
539.239	4.11
539.585	4.17
539.93	4.04
540.276	4.12
540.621	4.16
540.966	4.25
541.311	4.13
541.656	4.13
542.001	4.2
542.346	4.27
542.691	4.08
543.036	3.96
543.381	3.95
543.726	3.95
544.071	4.07
544.415	4.06
544.76	4.08
545.105	4.11
545.449	4.07
545.794	4.15
546.138	4.18
546.483	4.21
546.827	4.27
547.171	4.23
547.516	4.28
547.86	4.18
548.204	4.28
548.548	4.14
548.892	4.23
549.236	4.24
549.58	4.37
549.924	4.47
550.268	4.27
550.612	4.32
550.956	4.26
551.3	4.42
551.643	4.58
551.987	4.54
552.33	4.49
552.674	4.51
553.017	4.46
553.361	4.4
553.704	4.36
554.048	4.54
554.391	4.51
554.734	4.43
555.077	4.33
555.42	4.59
555.764	4.42
556.107	4.61
556.45	4.64
556.793	4.46
557.135	4.64
557.478	4.54
557.821	4.39
558.164	4.56
558.507	4.44
558.849	4.68
559.192	4.59
559.534	4.68
559.877	4.65
560.219	4.57
560.562	4.83
560.904	4.72
561.246	4.62
561.589	4.46
561.931	4.77
562.273	4.68
562.615	4.67
562.957	4.73
563.299	4.78
563.641	4.5
563.983	4.79
564.325	4.83
564.667	4.69
565.008	4.79
565.35	5.1
565.692	4.99
566.033	4.78
566.375	4.97
566.716	4.57
567.058	4.71
567.399	4.85
567.741	4.76
568.082	4.75
568.423	4.69
568.764	4.76
569.105	4.76
569.447	4.95
569.788	4.89
570.129	4.79
570.47	4.68
570.811	4.72
571.151	4.87
571.492	5.02
571.833	4.92
572.174	5.19
572.514	5.13
572.855	4.91
573.195	5.02
573.536	5.11
573.876	4.83
574.217	4.98
574.557	5.01
574.898	4.98
575.238	5.01
575.578	4.99
575.918	5.14
576.258	5.12
576.598	5.3
576.938	5.1
577.278	5.05
577.618	5.01
577.958	5.02
578.298	5.35
578.638	5.24
578.977	5.28
579.317	5.07
579.657	5.09
579.996	5.1
580.336	5.28
580.675	5.32
581.014	5.25
581.354	5.29
581.693	5.38
582.032	4.91
582.372	5.24
582.711	5.01
583.05	5.49
583.389	5.29
583.728	5.43
584.067	5.18
584.406	5.22
584.745	5.43
585.083	5.38
585.422	5.51
585.761	5.63
586.1	5.49
586.438	5.52
586.777	5.53
587.115	5.22
587.454	5.37
587.792	5.46
588.13	5.73
588.469	5.65
588.807	5.73
589.145	5.87
589.483	5.7
589.821	5.24
590.159	5.74
590.497	5.52
590.835	5.52
591.173	5.66
591.511	5.7
591.849	5.93
592.187	5.76
592.524	5.73
592.862	5.69
593.2	5.56
593.537	5.6
593.875	6
594.212	5.97
594.55	5.77
594.887	5.91
595.224	5.85
595.561	5.54
595.899	5.64
596.236	5.58
596.573	5.76
596.91	5.69
597.247	5.79
597.584	5.76
597.921	5.65
598.258	5.94
598.594	5.77
598.931	5.91
599.268	5.93
599.604	5.98
599.941	5.93
600.277	5.88
600.614	6.09
600.95	6.04
601.287	6.19
601.623	6.13
601.959	5.92
602.296	6.16
602.632	6
602.968	5.71
603.304	6.07
603.64	6
603.976	6.41
604.312	6.12
604.648	6.2
604.984	6.32
605.319	6.16
605.655	6.08
605.991	6.08
606.326	6.22
606.662	6.11
606.998	6.08
607.333	6.21
607.668	6.28
608.004	6.16
608.339	6.54
608.674	6.48
609.01	6.52
609.345	6.32
609.68	6.2
610.015	6.41
610.35	6.53
610.685	6.1
611.02	6.41
611.355	6.43
611.689	6.41
612.024	6.35
612.359	6.55
612.694	6.37
613.028	6.46
613.363	6.54
613.697	6.79
614.032	6.51
614.366	6.5
614.7	6.56
615.035	6.62
615.369	6.86
615.703	6.67
616.037	6.74
616.371	6.64
616.705	6.95
617.039	6.74
617.373	6.78
617.707	6.8
618.041	6.51
618.375	6.94
618.709	6.79
619.042	6.71
619.376	6.96
619.71	6.9
620.043	6.93
620.377	6.77
620.71	6.81
621.043	6.97
621.377	6.38
621.71	7
622.043	6.69
622.376	7.19
622.709	7.08
623.043	7.34
623.376	7.25
623.709	7.29
624.041	7.17
624.374	7.05
624.707	6.86
625.04	7.6
625.373	7.26
625.705	7.27
626.038	7.04
626.37	7.25
626.703	7.53
627.035	7.02
627.368	7.42
627.7	7.03
628.032	7.6
628.365	7.33
628.697	7.05
629.029	7.35
629.361	7.12
629.693	7.38
630.025	7.11
630.357	6.98
630.689	7.05
631.021	7.48
631.353	7
631.684	7.47
632.016	7.52
632.348	7.52
632.679	7.66
633.011	7.46
633.342	7.32
633.674	7.82
634.005	7.67
634.336	7.56
634.668	7.47
634.999	7.95
635.33	7.72
635.661	7.49
635.992	8.05
636.323	7.72
636.654	7.76
636.985	7.62
637.316	7.49
637.647	7.6
637.977	8.01
638.308	7.74
638.639	7.87
638.969	7.86
639.3	8.23
639.63	7.88
639.961	7.96
640.291	8.82
640.622	8
640.952	8.13
641.282	8.08
641.612	8.36
641.943	8.06
642.273	7.94
642.603	8.24
642.933	7.61
643.263	8.12
643.592	8.2
643.922	8.23
644.252	7.76
644.582	8.28
644.911	8.43
645.241	8.4
645.571	8.73
645.9	7.94
646.23	8.25
646.559	8.48
646.888	8.24
647.218	8.35
647.547	7.9
647.876	7.97
648.205	8.14
648.534	8.58
648.863	8.84
649.192	8.37
649.521	8.5
649.85	8.2
650.179	8.77
650.508	8.76
650.837	8.21
651.165	9.29
651.494	8.82
651.822	8.79
652.151	8.73
652.479	9.02
652.808	8.83
653.136	8.27
653.465	8.79
653.793	9.05
654.121	8.5
654.449	8.9
654.777	8.89
655.105	8.8
655.433	9.36
655.761	8.92
656.089	8.54
656.417	9.12
656.745	9.01
657.073	9.36
657.4	8.89
657.728	9.01
658.056	9.2
658.383	9.1
658.711	9.11
659.038	8.81
659.365	9.04
659.693	8.78
660.02	8.7
660.347	9.38
660.674	9.37
661.001	8.85
661.329	9.09
661.656	9.12
661.982	9.2
662.309	9.45
662.636	9.11
662.963	9.56
663.29	9.11
663.616	9.18
663.943	8.62
664.27	9.29
664.596	9.86
664.923	9.4
665.249	9.65
665.576	9.41
665.902	9.08
666.228	9.29
666.554	9.93
666.881	9.52
667.207	9.89
667.533	9.32
667.859	9.98
668.185	9.84
668.511	9.77
668.837	9.58
669.162	9.9
669.488	9.77
669.814	9.47
670.139	9.71
670.465	10.44
670.791	10.02
671.116	10.09
671.442	9.61
671.767	10.58
672.092	10.29
672.418	9.84
672.743	9.56
673.068	9.98
673.393	10.08
673.718	10.34
674.043	10.56
674.368	9.82
674.693	10.1
675.018	10.29
675.343	9.76
675.667	9.83
675.992	10.95
676.317	10.01
676.641	10.32
676.966	10.49
677.29	9.86
677.615	10.63
677.939	10.54
678.264	10.76
678.588	10.66
678.912	9.96
679.236	10.62
679.56	10.43
679.885	10.17
680.209	10.72
680.532	10.54
680.856	10.77
681.18	10.13
681.504	10.39
681.828	10.36
682.152	9.77
682.475	10.68
682.799	10.62
683.122	10.58
683.446	10.5
683.769	10.48
684.093	10.64
684.416	10.81
684.739	10.78
685.062	10.88
685.386	10.51
685.709	11.24
686.032	10.91
686.355	10.72
686.678	10.26
687.001	11.38
687.324	9.96
687.646	10.79
687.969	11.53
688.292	12.05
688.614	11.67
688.937	11.69
689.26	10.72
689.582	11.29
689.904	10.83
690.227	11.3
690.549	11.35
690.871	10.82
691.194	10.74
691.516	11.15
691.838	10.72
