Data from 0362_chest_Reflection__2__18.txt Node

Date: Mon Dec 11 17:42:16 CST 2023
User: ToomeyLab
Spectrometer: FLMS14357
Trigger mode: 0
Integration Time (sec): 1.000000E-2
Scans to average: 100
Electric dark correction enabled: true
Nonlinearity correction enabled: false
Boxcar width: 0
XAxis mode: Wavelengths
Number of Pixels in Spectrum: 2048
>>>>>Begin Spectral Data<<<<<
189.047	196.02
189.435	196.02
189.823	196.02
190.211	97.57
190.599	88.88
190.987	18.7
191.375	89.07
191.763	220.54
192.151	-181.25
192.538	97.51
192.926	83.54
193.314	251.04
193.702	328.94
194.089	-62.45
194.477	82.31
194.864	-46.35
195.252	-476.51
195.639	-224.18
196.027	265.63
196.414	-366.22
196.801	-120.58
197.189	-26.29
197.576	62.36
197.963	-7.09
198.351	15.52
198.738	8.01
199.125	-16.63
199.512	18.28
199.899	7.88
200.286	33.54
200.673	-42.62
201.06	24.37
201.447	33.36
201.833	31.97
202.22	24.59
202.607	25.41
202.994	-17.76
203.38	-10.66
203.767	29.09
204.154	33.03
204.54	1.14
204.927	-10.29
205.313	-12.7
205.699	-23.34
206.086	-12.52
206.472	20.56
206.858	16.46
207.245	6.12
207.631	23.59
208.017	28.37
208.403	4.41
208.789	-27.22
209.175	27.45
209.561	5.18
209.947	-17.23
210.333	29.77
210.719	48.11
211.105	54.34
211.491	6.89
211.876	41.08
212.262	-34.92
212.648	28.91
213.034	16.57
213.419	0.11
213.805	21.66
214.19	15.8
214.576	25.62
214.961	9.05
215.346	4.29
215.732	-1.65
216.117	29.13
216.502	5.5
216.888	17.52
217.273	32.14
217.658	11.22
218.043	13.57
218.428	26
218.813	28.1
219.198	-4.57
219.583	16.63
219.968	2.82
220.353	10.64
220.738	26.01
221.122	15.01
221.507	31.97
221.892	-1.41
222.276	23.41
222.661	0.37
223.046	7.74
223.43	13
223.815	-3.2
224.199	8.15
224.583	3.11
224.968	9.38
225.352	10.89
225.736	5.04
226.121	5.7
226.505	0.5
226.889	5.35
227.273	8.06
227.657	9.95
228.041	6.51
228.425	2
228.809	2.36
229.193	3.36
229.577	4.05
229.961	3.64
230.344	4.04
230.728	3.99
231.112	4.22
231.495	4.4
231.879	4.19
232.263	3.07
232.646	4.35
233.03	4.71
233.413	3.74
233.797	5.63
234.18	5.61
234.563	3.89
234.946	4.51
235.33	5.6
235.713	5.19
236.096	4.73
236.479	6.23
236.862	4.33
237.245	4.5
237.628	4.57
238.011	3.87
238.394	4.07
238.777	5.37
239.16	4.13
239.543	3.89
239.925	2.45
240.308	4.05
240.691	4.56
241.073	4.64
241.456	4.91
241.838	5.44
242.221	5.69
242.603	3.75
242.986	4.1
243.368	3.86
243.75	3.52
244.133	4.02
244.515	3.7
244.897	3.73
245.279	4.08
245.661	3.6
246.043	4.08
246.425	4.48
246.807	4.52
247.189	3.88
247.571	4.67
247.953	3.42
248.335	3.77
248.717	3.78
249.098	3.59
249.48	3.73
249.862	4.04
250.243	4.02
250.625	4.05
251.006	3.71
251.388	4.13
251.769	4.27
252.151	5.28
252.532	3.88
252.913	4.58
253.295	4.72
253.676	4.36
254.057	3.6
254.438	4.22
254.819	3.68
255.2	3.26
255.581	3.37
255.962	3.31
256.343	4.65
256.724	4.05
257.105	3.94
257.486	3.8
257.867	5.09
258.247	2.95
258.628	3.62
259.009	4.54
259.389	4.11
259.77	3.98
260.15	3.77
260.531	3.84
260.911	2.85
261.292	3.43
261.672	3.47
262.052	3.61
262.432	3.71
262.813	3.61
263.193	3.28
263.573	4.06
263.953	3.65
264.333	3.6
264.713	3.76
265.093	3.38
265.473	4.16
265.853	3.56
266.233	3.91
266.612	4.49
266.992	3.87
267.372	4.92
267.752	4.2
268.131	4.19
268.511	3.4
268.89	4.18
269.27	4.01
269.649	3.35
270.029	3.62
270.408	3.85
270.787	3.41
271.167	3.14
271.546	3.42
271.925	3.31
272.304	3.29
272.683	3.71
273.062	3.58
273.441	3.3
273.82	3.72
274.199	3.83
274.578	3.62
274.957	3.47
275.336	3.55
275.715	3.43
276.093	3.87
276.472	3.63
276.851	3.76
277.229	4.06
277.608	3.43
277.986	4.02
278.365	3.45
278.743	3.13
279.122	3.45
279.5	4.28
279.878	3.35
280.257	2.81
280.635	3.65
281.013	3.23
281.391	3.13
281.769	3.51
282.147	3.52
282.525	3.11
282.903	3.69
283.281	3.43
283.659	3.37
284.037	3.36
284.415	3.45
284.792	3.92
285.17	3.92
285.548	3.7
285.925	3.07
286.303	3.58
286.68	2.99
287.058	3.6
287.435	3.63
287.813	3.54
288.19	3.31
288.567	3.32
288.945	3.34
289.322	3.23
289.699	3.32
290.076	3.21
290.453	3.75
290.83	4.12
291.207	3.85
291.584	3.49
291.961	3.63
292.338	3.47
292.715	3.86
293.092	3.64
293.469	3.48
293.845	3.67
294.222	3.9
294.599	2.73
294.975	3.58
295.352	3.04
295.728	3.56
296.105	3.42
296.481	3.52
296.858	3.71
297.234	3.61
297.61	3.58
297.986	3.49
298.363	3.48
298.739	3.45
299.115	3.63
299.491	3.86
299.867	3.44
300.243	3.66
300.619	3.58
300.995	3.8
301.371	3.3
301.746	3.28
302.122	3.3
302.498	3.81
302.874	3.69
303.249	3.79
303.625	3.83
304	3.51
304.376	3.59
304.751	3.75
305.127	3.63
305.502	4.26
305.878	3.85
306.253	3.79
306.628	4.07
307.003	3.79
307.378	3.43
307.754	4.05
308.129	3.94
308.504	3.44
308.879	3.22
309.254	3.92
309.629	4.23
310.003	3.73
310.378	3.66
310.753	3.91
311.128	3.78
311.502	3.47
311.877	3.62
312.252	3.69
312.626	3.82
313.001	3.92
313.375	3.33
313.75	3.66
314.124	3.75
314.498	4.29
314.873	3.71
315.247	3.93
315.621	4.56
315.995	4.35
316.369	3.57
316.743	3.72
317.117	4.2
317.491	4.2
317.865	3.99
318.239	4.13
318.613	3.83
318.987	4.17
319.361	3.8
319.734	4.14
320.108	4.07
320.482	3.76
320.855	3.37
321.229	4.09
321.602	3.86
321.976	4.68
322.349	4.14
322.723	4.11
323.096	4.17
323.469	4.87
323.843	4.33
324.216	4.24
324.589	4.35
324.962	4.12
325.335	3.83
325.708	4.14
326.081	4.26
326.454	4.25
326.827	3.99
327.2	3.67
327.573	3.29
327.945	4.09
328.318	3.87
328.691	3.84
329.063	3.79
329.436	3.48
329.809	3.98
330.181	4.52
330.553	4.08
330.926	3.39
331.298	4.17
331.671	3.93
332.043	4.3
332.415	4.22
332.787	4.34
333.159	3.62
333.532	3.77
333.904	4.11
334.276	4.22
334.648	4.44
335.02	3.93
335.391	3.69
335.763	3.67
336.135	4.02
336.507	4.24
336.879	4.62
337.25	4.13
337.622	3.67
337.993	4.33
338.365	3.75
338.736	3.87
339.108	4.12
339.479	4.02
339.851	4.5
340.222	4.21
340.593	3.58
340.964	4.18
341.336	4.3
341.707	3.92
342.078	4.33
342.449	3.45
342.82	4.04
343.191	4.19
343.562	3.83
343.933	4.2
344.303	3.83
344.674	3.98
345.045	4.05
345.416	3.75
345.786	4.24
346.157	4.15
346.527	4.06
346.898	3.95
347.268	4.15
347.639	3.89
348.009	4.38
348.38	3.7
348.75	3.81
349.12	4.28
349.49	3.81
349.861	3.54
350.231	4.01
350.601	4.2
350.971	4.01
351.341	3.36
351.711	4.21
352.081	3.37
352.45	4.2
352.82	3.86
353.19	4.19
353.56	4.04
353.929	4.16
354.299	4.06
354.669	4.03
355.038	4.24
355.408	3.51
355.777	3.98
356.147	4.02
356.516	3.94
356.885	4.1
357.254	4.28
357.624	4.13
357.993	4.06
358.362	4.15
358.731	3.79
359.1	3.93
359.469	3.89
359.838	4.26
360.207	3.72
360.576	4.16
360.945	4.36
361.314	4.35
361.682	3.92
362.051	3.89
362.42	4.07
362.788	3.92
363.157	3.99
363.525	3.39
363.894	4.11
364.262	3.83
364.631	3.96
364.999	3.92
365.367	4
365.735	4.03
366.104	3.76
366.472	4.01
366.84	4.02
367.208	4.04
367.576	4.17
367.944	4.27
368.312	4.34
368.68	4.07
369.048	3.86
369.416	3.86
369.783	3.91
370.151	4.03
370.519	4.27
370.886	4.07
371.254	4.34
371.621	4.34
371.989	4.31
372.356	4.39
372.724	4.45
373.091	4.41
373.458	4.2
373.826	4.27
374.193	4.08
374.56	4.35
374.927	4.63
375.294	4.11
375.661	4.03
376.028	4.15
376.395	4.23
376.762	4.21
377.129	4.69
377.496	4.12
377.863	4.07
378.229	4.22
378.596	4.31
378.963	4.24
379.329	4.15
379.696	4.47
380.062	4.08
380.429	3.79
380.795	4.29
381.161	4.39
381.528	4.42
381.894	3.74
382.26	4.54
382.626	4.15
382.993	4.25
383.359	4.51
383.725	4.26
384.091	4.22
384.457	4.16
384.823	4.56
385.188	4.49
385.554	4.01
385.92	4.03
386.286	4.11
386.651	4.19
387.017	4.29
387.383	4.29
387.748	4.17
388.114	4.23
388.479	4.41
388.845	3.89
389.21	4.14
389.575	4.12
389.94	4.2
390.306	4.01
390.671	4.15
391.036	4.34
391.401	4.44
391.766	3.9
392.131	4.22
392.496	4.48
392.861	4.35
393.226	4.44
393.591	4.28
393.956	4.25
394.32	4.41
394.685	4.18
395.05	4.27
395.414	4.23
395.779	4.23
396.143	4
396.508	4.31
396.872	4.48
397.236	4.34
397.601	4.12
397.965	4.39
398.329	4.35
398.694	4.34
399.058	3.99
399.422	4.25
399.786	4.27
400.15	4.07
400.514	4.66
400.878	4.27
401.242	4.1
401.605	4.21
401.969	4.06
402.333	3.97
402.697	4.06
403.06	4.04
403.424	4.32
403.787	4.35
404.151	4.02
404.514	4.17
404.878	4.27
405.241	4.34
405.604	4.32
405.968	4.25
406.331	3.82
406.694	4.2
407.057	4.43
407.42	4.43
407.783	4.07
408.146	4.3
408.509	4.11
408.872	4.35
409.235	4.24
409.598	4.32
409.961	4.25
410.323	4.35
410.686	4.3
411.049	4.35
411.411	4.41
411.774	4.3
412.136	4.23
412.499	4.35
412.861	4.18
413.223	4.29
413.586	4.26
413.948	4.48
414.31	4.35
414.672	4.07
415.035	4.21
415.397	4.18
415.759	4.48
416.121	4.38
416.483	4.35
416.845	4.49
417.206	4.27
417.568	4.36
417.93	4.43
418.292	4.26
418.653	4.07
419.015	4.27
419.377	4.33
419.738	4.28
420.1	4.34
420.461	4.17
420.822	4.25
421.184	4.28
421.545	4.13
421.906	4
422.267	4.29
422.629	4.07
422.99	4.14
423.351	4.05
423.712	4.21
424.073	4.19
424.434	4.24
424.795	4.27
425.155	4.18
425.516	4.18
425.877	4.05
426.238	4.13
426.598	4.12
426.959	4.32
427.32	4.25
427.68	4.31
428.041	4.23
428.401	4.15
428.761	4.26
429.122	4.16
429.482	4.35
429.842	4.28
430.202	4.27
430.563	4.31
430.923	4.34
431.283	4.43
431.643	4.46
432.003	4.47
432.363	4.42
432.722	4.39
433.082	4.35
433.442	4.42
433.802	4.43
434.161	4.53
434.521	4.27
434.881	4.33
435.24	4.32
435.6	4.31
435.959	4.34
436.319	4.29
436.678	4.33
437.037	4.37
437.396	4.4
437.756	4.48
438.115	4.52
438.474	4.6
438.833	4.35
439.192	4.49
439.551	4.48
439.91	4.5
440.269	4.55
440.628	4.18
440.987	4.5
441.345	4.4
441.704	4.4
442.063	4.36
442.421	4.38
442.78	4.37
443.138	4.43
443.497	4.25
443.855	4.38
444.214	4.55
444.572	4.31
444.93	4.58
445.288	4.52
445.647	4.55
446.005	4.22
446.363	4.23
446.721	4.42
447.079	4.31
447.437	4.39
447.795	4.32
448.153	4.37
448.51	4.45
448.868	4.36
449.226	4.27
449.584	4.35
449.941	4.5
450.299	4.41
450.656	4.38
451.014	4.55
451.371	4.32
451.729	4.67
452.086	4.58
452.443	4.65
452.801	4.56
453.158	4.66
453.515	4.49
453.872	4.59
454.229	4.47
454.586	4.47
454.943	4.57
455.3	4.53
455.657	4.54
456.014	4.52
456.371	4.7
456.727	4.69
457.084	4.48
457.441	4.79
457.797	4.66
458.154	4.44
458.51	4.64
458.867	4.36
459.223	4.42
459.58	4.67
459.936	4.61
460.292	4.59
460.648	4.63
461.005	4.57
461.361	4.5
461.717	4.46
462.073	4.46
462.429	4.5
462.785	4.39
463.141	4.61
463.496	4.68
463.852	4.56
464.208	4.56
464.564	4.64
464.919	4.57
465.275	4.55
465.631	4.57
465.986	4.71
466.342	4.62
466.697	4.65
467.052	4.74
467.408	4.72
467.763	4.72
468.118	4.57
468.473	4.55
468.829	4.6
469.184	4.8
469.539	4.72
469.894	4.48
470.249	4.63
470.603	4.49
470.958	4.8
471.313	4.67
471.668	4.77
472.023	4.79
472.377	4.75
472.732	4.65
473.086	4.94
473.441	4.83
473.795	4.65
474.15	4.7
474.504	4.71
474.859	4.68
475.213	4.71
475.567	4.77
475.921	4.62
476.275	4.66
476.63	4.7
476.984	4.77
477.338	4.57
477.692	4.64
478.045	4.75
478.399	4.68
478.753	4.51
479.107	4.69
479.461	4.75
479.814	4.66
480.168	4.73
480.521	4.84
480.875	4.76
481.228	4.69
481.582	4.69
481.935	4.69
482.289	4.78
482.642	4.73
482.995	4.7
483.348	4.72
483.701	4.64
484.055	4.64
484.408	4.69
484.761	4.62
485.114	4.58
485.466	4.43
485.819	4.38
486.172	4.42
486.525	4.47
486.878	4.53
487.23	4.56
487.583	4.64
487.936	4.6
488.288	4.7
488.641	4.56
488.993	4.46
489.345	4.6
489.698	4.51
490.05	4.53
490.402	4.51
490.754	4.55
491.107	4.61
491.459	4.68
491.811	4.76
492.163	4.72
492.515	4.81
492.866	4.69
493.218	4.53
493.57	4.59
493.922	4.52
494.274	4.62
494.625	4.66
494.977	4.8
495.328	4.82
495.68	4.86
496.031	4.88
496.383	4.79
496.734	4.96
497.086	4.87
497.437	4.97
497.788	4.9
498.139	4.8
498.49	4.84
498.842	4.94
499.193	4.99
499.544	4.86
499.894	4.87
500.245	4.93
500.596	4.91
500.947	4.88
501.298	5.09
501.648	4.87
501.999	4.9
502.35	5.09
502.7	4.96
503.051	4.87
503.401	5.01
503.752	4.94
504.102	4.92
504.452	5.07
504.803	5.16
505.153	5.03
505.503	5.03
505.853	5.07
506.203	4.94
506.553	5
506.903	4.85
507.253	5.15
507.603	4.97
507.953	5.07
508.303	5.1
508.652	4.91
509.002	5
509.352	5.15
509.701	5.11
510.051	5.02
510.4	5.06
510.75	5
511.099	4.99
511.449	5.03
511.798	4.97
512.147	5.08
512.496	4.87
512.846	5.05
513.195	5.18
513.544	5.22
513.893	5.01
514.242	5.1
514.591	4.99
514.939	4.92
515.288	5.16
515.637	5.07
515.986	5.08
516.334	5.27
516.683	5.31
517.032	5.21
517.38	5.28
517.729	5.25
518.077	5.21
518.426	5.23
518.774	5.25
519.122	5.19
519.47	5.17
519.819	5.09
520.167	5.06
520.515	5.04
520.863	5.05
521.211	5.13
521.559	5.15
521.907	5.19
522.255	5.17
522.602	5.21
522.95	5.3
523.298	5.25
523.645	5.4
523.993	5.26
524.341	5.43
524.688	5.15
525.036	5.29
525.383	5.34
525.73	5.38
526.078	5.41
526.425	5.34
526.772	5.4
527.119	5.3
527.466	5.32
527.814	5.3
528.161	5.17
528.508	5.33
528.854	5.2
529.201	5.32
529.548	5.28
529.895	5.23
530.242	5.16
530.588	5.06
530.935	5.13
531.282	5.18
531.628	5.16
531.975	5.25
532.321	5.28
532.667	5.32
533.014	5.33
533.36	5.32
533.706	5.42
534.052	5.41
534.399	5.36
534.745	5.35
535.091	5.31
535.437	5.24
535.783	5.27
536.129	5.42
536.474	5.39
536.82	5.51
537.166	5.5
537.512	5.53
537.857	5.48
538.203	5.55
538.549	5.6
538.894	5.55
539.239	5.68
539.585	5.59
539.93	5.56
540.276	5.66
540.621	5.65
540.966	5.75
541.311	5.8
541.656	5.79
542.001	5.77
542.346	5.74
542.691	5.59
543.036	5.53
543.381	5.45
543.726	5.49
544.071	5.57
544.415	5.54
544.76	5.63
545.105	5.59
545.449	5.65
545.794	5.77
546.138	5.85
546.483	5.81
546.827	5.86
547.171	5.76
547.516	5.68
547.86	5.95
548.204	5.9
548.548	5.86
548.892	5.9
549.236	5.95
549.58	6
549.924	6.06
550.268	5.92
550.612	5.86
550.956	5.94
551.3	6.08
551.643	6.05
551.987	6.33
552.33	6.14
552.674	6.08
553.017	6.21
553.361	6.07
553.704	6.16
554.048	6.31
554.391	6.19
554.734	6.16
555.077	6.21
555.42	6.37
555.764	6.31
556.107	6.42
556.45	6.4
556.793	6.26
557.135	6.43
557.478	6.28
557.821	6.35
558.164	6.5
558.507	6.29
558.849	6.24
559.192	6.37
559.534	6.45
559.877	6.34
560.219	6.36
560.562	6.47
560.904	6.53
561.246	6.48
561.589	6.48
561.931	6.73
562.273	6.48
562.615	6.48
562.957	6.61
563.299	6.58
563.641	6.43
563.983	6.74
564.325	6.8
564.667	6.63
565.008	6.84
565.35	6.91
565.692	6.72
566.033	6.76
566.375	6.95
566.716	6.85
567.058	6.7
567.399	6.84
567.741	6.77
568.082	6.76
568.423	6.81
568.764	6.85
569.105	6.93
569.447	6.96
569.788	6.93
570.129	6.93
570.47	6.86
570.811	6.82
571.151	6.88
571.492	7.12
571.833	7.12
572.174	7.08
572.514	7.07
572.855	6.94
573.195	7.17
573.536	7.08
573.876	6.99
574.217	7.08
574.557	7.08
574.898	7.07
575.238	7.37
575.578	7.18
575.918	7.27
576.258	7.28
576.598	7.31
576.938	7.32
577.278	7.28
577.618	7.26
577.958	7.25
578.298	7.36
578.638	7.56
578.977	7.35
579.317	7.34
579.657	7.23
579.996	7.34
580.336	7.52
580.675	7.6
581.014	7.6
581.354	7.59
581.693	7.72
582.032	7.48
582.372	7.7
582.711	7.51
583.05	7.7
583.389	7.53
583.728	8.05
584.067	7.61
584.406	7.63
584.745	7.73
585.083	8
585.422	7.83
585.761	8.07
586.1	7.67
586.438	7.78
586.777	8.05
587.115	7.59
587.454	7.78
587.792	7.86
588.13	8.18
588.469	8.08
588.807	8.1
589.145	8.27
589.483	8.24
589.821	7.95
590.159	8.12
590.497	8.03
590.835	8.27
591.173	8.09
591.511	8.13
591.849	8.2
592.187	8.05
592.524	8.29
592.862	8.24
593.2	8.31
593.537	8.17
593.875	8.32
594.212	8.19
594.55	8.17
594.887	8.43
595.224	8.46
595.561	8.56
595.899	8.41
596.236	8.55
596.573	8.4
596.91	8.27
597.247	8.57
597.584	8.3
597.921	8.44
598.258	8.47
598.594	8.53
598.931	8.4
599.268	8.5
599.604	8.78
599.941	8.68
600.277	8.63
600.614	8.91
600.95	8.8
601.287	8.87
601.623	8.81
601.959	8.61
602.296	8.88
602.632	8.81
602.968	8.83
603.304	8.92
603.64	8.75
603.976	8.96
604.312	9.19
604.648	9.08
604.984	9.03
605.319	9.19
605.655	8.93
605.991	9.12
606.326	8.85
606.662	8.93
606.998	9.02
607.333	9.17
607.668	9.28
608.004	8.88
608.339	9.44
608.674	9.35
609.01	9.14
609.345	9.29
609.68	9.36
610.015	9.58
610.35	9.42
610.685	9.27
611.02	9.23
611.355	9.58
611.689	9.23
612.024	9.25
612.359	9.65
612.694	9.59
613.028	9.37
613.363	9.51
613.697	9.53
614.032	9.59
614.366	9.77
614.7	9.68
615.035	9.8
615.369	10.13
615.703	10.13
616.037	10.22
616.371	9.95
616.705	10.06
617.039	10.15
617.373	10.2
617.707	10.16
618.041	10.18
618.375	10.1
618.709	10.11
619.042	10.11
619.376	10.37
619.71	10.45
620.043	10.1
620.377	10.25
620.71	10.59
621.043	10.14
621.377	9.62
621.71	10.39
622.043	10.19
622.376	10.21
622.709	10.38
623.043	10.84
623.376	10.7
623.709	10.5
624.041	10.42
624.374	10.68
624.707	10.66
625.04	11.22
625.373	10.75
625.705	10.65
626.038	10.45
626.37	10.95
626.703	10.79
627.035	10.88
627.368	10.53
627.7	10.87
628.032	10.86
628.365	10.7
628.697	10.72
629.029	11.08
629.361	10.88
629.693	10.68
630.025	10.81
630.357	10.79
630.689	10.69
631.021	10.93
631.353	11.04
631.684	11.27
632.016	11.33
632.348	11.31
632.679	11.53
633.011	11.31
633.342	10.78
633.674	11.63
634.005	11.58
634.336	11.32
634.668	11.09
634.999	11.42
635.33	11.27
635.661	11.61
635.992	11.51
636.323	11.46
636.654	11.9
636.985	11.37
637.316	11.66
637.647	11.53
637.977	11.76
638.308	11.95
638.639	11.64
638.969	11.54
639.3	12
639.63	11.56
639.961	11.68
640.291	12.15
640.622	11.88
640.952	12.19
641.282	12
641.612	12.33
641.943	12.16
642.273	11.96
642.603	12.22
642.933	12.22
643.263	12.08
643.592	12.03
643.922	12.21
644.252	11.94
644.582	12.42
644.911	12.85
645.241	12.39
645.571	12.72
645.9	12.47
646.23	12.51
646.559	12.13
646.888	12.32
647.218	13.15
647.547	12.16
647.876	12.32
648.205	11.92
648.534	12.43
648.863	12.76
649.192	12.48
649.521	12.86
649.85	12.86
650.179	12.73
650.508	12.95
650.837	12.47
651.165	12.88
651.494	13.03
651.822	12.66
652.151	13.5
652.479	12.77
652.808	13.13
653.136	13.24
653.465	13.04
653.793	13.1
654.121	13.04
654.449	12.85
654.777	13.27
655.105	13.14
655.433	13.2
655.761	13.34
656.089	12.95
656.417	12.58
656.745	13.45
657.073	13.37
657.4	13.82
657.728	13.61
658.056	13.43
658.383	13.37
658.711	14.09
659.038	13.45
659.365	13.64
659.693	13.5
660.02	13.39
660.347	13.57
660.674	13.64
661.001	13.51
661.329	13.33
661.656	13.63
661.982	13.51
662.309	13.84
662.636	13.9
662.963	14.43
663.29	13.96
663.616	13.47
663.943	13.57
664.27	14.29
664.596	14.24
664.923	14.66
665.249	14.01
665.576	14
665.902	14.25
666.228	14.2
666.554	14.26
666.881	14.13
667.207	15.06
667.533	14.46
667.859	15.03
668.185	14.69
668.511	14.26
668.837	15.02
669.162	14.52
669.488	14.73
669.814	14.37
670.139	14.9
670.465	14.6
670.791	14.38
671.116	14.91
671.442	14.98
671.767	14.67
672.092	14.63
672.418	14.7
672.743	14.22
673.068	14.81
673.393	15.42
673.718	14.5
674.043	14.92
674.368	14.71
674.693	15.05
675.018	15.67
675.343	14.9
675.667	15.1
675.992	15.68
676.317	14.85
676.641	15.92
676.966	15.12
677.29	15.37
677.615	15.61
677.939	15.12
678.264	14.89
678.588	15.63
678.912	15.36
679.236	16.11
679.56	15.52
679.885	15.49
680.209	15.26
680.532	15.88
680.856	15.96
681.18	15.93
681.504	15.22
681.828	14.98
682.152	15.37
682.475	15.99
682.799	15.83
683.122	15.85
683.446	15.39
683.769	15.83
684.093	15.55
684.416	15.96
684.739	16.57
685.062	16.08
685.386	15.68
685.709	15.84
686.032	16.37
686.355	15.56
686.678	15.94
687.001	16.23
687.324	15.58
687.646	15.59
