Data from 0362_crown_Reflection__1__22.txt Node

Date: Mon Dec 11 17:51:41 CST 2023
User: ToomeyLab
Spectrometer: FLMS14357
Trigger mode: 0
Integration Time (sec): 1.000000E-2
Scans to average: 100
Electric dark correction enabled: true
Nonlinearity correction enabled: false
Boxcar width: 0
XAxis mode: Wavelengths
Number of Pixels in Spectrum: 2048
>>>>>Begin Spectral Data<<<<<
189.047	-300.45
189.435	-300.45
189.823	-300.45
190.211	279.72
190.599	15.71
190.987	61.69
191.375	41.23
191.763	257.54
192.151	-1375
192.538	126.32
192.926	-235.28
193.314	75.66
193.702	-397.22
194.089	88.32
194.477	129.88
194.864	134.9
195.252	-576.72
195.639	-78.14
196.027	1381.94
196.414	-535.12
196.801	354.01
197.189	-139.4
197.576	80.24
197.963	83.81
198.351	-13.12
198.738	22.85
199.125	2.04
199.512	17.51
199.899	35.21
200.286	7.05
200.673	-101.88
201.06	42.27
201.447	17.39
201.833	5.69
202.22	33.3
202.607	-15.38
202.994	-0.82
203.38	-8.23
203.767	34.22
204.154	21.76
204.54	-7.55
204.927	-63.07
205.313	-6.75
205.699	17.12
206.086	-6.29
206.472	31.83
206.858	33.29
207.245	14.16
207.631	20.37
208.017	35.17
208.403	23.26
208.789	1.8
209.175	37.41
209.561	24.02
209.947	-15.8
210.333	11.29
210.719	53.98
211.105	18.19
211.491	15.63
211.876	-3.12
212.262	-35.63
212.648	-3.84
213.034	-17.4
213.419	16.94
213.805	10.13
214.19	11.1
214.576	12.96
214.961	12.87
215.346	5.8
215.732	17.08
216.117	22.92
216.502	21.46
216.888	5.39
217.273	27.94
217.658	20.96
218.043	-2.03
218.428	22.38
218.813	26.35
219.198	4.98
219.583	6.87
219.968	9.92
220.353	-5.67
220.738	17.44
221.122	6.38
221.507	28.38
221.892	10.31
222.276	1.45
222.661	-6.98
223.046	1.29
223.43	-2.63
223.815	-5.43
224.199	3.06
224.583	-0.6
224.968	4.17
225.352	5.05
225.736	8.48
226.121	-1.57
226.505	-1.03
226.889	4.32
227.273	2.13
227.657	7.05
228.041	5.97
228.425	-0.01
228.809	1.46
229.193	4.01
229.577	4.68
229.961	2.86
230.344	2.07
230.728	2.69
231.112	3.21
231.495	3
231.879	2.31
232.263	3.08
232.646	3.81
233.03	2.45
233.413	2.13
233.797	4.58
234.18	1.56
234.563	4.09
234.946	1.56
235.33	3.46
235.713	1.45
236.096	2.9
236.479	3.69
236.862	1.4
237.245	1.02
237.628	2.54
238.011	3.84
238.394	3.07
238.777	3.34
239.16	3.57
239.543	3.7
239.925	1.71
240.308	3.1
240.691	2.72
241.073	2.74
241.456	2.81
241.838	4.1
242.221	3.35
242.603	2.46
242.986	2.73
243.368	2.61
243.75	2.86
244.133	3.1
244.515	2.48
244.897	2.97
245.279	2.84
245.661	2.82
246.043	2.6
246.425	3.69
246.807	2.59
247.189	3.25
247.571	2.44
247.953	2.22
248.335	2.73
248.717	2.73
249.098	2.55
249.48	2.51
249.862	2.72
250.243	2.56
250.625	2.43
251.006	2.16
251.388	2.69
251.769	3.11
252.151	4.06
252.532	2.92
252.913	3.62
253.295	3.13
253.676	2.82
254.057	2.57
254.438	2.92
254.819	2.51
255.2	2.68
255.581	2.27
255.962	2.69
256.343	1.56
256.724	3.42
257.105	2.73
257.486	2.74
257.867	2.89
258.247	2.27
258.628	3.05
259.009	4.14
259.389	3.12
259.77	2.7
260.15	3
260.531	2.88
260.911	2.47
261.292	2.26
261.672	2.28
262.052	2.57
262.432	2.55
262.813	2.63
263.193	2.55
263.573	2.86
263.953	2.84
264.333	2.15
264.713	3.34
265.093	2.46
265.473	2.78
265.853	2.73
266.233	2.19
266.612	2.27
266.992	3.37
267.372	3.59
267.752	3.07
268.131	2.85
268.511	2.66
268.89	2.61
269.27	3
269.649	2.56
270.029	2.94
270.408	2.32
270.787	2.45
271.167	2.05
271.546	2.77
271.925	2.35
272.304	2.6
272.683	2.74
273.062	2.46
273.441	2.36
273.82	2.22
274.199	2.39
274.578	2.64
274.957	2.91
275.336	2.14
275.715	2.39
276.093	3.48
276.472	2.23
276.851	2.45
277.229	2.65
277.608	2.53
277.986	2.8
278.365	2.75
278.743	2.77
279.122	2.71
279.5	2.97
279.878	2.43
280.257	2.53
280.635	2.53
281.013	2.35
281.391	2.88
281.769	2.83
282.147	2.16
282.525	2.03
282.903	2.83
283.281	2.31
283.659	2.04
284.037	2.24
284.415	2.52
284.792	2.84
285.17	2.78
285.548	2.07
285.925	2.19
286.303	2.44
286.68	2.16
287.058	2.36
287.435	2.59
287.813	2.68
288.19	2.31
288.567	1.99
288.945	2.39
289.322	2.3
289.699	2.55
290.076	2.56
290.453	2.98
290.83	2.94
291.207	2.77
291.584	2.42
291.961	2.64
292.338	2.41
292.715	2.85
293.092	2.72
293.469	2.66
293.845	2.62
294.222	2.99
294.599	3.05
294.975	2.42
295.352	2.61
295.728	2.25
296.105	2.49
296.481	2.39
296.858	2.4
297.234	2.61
297.61	2.88
297.986	2.25
298.363	2.31
298.739	2.63
299.115	1.91
299.491	2.39
299.867	2.21
300.243	2.52
300.619	2.56
300.995	2.49
301.371	2.41
301.746	2.52
302.122	2.51
302.498	3.03
302.874	2.13
303.249	2.75
303.625	2.54
304	2.64
304.376	2.51
304.751	2.31
305.127	2.7
305.502	2.9
305.878	2.26
306.253	2.69
306.628	2.93
307.003	2.8
307.378	2
307.754	2.98
308.129	2.5
308.504	2.6
308.879	1.97
309.254	2.68
309.629	3.2
310.003	2.81
310.378	2.37
310.753	2.8
311.128	2.89
311.502	2.31
311.877	2.8
312.252	2.89
312.626	2.36
313.001	2.73
313.375	2.11
313.75	2.37
314.124	2.33
314.498	2.24
314.873	2.53
315.247	2.38
315.621	3.23
315.995	3.46
316.369	2.96
316.743	2.92
317.117	2.63
317.491	2.44
317.865	2.39
318.239	2.88
318.613	2.46
318.987	2.9
319.361	2.87
319.734	2.26
320.108	2.6
320.482	2.34
320.855	2.94
321.229	2.77
321.602	1.98
321.976	3.48
322.349	2.72
322.723	2.75
323.096	2.71
323.469	3.3
323.843	3.13
324.216	3.03
324.589	2.91
324.962	2.58
325.335	2.42
325.708	2.81
326.081	3.08
326.454	2.72
326.827	2.68
327.2	2.09
327.573	2.75
327.945	2.76
328.318	2.72
328.691	2.46
329.063	3.13
329.436	2.74
329.809	2.55
330.181	3.04
330.553	2.34
330.926	2.85
331.298	2.94
331.671	2.57
332.043	3.19
332.415	2.44
332.787	2.88
333.159	2.38
333.532	2.54
333.904	2.96
334.276	2.99
334.648	3.17
335.02	2.77
335.391	2.5
335.763	2.94
336.135	3
336.507	2.96
336.879	3.21
337.25	2.41
337.622	2.79
337.993	3.03
338.365	2.89
338.736	2.74
339.108	2.9
339.479	2.52
339.851	2.82
340.222	3.16
340.593	2.07
340.964	3.17
341.336	2.65
341.707	2.27
342.078	2.54
342.449	2.92
342.82	2.33
343.191	2.49
343.562	2.52
343.933	2.99
344.303	2.52
344.674	2.76
345.045	3.06
345.416	2.38
345.786	3.1
346.157	3.03
346.527	3.18
346.898	3.05
347.268	2.81
347.639	2.77
348.009	3.02
348.38	2.49
348.75	2.77
349.12	2.84
349.49	2.58
349.861	2.55
350.231	2.74
350.601	3.01
350.971	2.52
351.341	2.24
351.711	2.74
352.081	2.64
352.45	2.97
352.82	2.34
353.19	2.93
353.56	2.38
353.929	2.65
354.299	2.92
354.669	2.99
355.038	2.85
355.408	2.63
355.777	2.68
356.147	2.8
356.516	2.68
356.885	2.85
357.254	2.75
357.624	2.68
357.993	2.25
358.362	2.98
358.731	2.73
359.1	2.82
359.469	2.66
359.838	2.6
360.207	2.45
360.576	2.61
360.945	3
361.314	2.97
361.682	2.96
362.051	2.88
362.42	2.44
362.788	2.43
363.157	2.43
363.525	2.51
363.894	2.68
364.262	2.61
364.631	2.7
364.999	2.6
365.367	2.65
365.735	2.6
366.104	2.31
366.472	2.89
366.84	2.63
367.208	2.61
367.576	3.02
367.944	3.1
368.312	2.65
368.68	2.95
369.048	2.67
369.416	2.37
369.783	2.71
370.151	3.04
370.519	3.21
370.886	2.66
371.254	3.08
371.621	2.7
371.989	2.94
372.356	2.83
372.724	2.83
373.091	3.09
373.458	2.85
373.826	2.68
374.193	2.93
374.56	2.64
374.927	3.28
375.294	3.05
375.661	2.77
376.028	3.01
376.395	2.99
376.762	2.95
377.129	2.87
377.496	2.79
377.863	2.66
378.229	2.87
378.596	2.89
378.963	2.79
379.329	3
379.696	3.07
380.062	2.65
380.429	2.82
380.795	2.95
381.161	2.52
381.528	2.96
381.894	2.91
382.26	2.79
382.626	2.78
382.993	2.61
383.359	2.75
383.725	2.89
384.091	2.82
384.457	2.74
384.823	3.03
385.188	3
385.554	2.82
385.92	2.68
386.286	3.26
386.651	2.88
387.017	2.79
387.383	2.85
387.748	2.96
388.114	3.16
388.479	2.7
388.845	2.85
389.21	2.8
389.575	2.96
389.94	3.01
390.306	2.95
390.671	3.08
391.036	2.73
391.401	2.96
391.766	2.9
392.131	3.13
392.496	2.93
392.861	2.95
393.226	3.2
393.591	3.06
393.956	2.93
394.32	3.06
394.685	3.03
395.05	3.22
395.414	2.88
395.779	2.88
396.143	2.82
396.508	2.77
396.872	2.84
397.236	2.92
397.601	2.68
397.965	2.9
398.329	3.16
398.694	3
399.058	2.95
399.422	2.98
399.786	3.03
400.15	2.8
400.514	2.97
400.878	2.88
401.242	2.93
401.605	3.02
401.969	2.95
402.333	2.83
402.697	2.87
403.06	3.14
403.424	3
403.787	3.48
404.151	2.85
404.514	2.8
404.878	3.18
405.241	3.16
405.604	2.96
405.968	2.73
406.331	2.89
406.694	2.84
407.057	2.87
407.42	2.98
407.783	3.08
408.146	3.01
408.509	2.94
408.872	2.79
409.235	2.87
409.598	3.14
409.961	3.07
410.323	2.97
410.686	3.12
411.049	3.13
411.411	3.09
411.774	3.13
412.136	2.95
412.499	3.08
412.861	2.79
413.223	2.99
413.586	3.01
413.948	3.26
414.31	2.88
414.672	2.73
415.035	3.04
415.397	2.86
415.759	3.08
416.121	3.03
416.483	3.03
416.845	3.15
417.206	3.02
417.568	2.95
417.93	3.14
418.292	2.98
418.653	2.7
419.015	2.78
419.377	3.02
419.738	2.91
420.1	2.94
420.461	2.94
420.822	2.89
421.184	2.93
421.545	2.85
421.906	2.92
422.267	2.94
422.629	2.78
422.99	2.89
423.351	2.81
423.712	2.84
424.073	2.9
424.434	2.79
424.795	3.03
425.155	2.86
425.516	2.94
425.877	2.84
426.238	2.89
426.598	2.98
426.959	2.87
427.32	3.06
427.68	3.06
428.041	2.96
428.401	2.88
428.761	3.01
429.122	2.96
429.482	3.13
429.842	3.08
430.202	2.99
430.563	3.02
430.923	3.03
431.283	3.05
431.643	3.09
432.003	3.08
432.363	3.16
432.722	3.03
433.082	3
433.442	2.99
433.802	3.07
434.161	3.31
434.521	3.04
434.881	2.93
435.24	2.99
435.6	2.89
435.959	2.98
436.319	2.99
436.678	3.03
437.037	3.07
437.396	3.11
437.756	3.13
438.115	3.3
438.474	3.22
438.833	3.08
439.192	3.11
439.551	3.01
439.91	3.1
440.269	3.22
440.628	2.84
440.987	3.07
441.345	2.93
441.704	3.08
442.063	3.08
442.421	3.05
442.78	3.01
443.138	2.9
443.497	3.04
443.855	2.95
444.214	3.1
444.572	3.06
444.93	3.24
445.288	3.09
445.647	3.11
446.005	2.86
446.363	2.95
446.721	3
447.079	2.88
447.437	2.91
447.795	2.93
448.153	3.16
448.51	3.01
448.868	2.97
449.226	2.89
449.584	2.99
449.941	3.15
450.299	2.98
450.656	2.99
451.014	3.14
451.371	2.93
451.729	3.21
452.086	3.08
452.443	3.18
452.801	3.08
453.158	2.98
453.515	3
453.872	3.13
454.229	3.22
454.586	3.09
454.943	3.14
455.3	3.12
455.657	3.05
456.014	3.18
456.371	3.04
456.727	3.13
457.084	3.24
457.441	3.24
457.797	3.04
458.154	3.07
458.51	3.25
458.867	3.05
459.223	3.1
459.58	3.11
459.936	3.21
460.292	3.12
460.648	3.12
461.005	2.86
461.361	3.01
461.717	3.04
462.073	3.04
462.429	3.09
462.785	3.03
463.141	3.07
463.496	3.28
463.852	3.13
464.208	3.15
464.564	3.25
464.919	3.09
465.275	3.06
465.631	3
465.986	3.24
466.342	3.19
466.697	3.03
467.052	3.15
467.408	3.4
467.763	3.25
468.118	2.96
468.473	3.08
468.829	3.16
469.184	3.36
469.539	3.08
469.894	2.96
470.249	3.04
470.603	3.16
470.958	3.35
471.313	3.11
471.668	3.15
472.023	3.31
472.377	3.2
472.732	3.18
473.086	3.35
473.441	3.3
473.795	3.07
474.15	3.12
474.504	3.14
474.859	3.25
475.213	3.07
475.567	3.23
475.921	3.04
476.275	3.18
476.63	3.1
476.984	3.02
477.338	3.1
477.692	3.2
478.045	3.18
478.399	3.09
478.753	2.96
479.107	3.01
479.461	3.21
479.814	3.11
480.168	3.21
480.521	3.2
480.875	3.2
481.228	3.16
481.582	3.26
481.935	3.17
482.289	3.17
482.642	3.03
482.995	3.08
483.348	3.14
483.701	3.04
484.055	3.21
484.408	3.09
484.761	3.15
485.114	3
485.466	2.93
485.819	2.84
486.172	2.92
486.525	2.93
486.878	3.04
487.23	3.05
487.583	3.05
487.936	3.07
488.288	3.06
488.641	3.02
488.993	2.94
489.345	3
489.698	2.94
490.05	2.97
490.402	3.02
490.754	3.03
491.107	3.02
491.459	3.14
491.811	3.15
492.163	3.18
492.515	3.14
492.866	3.08
493.218	2.98
493.57	2.99
493.922	3.03
494.274	3.05
494.625	3.15
494.977	3.17
495.328	3.16
495.68	3.27
496.031	3.16
496.383	3.21
496.734	3.29
497.086	3.15
497.437	3.18
497.788	3.23
498.139	3.19
498.49	3.22
498.842	3.21
499.193	3.16
499.544	3.11
499.894	3.17
500.245	3.15
500.596	3.32
500.947	3.15
501.298	3.26
501.648	3.12
501.999	3.22
502.35	3.33
502.7	3.27
503.051	3.1
503.401	3.19
503.752	3.22
504.102	3.25
504.452	3.21
504.803	3.32
505.153	3.29
505.503	3.19
505.853	3.29
506.203	3.1
506.553	3.24
506.903	3.13
507.253	3.09
507.603	3.25
507.953	3.21
508.303	3.25
508.652	3.16
509.002	3.24
509.352	3.39
509.701	3.19
510.051	3.1
510.4	3.11
510.75	3.19
511.099	3.19
511.449	3.13
511.798	3.17
512.147	3.25
512.496	3.2
512.846	3.24
513.195	3.23
513.544	3.24
513.893	3.15
514.242	3.29
514.591	3.17
514.939	3.14
515.288	3.22
515.637	3.14
515.986	3.2
516.334	3.29
516.683	3.31
517.032	3.47
517.38	3.3
517.729	3.14
518.077	3.34
518.426	3.27
518.774	3.3
519.122	3.23
519.47	3.15
519.819	3.16
520.167	3.21
520.515	3.12
520.863	3.08
521.211	3.22
521.559	3.26
521.907	3.16
522.255	3.15
522.602	3.21
522.95	3.29
523.298	3.19
523.645	3.37
523.993	3.32
524.341	3.35
524.688	3.19
525.036	3.24
525.383	3.18
525.73	3.31
526.078	3.27
526.425	3.17
526.772	3.27
527.119	3.22
527.466	3.2
527.814	3.21
528.161	3.14
528.508	3.17
528.854	3.22
529.201	3.16
529.548	3.23
529.895	3.1
530.242	3.05
530.588	3.02
530.935	3.06
531.282	3.09
531.628	3.14
531.975	3.17
532.321	3.17
532.667	3.15
533.014	3.1
533.36	3.18
533.706	3.29
534.052	3.22
534.399	3.26
534.745	3.21
535.091	3.1
535.437	3.08
535.783	3.11
536.129	3.2
536.474	3.26
536.82	3.28
537.166	3.23
537.512	3.25
537.857	3.25
538.203	3.26
538.549	3.27
538.894	3.21
539.239	3.3
539.585	3.28
539.93	3.18
540.276	3.32
540.621	3.35
540.966	3.46
541.311	3.24
541.656	3.35
542.001	3.39
542.346	3.32
542.691	3.23
543.036	3.16
543.381	3.06
543.726	3.14
544.071	3.16
544.415	3.22
544.76	3.24
545.105	3.21
545.449	3.21
545.794	3.26
546.138	3.27
546.483	3.2
546.827	3.38
547.171	3.24
547.516	3.26
547.86	3.36
548.204	3.29
548.548	3.16
548.892	3.26
549.236	3.32
549.58	3.43
549.924	3.42
550.268	3.3
550.612	3.29
550.956	3.32
551.3	3.34
551.643	3.43
551.987	3.45
552.33	3.48
552.674	3.36
553.017	3.42
553.361	3.23
553.704	3.32
554.048	3.36
554.391	3.34
554.734	3.25
555.077	3.46
555.42	3.53
555.764	3.42
556.107	3.55
556.45	3.47
556.793	3.23
557.135	3.54
557.478	3.41
557.821	3.3
558.164	3.54
558.507	3.23
558.849	3.29
559.192	3.37
559.534	3.38
559.877	3.5
560.219	3.37
560.562	3.55
560.904	3.41
561.246	3.32
561.589	3.33
561.931	3.47
562.273	3.39
562.615	3.32
562.957	3.47
563.299	3.51
563.641	3.25
563.983	3.65
564.325	3.7
564.667	3.61
565.008	3.49
565.35	3.54
565.692	3.41
566.033	3.34
566.375	3.64
566.716	3.53
567.058	3.27
567.399	3.48
567.741	3.32
568.082	3.42
568.423	3.43
568.764	3.38
569.105	3.5
569.447	3.42
569.788	3.35
570.129	3.41
570.47	3.27
570.811	3.26
571.151	3.58
571.492	3.42
571.833	3.44
572.174	3.54
572.514	3.4
572.855	3.32
573.195	3.49
573.536	3.45
573.876	3.45
574.217	3.48
574.557	3.3
574.898	3.53
575.238	3.56
575.578	3.57
575.918	3.54
576.258	3.39
576.598	3.63
576.938	3.6
577.278	3.41
577.618	3.45
577.958	3.48
578.298	3.6
578.638	3.65
578.977	3.55
579.317	3.53
579.657	3.42
579.996	3.35
580.336	3.63
580.675	3.56
581.014	3.66
581.354	3.4
581.693	3.71
582.032	3.36
582.372	3.54
582.711	3.43
583.05	3.41
583.389	3.5
583.728	3.56
584.067	3.57
584.406	3.33
584.745	3.37
585.083	3.5
585.422	3.48
585.761	3.58
586.1	3.52
586.438	3.39
586.777	3.68
587.115	3.3
587.454	3.49
587.792	3.57
588.13	3.52
588.469	3.49
588.807	3.52
589.145	3.83
589.483	3.5
589.821	3.31
590.159	3.69
590.497	3.49
590.835	3.56
591.173	3.36
591.511	3.77
591.849	3.47
592.187	3.39
592.524	3.55
592.862	3.59
593.2	3.35
593.537	3.27
593.875	3.69
594.212	3.49
594.55	3.3
594.887	3.56
595.224	3.75
595.561	3.39
595.899	3.12
596.236	3.61
596.573	3.48
596.91	3.36
597.247	3.59
597.584	3.28
597.921	3.52
598.258	3.52
598.594	3.48
598.931	3.57
599.268	3.44
599.604	3.56
599.941	3.7
600.277	3.62
600.614	3.78
600.95	3.59
601.287	3.57
601.623	3.63
601.959	3.77
602.296	3.61
602.632	3.55
602.968	3.57
603.304	3.58
603.64	3.65
603.976	3.66
604.312	3.64
604.648	3.46
604.984	3.57
605.319	3.4
605.655	3.57
605.991	3.35
606.326	3.54
606.662	3.51
606.998	3.46
607.333	3.53
607.668	3.59
608.004	3.31
608.339	3.72
608.674	3.75
609.01	3.49
609.345	3.62
609.68	3.55
610.015	3.55
610.35	3.55
610.685	3.32
611.02	3.56
611.355	3.63
611.689	3.57
612.024	3.47
612.359	3.52
612.694	3.6
613.028	3.55
613.363	3.48
613.697	3.62
614.032	3.82
614.366	3.7
614.7	3.7
615.035	3.81
615.369	3.79
615.703	3.68
616.037	3.66
616.371	3.62
616.705	3.91
617.039	3.78
617.373	3.42
617.707	3.7
618.041	3.61
618.375	3.82
618.709	3.39
619.042	3.35
619.376	3.81
619.71	3.59
620.043	3.53
620.377	3.74
620.71	3.66
621.043	3.88
621.377	3.37
621.71	3.68
622.043	3.78
622.376	3.63
622.709	4.03
623.043	3.86
623.376	3.72
623.709	3.71
624.041	3.29
624.374	3.48
624.707	3.39
625.04	4.19
625.373	3.48
625.705	3.79
626.038	3.84
626.37	3.76
626.703	4.02
627.035	3.54
627.368	3.63
627.7	3.69
628.032	3.66
628.365	3.93
628.697	3.6
629.029	3.65
629.361	3.26
629.693	3.46
630.025	3.53
630.357	3.38
630.689	3.35
631.021	3.61
631.353	3.77
631.684	3.77
632.016	3.86
632.348	4.26
632.679	4.16
633.011	3.61
633.342	3.69
633.674	3.88
634.005	3.89
634.336	4.02
634.668	3.83
634.999	3.94
635.33	3.72
635.661	3.42
635.992	3.53
636.323	3.62
636.654	3.94
636.985	3.65
637.316	3.77
637.647	3.8
637.977	3.99
638.308	3.71
638.639	3.76
638.969	3.68
639.3	3.62
639.63	3.77
639.961	3.52
640.291	4.16
640.622	3.58
640.952	4.13
641.282	3.75
641.612	3.93
641.943	3.87
642.273	3.61
642.603	4.07
642.933	3.62
643.263	3.58
643.592	3.6
643.922	3.46
644.252	3.46
644.582	3.91
644.911	3.94
645.241	3.35
645.571	3.94
645.9	3.6
646.23	3.59
646.559	3.68
646.888	3.31
647.218	4.02
647.547	3.59
647.876	3.88
648.205	3.73
648.534	3.33
648.863	3.7
649.192	3.84
649.521	3.59
649.85	3.88
650.179	3.92
650.508	4.02
650.837	3.61
651.165	4.1
651.494	4.41
651.822	3.75
652.151	4.25
652.479	3.68
652.808	3.82
653.136	3.7
653.465	3.98
653.793	4.48
654.121	3.66
654.449	3.74
654.777	3.99
655.105	3.54
655.433	3.54
655.761	4.04
656.089	3.87
656.417	3.7
656.745	4.5
657.073	3.89
657.4	3.82
657.728	3.95
658.056	4.29
658.383	3.83
658.711	3.85
659.038	3.7
659.365	3.84
659.693	4.05
660.02	3.73
660.347	4.04
660.674	3.83
661.001	3.68
661.329	4.01
661.656	3.76
661.982	3.56
662.309	3.89
662.636	3.72
662.963	4.16
663.29	3.66
663.616	3.13
663.943	3.2
664.27	4.14
664.596	4.58
664.923	4.2
665.249	4.61
665.576	3.67
665.902	3.38
666.228	3.83
666.554	4.32
666.881	2.91
667.207	4.22
667.533	4.06
667.859	3.78
668.185	4.39
668.511	4.04
668.837	4.76
669.162	4.1
669.488	4.07
669.814	3.48
670.139	3.38
670.465	4.26
670.791	4.02
671.116	4.35
671.442	4.38
671.767	4.13
672.092	4.52
672.418	4.26
672.743	3.51
673.068	3.49
673.393	3.8
673.718	3.97
674.043	4.27
674.368	4.5
674.693	3.99
675.018	4.43
675.343	3.85
675.667	4.11
675.992	4.27
676.317	3.73
676.641	4.72
676.966	4.46
677.29	3.76
677.615	4.92
677.939	3.57
678.264	3.75
678.588	4.65
678.912	3.76
679.236	3.81
679.56	3.7
679.885	3.82
680.209	3.62
680.532	4.58
680.856	4.87
681.18	3.81
681.504	3.99
681.828	3.86
682.152	3.44
682.475	4.13
682.799	4.49
683.122	3.7
683.446	3.4
683.769	3.7
684.093	3.94
684.416	4.31
684.739	4.23
685.062	4.04
685.386	4.2
685.709	4.25
686.032	4.49
686.355	3.94
686.678	4.37
687.001	4.7
687.324	3.52
687.646	3.47
687.969	4.42
688.292	5.17
688.614	4.87
688.937	4.21
689.26	4.26
689.582	4.28
689.904	3.86
690.227	4.35
690.549	4.36
690.871	4.04
691.194	4.05
691.516	3.93
691.838	3.68
692.16	4.79
692.482	4.75
692.804	3.71
