Data from 0362_crown_Reflection__2__23.txt Node

Date: Mon Dec 11 17:51:51 CST 2023
User: ToomeyLab
Spectrometer: FLMS14357
Trigger mode: 0
Integration Time (sec): 1.000000E-2
Scans to average: 100
Electric dark correction enabled: true
Nonlinearity correction enabled: false
Boxcar width: 0
XAxis mode: Wavelengths
Number of Pixels in Spectrum: 2048
>>>>>Begin Spectral Data<<<<<
189.047	-289.66
189.435	-289.66
189.823	-289.66
190.211	70.76
190.599	54
190.987	7.34
191.375	94.93
191.763	254.33
192.151	-3068.75
192.538	70.04
192.926	-321.87
193.314	341.5
193.702	-901.16
194.089	-79.76
194.477	17.3
194.864	218.13
195.252	-721.77
195.639	68.95
196.027	864.93
196.414	-384.97
196.801	429.54
197.189	225.75
197.576	40.33
197.963	-22.12
198.351	-33.55
198.738	0.12
199.125	-12.99
199.512	27.55
199.899	24.17
200.286	-0.19
200.673	-85.96
201.06	-1.27
201.447	0.5
201.833	42.33
202.22	31.37
202.607	-0.09
202.994	-19.27
203.38	-28.59
203.767	63.85
204.154	42.72
204.54	-15.57
204.927	-26.51
205.313	-5.31
205.699	-26.77
206.086	-16.13
206.472	3.89
206.858	22.14
207.245	16.02
207.631	6.71
208.017	26.63
208.403	32.04
208.789	-1.43
209.175	8.08
209.561	5.64
209.947	3.64
210.333	28.06
210.719	36.03
211.105	22.31
211.491	11.77
211.876	17.29
212.262	-2.91
212.648	4.87
213.034	-12.77
213.419	-14.93
213.805	13.13
214.19	4.08
214.576	-30.38
214.961	13.13
215.346	5.73
215.732	-0.2
216.117	15.12
216.502	8
216.888	10.61
217.273	24.75
217.658	-4.88
218.043	-11.77
218.428	-8.32
218.813	16.87
219.198	-6.54
219.583	12.07
219.968	5.1
220.353	3.74
220.738	31.67
221.122	15.46
221.507	24.66
221.892	9.13
222.276	0.25
222.661	9.98
223.046	7.54
223.43	9.61
223.815	-4.92
224.199	5.42
224.583	-2.46
224.968	12.36
225.352	6.57
225.736	7.52
226.121	0.56
226.505	7.93
226.889	6.27
227.273	5.44
227.657	11.16
228.041	3.26
228.425	0.67
228.809	3.41
229.193	6.72
229.577	7.18
229.961	4.5
230.344	5.47
230.728	4.59
231.112	5.21
231.495	5.78
231.879	5.16
232.263	4.69
232.646	3.96
233.03	4.88
233.413	5.68
233.797	7.32
234.18	5.45
234.563	5.2
234.946	5.56
235.33	6.29
235.713	5.17
236.096	5.28
236.479	6.68
236.862	4.05
237.245	4.06
237.628	5.74
238.011	4.42
238.394	4.77
238.777	6.56
239.16	4.73
239.543	5.85
239.925	5.18
240.308	5.28
240.691	3.8
241.073	5.5
241.456	7.18
241.838	6.89
242.221	5.04
242.603	4.39
242.986	4.78
243.368	4.67
243.75	4.76
244.133	5.38
244.515	4.41
244.897	4.65
245.279	5.16
245.661	5.11
246.043	5.1
246.425	5.8
246.807	5.01
247.189	5.5
247.571	5.36
247.953	4.1
248.335	4.8
248.717	5.04
249.098	4.71
249.48	4.44
249.862	4.96
250.243	5.05
250.625	4.52
251.006	4.31
251.388	4.22
251.769	5.16
252.151	5.3
252.532	4.75
252.913	5.21
253.295	4.15
253.676	4.88
254.057	4.57
254.438	5.1
254.819	4.5
255.2	3.42
255.581	4.25
255.962	3.9
256.343	3.67
256.724	4.75
257.105	4.33
257.486	4.17
257.867	4.79
258.247	3.55
258.628	3.96
259.009	5.6
259.389	5.11
259.77	4.62
260.15	4.13
260.531	4.28
260.911	4
261.292	4.22
261.672	4.28
262.052	4.42
262.432	4.34
262.813	4.54
263.193	4.52
263.573	5
263.953	4.48
264.333	3.6
264.713	4.71
265.093	4.2
265.473	4.94
265.853	4.95
266.233	5.01
266.612	4.54
266.992	5.75
267.372	5
267.752	4.95
268.131	4.08
268.511	4.1
268.89	4.42
269.27	5.16
269.649	4.7
270.029	5.09
270.408	4.35
270.787	4.11
271.167	3.94
271.546	3.91
271.925	4.73
272.304	4.1
272.683	4.03
273.062	3.62
273.441	4.46
273.82	4.34
274.199	4.23
274.578	4.26
274.957	4.72
275.336	4.52
275.715	3.78
276.093	4.8
276.472	4.28
276.851	4.42
277.229	4.46
277.608	4.17
277.986	4.44
278.365	3.82
278.743	4.13
279.122	4.38
279.5	4.91
279.878	4.13
280.257	4.03
280.635	4.35
281.013	3.37
281.391	4.11
281.769	3.87
282.147	3.65
282.525	3.9
282.903	4.46
283.281	3.85
283.659	4.27
284.037	4.09
284.415	3.76
284.792	4.44
285.17	4.2
285.548	4.14
285.925	4.04
286.303	4.13
286.68	4.06
287.058	4.48
287.435	4.09
287.813	4.2
288.19	3.9
288.567	3.83
288.945	4.18
289.322	3.84
289.699	4.22
290.076	4.03
290.453	4.09
290.83	4.65
291.207	4.29
291.584	3.94
291.961	4.1
292.338	4.12
292.715	4.7
293.092	4.18
293.469	4.55
293.845	4.23
294.222	4.44
294.599	3.73
294.975	3.96
295.352	4.14
295.728	3.76
296.105	4.25
296.481	3.84
296.858	4.09
297.234	4.48
297.61	4.1
297.986	4.22
298.363	4.13
298.739	4.18
299.115	4.06
299.491	4.31
299.867	4.23
300.243	4.29
300.619	4.49
300.995	4.01
301.371	4.04
301.746	3.94
302.122	4.3
302.498	4.44
302.874	4.67
303.249	4.2
303.625	4.54
304	4.46
304.376	4.68
304.751	4.03
305.127	4.18
305.502	4.46
305.878	4.2
306.253	4.52
306.628	4.18
307.003	4.32
307.378	3.95
307.754	4.42
308.129	4.13
308.504	4.36
308.879	4.19
309.254	4.52
309.629	4.55
310.003	4.56
310.378	3.99
310.753	4.54
311.128	4.33
311.502	4.03
311.877	4.02
312.252	4.6
312.626	4.14
313.001	4.71
313.375	4.1
313.75	3.91
314.124	4.28
314.498	4.1
314.873	4.39
315.247	4.11
315.621	4.86
315.995	4.5
316.369	4.39
316.743	4.86
317.117	4.23
317.491	4.84
317.865	4.18
318.239	4.65
318.613	4.59
318.987	4.1
319.361	4.2
319.734	4.07
320.108	4.48
320.482	4.67
320.855	3.87
321.229	4.95
321.602	4.36
321.976	4.8
322.349	4.26
322.723	4.45
323.096	4.98
323.469	4.46
323.843	4.36
324.216	4.74
324.589	4.73
324.962	4.19
325.335	4.85
325.708	4.36
326.081	4.57
326.454	4.63
326.827	4.47
327.2	4.27
327.573	4.04
327.945	4.65
328.318	4.41
328.691	4.32
329.063	4.23
329.436	4.2
329.809	4.27
330.181	4.52
330.553	4.56
330.926	4.34
331.298	4.84
331.671	4.64
332.043	4.97
332.415	4.37
332.787	4.99
333.159	4.06
333.532	4.45
333.904	4.56
334.276	4.84
334.648	4.8
335.02	4.5
335.391	4.58
335.763	4.34
336.135	4.65
336.507	4.85
336.879	4.59
337.25	4.27
337.622	4.58
337.993	4.72
338.365	4.17
338.736	4.15
339.108	4.58
339.479	4.14
339.851	4.43
340.222	4.53
340.593	3.91
340.964	4.69
341.336	4.18
341.707	4.22
342.078	5.06
342.449	4.56
342.82	4.3
343.191	4.52
343.562	4.38
343.933	4.36
344.303	4.05
344.674	4.46
345.045	4.46
345.416	4.35
345.786	4.8
346.157	4.64
346.527	4.47
346.898	4.95
347.268	4.51
347.639	4.63
348.009	4.69
348.38	4.31
348.75	4.24
349.12	4.67
349.49	4.27
349.861	3.91
350.231	4.37
350.601	4.78
350.971	4.23
351.341	4.14
351.711	4.51
352.081	4.1
352.45	4.91
352.82	4.08
353.19	4.58
353.56	4.29
353.929	4.77
354.299	4.61
354.669	4.58
355.038	4.49
355.408	4.04
355.777	4.3
356.147	4.66
356.516	4.42
356.885	4.12
357.254	4.35
357.624	4.51
357.993	4.26
358.362	4.61
358.731	4.49
359.1	4.46
359.469	4.55
359.838	4.63
360.207	4.37
360.576	4.45
360.945	4.55
361.314	4.54
361.682	4.34
362.051	4.76
362.42	4.41
362.788	4.28
363.157	4.35
363.525	4.22
363.894	4.44
364.262	4.51
364.631	4.57
364.999	4.58
365.367	4.52
365.735	4.56
366.104	4.26
366.472	4.66
366.84	4.61
367.208	4.12
367.576	4.7
367.944	4.68
368.312	4.43
368.68	4.33
369.048	4.27
369.416	4.32
369.783	4.08
370.151	4.94
370.519	4.87
370.886	4.37
371.254	4.78
371.621	4.5
371.989	4.45
372.356	4.7
372.724	4.89
373.091	4.78
373.458	4.49
373.826	4.53
374.193	4.56
374.56	4.63
374.927	4.61
375.294	4.77
375.661	4.66
376.028	4.58
376.395	4.59
376.762	4.53
377.129	4.92
377.496	4.46
377.863	4.57
378.229	4.68
378.596	4.66
378.963	4.8
379.329	4.53
379.696	4.76
380.062	4.26
380.429	4.76
380.795	5.02
381.161	4.43
381.528	4.71
381.894	4.76
382.26	4.56
382.626	4.6
382.993	4.79
383.359	4.53
383.725	4.52
384.091	4.58
384.457	4.38
384.823	5.13
385.188	4.51
385.554	4.41
385.92	4.12
386.286	4.7
386.651	4.53
387.017	4.51
387.383	4.55
387.748	4.54
388.114	4.66
388.479	4.63
388.845	4.45
389.21	4.53
389.575	4.73
389.94	4.48
390.306	4.77
390.671	4.82
391.036	4.63
391.401	4.64
391.766	4.62
392.131	4.74
392.496	4.44
392.861	4.91
393.226	4.72
393.591	4.61
393.956	4.45
394.32	4.6
394.685	4.75
395.05	4.74
395.414	4.88
395.779	4.61
396.143	4.47
396.508	4.51
396.872	4.5
397.236	4.54
397.601	4.57
397.965	4.48
398.329	4.61
398.694	4.5
399.058	4.64
399.422	4.57
399.786	4.57
400.15	4.72
400.514	4.68
400.878	4.69
401.242	4.54
401.605	4.9
401.969	4.53
402.333	4.59
402.697	4.78
403.06	4.68
403.424	4.64
403.787	4.73
404.151	4.55
404.514	4.44
404.878	4.65
405.241	4.66
405.604	4.58
405.968	4.55
406.331	4.4
406.694	4.57
407.057	4.8
407.42	4.91
407.783	4.64
408.146	4.7
408.509	4.61
408.872	4.57
409.235	4.57
409.598	4.69
409.961	4.65
410.323	4.6
410.686	4.75
411.049	4.69
411.411	4.48
411.774	4.81
412.136	4.73
412.499	4.75
412.861	4.43
413.223	4.52
413.586	4.65
413.948	4.77
414.31	4.63
414.672	4.5
415.035	4.7
415.397	4.54
415.759	4.68
416.121	4.72
416.483	4.94
416.845	4.71
417.206	4.66
417.568	4.86
417.93	4.9
418.292	4.5
418.653	4.57
419.015	4.63
419.377	4.64
419.738	4.54
420.1	4.57
420.461	4.68
420.822	4.53
421.184	4.6
421.545	4.55
421.906	4.62
422.267	4.67
422.629	4.65
422.99	4.59
423.351	4.45
423.712	4.49
424.073	4.58
424.434	4.51
424.795	4.63
425.155	4.64
425.516	4.49
425.877	4.4
426.238	4.53
426.598	4.58
426.959	4.58
427.32	4.61
427.68	4.64
428.041	4.42
428.401	4.56
428.761	4.67
429.122	4.52
429.482	4.8
429.842	4.65
430.202	4.67
430.563	4.6
430.923	4.65
431.283	4.68
431.643	4.59
432.003	4.79
432.363	4.8
432.722	4.67
433.082	4.67
433.442	4.81
433.802	4.64
434.161	4.86
434.521	4.49
434.881	4.57
435.24	4.59
435.6	4.53
435.959	4.57
436.319	4.58
436.678	4.64
437.037	4.59
437.396	4.79
437.756	4.77
438.115	4.87
438.474	4.82
438.833	4.64
439.192	4.64
439.551	4.65
439.91	4.7
440.269	4.8
440.628	4.61
440.987	4.95
441.345	4.65
441.704	4.56
442.063	4.57
442.421	4.58
442.78	4.69
443.138	4.66
443.497	4.61
443.855	4.53
444.214	4.7
444.572	4.7
444.93	4.73
445.288	4.8
445.647	4.86
446.005	4.5
446.363	4.66
446.721	4.65
447.079	4.56
447.437	4.7
447.795	4.54
448.153	4.61
448.51	4.57
448.868	4.44
449.226	4.5
449.584	4.63
449.941	4.7
450.299	4.59
450.656	4.59
451.014	4.76
451.371	4.7
451.729	4.84
452.086	4.72
452.443	4.81
452.801	4.82
453.158	4.71
453.515	4.6
453.872	4.65
454.229	4.69
454.586	4.7
454.943	4.6
455.3	4.64
455.657	4.8
456.014	4.64
456.371	4.71
456.727	4.71
457.084	4.73
457.441	5.06
457.797	4.63
458.154	4.83
458.51	4.91
458.867	4.55
459.223	4.63
459.58	4.51
459.936	4.87
460.292	4.79
460.648	4.6
461.005	4.69
461.361	4.59
461.717	4.48
462.073	4.54
462.429	4.67
462.785	4.61
463.141	4.7
463.496	4.83
463.852	4.64
464.208	4.71
464.564	4.73
464.919	4.77
465.275	4.7
465.631	4.61
465.986	4.84
466.342	4.75
466.697	4.69
467.052	4.72
467.408	4.85
467.763	4.77
468.118	4.49
468.473	4.55
468.829	4.8
469.184	4.89
469.539	4.75
469.894	4.42
470.249	4.67
470.603	4.66
470.958	4.79
471.313	4.66
471.668	4.77
472.023	4.78
472.377	4.63
472.732	4.71
473.086	4.91
473.441	4.77
473.795	4.84
474.15	4.58
474.504	4.58
474.859	4.69
475.213	4.7
475.567	4.71
475.921	4.7
476.275	4.73
476.63	4.8
476.984	4.74
477.338	4.69
477.692	4.77
478.045	4.64
478.399	4.64
478.753	4.57
479.107	4.62
479.461	4.71
479.814	4.56
480.168	4.79
480.521	4.81
480.875	4.77
481.228	4.67
481.582	4.83
481.935	4.7
482.289	4.74
482.642	4.85
482.995	4.71
483.348	4.77
483.701	4.4
484.055	4.66
484.408	4.67
484.761	4.61
485.114	4.56
485.466	4.43
485.819	4.36
486.172	4.36
486.525	4.43
486.878	4.45
487.23	4.53
487.583	4.58
487.936	4.63
488.288	4.58
488.641	4.55
488.993	4.47
489.345	4.49
489.698	4.47
490.05	4.46
490.402	4.43
490.754	4.56
491.107	4.58
491.459	4.56
491.811	4.68
492.163	4.75
492.515	4.7
492.866	4.66
493.218	4.51
493.57	4.42
493.922	4.43
494.274	4.55
494.625	4.68
494.977	4.7
495.328	4.71
495.68	4.77
496.031	4.71
496.383	4.7
496.734	4.74
497.086	4.76
497.437	4.78
497.788	4.81
498.139	4.71
498.49	4.73
498.842	4.76
499.193	4.67
499.544	4.71
499.894	4.76
500.245	4.69
500.596	4.82
500.947	4.78
501.298	4.77
501.648	4.75
501.999	4.75
502.35	4.71
502.7	4.86
503.051	4.7
503.401	4.86
503.752	4.71
504.102	4.69
504.452	4.75
504.803	4.88
505.153	4.81
505.503	4.84
505.853	4.82
506.203	4.66
506.553	4.73
506.903	4.68
507.253	4.68
507.603	4.62
507.953	4.8
508.303	4.86
508.652	4.78
509.002	4.64
509.352	4.92
509.701	4.72
510.051	4.67
510.4	4.65
510.75	4.72
511.099	4.66
511.449	4.78
511.798	4.77
512.147	4.86
512.496	4.82
512.846	4.85
513.195	4.85
513.544	4.82
513.893	4.68
514.242	4.85
514.591	4.73
514.939	4.71
515.288	4.74
515.637	4.72
515.986	4.77
516.334	4.78
516.683	4.85
517.032	4.93
517.38	4.78
517.729	4.82
518.077	4.69
518.426	4.81
518.774	4.79
519.122	4.78
519.47	4.68
519.819	4.62
520.167	4.73
520.515	4.58
520.863	4.62
521.211	4.68
521.559	4.7
521.907	4.73
522.255	4.74
522.602	4.7
522.95	4.76
523.298	4.69
523.645	4.89
523.993	4.78
524.341	4.79
524.688	4.78
525.036	4.83
525.383	4.88
525.73	4.78
526.078	4.86
526.425	4.71
526.772	4.84
527.119	4.7
527.466	4.74
527.814	4.66
528.161	4.63
528.508	4.65
528.854	4.71
529.201	4.74
529.548	4.67
529.895	4.55
530.242	4.54
530.588	4.46
530.935	4.54
531.282	4.51
531.628	4.57
531.975	4.65
532.321	4.64
532.667	4.64
533.014	4.69
533.36	4.7
533.706	4.75
534.052	4.71
534.399	4.76
534.745	4.69
535.091	4.56
535.437	4.57
535.783	4.54
536.129	4.71
536.474	4.73
536.82	4.67
537.166	4.7
537.512	4.77
537.857	4.8
538.203	4.68
538.549	4.73
538.894	4.67
539.239	4.77
539.585	4.85
539.93	4.78
540.276	4.7
540.621	4.75
540.966	4.91
541.311	4.75
541.656	4.81
542.001	4.91
542.346	4.83
542.691	4.72
543.036	4.6
543.381	4.52
543.726	4.57
544.071	4.59
544.415	4.63
544.76	4.72
545.105	4.67
545.449	4.65
545.794	4.73
546.138	4.78
546.483	4.8
546.827	4.87
547.171	4.77
547.516	4.66
547.86	4.75
548.204	4.79
548.548	4.67
548.892	4.83
549.236	4.74
549.58	4.81
549.924	4.9
550.268	4.77
550.612	4.86
550.956	4.81
551.3	4.87
551.643	4.89
551.987	5
552.33	4.88
552.674	4.95
553.017	4.76
553.361	4.71
553.704	4.95
554.048	4.88
554.391	4.78
554.734	4.8
555.077	4.9
555.42	4.94
555.764	4.82
556.107	5.06
556.45	4.85
556.793	4.89
557.135	4.94
557.478	4.89
557.821	4.94
558.164	4.97
558.507	4.86
558.849	4.96
559.192	4.87
559.534	4.84
559.877	4.87
560.219	4.8
560.562	4.97
560.904	4.94
561.246	4.85
561.589	4.83
561.931	5.05
562.273	4.84
562.615	4.79
562.957	5.01
563.299	5.05
563.641	4.82
563.983	5.07
564.325	5.03
564.667	4.91
565.008	5
565.35	5.19
565.692	4.93
566.033	5.01
566.375	5.1
566.716	5.05
567.058	4.93
567.399	4.98
567.741	4.84
568.082	4.96
568.423	4.83
568.764	4.83
569.105	4.98
569.447	4.97
569.788	4.83
570.129	5.03
570.47	4.85
570.811	4.69
571.151	4.94
571.492	4.94
571.833	4.87
572.174	5
572.514	5.06
572.855	4.85
573.195	4.93
573.536	4.81
573.876	4.93
574.217	4.97
574.557	4.88
574.898	4.95
575.238	5.04
575.578	4.89
575.918	5
576.258	4.96
576.598	5.14
576.938	5.04
577.278	4.79
577.618	4.89
577.958	4.93
578.298	5.13
578.638	4.95
578.977	5.01
579.317	4.92
579.657	4.85
579.996	4.83
580.336	5.02
580.675	5.11
581.014	5.18
581.354	4.94
581.693	5.12
582.032	4.68
582.372	5.07
582.711	4.97
583.05	5.12
583.389	5.08
583.728	5.13
584.067	4.68
584.406	4.86
584.745	5.1
585.083	5.18
585.422	5.07
585.761	5.07
586.1	4.93
586.438	4.84
586.777	4.92
587.115	4.89
587.454	5
587.792	4.95
588.13	5.32
588.469	4.95
588.807	5.22
589.145	5.27
589.483	5.14
589.821	4.91
590.159	5.08
590.497	4.98
590.835	4.87
591.173	5.07
591.511	5.27
591.849	5.09
592.187	4.89
592.524	5.07
592.862	5.22
593.2	5.05
593.537	4.81
593.875	4.93
594.212	5.13
594.55	5.1
594.887	5.23
595.224	5.09
595.561	5.04
595.899	4.89
596.236	5.08
596.573	5.05
596.91	5.04
597.247	5.02
597.584	4.83
597.921	4.76
598.258	4.88
598.594	5.03
598.931	5.03
599.268	4.98
599.604	5.07
599.941	5.23
600.277	4.98
600.614	5.23
600.95	5.15
601.287	5.31
601.623	5.11
601.959	5.2
602.296	5.13
602.632	4.85
602.968	5.25
603.304	5.25
603.64	5.08
603.976	5.11
604.312	5.16
604.648	5.12
604.984	5.28
605.319	5.01
605.655	4.95
605.991	5
606.326	5.21
606.662	5.04
606.998	4.86
607.333	5.09
607.668	5.15
608.004	5.01
608.339	5.33
608.674	5.14
609.01	4.81
609.345	5.07
609.68	5.18
610.015	5.08
610.35	5.18
610.685	4.86
611.02	4.96
611.355	5.19
611.689	5.33
612.024	4.97
612.359	5.01
612.694	5.05
613.028	5.09
613.363	4.99
613.697	4.81
614.032	5.09
614.366	5.19
614.7	5.2
615.035	4.94
615.369	5.22
615.703	5.15
616.037	5.36
616.371	5.42
616.705	5.47
617.039	5.12
617.373	5.18
617.707	5.2
618.041	5.1
618.375	5.25
618.709	4.96
619.042	5.29
619.376	5.71
619.71	4.99
620.043	4.95
620.377	5
620.71	4.96
621.043	5.01
621.377	4.76
621.71	5.2
622.043	4.81
622.376	5.36
622.709	5.14
623.043	5.49
623.376	5.09
623.709	5.28
624.041	5.08
624.374	5.06
624.707	5.2
625.04	5.62
625.373	5.51
625.705	5.07
626.038	5.01
626.37	5.22
626.703	5.65
627.035	5.1
627.368	5.14
627.7	5.09
628.032	5.31
628.365	5.15
628.697	5.25
629.029	5.43
629.361	4.95
629.693	5.21
630.025	5.02
630.357	5.15
630.689	4.69
631.021	5.12
631.353	4.98
631.684	5.34
632.016	5.39
632.348	5.64
632.679	5.4
633.011	5.27
633.342	5.35
633.674	5.53
634.005	5.45
634.336	5.58
634.668	4.91
634.999	5.57
635.33	5.26
635.661	5.14
635.992	5.43
636.323	5.41
636.654	5.73
636.985	5.15
637.316	5.3
637.647	5.34
637.977	5.41
638.308	5.03
638.639	5.35
638.969	5.08
639.3	5.35
639.63	5.4
639.961	5.1
640.291	5.44
640.622	5.69
640.952	5.52
641.282	5.08
641.612	5.76
641.943	5.36
642.273	5.45
642.603	5.71
642.933	5.39
643.263	5.4
643.592	5.32
643.922	5.45
644.252	4.88
644.582	4.96
644.911	5.44
645.241	4.79
645.571	5.32
645.9	5.06
646.23	5.63
646.559	4.91
646.888	5.22
647.218	5.74
647.547	5.09
647.876	5.17
648.205	5.34
648.534	5.09
648.863	5.73
649.192	5.53
649.521	5.47
649.85	5.19
650.179	5.08
650.508	5.66
650.837	4.9
651.165	5.81
651.494	5.09
651.822	5.2
652.151	5.57
652.479	5.04
652.808	5.73
653.136	5.29
653.465	5.47
653.793	5.76
654.121	5.47
654.449	5.63
654.777	5.84
655.105	5.38
655.433	5.54
655.761	5.77
656.089	5.02
656.417	5.4
656.745	5.52
657.073	5.29
657.4	5.66
657.728	5.04
658.056	6.17
658.383	5.52
658.711	5.88
659.038	5.76
659.365	5.45
659.693	5.63
660.02	5.3
660.347	5.88
660.674	5.5
661.001	5.12
661.329	5.44
661.656	5.23
661.982	5.23
662.309	5.75
662.636	5.61
662.963	5.93
663.29	5.31
663.616	4.86
663.943	5.08
664.27	5.35
664.596	5.65
664.923	5.09
665.249	5.55
665.576	5.38
665.902	4.99
666.228	5.37
666.554	5.87
666.881	5.61
667.207	6.07
667.533	5.36
667.859	5.75
668.185	5.81
668.511	6.12
668.837	5.72
669.162	6.01
669.488	6.2
669.814	5.4
670.139	5.36
670.465	5.86
670.791	5.44
671.116	6.43
671.442	6.03
671.767	5.98
672.092	5.54
672.418	5.5
672.743	4.91
673.068	4.51
673.393	5.53
673.718	5.79
674.043	6.08
674.368	5.51
674.693	4.99
675.018	5.95
675.343	5.3
675.667	5.51
675.992	5.92
676.317	5.55
676.641	6.14
676.966	6.11
677.29	5.46
677.615	5.9
677.939	4.98
678.264	5.89
678.588	6.14
678.912	5.78
679.236	5.61
679.56	6.09
679.885	5.72
680.209	6.41
680.532	5.44
680.856	6.7
681.18	5.94
681.504	5.32
681.828	5.44
682.152	5.46
682.475	6.03
682.799	6.05
683.122	5.84
683.446	5.5
683.769	5.92
684.093	5.64
684.416	5.98
684.739	6.44
685.062	5.95
685.386	6.21
685.709	5.76
686.032	5.89
686.355	5.33
686.678	5.52
687.001	6.16
687.324	4.87
687.646	5.21
687.969	5.59
688.292	6.56
688.614	6
688.937	5.59
689.26	5.66
689.582	5.57
689.904	5.9
690.227	5.65
690.549	5.42
690.871	5.79
691.194	5.72
691.516	5.95
691.838	5.21
692.16	6.24
692.482	6.01
692.804	5.04
693.126	5.61
