Data from 0362_chest_Reflection__4__20.txt Node

Date: Mon Dec 11 17:42:50 CST 2023
User: ToomeyLab
Spectrometer: FLMS14357
Trigger mode: 0
Integration Time (sec): 1.000000E-2
Scans to average: 100
Electric dark correction enabled: true
Nonlinearity correction enabled: false
Boxcar width: 0
XAxis mode: Wavelengths
Number of Pixels in Spectrum: 2048
>>>>>Begin Spectral Data<<<<<
189.047	-97.39
189.435	-97.39
189.823	-97.39
190.211	121.6
190.599	61.61
190.987	-1.69
191.375	48.58
191.763	152.08
192.151	-1043.75
192.538	9.83
192.926	-196.04
193.314	-5.65
193.702	-728.01
194.089	-111.12
194.477	41.02
194.864	-97.46
195.252	-1288.15
195.639	1.8
196.027	969.1
196.414	-320.09
196.801	195.81
197.189	-169.09
197.576	63.03
197.963	-30.98
198.351	-33.13
198.738	10.67
199.125	18.58
199.512	29.38
199.899	16.22
200.286	59.86
200.673	-29.97
201.06	6.13
201.447	37.99
201.833	22.73
202.22	34.29
202.607	25.98
202.994	-48.67
203.38	13.61
203.767	34.87
204.154	35.88
204.54	-1.94
204.927	17.02
205.313	12.79
205.699	-39.72
206.086	-3.48
206.472	24.67
206.858	3.38
207.245	29.07
207.631	38.92
208.017	27.92
208.403	15.21
208.789	-9.05
209.175	26.64
209.561	8.47
209.947	24.84
210.333	24.12
210.719	20.94
211.105	19.5
211.491	30.8
211.876	15.74
212.262	-3.71
212.648	20.58
213.034	5.35
213.419	24.77
213.805	14.49
214.19	-1.26
214.576	14.1
214.961	31.64
215.346	-1.7
215.732	0.65
216.117	0.4
216.502	35.01
216.888	9.23
217.273	2.34
217.658	15.18
218.043	-10
218.428	0.62
218.813	20.98
219.198	13.91
219.583	13.51
219.968	7.4
220.353	-9.1
220.738	29.08
221.122	8.17
221.507	22.41
221.892	10.94
222.276	18.83
222.661	5.29
223.046	17.14
223.43	6.16
223.815	5.69
224.199	13.23
224.583	5.47
224.968	13.99
225.352	11.96
225.736	9.11
226.121	12.01
226.505	6.19
226.889	11.52
227.273	4.48
227.657	10.73
228.041	3.05
228.425	6.52
228.809	3.75
229.193	3.94
229.577	6.69
229.961	5.88
230.344	5.34
230.728	3.74
231.112	4.84
231.495	5.07
231.879	4.56
232.263	3.79
232.646	3.73
233.03	4.77
233.413	4.83
233.797	5.68
234.18	4.44
234.563	5.87
234.946	6.32
235.33	6.02
235.713	5.05
236.096	6.05
236.479	5.95
236.862	5.49
237.245	3.13
237.628	6.53
238.011	5.27
238.394	4.94
238.777	5.65
239.16	4.63
239.543	4.41
239.925	3.9
240.308	5.29
240.691	4.92
241.073	4.58
241.456	5.51
241.838	5.74
242.221	4.7
242.603	3.94
242.986	4.36
243.368	4.41
243.75	4.17
244.133	4.79
244.515	4.46
244.897	4.34
245.279	4.58
245.661	4.43
246.043	4.39
246.425	4.24
246.807	4.9
247.189	4.65
247.571	4.4
247.953	4.4
248.335	4.66
248.717	4.53
249.098	3.94
249.48	3.87
249.862	4.53
250.243	4.72
250.625	4.22
251.006	4.11
251.388	4.55
251.769	5.28
252.151	4.97
252.532	3.34
252.913	4.79
253.295	5.31
253.676	4.53
254.057	4.17
254.438	4.6
254.819	4.1
255.2	4.12
255.581	4.45
255.962	3.87
256.343	4.25
256.724	5.03
257.105	4.44
257.486	4.04
257.867	4.47
258.247	3.29
258.628	4.37
259.009	5.01
259.389	4.65
259.77	4.1
260.15	3.96
260.531	4.53
260.911	3.56
261.292	3.9
261.672	3.92
262.052	3.93
262.432	3.93
262.813	4.01
263.193	3.58
263.573	4.28
263.953	4.13
264.333	3.89
264.713	4.42
265.093	4.05
265.473	4.93
265.853	4.3
266.233	3.31
266.612	4.31
266.992	4.89
267.372	5.43
267.752	4.25
268.131	3.74
268.511	3.44
268.89	3.94
269.27	4.05
269.649	3.8
270.029	4.63
270.408	3.81
270.787	3.94
271.167	3.5
271.546	3.69
271.925	4.08
272.304	4.23
272.683	3.99
273.062	3.68
273.441	4.08
273.82	3.79
274.199	3.66
274.578	3.82
274.957	4.08
275.336	4.19
275.715	3.83
276.093	4.24
276.472	3.96
276.851	4.07
277.229	4.33
277.608	3.97
277.986	4.53
278.365	4.17
278.743	3.75
279.122	4.42
279.5	3.79
279.878	3.94
280.257	3.16
280.635	3.92
281.013	3.9
281.391	3.89
281.769	3.81
282.147	3.84
282.525	3.29
282.903	3.89
283.281	3.65
283.659	3.99
284.037	3.72
284.415	3.75
284.792	4.34
285.17	3.67
285.548	4.23
285.925	3.63
286.303	3.93
286.68	3.86
287.058	4.01
287.435	4.08
287.813	4.11
288.19	3.82
288.567	3.7
288.945	3.79
289.322	3.53
289.699	3.62
290.076	3.91
290.453	4.22
290.83	4.3
291.207	4.17
291.584	4.09
291.961	3.88
292.338	3.93
292.715	4.17
293.092	3.92
293.469	4.12
293.845	4.21
294.222	4.49
294.599	3.99
294.975	3.95
295.352	3.56
295.728	3.77
296.105	4.01
296.481	3.8
296.858	3.95
297.234	3.96
297.61	4.32
297.986	4.54
298.363	3.8
298.739	3.95
299.115	3.72
299.491	4.03
299.867	4.1
300.243	4.02
300.619	4.01
300.995	3.49
301.371	3.94
301.746	3.61
302.122	3.69
302.498	4.29
302.874	3.92
303.249	4.17
303.625	3.89
304	4.02
304.376	3.48
304.751	3.76
305.127	3.81
305.502	3.99
305.878	3.85
306.253	4.22
306.628	4.14
307.003	4.4
307.378	4.03
307.754	4.44
308.129	4.29
308.504	3.26
308.879	3.48
309.254	4.4
309.629	4.27
310.003	4.52
310.378	4.07
310.753	3.97
311.128	4.24
311.502	3.85
311.877	4.36
312.252	4.01
312.626	4
313.001	3.96
313.375	3.73
313.75	4.06
314.124	4.11
314.498	4.08
314.873	3.9
315.247	3.78
315.621	4.67
315.995	4.73
316.369	4.18
316.743	4.52
317.117	4.33
317.491	4.25
317.865	3.86
318.239	4.44
318.613	4.28
318.987	4.36
319.361	4.1
319.734	3.79
320.108	4.66
320.482	4.5
320.855	3.97
321.229	4.08
321.602	3.74
321.976	4.43
322.349	3.76
322.723	3.89
323.096	4.54
323.469	4.35
323.843	4.55
324.216	4.76
324.589	4.49
324.962	4.2
325.335	4.18
325.708	4.2
326.081	4.66
326.454	4.64
326.827	4.17
327.2	3.93
327.573	3.93
327.945	4.43
328.318	4.34
328.691	3.95
329.063	4
329.436	3.94
329.809	4.25
330.181	4.05
330.553	4.35
330.926	3.69
331.298	4.52
331.671	4.1
332.043	4.65
332.415	4.44
332.787	5.18
333.159	4.43
333.532	4.33
333.904	4.2
334.276	4.17
334.648	4.57
335.02	3.91
335.391	4.09
335.763	4.18
336.135	4.56
336.507	4.63
336.879	4.84
337.25	4.14
337.622	4.37
337.993	4.51
338.365	4.03
338.736	4.67
339.108	4.9
339.479	4.51
339.851	3.87
340.222	4.02
340.593	3.52
340.964	4.22
341.336	4.28
341.707	3.97
342.078	4.18
342.449	4.42
342.82	4.22
343.191	3.96
343.562	4.24
343.933	4.22
344.303	3.93
344.674	4.12
345.045	4.41
345.416	3.97
345.786	4.26
346.157	4.34
346.527	4.03
346.898	4.5
347.268	4
347.639	4.45
348.009	4.21
348.38	4.07
348.75	4.35
349.12	4.16
349.49	4.13
349.861	4.14
350.231	3.69
350.601	4.42
350.971	4.45
351.341	3.99
351.711	4.42
352.081	3.87
352.45	4.05
352.82	3.83
353.19	4.31
353.56	4.06
353.929	4.07
354.299	4.21
354.669	4.4
355.038	4.52
355.408	3.87
355.777	4.06
356.147	4.6
356.516	4.51
356.885	4.52
357.254	4.36
357.624	4.13
357.993	4.35
358.362	4.21
358.731	4.25
359.1	4.03
359.469	4.17
359.838	4.18
360.207	4.58
360.576	4.3
360.945	4.7
361.314	4.65
361.682	3.72
362.051	4.05
362.42	4.13
362.788	4.22
363.157	4.25
363.525	3.89
363.894	4.18
364.262	4.18
364.631	4.2
364.999	4.01
365.367	4.37
365.735	4.24
366.104	4.05
366.472	4.18
366.84	4.03
367.208	4.16
367.576	4.56
367.944	4.31
368.312	4.17
368.68	4.39
369.048	4.08
369.416	3.81
369.783	4.23
370.151	4.25
370.519	4.97
370.886	4.26
371.254	4.68
371.621	4.53
371.989	4.33
372.356	4.57
372.724	4.87
373.091	4.44
373.458	4.1
373.826	4.24
374.193	4.07
374.56	4.42
374.927	4.33
375.294	4.5
375.661	4.44
376.028	4.55
376.395	4.51
376.762	4.35
377.129	4.81
377.496	4.53
377.863	4.3
378.229	4.4
378.596	4.4
378.963	4.43
379.329	4.28
379.696	4.38
380.062	4.41
380.429	4.31
380.795	4.69
381.161	4.61
381.528	4.56
381.894	4.52
382.26	4.24
382.626	4.21
382.993	4.84
383.359	4.32
383.725	4.05
384.091	4.48
384.457	4.18
384.823	4.57
385.188	4.36
385.554	4.16
385.92	4.27
386.286	4.58
386.651	4.45
387.017	4.47
387.383	4.38
387.748	4.29
388.114	4.43
388.479	4.4
388.845	4.11
389.21	4.33
389.575	4.51
389.94	4.57
390.306	4.42
390.671	4.44
391.036	4.49
391.401	4.47
391.766	4.5
392.131	4.38
392.496	4.37
392.861	4.58
393.226	4.65
393.591	4.57
393.956	4.43
394.32	4.35
394.685	4.2
395.05	4.54
395.414	4.72
395.779	4.41
396.143	4.2
396.508	4.41
396.872	4.42
397.236	4.62
397.601	4.35
397.965	4.45
398.329	4.52
398.694	4.34
399.058	4.23
399.422	4.6
399.786	4.55
400.15	4.48
400.514	4.63
400.878	4.5
401.242	4.35
401.605	4.41
401.969	4.28
402.333	4.27
402.697	4.4
403.06	4.36
403.424	4.72
403.787	4.91
404.151	4.24
404.514	4.35
404.878	4.81
405.241	4.5
405.604	4.36
405.968	4.47
406.331	4.04
406.694	4.33
407.057	4.54
407.42	4.67
407.783	4.45
408.146	4.39
408.509	4.41
408.872	4.42
409.235	4.35
409.598	4.47
409.961	4.69
410.323	4.55
410.686	4.52
411.049	4.65
411.411	4.42
411.774	4.53
412.136	4.34
412.499	4.54
412.861	4.31
413.223	4.67
413.586	4.51
413.948	4.71
414.31	4.41
414.672	3.99
415.035	4.42
415.397	4.46
415.759	4.44
416.121	4.4
416.483	4.63
416.845	4.52
417.206	4.45
417.568	4.43
417.93	4.66
418.292	4.44
418.653	4.39
419.015	4.29
419.377	4.42
419.738	4.49
420.1	4.47
420.461	4.38
420.822	4.33
421.184	4.42
421.545	4.37
421.906	4.38
422.267	4.42
422.629	4.37
422.99	4.39
423.351	4.25
423.712	4.31
424.073	4.41
424.434	4.35
424.795	4.51
425.155	4.42
425.516	4.43
425.877	4.24
426.238	4.26
426.598	4.39
426.959	4.33
427.32	4.49
427.68	4.47
428.041	4.4
428.401	4.3
428.761	4.57
429.122	4.35
429.482	4.5
429.842	4.62
430.202	4.55
430.563	4.49
430.923	4.55
431.283	4.67
431.643	4.49
432.003	4.76
432.363	4.7
432.722	4.41
433.082	4.62
433.442	4.58
433.802	4.4
434.161	4.73
434.521	4.42
434.881	4.6
435.24	4.4
435.6	4.57
435.959	4.59
436.319	4.5
436.678	4.49
437.037	4.61
437.396	4.56
437.756	4.74
438.115	4.67
438.474	4.66
438.833	4.67
439.192	4.76
439.551	4.55
439.91	4.62
440.269	4.78
440.628	4.4
440.987	4.76
441.345	4.54
441.704	4.48
442.063	4.59
442.421	4.54
442.78	4.48
443.138	4.42
443.497	4.64
443.855	4.5
444.214	4.66
444.572	4.72
444.93	4.62
445.288	4.6
445.647	4.72
446.005	4.61
446.363	4.63
446.721	4.47
447.079	4.53
447.437	4.54
447.795	4.46
448.153	4.59
448.51	4.58
448.868	4.37
449.226	4.43
449.584	4.62
449.941	4.69
450.299	4.61
450.656	4.61
451.014	4.62
451.371	4.4
451.729	4.82
452.086	4.6
452.443	4.75
452.801	4.74
453.158	4.73
453.515	4.63
453.872	4.78
454.229	4.65
454.586	4.62
454.943	4.63
455.3	4.64
455.657	4.75
456.014	4.76
456.371	4.79
456.727	4.75
457.084	4.85
457.441	4.77
457.797	4.64
458.154	4.69
458.51	4.81
458.867	4.53
459.223	4.69
459.58	4.7
459.936	4.81
460.292	4.76
460.648	4.69
461.005	4.58
461.361	4.68
461.717	4.55
462.073	4.61
462.429	4.72
462.785	4.6
463.141	4.7
463.496	4.79
463.852	4.65
464.208	4.63
464.564	4.72
464.919	4.72
465.275	4.65
465.631	4.76
465.986	4.82
466.342	4.73
466.697	4.59
467.052	4.71
467.408	4.94
467.763	4.81
468.118	4.69
468.473	4.78
468.829	4.94
469.184	4.89
469.539	4.94
469.894	4.59
470.249	4.77
470.603	4.85
470.958	4.66
471.313	4.69
471.668	4.87
472.023	4.84
472.377	4.78
472.732	4.78
473.086	4.9
473.441	4.88
473.795	4.96
474.15	4.99
474.504	4.75
474.859	4.9
475.213	4.77
475.567	4.79
475.921	4.89
476.275	4.87
476.63	4.78
476.984	4.57
477.338	4.75
477.692	4.93
478.045	4.9
478.399	4.88
478.753	4.63
479.107	4.78
479.461	4.9
479.814	4.9
480.168	4.95
480.521	4.94
480.875	4.88
481.228	4.74
481.582	5.01
481.935	4.9
482.289	4.85
482.642	4.89
482.995	4.69
483.348	4.78
483.701	4.59
484.055	4.66
484.408	4.76
484.761	4.73
485.114	4.64
485.466	4.53
485.819	4.43
486.172	4.5
486.525	4.52
486.878	4.56
487.23	4.64
487.583	4.7
487.936	4.7
488.288	4.71
488.641	4.66
488.993	4.6
489.345	4.68
489.698	4.57
490.05	4.61
490.402	4.59
490.754	4.65
491.107	4.73
491.459	4.79
491.811	4.82
492.163	4.85
492.515	4.91
492.866	4.72
493.218	4.68
493.57	4.66
493.922	4.66
494.274	4.72
494.625	4.75
494.977	4.87
495.328	4.82
495.68	4.95
496.031	4.94
496.383	4.8
496.734	4.86
497.086	4.98
497.437	4.96
497.788	5.02
498.139	4.92
498.49	4.91
498.842	4.89
499.193	4.97
499.544	4.92
499.894	4.84
500.245	4.86
500.596	4.91
500.947	4.93
501.298	5.02
501.648	5
501.999	4.89
502.35	4.97
502.7	5.05
503.051	4.98
503.401	4.98
503.752	5.1
504.102	4.99
504.452	4.98
504.803	5.14
505.153	5.08
505.503	5.03
505.853	5.03
506.203	4.91
506.553	5
506.903	5.01
507.253	5.14
507.603	4.92
507.953	5
508.303	4.99
508.652	5.02
509.002	5
509.352	5.14
509.701	4.97
510.051	4.96
510.4	4.93
510.75	4.92
511.099	4.96
511.449	5.03
511.798	4.97
512.147	5.01
512.496	4.91
512.846	5.06
513.195	5.15
513.544	5.04
513.893	4.96
514.242	5.05
514.591	4.92
514.939	5.03
515.288	5.17
515.637	5.15
515.986	4.99
516.334	5.15
516.683	5.19
517.032	5.2
517.38	5.17
517.729	5.18
518.077	5.09
518.426	5.25
518.774	5.18
519.122	5.18
519.47	5.07
519.819	5.08
520.167	5.07
520.515	4.99
520.863	4.95
521.211	5.12
521.559	5.01
521.907	5
522.255	5.09
522.602	5.04
522.95	5.21
523.298	5.15
523.645	5.36
523.993	5.13
524.341	5.17
524.688	5.13
525.036	5.15
525.383	5.08
525.73	5.26
526.078	5.25
526.425	5.21
526.772	5.22
527.119	5.17
527.466	5.16
527.814	5.13
528.161	5.1
528.508	5.09
528.854	5.18
529.201	5.2
529.548	5.12
529.895	5.02
530.242	4.99
530.588	4.95
530.935	4.97
531.282	4.97
531.628	4.97
531.975	5.1
532.321	5.12
532.667	5.15
533.014	5.14
533.36	5.23
533.706	5.3
534.052	5.22
534.399	5.2
534.745	5.26
535.091	5.13
535.437	5.13
535.783	5.08
536.129	5.21
536.474	5.22
536.82	5.31
537.166	5.3
537.512	5.33
537.857	5.34
538.203	5.28
538.549	5.4
538.894	5.35
539.239	5.41
539.585	5.39
539.93	5.38
540.276	5.43
540.621	5.43
540.966	5.58
541.311	5.43
541.656	5.54
542.001	5.55
542.346	5.47
542.691	5.3
543.036	5.25
543.381	5.2
543.726	5.28
544.071	5.29
544.415	5.23
544.76	5.31
545.105	5.37
545.449	5.38
545.794	5.46
546.138	5.51
546.483	5.47
546.827	5.54
547.171	5.43
547.516	5.5
547.86	5.6
548.204	5.53
548.548	5.48
548.892	5.51
549.236	5.52
549.58	5.65
549.924	5.65
550.268	5.63
550.612	5.61
550.956	5.54
551.3	5.62
551.643	5.76
551.987	5.77
552.33	5.85
552.674	5.94
553.017	5.71
553.361	5.61
553.704	5.64
554.048	5.95
554.391	5.72
554.734	5.94
555.077	5.75
555.42	5.83
555.764	5.83
556.107	6.01
556.45	5.85
556.793	5.75
557.135	5.84
557.478	5.86
557.821	5.76
558.164	6.06
558.507	5.75
558.849	5.93
559.192	5.96
559.534	6
559.877	5.87
560.219	5.89
560.562	6.17
560.904	6.04
561.246	6
561.589	6.14
561.931	6.05
562.273	6.03
562.615	5.92
562.957	6.07
563.299	6.08
563.641	5.98
563.983	6.11
564.325	6.1
564.667	6.16
565.008	6.14
565.35	6.37
565.692	6.06
566.033	6.09
566.375	6.36
566.716	6.22
567.058	6.12
567.399	6.26
567.741	6.11
568.082	6.21
568.423	6.09
568.764	6.18
569.105	6.24
569.447	6.27
569.788	6.2
570.129	6.07
570.47	6.18
570.811	6.11
571.151	6.33
571.492	6.41
571.833	6.2
572.174	6.62
572.514	6.38
572.855	6.04
573.195	6.52
573.536	6.38
573.876	6.5
574.217	6.39
574.557	6.15
574.898	6.39
575.238	6.56
575.578	6.44
575.918	6.56
576.258	6.52
576.598	6.63
576.938	6.55
577.278	6.45
577.618	6.55
577.958	6.56
578.298	6.65
578.638	6.74
578.977	6.78
579.317	6.47
579.657	6.47
579.996	6.57
580.336	6.67
580.675	6.96
581.014	6.69
581.354	6.52
581.693	6.92
582.032	6.5
582.372	6.94
582.711	6.77
583.05	6.98
583.389	6.6
583.728	6.92
584.067	6.84
584.406	6.86
584.745	6.8
585.083	6.88
585.422	7
585.761	7
586.1	6.9
586.438	6.88
586.777	7.06
587.115	6.96
587.454	6.9
587.792	6.92
588.13	7.16
588.469	7.2
588.807	7.16
589.145	7.36
589.483	7.26
589.821	6.91
590.159	7.07
590.497	7.23
590.835	7.29
591.173	6.97
591.511	7.12
591.849	7.17
592.187	6.98
592.524	7.23
592.862	7.28
593.2	7.31
593.537	7.16
593.875	7.28
594.212	7.34
594.55	7.25
594.887	7.42
595.224	7.43
595.561	7.15
595.899	7.24
596.236	7.37
596.573	7.34
596.91	7.34
597.247	7.55
597.584	7.29
597.921	7.41
598.258	7.59
598.594	7.36
598.931	7.47
599.268	7.46
599.604	7.62
599.941	7.59
600.277	7.22
600.614	7.8
600.95	7.57
601.287	7.64
601.623	7.76
601.959	7.48
602.296	7.75
602.632	7.78
602.968	7.87
603.304	7.82
603.64	7.79
603.976	8.04
604.312	7.72
604.648	7.87
604.984	8.05
605.319	7.96
605.655	7.86
605.991	7.66
606.326	7.82
606.662	7.8
606.998	7.72
607.333	7.82
607.668	7.95
608.004	7.7
608.339	7.98
608.674	8.2
609.01	7.99
609.345	7.97
609.68	8.11
610.015	8.38
610.35	8
610.685	8.11
611.02	8.02
611.355	8.16
611.689	8.03
612.024	7.96
612.359	8.04
612.694	8.16
613.028	8.06
613.363	8.04
613.697	8.26
614.032	8.22
614.366	8.26
614.7	8.28
615.035	8.55
615.369	8.14
615.703	8.46
616.037	8.57
616.371	8.36
616.705	8.51
617.039	8.51
617.373	8.46
617.707	8.94
618.041	8.68
618.375	8.83
618.709	8.64
619.042	8.81
619.376	9.11
619.71	8.5
620.043	8.62
620.377	8.74
620.71	8.75
621.043	8.67
621.377	8.16
621.71	8.51
622.043	8.51
622.376	8.47
622.709	9.04
623.043	9.1
623.376	8.73
623.709	9.2
624.041	8.86
624.374	8.7
624.707	8.61
625.04	9.24
625.373	9
625.705	9.08
626.038	9.02
626.37	8.81
626.703	9.16
627.035	9.24
627.368	8.88
627.7	9.07
628.032	9.1
628.365	9.21
628.697	8.97
629.029	9.13
629.361	9.12
629.693	9.09
630.025	9.23
630.357	9.31
630.689	9.37
631.021	9.02
631.353	9.44
631.684	9.35
632.016	9.49
632.348	9.42
632.679	9.98
633.011	9.38
633.342	9.57
633.674	9.66
634.005	9.54
634.336	9.51
634.668	9.4
634.999	9.75
635.33	9.38
635.661	9.74
635.992	9.89
636.323	9.72
636.654	9.89
636.985	9.31
637.316	9.66
637.647	9.97
637.977	9.7
638.308	9.56
638.639	9.81
638.969	9.8
639.3	9.86
639.63	9.55
639.961	9.8
640.291	10.2
640.622	9.54
640.952	10.01
641.282	9.87
641.612	10.16
641.943	10.04
642.273	10.06
642.603	10.5
642.933	10.16
643.263	10.3
643.592	9.99
643.922	10.7
644.252	9.77
644.582	10.04
644.911	10.48
645.241	10.32
645.571	10.48
645.9	9.96
646.23	9.98
646.559	10.26
646.888	9.85
647.218	10.1
647.547	10.1
647.876	10.56
648.205	10.02
648.534	10.35
648.863	10.5
649.192	10.26
649.521	10.71
649.85	9.83
650.179	10.49
650.508	10.77
650.837	10.27
651.165	10.79
651.494	10.64
651.822	10.37
652.151	11.1
652.479	10.53
652.808	11.17
653.136	10.69
653.465	10.56
653.793	10.72
654.121	10.65
654.449	10.54
654.777	10.55
655.105	10.82
655.433	10.87
655.761	11.26
656.089	11.08
656.417	10.78
656.745	11.18
657.073	11.04
657.4	11.14
657.728	11.14
658.056	11.47
658.383	11.3
658.711	11.17
659.038	11.47
659.365	11.46
659.693	11.26
660.02	11.08
660.347	11.31
660.674	11.41
661.001	11.17
661.329	11.65
661.656	11.08
661.982	11.53
662.309	11.18
662.636	11.46
662.963	11.8
663.29	11.36
663.616	11.05
663.943	11.02
664.27	11.46
664.596	12.06
664.923	11.84
665.249	11.74
665.576	11.76
665.902	11.47
666.228	11.63
666.554	11.44
666.881	11.5
667.207	12.18
667.533	11.72
667.859	11.78
668.185	11.84
668.511	11.27
668.837	12.18
669.162	11.64
669.488	11.66
669.814	11.92
670.139	11.93
670.465	12.48
670.791	12.18
671.116	12.55
671.442	12.22
671.767	12.24
672.092	11.91
672.418	12.36
672.743	11.36
673.068	11.99
673.393	12.5
673.718	12.21
674.043	12.9
674.368	12.19
674.693	11.76
675.018	12.58
675.343	12.41
675.667	12.41
675.992	12.8
676.317	12.28
676.641	12.74
676.966	12.56
677.29	11.95
677.615	13.26
677.939	11.89
678.264	12.4
678.588	13.05
678.912	12.58
679.236	13.3
679.56	12.86
679.885	12.93
680.209	12.7
680.532	13.13
680.856	13.2
681.18	12.97
681.504	12.12
681.828	12.53
682.152	12.44
682.475	13.2
682.799	13.38
683.122	12.77
683.446	12.97
683.769	12.71
684.093	13.29
684.416	13.36
684.739	13.32
685.062	13.3
685.386	13.38
685.709	13.08
686.032	13.49
686.355	12.9
686.678	13.58
687.001	12.81
687.324	12.35
687.646	12.58
687.969	13.85
688.292	14.37
688.614	13.68
688.937	13.19
689.26	13.25
689.582	13.67
689.904	13.46
