Data from 0362_chest_Reflection__1__17.txt Node

Date: Mon Dec 11 17:42:06 CST 2023
User: ToomeyLab
Spectrometer: FLMS14357
Trigger mode: 0
Integration Time (sec): 1.000000E-2
Scans to average: 100
Electric dark correction enabled: true
Nonlinearity correction enabled: false
Boxcar width: 0
XAxis mode: Wavelengths
Number of Pixels in Spectrum: 2048
>>>>>Begin Spectral Data<<<<<
189.047	-338.3
189.435	-338.3
189.823	-338.3
190.211	52.15
190.599	24.88
190.987	-77.92
191.375	45.01
191.763	129.6
192.151	-10393.75
192.538	98.05
192.926	-18.82
193.314	286.9
193.702	-289.12
194.089	-128.74
194.477	57.09
194.864	216.89
195.252	-165.73
195.639	-82.23
196.027	1110.76
196.414	-299.85
196.801	34.96
197.189	-59.85
197.576	65.97
197.963	22.98
198.351	23.32
198.738	15.55
199.125	9.25
199.512	18
199.899	17.45
200.286	38.29
200.673	-15.9
201.06	45.4
201.447	13.1
201.833	37.54
202.22	27.56
202.607	-9.84
202.994	-21.3
203.38	-46.29
203.767	31.45
204.154	31.08
204.54	-1.44
204.927	-11.5
205.313	-1.18
205.699	46.15
206.086	-15.22
206.472	39.11
206.858	8.62
207.245	38.73
207.631	11.31
208.017	17
208.403	52.95
208.789	-1.32
209.175	31.24
209.561	-0.11
209.947	18.35
210.333	22.19
210.719	5.78
211.105	9.09
211.491	25.97
211.876	12.3
212.262	0.83
212.648	49.2
213.034	17.33
213.419	-32.8
213.805	2.12
214.19	20.71
214.576	10.73
214.961	15.01
215.346	-1.18
215.732	0.38
216.117	1.31
216.502	16.31
216.888	17.9
217.273	10.65
217.658	17.4
218.043	-3.22
218.428	3.69
218.813	17.27
219.198	8.53
219.583	22.28
219.968	-21.4
220.353	12.18
220.738	35.67
221.122	7.86
221.507	30.5
221.892	10.35
222.276	-3.68
222.661	-0.71
223.046	3.68
223.43	2.33
223.815	-5.09
224.199	10.45
224.583	-8.68
224.968	1.38
225.352	9.64
225.736	3.51
226.121	8.17
226.505	2.56
226.889	6.51
227.273	2.19
227.657	8.23
228.041	7.2
228.425	1.45
228.809	-0.74
229.193	2.74
229.577	3.47
229.961	1.91
230.344	2.57
230.728	3.52
231.112	3.24
231.495	2.89
231.879	2.79
232.263	2.14
232.646	2.51
233.03	3.06
233.413	2.62
233.797	5.6
234.18	4.45
234.563	5.28
234.946	4.22
235.33	6.55
235.713	1.97
236.096	3.43
236.479	4.66
236.862	4.31
237.245	4.33
237.628	4.6
238.011	4.4
238.394	3.71
238.777	2.36
239.16	4.41
239.543	3.31
239.925	2.71
240.308	4.14
240.691	3.62
241.073	4.54
241.456	5.37
241.838	5.03
242.221	4.31
242.603	2.89
242.986	2.77
243.368	3
243.75	3.25
244.133	3.34
244.515	3.26
244.897	2.88
245.279	3.7
245.661	2.9
246.043	3.72
246.425	3.64
246.807	4.78
247.189	3.47
247.571	3.27
247.953	3.45
248.335	3.21
248.717	3.27
249.098	2.9
249.48	2.87
249.862	3.45
250.243	3.29
250.625	2.98
251.006	2.8
251.388	3.06
251.769	3.15
252.151	5.58
252.532	4.14
252.913	3.11
253.295	3.91
253.676	3.62
254.057	3.18
254.438	3.24
254.819	2.62
255.2	2.67
255.581	2.44
255.962	3.04
256.343	2.18
256.724	4.19
257.105	3.95
257.486	2.65
257.867	4.41
258.247	2.41
258.628	3.21
259.009	4.08
259.389	4.37
259.77	2.91
260.15	2.97
260.531	3.64
260.911	2.45
261.292	2.46
261.672	2.83
262.052	3.05
262.432	2.78
262.813	2.97
263.193	2.93
263.573	3.42
263.953	2.66
264.333	2.54
264.713	3.53
265.093	3.3
265.473	3.04
265.853	3.21
266.233	2.96
266.612	3.43
266.992	3.5
267.372	3.71
267.752	2.72
268.131	2.87
268.511	2.69
268.89	3.45
269.27	3.31
269.649	3.46
270.029	3.57
270.408	2.78
270.787	2.27
271.167	2.18
271.546	3.05
271.925	2.74
272.304	2.9
272.683	2.79
273.062	2.84
273.441	2.6
273.82	2.67
274.199	3.11
274.578	3.02
274.957	3.22
275.336	3.35
275.715	2.64
276.093	3.47
276.472	2.79
276.851	3.29
277.229	3.19
277.608	3.25
277.986	2.86
278.365	2.77
278.743	2.9
279.122	3.18
279.5	3.83
279.878	2.73
280.257	3.14
280.635	3.12
281.013	2.52
281.391	2.93
281.769	2.86
282.147	2.59
282.525	2.61
282.903	3.21
283.281	2.52
283.659	2.92
284.037	2.64
284.415	2.67
284.792	3.06
285.17	3.03
285.548	2.72
285.925	2.67
286.303	2.76
286.68	2.75
287.058	3.24
287.435	2.94
287.813	3
288.19	2.69
288.567	2.66
288.945	3.04
289.322	2.25
289.699	2.62
290.076	2.34
290.453	3.27
290.83	3.06
291.207	3.31
291.584	2.97
291.961	2.84
292.338	3.06
292.715	3.5
293.092	2.92
293.469	3
293.845	3.13
294.222	3.73
294.599	3.11
294.975	2.99
295.352	2.48
295.728	3.06
296.105	2.83
296.481	2.83
296.858	2.57
297.234	3.55
297.61	3.58
297.986	3.36
298.363	3.17
298.739	3.2
299.115	2.95
299.491	3.07
299.867	3.35
300.243	3.01
300.619	3.27
300.995	2.95
301.371	2.8
301.746	2.8
302.122	2.89
302.498	3.1
302.874	3.53
303.249	3.44
303.625	3.1
304	3.44
304.376	3.13
304.751	3.3
305.127	3.46
305.502	3.37
305.878	3.24
306.253	3.46
306.628	3.43
307.003	3.45
307.378	2.85
307.754	3.84
308.129	3.35
308.504	3.14
308.879	3.37
309.254	3.6
309.629	3.71
310.003	3.39
310.378	3.07
310.753	3.38
311.128	3.55
311.502	3.08
311.877	3.64
312.252	3.52
312.626	3.26
313.001	3.21
313.375	2.75
313.75	2.98
314.124	3.72
314.498	3.25
314.873	3.64
315.247	2.97
315.621	3.79
315.995	3.38
316.369	3.38
316.743	3.65
317.117	3.63
317.491	3.98
317.865	3.01
318.239	3.8
318.613	3.75
318.987	3.63
319.361	3.79
319.734	3.86
320.108	3.56
320.482	3.22
320.855	3.45
321.229	3.27
321.602	3.84
321.976	3.7
322.349	4.03
322.723	3.4
323.096	3.82
323.469	3.79
323.843	3.79
324.216	4.07
324.589	3.8
324.962	3.55
325.335	3.58
325.708	3.7
326.081	4.06
326.454	3.55
326.827	3.74
327.2	3.25
327.573	3.71
327.945	3.79
328.318	3.51
328.691	3.46
329.063	3.39
329.436	3.47
329.809	3.5
330.181	3.91
330.553	3.3
330.926	3.69
331.298	4.04
331.671	3.63
332.043	4.1
332.415	3.74
332.787	4.33
333.159	3.54
333.532	3.84
333.904	3.64
334.276	4.22
334.648	3.73
335.02	3.64
335.391	3.59
335.763	3.49
336.135	4.08
336.507	4.02
336.879	4.16
337.25	3.68
337.622	3.56
337.993	3.53
338.365	3.52
338.736	3.87
339.108	4.07
339.479	3.22
339.851	3.37
340.222	4.2
340.593	3.22
340.964	3.86
341.336	3.88
341.707	3.44
342.078	3.98
342.449	3.94
342.82	3.19
343.191	3.56
343.562	3.82
343.933	3.4
344.303	3.54
344.674	3.94
345.045	3.95
345.416	3.64
345.786	3.9
346.157	3.89
346.527	3.84
346.898	3.71
347.268	3.53
347.639	3.67
348.009	4.04
348.38	3.27
348.75	3.72
349.12	3.75
349.49	3.71
349.861	3.7
350.231	3.54
350.601	3.73
350.971	4.03
351.341	3.36
351.711	3.72
352.081	3.55
352.45	3.94
352.82	3.07
353.19	3.74
353.56	3.78
353.929	3.65
354.299	3.64
354.669	3.99
355.038	4.04
355.408	3.39
355.777	3.48
356.147	3.78
356.516	3.62
356.885	3.69
357.254	3.78
357.624	3.54
357.993	3.53
358.362	3.94
358.731	3.52
359.1	3.8
359.469	3.51
359.838	4.06
360.207	3.61
360.576	3.55
360.945	4.08
361.314	4.01
361.682	3.64
362.051	3.48
362.42	3.67
362.788	3.62
363.157	3.71
363.525	3.43
363.894	3.87
364.262	3.78
364.631	3.68
364.999	3.65
365.367	3.81
365.735	3.94
366.104	3.53
366.472	3.53
366.84	3.63
367.208	3.51
367.576	4.08
367.944	3.6
368.312	3.38
368.68	3.8
369.048	3.64
369.416	3.49
369.783	3.7
370.151	4.04
370.519	4.04
370.886	3.81
371.254	4.3
371.621	3.97
371.989	4.03
372.356	3.72
372.724	4.11
373.091	3.78
373.458	3.78
373.826	3.81
374.193	3.71
374.56	3.71
374.927	4.13
375.294	3.9
375.661	3.75
376.028	4.15
376.395	3.73
376.762	4.03
377.129	4.07
377.496	3.74
377.863	3.83
378.229	4.05
378.596	3.96
378.963	4.04
379.329	3.71
379.696	4.08
380.062	3.67
380.429	3.79
380.795	3.98
381.161	3.71
381.528	4.15
381.894	3.85
382.26	3.73
382.626	3.57
382.993	3.99
383.359	3.75
383.725	3.75
384.091	3.87
384.457	3.54
384.823	4.37
385.188	3.85
385.554	3.64
385.92	3.92
386.286	3.95
386.651	4.01
387.017	3.92
387.383	3.88
387.748	3.93
388.114	3.82
388.479	3.67
388.845	3.94
389.21	3.74
389.575	4.25
389.94	3.96
390.306	3.99
390.671	4.07
391.036	3.94
391.401	4.02
391.766	3.83
392.131	3.86
392.496	3.89
392.861	4.13
393.226	3.88
393.591	3.93
393.956	3.83
394.32	4.23
394.685	3.7
395.05	3.88
395.414	4.1
395.779	4.06
396.143	3.71
396.508	3.84
396.872	3.96
397.236	4.04
397.601	3.59
397.965	4.18
398.329	3.89
398.694	3.77
399.058	4
399.422	4.15
399.786	3.99
400.15	3.75
400.514	3.99
400.878	3.9
401.242	3.92
401.605	4.08
401.969	3.84
402.333	3.85
402.697	4.05
403.06	3.92
403.424	3.94
403.787	4.19
404.151	3.96
404.514	3.82
404.878	4.21
405.241	3.8
405.604	4.02
405.968	3.92
406.331	3.62
406.694	3.85
407.057	3.81
407.42	4.1
407.783	3.92
408.146	4.15
408.509	3.7
408.872	3.93
409.235	3.69
409.598	4.04
409.961	4.07
410.323	4.16
410.686	4.22
411.049	4.03
411.411	3.77
411.774	4.08
412.136	4.14
412.499	4.35
412.861	3.94
413.223	4.1
413.586	4.31
413.948	3.94
414.31	3.9
414.672	3.85
415.035	4.24
415.397	3.78
415.759	4.07
416.121	4.01
416.483	4.13
416.845	4.29
417.206	3.96
417.568	4.05
417.93	4.15
418.292	3.9
418.653	3.82
419.015	3.72
419.377	4.06
419.738	4.03
420.1	3.86
420.461	3.93
420.822	3.88
421.184	3.91
421.545	3.95
421.906	3.88
422.267	3.97
422.629	3.85
422.99	3.89
423.351	3.76
423.712	3.81
424.073	3.87
424.434	3.87
424.795	3.99
425.155	4
425.516	3.93
425.877	3.83
426.238	3.85
426.598	3.98
426.959	3.98
427.32	3.91
427.68	4.03
428.041	3.81
428.401	3.95
428.761	4.11
429.122	3.96
429.482	4.12
429.842	4.06
430.202	3.99
430.563	3.96
430.923	4.13
431.283	4.19
431.643	4.17
432.003	4.19
432.363	4.13
432.722	4.24
433.082	4.09
433.442	4.03
433.802	4.1
434.161	4.08
434.521	3.9
434.881	4.16
435.24	4.08
435.6	4.12
435.959	3.97
436.319	4.18
436.678	4.09
437.037	4.1
437.396	4.2
437.756	4.31
438.115	4.26
438.474	4.25
438.833	4.13
439.192	4.15
439.551	4.15
439.91	4.11
440.269	4.22
440.628	3.88
440.987	4.26
441.345	4.02
441.704	4.15
442.063	4.12
442.421	4.11
442.78	4.1
443.138	4.02
443.497	4.11
443.855	4.05
444.214	4.33
444.572	4.09
444.93	4.29
445.288	4.19
445.647	4.31
446.005	4.09
446.363	4.1
446.721	4.14
447.079	4.08
447.437	4.07
447.795	4.03
448.153	4.18
448.51	4.18
448.868	4.06
449.226	4.02
449.584	4.2
449.941	4.22
450.299	4.28
450.656	4.18
451.014	4.18
451.371	4.21
451.729	4.33
452.086	4.32
452.443	4.42
452.801	4.24
453.158	4.28
453.515	4.14
453.872	4.26
454.229	4.22
454.586	4.28
454.943	4.27
455.3	4.45
455.657	4.32
456.014	4.29
456.371	4.61
456.727	4.44
457.084	4.27
457.441	4.45
457.797	4.35
458.154	4.4
458.51	4.43
458.867	4.24
459.223	4.22
459.58	4.25
459.936	4.49
460.292	4.21
460.648	4.34
461.005	4.18
461.361	4.35
461.717	4.21
462.073	4.23
462.429	4.26
462.785	4.3
463.141	4.26
463.496	4.51
463.852	4.21
464.208	4.37
464.564	4.51
464.919	4.35
465.275	4.36
465.631	4.26
465.986	4.54
466.342	4.38
466.697	4.57
467.052	4.28
467.408	4.49
467.763	4.38
468.118	4.33
468.473	4.26
468.829	4.5
469.184	4.6
469.539	4.53
469.894	4.19
470.249	4.47
470.603	4.34
470.958	4.44
471.313	4.47
471.668	4.58
472.023	4.57
472.377	4.48
472.732	4.43
473.086	4.47
473.441	4.4
473.795	4.57
474.15	4.5
474.504	4.41
474.859	4.5
475.213	4.48
475.567	4.39
475.921	4.53
476.275	4.46
476.63	4.44
476.984	4.57
477.338	4.4
477.692	4.46
478.045	4.48
478.399	4.47
478.753	4.38
479.107	4.24
479.461	4.46
479.814	4.57
480.168	4.52
480.521	4.65
480.875	4.46
481.228	4.39
481.582	4.64
481.935	4.49
482.289	4.46
482.642	4.45
482.995	4.62
483.348	4.46
483.701	4.32
484.055	4.38
484.408	4.35
484.761	4.43
485.114	4.38
485.466	4.25
485.819	4.2
486.172	4.19
486.525	4.25
486.878	4.35
487.23	4.36
487.583	4.46
487.936	4.47
488.288	4.47
488.641	4.37
488.993	4.32
489.345	4.4
489.698	4.36
490.05	4.37
490.402	4.34
490.754	4.41
491.107	4.46
491.459	4.51
491.811	4.5
492.163	4.57
492.515	4.59
492.866	4.51
493.218	4.36
493.57	4.34
493.922	4.41
494.274	4.48
494.625	4.5
494.977	4.62
495.328	4.63
495.68	4.73
496.031	4.56
496.383	4.65
496.734	4.7
497.086	4.66
497.437	4.79
497.788	4.64
498.139	4.58
498.49	4.72
498.842	4.81
499.193	4.65
499.544	4.7
499.894	4.62
500.245	4.68
500.596	4.76
500.947	4.77
501.298	4.85
501.648	4.69
501.999	4.72
502.35	4.83
502.7	4.87
503.051	4.77
503.401	4.75
503.752	4.79
504.102	4.75
504.452	4.83
504.803	4.93
505.153	4.84
505.503	4.87
505.853	4.81
506.203	4.74
506.553	4.79
506.903	4.79
507.253	4.91
507.603	4.78
507.953	4.84
508.303	4.87
508.652	4.82
509.002	4.86
509.352	4.99
509.701	4.85
510.051	4.86
510.4	4.87
510.75	4.82
511.099	4.87
511.449	5.02
511.798	4.83
512.147	4.98
512.496	4.81
512.846	4.96
513.195	5
513.544	4.91
513.893	4.78
514.242	4.98
514.591	4.95
514.939	4.92
515.288	4.99
515.637	4.9
515.986	4.85
516.334	4.96
516.683	5.17
517.032	5.08
517.38	5.05
517.729	5.15
518.077	5.08
518.426	5.1
518.774	5.07
519.122	5.02
519.47	4.97
519.819	4.95
520.167	4.95
520.515	4.88
520.863	4.92
521.211	4.99
521.559	5.01
521.907	5.01
522.255	4.97
522.602	5.04
522.95	5.16
523.298	5.15
523.645	5.27
523.993	5.33
524.341	5.24
524.688	5.19
525.036	5.19
525.383	5.16
525.73	5.25
526.078	5.28
526.425	5.16
526.772	5.21
527.119	5.1
527.466	5.18
527.814	5.17
528.161	5.05
528.508	5.2
528.854	5.08
529.201	5.14
529.548	5.21
529.895	5.04
530.242	5.01
530.588	4.93
530.935	4.99
531.282	4.99
531.628	5.07
531.975	5.15
532.321	5.11
532.667	5.2
533.014	5.25
533.36	5.28
533.706	5.35
534.052	5.3
534.399	5.34
534.745	5.27
535.091	5.11
535.437	5.17
535.783	5.23
536.129	5.3
536.474	5.33
536.82	5.4
537.166	5.35
537.512	5.42
537.857	5.44
538.203	5.36
538.549	5.42
538.894	5.44
539.239	5.51
539.585	5.53
539.93	5.42
540.276	5.54
540.621	5.57
540.966	5.68
541.311	5.6
541.656	5.61
542.001	5.73
542.346	5.62
542.691	5.5
543.036	5.42
543.381	5.35
543.726	5.37
544.071	5.44
544.415	5.49
544.76	5.54
545.105	5.51
545.449	5.59
545.794	5.59
546.138	5.65
546.483	5.68
546.827	5.72
547.171	5.68
547.516	5.75
547.86	5.81
548.204	5.77
548.548	5.76
548.892	5.73
549.236	5.69
549.58	5.93
549.924	5.84
550.268	5.88
550.612	5.92
550.956	5.78
551.3	5.89
551.643	6.06
551.987	6.06
552.33	6.25
552.674	6.21
553.017	6.04
553.361	5.83
553.704	6
554.048	6.15
554.391	6.05
554.734	6.09
555.077	6.14
555.42	6.17
555.764	6.13
556.107	6.19
556.45	5.99
556.793	6.07
557.135	6.29
557.478	6.28
557.821	6.32
558.164	6.37
558.507	6.16
558.849	6.24
559.192	6.19
559.534	6.4
559.877	6.29
560.219	6.39
560.562	6.57
560.904	6.26
561.246	6.44
561.589	6.49
561.931	6.54
562.273	6.34
562.615	6.42
562.957	6.58
563.299	6.51
563.641	6.26
563.983	6.88
564.325	6.67
564.667	6.63
565.008	6.69
565.35	6.75
565.692	6.5
566.033	6.71
566.375	6.86
566.716	6.57
567.058	6.64
567.399	6.66
567.741	6.68
568.082	6.66
568.423	6.58
568.764	6.64
569.105	6.67
569.447	6.82
569.788	6.64
570.129	6.81
570.47	6.68
570.811	6.58
571.151	6.75
571.492	6.89
571.833	6.92
572.174	7.03
572.514	6.97
572.855	6.61
573.195	6.85
573.536	6.97
573.876	6.84
574.217	6.93
574.557	6.83
574.898	7.07
575.238	7.05
575.578	7.1
575.918	7.22
576.258	7.14
576.598	7.15
576.938	7.09
577.278	7.12
577.618	7.2
577.958	7.21
578.298	7.27
578.638	7.22
578.977	7.33
579.317	7.17
579.657	7.08
579.996	7.17
580.336	7.28
580.675	7.38
581.014	7.46
581.354	7.33
581.693	7.56
582.032	7.25
582.372	7.53
582.711	7.15
583.05	7.48
583.389	7.66
583.728	7.55
584.067	7.39
584.406	7.43
584.745	7.46
585.083	7.69
585.422	7.56
585.761	7.94
586.1	7.56
586.438	7.73
586.777	7.83
587.115	7.54
587.454	7.71
587.792	7.93
588.13	7.93
588.469	7.81
588.807	7.92
589.145	8.33
589.483	8.18
589.821	7.76
590.159	8.24
590.497	7.94
590.835	7.94
591.173	7.93
591.511	8.13
591.849	8.13
592.187	7.96
592.524	8.02
592.862	8.17
593.2	8.02
593.537	8.02
593.875	8.22
594.212	8.26
594.55	7.92
594.887	8.33
595.224	8.3
595.561	8.32
595.899	8.45
596.236	8.19
596.573	8.33
596.91	8.26
597.247	8.41
597.584	8.46
597.921	8.27
598.258	8.35
598.594	8.38
598.931	8.23
599.268	8.39
599.604	8.5
599.941	8.58
600.277	8.49
600.614	8.7
600.95	8.63
601.287	8.72
601.623	8.63
601.959	8.76
602.296	8.61
602.632	8.56
602.968	8.63
603.304	8.84
603.64	8.91
603.976	8.91
604.312	8.86
604.648	8.89
604.984	8.94
605.319	8.79
605.655	8.68
605.991	8.66
606.326	8.73
606.662	8.95
606.998	8.69
607.333	8.77
607.668	8.97
608.004	8.78
608.339	8.98
608.674	9.27
609.01	9
609.345	9.26
609.68	9.11
610.015	9.22
610.35	9.4
610.685	8.9
611.02	9.06
611.355	9.33
611.689	9.19
612.024	9.05
612.359	9.18
612.694	9.4
613.028	9.23
613.363	9.41
613.697	9.36
614.032	9.62
614.366	9.61
614.7	9.37
615.035	9.52
615.369	9.71
615.703	9.52
616.037	9.49
616.371	9.78
616.705	9.82
617.039	9.97
617.373	9.67
617.707	9.97
618.041	9.98
618.375	9.92
618.709	9.55
619.042	9.57
619.376	10.23
619.71	9.68
620.043	9.93
620.377	9.77
620.71	9.81
621.043	9.91
621.377	9.6
621.71	10.26
622.043	9.9
622.376	10.01
622.709	10.09
623.043	10.46
623.376	10
623.709	10.47
624.041	10.4
624.374	10.28
624.707	10.1
625.04	10.73
625.373	10.29
625.705	10.34
626.038	10.43
626.37	10.37
626.703	10.59
627.035	10.33
627.368	10.54
627.7	10.4
628.032	10.31
628.365	10.45
628.697	10.12
629.029	10.5
629.361	10.25
629.693	10.47
630.025	10.36
630.357	10.61
630.689	10.38
631.021	10.29
631.353	10.35
631.684	10.8
632.016	10.96
632.348	10.97
632.679	11.23
633.011	10.84
633.342	10.98
633.674	11.41
634.005	11.27
634.336	10.85
634.668	10.9
634.999	11.27
635.33	11.01
635.661	11
635.992	11.09
636.323	11.01
636.654	11.25
636.985	10.8
637.316	10.99
637.647	11.33
637.977	11.42
638.308	11
638.639	11.17
638.969	11.59
639.3	11.41
639.63	11.32
639.961	11.41
640.291	11.88
640.622	11.42
640.952	11.96
641.282	11.81
641.612	11.77
641.943	11.48
642.273	10.82
642.603	11.91
642.933	11.82
643.263	11.79
643.592	11.91
643.922	11.64
644.252	11.14
644.582	11.95
644.911	11.91
645.241	11.64
645.571	12.65
645.9	11.86
646.23	11.97
646.559	12.06
646.888	11.54
647.218	11.81
647.547	12.29
647.876	12.25
648.205	11.35
648.534	11.95
648.863	12.05
649.192	11.77
649.521	12.56
649.85	12.4
650.179	12.59
650.508	12.47
650.837	11.68
651.165	13.05
651.494	12.4
651.822	12.5
652.151	12.4
652.479	12.85
652.808	12.43
653.136	12.51
653.465	12.29
653.793	12.73
654.121	12.46
654.449	12.84
654.777	13.05
655.105	12.49
655.433	12.61
655.761	12.53
656.089	12.88
656.417	12.95
656.745	12.79
657.073	13.13
657.4	12.77
657.728	12.75
658.056	13.37
658.383	12.97
658.711	12.8
659.038	13.3
659.365	12.8
659.693	13.01
660.02	12.54
660.347	13.28
660.674	12.85
661.001	13.06
661.329	12.93
661.656	13.18
661.982	13.18
662.309	13.28
662.636	13.63
662.963	13.58
663.29	13.28
663.616	13.36
663.943	13.22
664.27	13.48
664.596	13.6
664.923	13.79
665.249	13.66
665.576	12.98
665.902	13.49
666.228	13.34
666.554	13.35
666.881	13.35
667.207	13.57
667.533	13.73
667.859	13.75
668.185	14.51
668.511	13.79
668.837	14.36
669.162	14.45
669.488	14.22
669.814	13.28
670.139	13.74
670.465	14.56
670.791	14.03
671.116	14.42
671.442	14.68
671.767	14.26
672.092	14.19
672.418	14.08
672.743	13.77
673.068	14.01
673.393	14
673.718	14.32
674.043	14.48
674.368	14.08
674.693	14.23
675.018	15.08
675.343	14.05
675.667	14.51
675.992	15.09
676.317	14.27
676.641	14.51
676.966	14.73
677.29	13.85
677.615	15.44
677.939	13.98
678.264	14.42
678.588	14.79
678.912	14.47
679.236	15.31
679.56	15.22
679.885	15.24
680.209	15.11
680.532	15.72
680.856	14.96
681.18	14.41
681.504	14.85
681.828	15.17
682.152	14.37
682.475	15.06
682.799	15.3
683.122	14.84
683.446	14.43
683.769	14.92
684.093	15.39
684.416	15.1
684.739	15.9
685.062	15.33
685.386	15.22
685.709	15.69
686.032	15.79
686.355	15.08
686.678	15.38
687.001	15.78
687.324	15.13
687.646	14.99
687.969	15.79
688.292	16.15
