Data from 0362_crown_Reflection__3__24.txt Node

Date: Mon Dec 11 17:52:01 CST 2023
User: ToomeyLab
Spectrometer: FLMS14357
Trigger mode: 0
Integration Time (sec): 1.000000E-2
Scans to average: 100
Electric dark correction enabled: true
Nonlinearity correction enabled: false
Boxcar width: 0
XAxis mode: Wavelengths
Number of Pixels in Spectrum: 2048
>>>>>Begin Spectral Data<<<<<
189.047	88.52
189.435	88.52
189.823	88.52
190.211	130.76
190.599	39.47
190.987	49.93
191.375	-7.55
191.763	131.58
192.151	10831.25
192.538	14.27
192.926	-395.21
193.314	59.92
193.702	-801.16
194.089	21.87
194.477	66.92
194.864	256.75
195.252	-959.7
195.639	151.15
196.027	898.26
196.414	-380.21
196.801	-71.4
197.189	44.23
197.576	96.34
197.963	0.26
198.351	-31.73
198.738	15.22
199.125	-41.25
199.512	-6.52
199.899	-11.87
200.286	19.97
200.673	-1.87
201.06	31.62
201.447	33.69
201.833	23.97
202.22	35.64
202.607	-9.42
202.994	-11.8
203.38	4.75
203.767	27.53
204.154	17.37
204.54	-6.99
204.927	6.82
205.313	17.04
205.699	-20.87
206.086	-22.16
206.472	47.69
206.858	45.33
207.245	15
207.631	32.65
208.017	27.12
208.403	12.49
208.789	-22.34
209.175	20.39
209.561	10.8
209.947	6.26
210.333	12.32
210.719	13.54
211.105	25.05
211.491	32.02
211.876	19.29
212.262	-22.4
212.648	16.25
213.034	-15.56
213.419	17.41
213.805	4.7
214.19	12.48
214.576	16.94
214.961	6.33
215.346	-2.19
215.732	17.16
216.117	3.06
216.502	10.14
216.888	8.04
217.273	11.91
217.658	14.78
218.043	-13.24
218.428	12.37
218.813	21.96
219.198	0.02
219.583	7.5
219.968	1.83
220.353	5.37
220.738	27.81
221.122	15.68
221.507	15.12
221.892	11.93
222.276	13.17
222.661	-5.3
223.046	8.37
223.43	15.99
223.815	11.69
224.199	1.99
224.583	3.28
224.968	5.14
225.352	11.32
225.736	1.89
226.121	8.83
226.505	9.33
226.889	3.01
227.273	6.86
227.657	15.67
228.041	7.16
228.425	3.69
228.809	5.36
229.193	6.8
229.577	5.71
229.961	4.31
230.344	6.1
230.728	5.51
231.112	5.25
231.495	5.57
231.879	4.96
232.263	5.04
232.646	4.73
233.03	4.65
233.413	5.38
233.797	7.65
234.18	5.73
234.563	5.29
234.946	6.8
235.33	7.01
235.713	5.94
236.096	5.53
236.479	6.45
236.862	3.56
237.245	5.34
237.628	5.5
238.011	5.86
238.394	5.8
238.777	6.27
239.16	5.72
239.543	6.86
239.925	7.37
240.308	2.72
240.691	4.45
241.073	6.32
241.456	5.17
241.838	4.97
242.221	4.89
242.603	4.78
242.986	4
243.368	4.63
243.75	4.4
244.133	4.55
244.515	4.48
244.897	4.68
245.279	4.91
245.661	4.75
246.043	4.75
246.425	5.58
246.807	5.67
247.189	5.11
247.571	4.66
247.953	5.18
248.335	5.16
248.717	4.84
249.098	4.57
249.48	4.71
249.862	5
250.243	4.39
250.625	4.61
251.006	4.63
251.388	5.24
251.769	4.99
252.151	5.42
252.532	4.62
252.913	5.59
253.295	5.37
253.676	4.89
254.057	4.12
254.438	5.08
254.819	3.98
255.2	4.51
255.581	4.61
255.962	3.87
256.343	4.47
256.724	6.24
257.105	5.05
257.486	5.26
257.867	5.52
258.247	4.7
258.628	4.98
259.009	4.28
259.389	5.45
259.77	4.42
260.15	4.28
260.531	4.76
260.911	4.27
261.292	4.06
261.672	4.36
262.052	4.32
262.432	4.6
262.813	4.62
263.193	4.29
263.573	4.14
263.953	4.39
264.333	3.78
264.713	5.04
265.093	4.67
265.473	4.91
265.853	4.28
266.233	4.18
266.612	4.63
266.992	4.65
267.372	5.78
267.752	5.5
268.131	4.85
268.511	3.97
268.89	4.34
269.27	4.54
269.649	4.56
270.029	4.86
270.408	4.11
270.787	4.31
271.167	3.71
271.546	3.86
271.925	4.27
272.304	4.51
272.683	4.5
273.062	4.1
273.441	4.09
273.82	3.83
274.199	4.07
274.578	4.56
274.957	4.1
275.336	3.79
275.715	4.16
276.093	4.87
276.472	4.89
276.851	4.67
277.229	4.79
277.608	4.13
277.986	4.38
278.365	4.26
278.743	4.2
279.122	4.04
279.5	4.8
279.878	4.27
280.257	3.76
280.635	4.22
281.013	4.12
281.391	4.52
281.769	4.48
282.147	4.21
282.525	3.85
282.903	4.57
283.281	4.09
283.659	3.82
284.037	4.09
284.415	4.4
284.792	4.3
285.17	4.4
285.548	3.94
285.925	4.18
286.303	4.42
286.68	4.25
287.058	4.3
287.435	4.3
287.813	4.24
288.19	4.04
288.567	4
288.945	4.05
289.322	3.86
289.699	3.81
290.076	3.83
290.453	4.13
290.83	4.62
291.207	3.85
291.584	4.58
291.961	4.36
292.338	3.87
292.715	4.35
293.092	3.94
293.469	4.34
293.845	3.76
294.222	4.22
294.599	3.73
294.975	4.12
295.352	4.13
295.728	4.25
296.105	4.49
296.481	3.91
296.858	3.86
297.234	4.11
297.61	4.61
297.986	4.03
298.363	3.99
298.739	3.93
299.115	3.89
299.491	4.14
299.867	4.19
300.243	3.65
300.619	4.16
300.995	4.06
301.371	3.94
301.746	3.56
302.122	4.31
302.498	4.37
302.874	4.25
303.249	4.47
303.625	4.02
304	3.98
304.376	4.39
304.751	4.03
305.127	4.32
305.502	4.66
305.878	3.94
306.253	4.43
306.628	4.23
307.003	4.27
307.378	4.24
307.754	4.53
308.129	4.01
308.504	4.24
308.879	3.89
309.254	4.51
309.629	4.51
310.003	4.4
310.378	3.9
310.753	4.33
311.128	4.57
311.502	4.03
311.877	4.14
312.252	4.29
312.626	4.35
313.001	4.12
313.375	3.91
313.75	4.22
314.124	4.44
314.498	4.11
314.873	3.77
315.247	3.61
315.621	4.72
315.995	4.58
316.369	4.34
316.743	4.05
317.117	4.73
317.491	3.9
317.865	4.08
318.239	4.34
318.613	4.22
318.987	4.52
319.361	4.69
319.734	4.19
320.108	3.67
320.482	4
320.855	3.54
321.229	3.93
321.602	4.27
321.976	5.24
322.349	4.48
322.723	3.78
323.096	4.51
323.469	5.08
323.843	4.53
324.216	4.57
324.589	4.99
324.962	4.18
325.335	4.4
325.708	4.7
326.081	4.93
326.454	4.32
326.827	4.25
327.2	3.71
327.573	3.84
327.945	4.31
328.318	4.02
328.691	4.09
329.063	3.68
329.436	3.82
329.809	4.08
330.181	4.53
330.553	4.26
330.926	4.23
331.298	4.5
331.671	3.99
332.043	4.5
332.415	4.75
332.787	4.12
333.159	3.77
333.532	4.37
333.904	4.34
334.276	4.69
334.648	4.67
335.02	4.14
335.391	4.07
335.763	3.92
336.135	4.99
336.507	4.29
336.879	4.9
337.25	4.23
337.622	4.07
337.993	4.19
338.365	4.19
338.736	4.02
339.108	4.21
339.479	4.34
339.851	4.31
340.222	4.59
340.593	3.82
340.964	4.46
341.336	4.05
341.707	4.13
342.078	4.92
342.449	4.17
342.82	4.05
343.191	4.28
343.562	4.37
343.933	4.49
344.303	3.88
344.674	4.28
345.045	4.87
345.416	4.34
345.786	4.32
346.157	4.46
346.527	4.37
346.898	4.1
347.268	4.39
347.639	4.43
348.009	4.41
348.38	3.81
348.75	4.1
349.12	4.69
349.49	3.94
349.861	3.84
350.231	3.9
350.601	4.97
350.971	4.15
351.341	3.97
351.711	4.42
352.081	4.29
352.45	4.45
352.82	3.64
353.19	4.17
353.56	3.51
353.929	4.39
354.299	4.78
354.669	4.6
355.038	4.28
355.408	4.02
355.777	4.48
356.147	4.38
356.516	4
356.885	4.16
357.254	4.34
357.624	4.32
357.993	4.01
358.362	4.68
358.731	4.11
359.1	4.35
359.469	4.15
359.838	4.45
360.207	4.02
360.576	4.53
360.945	4.54
361.314	4.64
361.682	4.47
362.051	4.19
362.42	4.13
362.788	4.11
363.157	4.15
363.525	4.18
363.894	4.26
364.262	4.35
364.631	4.48
364.999	4.43
365.367	4.57
365.735	4.2
366.104	4.02
366.472	4.44
366.84	4.32
367.208	3.75
367.576	4.77
367.944	4.43
368.312	4.26
368.68	4.34
369.048	4.36
369.416	4.13
369.783	4.4
370.151	4.78
370.519	5.11
370.886	4.25
371.254	4.46
371.621	4.49
371.989	4.41
372.356	4.24
372.724	4.7
373.091	4.56
373.458	4.24
373.826	4.41
374.193	4.57
374.56	4.63
374.927	4.74
375.294	4.46
375.661	4.39
376.028	4.69
376.395	4.41
376.762	4.49
377.129	4.76
377.496	4.3
377.863	4.54
378.229	4.45
378.596	4.64
378.963	4.41
379.329	4.44
379.696	4.7
380.062	4.33
380.429	4.1
380.795	4.55
381.161	4.17
381.528	4.79
381.894	4.44
382.26	4.33
382.626	4.52
382.993	4.48
383.359	4.04
383.725	4.43
384.091	4.21
384.457	4.31
384.823	4.6
385.188	4.32
385.554	4.19
385.92	4.31
386.286	4.39
386.651	4.3
387.017	4.33
387.383	4.34
387.748	4.47
388.114	4.17
388.479	4.37
388.845	4.17
389.21	4.3
389.575	4.39
389.94	4.45
390.306	4.38
390.671	4.59
391.036	4.4
391.401	4.73
391.766	4.62
392.131	4.76
392.496	4.59
392.861	4.7
393.226	4.54
393.591	4.58
393.956	4.35
394.32	4.65
394.685	4.48
395.05	4.53
395.414	4.62
395.779	4.41
396.143	4.41
396.508	4.44
396.872	4.38
397.236	4.48
397.601	4.51
397.965	4.31
398.329	4.42
398.694	4.33
399.058	4.46
399.422	4.67
399.786	4.58
400.15	4.36
400.514	4.64
400.878	4.58
401.242	4.61
401.605	4.52
401.969	4.57
402.333	4.35
402.697	4.57
403.06	4.56
403.424	4.38
403.787	4.65
404.151	4.43
404.514	4.38
404.878	4.46
405.241	4.44
405.604	4.49
405.968	4.42
406.331	4.17
406.694	4.33
407.057	4.47
407.42	4.68
407.783	4.44
408.146	4.48
408.509	4.36
408.872	4.52
409.235	4.44
409.598	4.63
409.961	4.57
410.323	4.55
410.686	4.53
411.049	4.45
411.411	4.56
411.774	4.73
412.136	4.56
412.499	4.66
412.861	4.43
413.223	4.52
413.586	4.86
413.948	4.6
414.31	4.5
414.672	4.52
415.035	4.58
415.397	4.57
415.759	4.6
416.121	4.59
416.483	4.78
416.845	4.68
417.206	4.57
417.568	4.69
417.93	4.73
418.292	4.57
418.653	4.47
419.015	4.36
419.377	4.5
419.738	4.55
420.1	4.47
420.461	4.38
420.822	4.37
421.184	4.47
421.545	4.48
421.906	4.39
422.267	4.48
422.629	4.44
422.99	4.5
423.351	4.3
423.712	4.37
424.073	4.45
424.434	4.45
424.795	4.58
425.155	4.46
425.516	4.4
425.877	4.36
426.238	4.48
426.598	4.43
426.959	4.49
427.32	4.52
427.68	4.59
428.041	4.41
428.401	4.37
428.761	4.52
429.122	4.49
429.482	4.68
429.842	4.71
430.202	4.63
430.563	4.49
430.923	4.72
431.283	4.61
431.643	4.69
432.003	4.67
432.363	4.86
432.722	4.58
433.082	4.6
433.442	4.59
433.802	4.47
434.161	4.76
434.521	4.42
434.881	4.56
435.24	4.44
435.6	4.52
435.959	4.55
436.319	4.5
436.678	4.56
437.037	4.53
437.396	4.68
437.756	4.76
438.115	4.72
438.474	4.71
438.833	4.76
439.192	4.63
439.551	4.66
439.91	4.67
440.269	4.6
440.628	4.44
440.987	4.77
441.345	4.59
441.704	4.57
442.063	4.62
442.421	4.55
442.78	4.54
443.138	4.65
443.497	4.63
443.855	4.44
444.214	4.68
444.572	4.6
444.93	4.64
445.288	4.55
445.647	4.79
446.005	4.49
446.363	4.56
446.721	4.55
447.079	4.53
447.437	4.48
447.795	4.49
448.153	4.52
448.51	4.57
448.868	4.46
449.226	4.38
449.584	4.48
449.941	4.71
450.299	4.56
450.656	4.6
451.014	4.75
451.371	4.67
451.729	4.75
452.086	4.75
452.443	4.73
452.801	4.56
453.158	4.68
453.515	4.55
453.872	4.64
454.229	4.66
454.586	4.59
454.943	4.7
455.3	4.64
455.657	4.71
456.014	4.66
456.371	4.76
456.727	4.68
457.084	4.74
457.441	4.81
457.797	4.67
458.154	4.84
458.51	4.75
458.867	4.54
459.223	4.78
459.58	4.52
459.936	4.66
460.292	4.67
460.648	4.73
461.005	4.7
461.361	4.58
461.717	4.56
462.073	4.55
462.429	4.7
462.785	4.58
463.141	4.65
463.496	4.83
463.852	4.67
464.208	4.65
464.564	4.53
464.919	4.56
465.275	4.5
465.631	4.6
465.986	4.82
466.342	4.86
466.697	4.74
467.052	4.66
467.408	4.87
467.763	4.59
468.118	4.57
468.473	4.61
468.829	4.88
469.184	4.84
469.539	4.69
469.894	4.58
470.249	4.58
470.603	4.65
470.958	4.7
471.313	4.74
471.668	4.9
472.023	4.93
472.377	4.75
472.732	4.73
473.086	4.74
473.441	4.89
473.795	4.86
474.15	4.77
474.504	4.79
474.859	4.87
475.213	4.63
475.567	4.74
475.921	4.81
476.275	4.71
476.63	4.55
476.984	4.76
477.338	4.67
477.692	4.76
478.045	4.71
478.399	4.74
478.753	4.58
479.107	4.77
479.461	4.76
479.814	4.64
480.168	4.79
480.521	4.81
480.875	4.72
481.228	4.72
481.582	4.93
481.935	4.56
482.289	4.85
482.642	4.71
482.995	4.72
483.348	4.69
483.701	4.55
484.055	4.65
484.408	4.66
484.761	4.62
485.114	4.5
485.466	4.42
485.819	4.32
486.172	4.35
486.525	4.36
486.878	4.43
487.23	4.52
487.583	4.6
487.936	4.62
488.288	4.61
488.641	4.52
488.993	4.53
489.345	4.56
489.698	4.42
490.05	4.49
490.402	4.49
490.754	4.55
491.107	4.55
491.459	4.62
491.811	4.67
492.163	4.68
492.515	4.7
492.866	4.62
493.218	4.52
493.57	4.53
493.922	4.5
494.274	4.49
494.625	4.54
494.977	4.68
495.328	4.71
495.68	4.8
496.031	4.6
496.383	4.63
496.734	4.78
497.086	4.7
497.437	4.81
497.788	4.75
498.139	4.67
498.49	4.74
498.842	4.75
499.193	4.7
499.544	4.64
499.894	4.67
500.245	4.7
500.596	4.8
500.947	4.76
501.298	4.77
501.648	4.57
501.999	4.79
502.35	4.78
502.7	4.86
503.051	4.79
503.401	4.81
503.752	4.68
504.102	4.72
504.452	4.77
504.803	4.89
505.153	4.84
505.503	4.81
505.853	4.88
506.203	4.75
506.553	4.85
506.903	4.75
507.253	4.81
507.603	4.76
507.953	4.87
508.303	4.78
508.652	4.61
509.002	4.86
509.352	4.89
509.701	4.78
510.051	4.81
510.4	4.64
510.75	4.67
511.099	4.7
511.449	4.72
511.798	4.63
512.147	4.78
512.496	4.73
512.846	4.74
513.195	4.92
513.544	4.82
513.893	4.72
514.242	4.79
514.591	4.68
514.939	4.75
515.288	4.84
515.637	4.8
515.986	4.72
516.334	4.77
516.683	4.96
517.032	4.81
517.38	4.82
517.729	4.91
518.077	4.89
518.426	4.94
518.774	4.87
519.122	4.89
519.47	4.74
519.819	4.78
520.167	4.67
520.515	4.64
520.863	4.73
521.211	4.73
521.559	4.77
521.907	4.78
522.255	4.72
522.602	4.67
522.95	4.86
523.298	4.82
523.645	5.01
523.993	4.74
524.341	4.94
524.688	4.73
525.036	4.83
525.383	4.87
525.73	5.03
526.078	4.94
526.425	4.76
526.772	4.8
527.119	4.86
527.466	4.73
527.814	4.74
528.161	4.72
528.508	4.72
528.854	4.73
529.201	4.73
529.548	4.67
529.895	4.61
530.242	4.53
530.588	4.55
530.935	4.58
531.282	4.58
531.628	4.61
531.975	4.64
532.321	4.7
532.667	4.78
533.014	4.73
533.36	4.77
533.706	4.85
534.052	4.77
534.399	4.81
534.745	4.82
535.091	4.63
535.437	4.6
535.783	4.67
536.129	4.76
536.474	4.78
536.82	4.77
537.166	4.82
537.512	4.82
537.857	4.9
538.203	4.82
538.549	4.86
538.894	4.79
539.239	4.85
539.585	4.84
539.93	4.85
540.276	4.97
540.621	4.81
540.966	4.9
541.311	4.97
541.656	4.93
542.001	4.94
542.346	4.89
542.691	4.81
543.036	4.67
543.381	4.59
543.726	4.68
544.071	4.67
544.415	4.67
544.76	4.77
545.105	4.74
545.449	4.67
545.794	4.79
546.138	4.85
546.483	4.77
546.827	5.04
547.171	4.77
547.516	4.8
547.86	4.9
548.204	4.9
548.548	4.87
548.892	4.87
549.236	4.9
549.58	4.85
549.924	4.83
550.268	4.92
550.612	4.96
550.956	4.91
551.3	5.06
551.643	4.9
551.987	5.14
552.33	5.07
552.674	5.02
553.017	4.98
553.361	4.84
553.704	4.89
554.048	5.02
554.391	4.87
554.734	5.01
555.077	4.91
555.42	5.01
555.764	4.97
556.107	4.97
556.45	4.92
556.793	4.98
557.135	4.98
557.478	4.97
557.821	5
558.164	5.1
558.507	4.95
558.849	5.16
559.192	4.97
559.534	4.99
559.877	5.05
560.219	4.84
560.562	5.15
560.904	5.18
561.246	5.08
561.589	5.21
561.931	5.18
562.273	4.99
562.615	5
562.957	4.97
563.299	5.06
563.641	4.87
563.983	4.95
564.325	5.1
564.667	5.1
565.008	5.21
565.35	5.3
565.692	5.05
566.033	5.16
566.375	5.04
566.716	5.17
567.058	5.06
567.399	5.07
567.741	4.8
568.082	5.07
568.423	4.91
568.764	4.88
569.105	5
569.447	5.12
569.788	5.05
570.129	5.14
570.47	4.89
570.811	5.05
571.151	4.97
571.492	5.3
571.833	4.94
572.174	5.28
572.514	5.05
572.855	4.88
573.195	5.05
573.536	4.96
573.876	5.05
574.217	4.96
574.557	5.02
574.898	5.17
575.238	5.08
575.578	5.04
575.918	5.21
576.258	5.15
576.598	5.01
576.938	5.18
577.278	5.16
577.618	5.04
577.958	4.99
578.298	5.13
578.638	5.33
578.977	5.19
579.317	5.18
579.657	5.09
579.996	5.04
580.336	5.28
580.675	5.35
581.014	5.23
581.354	4.95
581.693	5.15
582.032	4.86
582.372	5.21
582.711	5.19
583.05	4.99
583.389	5.24
583.728	5.15
584.067	5.08
584.406	5.08
584.745	5.2
585.083	5.14
585.422	5.11
585.761	5.36
586.1	5.23
586.438	4.97
586.777	5.23
587.115	4.77
587.454	5.07
587.792	4.91
588.13	5.34
588.469	5.2
588.807	5.16
589.145	5.54
589.483	5.11
589.821	5
590.159	5.17
590.497	5.16
590.835	5.31
591.173	5.08
591.511	5.19
591.849	5.44
592.187	5.09
592.524	5.2
592.862	5.17
593.2	5.26
593.537	5.13
593.875	5.14
594.212	5.09
594.55	5.05
594.887	5.15
595.224	5.37
595.561	5.23
595.899	5.12
596.236	5.21
596.573	5.22
596.91	4.9
597.247	5.03
597.584	5.13
597.921	5.22
598.258	5.15
598.594	5.19
598.931	5.12
599.268	5.26
599.604	5.19
599.941	5.35
600.277	5.1
600.614	5.39
600.95	5.19
601.287	5.04
601.623	5.4
601.959	5.16
602.296	5.27
602.632	5.14
602.968	5.17
603.304	5.05
603.64	5.35
603.976	5.6
604.312	5.16
604.648	5.21
604.984	5.57
605.319	5.21
605.655	5.13
605.991	5.05
606.326	5.16
606.662	5.17
606.998	5.11
607.333	5.22
607.668	5.29
608.004	5.16
608.339	5.45
608.674	5.3
609.01	5.19
609.345	5.24
609.68	5.23
610.015	5.32
610.35	5.34
610.685	5.32
611.02	5.11
611.355	5.31
611.689	5.27
612.024	5.15
612.359	5.34
612.694	5.31
613.028	5.17
613.363	4.89
613.697	5.16
614.032	5.37
614.366	5.36
614.7	5.14
615.035	5.33
615.369	5.62
615.703	5.65
616.037	5.39
616.371	5.3
616.705	5.44
617.039	5.67
617.373	5.37
617.707	5.43
618.041	5.59
618.375	5.54
618.709	5.18
619.042	5.16
619.376	5.49
619.71	5.31
620.043	4.9
620.377	5.17
620.71	5.53
621.043	5.2
621.377	4.7
621.71	5.21
622.043	5.01
622.376	5.43
622.709	5.55
623.043	5.53
623.376	5.36
623.709	5.31
624.041	5.19
624.374	4.93
624.707	5.01
625.04	6.19
625.373	5.6
625.705	5.43
626.038	5.38
626.37	5.66
626.703	5.6
627.035	5.68
627.368	5.7
627.7	5.08
628.032	5.52
628.365	5.25
628.697	5.35
629.029	5.32
629.361	5.17
629.693	5.37
630.025	5.32
630.357	5.12
630.689	5.27
631.021	5.1
631.353	5.62
631.684	5.35
632.016	5.35
632.348	5.51
632.679	5.82
633.011	5.71
633.342	5.5
633.674	5.44
634.005	5.92
634.336	5.75
634.668	5.39
634.999	5.77
635.33	5.35
635.661	5.45
635.992	5.43
636.323	5.06
636.654	5.36
636.985	5.24
637.316	5.39
637.647	5.14
637.977	5.53
638.308	5.47
638.639	5.24
638.969	5.24
639.3	5.65
639.63	5.52
639.961	5.65
640.291	6.11
640.622	5.36
640.952	5.74
641.282	5.2
641.612	5.7
641.943	5.6
642.273	5.45
642.603	5.62
642.933	5.62
643.263	5.85
643.592	5.67
643.922	5.25
644.252	5.33
644.582	5.42
644.911	5.52
645.241	5.33
645.571	5.49
645.9	5.05
646.23	5.89
646.559	5.8
646.888	5.42
647.218	5.72
647.547	5.36
647.876	5.76
648.205	5.28
648.534	5.82
648.863	5.39
649.192	5.58
649.521	5.81
649.85	5.77
650.179	5.66
650.508	5.77
650.837	5.32
651.165	5.79
651.494	5.68
651.822	5.59
652.151	6.63
652.479	5.78
652.808	6.12
653.136	5.53
653.465	6.04
653.793	5.43
654.121	5.54
654.449	5.93
654.777	5.83
655.105	5.53
655.433	5.87
655.761	5.7
656.089	5.28
656.417	5.79
656.745	6.29
657.073	6
657.4	5.29
657.728	5.8
658.056	6.21
658.383	5.83
658.711	5.98
659.038	5.82
659.365	5.34
659.693	5.87
660.02	5.15
660.347	5.43
660.674	5.63
661.001	5.33
661.329	5.9
661.656	5.55
661.982	5.64
662.309	5.87
662.636	5.51
662.963	5.96
663.29	5.48
663.616	5.29
663.943	5.39
664.27	5.98
664.596	6.34
664.923	6.12
665.249	5.42
665.576	5.63
665.902	5.4
666.228	5.82
666.554	5.78
666.881	5.6
667.207	6.67
667.533	5.58
667.859	5.67
668.185	5.99
668.511	5.78
668.837	5.86
669.162	5.86
669.488	5.7
669.814	5.6
670.139	5.99
670.465	5.61
670.791	5.7
671.116	5.95
671.442	6.42
671.767	6.33
672.092	5.78
672.418	5.8
672.743	5.14
673.068	5.73
673.393	5.75
673.718	5.71
674.043	6.16
674.368	6.11
674.693	6.04
675.018	6.14
675.343	5.74
675.667	5.5
675.992	5.79
676.317	5.57
676.641	6.13
676.966	6.35
677.29	5.19
677.615	5.81
677.939	6.02
678.264	6.01
678.588	6.61
678.912	5.54
679.236	6.11
679.56	5.67
679.885	5.37
680.209	5.61
680.532	6.11
680.856	6.03
681.18	5.73
681.504	5.71
681.828	5.43
682.152	5.26
682.475	6.04
682.799	5.9
683.122	6.13
683.446	5
683.769	6.35
684.093	5.84
684.416	5.47
684.739	6.12
685.062	6.16
685.386	5.5
685.709	6.26
686.032	6.01
686.355	6.04
686.678	6.07
687.001	6.11
687.324	5.23
687.646	5.53
687.969	6.56
688.292	6.42
688.614	6.59
688.937	6.54
689.26	5.78
689.582	5.87
689.904	6.46
690.227	6.36
690.549	5.96
690.871	5.86
691.194	5.78
691.516	5.33
691.838	6.3
692.16	6.77
692.482	6.26
692.804	5.47
693.126	6.23
