Data from 0362_forehead_Reflection__1__27.txt Node

Date: Mon Dec 11 17:52:47 CST 2023
User: ToomeyLab
Spectrometer: FLMS14357
Trigger mode: 0
Integration Time (sec): 1.000000E-2
Scans to average: 100
Electric dark correction enabled: true
Nonlinearity correction enabled: false
Boxcar width: 0
XAxis mode: Wavelengths
Number of Pixels in Spectrum: 2048
>>>>>Begin Spectral Data<<<<<
189.047	-5.68
189.435	-5.68
189.823	-5.68
190.211	149.86
190.599	32.72
190.987	52.14
191.375	0.27
191.763	149.67
192.151	-587.5
192.538	186.48
192.926	6.81
193.314	199.23
193.702	421.76
194.089	199.08
194.477	38.59
194.864	201.11
195.252	103.02
195.639	22.97
196.027	149.31
196.414	428.87
196.801	218.04
197.189	2.04
197.576	119.41
197.963	-1.76
198.351	10.04
198.738	21.08
199.125	-34.94
199.512	27.27
199.899	16.01
200.286	12.02
200.673	-0.15
201.06	54.1
201.447	20.57
201.833	38.27
202.22	49.16
202.607	47.3
202.994	-79.75
203.38	-28.04
203.767	35.55
204.154	52.3
204.54	-10.47
204.927	4.76
205.313	-3.43
205.699	3.48
206.086	23.69
206.472	22.75
206.858	43.95
207.245	4.17
207.631	29.08
208.017	32.34
208.403	37.5
208.789	-19.57
209.175	24.55
209.561	23.22
209.947	25.23
210.333	7.23
210.719	40.63
211.105	6.69
211.491	15.47
211.876	46.65
212.262	-1.87
212.648	-8.69
213.034	-21.45
213.419	37.84
213.805	70.49
214.19	12.54
214.576	-7.1
214.961	31.93
215.346	3.5
215.732	5.9
216.117	19.66
216.502	22.94
216.888	18.92
217.273	20.18
217.658	8.38
218.043	-11.79
218.428	7.77
218.813	23.82
219.198	2.04
219.583	7.26
219.968	23.82
220.353	9.07
220.738	34.86
221.122	22.31
221.507	19.42
221.892	23.31
222.276	14.26
222.661	8.18
223.046	7.12
223.43	21.67
223.815	-0.84
224.199	9.46
224.583	0.93
224.968	7.94
225.352	0.24
225.736	10
226.121	5.75
226.505	8.71
226.889	6.22
227.273	10.58
227.657	11.45
228.041	7.07
228.425	5.21
228.809	2.56
229.193	4.93
229.577	4.66
229.961	5.59
230.344	4.42
230.728	3.98
231.112	4.26
231.495	5.15
231.879	3.85
232.263	3.91
232.646	3.08
233.03	4.42
233.413	5.12
233.797	5.13
234.18	4.93
234.563	6.97
234.946	4.57
235.33	6.96
235.713	4.6
236.096	3.85
236.479	5.21
236.862	3.39
237.245	5.01
237.628	4.67
238.011	3.37
238.394	3.87
238.777	5.01
239.16	4.92
239.543	4.92
239.925	5.1
240.308	4.67
240.691	5.73
241.073	3.04
241.456	3.25
241.838	6.77
242.221	5.21
242.603	3.45
242.986	3.49
243.368	4.05
243.75	4.18
244.133	4.27
244.515	3.82
244.897	4.14
245.279	4.06
245.661	4.85
246.043	4
246.425	5.12
246.807	4.97
247.189	4.64
247.571	4.32
247.953	4.6
248.335	4.1
248.717	4.38
249.098	3.92
249.48	3.95
249.862	4.4
250.243	4.56
250.625	4.02
251.006	3.75
251.388	4.72
251.769	5.01
252.151	4.65
252.532	5.02
252.913	5.27
253.295	4.5
253.676	4.13
254.057	4.44
254.438	4.25
254.819	3.87
255.2	3.84
255.581	3.65
255.962	4.4
256.343	4.44
256.724	3.69
257.105	4.75
257.486	4.8
257.867	4.79
258.247	4
258.628	4.78
259.009	4.8
259.389	4.72
259.77	3.91
260.15	3.68
260.531	4.32
260.911	3.6
261.292	3.84
261.672	4.02
262.052	3.98
262.432	4.16
262.813	4.16
263.193	3.28
263.573	4.14
263.953	3.69
264.333	4.37
264.713	5.09
265.093	4.36
265.473	4.87
265.853	4
266.233	4.07
266.612	5.44
266.992	4.64
267.372	4.44
267.752	5.34
268.131	4.26
268.511	3.89
268.89	4.57
269.27	4.7
269.649	4.18
270.029	5.3
270.408	4.12
270.787	4.04
271.167	3.87
271.546	4.66
271.925	4.01
272.304	3.97
272.683	4.31
273.062	3.39
273.441	3.75
273.82	4.26
274.199	4.02
274.578	4.15
274.957	3.93
275.336	3.56
275.715	4.28
276.093	4.8
276.472	4.01
276.851	4.98
277.229	4.27
277.608	3.95
277.986	4.57
278.365	3.83
278.743	3.84
279.122	3.78
279.5	4.35
279.878	4.16
280.257	4.06
280.635	4.54
281.013	3.14
281.391	3.79
281.769	3.37
282.147	4.02
282.525	3.54
282.903	4.26
283.281	4.11
283.659	3.64
284.037	3.49
284.415	3.62
284.792	4.04
285.17	3.96
285.548	3.99
285.925	3.85
286.303	3.85
286.68	3.84
287.058	3.85
287.435	4.11
287.813	4.23
288.19	3.79
288.567	3.71
288.945	3.85
289.322	4.15
289.699	3.56
290.076	3.46
290.453	4.16
290.83	4.2
291.207	4.04
291.584	3.66
291.961	3.91
292.338	4.12
292.715	4.29
293.092	3.65
293.469	4.38
293.845	4.38
294.222	4.81
294.599	3.91
294.975	4.02
295.352	3.6
295.728	3.94
296.105	4.22
296.481	4.13
296.858	4.17
297.234	4.57
297.61	4.61
297.986	4.34
298.363	4.1
298.739	3.94
299.115	4.1
299.491	4.3
299.867	4.44
300.243	4.56
300.619	4.38
300.995	4.3
301.371	4.6
301.746	4.48
302.122	4.65
302.498	4.79
302.874	4.76
303.249	4.94
303.625	4.39
304	4.54
304.376	4.87
304.751	4.25
305.127	4.83
305.502	5.13
305.878	4.88
306.253	5.03
306.628	4.97
307.003	5.3
307.378	5.09
307.754	5.27
308.129	4.66
308.504	4.67
308.879	5.12
309.254	5.47
309.629	5.71
310.003	5.53
310.378	5.35
310.753	5.52
311.128	5.17
311.502	5.06
311.877	5.71
312.252	5.32
312.626	5.51
313.001	5.7
313.375	4.89
313.75	5.49
314.124	5.7
314.498	5.38
314.873	5.82
315.247	5.35
315.621	6.12
315.995	6.25
316.369	5.95
316.743	5.98
317.117	6.07
317.491	6.27
317.865	6.34
318.239	5.83
318.613	6.29
318.987	6.41
319.361	6.9
319.734	6.11
320.108	6.36
320.482	5.67
320.855	5.92
321.229	6.27
321.602	6.89
321.976	6.99
322.349	6.4
322.723	6.39
323.096	6.77
323.469	7.1
323.843	7.13
324.216	7.45
324.589	7.21
324.962	6.37
325.335	7.14
325.708	6.92
326.081	7.11
326.454	7.03
326.827	7.3
327.2	6.65
327.573	7.18
327.945	7.3
328.318	7.13
328.691	7.48
329.063	7.4
329.436	7.57
329.809	7.38
330.181	7.83
330.553	7.46
330.926	7.51
331.298	8.26
331.671	7.78
332.043	7.99
332.415	7.61
332.787	8.15
333.159	7.83
333.532	7.69
333.904	8.14
334.276	7.75
334.648	8.5
335.02	7.68
335.391	7.48
335.763	8.11
336.135	8.12
336.507	8.03
336.879	8.6
337.25	8.17
337.622	7.76
337.993	8.2
338.365	8.13
338.736	8.25
339.108	8.16
339.479	8.57
339.851	8.35
340.222	8.33
340.593	8.04
340.964	8.32
341.336	8.15
341.707	8.25
342.078	8.83
342.449	8.51
342.82	8.29
343.191	8.55
343.562	8.78
343.933	8.8
344.303	8.59
344.674	8.82
345.045	8.93
345.416	8.8
345.786	8.91
346.157	8.71
346.527	8.96
346.898	9.01
347.268	8.8
347.639	8.96
348.009	9.01
348.38	8.78
348.75	9.35
349.12	9.13
349.49	9.55
349.861	8.95
350.231	9.25
350.601	9.64
350.971	9.24
351.341	9.23
351.711	9.58
352.081	9.36
352.45	9.64
352.82	9.16
353.19	9.47
353.56	9.59
353.929	9.73
354.299	9.88
354.669	10.22
355.038	9.77
355.408	9.95
355.777	9.93
356.147	9.66
356.516	9.46
356.885	9.68
357.254	10.16
357.624	9.86
357.993	9.74
358.362	9.75
358.731	9.72
359.1	10.24
359.469	10.08
359.838	10.25
360.207	10.21
360.576	10.19
360.945	10.45
361.314	10.45
361.682	10.2
362.051	10.35
362.42	10.07
362.788	10.13
363.157	10.4
363.525	10.36
363.894	10.41
364.262	10.5
364.631	10.48
364.999	10.6
365.367	10.74
365.735	10.86
366.104	10.73
366.472	10.54
366.84	10.64
367.208	10.69
367.576	11.24
367.944	11.33
368.312	10.98
368.68	10.85
369.048	10.33
369.416	11.16
369.783	11.13
370.151	11.58
370.519	11.6
370.886	11.5
371.254	11.76
371.621	11.69
371.989	11.19
372.356	11.35
372.724	11.72
373.091	11.84
373.458	11.69
373.826	11.72
374.193	11.71
374.56	12.08
374.927	12
375.294	11.98
375.661	11.8
376.028	12.08
376.395	12.07
376.762	12.21
377.129	12.2
377.496	11.79
377.863	11.77
378.229	12.22
378.596	12.32
378.963	12.37
379.329	12.19
379.696	12.3
380.062	12.12
380.429	12.05
380.795	12.43
381.161	12.4
381.528	12.84
381.894	12.48
382.26	12.55
382.626	12.46
382.993	12.79
383.359	12.53
383.725	12.49
384.091	13.1
384.457	12.34
384.823	13.23
385.188	12.78
385.554	12.96
385.92	12.86
386.286	12.96
386.651	12.93
387.017	13.1
387.383	13
387.748	12.93
388.114	12.92
388.479	13.26
388.845	13.07
389.21	13.11
389.575	13.25
389.94	13.24
390.306	13.26
390.671	13.2
391.036	13.56
391.401	13.75
391.766	13.5
392.131	13.47
392.496	14
392.861	13.55
393.226	13.72
393.591	13.76
393.956	13.61
394.32	13.78
394.685	13.62
395.05	14.08
395.414	14.12
395.779	14
396.143	13.89
396.508	13.81
396.872	14.19
397.236	14.03
397.601	14.06
397.965	14.27
398.329	14.08
398.694	14.18
399.058	14.31
399.422	14.38
399.786	14.2
400.15	14.35
400.514	14.45
400.878	14.26
401.242	14.29
401.605	14.42
401.969	14.47
402.333	14.31
402.697	14.51
403.06	14.75
403.424	14.8
403.787	14.9
404.151	14.68
404.514	14.62
404.878	14.74
405.241	14.81
405.604	14.79
405.968	14.91
406.331	14.73
406.694	14.65
407.057	14.82
407.42	15.11
407.783	14.87
408.146	15.25
408.509	14.99
408.872	15.22
409.235	14.85
409.598	15.34
409.961	15.34
410.323	15.45
410.686	15.45
411.049	15.44
411.411	15.51
411.774	15.48
412.136	15.48
412.499	15.63
412.861	15.43
413.223	15.46
413.586	15.69
413.948	15.79
414.31	15.64
414.672	15.6
415.035	15.58
415.397	15.48
415.759	15.89
416.121	15.83
416.483	15.92
416.845	16.14
417.206	15.87
417.568	16.04
417.93	16.05
418.292	15.96
418.653	15.79
419.015	15.86
419.377	16.14
419.738	16.12
420.1	16.07
420.461	16
420.822	15.97
421.184	16.05
421.545	16.1
421.906	16.11
422.267	16.09
422.629	16.05
422.99	16.16
423.351	16.18
423.712	16.15
424.073	16.21
424.434	16.38
424.795	16.36
425.155	16.47
425.516	16.48
425.877	16.36
426.238	16.53
426.598	16.46
426.959	16.45
427.32	16.69
427.68	16.83
428.041	16.92
428.401	16.8
428.761	17.01
429.122	16.99
429.482	17.2
429.842	17.25
430.202	17.43
430.563	17.54
430.923	17.33
431.283	17.4
431.643	17.45
432.003	17.64
432.363	17.38
432.722	17.72
433.082	17.62
433.442	17.74
433.802	17.63
434.161	17.96
434.521	17.37
434.881	17.55
435.24	17.69
435.6	17.71
435.959	17.69
436.319	17.76
436.678	18.06
437.037	17.96
437.396	17.99
437.756	18.35
438.115	18.13
438.474	18.17
438.833	18.3
439.192	18.3
439.551	18.31
439.91	18.49
440.269	18.6
440.628	18.21
440.987	18.5
441.345	18.28
441.704	18.57
442.063	18.35
442.421	18.58
442.78	18.41
443.138	18.44
443.497	18.66
443.855	18.66
444.214	18.78
444.572	18.72
444.93	18.92
445.288	18.94
445.647	19.02
446.005	18.99
446.363	19.02
446.721	18.91
447.079	18.97
447.437	19
447.795	18.81
448.153	18.85
448.51	18.97
448.868	18.95
449.226	18.85
449.584	19.16
449.941	19.4
450.299	19.41
450.656	19.37
451.014	19.52
451.371	19.66
451.729	19.78
452.086	19.76
452.443	19.93
452.801	19.79
453.158	20.2
453.515	20.11
453.872	19.95
454.229	20.04
454.586	20.04
454.943	20.01
455.3	20.15
455.657	20.18
456.014	20.28
456.371	20.38
456.727	20.36
457.084	20.28
457.441	20.43
457.797	20.3
458.154	20.45
458.51	20.71
458.867	20.49
459.223	20.65
459.58	20.59
459.936	20.74
460.292	20.59
460.648	20.72
461.005	20.68
461.361	20.54
461.717	20.35
462.073	20.32
462.429	20.48
462.785	20.64
463.141	20.72
463.496	21.1
463.852	21.07
464.208	21.13
464.564	21.37
464.919	21.29
465.275	21.23
465.631	21.41
465.986	21.71
466.342	21.61
466.697	21.38
467.052	21.41
467.408	21.78
467.763	21.54
468.118	21.56
468.473	21.59
468.829	21.76
469.184	21.94
469.539	21.78
469.894	21.58
470.249	21.91
470.603	21.95
470.958	21.86
471.313	21.97
471.668	22.1
472.023	22.2
472.377	22.27
472.732	22.23
473.086	22.41
473.441	22.42
473.795	22.41
474.15	22.36
474.504	22.37
474.859	22.41
475.213	22.33
475.567	22.31
475.921	22.73
476.275	22.61
476.63	22.73
476.984	22.7
477.338	22.67
477.692	22.88
478.045	22.68
478.399	22.66
478.753	22.67
479.107	22.77
479.461	22.94
479.814	23.02
480.168	22.99
480.521	22.98
480.875	23.1
481.228	22.93
481.582	23.24
481.935	23.09
482.289	23.24
482.642	23.11
482.995	23.21
483.348	23.08
483.701	22.83
484.055	23.12
484.408	22.85
484.761	22.78
485.114	22.73
485.466	22.43
485.819	22.27
486.172	22.31
486.525	22.39
486.878	22.61
487.23	22.78
487.583	22.94
487.936	23.17
488.288	23.33
488.641	23.15
488.993	22.99
489.345	22.97
489.698	22.96
490.05	23.03
490.402	22.92
490.754	23.04
491.107	23.25
491.459	23.55
491.811	23.76
492.163	23.92
492.515	23.92
492.866	23.82
493.218	23.44
493.57	23.39
493.922	23.48
494.274	23.56
494.625	23.79
494.977	23.98
495.328	24.07
495.68	24.38
496.031	24.64
496.383	24.56
496.734	24.75
497.086	24.66
497.437	24.8
497.788	24.92
498.139	24.79
498.49	24.81
498.842	24.83
499.193	24.85
499.544	24.81
499.894	24.9
500.245	24.93
500.596	25.24
500.947	25.05
501.298	25.23
501.648	25.19
501.999	25.25
502.35	25.51
502.7	25.47
503.051	25.52
503.401	25.64
503.752	25.51
504.102	25.62
504.452	25.9
504.803	25.88
505.153	25.8
505.503	25.86
505.853	25.95
506.203	25.69
506.553	25.83
506.903	25.86
507.253	26.12
507.603	26.04
507.953	26.14
508.303	26.14
508.652	26.27
509.002	26.27
509.352	26.22
509.701	26.33
510.051	26.07
510.4	26.03
510.75	26.11
511.099	26.24
511.449	26.22
511.798	26.23
512.147	26.36
512.496	26.35
512.846	26.5
513.195	26.71
513.544	26.67
513.893	26.55
514.242	26.69
514.591	26.83
514.939	26.64
515.288	26.76
515.637	26.89
515.986	26.9
516.334	26.93
516.683	27.01
517.032	27.15
517.38	27.13
517.729	27.29
518.077	27.31
518.426	27.21
518.774	27.38
519.122	27.25
519.47	27.19
519.819	27.19
520.167	27
520.515	26.95
520.863	26.83
521.211	27.16
521.559	27.05
521.907	27.2
522.255	27.37
522.602	27.56
522.95	27.67
523.298	27.74
523.645	27.89
523.993	27.87
524.341	28.2
524.688	27.96
525.036	27.96
525.383	28.02
525.73	28.19
526.078	28.09
526.425	27.91
526.772	28.03
527.119	27.9
527.466	27.7
527.814	27.75
528.161	27.74
528.508	27.82
528.854	27.9
529.201	27.81
529.548	28.06
529.895	27.76
530.242	27.36
530.588	27.39
530.935	27.39
531.282	27.56
531.628	27.57
531.975	27.72
532.321	28.03
532.667	28.08
533.014	28.21
533.36	28.34
533.706	28.46
534.052	28.45
534.399	28.57
534.745	28.36
535.091	28.16
535.437	28.21
535.783	28.16
536.129	28.43
536.474	28.5
536.82	28.71
537.166	28.74
537.512	28.91
537.857	29
538.203	29.06
538.549	28.8
538.894	28.85
539.239	29.11
539.585	29.19
539.93	29.33
540.276	29.43
540.621	29.6
540.966	29.58
541.311	29.55
541.656	29.69
542.001	29.85
542.346	29.7
542.691	29.38
543.036	29.05
543.381	28.95
543.726	29.06
544.071	29.13
544.415	29.2
544.76	29.29
545.105	29.5
545.449	29.55
545.794	29.79
546.138	29.82
546.483	29.98
546.827	30.17
547.171	30.18
547.516	30.3
547.86	30.25
548.204	30.46
548.548	29.99
548.892	30.2
549.236	30.29
549.58	30.48
549.924	30.72
550.268	30.69
550.612	30.8
550.956	31.09
551.3	30.91
551.643	31.14
551.987	31.11
552.33	31.25
552.674	31.41
553.017	31.45
553.361	31.31
553.704	31.29
554.048	31.62
554.391	31.48
554.734	31.3
555.077	31.39
555.42	31.28
555.764	31.54
556.107	31.65
556.45	31.69
556.793	31.63
557.135	31.76
557.478	31.74
557.821	31.92
558.164	32.08
558.507	31.9
558.849	32.22
559.192	31.85
559.534	32.16
559.877	32.05
560.219	32.21
560.562	32.56
560.904	32.28
561.246	32.36
561.589	32.31
561.931	32.27
562.273	32.37
562.615	32.55
562.957	32.46
563.299	32.5
563.641	32.61
563.983	32.53
564.325	32.65
564.667	32.74
565.008	32.82
565.35	32.94
565.692	32.8
566.033	32.83
566.375	32.96
566.716	33.04
567.058	32.8
567.399	32.79
567.741	32.65
568.082	32.96
568.423	32.78
568.764	32.82
569.105	33.17
569.447	33.33
569.788	33.12
570.129	33.26
570.47	33.19
570.811	33.28
571.151	33.18
571.492	33.41
571.833	33.24
572.174	33.69
572.514	33.39
572.855	33.38
573.195	33.32
573.536	33.35
573.876	33.73
574.217	33.58
574.557	33.4
574.898	33.74
575.238	33.79
575.578	33.79
575.918	33.57
576.258	33.88
576.598	34.04
576.938	33.71
577.278	33.78
577.618	33.66
577.958	34.06
578.298	34.14
578.638	34.09
578.977	34.17
579.317	34.21
579.657	34.17
579.996	34.11
580.336	34.22
580.675	34.39
581.014	34.74
581.354	34.65
581.693	34.95
582.032	34.66
582.372	34.84
582.711	34.93
583.05	34.79
583.389	35.07
583.728	35.18
584.067	35.1
584.406	35.02
584.745	35.22
585.083	35.22
585.422	35.43
585.761	35.21
586.1	35.21
586.438	35.13
586.777	35.29
587.115	35.02
587.454	35.5
587.792	35.39
588.13	35.44
588.469	35.72
588.807	35.74
589.145	35.75
589.483	35.58
589.821	35.64
590.159	35.7
590.497	35.69
590.835	35.85
591.173	35.54
591.511	36.11
591.849	35.8
592.187	35.62
592.524	35.92
592.862	35.81
593.2	35.8
593.537	35.94
593.875	36.03
594.212	36.46
594.55	36.1
594.887	36.1
595.224	36.28
595.561	36.3
595.899	36.2
596.236	36.08
596.573	36.07
596.91	36.18
597.247	36.44
597.584	36.41
597.921	36.5
598.258	36.44
598.594	36.4
598.931	36.36
599.268	36.15
599.604	36.55
599.941	36.32
600.277	36.17
600.614	36.55
600.95	36.5
601.287	36.74
601.623	36.79
601.959	36.75
602.296	37.2
602.632	37.24
602.968	37.52
603.304	37.19
603.64	37.07
603.976	37.7
604.312	37.52
604.648	37.39
604.984	37.15
605.319	36.91
605.655	37
605.991	37
606.326	37.18
606.662	36.96
606.998	36.99
607.333	37
607.668	37.5
608.004	37.24
608.339	37.33
608.674	37.62
609.01	37.36
609.345	37.73
609.68	37.68
610.015	37.91
610.35	37.57
610.685	37.91
611.02	37.92
611.355	37.73
611.689	37.51
612.024	37.47
612.359	37.76
612.694	37.74
613.028	37.97
613.363	38.58
613.697	38.29
614.032	38.11
614.366	38.41
614.7	38.34
615.035	38.85
615.369	38.46
615.703	38.28
616.037	38.79
616.371	38.4
616.705	38.51
617.039	39.01
617.373	38.77
617.707	38.66
618.041	39.06
618.375	38.97
618.709	39.06
619.042	38.54
619.376	39.27
619.71	39.11
620.043	38.97
620.377	39.16
620.71	38.96
621.043	39.03
621.377	38.96
621.71	39.47
622.043	39.18
622.376	39
622.709	39.35
623.043	39.18
623.376	39.33
623.709	39.66
624.041	39.23
624.374	39.24
624.707	39.07
625.04	39.85
625.373	39.32
625.705	39.76
626.038	39.85
626.37	39.71
626.703	39.78
627.035	39.71
627.368	39.72
627.7	39.66
628.032	39.44
628.365	40.03
628.697	39.55
629.029	40.28
629.361	40.03
629.693	39.97
630.025	39.78
630.357	39.87
630.689	39.38
631.021	40.42
631.353	40.09
631.684	40.36
632.016	40.26
632.348	39.84
632.679	40.48
633.011	40.27
633.342	40.6
633.674	40.34
634.005	40.65
634.336	40.51
634.668	40.44
634.999	40.64
635.33	40.25
635.661	40.6
635.992	40.92
636.323	40.7
636.654	40.91
636.985	40.53
637.316	40.93
637.647	40.65
637.977	40.94
638.308	40.71
638.639	40.49
638.969	41.06
639.3	41.24
639.63	40.81
639.961	41.6
640.291	41.3
640.622	41.2
640.952	41.26
641.282	41.39
641.612	41.79
641.943	41.26
642.273	41.19
642.603	42.02
642.933	41.21
643.263	41.48
643.592	41.5
643.922	41.57
644.252	41.45
644.582	41.51
644.911	42.23
645.241	41.7
645.571	42.05
645.9	41.77
646.23	41.88
646.559	41.75
646.888	41.37
647.218	41.76
647.547	41.75
647.876	42.1
648.205	41.61
648.534	42.04
648.863	41.74
649.192	41.59
649.521	42.38
649.85	42.07
650.179	42.35
650.508	42.1
650.837	41.74
651.165	42.11
651.494	42.42
651.822	42.08
652.151	42.32
652.479	42.3
652.808	42.01
653.136	42.06
653.465	42.52
653.793	42.5
654.121	42.01
654.449	42.72
654.777	42.6
655.105	42.95
655.433	42.53
655.761	43.05
656.089	42.67
656.417	42.74
656.745	42.77
657.073	43.18
657.4	42.37
657.728	42.73
658.056	42.82
658.383	43.11
658.711	43.17
659.038	43.4
659.365	42.78
659.693	43.06
660.02	42.7
660.347	43.26
660.674	42.97
661.001	43.06
661.329	42.7
661.656	43
661.982	43.31
662.309	43.57
662.636	43.42
662.963	43.61
663.29	43.64
663.616	43.2
663.943	43.29
664.27	43.48
664.596	43.46
664.923	43.87
665.249	43.58
665.576	43.63
665.902	43.95
666.228	43.82
666.554	43.74
666.881	43.74
667.207	44.16
667.533	43.71
667.859	43.96
668.185	43.74
668.511	43.24
668.837	44.79
669.162	44.42
669.488	44.07
669.814	44.19
670.139	43.92
670.465	44.36
670.791	44
671.116	44.42
671.442	44.43
671.767	44.51
672.092	44.77
672.418	44.68
672.743	44.93
