Data from 0362_forehead_Reflection__0__26.txt Node

Date: Mon Dec 11 17:52:36 CST 2023
User: ToomeyLab
Spectrometer: FLMS14357
Trigger mode: 0
Integration Time (sec): 1.000000E-2
Scans to average: 100
Electric dark correction enabled: true
Nonlinearity correction enabled: false
Boxcar width: 0
XAxis mode: Wavelengths
Number of Pixels in Spectrum: 2048
>>>>>Begin Spectral Data<<<<<
189.047	-360.45
189.435	-360.45
189.823	-360.45
190.211	-48.06
190.599	72.14
190.987	12.64
191.375	69.49
191.763	163.89
192.151	10725
192.538	70.07
192.926	-316.39
193.314	8.11
193.702	-552.78
194.089	-114.96
194.477	52.76
194.864	197.28
195.252	-476.72
195.639	12.43
196.027	1970.83
196.414	436.31
196.801	167.22
197.189	-57.88
197.576	73.85
197.963	29.55
198.351	7.98
198.738	35.93
199.125	-5.93
199.512	11.73
199.899	36.23
200.286	22.68
200.673	-36.67
201.06	47.66
201.447	52.25
201.833	43.77
202.22	26.53
202.607	-0.1
202.994	11.48
203.38	-19.34
203.767	26.18
204.154	43.77
204.54	-1.53
204.927	-11.97
205.313	12.99
205.699	35.82
206.086	6.15
206.472	50.91
206.858	37.01
207.245	28.86
207.631	25
208.017	5.27
208.403	39.71
208.789	-22.5
209.175	47.21
209.561	36.01
209.947	14.55
210.333	27.88
210.719	20.73
211.105	27.78
211.491	40.82
211.876	14.58
212.262	30.84
212.648	26.77
213.034	9.07
213.419	12.76
213.805	3.14
214.19	35.07
214.576	-4.51
214.961	-5.53
215.346	-2.52
215.732	12.09
216.117	7.1
216.502	13.55
216.888	10.91
217.273	8.83
217.658	16.58
218.043	0.53
218.428	14.63
218.813	43.26
219.198	13.26
219.583	14.58
219.968	19.01
220.353	-2.96
220.738	40.24
221.122	5.94
221.507	25.16
221.892	23.08
222.276	13.55
222.661	-4.79
223.046	-1.06
223.43	1.89
223.815	2.44
224.199	13.71
224.583	5.94
224.968	1.88
225.352	7.55
225.736	18.73
226.121	6.73
226.505	-4.56
226.889	10.28
227.273	12.93
227.657	11.24
228.041	7.78
228.425	4.64
228.809	5
229.193	4.72
229.577	6.47
229.961	3.23
230.344	4.23
230.728	3.1
231.112	3.37
231.495	4.26
231.879	3.4
232.263	4.12
232.646	5.01
233.03	3.83
233.413	4.43
233.797	5.19
234.18	4.92
234.563	4.01
234.946	4.2
235.33	4.39
235.713	4.16
236.096	5.44
236.479	4.31
236.862	3.14
237.245	4.46
237.628	4.31
238.011	3.57
238.394	3.59
238.777	4.28
239.16	5.51
239.543	4.56
239.925	3.35
240.308	3.83
240.691	3.62
241.073	4.68
241.456	4.04
241.838	5.63
242.221	4.55
242.603	4.01
242.986	3.72
243.368	3.17
243.75	3.86
244.133	4.04
244.515	3.26
244.897	3.72
245.279	3.9
245.661	3.42
246.043	4.58
246.425	4.38
246.807	4.81
247.189	3.98
247.571	3.92
247.953	3.27
248.335	4.27
248.717	3.75
249.098	3.66
249.48	3.66
249.862	4.34
250.243	4.1
250.625	4.2
251.006	3.8
251.388	4.36
251.769	4.13
252.151	5.6
252.532	4.34
252.913	4.26
253.295	4.8
253.676	3.59
254.057	3.58
254.438	4.12
254.819	3.49
255.2	3.32
255.581	3.09
255.962	3.89
256.343	3.46
256.724	4.53
257.105	3.28
257.486	3.38
257.867	4.11
258.247	3.68
258.628	4.65
259.009	4.11
259.389	4.66
259.77	3.93
260.15	3.04
260.531	4.35
260.911	3.43
261.292	3.61
261.672	3.73
262.052	3.63
262.432	3.83
262.813	3.79
263.193	3.67
263.573	4.16
263.953	3.94
264.333	3.93
264.713	4.19
265.093	3.85
265.473	3.93
265.853	3.85
266.233	3.65
266.612	4.81
266.992	5.53
267.372	4.76
267.752	4.56
268.131	3.89
268.511	3.48
268.89	4
269.27	4.74
269.649	3.9
270.029	4.28
270.408	3.78
270.787	3.39
271.167	3.02
271.546	3.93
271.925	3.32
272.304	3.97
272.683	3.31
273.062	3.11
273.441	3.58
273.82	3.66
274.199	3.92
274.578	3.73
274.957	3.79
275.336	3.79
275.715	3.79
276.093	4.32
276.472	3.55
276.851	4.41
277.229	4.02
277.608	3.5
277.986	3.96
278.365	3.44
278.743	3.89
279.122	3.22
279.5	4.21
279.878	3.83
280.257	2.78
280.635	3.13
281.013	3.24
281.391	3.39
281.769	3.12
282.147	3.59
282.525	3.4
282.903	3.75
283.281	3.47
283.659	3.23
284.037	3.51
284.415	3.31
284.792	4.06
285.17	3.36
285.548	3.31
285.925	3.48
286.303	3.34
286.68	3.61
287.058	3.73
287.435	3.78
287.813	3.83
288.19	3.68
288.567	3.41
288.945	3.36
289.322	3.56
289.699	3.02
290.076	3.83
290.453	3.76
290.83	4.15
291.207	3.9
291.584	3.73
291.961	3.75
292.338	3.59
292.715	4.22
293.092	3.7
293.469	4.35
293.845	4.03
294.222	5.02
294.599	3.96
294.975	4.14
295.352	4.09
295.728	4.23
296.105	4.53
296.481	4.3
296.858	4.36
297.234	4.43
297.61	4.81
297.986	4.71
298.363	4.52
298.739	4.47
299.115	4.19
299.491	4.45
299.867	4.09
300.243	4.72
300.619	4.08
300.995	4.31
301.371	4.43
301.746	4.12
302.122	4.45
302.498	4.8
302.874	4.54
303.249	5.05
303.625	4.51
304	4.83
304.376	5.16
304.751	4.62
305.127	5.99
305.502	5.22
305.878	5.13
306.253	4.63
306.628	5.23
307.003	5.47
307.378	5.13
307.754	5.3
308.129	5.16
308.504	5.18
308.879	5.24
309.254	6.21
309.629	6.29
310.003	5.35
310.378	5.26
310.753	5.87
311.128	5.76
311.502	5.63
311.877	5.72
312.252	5.92
312.626	5.87
313.001	5.9
313.375	5.74
313.75	5.84
314.124	6.06
314.498	5.93
314.873	5.77
315.247	6.28
315.621	6.61
315.995	6.86
316.369	6.14
316.743	6.4
317.117	6.4
317.491	6.78
317.865	6.38
318.239	6.19
318.613	6.87
318.987	6.64
319.361	7.09
319.734	6.64
320.108	6.02
320.482	6.91
320.855	6.9
321.229	6.98
321.602	7.25
321.976	7.25
322.349	6.89
322.723	6.64
323.096	7.52
323.469	7.57
323.843	7.59
324.216	7.67
324.589	7.67
324.962	7.55
325.335	7.31
325.708	7.28
326.081	7.77
326.454	7.16
326.827	7.62
327.2	7.29
327.573	7.8
327.945	7.76
328.318	7.6
328.691	7.42
329.063	8.06
329.436	7.36
329.809	7.56
330.181	8.17
330.553	7.98
330.926	7.68
331.298	8.13
331.671	7.52
332.043	8.19
332.415	8.22
332.787	8.29
333.159	8.32
333.532	7.84
333.904	7.8
334.276	8.3
334.648	8.6
335.02	8.16
335.391	8.13
335.763	8.35
336.135	7.99
336.507	8.16
336.879	8.66
337.25	8.41
337.622	8.12
337.993	8.69
338.365	8.21
338.736	8.11
339.108	8.37
339.479	8.62
339.851	8.37
340.222	8.46
340.593	8.78
340.964	9.27
341.336	8.63
341.707	8.17
342.078	8.79
342.449	8.85
342.82	8.3
343.191	8.27
343.562	8.84
343.933	8.61
344.303	8.43
344.674	8.66
345.045	9
345.416	8.34
345.786	8.93
346.157	9.1
346.527	9.26
346.898	9
347.268	9.14
347.639	9.1
348.009	9
348.38	8.42
348.75	8.58
349.12	9.28
349.49	9.05
349.861	9.06
350.231	9.11
350.601	9.64
350.971	9.78
351.341	8.86
351.711	9.46
352.081	9.21
352.45	9.17
352.82	9
353.19	9.84
353.56	9.11
353.929	9.26
354.299	9.82
354.669	9.49
355.038	9.82
355.408	9.59
355.777	9.76
356.147	9.8
356.516	9.7
356.885	9.82
357.254	10.06
357.624	9.88
357.993	9.57
358.362	9.91
358.731	9.68
359.1	10.04
359.469	9.65
359.838	9.8
360.207	9.81
360.576	9.98
360.945	10.51
361.314	10.25
361.682	9.6
362.051	9.81
362.42	10.09
362.788	9.81
363.157	9.94
363.525	9.81
363.894	10.17
364.262	10.1
364.631	10.24
364.999	10.02
365.367	10.3
365.735	10.35
366.104	10.28
366.472	10.39
366.84	10.29
367.208	10.58
367.576	10.52
367.944	10.52
368.312	10.48
368.68	10.71
369.048	10.38
369.416	10.65
369.783	10.76
370.151	10.93
370.519	11.24
370.886	10.83
371.254	10.94
371.621	11.06
371.989	11.36
372.356	10.98
372.724	11.23
373.091	11.08
373.458	10.98
373.826	11.03
374.193	11.04
374.56	11.4
374.927	11.3
375.294	11.13
375.661	11.23
376.028	11.57
376.395	11.52
376.762	11.18
377.129	11.92
377.496	11.39
377.863	11.71
378.229	11.46
378.596	11.5
378.963	11.51
379.329	11.32
379.696	11.44
380.062	11.38
380.429	11.44
380.795	11.94
381.161	11.81
381.528	11.85
381.894	12.09
382.26	11.87
382.626	11.95
382.993	11.87
383.359	11.52
383.725	11.63
384.091	11.89
384.457	11.74
384.823	12.43
385.188	11.85
385.554	11.59
385.92	12.28
386.286	12.09
386.651	12.35
387.017	12.43
387.383	12.11
387.748	12.18
388.114	12.1
388.479	12.33
388.845	12.41
389.21	12.43
389.575	12.61
389.94	12.39
390.306	12.62
390.671	12.7
391.036	12.27
391.401	12.67
391.766	12.57
392.131	12.48
392.496	12.66
392.861	12.53
393.226	12.78
393.591	12.87
393.956	12.62
394.32	12.75
394.685	12.71
395.05	12.84
395.414	13.06
395.779	12.8
396.143	12.53
396.508	12.94
396.872	13.02
397.236	12.78
397.601	13.09
397.965	12.91
398.329	12.94
398.694	12.7
399.058	12.9
399.422	13.08
399.786	13.16
400.15	13.01
400.514	13.41
400.878	13.3
401.242	13.1
401.605	13.19
401.969	13.02
402.333	13.34
402.697	13.46
403.06	13.33
403.424	13.5
403.787	13.74
404.151	13.46
404.514	13.41
404.878	13.44
405.241	13.35
405.604	13.51
405.968	13.48
406.331	13.19
406.694	13.17
407.057	13.52
407.42	13.74
407.783	13.69
408.146	13.71
408.509	13.71
408.872	13.76
409.235	13.84
409.598	13.95
409.961	13.95
410.323	14.01
410.686	13.99
411.049	14.07
411.411	14.16
411.774	14.09
412.136	14.05
412.499	14.03
412.861	14.07
413.223	13.97
413.586	14.36
413.948	14.37
414.31	14.23
414.672	14.18
415.035	14.16
415.397	14.41
415.759	14.13
416.121	14.41
416.483	14.27
416.845	14.43
417.206	14.53
417.568	14.46
417.93	14.52
418.292	14.4
418.653	14.39
419.015	14.33
419.377	14.43
419.738	14.26
420.1	14.36
420.461	14.43
420.822	14.32
421.184	14.45
421.545	14.35
421.906	14.5
422.267	14.53
422.629	14.29
422.99	14.49
423.351	14.26
423.712	14.43
424.073	14.59
424.434	14.67
424.795	14.93
425.155	14.82
425.516	14.76
425.877	14.54
426.238	14.64
426.598	14.67
426.959	14.69
427.32	14.84
427.68	15.01
428.041	15.04
428.401	14.91
428.761	15.34
429.122	15.32
429.482	15.48
429.842	15.43
430.202	15.52
430.563	15.53
430.923	15.58
431.283	15.6
431.643	15.67
432.003	15.72
432.363	15.65
432.722	15.62
433.082	15.8
433.442	15.78
433.802	15.86
434.161	15.94
434.521	15.6
434.881	15.56
435.24	15.54
435.6	15.6
435.959	15.71
436.319	15.75
436.678	15.76
437.037	15.96
437.396	16.13
437.756	16.21
438.115	16.4
438.474	16.37
438.833	16.24
439.192	16.33
439.551	16.31
439.91	16.35
440.269	16.21
440.628	16.14
440.987	16.41
441.345	16.23
441.704	16.12
442.063	16.27
442.421	16.29
442.78	16.29
443.138	16.19
443.497	16.41
443.855	16.41
444.214	16.73
444.572	16.68
444.93	16.71
445.288	16.64
445.647	16.88
446.005	16.81
446.363	16.78
446.721	16.68
447.079	16.61
447.437	16.62
447.795	16.61
448.153	16.61
448.51	16.45
448.868	16.5
449.226	16.49
449.584	16.88
449.941	17.06
450.299	17.01
450.656	17.11
451.014	17.21
451.371	17.16
451.729	17.62
452.086	17.47
452.443	17.64
452.801	17.49
453.158	17.66
453.515	17.55
453.872	17.59
454.229	17.54
454.586	17.6
454.943	17.68
455.3	17.66
455.657	17.65
456.014	17.87
456.371	17.77
456.727	17.75
457.084	17.85
457.441	18.08
457.797	18
458.154	17.81
458.51	17.97
458.867	18.07
459.223	18.01
459.58	18.12
459.936	18.05
460.292	18.04
460.648	18.05
461.005	18.01
461.361	17.93
461.717	17.71
462.073	17.83
462.429	17.78
462.785	17.9
463.141	18.21
463.496	18.48
463.852	18.36
464.208	18.41
464.564	18.75
464.919	18.62
465.275	18.69
465.631	18.74
465.986	18.92
466.342	18.65
466.697	18.75
467.052	18.68
467.408	18.98
467.763	18.78
468.118	18.96
468.473	18.65
468.829	19.04
469.184	19.09
469.539	18.9
469.894	18.81
470.249	18.94
470.603	18.92
470.958	19.15
471.313	19.23
471.668	19.3
472.023	19.44
472.377	19.29
472.732	19.32
473.086	19.44
473.441	19.38
473.795	19.57
474.15	19.5
474.504	19.5
474.859	19.35
475.213	19.55
475.567	19.52
475.921	19.76
476.275	19.61
476.63	19.99
476.984	19.95
477.338	19.82
477.692	19.85
478.045	19.72
478.399	19.79
478.753	19.57
479.107	19.86
479.461	19.88
479.814	19.98
480.168	20.13
480.521	20.04
480.875	20.13
481.228	20
481.582	20.2
481.935	20.11
482.289	20.2
482.642	20.11
482.995	20.23
483.348	19.91
483.701	19.95
484.055	20.16
484.408	20.05
484.761	20.04
485.114	19.71
485.466	19.3
485.819	19.12
486.172	19.19
486.525	19.33
486.878	19.58
487.23	19.75
487.583	19.92
487.936	20.1
488.288	20.16
488.641	20.06
488.993	19.84
489.345	19.77
489.698	19.73
490.05	19.85
490.402	19.95
490.754	20.08
491.107	20.22
491.459	20.58
491.811	20.71
492.163	20.9
492.515	20.9
492.866	20.74
493.218	20.37
493.57	20.12
493.922	20.23
494.274	20.43
494.625	20.71
494.977	20.85
495.328	21.16
495.68	21.36
496.031	21.42
496.383	21.64
496.734	21.64
497.086	21.72
497.437	21.72
497.788	21.7
498.139	21.57
498.49	21.52
498.842	21.43
499.193	21.51
499.544	21.64
499.894	21.58
500.245	21.64
500.596	21.91
500.947	21.72
501.298	21.85
501.648	21.82
501.999	21.97
502.35	22.23
502.7	22.18
503.051	22.31
503.401	22.33
503.752	22.25
504.102	22.39
504.452	22.38
504.803	22.46
505.153	22.45
505.503	22.6
505.853	22.55
506.203	22.42
506.553	22.55
506.903	22.46
507.253	22.66
507.603	22.48
507.953	22.85
508.303	22.58
508.652	22.71
509.002	22.83
509.352	22.78
509.701	22.67
510.051	22.62
510.4	22.62
510.75	22.6
511.099	22.63
511.449	22.99
511.798	22.78
512.147	22.93
512.496	23.04
512.846	23.08
513.195	23.26
513.544	23.36
513.893	23.13
514.242	23.21
514.591	23.29
514.939	23.21
515.288	23.23
515.637	23.44
515.986	23.39
516.334	23.64
516.683	23.66
517.032	23.7
517.38	23.74
517.729	23.88
518.077	23.79
518.426	23.9
518.774	23.68
519.122	23.86
519.47	23.78
519.819	23.5
520.167	23.55
520.515	23.45
520.863	23.45
521.211	23.52
521.559	23.72
521.907	23.84
522.255	23.85
522.602	23.91
522.95	24.05
523.298	24.24
523.645	24.43
523.993	24.51
524.341	24.62
524.688	24.32
525.036	24.39
525.383	24.62
525.73	24.53
526.078	24.71
526.425	24.54
526.772	24.46
527.119	24.32
527.466	24.19
527.814	24.2
528.161	24.2
528.508	24.46
528.854	24.47
529.201	24.45
529.548	24.61
529.895	24.25
530.242	23.77
530.588	23.68
530.935	23.79
531.282	23.97
531.628	24.12
531.975	24.3
532.321	24.53
532.667	24.6
533.014	24.82
533.36	24.95
533.706	25.07
534.052	25.05
534.399	25.06
534.745	24.91
535.091	24.6
535.437	24.51
535.783	24.64
536.129	25.02
536.474	25.12
536.82	25.29
537.166	25.47
537.512	25.72
537.857	25.67
538.203	25.46
538.549	25.37
538.894	25.26
539.239	25.49
539.585	25.82
539.93	25.78
540.276	25.97
540.621	26.08
540.966	26.19
541.311	26.28
541.656	26.48
542.001	26.42
542.346	26.32
542.691	25.91
543.036	25.52
543.381	25.24
543.726	25.37
544.071	25.63
544.415	25.74
544.76	25.89
545.105	25.97
545.449	26.03
545.794	26.19
546.138	26.45
546.483	26.43
546.827	26.76
547.171	26.65
547.516	26.75
547.86	26.68
548.204	26.76
548.548	26.55
548.892	26.56
549.236	26.61
549.58	27.1
549.924	27.13
550.268	27.07
550.612	27.46
550.956	27.42
551.3	27.49
551.643	27.66
551.987	27.87
552.33	27.88
552.674	27.83
553.017	27.78
553.361	27.67
553.704	27.64
554.048	27.87
554.391	27.73
554.734	27.77
555.077	27.87
555.42	27.93
555.764	27.88
556.107	27.92
556.45	27.99
556.793	27.92
557.135	28.26
557.478	28.23
557.821	28.25
558.164	28.43
558.507	28.17
558.849	28.34
559.192	28.49
559.534	28.6
559.877	28.64
560.219	28.61
560.562	28.67
560.904	28.74
561.246	28.72
561.589	28.74
561.931	28.99
562.273	28.72
562.615	28.88
562.957	28.87
563.299	28.92
563.641	28.65
563.983	29.07
564.325	29.17
564.667	29.05
565.008	29.33
565.35	29.33
565.692	29.21
566.033	29.21
566.375	29.47
566.716	29.36
567.058	29.35
567.399	29.18
567.741	29.34
568.082	29.4
568.423	29.11
568.764	29.31
569.105	29.39
569.447	29.59
569.788	29.56
570.129	29.62
570.47	29.84
570.811	29.63
571.151	29.73
571.492	30.04
571.833	30.01
572.174	30.05
572.514	29.95
572.855	29.94
573.195	30.23
573.536	30.07
573.876	29.91
574.217	29.75
574.557	29.83
574.898	30.02
575.238	30.15
575.578	30.22
575.918	30.28
576.258	30.35
576.598	30.33
576.938	30.54
577.278	30.21
577.618	30.28
577.958	30.42
578.298	30.59
578.638	30.65
578.977	30.53
579.317	30.51
579.657	30.55
579.996	30.83
580.336	30.75
580.675	31.13
581.014	31.13
581.354	31.04
581.693	31.38
582.032	31.04
582.372	31.4
582.711	31.03
583.05	31.38
583.389	31.37
583.728	31.6
584.067	31.39
584.406	31.77
584.745	31.36
585.083	31.67
585.422	31.65
585.761	31.66
586.1	31.93
586.438	31.52
586.777	31.74
587.115	31.74
587.454	31.81
587.792	31.72
588.13	31.99
588.469	31.73
588.807	32.24
589.145	32.2
589.483	32.17
589.821	31.9
590.159	32.04
590.497	32.26
590.835	32.43
591.173	32.38
591.511	32.3
591.849	32.33
592.187	32.19
592.524	32.51
592.862	32.4
593.2	32.59
593.537	32.61
593.875	32.5
594.212	32.74
594.55	32.34
594.887	32.67
595.224	32.51
595.561	32.7
595.899	32.57
596.236	32.67
596.573	32.76
596.91	32.64
597.247	32.92
597.584	32.83
597.921	32.9
598.258	32.95
598.594	32.82
598.931	32.64
599.268	32.76
599.604	32.83
599.941	33.03
600.277	32.97
600.614	33.12
600.95	33.34
601.287	33.39
601.623	33.61
601.959	33.63
602.296	33.55
602.632	33.97
602.968	33.67
603.304	33.75
603.64	33.57
603.976	33.68
604.312	33.82
604.648	34.03
604.984	33.63
605.319	33.3
605.655	33.38
605.991	33.93
606.326	33.62
606.662	33.38
606.998	33.72
607.333	33.51
607.668	33.83
608.004	33.89
608.339	34.07
608.674	34.34
609.01	33.98
609.345	34.31
609.68	34.43
610.015	34.72
610.35	34.48
610.685	34.31
611.02	34.08
611.355	34.16
611.689	34.05
612.024	34.22
612.359	34.19
612.694	34.29
613.028	34.32
613.363	34.7
613.697	34.71
614.032	34.79
614.366	35.15
614.7	34.88
615.035	35.03
615.369	34.91
615.703	35.39
616.037	35.17
616.371	35.01
616.705	35.25
617.039	35.55
617.373	35.32
617.707	35.23
618.041	35.55
618.375	35.31
618.709	35.46
619.042	34.84
619.376	36.14
619.71	35.12
620.043	35.24
620.377	35.43
620.71	35.33
621.043	35.48
621.377	35.11
621.71	35.67
622.043	35.35
622.376	35.75
622.709	35.76
623.043	35.91
623.376	35.85
623.709	36.53
624.041	36.34
624.374	35.91
624.707	35.9
625.04	36.37
625.373	35.83
625.705	35.7
626.038	36.39
626.37	36.38
626.703	36.39
627.035	36.2
627.368	36.27
627.7	36.31
628.032	36.41
628.365	36.14
628.697	35.96
629.029	36.44
629.361	36.05
629.693	36.36
630.025	36.03
630.357	36.3
630.689	36.38
631.021	36.99
631.353	36.79
631.684	36.88
632.016	37.14
632.348	36.77
632.679	36.72
633.011	36.83
633.342	36.69
633.674	37.38
634.005	37.01
634.336	37.26
634.668	37.02
634.999	37.38
635.33	37.46
635.661	37.54
635.992	37.58
636.323	37.41
636.654	37.02
636.985	37.01
637.316	37.65
637.647	36.95
637.977	37.21
638.308	37.29
638.639	37.32
638.969	37.74
639.3	37.32
639.63	37.8
639.961	38.05
640.291	38.02
640.622	37.37
640.952	38.44
641.282	37.4
641.612	38.05
641.943	37.85
642.273	37.91
642.603	37.89
642.933	38.33
643.263	38.11
643.592	38.17
643.922	37.91
644.252	37.97
644.582	38.34
644.911	38.46
645.241	38.53
645.571	38.17
645.9	38.48
646.23	38.85
646.559	38.41
646.888	38.16
647.218	38.32
647.547	38
647.876	37.89
648.205	38.13
648.534	38.79
648.863	38.51
649.192	38.92
649.521	38.88
649.85	39.09
650.179	39.03
650.508	39.21
650.837	38.16
651.165	39.46
651.494	39.5
651.822	39.17
652.151	39.12
652.479	38.78
652.808	38.48
653.136	38.96
653.465	38.92
653.793	39.23
654.121	38.79
654.449	39.21
654.777	39.35
655.105	38.85
655.433	39.42
655.761	39.83
656.089	39.3
656.417	39.1
656.745	39.78
657.073	39.49
657.4	39.69
657.728	39.73
658.056	39.43
658.383	39.52
658.711	39.68
659.038	39.46
659.365	39.57
659.693	39.51
660.02	39.4
660.347	39.59
660.674	39.92
661.001	39.03
661.329	39.27
661.656	39.39
661.982	39.59
662.309	40.12
662.636	39.75
662.963	40.26
663.29	40.24
663.616	39.72
663.943	40.27
664.27	40.88
664.596	40.5
664.923	40.74
665.249	40.25
665.576	40.64
665.902	40.38
666.228	40.36
666.554	40.4
666.881	40.55
667.207	41.3
667.533	40.54
667.859	41.06
668.185	41.18
668.511	40.61
668.837	40.84
669.162	40.62
669.488	40.87
669.814	40.74
670.139	40.81
670.465	40.6
670.791	41.23
671.116	41.13
671.442	40.89
