Data from 0362_forehead_Reflection__2__28.txt Node

Date: Mon Dec 11 17:52:58 CST 2023
User: ToomeyLab
Spectrometer: FLMS14357
Trigger mode: 0
Integration Time (sec): 1.000000E-2
Scans to average: 100
Electric dark correction enabled: true
Nonlinearity correction enabled: false
Boxcar width: 0
XAxis mode: Wavelengths
Number of Pixels in Spectrum: 2048
>>>>>Begin Spectral Data<<<<<
189.047	-170.34
189.435	-170.34
189.823	-170.34
190.211	54.79
190.599	138.74
190.987	83.91
191.375	39.85
191.763	10.22
192.151	-6831.25
192.538	129.48
192.926	207.43
193.314	97.09
193.702	-24.77
194.089	83.04
194.477	20.74
194.864	29.39
195.252	-467.89
195.639	-1.41
196.027	618.4
196.414	-645.98
196.801	184.61
197.189	3.6
197.576	22.59
197.963	39.94
198.351	2.69
198.738	38.43
199.125	-10.02
199.512	6
199.899	63.62
200.286	40.39
200.673	-42.36
201.06	106.8
201.447	33.29
201.833	44.8
202.22	50.18
202.607	-12.35
202.994	38.39
203.38	14.77
203.767	48.36
204.154	56.4
204.54	21.15
204.927	74.4
205.313	31.12
205.699	11.52
206.086	24.85
206.472	36.15
206.858	31.77
207.245	12.26
207.631	17.84
208.017	35.6
208.403	35.56
208.789	51.06
209.175	50.43
209.561	2.32
209.947	1.17
210.333	42.54
210.719	43.71
211.105	31.76
211.491	2.6
211.876	27.52
212.262	2.09
212.648	19.84
213.034	29.9
213.419	31.48
213.805	6.62
214.19	46.76
214.576	-2.52
214.961	42.59
215.346	7.19
215.732	14.77
216.117	23.68
216.502	14.44
216.888	37.87
217.273	15.6
217.658	14.8
218.043	-17.83
218.428	20.34
218.813	10.05
219.198	9.15
219.583	14.89
219.968	25
220.353	8.71
220.738	28
221.122	22.01
221.507	24.59
221.892	10.05
222.276	11.95
222.661	-4.82
223.046	10.86
223.43	17.71
223.815	5.73
224.199	9.59
224.583	9.06
224.968	6.85
225.352	10.4
225.736	8.64
226.121	4.19
226.505	2.14
226.889	5.83
227.273	5.37
227.657	14.8
228.041	5.78
228.425	6.07
228.809	2.93
229.193	6.72
229.577	7.04
229.961	4.46
230.344	4.77
230.728	3.75
231.112	3.55
231.495	3.6
231.879	3.99
232.263	2.91
232.646	3.63
233.03	3.52
233.413	5.05
233.797	5.67
234.18	3.65
234.563	7.63
234.946	4.47
235.33	5.81
235.713	3.68
236.096	5.06
236.479	6.28
236.862	4.78
237.245	4.94
237.628	6.48
238.011	3.22
238.394	6.15
238.777	6.74
239.16	4.61
239.543	6.93
239.925	5.29
240.308	6.73
240.691	4.63
241.073	6.35
241.456	3.55
241.838	6.4
242.221	5.94
242.603	4.14
242.986	3.3
243.368	3.62
243.75	4.26
244.133	3.99
244.515	3.97
244.897	4.11
245.279	4.09
245.661	3.86
246.043	4.3
246.425	4.52
246.807	4.59
247.189	5.09
247.571	4.61
247.953	3.94
248.335	4.41
248.717	4.04
249.098	3.89
249.48	3.84
249.862	4.48
250.243	4.57
250.625	4.09
251.006	3.98
251.388	4.56
251.769	4.9
252.151	5.4
252.532	3.8
252.913	4.04
253.295	4.61
253.676	4.1
254.057	4.37
254.438	4.32
254.819	4.35
255.2	3.78
255.581	3.76
255.962	4
256.343	4.5
256.724	5.15
257.105	4.73
257.486	3.89
257.867	6.16
258.247	3.7
258.628	4.62
259.009	5.95
259.389	5.17
259.77	4.73
260.15	4.06
260.531	4.48
260.911	3.72
261.292	3.74
261.672	4.18
262.052	4.06
262.432	3.89
262.813	4
263.193	3.96
263.573	4.31
263.953	4.67
264.333	3.74
264.713	4.66
265.093	4.03
265.473	4.95
265.853	4.47
266.233	3.49
266.612	4.21
266.992	4.8
267.372	4.97
267.752	4.92
268.131	4.46
268.511	3.73
268.89	4.37
269.27	4.07
269.649	4.37
270.029	4.37
270.408	4.49
270.787	3.6
271.167	3.75
271.546	3.71
271.925	4.6
272.304	4.12
272.683	3.64
273.062	3.35
273.441	3.77
273.82	3.96
274.199	4.08
274.578	3.77
274.957	4.37
275.336	3.62
275.715	3.49
276.093	4.45
276.472	4.64
276.851	4.03
277.229	4.29
277.608	3.64
277.986	4.08
278.365	3.91
278.743	3.84
279.122	3.76
279.5	4.14
279.878	3.88
280.257	4.24
280.635	4.08
281.013	3.41
281.391	4.16
281.769	3.83
282.147	3.71
282.525	3.27
282.903	3.97
283.281	3.95
283.659	3.72
284.037	3.56
284.415	3.59
284.792	4.27
285.17	3.96
285.548	3.63
285.925	4.13
286.303	4.56
286.68	3.64
287.058	4.16
287.435	3.73
287.813	3.88
288.19	3.63
288.567	3.67
288.945	4.05
289.322	3.93
289.699	3.61
290.076	3.92
290.453	4.39
290.83	4.56
291.207	4.38
291.584	4.26
291.961	4.09
292.338	4.38
292.715	4.43
293.092	3.76
293.469	5.11
293.845	4.43
294.222	4.74
294.599	4.11
294.975	4.25
295.352	3.93
295.728	4.27
296.105	4.64
296.481	4.17
296.858	4.29
297.234	4.92
297.61	4.44
297.986	4.36
298.363	4.33
298.739	4.77
299.115	4.27
299.491	4.5
299.867	4.65
300.243	4.46
300.619	4.69
300.995	4.77
301.371	4.1
301.746	4.17
302.122	4.79
302.498	4.97
302.874	4.69
303.249	4.9
303.625	5.07
304	4.86
304.376	4.99
304.751	4.39
305.127	5.37
305.502	5.28
305.878	5.01
306.253	5.56
306.628	5.56
307.003	5.41
307.378	5.48
307.754	5.9
308.129	5.44
308.504	5.11
308.879	5.02
309.254	6.08
309.629	6.04
310.003	6.16
310.378	5.3
310.753	5.77
311.128	5.6
311.502	5.52
311.877	5.69
312.252	5.96
312.626	5.88
313.001	6.33
313.375	5.71
313.75	6.2
314.124	5.98
314.498	6.1
314.873	6.4
315.247	6.85
315.621	7.32
315.995	6.88
316.369	7.03
316.743	7.04
317.117	7.02
317.491	6.89
317.865	6.9
318.239	7.17
318.613	7.39
318.987	6.72
319.361	7.44
319.734	6.7
320.108	7.12
320.482	6.91
320.855	7.14
321.229	7.04
321.602	7.29
321.976	8.27
322.349	7.71
322.723	8.2
323.096	7.87
323.469	8.26
323.843	7.85
324.216	8
324.589	8.08
324.962	7.65
325.335	8.23
325.708	7.94
326.081	8.41
326.454	8.14
326.827	8.04
327.2	7.63
327.573	8.23
327.945	8.45
328.318	7.81
328.691	8.03
329.063	8.05
329.436	8.19
329.809	8.45
330.181	9.04
330.553	8.58
330.926	8.6
331.298	9.38
331.671	8.48
332.043	9.06
332.415	9.33
332.787	8.66
333.159	8.43
333.532	9.25
333.904	9.26
334.276	9.3
334.648	9.05
335.02	9.39
335.391	9.26
335.763	9.05
336.135	9.09
336.507	8.91
336.879	9.48
337.25	8.88
337.622	9.03
337.993	9.42
338.365	8.97
338.736	9.75
339.108	9.36
339.479	9.84
339.851	9.52
340.222	9.31
340.593	9.21
340.964	9.96
341.336	9.76
341.707	9.57
342.078	10.18
342.449	9.67
342.82	9.13
343.191	9.52
343.562	9.63
343.933	9.27
344.303	9.84
344.674	9.78
345.045	10.7
345.416	9.64
345.786	10.22
346.157	10.08
346.527	10.06
346.898	10.28
347.268	10.23
347.639	10.23
348.009	10.34
348.38	9.87
348.75	10.09
349.12	10.33
349.49	9.99
349.861	10.19
350.231	10.16
350.601	10.71
350.971	10.39
351.341	10.51
351.711	10.61
352.081	10.61
352.45	10.73
352.82	9.87
353.19	10.7
353.56	10.31
353.929	10.83
354.299	10.9
354.669	10.76
355.038	10.46
355.408	10.62
355.777	11.12
356.147	11
356.516	10.81
356.885	11.26
357.254	11.18
357.624	11.15
357.993	10.89
358.362	11.61
358.731	11.06
359.1	10.91
359.469	10.88
359.838	11.31
360.207	11.31
360.576	11.51
360.945	11.44
361.314	12.02
361.682	11.19
362.051	11.23
362.42	11.38
362.788	11.46
363.157	11.44
363.525	11.53
363.894	11.61
364.262	11.56
364.631	11.81
364.999	11.6
365.367	11.94
365.735	12.15
366.104	11.99
366.472	12.02
366.84	12.23
367.208	12.17
367.576	12.36
367.944	12.32
368.312	12.29
368.68	12.2
369.048	11.89
369.416	12.18
369.783	12.67
370.151	12.92
370.519	12.86
370.886	12.34
371.254	12.94
371.621	12.85
371.989	12.83
372.356	12.83
372.724	13.06
373.091	13.16
373.458	13
373.826	12.87
374.193	12.75
374.56	13.08
374.927	13.18
375.294	13.09
375.661	12.95
376.028	13.37
376.395	13.07
376.762	13.54
377.129	13.27
377.496	13.27
377.863	13.59
378.229	13.26
378.596	13.44
378.963	13.54
379.329	13.37
379.696	13.57
380.062	13.56
380.429	13.43
380.795	13.74
381.161	13.31
381.528	13.85
381.894	13.97
382.26	13.94
382.626	13.86
382.993	14.22
383.359	13.95
383.725	13.64
384.091	14.08
384.457	13.91
384.823	14.48
385.188	14.28
385.554	14.14
385.92	14.08
386.286	14.39
386.651	14.47
387.017	14.34
387.383	14.19
387.748	14.45
388.114	14.49
388.479	14.47
388.845	14.28
389.21	14.39
389.575	15.15
389.94	14.99
390.306	14.66
390.671	14.87
391.036	14.91
391.401	14.78
391.766	14.77
392.131	15.03
392.496	15.07
392.861	15
393.226	14.85
393.591	15.17
393.956	14.94
394.32	15.09
394.685	15.13
395.05	15.42
395.414	15.49
395.779	15.15
396.143	15.32
396.508	15.15
396.872	15.5
397.236	15.21
397.601	15.33
397.965	15.32
398.329	15.43
398.694	15.6
399.058	15.87
399.422	15.78
399.786	15.55
400.15	15.65
400.514	16.02
400.878	15.82
401.242	15.93
401.605	15.84
401.969	15.94
402.333	15.7
402.697	16.06
403.06	15.86
403.424	16.1
403.787	16.44
404.151	16.02
404.514	16.37
404.878	16.44
405.241	16.42
405.604	16.04
405.968	16.18
406.331	16.24
406.694	16.1
407.057	16.21
407.42	16.6
407.783	16.4
408.146	16.55
408.509	16.24
408.872	16.49
409.235	16.62
409.598	16.75
409.961	16.8
410.323	16.62
410.686	16.71
411.049	17.04
411.411	17.04
411.774	16.95
412.136	16.98
412.499	16.98
412.861	16.99
413.223	16.97
413.586	17.17
413.948	17.26
414.31	17.38
414.672	17.06
415.035	17.19
415.397	17.24
415.759	17.31
416.121	17.32
416.483	17.29
416.845	17.47
417.206	17.31
417.568	17.42
417.93	17.39
418.292	17.39
418.653	17.24
419.015	17.45
419.377	17.56
419.738	17.49
420.1	17.5
420.461	17.49
420.822	17.41
421.184	17.48
421.545	17.41
421.906	17.54
422.267	17.6
422.629	17.44
422.99	17.43
423.351	17.42
423.712	17.48
424.073	17.79
424.434	17.87
424.795	17.95
425.155	17.88
425.516	17.98
425.877	17.69
426.238	17.86
426.598	17.88
426.959	17.93
427.32	18.14
427.68	18.19
428.041	18.21
428.401	18.35
428.761	18.53
429.122	18.67
429.482	18.76
429.842	18.82
430.202	18.91
430.563	18.85
430.923	19.01
431.283	18.93
431.643	19
432.003	19.11
432.363	19.16
432.722	19.22
433.082	19.24
433.442	19.32
433.802	19.23
434.161	19.52
434.521	19.33
434.881	19.2
435.24	19.33
435.6	19.34
435.959	19.39
436.319	19.44
436.678	19.46
437.037	19.65
437.396	19.75
437.756	20.03
438.115	19.96
438.474	19.84
438.833	19.89
439.192	19.85
439.551	19.92
439.91	19.95
440.269	20.29
440.628	19.97
440.987	20.05
441.345	20.01
441.704	20.04
442.063	19.95
442.421	20.01
442.78	20.08
443.138	20.02
443.497	20.15
443.855	20.19
444.214	20.32
444.572	20.31
444.93	20.37
445.288	20.64
445.647	20.63
446.005	20.6
446.363	20.63
446.721	20.58
447.079	20.53
447.437	20.47
447.795	20.45
448.153	20.5
448.51	20.42
448.868	20.43
449.226	20.49
449.584	20.77
449.941	20.89
450.299	20.87
450.656	21.07
451.014	21.27
451.371	21.26
451.729	21.37
452.086	21.48
452.443	21.65
452.801	21.56
453.158	21.61
453.515	21.58
453.872	21.57
454.229	21.78
454.586	21.63
454.943	21.57
455.3	21.64
455.657	21.72
456.014	21.91
456.371	22.01
456.727	22.08
457.084	21.9
457.441	21.9
457.797	21.93
458.154	22.16
458.51	22.18
458.867	22.06
459.223	22.38
459.58	22.36
459.936	22.32
460.292	22.1
460.648	22.18
461.005	22.17
461.361	22.17
461.717	22.01
462.073	21.87
462.429	22.02
462.785	22.19
463.141	22.3
463.496	22.64
463.852	22.66
464.208	22.73
464.564	22.9
464.919	23
465.275	23.09
465.631	22.73
465.986	22.99
466.342	23.27
466.697	23.02
467.052	22.9
467.408	23.18
467.763	23.25
468.118	23.15
468.473	23.29
468.829	23.39
469.184	23.41
469.539	23.33
469.894	23.16
470.249	23.44
470.603	23.42
470.958	23.56
471.313	23.69
471.668	24.01
472.023	23.82
472.377	23.95
472.732	23.95
473.086	23.96
473.441	23.97
473.795	24.03
474.15	23.99
474.504	23.89
474.859	24.2
475.213	24.1
475.567	24.07
475.921	24.12
476.275	24.25
476.63	24.5
476.984	24.53
477.338	24.45
477.692	24.43
478.045	24.54
478.399	24.33
478.753	24.26
479.107	24.38
479.461	24.59
479.814	24.67
480.168	24.47
480.521	24.64
480.875	24.56
481.228	24.73
481.582	24.9
481.935	24.79
482.289	24.85
482.642	24.92
482.995	24.73
483.348	24.67
483.701	24.63
484.055	24.64
484.408	24.69
484.761	24.55
485.114	24.28
485.466	23.99
485.819	23.76
486.172	23.92
486.525	24.09
486.878	24.18
487.23	24.42
487.583	24.49
487.936	24.68
488.288	24.82
488.641	24.82
488.993	24.51
489.345	24.62
489.698	24.49
490.05	24.59
490.402	24.59
490.754	24.79
491.107	25
491.459	25.25
491.811	25.39
492.163	25.66
492.515	25.63
492.866	25.4
493.218	25.17
493.57	24.98
493.922	25.09
494.274	25.25
494.625	25.36
494.977	25.62
495.328	25.84
495.68	26.22
496.031	26.38
496.383	26.34
496.734	26.57
497.086	26.5
497.437	26.7
497.788	26.48
498.139	26.57
498.49	26.58
498.842	26.29
499.193	26.55
499.544	26.58
499.894	26.53
500.245	26.69
500.596	26.85
500.947	26.86
501.298	26.99
501.648	26.94
501.999	27.03
502.35	27.16
502.7	27.43
503.051	27.25
503.401	27.26
503.752	27.21
504.102	27.29
504.452	27.44
504.803	27.49
505.153	27.52
505.503	27.62
505.853	27.55
506.203	27.49
506.553	27.49
506.903	27.59
507.253	27.88
507.603	27.6
507.953	27.79
508.303	27.81
508.652	27.78
509.002	27.9
509.352	28.13
509.701	27.94
510.051	27.81
510.4	27.74
510.75	27.86
511.099	27.87
511.449	27.96
511.798	27.89
512.147	28.05
512.496	27.94
512.846	28.33
513.195	28.3
513.544	28.45
513.893	28.22
514.242	28.27
514.591	28.23
514.939	28.25
515.288	28.58
515.637	28.64
515.986	28.61
516.334	28.8
516.683	28.84
517.032	28.96
517.38	28.88
517.729	28.87
518.077	29.1
518.426	29.01
518.774	29.13
519.122	29.02
519.47	28.82
519.819	28.79
520.167	28.86
520.515	28.67
520.863	28.57
521.211	28.76
521.559	28.72
521.907	28.96
522.255	29.19
522.602	29.16
522.95	29.27
523.298	29.35
523.645	29.67
523.993	29.51
524.341	29.72
524.688	29.67
525.036	29.73
525.383	29.66
525.73	29.85
526.078	29.69
526.425	29.76
526.772	29.75
527.119	29.67
527.466	29.48
527.814	29.58
528.161	29.4
528.508	29.56
528.854	29.57
529.201	29.58
529.548	29.58
529.895	29.3
530.242	29.08
530.588	28.94
530.935	29.19
531.282	29.2
531.628	29.31
531.975	29.42
532.321	29.65
532.667	29.85
533.014	30.01
533.36	30.19
533.706	30.17
534.052	30.08
534.399	30.25
534.745	30.06
535.091	29.95
535.437	29.79
535.783	29.93
536.129	30.07
536.474	30.31
536.82	30.51
537.166	30.73
537.512	30.79
537.857	30.92
538.203	30.58
538.549	30.53
538.894	30.46
539.239	30.91
539.585	30.89
539.93	30.97
540.276	31.12
540.621	31.35
540.966	31.5
541.311	31.42
541.656	31.43
542.001	31.58
542.346	31.3
542.691	31.16
543.036	30.7
543.381	30.59
543.726	30.76
544.071	30.93
544.415	31
544.76	31.12
545.105	31.27
545.449	31.3
545.794	31.51
546.138	31.73
546.483	31.71
546.827	31.86
547.171	31.91
547.516	31.92
547.86	31.9
548.204	31.93
548.548	31.99
548.892	31.83
549.236	31.89
549.58	32.25
549.924	32.39
550.268	32.59
550.612	32.61
550.956	32.57
551.3	32.73
551.643	32.76
551.987	32.85
552.33	32.98
552.674	33.16
553.017	33.24
553.361	32.95
553.704	33.05
554.048	33.24
554.391	32.99
554.734	32.98
555.077	33.06
555.42	33.15
555.764	33.22
556.107	33.28
556.45	33.53
556.793	33.35
557.135	33.61
557.478	33.45
557.821	33.63
558.164	33.64
558.507	33.55
558.849	33.84
559.192	33.67
559.534	33.77
559.877	34.12
560.219	33.82
560.562	34.15
560.904	33.87
561.246	34.17
561.589	34.15
561.931	34.46
562.273	33.94
562.615	34.16
562.957	34.14
563.299	33.9
563.641	34.17
563.983	34.41
564.325	34.29
564.667	34.41
565.008	34.43
565.35	34.81
565.692	34.41
566.033	34.65
566.375	34.68
566.716	34.51
567.058	34.68
567.399	34.77
567.741	34.57
568.082	34.51
568.423	34.51
568.764	34.52
569.105	34.67
569.447	34.85
569.788	34.79
570.129	35.09
570.47	34.77
570.811	34.77
571.151	34.93
571.492	35.2
571.833	34.91
572.174	35.39
572.514	35.04
572.855	35.31
573.195	35.36
573.536	35.34
573.876	35.06
574.217	35.26
574.557	35.36
574.898	35.28
575.238	35.62
575.578	35.51
575.918	35.6
576.258	35.71
576.598	35.88
576.938	35.48
577.278	35.61
577.618	35.39
577.958	35.87
578.298	35.91
578.638	35.74
578.977	36.16
579.317	36.12
579.657	35.71
579.996	35.9
580.336	36.25
580.675	36.49
581.014	36.16
581.354	36.35
581.693	36.61
582.032	36.51
582.372	36.79
582.711	36.54
583.05	36.85
583.389	36.48
583.728	36.86
584.067	36.79
584.406	36.85
584.745	37.01
585.083	36.88
585.422	36.93
585.761	37.01
586.1	36.97
586.438	37.08
586.777	37.18
587.115	36.62
587.454	37.08
587.792	37.38
588.13	37.16
588.469	37.4
588.807	37.31
589.145	37.43
589.483	37.45
589.821	37.3
590.159	37.56
590.497	37.47
590.835	37.53
591.173	37.44
591.511	37.7
591.849	37.38
592.187	37.38
592.524	37.73
592.862	37.53
593.2	37.79
593.537	37.43
593.875	37.85
594.212	38.28
594.55	37.94
594.887	38.01
595.224	38.03
595.561	38.05
595.899	37.78
596.236	38.16
596.573	38.08
596.91	38.1
597.247	38.11
597.584	37.93
597.921	38.11
598.258	38.04
598.594	38.26
598.931	37.85
599.268	37.96
599.604	38.02
599.941	38.13
600.277	38.12
600.614	38.14
600.95	38.47
601.287	38.56
601.623	38.39
601.959	38.83
602.296	38.82
602.632	39.31
602.968	38.75
603.304	38.78
603.64	38.83
603.976	39.15
604.312	39.22
604.648	39.06
604.984	39.11
605.319	38.63
605.655	38.65
605.991	39.11
606.326	38.72
606.662	38.8
606.998	39.01
607.333	38.64
607.668	38.73
608.004	39.17
608.339	39.11
608.674	39.12
609.01	39.5
609.345	39.26
609.68	39.52
610.015	39.75
610.35	39.39
610.685	39.44
611.02	39.64
611.355	39.38
611.689	39.21
612.024	39.17
612.359	39.28
612.694	39.39
613.028	39.38
613.363	39.98
613.697	39.74
614.032	39.68
614.366	39.84
614.7	40.09
615.035	40.12
615.369	40.32
615.703	40.27
616.037	40.19
616.371	40.07
616.705	40.24
617.039	40.59
617.373	40.41
617.707	40.56
618.041	40.11
618.375	40.6
618.709	40.38
619.042	40.03
619.376	41.34
619.71	40.57
620.043	40.38
620.377	40.63
620.71	40.54
621.043	40.56
621.377	40.41
621.71	41.31
622.043	40.66
622.376	40.92
622.709	41.01
623.043	40.82
623.376	40.84
623.709	41.22
624.041	41.05
624.374	41.17
624.707	40.81
625.04	41.6
625.373	40.97
625.705	40.92
626.038	41.25
626.37	41.04
626.703	41.46
627.035	41.36
627.368	41.38
627.7	41.68
628.032	41.32
628.365	41.51
628.697	41.02
629.029	41.51
629.361	41.12
629.693	41.66
630.025	41.25
630.357	42.03
630.689	41.87
631.021	41.66
631.353	41.69
631.684	41.8
632.016	42.23
632.348	42.3
632.679	42.15
633.011	41.99
633.342	41.59
633.674	42.3
634.005	42.04
634.336	41.98
634.668	41.83
634.999	42.35
635.33	41.97
635.661	42.37
635.992	42.22
636.323	42.56
636.654	42.5
636.985	42.51
637.316	42.35
637.647	42.63
637.977	42.32
638.308	42.23
638.639	42.42
638.969	42.65
639.3	42.53
639.63	42.38
639.961	42.9
640.291	42.74
640.622	42.46
640.952	43.07
641.282	42.8
641.612	42.79
641.943	43.03
642.273	43.13
642.603	42.87
642.933	42.89
643.263	42.72
643.592	43.19
643.922	43.24
644.252	43.59
644.582	43.12
644.911	43.39
645.241	42.99
645.571	43.63
645.9	43
646.23	43.31
646.559	43.16
646.888	43.27
647.218	43.6
647.547	43.06
647.876	43.68
648.205	43.07
648.534	43.87
648.863	43.76
649.192	43.63
649.521	43.88
649.85	43.65
650.179	43.84
650.508	43.93
650.837	43.31
651.165	43.71
651.494	43.97
651.822	43.93
652.151	44.37
652.479	43.41
652.808	44.21
653.136	44.15
653.465	43.73
653.793	44.52
654.121	43.49
654.449	44.38
654.777	44.36
655.105	43.98
655.433	44.61
655.761	44.5
656.089	44.13
656.417	44.13
656.745	44.37
657.073	44.96
657.4	44.38
657.728	43.91
658.056	44.22
658.383	44.72
658.711	44.77
659.038	44.41
659.365	44.59
659.693	44.85
660.02	44.32
660.347	44.15
660.674	44.39
661.001	44.6
661.329	44.96
661.656	44.36
661.982	44.93
662.309	44.88
662.636	44.94
662.963	44.9
663.29	45.29
663.616	44.52
663.943	45
664.27	44.79
664.596	45.53
664.923	45.2
665.249	45.02
665.576	45.35
665.902	45.1
666.228	44.99
666.554	45.63
666.881	45.06
667.207	44.98
667.533	45.13
667.859	45.37
668.185	45.07
668.511	45.84
668.837	45.45
669.162	45.51
669.488	45.86
669.814	45.55
670.139	45.58
670.465	45.19
670.791	45.47
671.116	45.98
