Data from 0143_forehead_Reflection__3__206.txt Node

Date: Mon Aug 28 20:25:01 CDT 2023
User: ToomeyLab
Spectrometer: FLMS14357
Trigger mode: 0
Integration Time (sec): 1.000000E-2
Scans to average: 100
Electric dark correction enabled: true
Nonlinearity correction enabled: false
Boxcar width: 0
XAxis mode: Wavelengths
Number of Pixels in Spectrum: 2048
>>>>>Begin Spectral Data<<<<<
189.047	-359.15
189.435	-359.15
189.823	-359.15
190.211	-36.17
190.599	37.99
190.987	-25.03
191.375	-317.6
191.763	78.85
192.151	-290.63
192.538	74.32
192.926	-2.65
193.314	-18.15
193.702	29.84
194.089	8.97
194.477	60.25
194.864	211.29
195.252	-108.57
195.639	62.69
196.027	86.23
196.414	128.13
196.801	-774.71
197.189	50.96
197.576	-10.88
197.963	-15.33
198.351	-24.63
198.738	32.64
199.125	66.64
199.512	35.41
199.899	56.48
200.286	32.6
200.673	53.82
201.06	1.39
201.447	-117.53
201.833	3.11
202.22	10.03
202.607	-8.08
202.994	19.5
203.38	-4.82
203.767	-16.87
204.154	28.02
204.54	2.54
204.927	6.18
205.313	32.08
205.699	8.45
206.086	36.93
206.472	36.94
206.858	8.02
207.245	33.4
207.631	50.18
208.017	27.99
208.403	22.14
208.789	50.25
209.175	-9.6
209.561	16.73
209.947	20.4
210.333	6.75
210.719	13.67
211.105	18.63
211.491	-8.5
211.876	46.88
212.262	11.94
212.648	51.21
213.034	-7.44
213.419	24.91
213.805	6.6
214.19	1.6
214.576	20.22
214.961	18.15
215.346	-21.89
215.732	31.55
216.117	-6.49
216.502	18.76
216.888	-16.55
217.273	3.64
217.658	28.06
218.043	-9.21
218.428	12.92
218.813	13.97
219.198	18.56
219.583	12.75
219.968	32.95
220.353	26.32
220.738	40.3
221.122	9.6
221.507	7.1
221.892	10.59
222.276	25.03
222.661	1.45
223.046	-5.34
223.43	4.29
223.815	14.07
224.199	25.16
224.583	10.43
224.968	10
225.352	15.26
225.736	2.54
226.121	7.34
226.505	6.19
226.889	-0.3
227.273	11.81
227.657	3.82
228.041	2.96
228.425	7.8
228.809	8.5
229.193	7.3
229.577	6.96
229.961	3.59
230.344	5.86
230.728	5.81
231.112	5.34
231.495	5.85
231.879	5.87
232.263	3.96
232.646	3.59
233.03	6.91
233.413	8.39
233.797	3.76
234.18	3.8
234.563	4.83
234.946	8.93
235.33	5.79
235.713	3.48
236.096	7.67
236.479	7.42
236.862	7.33
237.245	5.01
237.628	4.28
238.011	6.47
238.394	4.88
238.777	7.36
239.16	5.58
239.543	3.68
239.925	7.84
240.308	5.6
240.691	4.44
241.073	4.32
241.456	5.63
241.838	6.04
242.221	6.95
242.603	6.15
242.986	6.3
243.368	5.61
243.75	5.31
244.133	5.07
244.515	4.61
244.897	5.65
245.279	5.42
245.661	4.88
246.043	4.8
246.425	5.48
246.807	6.11
247.189	5.46
247.571	5
247.953	6.28
248.335	5
248.717	4.84
249.098	5.12
249.48	5.06
249.862	5.05
250.243	5.16
250.625	5.86
251.006	5.33
251.388	5.33
251.769	4.94
252.151	6.29
252.532	4.47
252.913	5.32
253.295	4.54
253.676	3.76
254.057	5.22
254.438	4.61
254.819	4.79
255.2	5.41
255.581	4.38
255.962	4.69
256.343	7.27
256.724	4.42
257.105	5.36
257.486	4.42
257.867	4.98
258.247	4.98
258.628	6.13
259.009	4.95
259.389	4.51
259.77	5.5
260.15	5
260.531	4.32
260.911	5.02
261.292	4.86
261.672	5.04
262.052	4.56
262.432	4.74
262.813	5.04
263.193	4.77
263.573	4.79
263.953	4.38
264.333	4.76
264.713	4.62
265.093	5.19
265.473	4.82
265.853	4.94
266.233	4.9
266.612	5.18
266.992	4.12
267.372	4.99
267.752	5.23
268.131	5.33
268.511	5.14
268.89	5.3
269.27	4.87
269.649	4.88
270.029	5.76
270.408	5.46
270.787	5.53
271.167	4.86
271.546	4.76
271.925	5.52
272.304	5.19
272.683	4.92
273.062	4.76
273.441	4.91
273.82	4.46
274.199	3.81
274.578	4.81
274.957	4.79
275.336	5.75
275.715	5.62
276.093	4.39
276.472	4.05
276.851	4.33
277.229	5.08
277.608	5.48
277.986	4.99
278.365	4.72
278.743	5.14
279.122	4.9
279.5	5
279.878	4.83
280.257	5.25
280.635	5.13
281.013	5.41
281.391	4.2
281.769	4.75
282.147	5.02
282.525	5.18
282.903	4.63
283.281	4.28
283.659	5.27
284.037	5.42
284.415	4.86
284.792	5.36
285.17	4.85
285.548	4.89
285.925	5.26
286.303	5.19
286.68	5.39
287.058	5.09
287.435	5.13
287.813	4.38
288.19	5.4
288.567	5.23
288.945	5.32
289.322	5.59
289.699	5.22
290.076	5.54
290.453	4.98
290.83	4.75
291.207	4.96
291.584	5.15
291.961	5.52
292.338	5.12
292.715	4.86
293.092	5.29
293.469	5.88
293.845	4.89
294.222	5.2
294.599	5.73
294.975	5.5
295.352	5.15
295.728	5.72
296.105	5.39
296.481	5.74
296.858	5.55
297.234	6.02
297.61	5.61
297.986	5.41
298.363	5.95
298.739	5.38
299.115	5.42
299.491	5.64
299.867	5.71
300.243	5.69
300.619	5.53
300.995	5.88
301.371	5.66
301.746	6.12
302.122	5.99
302.498	5.58
302.874	6.36
303.249	5.87
303.625	6.26
304	5.93
304.376	5.66
304.751	6.19
305.127	6.16
305.502	5.97
305.878	6.26
306.253	6.31
306.628	6.32
307.003	6.38
307.378	6.71
307.754	6.99
308.129	6.82
308.504	7.52
308.879	6.36
309.254	6.54
309.629	6.36
310.003	6.25
310.378	6.98
310.753	6.32
311.128	7
311.502	7.07
311.877	6.68
312.252	7.06
312.626	6.67
313.001	6.96
313.375	7.06
313.75	6.82
314.124	6.8
314.498	7.12
314.873	7.85
315.247	7.02
315.621	6.58
315.995	7.8
316.369	7.62
316.743	7.2
317.117	8.06
317.491	7.19
317.865	7.31
318.239	7.91
318.613	8.35
318.987	7.78
319.361	7.98
319.734	7.62
320.108	8.07
320.482	8.63
320.855	8
321.229	8.03
321.602	8
321.976	7.29
322.349	7.91
322.723	7.82
323.096	7.96
323.469	7.74
323.843	8.08
324.216	8.18
324.589	8.69
324.962	8.52
325.335	8.9
325.708	8.53
326.081	8.03
326.454	8.55
326.827	8.53
327.2	8.3
327.573	8.61
327.945	8.56
328.318	8.86
328.691	8.38
329.063	8.23
329.436	8.58
329.809	9
330.181	8.57
330.553	8.97
330.926	8.83
331.298	9.41
331.671	8.97
332.043	8.56
332.415	9.81
332.787	9
333.159	9.11
333.532	9.59
333.904	9.13
334.276	9.4
334.648	9.22
335.02	10.19
335.391	9.62
335.763	9.15
336.135	9.67
336.507	9.25
336.879	9.16
337.25	10.28
337.622	9.86
337.993	9.51
338.365	9.48
338.736	9.96
339.108	9.54
339.479	9.09
339.851	10.16
340.222	10.2
340.593	9.7
340.964	10.24
341.336	9.76
341.707	9.8
342.078	10.35
342.449	10.29
342.82	10.49
343.191	10.4
343.562	9.94
343.933	10.05
344.303	10.18
344.674	10.29
345.045	10.59
345.416	10.62
345.786	10.58
346.157	10.61
346.527	10.65
346.898	10.28
347.268	10.45
347.639	10.32
348.009	10.39
348.38	10.81
348.75	10.55
349.12	10.6
349.49	11.07
349.861	10.6
350.231	10.78
350.601	11.19
350.971	11.05
351.341	10.99
351.711	10.67
352.081	11.31
352.45	11.13
352.82	11.59
353.19	11.5
353.56	11.39
353.929	11.76
354.299	10.96
354.669	11.97
355.038	12.01
355.408	11.71
355.777	11.53
356.147	11.5
356.516	11.9
356.885	11.69
357.254	11.47
357.624	11.67
357.993	12.36
358.362	11.68
358.731	11.77
359.1	12.13
359.469	12.23
359.838	11.65
360.207	11.97
360.576	12.51
360.945	12.37
361.314	11.78
361.682	12.24
362.051	12.3
362.42	12.07
362.788	12.52
363.157	12.4
363.525	12.29
363.894	12.34
364.262	12.22
364.631	12.48
364.999	12.7
365.367	13.16
365.735	12.72
366.104	12.75
366.472	12.95
366.84	12.96
367.208	12.86
367.576	12.94
367.944	13.11
368.312	12.98
368.68	13.17
369.048	13.51
369.416	13.21
369.783	13.14
370.151	13.28
370.519	13.45
370.886	13.04
371.254	13.2
371.621	13.49
371.989	13.61
372.356	13.6
372.724	13.85
373.091	13.72
373.458	13.46
373.826	13.88
374.193	13.99
374.56	13.96
374.927	13.58
375.294	13.76
375.661	14.71
376.028	14.1
376.395	13.87
376.762	14.57
377.129	14.09
377.496	14.21
377.863	14.43
378.229	14.25
378.596	14.58
378.963	14.57
379.329	14.69
379.696	14.61
380.062	14.46
380.429	14.28
380.795	14.86
381.161	14.89
381.528	14.95
381.894	14.74
382.26	15.25
382.626	15.12
382.993	15.2
383.359	15.15
383.725	15.15
384.091	15.12
384.457	14.93
384.823	15.36
385.188	15.37
385.554	15.15
385.92	15.35
386.286	15.62
386.651	15.33
387.017	15.66
387.383	15.73
387.748	15.44
388.114	15.73
388.479	15.51
388.845	15.74
389.21	15.4
389.575	15.84
389.94	15.85
390.306	15.87
390.671	16.14
391.036	15.9
391.401	16.22
391.766	16.63
392.131	16.25
392.496	15.92
392.861	16
393.226	16.26
393.591	16.13
393.956	16.19
394.32	16.26
394.685	16.6
395.05	16.66
395.414	16.6
395.779	16.77
396.143	16.77
396.508	16.56
396.872	16.91
397.236	16.79
397.601	17
397.965	16.96
398.329	17.26
398.694	17.19
399.058	17.22
399.422	17.43
399.786	17.53
400.15	17.42
400.514	17.39
400.878	17.51
401.242	17.4
401.605	17.15
401.969	17.44
402.333	17.61
402.697	17.55
403.06	17.9
403.424	17.81
403.787	17.76
404.151	17.69
404.514	17.77
404.878	17.79
405.241	17.67
405.604	17.85
405.968	17.74
406.331	18.03
406.694	17.98
407.057	18.28
407.42	17.95
407.783	18.17
408.146	18.14
408.509	18.41
408.872	18.34
409.235	18.51
409.598	18.46
409.961	18.16
410.323	18.87
410.686	18.99
411.049	19.05
411.411	18.78
411.774	18.83
412.136	18.96
412.499	18.88
412.861	19.2
413.223	19.07
413.586	18.87
413.948	19.04
414.31	19.15
414.672	19.05
415.035	19.27
415.397	19.29
415.759	19.7
416.121	19.51
416.483	19.22
416.845	19.51
417.206	19.76
417.568	19.73
417.93	19.19
418.292	19.7
418.653	19.53
419.015	19.54
419.377	19.49
419.738	19.68
420.1	19.61
420.461	19.53
420.822	19.65
421.184	19.82
421.545	19.86
421.906	19.67
422.267	19.62
422.629	19.69
422.99	19.59
423.351	19.64
423.712	19.6
424.073	19.87
424.434	19.96
424.795	20.07
425.155	20.06
425.516	20.08
425.877	20.1
426.238	19.97
426.598	20.01
426.959	20.12
427.32	20.43
427.68	20.53
428.041	20.57
428.401	20.6
428.761	20.66
429.122	20.8
429.482	21.12
429.842	21.26
430.202	21.03
430.563	21.09
430.923	21.33
431.283	21.17
431.643	21.24
432.003	21.16
432.363	21.4
432.722	21.27
433.082	21.43
433.442	21.61
433.802	21.49
434.161	21.52
434.521	21.61
434.881	21.61
435.24	21.49
435.6	21.77
435.959	21.69
436.319	22
436.678	21.9
437.037	22.04
437.396	22.08
437.756	22.16
438.115	22
438.474	22.31
438.833	22.05
439.192	22.43
439.551	22.25
439.91	22.37
440.269	22.51
440.628	22.45
440.987	22.3
441.345	22.23
441.704	22.34
442.063	22.31
442.421	22.41
442.78	22.52
443.138	22.32
443.497	22.49
443.855	22.69
444.214	23.1
444.572	22.89
444.93	23.11
445.288	23.07
445.647	23.17
446.005	23.18
446.363	23.36
446.721	23.13
447.079	23.01
447.437	23.12
447.795	23.03
448.153	23.03
448.51	23.01
448.868	23.11
449.226	23.07
449.584	23.29
449.941	23.32
450.299	23.57
450.656	23.53
451.014	23.56
451.371	23.8
451.729	23.89
452.086	23.76
452.443	24.36
452.801	24.27
453.158	24.37
453.515	24.22
453.872	24.18
454.229	24.24
454.586	24.3
454.943	24.1
455.3	24.49
455.657	24.43
456.014	24.74
456.371	24.69
456.727	24.68
457.084	24.7
457.441	24.93
457.797	25.07
458.154	24.97
458.51	25.11
458.867	24.61
459.223	25.18
459.58	25.03
459.936	25.2
460.292	25.06
460.648	25.16
461.005	24.99
461.361	24.74
461.717	24.7
462.073	24.8
462.429	24.76
462.785	25.2
463.141	25.36
463.496	25.49
463.852	25.79
464.208	25.76
464.564	25.65
464.919	25.92
465.275	25.92
465.631	26.02
465.986	26.24
466.342	25.98
466.697	25.98
467.052	26.01
467.408	25.98
467.763	26.39
468.118	26.17
468.473	26.21
468.829	26.51
469.184	26.44
469.539	26.53
469.894	26.39
470.249	26.43
470.603	26.52
470.958	26.91
471.313	26.79
471.668	26.75
472.023	26.84
472.377	26.89
472.732	27.14
473.086	26.81
473.441	26.83
473.795	27.11
474.15	26.94
474.504	27.17
474.859	27.16
475.213	27.08
475.567	27.2
475.921	27.5
476.275	27.41
476.63	27.65
476.984	27.69
477.338	27.72
477.692	27.66
478.045	27.74
478.399	27.48
478.753	27.5
479.107	27.71
479.461	27.77
479.814	27.91
480.168	27.78
480.521	28.03
480.875	27.63
481.228	27.88
481.582	28.17
481.935	28.15
482.289	28.05
482.642	28.04
482.995	28.25
483.348	27.87
483.701	27.85
484.055	27.96
484.408	27.82
484.761	27.71
485.114	27.58
485.466	27.22
485.819	26.89
486.172	26.88
486.525	27.18
486.878	27.6
487.23	27.85
487.583	28.2
487.936	28.37
488.288	28.33
488.641	28.11
488.993	27.89
489.345	27.77
489.698	27.72
490.05	27.75
490.402	27.92
490.754	28.1
491.107	28.52
491.459	28.73
491.811	28.96
492.163	29
492.515	29.07
492.866	28.92
493.218	28.54
493.57	28.41
493.922	28.26
494.274	28.59
494.625	28.8
494.977	29.33
495.328	29.66
495.68	29.92
496.031	29.93
496.383	30.07
496.734	30.23
497.086	30.1
497.437	30.48
497.788	30.25
498.139	30.11
498.49	30.18
498.842	30.04
499.193	30.04
499.544	30.1
499.894	30.28
500.245	30.4
500.596	30.48
500.947	30.51
501.298	30.82
501.648	30.81
501.999	30.88
502.35	30.86
502.7	30.92
503.051	31.03
503.401	31.14
503.752	31.17
504.102	31.32
504.452	31.24
504.803	31.52
505.153	31.17
505.503	31.3
505.853	31.3
506.203	31.44
506.553	31.29
506.903	31.49
507.253	31.46
507.603	31.66
507.953	31.88
508.303	31.89
508.652	31.91
509.002	31.98
509.352	31.76
509.701	31.92
510.051	31.81
510.4	31.83
510.75	31.87
511.099	31.8
511.449	31.85
511.798	31.91
512.147	32.11
512.496	32.11
512.846	32.1
513.195	32.18
513.544	32.14
513.893	32.19
514.242	32.37
514.591	32.34
514.939	32.4
515.288	32.55
515.637	32.61
515.986	32.74
516.334	32.73
516.683	32.91
517.032	32.88
517.38	32.9
517.729	33.03
518.077	33.02
518.426	33.12
518.774	32.99
519.122	33.17
519.47	32.98
519.819	32.81
520.167	32.85
520.515	32.7
520.863	32.48
521.211	32.7
521.559	32.86
521.907	33.16
522.255	33.02
522.602	33.38
522.95	33.62
523.298	33.74
523.645	33.72
523.993	33.89
524.341	33.88
524.688	33.87
525.036	33.98
525.383	34.11
525.73	33.8
526.078	34.07
526.425	33.96
526.772	33.93
527.119	33.82
527.466	33.56
527.814	33.48
528.161	33.55
528.508	33.53
528.854	33.83
529.201	34
529.548	33.74
529.895	33.54
530.242	33.26
530.588	33.11
530.935	33.05
531.282	33.21
531.628	33.43
531.975	33.81
532.321	34.05
532.667	34.23
533.014	34.38
533.36	34.49
533.706	34.45
534.052	34.58
534.399	34.38
534.745	34.47
535.091	34.19
535.437	33.97
535.783	34.15
536.129	34.3
536.474	34.72
536.82	35.01
537.166	35.24
537.512	35.24
537.857	35.33
538.203	35.06
538.549	35.01
538.894	34.91
539.239	34.94
539.585	35.22
539.93	35.53
540.276	35.88
540.621	35.94
540.966	35.88
541.311	36.1
541.656	35.94
542.001	36.09
542.346	35.95
542.691	35.58
543.036	35.24
543.381	34.98
543.726	35.08
544.071	35.3
544.415	35.57
544.76	35.83
545.105	35.94
545.449	35.85
545.794	36.04
546.138	36.27
546.483	36.5
546.827	36.52
547.171	36.64
547.516	36.86
547.86	36.71
548.204	36.78
548.548	36.8
548.892	36.5
549.236	36.61
549.58	36.87
549.924	37.15
550.268	37.44
550.612	37.54
550.956	37.49
551.3	37.73
551.643	37.75
551.987	37.61
552.33	38.15
552.674	37.81
553.017	37.93
553.361	37.88
553.704	38.09
554.048	37.99
554.391	37.93
554.734	37.91
555.077	37.9
555.42	38.24
555.764	38.1
556.107	38.18
556.45	38.35
556.793	38.49
557.135	38.51
557.478	38.46
557.821	38.67
558.164	39.08
558.507	38.66
558.849	38.77
559.192	38.85
559.534	38.78
559.877	39.09
560.219	38.91
560.562	39.13
560.904	39.32
561.246	39.28
561.589	39.09
561.931	39.25
562.273	39.14
562.615	39.23
562.957	39.29
563.299	39.29
563.641	39.08
563.983	39.68
564.325	39.27
564.667	39.46
565.008	39.39
565.35	39.84
565.692	39.86
566.033	39.56
566.375	39.81
566.716	39.66
567.058	39.87
567.399	39.52
567.741	39.57
568.082	39.77
568.423	39.4
568.764	39.38
569.105	39.94
569.447	39.91
569.788	40.17
570.129	40.09
570.47	40.23
570.811	40.52
571.151	40.17
571.492	40.22
571.833	40.46
572.174	40.33
572.514	40.43
572.855	40.27
573.195	40.64
573.536	40.4
573.876	40.4
574.217	40.37
574.557	40.58
574.898	40.6
575.238	40.61
575.578	40.84
575.918	40.88
576.258	40.73
576.598	41.12
576.938	40.61
577.278	40.97
577.618	40.9
577.958	40.87
578.298	41.16
578.638	41.04
578.977	41.48
579.317	41.32
579.657	41.38
579.996	41.66
580.336	41.71
580.675	41.92
581.014	41.94
581.354	41.61
581.693	41.61
582.032	42.16
582.372	41.98
582.711	42.11
583.05	42.14
583.389	42.24
583.728	42.1
584.067	42.41
584.406	42.26
584.745	41.99
585.083	42.56
585.422	42.69
585.761	42.68
586.1	42.58
586.438	42.32
586.777	42.42
587.115	42.94
587.454	42.88
587.792	42.76
588.13	42.81
588.469	42.8
588.807	42.78
589.145	42.85
589.483	43.07
589.821	43.02
590.159	43.08
590.497	43.01
590.835	42.97
591.173	43.14
591.511	42.89
591.849	43.1
592.187	43.08
592.524	43.22
592.862	43.38
593.2	43.16
593.537	43.42
593.875	43.41
594.212	43.29
594.55	43.49
594.887	43.5
595.224	43.7
595.561	43.83
595.899	43.53
596.236	43.62
596.573	43.5
596.91	43.53
597.247	43.73
597.584	43.73
597.921	43.69
598.258	43.9
598.594	43.79
598.931	43.35
599.268	43.53
599.604	43.66
599.941	43.81
600.277	43.93
600.614	44.07
600.95	44.24
601.287	44.51
601.623	44.42
601.959	44.77
602.296	44.49
602.632	44.74
602.968	44.76
603.304	44.61
603.64	44.38
603.976	44.81
604.312	44.68
604.648	44.66
604.984	44.7
605.319	44.63
605.655	44.53
605.991	44.39
606.326	44.54
606.662	44.49
606.998	44.32
607.333	44.45
607.668	44.82
608.004	44.52
608.339	44.79
608.674	44.95
609.01	45.5
609.345	45.59
609.68	45.36
610.015	45.48
610.35	45.61
610.685	45.94
611.02	45.35
611.355	45.42
611.689	45.16
612.024	45.11
612.359	45.25
612.694	45.5
613.028	45.45
613.363	45.76
613.697	45.76
614.032	45.69
614.366	45.87
614.7	46.2
615.035	46.07
615.369	46.45
615.703	46.06
616.037	45.86
616.371	46.17
616.705	46.26
617.039	46.23
617.373	45.93
617.707	46.4
618.041	46.53
618.375	46.67
618.709	46.89
619.042	47.02
619.376	46.44
619.71	46.74
620.043	46.56
620.377	46.67
620.71	46.48
621.043	47.22
621.377	47.05
621.71	46.82
622.043	46.83
622.376	46.81
622.709	46.89
623.043	47.78
623.376	47.86
623.709	47.58
624.041	47.32
624.374	46.75
624.707	46.89
625.04	46.82
625.373	47.27
625.705	47.61
626.038	47.43
626.37	47.84
626.703	47.24
627.035	47.47
627.368	47.39
627.7	47.67
628.032	47.51
628.365	47.2
628.697	47.62
629.029	47.34
629.361	47.32
629.693	47.63
630.025	47.39
630.357	47.41
630.689	48.04
631.021	47.87
631.353	47.82
631.684	47.99
632.016	47.87
632.348	48.11
632.679	48.6
633.011	47.97
633.342	47.68
633.674	48.35
634.005	48.75
634.336	47.93
634.668	48.3
634.999	48.26
635.33	48.81
635.661	48.31
635.992	48.51
636.323	48.52
636.654	48.36
636.985	48.56
637.316	48.16
637.647	48.78
637.977	48.16
638.308	48.6
638.639	48.43
638.969	49.21
639.3	48.71
639.63	49.12
639.961	48.96
640.291	49.24
640.622	49.03
640.952	49.19
641.282	48.98
641.612	49.89
641.943	49.17
642.273	49.58
642.603	48.94
642.933	48.78
643.263	49.92
643.592	49.69
643.922	49.09
644.252	48.72
644.582	49.33
644.911	49.62
645.241	49.55
645.571	49.17
645.9	49.34
646.23	48.75
646.559	49.49
646.888	50.28
647.218	49.69
647.547	49.9
647.876	49.77
648.205	49.7
648.534	50.28
648.863	50.32
649.192	49.89
649.521	50.19
649.85	50.25
650.179	49.86
650.508	50.58
650.837	49.1
651.165	50.4
651.494	49.95
651.822	49.93
652.151	50.35
652.479	50.59
652.808	50.43
653.136	50.36
653.465	50.07
653.793	50.6
654.121	50.29
654.449	50.45
654.777	50.08
655.105	50.15
655.433	50.77
655.761	50.94
656.089	50.73
656.417	50.65
656.745	50.76
657.073	50.81
657.4	50.44
657.728	50.83
658.056	51.05
658.383	51.13
658.711	51.07
659.038	51.05
659.365	51.1
659.693	51.05
660.02	51.28
660.347	51.26
660.674	51.36
661.001	51.29
661.329	51
661.656	50.53
661.982	51.34
662.309	50.89
662.636	51.13
662.963	51.68
663.29	51.16
663.616	51.24
663.943	51.28
664.27	51.7
664.596	51.65
664.923	51.88
665.249	51.81
665.576	51.45
665.902	50.96
666.228	50.83
666.554	52.12
666.881	51.35
667.207	51.27
667.533	52.06
667.859	51.43
668.185	51.99
668.511	51.58
668.837	52.17
669.162	51.79
669.488	51.7
669.814	51.92
670.139	51.85
670.465	52.79
670.791	51.42
671.116	52.37
