Data from 0143_forehead_Reflection__4__207.txt Node

Date: Mon Aug 28 20:25:12 CDT 2023
User: ToomeyLab
Spectrometer: FLMS14357
Trigger mode: 0
Integration Time (sec): 1.000000E-2
Scans to average: 100
Electric dark correction enabled: true
Nonlinearity correction enabled: false
Boxcar width: 0
XAxis mode: Wavelengths
Number of Pixels in Spectrum: 2048
>>>>>Begin Spectral Data<<<<<
189.047	-1301.7
189.435	-1301.7
189.823	-1301.7
190.211	64.74
190.599	89.73
190.987	51.16
191.375	-634.48
191.763	10.19
192.151	70.23
192.538	175.04
192.926	149.71
193.314	-35.27
193.702	121.72
194.089	121.13
194.477	134.01
194.864	37.4
195.252	281.61
195.639	6.14
196.027	69.07
196.414	116.3
196.801	437.7
197.189	43.72
197.576	41.75
197.963	111.52
198.351	71.13
198.738	15.14
199.125	27.03
199.512	31.54
199.899	48.83
200.286	16.01
200.673	21.78
201.06	27.02
201.447	-106.56
201.833	-20.55
202.22	26.33
202.607	10.86
202.994	46.57
203.38	16.05
203.767	22.76
204.154	30.72
204.54	18.37
204.927	3.12
205.313	4.27
205.699	-34.22
206.086	57.24
206.472	55.06
206.858	-25.79
207.245	2.96
207.631	48.46
208.017	6.69
208.403	27.27
208.789	-5.46
209.175	-24.11
209.561	10.16
209.947	17.74
210.333	-27.88
210.719	24.15
211.105	39.84
211.491	48.12
211.876	37.84
212.262	11.89
212.648	46.68
213.034	0.08
213.419	37.84
213.805	9.72
214.19	-17.26
214.576	29.84
214.961	36.73
215.346	37.77
215.732	17.52
216.117	6.82
216.502	21.33
216.888	-36.36
217.273	-5.17
217.658	24.97
218.043	47.91
218.428	23.15
218.813	23.94
219.198	16.97
219.583	13.33
219.968	35.04
220.353	-0.6
220.738	39.88
221.122	18.79
221.507	35.3
221.892	34.29
222.276	22.49
222.661	19.43
223.046	1.38
223.43	6.41
223.815	14.82
224.199	18.11
224.583	6.62
224.968	22.88
225.352	14.7
225.736	26.54
226.121	16.05
226.505	5.5
226.889	14.9
227.273	8.52
227.657	7.75
228.041	12.71
228.425	12.27
228.809	8.01
229.193	10.74
229.577	7.32
229.961	10.14
230.344	8.61
230.728	6.61
231.112	6.59
231.495	6.35
231.879	7.11
232.263	7.57
232.646	6.66
233.03	8.16
233.413	10.81
233.797	7.45
234.18	7.6
234.563	8.63
234.946	10.1
235.33	5.01
235.713	5.99
236.096	8.72
236.479	7.06
236.862	7.67
237.245	7.48
237.628	6.6
238.011	9.44
238.394	8.26
238.777	10.26
239.16	8.12
239.543	5.58
239.925	7.55
240.308	5.08
240.691	7.62
241.073	6.31
241.456	8.38
241.838	6.39
242.221	8.49
242.603	7.21
242.986	7.72
243.368	7.09
243.75	6.71
244.133	6.2
244.515	5.82
244.897	6.55
245.279	6.42
245.661	6.97
246.043	6.32
246.425	5.99
246.807	7.79
247.189	6.22
247.571	6.43
247.953	6.85
248.335	6.51
248.717	6.44
249.098	6.25
249.48	6.32
249.862	6.37
250.243	6.34
250.625	7.14
251.006	6.52
251.388	6.79
251.769	6.91
252.151	7.12
252.532	6.13
252.913	6.6
253.295	5.91
253.676	6.42
254.057	6.36
254.438	6.19
254.819	6.11
255.2	6.74
255.581	7.05
255.962	6.84
256.343	8.38
256.724	6.15
257.105	7.04
257.486	6.62
257.867	6.9
258.247	6.42
258.628	8.48
259.009	5.64
259.389	5.55
259.77	6.85
260.15	6.15
260.531	5.97
260.911	6.73
261.292	6.22
261.672	6.22
262.052	6.04
262.432	6.01
262.813	6.3
263.193	6.26
263.573	6.13
263.953	7.01
264.333	6.65
264.713	6.31
265.093	6.46
265.473	6.39
265.853	6.3
266.233	6.26
266.612	7.29
266.992	7.03
267.372	5.84
267.752	7.13
268.131	6.45
268.511	6.17
268.89	6.31
269.27	6.25
269.649	6.11
270.029	6.77
270.408	6.7
270.787	7.32
271.167	6.47
271.546	6.07
271.925	6.28
272.304	6.47
272.683	6.58
273.062	6.22
273.441	6.45
273.82	5.89
274.199	5.76
274.578	5.93
274.957	6.37
275.336	6.06
275.715	6.35
276.093	5.69
276.472	5.72
276.851	5.96
277.229	6.85
277.608	6.42
277.986	6.17
278.365	6.17
278.743	6.63
279.122	6.19
279.5	6.08
279.878	5.96
280.257	6.47
280.635	7.11
281.013	6.69
281.391	6.22
281.769	6.35
282.147	6.57
282.525	6.6
282.903	6.21
283.281	6.17
283.659	6.59
284.037	6.51
284.415	5.93
284.792	6.56
285.17	5.7
285.548	6.44
285.925	6.84
286.303	5.96
286.68	6.33
287.058	6.44
287.435	6.09
287.813	6.13
288.19	6.83
288.567	6.37
288.945	6.39
289.322	6.59
289.699	6.14
290.076	7
290.453	6.46
290.83	6.2
291.207	6.4
291.584	6.34
291.961	6.56
292.338	6.6
292.715	6.36
293.092	6.53
293.469	6.72
293.845	6.5
294.222	7.26
294.599	7.12
294.975	7.02
295.352	7.09
295.728	6.68
296.105	7.38
296.481	7.25
296.858	7.35
297.234	7.15
297.61	7.04
297.986	6.97
298.363	7.43
298.739	6.85
299.115	6.61
299.491	7.22
299.867	6.87
300.243	7.13
300.619	6.87
300.995	7.39
301.371	7.09
301.746	7.67
302.122	7.42
302.498	7.78
302.874	7.57
303.249	7.33
303.625	7.68
304	7.25
304.376	7.9
304.751	7.23
305.127	7.49
305.502	7.6
305.878	7.99
306.253	8.02
306.628	7.71
307.003	7.84
307.378	8.01
307.754	7.96
308.129	8.1
308.504	8.91
308.879	8.43
309.254	8.71
309.629	8.45
310.003	8.47
310.378	8.47
310.753	8.77
311.128	8.43
311.502	8.93
311.877	8.26
312.252	8.87
312.626	8.75
313.001	8.6
313.375	8.82
313.75	8.73
314.124	8.73
314.498	9.05
314.873	9.15
315.247	8.91
315.621	8.65
315.995	10.03
316.369	8.73
316.743	8.3
317.117	9.17
317.491	9.14
317.865	8.88
318.239	9.14
318.613	9.35
318.987	9.32
319.361	9.3
319.734	9.85
320.108	10.49
320.482	10.41
320.855	9.4
321.229	9.93
321.602	9.72
321.976	9.96
322.349	10.1
322.723	9.63
323.096	10.62
323.469	9.72
323.843	9.9
324.216	10.51
324.589	10.52
324.962	10.52
325.335	10.28
325.708	10.54
326.081	10.59
326.454	10.59
326.827	10.8
327.2	10.4
327.573	10.83
327.945	11.22
328.318	11.13
328.691	10.83
329.063	10.26
329.436	10.71
329.809	10.7
330.181	11
330.553	11.1
330.926	10.83
331.298	11.59
331.671	11.26
332.043	11.17
332.415	11.48
332.787	10.96
333.159	11.62
333.532	11.89
333.904	11.79
334.276	11.61
334.648	12.04
335.02	12.12
335.391	12.09
335.763	11.44
336.135	12.25
336.507	11.73
336.879	11.36
337.25	12.79
337.622	12.44
337.993	12.5
338.365	11.92
338.736	12.32
339.108	12.09
339.479	11.79
339.851	12.32
340.222	12.94
340.593	12.18
340.964	12.14
341.336	12.93
341.707	12.23
342.078	12.48
342.449	12.14
342.82	12.99
343.191	12.28
343.562	13.03
343.933	12.98
344.303	12.98
344.674	13.2
345.045	13.37
345.416	13.33
345.786	13.67
346.157	13.36
346.527	13.16
346.898	13.1
347.268	13.74
347.639	13.12
348.009	13.35
348.38	13.64
348.75	13.73
349.12	13.64
349.49	13.18
349.861	13.11
350.231	13.63
350.601	14.26
350.971	14.12
351.341	13.62
351.711	13.99
352.081	13.97
352.45	14.25
352.82	14.3
353.19	14.56
353.56	14.44
353.929	14.39
354.299	14.11
354.669	14.72
355.038	14.64
355.408	14.96
355.777	14.45
356.147	14.73
356.516	15.02
356.885	14.69
357.254	14.4
357.624	15.11
357.993	15.18
358.362	14.52
358.731	15.03
359.1	14.91
359.469	15.25
359.838	14.97
360.207	14.89
360.576	15.29
360.945	15.25
361.314	14.99
361.682	15.25
362.051	15.59
362.42	15.61
362.788	15.35
363.157	15.76
363.525	15.39
363.894	15.82
364.262	15.67
364.631	15.48
364.999	15.56
365.367	15.76
365.735	15.91
366.104	15.85
366.472	15.78
366.84	15.68
367.208	16.11
367.576	16.05
367.944	16.33
368.312	16.31
368.68	16.57
369.048	16.52
369.416	16.45
369.783	16.62
370.151	16.7
370.519	16.6
370.886	16.84
371.254	16.45
371.621	16.42
371.989	16.9
372.356	16.69
372.724	17.21
373.091	16.94
373.458	16.95
373.826	17.2
374.193	17.34
374.56	17.06
374.927	17.22
375.294	17.24
375.661	17.75
376.028	17.39
376.395	17.53
376.762	17.61
377.129	17.53
377.496	17.51
377.863	17.86
378.229	17.86
378.596	17.92
378.963	18.1
379.329	18.04
379.696	17.87
380.062	17.75
380.429	17.73
380.795	18.11
381.161	18.34
381.528	18.65
381.894	18.18
382.26	18.49
382.626	18.7
382.993	18.76
383.359	18.53
383.725	18.82
384.091	18.56
384.457	18.8
384.823	18.66
385.188	18.73
385.554	18.62
385.92	18.58
386.286	19.1
386.651	18.8
387.017	18.95
387.383	19.18
387.748	19.13
388.114	19.04
388.479	18.96
388.845	19.17
389.21	19.42
389.575	19.17
389.94	19.5
390.306	19.66
390.671	19.53
391.036	19.61
391.401	20.02
391.766	19.57
392.131	19.96
392.496	19.78
392.861	19.8
393.226	19.86
393.591	19.95
393.956	19.92
394.32	20
394.685	20.22
395.05	20.26
395.414	20.24
395.779	20.37
396.143	20.2
396.508	20.19
396.872	20.6
397.236	20.38
397.601	20.54
397.965	20.84
398.329	20.89
398.694	21.06
399.058	20.81
399.422	21.14
399.786	20.89
400.15	21.03
400.514	21.26
400.878	21.02
401.242	21.17
401.605	21.25
401.969	21.09
402.333	21.36
402.697	21.29
403.06	21.49
403.424	21.38
403.787	21.64
404.151	21.51
404.514	21.59
404.878	21.89
405.241	21.81
405.604	21.9
405.968	21.6
406.331	21.88
406.694	21.95
407.057	22.12
407.42	22.11
407.783	21.99
408.146	21.97
408.509	22.4
408.872	22.27
409.235	22.27
409.598	22.44
409.961	22.3
410.323	22.74
410.686	22.5
411.049	22.85
411.411	22.73
411.774	22.55
412.136	22.67
412.499	22.83
412.861	22.88
413.223	22.86
413.586	22.98
413.948	22.93
414.31	23.43
414.672	23.23
415.035	23.21
415.397	22.91
415.759	23.41
416.121	23.39
416.483	23.51
416.845	23.48
417.206	23.52
417.568	23.72
417.93	23.41
418.292	23.61
418.653	23.63
419.015	23.45
419.377	23.42
419.738	23.78
420.1	23.52
420.461	23.65
420.822	23.83
421.184	23.68
421.545	23.7
421.906	23.55
422.267	23.86
422.629	23.72
422.99	23.68
423.351	23.78
423.712	23.62
424.073	23.84
424.434	23.96
424.795	23.99
425.155	24.11
425.516	24.1
425.877	24.16
426.238	24.14
426.598	24.03
426.959	24.04
427.32	24.15
427.68	24.35
428.041	24.51
428.401	24.66
428.761	24.62
429.122	24.9
429.482	24.96
429.842	25.21
430.202	25.24
430.563	25.38
430.923	25.4
431.283	25.31
431.643	25.4
432.003	25.42
432.363	25.62
432.722	25.74
433.082	25.6
433.442	25.57
433.802	25.77
434.161	25.83
434.521	25.81
434.881	25.77
435.24	25.8
435.6	25.84
435.959	25.82
436.319	26.1
436.678	26.04
437.037	26
437.396	26.25
437.756	26.21
438.115	26.41
438.474	26.66
438.833	26.58
439.192	26.5
439.551	26.45
439.91	26.56
440.269	26.44
440.628	26.54
440.987	26.63
441.345	26.46
441.704	26.46
442.063	26.41
442.421	26.51
442.78	26.78
443.138	26.66
443.497	26.68
443.855	26.8
444.214	26.94
444.572	26.99
444.93	27.01
445.288	27.07
445.647	27.13
446.005	27.27
446.363	27.26
446.721	27.23
447.079	27.38
447.437	27.21
447.795	27.21
448.153	27.31
448.51	27.07
448.868	27.23
449.226	27.15
449.584	27.21
449.941	27.48
450.299	27.57
450.656	27.76
451.014	27.74
451.371	27.91
451.729	27.85
452.086	27.91
452.443	28.39
452.801	28.3
453.158	28.33
453.515	28.17
453.872	28.38
454.229	28.49
454.586	28.47
454.943	28.16
455.3	28.46
455.657	28.57
456.014	28.58
456.371	28.68
456.727	28.74
457.084	29.1
457.441	28.97
457.797	29.03
458.154	29.07
458.51	29.22
458.867	29.08
459.223	29.36
459.58	29.17
459.936	29.32
460.292	29.46
460.648	29.23
461.005	29.18
461.361	29.08
461.717	29.09
462.073	29.08
462.429	28.94
462.785	29.22
463.141	29.43
463.496	29.5
463.852	29.59
464.208	29.75
464.564	29.79
464.919	30.25
465.275	30.18
465.631	30.05
465.986	30.35
466.342	30.33
466.697	30.27
467.052	30.42
467.408	30.42
467.763	30.47
468.118	30.4
468.473	30.34
468.829	30.43
469.184	30.44
469.539	30.44
469.894	30.59
470.249	30.66
470.603	30.72
470.958	30.59
471.313	30.77
471.668	31.08
472.023	30.96
472.377	30.95
472.732	31.35
473.086	31.05
473.441	31.09
473.795	31.37
474.15	31.42
474.504	31.23
474.859	31.27
475.213	31.31
475.567	31.38
475.921	31.45
476.275	31.32
476.63	31.58
476.984	31.61
477.338	31.83
477.692	31.82
478.045	31.92
478.399	31.84
478.753	31.53
479.107	32.05
479.461	31.97
479.814	32.08
480.168	31.93
480.521	31.99
480.875	31.98
481.228	32.01
481.582	32.22
481.935	31.99
482.289	32.14
482.642	32.27
482.995	32.27
483.348	32.3
483.701	32.17
484.055	32.12
484.408	31.89
484.761	32.03
485.114	31.87
485.466	31.46
485.819	31.47
486.172	31.51
486.525	31.52
486.878	31.49
487.23	31.66
487.583	31.87
487.936	32.04
488.288	32.03
488.641	32.24
488.993	32.14
489.345	32.01
489.698	31.94
490.05	31.93
490.402	32.01
490.754	32.03
491.107	32.39
491.459	32.48
491.811	32.7
492.163	32.99
492.515	32.88
492.866	33
493.218	32.84
493.57	32.71
493.922	32.53
494.274	32.59
494.625	32.67
494.977	33.08
495.328	33.29
495.68	33.52
496.031	33.72
496.383	33.91
496.734	33.95
497.086	34.06
497.437	34.26
497.788	34.21
498.139	34.38
498.49	34.29
498.842	34.23
499.193	34.11
499.544	34.2
499.894	34.29
500.245	34.38
500.596	34.36
500.947	34.42
501.298	34.54
501.648	34.5
501.999	34.78
502.35	34.85
502.7	34.91
503.051	34.98
503.401	35.16
503.752	35.05
504.102	35.1
504.452	35.24
504.803	35.28
505.153	35.12
505.503	35.27
505.853	35.21
506.203	35.4
506.553	35.42
506.903	35.57
507.253	35.43
507.603	35.66
507.953	35.75
508.303	35.68
508.652	35.73
509.002	35.73
509.352	35.54
509.701	35.68
510.051	35.73
510.4	35.71
510.75	35.69
511.099	35.74
511.449	35.76
511.798	35.68
512.147	35.91
512.496	36.09
512.846	36.11
513.195	36.19
513.544	36.19
513.893	35.98
514.242	36.24
514.591	36.3
514.939	36.23
515.288	36.46
515.637	36.44
515.986	36.42
516.334	36.63
516.683	36.65
517.032	36.71
517.38	36.93
517.729	37.09
518.077	36.92
518.426	36.89
518.774	36.98
519.122	37.07
519.47	36.64
519.819	36.66
520.167	36.76
520.515	36.67
520.863	36.47
521.211	36.53
521.559	36.6
521.907	36.71
522.255	36.85
522.602	37.2
522.95	37.23
523.298	37.54
523.645	37.47
523.993	37.53
524.341	37.74
524.688	37.8
525.036	37.7
525.383	37.63
525.73	37.67
526.078	37.87
526.425	37.81
526.772	37.89
527.119	37.56
527.466	37.49
527.814	37.4
528.161	37.47
528.508	37.41
528.854	37.52
529.201	37.66
529.548	37.55
529.895	37.46
530.242	37.23
530.588	37.07
530.935	37.22
531.282	37.28
531.628	37.22
531.975	37.23
532.321	37.39
532.667	37.68
533.014	37.91
533.36	38.04
533.706	38.24
534.052	38.38
534.399	38.22
534.745	38.3
535.091	38.05
535.437	37.8
535.783	38.02
536.129	37.99
536.474	38.21
536.82	38.48
537.166	38.43
537.512	38.75
537.857	38.95
538.203	38.68
538.549	38.68
538.894	38.66
539.239	38.69
539.585	38.78
539.93	38.9
540.276	39.32
540.621	39.32
540.966	39.14
541.311	39.59
541.656	39.47
542.001	39.62
542.346	39.58
542.691	39.21
543.036	39.08
543.381	38.86
543.726	38.85
544.071	38.82
544.415	38.87
544.76	39.12
545.105	39.19
545.449	39.17
545.794	39.44
546.138	39.7
546.483	39.73
546.827	39.97
547.171	39.72
547.516	40.4
547.86	40.22
548.204	40.34
548.548	40.26
548.892	40.15
549.236	39.89
549.58	40.19
549.924	40.32
550.268	40.55
550.612	40.68
550.956	40.79
551.3	41.01
551.643	41.43
551.987	41.24
552.33	41.47
552.674	41.37
553.017	41.23
553.361	41.54
553.704	41.11
554.048	41.27
554.391	41.35
554.734	41.36
555.077	41.23
555.42	41.28
555.764	41.48
556.107	41.47
556.45	41.53
556.793	41.65
557.135	41.51
557.478	41.58
557.821	41.78
558.164	41.91
558.507	41.91
558.849	42.18
559.192	42.16
559.534	41.87
559.877	42.26
560.219	42.2
560.562	42.27
560.904	42.52
561.246	42.2
561.589	42.29
561.931	42.44
562.273	42.19
562.615	42.8
562.957	42.54
563.299	42.42
563.641	42.47
563.983	42.63
564.325	42.71
564.667	42.52
565.008	42.32
565.35	42.5
565.692	42.8
566.033	42.77
566.375	43.17
566.716	43.05
567.058	43.05
567.399	42.74
567.741	42.82
568.082	42.6
568.423	42.65
568.764	42.43
569.105	42.94
569.447	42.74
569.788	42.86
570.129	42.85
570.47	43.21
570.811	43.45
571.151	43.2
571.492	43.45
571.833	43.62
572.174	43.57
572.514	43.32
572.855	43.37
573.195	43.42
573.536	43.41
573.876	43.21
574.217	43.42
574.557	43.44
574.898	43.31
575.238	43.47
575.578	43.27
575.918	43.76
576.258	43.57
576.598	43.86
576.938	43.6
577.278	43.59
577.618	43.59
577.958	43.84
578.298	44.01
578.638	44.18
578.977	44.27
579.317	44.13
579.657	44.08
579.996	44.14
580.336	44.43
580.675	44.34
581.014	44.5
581.354	44.27
581.693	44.53
582.032	44.74
582.372	44.73
582.711	44.93
583.05	44.31
583.389	45.11
583.728	44.68
584.067	44.79
584.406	45.01
584.745	44.92
585.083	44.98
585.422	45.02
585.761	45.27
586.1	45.26
586.438	45.4
586.777	45.24
587.115	45.18
587.454	45.27
587.792	45.64
588.13	45.4
588.469	45.49
588.807	45.3
589.145	45.21
589.483	45.44
589.821	45.71
590.159	45.83
590.497	45.88
590.835	45.5
591.173	45.15
591.511	45.47
591.849	45.89
592.187	45.54
592.524	45.79
592.862	46.06
593.2	45.52
593.537	45.55
593.875	46.21
594.212	46.03
594.55	46.05
594.887	46.01
595.224	45.74
595.561	45.89
595.899	46.22
596.236	46.42
596.573	46.17
596.91	45.7
597.247	46.17
597.584	45.96
597.921	46.07
598.258	46.1
598.594	45.85
598.931	45.79
599.268	45.92
599.604	46.04
599.941	46.04
600.277	46.19
600.614	46.12
600.95	46.62
601.287	46.68
601.623	46.69
601.959	46.99
602.296	46.63
602.632	46.81
602.968	46.7
603.304	46.93
603.64	46.61
603.976	46.81
604.312	46.95
604.648	47.12
604.984	46.73
605.319	46.82
605.655	46.73
605.991	46.72
606.326	46.75
606.662	46.63
606.998	46.57
607.333	46.47
607.668	46.57
608.004	46.52
608.339	47.01
608.674	46.93
609.01	47.32
609.345	47.25
609.68	47.7
610.015	47.65
610.35	47.6
610.685	47.6
611.02	47.13
611.355	47.6
611.689	47.08
612.024	47.3
612.359	47.27
612.694	47.5
613.028	47.45
613.363	47.6
613.697	47.6
614.032	47.84
614.366	47.7
614.7	47.92
615.035	48.18
615.369	48.41
615.703	48.15
616.037	47.72
616.371	48.26
616.705	48.01
617.039	47.8
617.373	47.83
617.707	48.58
618.041	48.43
618.375	48.32
618.709	48.75
619.042	48.4
619.376	48.23
619.71	48.62
620.043	48.78
620.377	48.22
620.71	48.23
621.043	48.61
621.377	49.2
621.71	48.35
622.043	48.08
622.376	48.23
622.709	48.72
623.043	48.66
623.376	49.02
623.709	49.15
624.041	48.69
624.374	48.77
624.707	48.59
625.04	48.42
625.373	48.74
625.705	49.41
626.038	49.07
626.37	49.04
626.703	49.27
627.035	49.08
627.368	49.26
627.7	49.41
628.032	48.96
628.365	48.75
628.697	49.28
629.029	48.96
629.361	48.88
629.693	49.25
630.025	48.98
630.357	49.16
630.689	49.35
631.021	49.24
631.353	49.6
631.684	49.46
632.016	49.16
632.348	49.55
632.679	49.88
633.011	49.68
633.342	49.67
633.674	49.71
634.005	49.79
634.336	49.37
634.668	49.71
634.999	49.81
635.33	49.96
635.661	50.18
635.992	49.83
636.323	49.77
636.654	49.18
636.985	50.14
637.316	49.61
637.647	49.97
637.977	49.82
638.308	50.01
638.639	49.84
638.969	50.86
639.3	49.67
639.63	50.21
639.961	49.98
640.291	50.5
640.622	50.04
640.952	50.38
641.282	49.99
641.612	50.3
641.943	50.35
642.273	50.77
642.603	50.45
642.933	49.71
643.263	50.51
643.592	51.23
643.922	50.8
644.252	50.34
644.582	50.37
644.911	50.58
645.241	50.33
645.571	50.43
645.9	50.68
646.23	50.18
646.559	50.6
646.888	50.79
647.218	50.61
647.547	50.94
647.876	50.6
648.205	50.62
648.534	51.45
648.863	51
649.192	50.67
649.521	50.77
649.85	50.99
650.179	50.95
650.508	51.18
650.837	50.73
651.165	51.31
651.494	51.1
651.822	50.92
652.151	51.05
652.479	51.9
652.808	51.42
653.136	50.85
653.465	51.04
653.793	51.24
654.121	51.04
654.449	51.35
654.777	51.22
655.105	51.06
655.433	51.32
655.761	51.68
656.089	51.52
656.417	51.38
656.745	51.2
657.073	51.31
657.4	51.55
657.728	51.43
658.056	51.59
658.383	51.38
658.711	51.84
659.038	51.64
659.365	51.23
659.693	51.73
660.02	51.5
660.347	51.55
660.674	51.55
661.001	51.61
661.329	51.66
661.656	51.68
661.982	51.66
662.309	51.75
662.636	51.61
662.963	52.25
663.29	52.06
663.616	52.03
663.943	51.66
664.27	51.95
664.596	51.4
664.923	52.38
665.249	52.2
665.576	52.25
665.902	51.8
666.228	52.07
666.554	52.26
666.881	51.66
667.207	52.34
667.533	53
667.859	52.78
668.185	51.95
668.511	52.35
668.837	52.3
669.162	52.61
