Data from 0143_crown_Reflection__0__208.txt Node

Date: Mon Aug 28 20:25:52 CDT 2023
User: ToomeyLab
Spectrometer: FLMS14357
Trigger mode: 0
Integration Time (sec): 1.000000E-2
Scans to average: 100
Electric dark correction enabled: true
Nonlinearity correction enabled: false
Boxcar width: 0
XAxis mode: Wavelengths
Number of Pixels in Spectrum: 2048
>>>>>Begin Spectral Data<<<<<
189.047	-825.53
189.435	-825.53
189.823	-825.53
190.211	72.45
190.599	9.33
190.987	-6.11
191.375	-37.2
191.763	56.32
192.151	-85.12
192.538	57.12
192.926	124.49
193.314	-55.99
193.702	27.68
194.089	72.3
194.477	-64.92
194.864	57.6
195.252	-37.15
195.639	-10.72
196.027	59.88
196.414	74.91
196.801	-75.88
197.189	29.32
197.576	6.65
197.963	-125.39
198.351	-34.87
198.738	3.96
199.125	-40.77
199.512	10.97
199.899	-42.9
200.286	43.4
200.673	83.8
201.06	-0.82
201.447	-6.93
201.833	-17.22
202.22	-6.05
202.607	21.72
202.994	31.79
203.38	7.86
203.767	-21.07
204.154	-48.36
204.54	-29.18
204.927	-8.63
205.313	-3.39
205.699	3.97
206.086	-4.94
206.472	-56.85
206.858	-32.28
207.245	-1.51
207.631	14
208.017	27.65
208.403	-9.66
208.789	-4.27
209.175	-15.72
209.561	9.45
209.947	41.51
210.333	-6.75
210.719	9.89
211.105	-1.83
211.491	4.33
211.876	36.32
212.262	12.39
212.648	17.16
213.034	-12.77
213.419	-3.46
213.805	13.22
214.19	-1.6
214.576	19.56
214.961	-28.74
215.346	-11.75
215.732	1.11
216.117	-66.8
216.502	-23.42
216.888	-54.53
217.273	-35.83
217.658	4.72
218.043	-8.82
218.428	-31.52
218.813	25.63
219.198	7.58
219.583	10.79
219.968	32.09
220.353	6.31
220.738	25.17
221.122	12.1
221.507	-19.59
221.892	-0.88
222.276	8.03
222.661	1.35
223.046	5.34
223.43	13.08
223.815	0.61
224.199	15.31
224.583	3.64
224.968	13.1
225.352	12.8
225.736	8.15
226.121	-3.47
226.505	-0.51
226.889	15.18
227.273	12.22
227.657	5.03
228.041	6.65
228.425	6.7
228.809	6.35
229.193	5.63
229.577	6.22
229.961	4.83
230.344	6.06
230.728	5.12
231.112	6.4
231.495	6.16
231.879	5.34
232.263	5.73
232.646	4.78
233.03	4.73
233.413	8.8
233.797	3.86
234.18	4.97
234.563	4.83
234.946	6.86
235.33	4.7
235.713	3.74
236.096	8.47
236.479	6.48
236.862	6.38
237.245	5
237.628	6.18
238.011	7.89
238.394	7.78
238.777	6.36
239.16	4.27
239.543	2.44
239.925	7.54
240.308	2.86
240.691	4.02
241.073	4.27
241.456	4.14
241.838	5.76
242.221	5.74
242.603	5.76
242.986	5.39
243.368	5.63
243.75	5.22
244.133	4.85
244.515	5.21
244.897	5.41
245.279	5.39
245.661	5.23
246.043	5.07
246.425	4.65
246.807	6.01
247.189	3.67
247.571	4.72
247.953	5.34
248.335	4.76
248.717	5.37
249.098	4.82
249.48	4.77
249.862	4.92
250.243	4.74
250.625	5.3
251.006	5.41
251.388	5.34
251.769	5.15
252.151	4.84
252.532	4.56
252.913	4.78
253.295	3.33
253.676	4.6
254.057	4.94
254.438	4.25
254.819	4.37
255.2	5.26
255.581	4.7
255.962	4.56
256.343	5.27
256.724	3.92
257.105	4.53
257.486	4.25
257.867	3.86
258.247	2.91
258.628	4.78
259.009	4.63
259.389	3.37
259.77	5
260.15	4.29
260.531	4.03
260.911	4.41
261.292	4.72
261.672	4.53
262.052	4.25
262.432	4.45
262.813	4.33
263.193	3.95
263.573	3.81
263.953	4.34
264.333	3.92
264.713	3.82
265.093	4.9
265.473	4.33
265.853	4.28
266.233	3.55
266.612	4.26
266.992	3.58
267.372	3.82
267.752	3.65
268.131	4.72
268.511	3.42
268.89	4.52
269.27	3.95
269.649	4.76
270.029	4.9
270.408	4.84
270.787	4.63
271.167	3.7
271.546	4.25
271.925	4.29
272.304	4.45
272.683	4.23
273.062	4
273.441	4.42
273.82	3.45
274.199	3.59
274.578	3.81
274.957	4.25
275.336	4.69
275.715	4.61
276.093	4.18
276.472	3.97
276.851	3.64
277.229	4.22
277.608	3.76
277.986	3.84
278.365	4.54
278.743	4.31
279.122	4.2
279.5	3.62
279.878	3.7
280.257	3.97
280.635	4.14
281.013	4.04
281.391	3.5
281.769	3.94
282.147	3.82
282.525	4.12
282.903	3.98
283.281	3.52
283.659	4.01
284.037	4.06
284.415	3.61
284.792	4.22
285.17	3.56
285.548	3.19
285.925	4.39
286.303	3.7
286.68	3.77
287.058	4.18
287.435	3.36
287.813	3.75
288.19	4.24
288.567	4.29
288.945	4.15
289.322	3.76
289.699	4.24
290.076	4.47
290.453	4.05
290.83	3.44
291.207	3.71
291.584	3.44
291.961	4.23
292.338	3.45
292.715	3.51
293.092	3.98
293.469	3.71
293.845	3.55
294.222	3.77
294.599	4.23
294.975	3.73
295.352	3.57
295.728	3.68
296.105	3.41
296.481	4.36
296.858	3.85
297.234	3.5
297.61	3.63
297.986	3.35
298.363	3.95
298.739	3.95
299.115	3.32
299.491	3.72
299.867	3.75
300.243	3.6
300.619	3.73
300.995	4.27
301.371	3.29
301.746	3.74
302.122	3.27
302.498	3.99
302.874	3.88
303.249	3.71
303.625	3.84
304	3.64
304.376	3.18
304.751	3.06
305.127	3.51
305.502	4.03
305.878	3.59
306.253	3.02
306.628	3.86
307.003	3.52
307.378	4.13
307.754	3.82
308.129	3.64
308.504	4.26
308.879	3.57
309.254	3.7
309.629	3.25
310.003	3.44
310.378	3.32
310.753	3.73
311.128	3.59
311.502	4.14
311.877	3.45
312.252	3.75
312.626	3.68
313.001	3.65
313.375	3.49
313.75	3.73
314.124	3.56
314.498	3.72
314.873	3.83
315.247	3.88
315.621	3.58
315.995	3.73
316.369	3.66
316.743	3.19
317.117	3.43
317.491	3.16
317.865	2.62
318.239	3.6
318.613	3.69
318.987	3.37
319.361	3.81
319.734	3.1
320.108	3.72
320.482	3.6
320.855	3.36
321.229	3.6
321.602	3.65
321.976	3.33
322.349	4.38
322.723	3.33
323.096	4.04
323.469	3.61
323.843	3.8
324.216	3.69
324.589	3.2
324.962	3.74
325.335	3.62
325.708	3.89
326.081	3.51
326.454	3.9
326.827	3.57
327.2	3.17
327.573	3.93
327.945	3.9
328.318	3.81
328.691	3.2
329.063	2.79
329.436	3.12
329.809	4.08
330.181	3.35
330.553	3.3
330.926	3.69
331.298	3.67
331.671	3.5
332.043	3.38
332.415	4.05
332.787	3.13
333.159	3.56
333.532	3.87
333.904	3.87
334.276	3.46
334.648	3.69
335.02	3.86
335.391	3.76
335.763	3.24
336.135	3.63
336.507	3.59
336.879	2.97
337.25	4.15
337.622	3.52
337.993	3.52
338.365	3.02
338.736	4.04
339.108	3.12
339.479	2.98
339.851	3.81
340.222	3.57
340.593	3.4
340.964	3.83
341.336	3.41
341.707	3.23
342.078	3.55
342.449	4.03
342.82	3.7
343.191	3.81
343.562	3.08
343.933	3.17
344.303	3.33
344.674	3.65
345.045	3.93
345.416	3.57
345.786	3.88
346.157	3.68
346.527	3.4
346.898	3.66
347.268	3.52
347.639	3.51
348.009	3.35
348.38	3.77
348.75	3.89
349.12	3.65
349.49	3.43
349.861	3.32
350.231	3.25
350.601	4.09
350.971	4
351.341	3.48
351.711	3.59
352.081	3.48
352.45	3.02
352.82	4.06
353.19	4.18
353.56	3.76
353.929	3.8
354.299	3.29
354.669	3.64
355.038	4
355.408	3.61
355.777	3.43
356.147	3.38
356.516	4.08
356.885	3.77
357.254	3.63
357.624	3.6
357.993	3.78
358.362	3.29
358.731	3.89
359.1	3.84
359.469	4.02
359.838	3.52
360.207	3.82
360.576	3.52
360.945	3.98
361.314	3.45
361.682	3.54
362.051	3.74
362.42	3.8
362.788	3.68
363.157	3.68
363.525	3.66
363.894	3.93
364.262	3.8
364.631	3.55
364.999	3.84
365.367	3.84
365.735	3.71
366.104	3.53
366.472	3.69
366.84	3.71
367.208	3.89
367.576	3.64
367.944	3.87
368.312	4.09
368.68	3.87
369.048	3.86
369.416	3.67
369.783	3.88
370.151	3.95
370.519	3.73
370.886	3.84
371.254	3.72
371.621	3.54
371.989	3.57
372.356	4.03
372.724	3.95
373.091	4.06
373.458	3.53
373.826	3.77
374.193	3.84
374.56	3.89
374.927	3.66
375.294	3.94
375.661	4.27
376.028	3.62
376.395	3.48
376.762	4.09
377.129	3.98
377.496	3.48
377.863	3.92
378.229	3.76
378.596	4.03
378.963	4.12
379.329	3.81
379.696	3.75
380.062	3.59
380.429	3.71
380.795	3.99
381.161	4.14
381.528	4.25
381.894	3.66
382.26	3.95
382.626	4.19
382.993	3.87
383.359	3.88
383.725	4.26
384.091	3.81
384.457	4.2
384.823	3.86
385.188	3.97
385.554	3.82
385.92	3.75
386.286	4.17
386.651	3.67
387.017	4.08
387.383	4.22
387.748	3.98
388.114	3.98
388.479	3.79
388.845	3.77
389.21	3.92
389.575	4.12
389.94	3.64
390.306	4
390.671	3.78
391.036	3.94
391.401	4.25
391.766	4.36
392.131	4.05
392.496	3.65
392.861	3.99
393.226	4.11
393.591	3.71
393.956	4
394.32	3.82
394.685	3.9
395.05	4.04
395.414	3.83
395.779	4.08
396.143	3.9
396.508	3.8
396.872	4.05
397.236	3.82
397.601	3.92
397.965	4.14
398.329	4.01
398.694	3.93
399.058	3.88
399.422	4.15
399.786	4
400.15	4.18
400.514	3.85
400.878	3.87
401.242	4.02
401.605	4
401.969	3.87
402.333	3.91
402.697	3.89
403.06	4.12
403.424	3.94
403.787	4.06
404.151	3.75
404.514	4.15
404.878	3.94
405.241	4.37
405.604	4.02
405.968	3.88
406.331	4.17
406.694	4.03
407.057	4.26
407.42	3.92
407.783	3.95
408.146	3.88
408.509	4.17
408.872	4.29
409.235	3.94
409.598	4.02
409.961	3.87
410.323	4.09
410.686	4.09
411.049	4.12
411.411	4.16
411.774	4.04
412.136	3.96
412.499	3.99
412.861	3.95
413.223	3.77
413.586	3.87
413.948	3.96
414.31	4.16
414.672	3.89
415.035	4.16
415.397	3.88
415.759	4.1
416.121	4.28
416.483	3.94
416.845	4.16
417.206	4.32
417.568	4.33
417.93	3.92
418.292	4.14
418.653	3.94
419.015	3.89
419.377	3.67
419.738	4.11
420.1	4.1
420.461	4.04
420.822	3.97
421.184	4.03
421.545	3.95
421.906	3.97
422.267	4.02
422.629	3.92
422.99	3.87
423.351	4.04
423.712	3.85
424.073	4.03
424.434	4.12
424.795	3.93
425.155	4.01
425.516	3.97
425.877	3.96
426.238	3.88
426.598	3.92
426.959	3.93
427.32	3.94
427.68	4.02
428.041	3.88
428.401	3.96
428.761	3.99
429.122	3.95
429.482	4.11
429.842	4.14
430.202	4.04
430.563	4.23
430.923	4.17
431.283	4.09
431.643	3.87
432.003	4.04
432.363	4.11
432.722	4.07
433.082	3.96
433.442	4.18
433.802	3.92
434.161	4.22
434.521	4.11
434.881	3.99
435.24	3.95
435.6	4.11
435.959	4.01
436.319	4.14
436.678	4.01
437.037	4
437.396	4.14
437.756	3.93
438.115	4.06
438.474	4.41
438.833	4.08
439.192	4.3
439.551	4
439.91	4.08
440.269	4.07
440.628	3.92
440.987	4.03
441.345	4.02
441.704	4.07
442.063	4.07
442.421	4.01
442.78	4.07
443.138	4.06
443.497	4.08
443.855	4.07
444.214	4.19
444.572	4.05
444.93	4.17
445.288	4.07
445.647	4.13
446.005	4.1
446.363	4.11
446.721	4.06
447.079	4.1
447.437	3.89
447.795	3.94
448.153	4.12
448.51	3.99
448.868	4.07
449.226	4.01
449.584	3.96
449.941	4.04
450.299	3.97
450.656	4
451.014	3.96
451.371	3.99
451.729	3.97
452.086	4.14
452.443	4.28
452.801	4.21
453.158	4.17
453.515	4.09
453.872	4.12
454.229	4.23
454.586	4.11
454.943	4.04
455.3	4.11
455.657	4.26
456.014	4.11
456.371	3.97
456.727	4.19
457.084	4.01
457.441	4.13
457.797	4.06
458.154	4.23
458.51	4.21
458.867	4
459.223	4.07
459.58	4.04
459.936	4.18
460.292	4.22
460.648	4.05
461.005	3.96
461.361	3.93
461.717	3.97
462.073	4.04
462.429	3.99
462.785	4.06
463.141	4.13
463.496	4.15
463.852	4.09
464.208	4.15
464.564	4.14
464.919	4.11
465.275	4.27
465.631	4.1
465.986	4.14
466.342	4.25
466.697	4.06
467.052	4.02
467.408	4.16
467.763	4.15
468.118	4.1
468.473	4.03
468.829	4.25
469.184	3.94
469.539	4.06
469.894	4.11
470.249	4.1
470.603	4.26
470.958	4.15
471.313	4.29
471.668	4.13
472.023	4.15
472.377	4.12
472.732	4.27
473.086	4.09
473.441	4.07
473.795	4.19
474.15	4.25
474.504	4.08
474.859	4.15
475.213	4.13
475.567	4.16
475.921	4.29
476.275	4.18
476.63	4.28
476.984	4.19
477.338	4.13
477.692	4.11
478.045	4.18
478.399	4.22
478.753	4
479.107	4.1
479.461	4.17
479.814	4.33
480.168	4.16
480.521	4.13
480.875	4.1
481.228	3.95
481.582	4.25
481.935	4.15
482.289	4.01
482.642	4.2
482.995	4.23
483.348	4.16
483.701	4.11
484.055	3.97
484.408	3.99
484.761	4.02
485.114	3.98
485.466	3.89
485.819	3.77
486.172	3.75
486.525	3.8
486.878	3.88
487.23	3.95
487.583	4.05
487.936	4.04
488.288	4.04
488.641	3.96
488.993	3.99
489.345	3.89
489.698	3.87
490.05	3.84
490.402	3.91
490.754	3.99
491.107	3.95
491.459	3.96
491.811	4.03
492.163	4.01
492.515	4.03
492.866	4.02
493.218	3.91
493.57	3.92
493.922	3.85
494.274	3.95
494.625	3.92
494.977	4.11
495.328	4.09
495.68	4.2
496.031	4.17
496.383	4.06
496.734	4.17
497.086	4.17
497.437	4.23
497.788	4.12
498.139	4.15
498.49	4.1
498.842	4.06
499.193	3.98
499.544	4.08
499.894	3.91
500.245	4.01
500.596	4.14
500.947	4.12
501.298	4.32
501.648	4.1
501.999	4.12
502.35	4.03
502.7	4.07
503.051	4.15
503.401	4.18
503.752	4.24
504.102	4.1
504.452	4.1
504.803	4.02
505.153	4.05
505.503	4
505.853	4.15
506.203	4.16
506.553	4.08
506.903	4.26
507.253	4.17
507.603	4.27
507.953	4.06
508.303	4.15
508.652	4.22
509.002	4.26
509.352	4.08
509.701	3.99
510.051	4.11
510.4	4.1
510.75	4.03
511.099	4.1
511.449	4.01
511.798	4.08
512.147	4.01
512.496	4.11
512.846	4.05
513.195	4.13
513.544	4.03
513.893	4.01
514.242	4.1
514.591	4.13
514.939	3.87
515.288	4.12
515.637	4.24
515.986	4.01
516.334	4.16
516.683	4.17
517.032	4.2
517.38	4.04
517.729	4.03
518.077	4.09
518.426	4.08
518.774	4.09
519.122	4.21
519.47	4.05
519.819	4
520.167	4.02
520.515	4.06
520.863	3.95
521.211	4.04
521.559	4.01
521.907	4.09
522.255	3.97
522.602	4.09
522.95	4.14
523.298	4.09
523.645	4.12
523.993	4
524.341	4.13
524.688	4.14
525.036	4.08
525.383	4.19
525.73	4.05
526.078	4.12
526.425	4.17
526.772	4
527.119	4.02
527.466	3.96
527.814	3.97
528.161	3.82
528.508	3.94
528.854	4.01
529.201	3.99
529.548	3.95
529.895	3.96
530.242	3.78
530.588	3.77
530.935	3.77
531.282	3.81
531.628	3.82
531.975	3.93
532.321	3.91
532.667	4.01
533.014	3.99
533.36	3.97
533.706	4.05
534.052	3.99
534.399	3.96
534.745	4.06
535.091	3.85
535.437	3.86
535.783	3.9
536.129	3.87
536.474	3.91
536.82	3.97
537.166	4.08
537.512	3.92
537.857	4.05
538.203	4.03
538.549	3.88
538.894	3.87
539.239	3.91
539.585	4.06
539.93	4.01
540.276	3.97
540.621	4.08
540.966	3.98
541.311	4.13
541.656	3.97
542.001	4.09
542.346	3.97
542.691	3.92
543.036	3.83
543.381	3.85
543.726	3.76
544.071	3.89
544.415	3.91
544.76	3.91
545.105	3.92
545.449	3.93
545.794	4.03
546.138	3.99
546.483	4.01
546.827	4.05
547.171	3.87
547.516	3.96
547.86	3.98
548.204	4.09
548.548	3.99
548.892	3.96
549.236	3.95
549.58	3.96
549.924	3.86
550.268	4.02
550.612	3.99
550.956	4.09
551.3	4.09
551.643	4.06
551.987	3.92
552.33	4.17
552.674	4.13
553.017	4.02
553.361	4.17
553.704	3.96
554.048	4.05
554.391	4.05
554.734	3.91
555.077	3.98
555.42	4.1
555.764	4.12
556.107	4.14
556.45	4.01
556.793	4.1
557.135	4.08
557.478	4.04
557.821	4.06
558.164	4.18
558.507	3.94
558.849	4.09
559.192	3.91
559.534	4.03
559.877	4.17
560.219	4.1
560.562	4.08
560.904	4.34
561.246	3.93
561.589	4
561.931	3.94
562.273	3.92
562.615	4.03
562.957	4.23
563.299	4.06
563.641	3.92
563.983	4.12
564.325	4.13
564.667	3.97
565.008	3.79
565.35	4.05
565.692	4.17
566.033	3.94
566.375	3.85
566.716	4.08
567.058	4.04
567.399	3.95
567.741	4.1
568.082	3.82
568.423	3.94
568.764	3.86
569.105	4.13
569.447	3.94
569.788	4.08
570.129	4.09
570.47	4.22
570.811	4.16
571.151	3.87
571.492	3.94
571.833	3.96
572.174	4.17
572.514	3.87
572.855	3.82
573.195	4.21
573.536	4.1
573.876	3.83
574.217	3.94
574.557	4.11
574.898	4.03
575.238	3.95
575.578	3.96
575.918	3.96
576.258	4.15
576.598	4.12
576.938	3.89
577.278	3.95
577.618	3.84
577.958	4.04
578.298	4.13
578.638	3.98
578.977	4.19
579.317	4.02
579.657	3.77
579.996	3.94
580.336	3.94
580.675	3.92
581.014	4.04
581.354	4
581.693	4.09
582.032	4.07
582.372	3.98
582.711	4.18
583.05	3.95
583.389	4.15
583.728	4.03
584.067	4.17
584.406	3.84
584.745	4.08
585.083	3.96
585.422	3.93
585.761	4.06
586.1	4.07
586.438	4.03
586.777	3.8
587.115	4.09
587.454	4.16
587.792	4.1
588.13	4.19
588.469	3.98
588.807	4.05
589.145	3.94
589.483	3.78
589.821	4.09
590.159	3.96
590.497	4.03
590.835	4.12
591.173	4.05
591.511	3.95
591.849	3.86
592.187	3.96
592.524	4.26
592.862	4.11
593.2	4.01
593.537	3.91
593.875	3.99
594.212	3.9
594.55	4.01
594.887	4.01
595.224	4.25
595.561	3.85
595.899	3.73
596.236	4.24
596.573	4.03
596.91	4.01
597.247	4.19
597.584	3.98
597.921	4.01
598.258	3.89
598.594	4.02
598.931	3.83
599.268	3.79
599.604	3.97
599.941	3.97
600.277	3.89
600.614	4.22
600.95	3.98
601.287	4.14
601.623	4.09
601.959	3.86
602.296	3.85
602.632	3.97
602.968	4.02
603.304	3.93
603.64	3.76
603.976	4.04
604.312	3.83
604.648	3.78
604.984	3.9
605.319	4.11
605.655	3.82
605.991	4.02
606.326	3.79
606.662	3.81
606.998	3.91
607.333	3.81
607.668	3.76
608.004	3.95
608.339	3.97
608.674	3.71
609.01	4.07
609.345	4.03
609.68	3.93
610.015	4.21
610.35	4.06
610.685	4.25
611.02	4.07
611.355	4.3
611.689	3.87
612.024	3.98
612.359	4.21
612.694	4.13
613.028	3.93
613.363	3.86
613.697	3.97
614.032	4.01
614.366	3.8
614.7	4.04
615.035	3.84
615.369	4.04
615.703	4.02
616.037	3.89
616.371	3.63
616.705	4.24
617.039	3.77
617.373	3.74
617.707	3.85
618.041	4.02
618.375	4.13
618.709	4.08
619.042	3.9
619.376	4
619.71	3.74
620.043	4.03
620.377	4.29
620.71	3.8
621.043	4.09
621.377	4.11
621.71	3.98
622.043	3.7
622.376	4.24
622.709	3.97
623.043	3.95
623.376	4.1
623.709	3.95
624.041	4.04
624.374	3.55
624.707	3.73
625.04	4.03
625.373	4.05
625.705	4.15
626.038	3.96
626.37	3.87
626.703	4.33
627.035	4.09
627.368	4.24
627.7	4.48
628.032	3.89
628.365	3.49
628.697	4.09
629.029	4.12
629.361	4.07
629.693	3.98
630.025	4.12
630.357	3.64
630.689	3.93
631.021	4.23
631.353	4.02
631.684	4.29
632.016	3.96
632.348	3.95
632.679	4.13
633.011	3.71
633.342	3.74
633.674	4.08
634.005	3.8
634.336	3.72
634.668	4.21
634.999	4
635.33	4.13
635.661	4.01
635.992	4
636.323	4.19
636.654	3.92
636.985	3.85
637.316	3.93
637.647	4.09
637.977	3.92
638.308	4.1
638.639	3.61
638.969	4.33
639.3	4.38
639.63	3.91
639.961	4.31
640.291	4.1
640.622	4.17
640.952	3.55
641.282	3.86
641.612	3.87
641.943	3.9
642.273	4.54
642.603	3.68
642.933	3.63
643.263	4.06
643.592	3.93
643.922	4.37
644.252	4.14
644.582	4.01
644.911	4.19
645.241	4.19
645.571	3.64
645.9	3.81
646.23	3.89
646.559	3.62
646.888	4
647.218	3.6
647.547	4.14
647.876	4.03
648.205	3.87
648.534	4.27
648.863	3.4
649.192	4.1
649.521	4.25
649.85	4.14
650.179	4.11
650.508	4.12
650.837	3.67
651.165	4.4
651.494	3.87
651.822	3.77
652.151	3.97
652.479	4.63
652.808	3.82
653.136	3.74
653.465	4.14
653.793	4.22
654.121	4.1
654.449	4
654.777	3.77
655.105	3.89
655.433	3.88
655.761	3.95
656.089	3.93
656.417	3.42
656.745	4.46
657.073	3.55
657.4	4.3
657.728	4.56
658.056	3.93
658.383	4.13
658.711	4.15
659.038	4.25
659.365	4.21
659.693	3.74
660.02	3.68
660.347	4.32
660.674	4.02
661.001	4.41
661.329	3.86
661.656	3.96
661.982	4.12
662.309	4.25
662.636	3.7
662.963	4.32
663.29	4.17
663.616	3.82
663.943	4.55
664.27	3.94
664.596	4.11
664.923	4.12
665.249	4.49
665.576	4.05
665.902	3.98
666.228	4.07
666.554	4.15
666.881	4.27
667.207	4.12
667.533	3.98
667.859	3.69
668.185	3.69
668.511	4.15
668.837	3.89
669.162	4.47
669.488	4.2
669.814	4.29
670.139	3.6
670.465	4.09
670.791	4.49
671.116	4.33
671.442	4.02
671.767	3.22
672.092	4.26
672.418	4.06
672.743	4.52
673.068	3.76
673.393	4.08
673.718	3.06
674.043	4.12
674.368	3.9
674.693	4.04
675.018	4.42
675.343	4.44
675.667	4.56
675.992	4.04
676.317	3.69
676.641	4.86
676.966	4.5
677.29	4
677.615	4.6
677.939	3.65
678.264	4.2
678.588	4.26
678.912	4.77
679.236	3.26
679.56	3.83
679.885	3.84
680.209	3.99
680.532	4.14
680.856	4.19
681.18	4.18
681.504	3.8
681.828	3.94
682.152	4.45
682.475	4.18
682.799	4.3
683.122	3.85
683.446	4.16
683.769	4.42
684.093	3.94
684.416	4.74
684.739	3.86
685.062	4.06
685.386	3.53
685.709	4.33
686.032	3.8
686.355	3.76
686.678	4.44
687.001	4.04
687.324	3.99
687.646	3.53
687.969	4.02
688.292	4.8
688.614	4.32
688.937	4.59
689.26	4.51
689.582	4.22
689.904	4.07
690.227	4.79
690.549	3.92
690.871	5.17
691.194	4.07
691.516	4.38
691.838	4.75
692.16	3.99
692.482	4.68
692.804	3.78
693.126	4.16
693.448	3.69
