Data from 0143_crown_Reflection__3__211.txt Node

Date: Mon Aug 28 20:26:26 CDT 2023
User: ToomeyLab
Spectrometer: FLMS14357
Trigger mode: 0
Integration Time (sec): 1.000000E-2
Scans to average: 100
Electric dark correction enabled: true
Nonlinearity correction enabled: false
Boxcar width: 0
XAxis mode: Wavelengths
Number of Pixels in Spectrum: 2048
>>>>>Begin Spectral Data<<<<<
189.047	-197.87
189.435	-197.87
189.823	-197.87
190.211	-47.44
190.599	30.01
190.987	-15.42
191.375	-39.06
191.763	104.1
192.151	-247.08
192.538	67.24
192.926	73.2
193.314	-60.29
193.702	142.21
194.089	36.34
194.477	286.2
194.864	15.26
195.252	-400.99
195.639	63.13
196.027	88.31
196.414	24.36
196.801	-1015.69
197.189	27.77
197.576	11.38
197.963	2.18
198.351	10.51
198.738	29.71
199.125	1.92
199.512	6.78
199.899	-17.46
200.286	-8.04
200.673	-27.56
201.06	-23.09
201.447	-112.34
201.833	-43.69
202.22	-27.22
202.607	2.97
202.994	23.36
203.38	14.96
203.767	-5.14
204.154	-12.7
204.54	-43.52
204.927	-47.32
205.313	42.97
205.699	-12.7
206.086	-1.8
206.472	7.03
206.858	29.07
207.245	7.15
207.631	15.32
208.017	-16.87
208.403	2.34
208.789	-13.79
209.175	-34.47
209.561	-20.53
209.947	10.11
210.333	-19.95
210.719	-7.2
211.105	13
211.491	-81.11
211.876	26.75
212.262	-14.99
212.648	8.79
213.034	-1.8
213.419	-6.3
213.805	11.17
214.19	-17.97
214.576	25.16
214.961	-23.87
215.346	3.14
215.732	15.8
216.117	-18.78
216.502	29.36
216.888	-20.28
217.273	-4.9
217.658	-3.48
218.043	2.08
218.428	29.56
218.813	3.57
219.198	7.44
219.583	-17.97
219.968	2.73
220.353	-4.39
220.738	21.82
221.122	6.89
221.507	-7.92
221.892	-6.62
222.276	-27.67
222.661	3.54
223.046	11.58
223.43	4.38
223.815	6.4
224.199	15.76
224.583	-0.5
224.968	-0.39
225.352	21.23
225.736	-1.17
226.121	3.64
226.505	5.8
226.889	16.41
227.273	8.73
227.657	10.54
228.041	8.07
228.425	6.7
228.809	4.91
229.193	9.31
229.577	7.99
229.961	6.27
230.344	8.26
230.728	7.59
231.112	7.42
231.495	8.12
231.879	8.11
232.263	6.87
232.646	6.68
233.03	8.39
233.413	10.83
233.797	9.79
234.18	7.12
234.563	7.95
234.946	9.92
235.33	7.59
235.713	2.98
236.096	8.01
236.479	7.74
236.862	7.38
237.245	6.22
237.628	5.96
238.011	8.03
238.394	7.46
238.777	9.11
239.16	4.81
239.543	5.72
239.925	9.33
240.308	6.21
240.691	6.45
241.073	4.77
241.456	5.84
241.838	6.35
242.221	8.35
242.603	7.99
242.986	8.23
243.368	7.37
243.75	7.31
244.133	6.76
244.515	7
244.897	7.59
245.279	7.21
245.661	6.5
246.043	7.35
246.425	6.68
246.807	7.98
247.189	6.34
247.571	6.33
247.953	7.51
248.335	6.54
248.717	6.48
249.098	6.68
249.48	6.61
249.862	6.53
250.243	6.42
250.625	7.08
251.006	6.72
251.388	6.78
251.769	7.02
252.151	6.22
252.532	6.42
252.913	6.66
253.295	5.47
253.676	6.47
254.057	6.42
254.438	6.21
254.819	6.11
255.2	6.96
255.581	5.97
255.962	6.98
256.343	6.6
256.724	5.37
257.105	5.09
257.486	7.37
257.867	5.62
258.247	5.12
258.628	6.97
259.009	5.17
259.389	5.59
259.77	6.32
260.15	5.31
260.531	6.35
260.911	6.2
261.292	6.21
261.672	5.98
262.052	5.82
262.432	5.63
262.813	6.02
263.193	5.81
263.573	5.97
263.953	5.56
264.333	5.45
264.713	5.6
265.093	6.18
265.473	6.01
265.853	5.52
266.233	5.28
266.612	6.57
266.992	6
267.372	5.9
267.752	5.68
268.131	6.26
268.511	5.19
268.89	5.68
269.27	5.14
269.649	5.75
270.029	5.62
270.408	5.65
270.787	5.81
271.167	5.78
271.546	5.58
271.925	5.95
272.304	5.46
272.683	5.58
273.062	5.3
273.441	5.87
273.82	5.24
274.199	5.17
274.578	5.56
274.957	5.57
275.336	5.87
275.715	5.73
276.093	5.17
276.472	5.4
276.851	5.11
277.229	5.55
277.608	5.88
277.986	5.31
278.365	5.41
278.743	5.59
279.122	5.22
279.5	4.93
279.878	5.17
280.257	4.83
280.635	5.16
281.013	5.11
281.391	5.06
281.769	4.79
282.147	4.76
282.525	5.38
282.903	5.28
283.281	5.45
283.659	5.51
284.037	5.32
284.415	5.15
284.792	5.35
285.17	4.76
285.548	5.23
285.925	5.92
286.303	5.27
286.68	5.69
287.058	4.95
287.435	4.87
287.813	5.23
288.19	5.45
288.567	5.16
288.945	5.06
289.322	4.78
289.699	5.52
290.076	5.3
290.453	5.17
290.83	4.71
291.207	4.86
291.584	4.96
291.961	5.07
292.338	4.82
292.715	4.46
293.092	4.83
293.469	4.73
293.845	4.94
294.222	4.79
294.599	4.73
294.975	4.89
295.352	4.99
295.728	5
296.105	5.22
296.481	4.65
296.858	5.2
297.234	5.07
297.61	5.33
297.986	4.84
298.363	4.69
298.739	4.65
299.115	4.78
299.491	4.77
299.867	4.85
300.243	4.93
300.619	4.81
300.995	5.24
301.371	4.71
301.746	5.29
302.122	5.08
302.498	4.98
302.874	5.05
303.249	4.18
303.625	4.93
304	5.13
304.376	4.91
304.751	4.96
305.127	4.83
305.502	4.97
305.878	4.44
306.253	4.1
306.628	4.52
307.003	5.02
307.378	4.8
307.754	4.73
308.129	4.48
308.504	5.22
308.879	4.96
309.254	4.51
309.629	4.42
310.003	4.5
310.378	4.32
310.753	5
311.128	4.68
311.502	5.04
311.877	4.64
312.252	4.64
312.626	4.48
313.001	4.58
313.375	5.07
313.75	4.63
314.124	4.46
314.498	4.34
314.873	5
315.247	4.88
315.621	4.4
315.995	5.05
316.369	4.84
316.743	4.5
317.117	4.76
317.491	4.56
317.865	3.94
318.239	4.83
318.613	4.98
318.987	4.79
319.361	4.7
319.734	3.99
320.108	4.97
320.482	5.1
320.855	4.18
321.229	4.27
321.602	4.38
321.976	3.83
322.349	4.96
322.723	4.52
323.096	4.81
323.469	4.19
323.843	4.04
324.216	4.6
324.589	4.97
324.962	4.4
325.335	5.03
325.708	4.28
326.081	4.05
326.454	4.7
326.827	4.26
327.2	4.24
327.573	4.51
327.945	4.77
328.318	4.98
328.691	4.27
329.063	4.1
329.436	4.19
329.809	4.54
330.181	3.71
330.553	4.33
330.926	4.62
331.298	4.7
331.671	4.55
332.043	4.64
332.415	5.1
332.787	4.62
333.159	4.62
333.532	4.8
333.904	4.42
334.276	4.35
334.648	4.69
335.02	4.7
335.391	4.74
335.763	4.25
336.135	4.77
336.507	4.32
336.879	4.57
337.25	4.93
337.622	4.33
337.993	4.78
338.365	4.04
338.736	4.78
339.108	4.1
339.479	4.28
339.851	4.11
340.222	4.74
340.593	4.42
340.964	4.81
341.336	4.6
341.707	4.31
342.078	3.78
342.449	4.66
342.82	5.24
343.191	4.52
343.562	4.27
343.933	4.22
344.303	4.8
344.674	4.22
345.045	4.6
345.416	4.85
345.786	5.49
346.157	4.48
346.527	4.01
346.898	4.43
347.268	4.12
347.639	4.1
348.009	4.39
348.38	4.66
348.75	5
349.12	4.78
349.49	4.39
349.861	4.15
350.231	4.54
350.601	5.43
350.971	4.89
351.341	4.76
351.711	4.47
352.081	4.86
352.45	4.9
352.82	4.9
353.19	5.03
353.56	4.74
353.929	4.75
354.299	4.82
354.669	4.89
355.038	5.24
355.408	4.62
355.777	4.38
356.147	4.7
356.516	4.94
356.885	4.8
357.254	4.66
357.624	4.58
357.993	4.6
358.362	4.45
358.731	5
359.1	4.86
359.469	4.94
359.838	4.88
360.207	5.04
360.576	4.79
360.945	4.92
361.314	4.75
361.682	4.63
362.051	4.84
362.42	4.86
362.788	4.83
363.157	4.58
363.525	4.83
363.894	4.96
364.262	4.92
364.631	4.68
364.999	5.01
365.367	5.18
365.735	4.67
366.104	4.61
366.472	4.81
366.84	4.81
367.208	4.64
367.576	4.69
367.944	4.93
368.312	5.18
368.68	4.9
369.048	5.01
369.416	5.03
369.783	4.8
370.151	4.82
370.519	4.91
370.886	4.75
371.254	4.62
371.621	4.73
371.989	4.91
372.356	4.81
372.724	5.17
373.091	4.74
373.458	4.72
373.826	5.21
374.193	4.99
374.56	5.35
374.927	4.86
375.294	5.05
375.661	5.16
376.028	4.99
376.395	4.6
376.762	5.03
377.129	4.8
377.496	5
377.863	5.07
378.229	4.74
378.596	5.28
378.963	4.93
379.329	5.25
379.696	5.12
380.062	4.92
380.429	4.9
380.795	5.11
381.161	4.89
381.528	5.34
381.894	5.11
382.26	5.45
382.626	5.09
382.993	5.38
383.359	5.17
383.725	5.31
384.091	5.05
384.457	4.94
384.823	5.23
385.188	5.1
385.554	4.85
385.92	5.08
386.286	5.05
386.651	5.14
387.017	5.37
387.383	5.12
387.748	4.92
388.114	4.99
388.479	4.78
388.845	5.27
389.21	5.25
389.575	5.06
389.94	5.17
390.306	5.03
390.671	5.01
391.036	5.04
391.401	5.26
391.766	5.24
392.131	5.26
392.496	5.3
392.861	5.03
393.226	5.2
393.591	4.8
393.956	5.28
394.32	5.08
394.685	5.3
395.05	5.02
395.414	5.1
395.779	5.09
396.143	5.16
396.508	4.93
396.872	5.19
397.236	5.05
397.601	5.15
397.965	5.4
398.329	5.36
398.694	5.4
399.058	5
399.422	5.23
399.786	5.22
400.15	5.37
400.514	5.32
400.878	5.11
401.242	5.24
401.605	5.3
401.969	5.07
402.333	4.87
402.697	5.09
403.06	5.3
403.424	5.24
403.787	5.21
404.151	5.1
404.514	5.27
404.878	5.14
405.241	5.3
405.604	5.22
405.968	4.92
406.331	5.31
406.694	5.29
407.057	5.31
407.42	5.14
407.783	5.11
408.146	5.13
408.509	5.35
408.872	5.3
409.235	5.3
409.598	5.44
409.961	5.02
410.323	5.24
410.686	5.22
411.049	5.47
411.411	5.28
411.774	5.33
412.136	5.33
412.499	5.24
412.861	5.28
413.223	5.33
413.586	5.25
413.948	5.33
414.31	5.38
414.672	5.25
415.035	5.12
415.397	5.19
415.759	5.2
416.121	5.65
416.483	5.23
416.845	5.38
417.206	5.55
417.568	5.41
417.93	5.24
418.292	5.27
418.653	5.26
419.015	5.25
419.377	4.97
419.738	5.29
420.1	5.39
420.461	5.37
420.822	5.27
421.184	5.31
421.545	5.32
421.906	5.36
422.267	5.18
422.629	5.22
422.99	5.07
423.351	5.22
423.712	5.04
424.073	5.15
424.434	5.16
424.795	5.2
425.155	5.14
425.516	5.19
425.877	5.14
426.238	5.03
426.598	5.15
426.959	5.19
427.32	5.22
427.68	5.29
428.041	5.21
428.401	5.21
428.761	5.11
429.122	4.97
429.482	5.17
429.842	5.36
430.202	5.25
430.563	5.29
430.923	5.41
431.283	5.02
431.643	5.15
432.003	5.28
432.363	5.47
432.722	5.33
433.082	5.16
433.442	5.43
433.802	5.25
434.161	5.36
434.521	5.28
434.881	5.31
435.24	5.28
435.6	5.38
435.959	5.18
436.319	5.41
436.678	5.18
437.037	5.2
437.396	5.36
437.756	5.22
438.115	5.44
438.474	5.42
438.833	5.24
439.192	5.42
439.551	5.28
439.91	5.49
440.269	5.17
440.628	5.16
440.987	5.35
441.345	5.18
441.704	5.24
442.063	5.24
442.421	5.26
442.78	5.24
443.138	5.26
443.497	5.22
443.855	5.25
444.214	5.33
444.572	5.16
444.93	5.2
445.288	5.15
445.647	5.28
446.005	5.5
446.363	5.19
446.721	5.26
447.079	5.28
447.437	5.16
447.795	5.16
448.153	5.36
448.51	5.26
448.868	5.27
449.226	5.22
449.584	5.2
449.941	5.24
450.299	5.15
450.656	5.3
451.014	5.19
451.371	5.34
451.729	5.15
452.086	5.19
452.443	5.46
452.801	5.24
453.158	5.47
453.515	5.42
453.872	5.25
454.229	5.39
454.586	5.33
454.943	5.05
455.3	5.35
455.657	5.26
456.014	5.31
456.371	5.21
456.727	5.36
457.084	5.25
457.441	5.29
457.797	5.35
458.154	5.44
458.51	5.39
458.867	5.21
459.223	5.52
459.58	5.21
459.936	5.25
460.292	5.29
460.648	5.23
461.005	5.15
461.361	5.28
461.717	5.14
462.073	5.12
462.429	5.11
462.785	5.18
463.141	5.23
463.496	5.27
463.852	5.3
464.208	5.24
464.564	5.18
464.919	5.39
465.275	5.37
465.631	5.27
465.986	5.32
466.342	5.4
466.697	5.2
467.052	5.25
467.408	5.26
467.763	5.13
468.118	5.09
468.473	5.1
468.829	5.29
469.184	5.15
469.539	5.26
469.894	5.32
470.249	5.26
470.603	5.28
470.958	5.42
471.313	5.28
471.668	5.14
472.023	5.43
472.377	5.22
472.732	5.24
473.086	5.35
473.441	5.2
473.795	5.27
474.15	5.32
474.504	5.22
474.859	5.36
475.213	5.27
475.567	5.12
475.921	5.47
476.275	5.28
476.63	5.46
476.984	5.26
477.338	5.37
477.692	5.2
478.045	5.34
478.399	5.25
478.753	5.05
479.107	5.24
479.461	5.35
479.814	5.44
480.168	5.25
480.521	5.37
480.875	5.25
481.228	5.2
481.582	5.19
481.935	5.29
482.289	5.13
482.642	5.25
482.995	5.25
483.348	5.19
483.701	5.25
484.055	5.15
484.408	5.17
484.761	5.11
485.114	5.01
485.466	5.01
485.819	4.95
486.172	4.92
486.525	4.94
486.878	4.94
487.23	4.93
487.583	5
487.936	5.12
488.288	5.1
488.641	5.12
488.993	5.06
489.345	5.02
489.698	5.03
490.05	4.96
490.402	4.96
490.754	5.05
491.107	4.98
491.459	5.05
491.811	5.11
492.163	5.07
492.515	5.17
492.866	5.11
493.218	5.03
493.57	5.08
493.922	5.01
494.274	4.99
494.625	4.98
494.977	5.1
495.328	5.1
495.68	5.22
496.031	5.11
496.383	5.04
496.734	5.12
497.086	5.25
497.437	5.15
497.788	5.16
498.139	5.2
498.49	5.15
498.842	5.15
499.193	5.15
499.544	5.18
499.894	5.1
500.245	5.1
500.596	5.16
500.947	5.19
501.298	5.23
501.648	5.16
501.999	5.13
502.35	5.07
502.7	5.19
503.051	5.23
503.401	5.16
503.752	5.26
504.102	5.1
504.452	5.21
504.803	5.4
505.153	5.2
505.503	5.06
505.853	5.21
506.203	5.11
506.553	5.17
506.903	5.2
507.253	5.22
507.603	5.14
507.953	5.22
508.303	5.32
508.652	5.31
509.002	5.27
509.352	5.06
509.701	5.15
510.051	5.15
510.4	5.16
510.75	5.22
511.099	5.22
511.449	5.11
511.798	5.17
512.147	5.12
512.496	5.18
512.846	5.14
513.195	5.12
513.544	5.14
513.893	5.13
514.242	5.2
514.591	5.11
514.939	4.94
515.288	5.14
515.637	5.21
515.986	5.12
516.334	5.13
516.683	5.23
517.032	5.21
517.38	5.22
517.729	5.11
518.077	5.06
518.426	5.06
518.774	5.25
519.122	5.25
519.47	5.08
519.819	4.98
520.167	5.11
520.515	5.06
520.863	4.97
521.211	4.95
521.559	5.01
521.907	5.11
522.255	4.92
522.602	5.09
522.95	5.11
523.298	5.17
523.645	5.07
523.993	5.15
524.341	5.17
524.688	5.06
525.036	5.04
525.383	5.14
525.73	5.25
526.078	5.29
526.425	5.14
526.772	5.15
527.119	5.03
527.466	4.98
527.814	5
528.161	4.94
528.508	4.99
528.854	5.03
529.201	4.99
529.548	4.92
529.895	4.97
530.242	4.85
530.588	4.81
530.935	4.82
531.282	4.84
531.628	4.85
531.975	4.85
532.321	4.86
532.667	4.91
533.014	4.95
533.36	4.99
533.706	5.01
534.052	4.97
534.399	4.93
534.745	5.01
535.091	4.89
535.437	4.86
535.783	4.94
536.129	4.9
536.474	4.92
536.82	4.92
537.166	4.89
537.512	4.96
537.857	5.03
538.203	4.97
538.549	4.98
538.894	4.94
539.239	4.8
539.585	4.91
539.93	4.96
540.276	4.97
540.621	4.98
540.966	5.07
541.311	5.06
541.656	5.11
542.001	4.97
542.346	5.07
542.691	5.01
543.036	4.95
543.381	4.88
543.726	4.82
544.071	4.89
544.415	4.87
544.76	4.89
545.105	4.88
545.449	4.86
545.794	4.95
546.138	4.99
546.483	4.96
546.827	4.91
547.171	4.98
547.516	4.98
547.86	5.06
548.204	5.03
548.548	5.02
548.892	4.92
549.236	4.93
549.58	4.97
549.924	4.96
550.268	5.04
550.612	5.03
550.956	4.99
551.3	5.06
551.643	5.07
551.987	4.95
552.33	5.21
552.674	4.96
553.017	4.89
553.361	5.03
553.704	4.91
554.048	5.17
554.391	5.03
554.734	4.84
555.077	4.95
555.42	5.13
555.764	5.03
556.107	5.02
556.45	4.84
556.793	4.88
557.135	4.91
557.478	4.96
557.821	5
558.164	5.27
558.507	4.96
558.849	5
559.192	4.9
559.534	4.82
559.877	4.95
560.219	5.1
560.562	4.97
560.904	5.07
561.246	5.08
561.589	5
561.931	5.04
562.273	4.75
562.615	4.79
562.957	5.08
563.299	5.11
563.641	4.9
563.983	4.85
564.325	4.88
564.667	4.87
565.008	4.8
565.35	5.05
565.692	5.01
566.033	4.92
566.375	4.93
566.716	4.93
567.058	4.81
567.399	4.89
567.741	4.88
568.082	4.89
568.423	4.9
568.764	4.92
569.105	4.99
569.447	5.11
569.788	4.89
570.129	4.95
570.47	4.83
570.811	4.9
571.151	4.81
571.492	4.85
571.833	4.93
572.174	4.89
572.514	4.85
572.855	4.92
573.195	4.99
573.536	5.04
573.876	4.81
574.217	4.85
574.557	4.8
574.898	4.87
575.238	4.82
575.578	4.62
575.918	4.79
576.258	4.91
576.598	4.82
576.938	4.77
577.278	4.62
577.618	4.75
577.958	4.87
578.298	4.9
578.638	4.9
578.977	4.94
579.317	4.68
579.657	4.79
579.996	4.85
580.336	4.85
580.675	4.76
581.014	4.87
581.354	5.05
581.693	4.97
582.032	5.15
582.372	4.75
582.711	5.1
583.05	4.87
583.389	5.02
583.728	4.92
584.067	4.97
584.406	4.7
584.745	4.78
585.083	4.76
585.422	4.73
585.761	4.91
586.1	5.26
586.438	4.85
586.777	4.78
587.115	5.08
587.454	5.03
587.792	4.81
588.13	4.99
588.469	4.9
588.807	4.85
589.145	4.91
589.483	5
589.821	4.8
590.159	5.13
590.497	4.74
590.835	4.83
591.173	4.76
591.511	4.77
591.849	4.74
592.187	4.89
592.524	4.95
592.862	4.72
593.2	4.79
593.537	4.76
593.875	4.96
594.212	4.95
594.55	4.99
594.887	4.72
595.224	4.87
595.561	4.79
595.899	4.68
596.236	4.88
596.573	4.97
596.91	4.85
597.247	4.76
597.584	4.66
597.921	4.94
598.258	4.64
598.594	4.59
598.931	4.67
599.268	4.71
599.604	4.69
599.941	4.79
600.277	4.57
600.614	4.85
600.95	4.84
601.287	4.95
601.623	4.87
601.959	5.02
602.296	4.83
602.632	4.81
602.968	4.73
603.304	4.78
603.64	4.65
603.976	4.76
604.312	4.71
604.648	4.68
604.984	4.8
605.319	4.73
605.655	4.77
605.991	4.92
606.326	4.63
606.662	4.66
606.998	4.64
607.333	4.65
607.668	4.65
608.004	4.73
608.339	4.66
608.674	4.74
609.01	4.83
609.345	5.04
609.68	4.81
610.015	4.66
610.35	4.89
610.685	4.62
611.02	4.63
611.355	4.89
611.689	4.69
612.024	4.81
612.359	4.73
612.694	4.85
613.028	4.79
613.363	4.65
613.697	4.75
614.032	4.53
614.366	4.69
614.7	5.02
615.035	4.59
615.369	4.75
615.703	4.67
616.037	4.69
616.371	4.55
616.705	4.64
617.039	4.27
617.373	4.67
617.707	4.59
618.041	5.01
618.375	4.95
618.709	4.85
619.042	4.93
619.376	4.78
619.71	4.71
620.043	4.73
620.377	4.61
620.71	4.68
621.043	4.84
621.377	5.04
621.71	4.89
622.043	4.09
622.376	4.86
622.709	4.75
623.043	4.92
623.376	5.03
623.709	4.87
624.041	5.12
624.374	4.15
624.707	4.37
625.04	4.62
625.373	4.75
625.705	5.02
626.038	4.36
626.37	4.84
626.703	5.25
627.035	4.9
627.368	4.82
627.7	4.98
628.032	4.68
628.365	4.48
628.697	4.85
629.029	4.66
629.361	4.63
629.693	4.54
630.025	4.65
630.357	4.28
630.689	4.86
631.021	4.99
631.353	4.63
631.684	4.85
632.016	4.65
632.348	5.03
632.679	4.75
633.011	4.93
633.342	4.38
633.674	4.53
634.005	4.76
634.336	4.22
634.668	4.54
634.999	4.62
635.33	4.91
635.661	4.54
635.992	4.63
636.323	4.8
636.654	4.56
636.985	4.75
637.316	4.6
637.647	4.83
637.977	4.53
638.308	4.63
638.639	4.67
638.969	5.2
639.3	4.57
639.63	4.58
639.961	5.31
640.291	5.03
640.622	4.69
640.952	4.23
641.282	4.77
641.612	4.72
641.943	4.41
642.273	5.28
642.603	4.52
642.933	4.59
643.263	5.06
643.592	4.63
643.922	4.72
644.252	4.28
644.582	4.6
644.911	4.75
645.241	4.59
645.571	4.23
645.9	4.47
646.23	4.71
646.559	4.91
646.888	4.6
647.218	4.77
647.547	4.24
647.876	4.65
648.205	4.39
648.534	4.78
648.863	4.57
649.192	4.73
649.521	4.9
649.85	4.93
650.179	4.51
650.508	5
650.837	4.69
651.165	4.9
651.494	4.91
651.822	4.24
652.151	4.37
652.479	5.02
652.808	4.29
653.136	4.3
653.465	4.65
653.793	4.84
654.121	4.87
654.449	4.54
654.777	4.47
655.105	4.45
655.433	4.14
655.761	4.43
656.089	4.52
656.417	4.44
656.745	4.9
657.073	4.42
657.4	4.95
657.728	5.24
658.056	4.82
658.383	4.46
658.711	4.84
659.038	4.42
659.365	4.24
659.693	4.3
660.02	4.34
660.347	5.13
660.674	4.77
661.001	4.81
661.329	4.59
661.656	4.56
661.982	4.25
662.309	4.67
662.636	4.68
662.963	4.71
663.29	4.94
663.616	4.68
663.943	4.74
664.27	5.19
664.596	4.74
664.923	5.15
665.249	4.71
665.576	4.89
665.902	4.97
666.228	4.44
666.554	4.62
666.881	4.71
667.207	5.05
667.533	4.65
667.859	4.18
668.185	3.98
668.511	5.13
668.837	4.11
669.162	4.88
669.488	4.17
669.814	4.77
670.139	4.57
670.465	4.82
670.791	4.83
671.116	4.97
671.442	4.76
671.767	4.23
672.092	4.92
672.418	4.81
672.743	4.86
673.068	4.99
673.393	4.82
673.718	4.27
674.043	4.16
674.368	5.13
674.693	4.83
675.018	5.05
675.343	5.06
675.667	4.82
675.992	5.38
676.317	4.27
676.641	4.66
676.966	4.5
677.29	4.43
677.615	5.32
677.939	4.54
678.264	4.26
678.588	4.87
678.912	5.47
679.236	3.97
679.56	4.28
679.885	4.07
680.209	4.22
680.532	4.76
680.856	4.28
681.18	5.08
681.504	4.29
681.828	4.88
682.152	5.36
682.475	4.58
682.799	4.26
683.122	4.65
683.446	4.66
683.769	4.93
684.093	4.66
684.416	4.91
684.739	4.56
685.062	5.28
685.386	4.35
685.709	5.19
686.032	4.11
686.355	4.53
686.678	5.35
687.001	4.47
687.324	4.86
687.646	4.85
687.969	4.55
688.292	5.17
688.614	5
688.937	4.62
689.26	4.46
689.582	4.02
689.904	4.6
690.227	5.51
690.549	5.09
690.871	4.62
691.194	5.38
691.516	4.89
691.838	5.33
692.16	4.89
692.482	4.21
692.804	4.5
