Data from 0143_forehead_Reflection__2__205.txt Node

Date: Mon Aug 28 20:24:51 CDT 2023
User: ToomeyLab
Spectrometer: FLMS14357
Trigger mode: 0
Integration Time (sec): 1.000000E-2
Scans to average: 100
Electric dark correction enabled: true
Nonlinearity correction enabled: false
Boxcar width: 0
XAxis mode: Wavelengths
Number of Pixels in Spectrum: 2048
>>>>>Begin Spectral Data<<<<<
189.047	1379.57
189.435	1379.57
189.823	1379.57
190.211	-12.28
190.599	60.25
190.987	21.97
191.375	88.41
191.763	186.29
192.151	-21.83
192.538	27.69
192.926	-12.67
193.314	-22.52
193.702	172.32
194.089	86.19
194.477	-25.85
194.864	98
195.252	-176.92
195.639	106.1
196.027	95.47
196.414	79.68
196.801	-1058.08
197.189	23.08
197.576	-7.76
197.963	-41.19
198.351	20.4
198.738	37.36
199.125	5.44
199.512	30.57
199.899	47.05
200.286	37.14
200.673	59.32
201.06	32.1
201.447	32.39
201.833	-59.92
202.22	26.64
202.607	-41.8
202.994	24.26
203.38	14.77
203.767	22.36
204.154	45.49
204.54	1.46
204.927	8.17
205.313	42.12
205.699	-18.08
206.086	46.2
206.472	5.77
206.858	17.55
207.245	25.59
207.631	70.09
208.017	62.17
208.403	28.24
208.789	47.25
209.175	-4.25
209.561	44.1
209.947	8.01
210.333	-9
210.719	37.51
211.105	55.1
211.491	-21.76
211.876	53.81
212.262	31.85
212.648	62.76
213.034	43.36
213.419	0.82
213.805	20.69
214.19	3.81
214.576	15.38
214.961	15.52
215.346	19.86
215.732	25.79
216.117	-21.61
216.502	17.77
216.888	-5.58
217.273	5.49
217.658	31.22
218.043	32.72
218.428	16.2
218.813	37.24
219.198	20.53
219.583	3.89
219.968	31.67
220.353	23.73
220.738	18.79
221.122	0.63
221.507	18.54
221.892	11.84
222.276	15.83
222.661	6.87
223.046	-2.7
223.43	7.9
223.815	21.22
224.199	34.73
224.583	13.29
224.968	11.43
225.352	9.74
225.736	18.1
226.121	8.25
226.505	9.27
226.889	20.73
227.273	18.49
227.657	12.94
228.041	13.2
228.425	8.64
228.809	6.21
229.193	12.96
229.577	7.35
229.961	8.95
230.344	8.11
230.728	7.35
231.112	6.06
231.495	7.54
231.879	6.9
232.263	7.03
232.646	6.65
233.03	7.66
233.413	8.65
233.797	7.91
234.18	6.47
234.563	8.67
234.946	9.31
235.33	7.3
235.713	4.6
236.096	6.71
236.479	6.82
236.862	8.74
237.245	7.87
237.628	9.27
238.011	8.95
238.394	8.63
238.777	8.55
239.16	7.77
239.543	6.32
239.925	10.42
240.308	4.97
240.691	6.29
241.073	4.51
241.456	7.74
241.838	5.06
242.221	7.53
242.603	7.17
242.986	6.87
243.368	6.73
243.75	6
244.133	6.02
244.515	6.43
244.897	6.95
245.279	6.63
245.661	6.89
246.043	7.74
246.425	6.69
246.807	7.78
247.189	7.55
247.571	6.53
247.953	6.49
248.335	6.6
248.717	6.56
249.098	6.3
249.48	6.6
249.862	6.72
250.243	6.58
250.625	7.16
251.006	6.63
251.388	6.89
251.769	6.78
252.151	6.03
252.532	6.87
252.913	7.14
253.295	6.19
253.676	6.2
254.057	6.23
254.438	6.71
254.819	5.82
255.2	6.76
255.581	7.22
255.962	8.1
256.343	9.97
256.724	4.81
257.105	5.73
257.486	6.87
257.867	6.5
258.247	6.6
258.628	8.72
259.009	5.97
259.389	6.54
259.77	6.23
260.15	6
260.531	6.25
260.911	6.83
261.292	6.22
261.672	6.26
262.052	6.1
262.432	6.18
262.813	6.36
263.193	6.24
263.573	6.04
263.953	6.57
264.333	5.93
264.713	5.85
265.093	6.32
265.473	7.05
265.853	6.57
266.233	5.23
266.612	7.18
266.992	5.99
267.372	6.71
267.752	6.69
268.131	6.64
268.511	5.6
268.89	6.68
269.27	6.09
269.649	6.41
270.029	6.82
270.408	7.14
270.787	6.56
271.167	6.08
271.546	6.92
271.925	6.6
272.304	5.94
272.683	6.96
273.062	6.22
273.441	6.53
273.82	5.82
274.199	5.68
274.578	6.15
274.957	6.13
275.336	6.21
275.715	7.02
276.093	6.31
276.472	5.68
276.851	6.19
277.229	6.58
277.608	6.61
277.986	6.02
278.365	6.65
278.743	6.24
279.122	6.76
279.5	5.89
279.878	5.97
280.257	6.88
280.635	6.25
281.013	7.35
281.391	6.52
281.769	6.54
282.147	6.56
282.525	6.37
282.903	6.89
283.281	6.32
283.659	7.17
284.037	6.54
284.415	6.86
284.792	6.32
285.17	6.26
285.548	6.08
285.925	6.9
286.303	6.68
286.68	6.67
287.058	6.73
287.435	5.92
287.813	6.2
288.19	6.56
288.567	6.71
288.945	6.94
289.322	6.74
289.699	6.68
290.076	6.94
290.453	7.14
290.83	6.38
291.207	6.45
291.584	6.84
291.961	6.84
292.338	6.77
292.715	6.57
293.092	7.02
293.469	7.33
293.845	6.27
294.222	7
294.599	6.69
294.975	7.54
295.352	7.14
295.728	7.52
296.105	6.9
296.481	6.97
296.858	7.56
297.234	7.3
297.61	7.59
297.986	7.52
298.363	7.61
298.739	6.96
299.115	7.13
299.491	7.6
299.867	7.45
300.243	7.46
300.619	6.97
300.995	7.83
301.371	7.68
301.746	7.59
302.122	7.99
302.498	7.82
302.874	8.07
303.249	7.82
303.625	7.69
304	8.11
304.376	7.49
304.751	7.7
305.127	8.01
305.502	8.43
305.878	8.28
306.253	7.97
306.628	8.43
307.003	8.18
307.378	8.51
307.754	8.77
308.129	8.83
308.504	9.39
308.879	8.46
309.254	8.91
309.629	8.54
310.003	8.98
310.378	8.06
310.753	8.7
311.128	8.88
311.502	9.32
311.877	8.75
312.252	9.2
312.626	8.81
313.001	9.22
313.375	9.4
313.75	9.38
314.124	9.62
314.498	9.56
314.873	9.7
315.247	10.16
315.621	9.63
315.995	9.69
316.369	9.85
316.743	9.19
317.117	9.98
317.491	9.33
317.865	9.64
318.239	10.19
318.613	10.45
318.987	10.5
319.361	10.53
319.734	10.19
320.108	10.65
320.482	10.64
320.855	10.26
321.229	10.67
321.602	10.17
321.976	10.61
322.349	10.49
322.723	10.09
323.096	10.96
323.469	10.1
323.843	10.82
324.216	10.76
324.589	11.15
324.962	11.52
325.335	11.27
325.708	10.97
326.081	11.31
326.454	11.05
326.827	11.94
327.2	11.36
327.573	11.62
327.945	11.33
328.318	12.27
328.691	11.21
329.063	11.04
329.436	11.09
329.809	11.88
330.181	11.81
330.553	11.76
330.926	11.91
331.298	11.87
331.671	11.67
332.043	12.2
332.415	12.48
332.787	12.17
333.159	12.57
333.532	12.79
333.904	12.54
334.276	12.34
334.648	12.47
335.02	12.66
335.391	12.64
335.763	11.97
336.135	12.78
336.507	12.58
336.879	12.56
337.25	12.94
337.622	12.73
337.993	13.4
338.365	12.53
338.736	13.01
339.108	13.1
339.479	12.41
339.851	13.26
340.222	13.24
340.593	13.26
340.964	13.21
341.336	13.69
341.707	13.08
342.078	13.66
342.449	13.96
342.82	13.6
343.191	13.47
343.562	13.84
343.933	13.81
344.303	13.94
344.674	13.77
345.045	14.13
345.416	14.1
345.786	14.38
346.157	14.18
346.527	14.03
346.898	14.22
347.268	14.02
347.639	14.17
348.009	14.25
348.38	14.68
348.75	14.82
349.12	14.81
349.49	14.61
349.861	14.54
350.231	14.54
350.601	15.24
350.971	15.03
351.341	14.62
351.711	14.99
352.081	14.82
352.45	15.19
352.82	15.7
353.19	15.69
353.56	15.62
353.929	15.87
354.299	15.04
354.669	15.55
355.038	15.76
355.408	15.86
355.777	15.58
356.147	15.56
356.516	15.98
356.885	15.78
357.254	15.84
357.624	15.9
357.993	16.02
358.362	15.58
358.731	16.54
359.1	16.17
359.469	16.26
359.838	16.15
360.207	16.13
360.576	16.57
360.945	16.22
361.314	16.2
361.682	16.39
362.051	16.62
362.42	16.56
362.788	16.46
363.157	16.93
363.525	16.67
363.894	16.64
364.262	16.88
364.631	16.67
364.999	16.61
365.367	17.2
365.735	16.92
366.104	17.05
366.472	17.03
366.84	17.45
367.208	17.28
367.576	17.37
367.944	17.73
368.312	17.64
368.68	17.76
369.048	17.92
369.416	17.87
369.783	17.74
370.151	17.76
370.519	18.18
370.886	17.87
371.254	18.01
371.621	18
371.989	18.14
372.356	18.04
372.724	18.76
373.091	18.5
373.458	18.29
373.826	18.37
374.193	18.56
374.56	18.93
374.927	18.77
375.294	18.96
375.661	19.06
376.028	18.95
376.395	19.05
376.762	19.5
377.129	18.87
377.496	18.77
377.863	19.14
378.229	18.73
378.596	20.02
378.963	19.65
379.329	19.41
379.696	19.46
380.062	19.32
380.429	19.45
380.795	19.77
381.161	19.86
381.528	20.3
381.894	19.44
382.26	19.83
382.626	20.07
382.993	20.06
383.359	20.12
383.725	20.58
384.091	20.29
384.457	20.26
384.823	20.35
385.188	20.31
385.554	20.81
385.92	20.31
386.286	20.56
386.651	20.63
387.017	21.05
387.383	20.97
387.748	20.79
388.114	20.65
388.479	20.93
388.845	21.09
389.21	20.97
389.575	21.23
389.94	21.16
390.306	21.23
390.671	21.43
391.036	21.42
391.401	21.76
391.766	21.82
392.131	21.67
392.496	21.59
392.861	21.86
393.226	21.79
393.591	21.86
393.956	21.93
394.32	22.09
394.685	22.15
395.05	22.32
395.414	22.15
395.779	22.5
396.143	22.19
396.508	22.23
396.872	22.45
397.236	22.21
397.601	22.49
397.965	22.66
398.329	22.54
398.694	22.83
399.058	22.86
399.422	22.99
399.786	23.21
400.15	22.86
400.514	23.2
400.878	23.02
401.242	23.36
401.605	23.27
401.969	22.97
402.333	23.54
402.697	23.4
403.06	23.62
403.424	23.67
403.787	23.35
404.151	23.47
404.514	23.91
404.878	23.72
405.241	24.16
405.604	24.09
405.968	24.06
406.331	24.3
406.694	24.03
407.057	24.03
407.42	23.96
407.783	24.39
408.146	24.47
408.509	24.42
408.872	24.42
409.235	24.5
409.598	24.53
409.961	24.77
410.323	24.62
410.686	24.7
411.049	24.83
411.411	25.05
411.774	24.86
412.136	24.95
412.499	25.01
412.861	25.02
413.223	25.35
413.586	25.01
413.948	25.52
414.31	25.13
414.672	25.4
415.035	25.44
415.397	25.42
415.759	25.71
416.121	25.64
416.483	25.67
416.845	25.91
417.206	26.08
417.568	25.89
417.93	25.79
418.292	26
418.653	25.92
419.015	25.99
419.377	25.95
419.738	26.33
420.1	26.16
420.461	26
420.822	26.19
421.184	26.11
421.545	26.07
421.906	26.11
422.267	26.05
422.629	26.22
422.99	26.19
423.351	26.21
423.712	26.17
424.073	26.3
424.434	26.49
424.795	26.58
425.155	26.55
425.516	26.69
425.877	26.74
426.238	26.58
426.598	26.81
426.959	26.8
427.32	26.91
427.68	27.1
428.041	27.05
428.401	27.29
428.761	27.18
429.122	27.29
429.482	27.4
429.842	27.63
430.202	27.76
430.563	27.73
430.923	28.14
431.283	27.99
431.643	28.06
432.003	28.31
432.363	28.38
432.722	28.28
433.082	28.36
433.442	28.36
433.802	28.4
434.161	28.44
434.521	28.74
434.881	28.53
435.24	28.54
435.6	28.47
435.959	28.68
436.319	28.71
436.678	28.64
437.037	28.96
437.396	28.88
437.756	28.84
438.115	28.96
438.474	29.28
438.833	29.14
439.192	29.36
439.551	29.29
439.91	29.45
440.269	29.35
440.628	29.62
440.987	29.24
441.345	29.47
441.704	29.4
442.063	29.3
442.421	29.57
442.78	29.62
443.138	29.56
443.497	29.52
443.855	29.7
444.214	29.91
444.572	29.66
444.93	30.15
445.288	30.13
445.647	30.1
446.005	30.21
446.363	30.47
446.721	30.34
447.079	30.29
447.437	30.27
447.795	30.35
448.153	30.35
448.51	30.28
448.868	30.39
449.226	30.27
449.584	30.32
449.941	30.59
450.299	30.87
450.656	30.75
451.014	30.66
451.371	30.79
451.729	30.85
452.086	31.06
452.443	31.31
452.801	31.34
453.158	31.36
453.515	31.41
453.872	31.36
454.229	31.74
454.586	31.67
454.943	31.65
455.3	31.51
455.657	31.81
456.014	31.86
456.371	31.93
456.727	31.98
457.084	32.07
457.441	32.21
457.797	32.4
458.154	32.27
458.51	32.34
458.867	32.23
459.223	32.34
459.58	32.27
459.936	32.52
460.292	32.56
460.648	32.49
461.005	32.45
461.361	32.47
461.717	32.29
462.073	32.41
462.429	32.32
462.785	32.47
463.141	32.4
463.496	32.67
463.852	32.87
464.208	32.96
464.564	33.15
464.919	33.28
465.275	33.31
465.631	33.24
465.986	33.57
466.342	33.5
466.697	33.65
467.052	33.6
467.408	33.56
467.763	33.67
468.118	33.77
468.473	33.76
468.829	33.93
469.184	33.87
469.539	34.24
469.894	33.89
470.249	34.11
470.603	34.17
470.958	34.12
471.313	34.24
471.668	34.3
472.023	34.48
472.377	34.29
472.732	34.61
473.086	34.55
473.441	34.5
473.795	34.6
474.15	34.73
474.504	34.77
474.859	34.93
475.213	34.91
475.567	35.09
475.921	35.17
476.275	34.87
476.63	35.52
476.984	35.16
477.338	35.27
477.692	35.26
478.045	35.38
478.399	35.44
478.753	35.48
479.107	35.41
479.461	35.46
479.814	35.7
480.168	35.62
480.521	35.51
480.875	35.54
481.228	35.43
481.582	35.81
481.935	35.71
482.289	35.78
482.642	35.86
482.995	36.01
483.348	36
483.701	35.72
484.055	35.75
484.408	35.5
484.761	35.5
485.114	35.53
485.466	35.13
485.819	35.13
486.172	35.26
486.525	35.38
486.878	35.15
487.23	35.07
487.583	35.22
487.936	35.54
488.288	35.73
488.641	35.85
488.993	35.83
489.345	35.66
489.698	35.65
490.05	35.6
490.402	35.84
490.754	35.82
491.107	35.82
491.459	36.25
491.811	36.36
492.163	36.6
492.515	36.65
492.866	36.7
493.218	36.6
493.57	36.42
493.922	36.39
494.274	36.45
494.625	36.42
494.977	36.82
495.328	36.83
495.68	37.19
496.031	37.49
496.383	37.7
496.734	37.74
497.086	37.89
497.437	38.21
497.788	38
498.139	38.16
498.49	38.05
498.842	37.97
499.193	37.98
499.544	37.89
499.894	38.11
500.245	38.23
500.596	38.24
500.947	38.12
501.298	38.41
501.648	38.46
501.999	38.44
502.35	38.68
502.7	38.59
503.051	39.11
503.401	39
503.752	39.09
504.102	39.12
504.452	39.19
504.803	39.23
505.153	39.16
505.503	39.27
505.853	39.28
506.203	39.5
506.553	39.18
506.903	39.58
507.253	39.47
507.603	39.69
507.953	39.56
508.303	39.57
508.652	39.71
509.002	39.82
509.352	39.61
509.701	39.79
510.051	39.63
510.4	39.87
510.75	39.86
511.099	39.82
511.449	39.89
511.798	39.9
512.147	40.11
512.496	40.04
512.846	40.15
513.195	40.17
513.544	40.07
513.893	40.14
514.242	40.06
514.591	40.27
514.939	40.4
515.288	40.59
515.637	40.46
515.986	40.41
516.334	40.5
516.683	40.65
517.032	40.69
517.38	40.95
517.729	40.83
518.077	40.94
518.426	41
518.774	40.92
519.122	40.95
519.47	40.78
519.819	40.7
520.167	40.74
520.515	40.74
520.863	40.65
521.211	40.69
521.559	40.66
521.907	40.86
522.255	40.68
522.602	41.24
522.95	41.23
523.298	41.55
523.645	41.56
523.993	41.52
524.341	41.59
524.688	41.94
525.036	41.78
525.383	41.96
525.73	41.96
526.078	41.79
526.425	41.88
526.772	41.87
527.119	41.84
527.466	41.62
527.814	41.5
528.161	41.58
528.508	41.54
528.854	41.76
529.201	41.68
529.548	41.53
529.895	41.47
530.242	41.31
530.588	41.39
530.935	41.48
531.282	41.58
531.628	41.34
531.975	41.27
532.321	41.46
532.667	41.65
533.014	41.89
533.36	42.08
533.706	42.31
534.052	42.41
534.399	42.29
534.745	42.48
535.091	42.26
535.437	42.13
535.783	42.15
536.129	42.19
536.474	42.26
536.82	42.45
537.166	42.56
537.512	42.75
537.857	42.79
538.203	42.89
538.549	43.01
538.894	42.95
539.239	43.01
539.585	43.03
539.93	43.1
540.276	43.26
540.621	43.39
540.966	43.46
541.311	43.79
541.656	43.83
542.001	43.91
542.346	43.65
542.691	43.48
543.036	43.32
543.381	43.22
543.726	43.23
544.071	43.14
544.415	43.15
544.76	43.18
545.105	43.38
545.449	43.2
545.794	43.74
546.138	43.96
546.483	43.77
546.827	44.05
547.171	44.18
547.516	44.57
547.86	44.43
548.204	44.7
548.548	44.46
548.892	44.47
549.236	44.37
549.58	44.49
549.924	44.68
550.268	44.89
550.612	44.58
550.956	45.11
551.3	45.3
551.643	45.61
551.987	45.36
552.33	45.86
552.674	45.59
553.017	45.73
553.361	45.63
553.704	45.47
554.048	45.7
554.391	45.79
554.734	45.67
555.077	45.84
555.42	45.86
555.764	45.68
556.107	45.73
556.45	45.81
556.793	46.05
557.135	46.13
557.478	46.14
557.821	46.14
558.164	46.25
558.507	46.29
558.849	46.7
559.192	46.23
559.534	46.32
559.877	46.52
560.219	46.49
560.562	46.55
560.904	46.94
561.246	46.9
561.589	46.72
561.931	46.79
562.273	46.72
562.615	46.9
562.957	46.78
563.299	46.75
563.641	46.92
563.983	47.37
564.325	47.09
564.667	47.01
565.008	47.07
565.35	47.16
565.692	47.45
566.033	47.21
566.375	47.41
566.716	47.34
567.058	47.58
567.399	47.46
567.741	47.38
568.082	47.25
568.423	47.33
568.764	47.1
569.105	47.23
569.447	47.24
569.788	47.48
570.129	47.23
570.47	47.48
570.811	47.65
571.151	47.61
571.492	47.9
571.833	47.8
572.174	47.66
572.514	47.89
572.855	48
573.195	47.88
573.536	47.87
573.876	47.97
574.217	48.07
574.557	47.87
574.898	48.14
575.238	47.92
575.578	48.17
575.918	47.97
576.258	48.15
576.598	48.39
576.938	48.3
577.278	48.31
577.618	48.23
577.958	48.29
578.298	48.48
578.638	48.45
578.977	48.57
579.317	48.58
579.657	48.78
579.996	48.66
580.336	48.63
580.675	48.83
581.014	49.26
581.354	48.68
581.693	49.09
582.032	49.25
582.372	49.34
582.711	49.55
583.05	49.14
583.389	49.47
583.728	49.18
584.067	49.35
584.406	49.4
584.745	49.4
585.083	49.42
585.422	49.74
585.761	49.73
586.1	49.76
586.438	49.95
586.777	49.93
587.115	49.98
587.454	49.87
587.792	49.91
588.13	49.93
588.469	50.1
588.807	49.65
589.145	50.01
589.483	49.93
589.821	50.35
590.159	50.12
590.497	50.08
590.835	50.27
591.173	50.09
591.511	50.07
591.849	50.41
592.187	50.19
592.524	50.26
592.862	50.35
593.2	50.37
593.537	50.5
593.875	50.48
594.212	50.44
594.55	50.27
594.887	50.64
595.224	50.7
595.561	50.57
595.899	50.42
596.236	51
596.573	50.6
596.91	50.8
597.247	50.78
597.584	50.44
597.921	50.56
598.258	51.01
598.594	50.66
598.931	50.48
599.268	50.83
599.604	50.85
599.941	50.57
600.277	50.53
600.614	50.95
600.95	50.99
601.287	51.21
601.623	51.41
601.959	51.16
602.296	51.13
602.632	51.41
602.968	51.48
603.304	51.62
603.64	51.32
603.976	51.9
604.312	51.68
604.648	51.89
604.984	51.67
605.319	51.72
605.655	51.56
605.991	51.39
606.326	51.28
606.662	51.47
606.998	51.25
607.333	51.24
607.668	51.4
608.004	51.58
608.339	51.37
608.674	51.23
609.01	51.83
609.345	51.97
609.68	51.94
610.015	52.34
610.35	52.62
610.685	52.08
611.02	51.92
611.355	52.32
611.689	51.78
612.024	52.1
612.359	51.93
612.694	52.18
613.028	52.48
613.363	52.39
613.697	52.26
614.032	52.53
614.366	52.45
614.7	52.51
615.035	52.7
615.369	52.92
615.703	52.45
616.037	52.69
616.371	52.58
616.705	52.99
617.039	53.1
617.373	52.87
617.707	53.12
618.041	53.1
618.375	53.36
618.709	53.16
619.042	53.36
619.376	52.95
619.71	53.24
620.043	53.21
620.377	53.23
620.71	53.2
621.043	53.68
621.377	53.59
621.71	53.24
622.043	53.37
622.376	53.51
622.709	53.44
623.043	53.71
623.376	54.05
623.709	54.07
624.041	53.85
624.374	53.56
624.707	53.39
625.04	53.75
625.373	54.07
625.705	53.95
626.038	53.91
626.37	53.91
626.703	54.19
627.035	53.93
627.368	54.01
627.7	53.89
628.032	53.93
628.365	54
628.697	53.83
629.029	53.74
629.361	53.79
629.693	53.91
630.025	54.11
630.357	54.38
630.689	54.25
631.021	53.89
631.353	54.52
631.684	54.36
632.016	54.11
632.348	54.41
632.679	54.5
633.011	54.49
633.342	54.45
633.674	54.35
634.005	54.29
634.336	54.2
634.668	54.6
634.999	54.75
635.33	54.28
635.661	54.71
635.992	55.13
636.323	54.75
636.654	54.63
636.985	54.34
637.316	54.65
637.647	54.88
637.977	54.25
638.308	54.81
638.639	54.46
638.969	55.1
639.3	54.74
639.63	55.04
639.961	55.08
640.291	55.46
640.622	55.76
640.952	54.88
641.282	55.02
641.612	55.72
641.943	55.5
642.273	55.81
642.603	55.55
642.933	55.19
643.263	55.78
643.592	55.78
643.922	55.31
644.252	55.07
644.582	55.27
644.911	55.44
645.241	55.77
645.571	55.86
645.9	55.75
646.23	55.55
646.559	55.94
646.888	55.27
647.218	55.73
647.547	56.05
647.876	55.76
648.205	55.93
648.534	56.29
648.863	55.98
649.192	56.02
649.521	55.94
649.85	56.48
650.179	56.2
650.508	56.45
650.837	55.7
651.165	56.18
651.494	55.98
651.822	56.04
652.151	56.11
652.479	56.44
652.808	56.66
653.136	56.13
653.465	55.64
653.793	56.3
654.121	56.23
654.449	56.61
654.777	56.26
655.105	55.89
655.433	56.16
655.761	56.03
656.089	56.59
656.417	56.09
656.745	56.14
657.073	57.12
657.4	56.74
657.728	56.87
658.056	56.92
658.383	56.99
658.711	57.31
659.038	56.48
659.365	56.91
659.693	56.71
660.02	56.38
660.347	56.8
660.674	57.06
661.001	57.15
661.329	56.67
661.656	56.69
661.982	56.83
662.309	56.85
662.636	57.29
662.963	57.33
663.29	56.75
663.616	56.87
663.943	57.54
664.27	57.11
664.596	56.45
664.923	57.68
665.249	57.81
665.576	57.11
665.902	57.27
666.228	57.37
666.554	57.19
666.881	57.07
667.207	56.9
667.533	57.2
667.859	56.43
668.185	57.46
668.511	57.42
668.837	57.8
669.162	57.68
669.488	57.54
