Data from 0143_forehead_Reflection__1__204.txt Node

Date: Mon Aug 28 20:24:40 CDT 2023
User: ToomeyLab
Spectrometer: FLMS14357
Trigger mode: 0
Integration Time (sec): 1.000000E-2
Scans to average: 100
Electric dark correction enabled: true
Nonlinearity correction enabled: false
Boxcar width: 0
XAxis mode: Wavelengths
Number of Pixels in Spectrum: 2048
>>>>>Begin Spectral Data<<<<<
189.047	457.87
189.435	457.87
189.823	457.87
190.211	-0.36
190.599	56.8
190.987	150.74
191.375	-795.99
191.763	163.02
192.151	-183.02
192.538	44.94
192.926	62.11
193.314	81.73
193.702	118.28
194.089	73.39
194.477	102.24
194.864	26.27
195.252	-288.91
195.639	-29.11
196.027	81.29
196.414	34.42
196.801	-156.44
197.189	99.79
197.576	124.32
197.963	150.98
198.351	100.68
198.738	5.41
199.125	33.04
199.512	10.93
199.899	55.31
200.286	-33.82
200.673	14.18
201.06	2.07
201.447	62.84
201.833	-21.75
202.22	3.15
202.607	37.37
202.994	74.56
203.38	18.6
203.767	40.85
204.154	12.08
204.54	28.03
204.927	-6.09
205.313	40.45
205.699	-13.19
206.086	53.1
206.472	24.41
206.858	-1.62
207.245	33
207.631	14.33
208.017	30.73
208.403	30.04
208.789	44.55
209.175	-13.06
209.561	52.53
209.947	44.18
210.333	43.54
210.719	11.06
211.105	44.91
211.491	55.5
211.876	48.56
212.262	20.01
212.648	25.89
213.034	7.39
213.419	-0.83
213.805	42.2
214.19	15.82
214.576	24.12
214.961	10.75
215.346	4.44
215.732	28.54
216.117	-13.02
216.502	-6.69
216.888	-5.1
217.273	30.42
217.658	19.5
218.043	28.17
218.428	32.22
218.813	6.37
219.198	18.34
219.583	35.95
219.968	18.02
220.353	19.5
220.738	29.34
221.122	28.69
221.507	10.26
221.892	6.71
222.276	20.73
222.661	-1.42
223.046	33.73
223.43	22.71
223.815	1.17
224.199	22.06
224.583	8.4
224.968	18.93
225.352	20.59
225.736	13.46
226.121	16.76
226.505	13.54
226.889	11.72
227.273	16.97
227.657	9.11
228.041	11.17
228.425	8.6
228.809	2.93
229.193	10.57
229.577	8.54
229.961	6.61
230.344	6.1
230.728	6.05
231.112	5.72
231.495	5.67
231.879	5.51
232.263	6.78
232.646	6.03
233.03	8.54
233.413	8.44
233.797	7.17
234.18	6.2
234.563	7.04
234.946	12.15
235.33	4.67
235.713	5.4
236.096	6.91
236.479	6.62
236.862	5.1
237.245	7.57
237.628	5.84
238.011	9.4
238.394	7.7
238.777	6.51
239.16	5.72
239.543	5.32
239.925	7.95
240.308	4.73
240.691	4.84
241.073	6.07
241.456	4.91
241.838	3.38
242.221	6.49
242.603	7.5
242.986	6.86
243.368	5.24
243.75	5.22
244.133	4.97
244.515	5.02
244.897	5.37
245.279	5.35
245.661	5.85
246.043	6.31
246.425	5.11
246.807	6.75
247.189	6.08
247.571	4.99
247.953	5.71
248.335	5.15
248.717	4.97
249.098	4.75
249.48	4.94
249.862	5.28
250.243	4.93
250.625	5.88
251.006	4.85
251.388	6
251.769	6.31
252.151	6.67
252.532	5.82
252.913	5.75
253.295	5.43
253.676	5.44
254.057	5.17
254.438	4.4
254.819	5.19
255.2	5.71
255.581	5
255.962	6.47
256.343	7.29
256.724	3.84
257.105	5.67
257.486	5.35
257.867	5.41
258.247	5.69
258.628	6.22
259.009	4.66
259.389	4.25
259.77	5.2
260.15	5.12
260.531	4.62
260.911	5.35
261.292	5.26
261.672	4.76
262.052	4.7
262.432	4.78
262.813	4.99
263.193	5.03
263.573	4.62
263.953	4.78
264.333	4.61
264.713	5.25
265.093	5.08
265.473	5.67
265.853	4.96
266.233	4.78
266.612	5.94
266.992	5.31
267.372	4.36
267.752	5.06
268.131	5.23
268.511	4.51
268.89	5.09
269.27	4.68
269.649	5.36
270.029	5.43
270.408	5.15
270.787	5.78
271.167	5.22
271.546	5.24
271.925	5.16
272.304	4.86
272.683	5.55
273.062	4.94
273.441	5.03
273.82	4.65
274.199	4.82
274.578	4.49
274.957	4.82
275.336	5.18
275.715	5.27
276.093	4.62
276.472	4.59
276.851	5.22
277.229	5.75
277.608	5.34
277.986	4.72
278.365	5.54
278.743	4.96
279.122	5.31
279.5	4.56
279.878	4.63
280.257	4.63
280.635	5.32
281.013	5.5
281.391	4.91
281.769	5.02
282.147	5.08
282.525	4.96
282.903	5.59
283.281	5.22
283.659	5.46
284.037	5.19
284.415	4.58
284.792	4.88
285.17	4.33
285.548	4.94
285.925	5.06
286.303	4.78
286.68	5.21
287.058	5.05
287.435	4.5
287.813	4.89
288.19	5.05
288.567	5.21
288.945	5.15
289.322	5.22
289.699	5.29
290.076	5.37
290.453	5.49
290.83	4.84
291.207	5.13
291.584	4.67
291.961	5.03
292.338	5.04
292.715	5.11
293.092	5.09
293.469	5.55
293.845	5.16
294.222	5.7
294.599	5.89
294.975	5.39
295.352	5.37
295.728	5.06
296.105	5.86
296.481	5.61
296.858	6.21
297.234	5.28
297.61	5.52
297.986	5.57
298.363	6.23
298.739	5.54
299.115	5.56
299.491	5.6
299.867	5.78
300.243	5.74
300.619	5.8
300.995	6.21
301.371	5.62
301.746	5.99
302.122	6.21
302.498	5.53
302.874	5.9
303.249	6.32
303.625	5.98
304	6.13
304.376	6.54
304.751	6.1
305.127	6.36
305.502	6.29
305.878	5.74
306.253	6.31
306.628	6.67
307.003	6.2
307.378	6.86
307.754	7.03
308.129	6.56
308.504	7.09
308.879	6.87
309.254	6.6
309.629	6.64
310.003	6.67
310.378	6.59
310.753	7.24
311.128	7.09
311.502	7.15
311.877	6.74
312.252	6.76
312.626	6.8
313.001	6.7
313.375	6.87
313.75	6.85
314.124	7.11
314.498	7.45
314.873	7.06
315.247	7.56
315.621	6.79
315.995	7.84
316.369	7.62
316.743	6.87
317.117	7.19
317.491	7.11
317.865	6.98
318.239	7.95
318.613	7.93
318.987	7.94
319.361	8.09
319.734	7.66
320.108	8.21
320.482	7.58
320.855	7.68
321.229	7.71
321.602	8.18
321.976	7.44
322.349	7.81
322.723	8.38
323.096	8.54
323.469	7.59
323.843	7.67
324.216	7.94
324.589	8.15
324.962	8.37
325.335	8.55
325.708	8.27
326.081	8.23
326.454	8.94
326.827	8.53
327.2	8.45
327.573	8.73
327.945	9.31
328.318	9.02
328.691	8.38
329.063	8.24
329.436	8.56
329.809	9.06
330.181	9.09
330.553	8.83
330.926	8.63
331.298	9.1
331.671	9.13
332.043	9.14
332.415	10.02
332.787	9.24
333.159	9.08
333.532	9.85
333.904	9.32
334.276	9.34
334.648	9.32
335.02	9.71
335.391	9.74
335.763	8.99
336.135	9.9
336.507	9.38
336.879	9.21
337.25	10.07
337.622	9.47
337.993	10.07
338.365	9.65
338.736	10.06
339.108	9.43
339.479	9.56
339.851	10.13
340.222	10.04
340.593	9.49
340.964	9.98
341.336	9.88
341.707	9.83
342.078	10.02
342.449	10.17
342.82	10.17
343.191	10.12
343.562	9.99
343.933	10.16
344.303	10.34
344.674	10.61
345.045	10.17
345.416	10.54
345.786	10.43
346.157	10.25
346.527	10.39
346.898	10.49
347.268	10.45
347.639	10.25
348.009	10.53
348.38	10.79
348.75	10.81
349.12	10.77
349.49	10.43
349.861	10.69
350.231	10.64
350.601	10.81
350.971	11.46
351.341	11.51
351.711	10.96
352.081	10.84
352.45	11.37
352.82	11.21
353.19	11.93
353.56	11.06
353.929	11.3
354.299	11.35
354.669	11.49
355.038	11.96
355.408	11.65
355.777	11.41
356.147	11.51
356.516	11.81
356.885	11.93
357.254	11.82
357.624	11.61
357.993	12.03
358.362	11.77
358.731	11.99
359.1	12.06
359.469	11.89
359.838	12.11
360.207	12.12
360.576	12.38
360.945	11.95
361.314	12.15
361.682	11.64
362.051	12.68
362.42	12.26
362.788	12.48
363.157	12.33
363.525	12.33
363.894	12.29
364.262	12.42
364.631	12.21
364.999	12.52
365.367	12.72
365.735	12.58
366.104	12.96
366.472	12.89
366.84	12.61
367.208	12.84
367.576	12.77
367.944	13.31
368.312	13.44
368.68	13.18
369.048	13.06
369.416	13.46
369.783	12.99
370.151	13.43
370.519	13.66
370.886	13.16
371.254	13.12
371.621	13.31
371.989	13.39
372.356	13.45
372.724	13.81
373.091	13.75
373.458	13.51
373.826	13.96
374.193	13.88
374.56	13.78
374.927	13.78
375.294	13.99
375.661	14.25
376.028	13.96
376.395	13.73
376.762	14.28
377.129	13.99
377.496	13.88
377.863	14.14
378.229	14.46
378.596	14.65
378.963	14.53
379.329	14.42
379.696	14.39
380.062	14.43
380.429	14.63
380.795	14.44
381.161	14.45
381.528	14.89
381.894	14.53
382.26	14.76
382.626	15.2
382.993	14.9
383.359	15.07
383.725	15.07
384.091	14.88
384.457	15.08
384.823	15.08
385.188	14.99
385.554	14.94
385.92	14.98
386.286	15.6
386.651	15.46
387.017	15.5
387.383	15.32
387.748	15.58
388.114	15.22
388.479	15.35
388.845	15.5
389.21	15.58
389.575	16.01
389.94	15.98
390.306	15.93
390.671	16.27
391.036	15.93
391.401	16.32
391.766	16.3
392.131	16.07
392.496	16.09
392.861	15.97
393.226	16.49
393.591	16.09
393.956	16.16
394.32	16.28
394.685	16.54
395.05	16.63
395.414	16.52
395.779	16.49
396.143	16.48
396.508	16.3
396.872	16.69
397.236	16.82
397.601	16.68
397.965	17.04
398.329	16.85
398.694	16.89
399.058	16.88
399.422	17.14
399.786	17.16
400.15	17.35
400.514	16.96
400.878	17.27
401.242	17.11
401.605	17.45
401.969	17.17
402.333	17.39
402.697	17.29
403.06	17.58
403.424	17.58
403.787	17.67
404.151	17.44
404.514	17.72
404.878	17.92
405.241	18
405.604	17.81
405.968	17.59
406.331	17.81
406.694	17.9
407.057	18.08
407.42	18.1
407.783	18.13
408.146	18.2
408.509	18.32
408.872	18.16
409.235	18.42
409.598	18.56
409.961	18.06
410.323	18.71
410.686	18.73
411.049	18.96
411.411	18.65
411.774	18.9
412.136	18.59
412.499	18.53
412.861	18.76
413.223	18.74
413.586	18.88
413.948	18.95
414.31	19.14
414.672	19.09
415.035	19.28
415.397	19.17
415.759	19.22
416.121	19.32
416.483	19.06
416.845	19.34
417.206	19.39
417.568	19.42
417.93	19.44
418.292	19.48
418.653	19.17
419.015	19.38
419.377	19.24
419.738	19.61
420.1	19.33
420.461	19.53
420.822	19.46
421.184	19.6
421.545	19.66
421.906	19.58
422.267	19.56
422.629	19.52
422.99	19.57
423.351	19.54
423.712	19.53
424.073	19.71
424.434	19.98
424.795	19.96
425.155	19.94
425.516	20.04
425.877	20.03
426.238	20.03
426.598	19.92
426.959	20.03
427.32	20.25
427.68	20.36
428.041	20.35
428.401	20.47
428.761	20.32
429.122	20.61
429.482	20.9
429.842	20.92
430.202	20.81
430.563	20.99
430.923	21.22
431.283	21.29
431.643	21.17
432.003	21.09
432.363	21.26
432.722	21.12
433.082	21.34
433.442	21.45
433.802	21.43
434.161	21.4
434.521	21.56
434.881	21.42
435.24	21.54
435.6	21.49
435.959	21.61
436.319	21.68
436.678	21.5
437.037	21.75
437.396	21.97
437.756	21.85
438.115	22.02
438.474	21.9
438.833	21.98
439.192	22.15
439.551	21.95
439.91	22.18
440.269	22.29
440.628	22.19
440.987	22.45
441.345	22.13
441.704	22.28
442.063	22.21
442.421	22.27
442.78	22.27
443.138	22.18
443.497	22.31
443.855	22.47
444.214	22.76
444.572	22.83
444.93	22.81
445.288	22.86
445.647	22.94
446.005	22.98
446.363	23.01
446.721	22.91
447.079	22.86
447.437	22.92
447.795	22.81
448.153	22.85
448.51	22.81
448.868	22.83
449.226	22.88
449.584	22.86
449.941	23.17
450.299	23.34
450.656	23.37
451.014	23.45
451.371	23.65
451.729	23.65
452.086	23.59
452.443	24.12
452.801	24.03
453.158	23.92
453.515	23.99
453.872	23.89
454.229	24.06
454.586	24.07
454.943	23.98
455.3	24.32
455.657	24.37
456.014	24.36
456.371	24.37
456.727	24.52
457.084	24.57
457.441	24.51
457.797	24.68
458.154	24.71
458.51	24.8
458.867	24.49
459.223	24.76
459.58	24.76
459.936	25.01
460.292	24.93
460.648	24.8
461.005	24.63
461.361	24.59
461.717	24.42
462.073	24.39
462.429	24.62
462.785	24.82
463.141	24.98
463.496	25.21
463.852	25.32
464.208	25.42
464.564	25.35
464.919	25.54
465.275	25.88
465.631	25.65
465.986	26.04
466.342	25.74
466.697	25.95
467.052	25.89
467.408	25.78
467.763	26.1
468.118	25.9
468.473	25.76
468.829	26.21
469.184	25.98
469.539	26.21
469.894	26.11
470.249	26.17
470.603	26.45
470.958	26.28
471.313	26.37
471.668	26.32
472.023	26.7
472.377	26.37
472.732	26.54
473.086	26.66
473.441	26.67
473.795	26.84
474.15	26.9
474.504	26.77
474.859	26.91
475.213	26.82
475.567	26.97
475.921	27.37
476.275	27.12
476.63	27.46
476.984	27.45
477.338	27.5
477.692	27.51
478.045	27.48
478.399	27.44
478.753	27.39
479.107	27.55
479.461	27.46
479.814	27.66
480.168	27.51
480.521	27.58
480.875	27.56
481.228	27.77
481.582	27.87
481.935	27.72
482.289	27.8
482.642	27.85
482.995	27.92
483.348	27.69
483.701	27.73
484.055	27.74
484.408	27.33
484.761	27.35
485.114	27.01
485.466	26.84
485.819	26.7
486.172	26.65
486.525	26.89
486.878	27.35
487.23	27.67
487.583	27.92
487.936	28
488.288	28
488.641	27.82
488.993	27.59
489.345	27.43
489.698	27.4
490.05	27.53
490.402	27.57
490.754	27.92
491.107	28.11
491.459	28.47
491.811	28.56
492.163	28.61
492.515	28.71
492.866	28.64
493.218	28.29
493.57	27.98
493.922	28.03
494.274	28.22
494.625	28.55
494.977	29.06
495.328	29.31
495.68	29.51
496.031	29.53
496.383	29.6
496.734	29.85
497.086	29.84
497.437	30.07
497.788	29.99
498.139	30.07
498.49	29.76
498.842	29.66
499.193	29.67
499.544	30.02
499.894	29.97
500.245	30.07
500.596	30.11
500.947	30.19
501.298	30.31
501.648	30.37
501.999	30.55
502.35	30.51
502.7	30.59
503.051	30.73
503.401	30.77
503.752	30.88
504.102	30.84
504.452	30.85
504.803	30.95
505.153	30.92
505.503	30.98
505.853	30.86
506.203	31.06
506.553	31.09
506.903	31.17
507.253	31.15
507.603	31.39
507.953	31.32
508.303	31.38
508.652	31.49
509.002	31.5
509.352	31.52
509.701	31.43
510.051	31.35
510.4	31.52
510.75	31.38
511.099	31.51
511.449	31.56
511.798	31.58
512.147	31.75
512.496	31.69
512.846	31.73
513.195	31.65
513.544	31.81
513.893	31.98
514.242	31.96
514.591	32.02
514.939	32.01
515.288	32.06
515.637	32.13
515.986	32.27
516.334	32.51
516.683	32.44
517.032	32.67
517.38	32.66
517.729	32.65
518.077	32.59
518.426	32.66
518.774	32.55
519.122	32.8
519.47	32.54
519.819	32.56
520.167	32.45
520.515	32.28
520.863	32.29
521.211	32.49
521.559	32.6
521.907	32.9
522.255	32.74
522.602	33.1
522.95	33.26
523.298	33.52
523.645	33.41
523.993	33.5
524.341	33.46
524.688	33.39
525.036	33.57
525.383	33.55
525.73	33.65
526.078	33.77
526.425	33.4
526.772	33.48
527.119	33.44
527.466	33.16
527.814	32.96
528.161	33.07
528.508	33.28
528.854	33.4
529.201	33.51
529.548	33.34
529.895	33.19
530.242	32.75
530.588	32.54
530.935	32.69
531.282	32.96
531.628	33.28
531.975	33.59
532.321	33.71
532.667	33.92
533.014	34.07
533.36	34.07
533.706	34.31
534.052	34.21
534.399	34.2
534.745	34.08
535.091	33.77
535.437	33.42
535.783	33.72
536.129	34.1
536.474	34.35
536.82	34.61
537.166	34.8
537.512	34.77
537.857	34.92
538.203	34.56
538.549	34.51
538.894	34.47
539.239	34.64
539.585	34.94
539.93	35.1
540.276	35.42
540.621	35.74
540.966	35.61
541.311	35.81
541.656	35.72
542.001	35.64
542.346	35.43
542.691	35.09
543.036	34.9
543.381	34.62
543.726	34.71
544.071	34.91
544.415	35.37
544.76	35.43
545.105	35.62
545.449	35.41
545.794	35.74
546.138	35.99
546.483	35.85
546.827	36.1
547.171	36.13
547.516	36.4
547.86	36.4
548.204	36.41
548.548	36.49
548.892	36.16
549.236	36.1
549.58	36.42
549.924	36.68
550.268	36.87
550.612	37.04
550.956	37.19
551.3	37.25
551.643	37.55
551.987	37.14
552.33	37.58
552.674	37.58
553.017	37.78
553.361	37.62
553.704	37.47
554.048	37.47
554.391	37.64
554.734	37.55
555.077	37.51
555.42	37.68
555.764	37.7
556.107	37.88
556.45	38.01
556.793	37.94
557.135	37.93
557.478	38.26
557.821	38.32
558.164	38.27
558.507	38.59
558.849	38.5
559.192	38.34
559.534	38.38
559.877	38.57
560.219	38.75
560.562	38.67
560.904	39.01
561.246	38.78
561.589	38.52
561.931	38.74
562.273	38.72
562.615	38.71
562.957	38.75
563.299	38.85
563.641	38.93
563.983	39.16
564.325	38.97
564.667	38.86
565.008	39.21
565.35	39.42
565.692	39.22
566.033	39.25
566.375	39.19
566.716	39.28
567.058	39.36
567.399	39.3
567.741	39.29
568.082	39.38
568.423	39.15
568.764	39.07
569.105	39.49
569.447	39.5
569.788	39.52
570.129	39.82
570.47	39.64
570.811	39.81
571.151	39.75
571.492	39.86
571.833	39.97
572.174	40
572.514	39.99
572.855	39.96
573.195	40.13
573.536	39.89
573.876	39.74
574.217	39.98
574.557	40.05
574.898	40.25
575.238	40.09
575.578	40.16
575.918	40.3
576.258	40.16
576.598	40.32
576.938	40.24
577.278	40.33
577.618	40.17
577.958	40.36
578.298	40.69
578.638	40.69
578.977	40.97
579.317	40.79
579.657	41.18
579.996	40.77
580.336	41.14
580.675	41.49
581.014	41.69
581.354	41.14
581.693	41.25
582.032	41.75
582.372	41.4
582.711	41.89
583.05	41.42
583.389	41.61
583.728	41.63
584.067	41.59
584.406	41.71
584.745	41.84
585.083	41.62
585.422	41.79
585.761	41.63
586.1	41.94
586.438	41.78
586.777	42.23
587.115	42.26
587.454	42.18
587.792	42.45
588.13	42.44
588.469	42.06
588.807	42.1
589.145	42.08
589.483	42.45
589.821	42.32
590.159	42.34
590.497	42.67
590.835	42.41
591.173	42.59
591.511	42.31
591.849	42.63
592.187	42.4
592.524	42.45
592.862	42.94
593.2	42.47
593.537	42.77
593.875	42.6
594.212	42.86
594.55	43
594.887	43.14
595.224	43.17
595.561	42.64
595.899	42.89
596.236	43.28
596.573	42.99
596.91	42.96
597.247	42.99
597.584	42.97
597.921	42.86
598.258	43.08
598.594	42.94
598.931	42.73
599.268	42.73
599.604	43
599.941	43.15
600.277	43.16
600.614	43.62
600.95	43.67
601.287	43.83
601.623	43.8
601.959	43.72
602.296	43.95
602.632	44.01
602.968	43.93
603.304	44.05
603.64	43.63
603.976	43.83
604.312	43.96
604.648	44.26
604.984	43.73
605.319	44.04
605.655	43.85
605.991	43.62
606.326	43.68
606.662	43.55
606.998	43.62
607.333	43.83
607.668	43.95
608.004	44.06
608.339	44.08
608.674	44.24
609.01	44.6
609.345	44.61
609.68	44.75
610.015	44.8
610.35	44.96
610.685	44.77
611.02	44.54
611.355	44.86
611.689	44.28
612.024	44.56
612.359	44.69
612.694	44.99
613.028	44.69
613.363	45
613.697	45.23
614.032	45.45
614.366	45.18
614.7	45.22
615.035	45.44
615.369	45.59
615.703	45.17
616.037	45.08
616.371	45.62
616.705	45.47
617.039	45.46
617.373	44.95
617.707	45.4
618.041	45.95
618.375	45.96
618.709	45.86
619.042	45.65
619.376	45.6
619.71	45.74
620.043	45.7
620.377	46.04
620.71	45.82
621.043	46.14
621.377	46.07
621.71	46.26
622.043	45.84
622.376	45.93
622.709	46.33
623.043	46.69
623.376	46.55
623.709	46.64
624.041	46.68
624.374	46.34
624.707	46.19
625.04	46.51
625.373	46.67
625.705	46.17
626.038	46.62
626.37	46.64
626.703	46.78
627.035	46.85
627.368	46.93
627.7	46.76
628.032	46.78
628.365	46.59
628.697	46.85
629.029	46.56
629.361	46.48
629.693	46.67
630.025	46.65
630.357	46.87
630.689	46.84
631.021	47.05
631.353	47.07
631.684	47.12
632.016	46.73
632.348	47.07
632.679	47.29
633.011	47.15
633.342	46.78
633.674	47.32
634.005	47.45
634.336	46.99
634.668	47.48
634.999	47.23
635.33	47.06
635.661	47.32
635.992	47.62
636.323	47.5
636.654	47.27
636.985	47.65
637.316	47.87
637.647	47.78
637.977	47.32
638.308	47.96
638.639	47.81
638.969	48.22
639.3	47.98
639.63	47.61
639.961	47.62
640.291	48.07
640.622	47.91
640.952	47.61
641.282	47.98
641.612	47.89
641.943	48.13
642.273	48
642.603	48.25
642.933	47.8
643.263	48.34
643.592	48.51
643.922	48.97
644.252	48.15
644.582	48.14
644.911	48.5
645.241	48.41
645.571	48.29
645.9	48.08
646.23	48.46
646.559	48.48
646.888	49.01
647.218	48.44
647.547	48.94
647.876	48.63
648.205	48.78
648.534	49.3
648.863	49.2
649.192	48.7
649.521	48.9
649.85	48.83
650.179	48.97
650.508	49.49
650.837	48.96
651.165	49.23
651.494	49.04
651.822	48.25
652.151	49.03
652.479	49.32
652.808	49.14
653.136	49.25
653.465	49.45
653.793	49.11
654.121	49.18
654.449	49.3
654.777	49.37
655.105	49.28
655.433	48.83
655.761	49.32
656.089	49.76
656.417	49.32
656.745	49.49
657.073	49.37
657.4	49.27
657.728	49.55
658.056	49.73
658.383	49.37
658.711	50.01
659.038	49.7
659.365	49.66
659.693	49.57
660.02	49.15
660.347	49.39
660.674	49.94
661.001	49.67
661.329	49.87
661.656	49.38
661.982	49.59
662.309	50.21
662.636	50.19
662.963	49.98
663.29	49.78
663.616	49.87
663.943	50.51
664.27	50.27
664.596	50.48
664.923	50.11
665.249	50.39
665.576	50.75
665.902	50.34
666.228	50.26
666.554	50.06
666.881	50.2
667.207	50.62
667.533	50.78
667.859	50.29
668.185	50.51
668.511	50.74
668.837	50.44
669.162	50.62
669.488	50.42
669.814	51.16
670.139	50.72
