Data from 0143_crown_Reflection__1__209.txt Node

Date: Mon Aug 28 20:26:03 CDT 2023
User: ToomeyLab
Spectrometer: FLMS14357
Trigger mode: 0
Integration Time (sec): 1.000000E-2
Scans to average: 100
Electric dark correction enabled: true
Nonlinearity correction enabled: false
Boxcar width: 0
XAxis mode: Wavelengths
Number of Pixels in Spectrum: 2048
>>>>>Begin Spectral Data<<<<<
189.047	-1418.72
189.435	-1418.72
189.823	-1418.72
190.211	104.32
190.599	47.51
190.987	-41.31
191.375	-158.8
191.763	202.71
192.151	96.36
192.538	101.52
192.926	-3.52
193.314	24.35
193.702	31.31
194.089	58.09
194.477	-406.8
194.864	-65.8
195.252	-401.98
195.639	2.83
196.027	74.27
196.414	52.44
196.801	-698.36
197.189	-55.72
197.576	91.52
197.963	73.95
198.351	-0.26
198.738	16.82
199.125	14.22
199.512	10.2
199.899	32.51
200.286	30.23
200.673	-11.11
201.06	4.37
201.447	-46.37
201.833	4.91
202.22	0.5
202.607	-22.92
202.994	53.13
203.38	21.43
203.767	1.21
204.154	-24.95
204.54	-11.19
204.927	-0.07
205.313	23.54
205.699	-33.44
206.086	11.7
206.472	21.04
206.858	-26.82
207.245	6.82
207.631	31.64
208.017	28.32
208.403	16.5
208.789	35.06
209.175	-34.01
209.561	-18.17
209.947	7.33
210.333	-23.62
210.719	12.23
211.105	50.93
211.491	17.43
211.876	15.87
212.262	20.96
212.648	17.55
213.034	8.32
213.419	2.35
213.805	11.95
214.19	5.62
214.576	29.29
214.961	-23.14
215.346	-1.56
215.732	16.23
216.117	-10.02
216.502	40.14
216.888	-43.49
217.273	-29.27
217.658	29.36
218.043	-6.75
218.428	-24.43
218.813	0.41
219.198	15.76
219.583	11.48
219.968	26.81
220.353	-25.85
220.738	6.71
221.122	23.42
221.507	4.8
221.892	7.31
222.276	11.69
222.661	29.45
223.046	-2.13
223.43	12.97
223.815	19.15
224.199	12.21
224.583	14.37
224.968	19.2
225.352	18.32
225.736	11.45
226.121	13.95
226.505	7.68
226.889	11.54
227.273	10.18
227.657	5.05
228.041	15.84
228.425	10.44
228.809	8.87
229.193	8.91
229.577	13.84
229.961	8.82
230.344	9.72
230.728	9.29
231.112	8.61
231.495	9.61
231.879	8.88
232.263	9.63
232.646	8.38
233.03	9.6
233.413	11.8
233.797	9.49
234.18	11.34
234.563	7.07
234.946	9.11
235.33	8.07
235.713	7.31
236.096	10.01
236.479	9.52
236.862	9.44
237.245	9.14
237.628	11.12
238.011	11.38
238.394	9.78
238.777	8.4
239.16	6.81
239.543	6.67
239.925	9.45
240.308	7.64
240.691	8.12
241.073	9.17
241.456	10.53
241.838	7.27
242.221	8.62
242.603	9.81
242.986	8.26
243.368	9.23
243.75	8.42
244.133	8.45
244.515	8
244.897	8.82
245.279	8.69
245.661	7.71
246.043	8.87
246.425	8.19
246.807	9.27
247.189	8.14
247.571	8.29
247.953	8.84
248.335	7.85
248.717	8.03
249.098	8.02
249.48	8.11
249.862	8.29
250.243	7.87
250.625	8.35
251.006	7.78
251.388	8.3
251.769	7.77
252.151	7.24
252.532	7.28
252.913	8.37
253.295	6.69
253.676	7.5
254.057	7.73
254.438	7.18
254.819	6.85
255.2	7.16
255.581	8.25
255.962	8.27
256.343	8.19
256.724	7.47
257.105	8.42
257.486	7.84
257.867	7.56
258.247	6.36
258.628	8.19
259.009	6.84
259.389	6.5
259.77	7.15
260.15	6.79
260.531	7.1
260.911	7.27
261.292	7.83
261.672	7.08
262.052	6.81
262.432	6.95
262.813	7.39
263.193	7.17
263.573	7.11
263.953	7.27
264.333	6.75
264.713	6.43
265.093	7.58
265.473	6.98
265.853	7.05
266.233	6.36
266.612	7.98
266.992	7
267.372	6.84
267.752	6.53
268.131	6.9
268.511	6.84
268.89	7.29
269.27	6.91
269.649	6.28
270.029	6.95
270.408	7.18
270.787	6.7
271.167	6.8
271.546	7.35
271.925	7.3
272.304	7.1
272.683	6.94
273.062	6.38
273.441	7.13
273.82	6.53
274.199	6.2
274.578	6.63
274.957	6.87
275.336	6.91
275.715	6.55
276.093	6.39
276.472	6.03
276.851	6.73
277.229	6.71
277.608	6.3
277.986	6.67
278.365	6.4
278.743	6.32
279.122	6.28
279.5	5.77
279.878	6.22
280.257	5.65
280.635	6.43
281.013	6.59
281.391	6.36
281.769	5.93
282.147	6.29
282.525	6.64
282.903	6.55
283.281	6.41
283.659	7.06
284.037	6.93
284.415	5.86
284.792	6.29
285.17	6.11
285.548	5.91
285.925	6.71
286.303	5.72
286.68	6.25
287.058	6.35
287.435	5.85
287.813	5.95
288.19	6.25
288.567	6.07
288.945	6.18
289.322	6.09
289.699	6.16
290.076	6.51
290.453	6.19
290.83	5.01
291.207	5.93
291.584	6.03
291.961	6.75
292.338	5.84
292.715	5.59
293.092	5.82
293.469	5.89
293.845	5.92
294.222	5.47
294.599	5.56
294.975	5.85
295.352	5.64
295.728	5.52
296.105	5.73
296.481	5.83
296.858	6.05
297.234	5.86
297.61	6.06
297.986	5.57
298.363	5.97
298.739	5.69
299.115	5.8
299.491	6.1
299.867	6.06
300.243	5.8
300.619	5.84
300.995	6.39
301.371	5.6
301.746	5.84
302.122	5.76
302.498	5.66
302.874	6
303.249	5.52
303.625	6.1
304	6.12
304.376	5.56
304.751	5.5
305.127	5.58
305.502	5.99
305.878	5.21
306.253	5.33
306.628	5.03
307.003	6.04
307.378	5.93
307.754	6.09
308.129	5.48
308.504	5.7
308.879	5.58
309.254	5.59
309.629	5.24
310.003	5.78
310.378	5.18
310.753	5.49
311.128	5.41
311.502	5.64
311.877	5.36
312.252	5.73
312.626	5.41
313.001	5.69
313.375	5.62
313.75	4.96
314.124	5.49
314.498	5.8
314.873	5.83
315.247	5.72
315.621	5.54
315.995	6.09
316.369	5.36
316.743	5.27
317.117	5.89
317.491	4.63
317.865	4.91
318.239	5.53
318.613	5.44
318.987	5.74
319.361	5.38
319.734	5.58
320.108	5.24
320.482	6.04
320.855	5.29
321.229	5.27
321.602	5.68
321.976	4.79
322.349	5.35
322.723	5.21
323.096	5.61
323.469	5.15
323.843	5.22
324.216	5.32
324.589	5.76
324.962	5.45
325.335	5.27
325.708	5.12
326.081	5.28
326.454	5.38
326.827	5.53
327.2	4.9
327.573	6.16
327.945	5.85
328.318	5.92
328.691	5.49
329.063	4.93
329.436	4.97
329.809	5.39
330.181	5.4
330.553	5.62
330.926	5.23
331.298	5.8
331.671	5.48
332.043	5.64
332.415	6.13
332.787	5.29
333.159	5.48
333.532	6.03
333.904	5.42
334.276	5.4
334.648	5.45
335.02	5.66
335.391	5.14
335.763	5.54
336.135	5.95
336.507	5.33
336.879	5.21
337.25	6.4
337.622	5.39
337.993	5.46
338.365	5.42
338.736	6.18
339.108	5.26
339.479	4.74
339.851	5.83
340.222	6.04
340.593	5.44
340.964	5.41
341.336	5.13
341.707	5.59
342.078	5.31
342.449	5.48
342.82	5.68
343.191	5.88
343.562	5.35
343.933	5.57
344.303	5.73
344.674	5.62
345.045	5.47
345.416	5.55
345.786	6.05
346.157	5.6
346.527	5.4
346.898	5.58
347.268	5.67
347.639	5.43
348.009	5.56
348.38	5.78
348.75	5.58
349.12	5.7
349.49	5.62
349.861	5.51
350.231	5.21
350.601	5.96
350.971	5.96
351.341	5.29
351.711	5.61
352.081	5.78
352.45	5.87
352.82	6.14
353.19	6.51
353.56	6.07
353.929	5.65
354.299	5.39
354.669	6.11
355.038	5.85
355.408	5.96
355.777	5.29
356.147	5.71
356.516	5.86
356.885	5.99
357.254	6.06
357.624	5.55
357.993	5.92
358.362	5.7
358.731	6.09
359.1	6.05
359.469	5.74
359.838	5.43
360.207	5.61
360.576	6.18
360.945	6.12
361.314	5.62
361.682	5.58
362.051	6.25
362.42	6.14
362.788	5.67
363.157	6.16
363.525	5.96
363.894	5.87
364.262	6.1
364.631	5.89
364.999	5.82
365.367	6.08
365.735	5.84
366.104	5.48
366.472	6.23
366.84	5.83
367.208	6.05
367.576	5.81
367.944	6.05
368.312	6.11
368.68	6.11
369.048	6.03
369.416	5.86
369.783	5.88
370.151	6.09
370.519	6.25
370.886	6.19
371.254	5.9
371.621	6.01
371.989	6.14
372.356	6.17
372.724	6.62
373.091	6.07
373.458	6.16
373.826	6.22
374.193	6.06
374.56	6.23
374.927	5.78
375.294	5.94
375.661	6.28
376.028	6.4
376.395	5.86
376.762	6.28
377.129	6.09
377.496	6.12
377.863	6.52
378.229	6.14
378.596	6.42
378.963	6.41
379.329	5.93
379.696	6.14
380.062	6.1
380.429	6.15
380.795	6.26
381.161	6.26
381.528	6.31
381.894	6.11
382.26	6.19
382.626	6.37
382.993	6.41
383.359	6.41
383.725	6.22
384.091	6.23
384.457	6.36
384.823	6.51
385.188	6.3
385.554	6.15
385.92	5.99
386.286	6.6
386.651	6.24
387.017	6.33
387.383	6.29
387.748	6.44
388.114	6.26
388.479	6.44
388.845	6.14
389.21	6.14
389.575	6.54
389.94	6.53
390.306	6.48
390.671	6.32
391.036	6.28
391.401	6.89
391.766	6.66
392.131	6.38
392.496	6.15
392.861	6.15
393.226	6.4
393.591	6.34
393.956	6.43
394.32	6.12
394.685	6.45
395.05	6.5
395.414	6.52
395.779	6.36
396.143	6.39
396.508	6.08
396.872	6.24
397.236	6.39
397.601	6.41
397.965	6.41
398.329	6.24
398.694	6.57
399.058	6.32
399.422	6.61
399.786	6.55
400.15	6.5
400.514	6.82
400.878	6.57
401.242	6.34
401.605	6.64
401.969	6.26
402.333	6.37
402.697	6.46
403.06	6.78
403.424	6.75
403.787	6.3
404.151	6.44
404.514	6.35
404.878	6.48
405.241	6.63
405.604	6.64
405.968	6.3
406.331	6.75
406.694	6.36
407.057	6.49
407.42	6.41
407.783	6.43
408.146	6.48
408.509	6.45
408.872	6.33
409.235	6.28
409.598	6.64
409.961	6.43
410.323	6.89
410.686	6.84
411.049	6.74
411.411	6.59
411.774	6.65
412.136	6.51
412.499	6.48
412.861	6.5
413.223	6.5
413.586	6.39
413.948	6.65
414.31	6.44
414.672	6.47
415.035	6.55
415.397	6.59
415.759	6.54
416.121	6.73
416.483	6.53
416.845	6.78
417.206	6.83
417.568	6.44
417.93	6.34
418.292	6.6
418.653	6.43
419.015	6.49
419.377	6.46
419.738	6.77
420.1	6.43
420.461	6.59
420.822	6.61
421.184	6.59
421.545	6.54
421.906	6.49
422.267	6.44
422.629	6.32
422.99	6.37
423.351	6.49
423.712	6.32
424.073	6.47
424.434	6.53
424.795	6.45
425.155	6.46
425.516	6.5
425.877	6.41
426.238	6.37
426.598	6.31
426.959	6.4
427.32	6.47
427.68	6.47
428.041	6.42
428.401	6.61
428.761	6.39
429.122	6.58
429.482	6.52
429.842	6.67
430.202	6.41
430.563	6.54
430.923	6.75
431.283	6.56
431.643	6.44
432.003	6.38
432.363	6.58
432.722	6.57
433.082	6.62
433.442	6.57
433.802	6.63
434.161	6.56
434.521	6.64
434.881	6.6
435.24	6.6
435.6	6.58
435.959	6.64
436.319	6.64
436.678	6.6
437.037	6.49
437.396	6.64
437.756	6.46
438.115	6.67
438.474	6.86
438.833	6.56
439.192	6.67
439.551	6.57
439.91	6.65
440.269	6.54
440.628	6.5
440.987	6.57
441.345	6.4
441.704	6.69
442.063	6.56
442.421	6.48
442.78	6.63
443.138	6.56
443.497	6.52
443.855	6.63
444.214	6.64
444.572	6.56
444.93	6.5
445.288	6.41
445.647	6.69
446.005	6.55
446.363	6.62
446.721	6.5
447.079	6.53
447.437	6.36
447.795	6.47
448.153	6.46
448.51	6.36
448.868	6.48
449.226	6.44
449.584	6.42
449.941	6.45
450.299	6.46
450.656	6.5
451.014	6.44
451.371	6.53
451.729	6.42
452.086	6.5
452.443	6.65
452.801	6.64
453.158	6.45
453.515	6.59
453.872	6.43
454.229	6.62
454.586	6.54
454.943	6.52
455.3	6.52
455.657	6.67
456.014	6.56
456.371	6.39
456.727	6.72
457.084	6.55
457.441	6.66
457.797	6.42
458.154	6.64
458.51	6.81
458.867	6.53
459.223	6.58
459.58	6.55
459.936	6.7
460.292	6.57
460.648	6.37
461.005	6.46
461.361	6.54
461.717	6.48
462.073	6.49
462.429	6.43
462.785	6.43
463.141	6.42
463.496	6.55
463.852	6.56
464.208	6.63
464.564	6.46
464.919	6.58
465.275	6.64
465.631	6.58
465.986	6.73
466.342	6.66
466.697	6.48
467.052	6.47
467.408	6.61
467.763	6.37
468.118	6.47
468.473	6.47
468.829	6.61
469.184	6.38
469.539	6.58
469.894	6.43
470.249	6.5
470.603	6.49
470.958	6.48
471.313	6.52
471.668	6.36
472.023	6.65
472.377	6.45
472.732	6.47
473.086	6.57
473.441	6.59
473.795	6.52
474.15	6.78
474.504	6.46
474.859	6.42
475.213	6.57
475.567	6.49
475.921	6.6
476.275	6.54
476.63	6.64
476.984	6.56
477.338	6.58
477.692	6.53
478.045	6.56
478.399	6.64
478.753	6.42
479.107	6.49
479.461	6.49
479.814	6.65
480.168	6.55
480.521	6.52
480.875	6.5
481.228	6.56
481.582	6.5
481.935	6.38
482.289	6.45
482.642	6.52
482.995	6.61
483.348	6.49
483.701	6.4
484.055	6.42
484.408	6.34
484.761	6.31
485.114	6.24
485.466	6.18
485.819	6.12
486.172	6.03
486.525	6.06
486.878	6.13
487.23	6.12
487.583	6.15
487.936	6.24
488.288	6.24
488.641	6.28
488.993	6.24
489.345	6.18
489.698	6.19
490.05	6.17
490.402	6.13
490.754	6.16
491.107	6.19
491.459	6.19
491.811	6.28
492.163	6.3
492.515	6.36
492.866	6.32
493.218	6.3
493.57	6.17
493.922	6.13
494.274	6.17
494.625	6.13
494.977	6.25
495.328	6.3
495.68	6.29
496.031	6.31
496.383	6.35
496.734	6.34
497.086	6.56
497.437	6.45
497.788	6.35
498.139	6.42
498.49	6.26
498.842	6.43
499.193	6.37
499.544	6.41
499.894	6.25
500.245	6.22
500.596	6.33
500.947	6.18
501.298	6.45
501.648	6.25
501.999	6.4
502.35	6.4
502.7	6.44
503.051	6.55
503.401	6.47
503.752	6.32
504.102	6.37
504.452	6.52
504.803	6.57
505.153	6.26
505.503	6.38
505.853	6.38
506.203	6.51
506.553	6.32
506.903	6.47
507.253	6.38
507.603	6.38
507.953	6.42
508.303	6.29
508.652	6.35
509.002	6.54
509.352	6.24
509.701	6.15
510.051	6.38
510.4	6.3
510.75	6.37
511.099	6.37
511.449	6.28
511.798	6.3
512.147	6.33
512.496	6.28
512.846	6.29
513.195	6.31
513.544	6.37
513.893	6.26
514.242	6.12
514.591	6.39
514.939	6.14
515.288	6.26
515.637	6.33
515.986	6.24
516.334	6.39
516.683	6.29
517.032	6.31
517.38	6.39
517.729	6.26
518.077	6.46
518.426	6.06
518.774	6.34
519.122	6.29
519.47	6.22
519.819	6.19
520.167	6.17
520.515	6.21
520.863	6.11
521.211	6.09
521.559	6.22
521.907	6.2
522.255	6.06
522.602	6.18
522.95	6.23
523.298	6.37
523.645	6.2
523.993	6.22
524.341	6.34
524.688	6.3
525.036	6.23
525.383	6.24
525.73	6.25
526.078	6.41
526.425	6.3
526.772	6.16
527.119	6.23
527.466	6.06
527.814	6.07
528.161	6.02
528.508	6.13
528.854	6.12
529.201	6.15
529.548	6.07
529.895	6.02
530.242	5.99
530.588	5.96
530.935	5.88
531.282	5.96
531.628	5.95
531.975	5.92
532.321	5.92
532.667	5.97
533.014	6.11
533.36	6.09
533.706	6.19
534.052	6.08
534.399	6.06
534.745	6.17
535.091	6.01
535.437	5.94
535.783	5.97
536.129	5.97
536.474	5.95
536.82	6.07
537.166	6.01
537.512	6.1
537.857	6.05
538.203	6.09
538.549	6
538.894	6.03
539.239	6.05
539.585	6.02
539.93	6
540.276	5.97
540.621	6.15
540.966	6.01
541.311	6.22
541.656	6.15
542.001	6.23
542.346	6.08
542.691	6.02
543.036	5.99
543.381	5.97
543.726	5.88
544.071	5.94
544.415	5.89
544.76	5.92
545.105	6.03
545.449	5.84
545.794	5.98
546.138	5.99
546.483	6.02
546.827	6.04
547.171	6.01
547.516	6.05
547.86	5.99
548.204	6.13
548.548	6.09
548.892	5.87
549.236	6.01
549.58	5.95
549.924	6.04
550.268	6.2
550.612	5.95
550.956	6.08
551.3	6.23
551.643	6.12
551.987	6.05
552.33	6.17
552.674	6.15
553.017	6.01
553.361	6.12
553.704	6.01
554.048	6.05
554.391	5.99
554.734	6.06
555.077	6.12
555.42	6
555.764	6.17
556.107	5.91
556.45	5.93
556.793	5.88
557.135	6.07
557.478	5.87
557.821	6.2
558.164	6.36
558.507	5.96
558.849	6.05
559.192	6.09
559.534	5.91
559.877	6.1
560.219	6.09
560.562	6.06
560.904	6.3
561.246	5.91
561.589	5.9
561.931	6.02
562.273	6
562.615	5.9
562.957	6.03
563.299	6.13
563.641	5.93
563.983	5.95
564.325	6.14
564.667	6.01
565.008	6.01
565.35	6.24
565.692	5.91
566.033	5.98
566.375	6.09
566.716	5.95
567.058	5.91
567.399	5.73
567.741	5.96
568.082	5.93
568.423	5.94
568.764	5.92
569.105	6.09
569.447	6.2
569.788	5.82
570.129	5.85
570.47	5.99
570.811	5.92
571.151	5.91
571.492	5.9
571.833	5.82
572.174	6.11
572.514	5.76
572.855	5.76
573.195	6.05
573.536	5.98
573.876	5.79
574.217	5.81
574.557	5.95
574.898	5.87
575.238	5.91
575.578	5.86
575.918	5.84
576.258	5.92
576.598	5.81
576.938	5.77
577.278	5.82
577.618	5.81
577.958	5.82
578.298	5.99
578.638	5.83
578.977	5.9
579.317	5.68
579.657	5.74
579.996	5.82
580.336	5.67
580.675	5.83
581.014	5.81
581.354	5.82
581.693	5.82
582.032	6
582.372	5.85
582.711	5.94
583.05	5.66
583.389	5.88
583.728	5.81
584.067	5.89
584.406	5.64
584.745	5.77
585.083	5.74
585.422	5.6
585.761	5.82
586.1	5.92
586.438	5.58
586.777	5.65
587.115	5.92
587.454	5.85
587.792	5.83
588.13	5.75
588.469	5.93
588.807	5.65
589.145	5.64
589.483	5.68
589.821	5.58
590.159	5.84
590.497	5.78
590.835	5.79
591.173	5.57
591.511	5.58
591.849	5.69
592.187	5.71
592.524	5.95
592.862	5.79
593.2	5.65
593.537	5.69
593.875	6.12
594.212	6.01
594.55	5.8
594.887	5.58
595.224	5.7
595.561	5.66
595.899	5.63
596.236	5.8
596.573	5.65
596.91	5.61
597.247	5.98
597.584	5.64
597.921	5.72
598.258	5.64
598.594	5.52
598.931	5.61
599.268	5.69
599.604	5.66
599.941	5.53
600.277	5.57
600.614	5.55
600.95	5.59
601.287	5.65
601.623	5.72
601.959	5.5
602.296	5.4
602.632	5.47
602.968	5.62
603.304	5.58
603.64	5.59
603.976	5.6
604.312	5.81
604.648	5.58
604.984	5.49
605.319	5.68
605.655	5.61
605.991	5.55
606.326	5.67
606.662	5.75
606.998	5.67
607.333	5.44
607.668	5.53
608.004	5.45
608.339	5.55
608.674	5.61
609.01	5.59
609.345	5.7
609.68	5.41
610.015	5.58
610.35	5.67
610.685	5.59
611.02	5.43
611.355	5.83
611.689	5.39
612.024	5.71
612.359	5.4
612.694	5.59
613.028	5.48
613.363	5.52
613.697	5.33
614.032	5.36
614.366	5.34
614.7	5.26
615.035	5.53
615.369	5.58
615.703	5.18
616.037	5.13
616.371	5.36
616.705	5.51
617.039	5.44
617.373	5.42
617.707	5.41
618.041	5.34
618.375	5.21
618.709	5.42
619.042	5.57
619.376	5.61
619.71	5.41
620.043	5.64
620.377	5.88
620.71	5.47
621.043	5.6
621.377	5.69
621.71	5.57
622.043	5.26
622.376	5.35
622.709	5.37
623.043	5.86
623.376	5.8
623.709	5.85
624.041	5.57
624.374	5.38
624.707	5.4
625.04	5.32
625.373	5.45
625.705	5.47
626.038	5.73
626.37	5.27
626.703	5.72
627.035	5.48
627.368	5.76
627.7	5.61
628.032	5.36
628.365	5.15
628.697	5.47
629.029	5.5
629.361	5.34
629.693	5.45
630.025	5.4
630.357	5.34
630.689	5.53
631.021	5.49
631.353	5.18
631.684	5.49
632.016	5.3
632.348	5.54
632.679	5.4
633.011	5.37
633.342	5.41
633.674	5.49
634.005	5.48
634.336	5.22
634.668	5.81
634.999	5.14
635.33	5.57
635.661	5.6
635.992	5.3
636.323	5.72
636.654	5.1
636.985	5.2
637.316	5.54
637.647	5.67
637.977	5.19
638.308	5.59
638.639	5.21
638.969	5.37
639.3	5.15
639.63	5.36
639.961	5.35
640.291	5.47
640.622	5.38
640.952	4.84
641.282	5.3
641.612	5.29
641.943	5.35
642.273	5.63
642.603	4.85
642.933	4.82
643.263	5.43
643.592	5.05
643.922	5.3
644.252	5.36
644.582	4.93
644.911	5.25
645.241	5.23
645.571	5.3
645.9	4.96
646.23	5.57
646.559	5.27
646.888	5.16
647.218	5.06
647.547	5.46
647.876	5.56
648.205	5.44
648.534	5.59
648.863	4.98
649.192	5.65
649.521	5.51
649.85	5.38
650.179	5.59
650.508	5.37
650.837	5.07
651.165	5.34
651.494	5.35
651.822	5.14
652.151	5.23
652.479	5.78
652.808	5.04
653.136	4.96
653.465	5.23
653.793	5.46
654.121	5.34
654.449	5.23
654.777	5.36
655.105	5.16
655.433	5.36
655.761	5.24
656.089	4.98
656.417	4.95
656.745	5.78
657.073	5.06
657.4	5.23
657.728	5.83
658.056	5.52
658.383	5.15
658.711	5.39
659.038	5.16
659.365	5.22
659.693	4.77
660.02	5.34
660.347	5.22
660.674	5.22
661.001	5.84
661.329	4.99
661.656	4.95
661.982	5.27
662.309	5.35
662.636	4.92
662.963	5.59
663.29	5.22
663.616	5.05
663.943	5.37
664.27	5.45
664.596	5.1
664.923	5.54
665.249	5.5
665.576	5.26
665.902	5.19
666.228	5.23
666.554	4.77
666.881	4.88
667.207	5.04
667.533	5.74
667.859	4.51
668.185	5.4
668.511	5.39
668.837	4.85
669.162	5.93
669.488	5.41
669.814	5.37
670.139	5.53
670.465	5.62
670.791	5.57
671.116	5.28
671.442	5.3
671.767	4.58
672.092	5.01
672.418	5.3
672.743	5.7
673.068	5.21
673.393	5.12
673.718	4.34
674.043	4.96
674.368	4.93
674.693	5.39
675.018	5.82
675.343	4.91
675.667	5.21
675.992	5.35
676.317	5.09
676.641	4.96
676.966	5.45
677.29	5.15
677.615	5.84
677.939	5.11
678.264	5.16
678.588	4.77
678.912	5.36
679.236	5.15
679.56	5.37
679.885	5.3
680.209	5.31
680.532	5.33
680.856	4.94
681.18	5.31
681.504	4.89
681.828	5.7
682.152	5.57
682.475	5.77
682.799	5.36
683.122	5.26
683.446	5.06
683.769	5.32
684.093	5.51
684.416	5.35
684.739	5.02
685.062	5.43
685.386	4.63
685.709	5.74
686.032	4.77
686.355	5.75
686.678	5.43
687.001	5.17
687.324	5.79
687.646	5.43
687.969	4.9
688.292	5.24
688.614	5.86
688.937	4.92
689.26	5.18
689.582	5.07
689.904	5.26
690.227	5.91
690.549	5.15
690.871	5.51
691.194	5.38
691.516	5.23
691.838	5.34
692.16	5.26
