Data from 0143_chest_Reflection__4__202.txt Node

Date: Mon Aug 28 20:23:16 CDT 2023
User: ToomeyLab
Spectrometer: FLMS14357
Trigger mode: 0
Integration Time (sec): 1.000000E-2
Scans to average: 100
Electric dark correction enabled: true
Nonlinearity correction enabled: false
Boxcar width: 0
XAxis mode: Wavelengths
Number of Pixels in Spectrum: 2048
>>>>>Begin Spectral Data<<<<<
189.047	-1131.91
189.435	-1131.91
189.823	-1131.91
190.211	-18.02
190.599	40.57
190.987	-39.26
191.375	-266.09
191.763	129.32
192.151	-33.96
192.538	38.56
192.926	91.2
193.314	-22.57
193.702	165.6
194.089	52.85
194.477	101.46
194.864	6.29
195.252	-386.29
195.639	84.79
196.027	103.97
196.414	-16.62
196.801	-664.17
197.189	-89.06
197.576	18.06
197.963	-78.63
198.351	-13.63
198.738	23.11
199.125	-21.89
199.512	9.35
199.899	17.79
200.286	-40.4
200.673	8.95
201.06	3.71
201.447	-19.57
201.833	-77.68
202.22	5.46
202.607	4.69
202.994	-3.93
203.38	-14.17
203.767	-17.69
204.154	-12.24
204.54	-42.6
204.927	-26.5
205.313	20.9
205.699	-13.12
206.086	6.68
206.472	-6.22
206.858	-16.83
207.245	25.21
207.631	20.04
208.017	-2.78
208.403	-12.01
208.789	20.51
209.175	-19.79
209.561	35.91
209.947	-13.15
210.333	-10.19
210.719	6.04
211.105	17.53
211.491	38.1
211.876	31.95
212.262	-13.87
212.648	11.74
213.034	-2.91
213.419	-1.64
213.805	16.11
214.19	2.74
214.576	30.46
214.961	-4.12
215.346	23.66
215.732	14.66
216.117	-51.45
216.502	-8.79
216.888	-23.99
217.273	-24.24
217.658	-2.65
218.043	5.25
218.428	-4.58
218.813	-18.97
219.198	1.17
219.583	-7.17
219.968	9.23
220.353	-0.41
220.738	6.35
221.122	9.2
221.507	5.64
221.892	19.83
222.276	-6.66
222.661	-21.37
223.046	1.53
223.43	1.48
223.815	17.71
224.199	6.8
224.583	1.25
224.968	-2.02
225.352	11.96
225.736	1.47
226.121	-6.72
226.505	6.98
226.889	10.47
227.273	3.75
227.657	9.56
228.041	3.95
228.425	8.8
228.809	3.6
229.193	2.6
229.577	8.34
229.961	5.93
230.344	5.73
230.728	5.79
231.112	4.79
231.495	5.92
231.879	4.97
232.263	4.84
232.646	4.21
233.03	5.64
233.413	7.4
233.797	4.26
234.18	5.48
234.563	4.02
234.946	8.25
235.33	5.19
235.713	3.34
236.096	8.56
236.479	4.85
236.862	4.99
237.245	4.87
237.628	7.07
238.011	7.02
238.394	6.71
238.777	6.96
239.16	3.42
239.543	2.58
239.925	6.46
240.308	5.05
240.691	5.05
241.073	4.64
241.456	5.61
241.838	5.31
242.221	6.91
242.603	6.48
242.986	6.07
243.368	5.58
243.75	5.37
244.133	5.32
244.515	5.26
244.897	6.29
245.279	6.04
245.661	5.69
246.043	5.96
246.425	5.2
246.807	6.03
247.189	5.16
247.571	5.56
247.953	5.24
248.335	5.41
248.717	5.78
249.098	5.73
249.48	5.55
249.862	5.51
250.243	5.63
250.625	5.49
251.006	5.75
251.388	5.72
251.769	6.1
252.151	4.8
252.532	4.4
252.913	5.62
253.295	4.35
253.676	5.01
254.057	5.3
254.438	5.21
254.819	5.55
255.2	5.12
255.581	5.41
255.962	5.47
256.343	6.53
256.724	4.79
257.105	6.25
257.486	5.55
257.867	5.83
258.247	6.5
258.628	6.75
259.009	5.41
259.389	4.66
259.77	5.61
260.15	4.6
260.531	4.85
260.911	5.04
261.292	5.26
261.672	5.09
262.052	4.9
262.432	5.08
262.813	5.39
263.193	5.3
263.573	4.37
263.953	5.05
264.333	4.71
264.713	5.42
265.093	5.81
265.473	5.18
265.853	4.66
266.233	5.14
266.612	5.49
266.992	4.8
267.372	4.66
267.752	5.56
268.131	5.39
268.511	4.46
268.89	5.31
269.27	4.55
269.649	4.5
270.029	5.31
270.408	5.48
270.787	5.88
271.167	4.65
271.546	4.26
271.925	4.27
272.304	4.74
272.683	5.05
273.062	4.51
273.441	5.21
273.82	4.84
274.199	4.53
274.578	4.91
274.957	5.11
275.336	5.13
275.715	5.58
276.093	4.67
276.472	4.06
276.851	4.32
277.229	5.02
277.608	4.2
277.986	5.05
278.365	4.93
278.743	5.28
279.122	4.56
279.5	4.24
279.878	4.55
280.257	4.94
280.635	4.73
281.013	4.78
281.391	4.43
281.769	4.35
282.147	5.02
282.525	4.66
282.903	4.99
283.281	4.67
283.659	4.88
284.037	4.58
284.415	4.54
284.792	5.47
285.17	5.1
285.548	4.62
285.925	5.07
286.303	4.84
286.68	5.17
287.058	4.84
287.435	4.68
287.813	4.65
288.19	5.1
288.567	4.76
288.945	5.07
289.322	4.97
289.699	5.11
290.076	5.5
290.453	4.9
290.83	3.94
291.207	4.34
291.584	4.84
291.961	5.12
292.338	4.77
292.715	4.62
293.092	5.27
293.469	5.1
293.845	4.54
294.222	4.66
294.599	4.76
294.975	5.09
295.352	4.77
295.728	5.01
296.105	4.88
296.481	4.99
296.858	5.28
297.234	5.18
297.61	5.16
297.986	5.12
298.363	5.62
298.739	5.09
299.115	4.93
299.491	5.17
299.867	4.78
300.243	5.41
300.619	5.26
300.995	5.46
301.371	4.7
301.746	5.44
302.122	4.76
302.498	4.58
302.874	4.81
303.249	5.09
303.625	5.3
304	4.81
304.376	5.05
304.751	4.92
305.127	5.48
305.502	5.41
305.878	4.82
306.253	4.67
306.628	4.91
307.003	5.3
307.378	5.4
307.754	5.2
308.129	5.18
308.504	5.83
308.879	4.94
309.254	4.81
309.629	5.32
310.003	4.73
310.378	4.71
310.753	5.56
311.128	4.9
311.502	5.38
311.877	4.91
312.252	5.54
312.626	5.3
313.001	5.05
313.375	5.11
313.75	5.24
314.124	5.01
314.498	5.68
314.873	5.32
315.247	5.89
315.621	5.07
315.995	5.59
316.369	5.47
316.743	4.96
317.117	5.17
317.491	4.55
317.865	4.91
318.239	5.17
318.613	5.55
318.987	5.39
319.361	5.57
319.734	4.94
320.108	5.26
320.482	5.74
320.855	5.17
321.229	4.84
321.602	4.99
321.976	4.75
322.349	4.79
322.723	5.01
323.096	5.22
323.469	4.51
323.843	4.69
324.216	4.99
324.589	4.9
324.962	5.21
325.335	5.52
325.708	5.5
326.081	4.69
326.454	5.76
326.827	4.89
327.2	4.68
327.573	5.6
327.945	5.49
328.318	5.37
328.691	4.73
329.063	4.67
329.436	4.91
329.809	5.56
330.181	4.77
330.553	5
330.926	5.88
331.298	5.24
331.671	5.21
332.043	4.97
332.415	5.77
332.787	5.62
333.159	5.03
333.532	5.68
333.904	5.56
334.276	5.22
334.648	4.81
335.02	5.71
335.391	5.29
335.763	4.84
336.135	5.5
336.507	5.08
336.879	5.26
337.25	5.94
337.622	5.46
337.993	5.28
338.365	5.18
338.736	5.55
339.108	4.71
339.479	4.59
339.851	5.59
340.222	5.39
340.593	4.97
340.964	5.22
341.336	5.21
341.707	5.08
342.078	4.81
342.449	5.43
342.82	5.22
343.191	5.25
343.562	4.94
343.933	5.11
344.303	5.15
344.674	5.41
345.045	4.92
345.416	5.59
345.786	5.59
346.157	5.27
346.527	5.09
346.898	5.37
347.268	5.25
347.639	5.09
348.009	4.91
348.38	5.53
348.75	5.19
349.12	5.68
349.49	4.92
349.861	5.09
350.231	5.23
350.601	5.43
350.971	5.4
351.341	5.35
351.711	5.05
352.081	5.36
352.45	5.24
352.82	5.22
353.19	5.78
353.56	5.77
353.929	5.65
354.299	5.34
354.669	5.39
355.038	5.56
355.408	5.82
355.777	5.52
356.147	5.31
356.516	5.34
356.885	5.41
357.254	5.14
357.624	5.48
357.993	5.48
358.362	5.14
358.731	5.23
359.1	5.24
359.469	5.49
359.838	5.23
360.207	5.53
360.576	5.4
360.945	5.32
361.314	5.44
361.682	5.05
362.051	5.46
362.42	5.53
362.788	5.62
363.157	5.24
363.525	5.27
363.894	5.49
364.262	5.63
364.631	5.27
364.999	5.25
365.367	5.49
365.735	5.2
366.104	5.23
366.472	5.25
366.84	5.55
367.208	5.34
367.576	5.03
367.944	5.7
368.312	5.53
368.68	5.38
369.048	5.45
369.416	5.37
369.783	5.19
370.151	5.68
370.519	5.52
370.886	5
371.254	5.35
371.621	5.16
371.989	5.38
372.356	5.33
372.724	5.65
373.091	5.73
373.458	5.18
373.826	5.44
374.193	5.58
374.56	5.56
374.927	5.27
375.294	5.55
375.661	5.61
376.028	5.21
376.395	5.47
376.762	5.73
377.129	5.62
377.496	5.08
377.863	5.53
378.229	5.73
378.596	5.63
378.963	5.82
379.329	5.66
379.696	5.19
380.062	5.65
380.429	5.19
380.795	5.59
381.161	5.78
381.528	5.71
381.894	5.47
382.26	5.82
382.626	5.85
382.993	5.71
383.359	5.9
383.725	5.77
384.091	5.71
384.457	5.31
384.823	5.92
385.188	5.8
385.554	5.4
385.92	5.61
386.286	5.61
386.651	5.4
387.017	5.57
387.383	5.75
387.748	5.55
388.114	5.21
388.479	5.43
388.845	5.28
389.21	5.34
389.575	5.88
389.94	5.27
390.306	5.69
390.671	5.62
391.036	5.54
391.401	5.59
391.766	5.62
392.131	5.56
392.496	5.7
392.861	5.41
393.226	5.65
393.591	5.53
393.956	5.65
394.32	5.47
394.685	5.83
395.05	5.8
395.414	5.75
395.779	5.47
396.143	5.66
396.508	5.54
396.872	5.93
397.236	5.56
397.601	5.61
397.965	5.79
398.329	5.77
398.694	5.76
399.058	5.6
399.422	5.81
399.786	6.04
400.15	6.03
400.514	5.54
400.878	5.74
401.242	5.63
401.605	5.79
401.969	5.6
402.333	5.64
402.697	5.61
403.06	5.72
403.424	5.6
403.787	5.54
404.151	5.36
404.514	5.96
404.878	5.5
405.241	5.7
405.604	5.82
405.968	5.67
406.331	5.79
406.694	5.77
407.057	5.86
407.42	5.57
407.783	5.61
408.146	5.8
408.509	5.82
408.872	5.69
409.235	5.77
409.598	5.6
409.961	5.79
410.323	5.86
410.686	5.94
411.049	5.92
411.411	5.88
411.774	5.77
412.136	5.76
412.499	5.91
412.861	5.8
413.223	5.82
413.586	5.51
413.948	5.9
414.31	5.89
414.672	5.68
415.035	5.9
415.397	5.66
415.759	5.77
416.121	6.11
416.483	5.61
416.845	6.11
417.206	6.04
417.568	5.89
417.93	5.76
418.292	5.94
418.653	5.84
419.015	5.9
419.377	5.53
419.738	5.95
420.1	5.87
420.461	5.86
420.822	5.88
421.184	5.93
421.545	5.78
421.906	5.77
422.267	5.79
422.629	5.78
422.99	5.78
423.351	5.91
423.712	5.83
424.073	5.81
424.434	5.81
424.795	5.85
425.155	5.89
425.516	5.84
425.877	5.89
426.238	5.81
426.598	5.81
426.959	5.84
427.32	5.86
427.68	5.9
428.041	5.91
428.401	5.86
428.761	5.77
429.122	5.92
429.482	5.9
429.842	6.05
430.202	5.93
430.563	5.95
430.923	6.1
431.283	5.9
431.643	5.86
432.003	6.05
432.363	6.06
432.722	6.1
433.082	5.99
433.442	5.97
433.802	6.08
434.161	6.11
434.521	5.71
434.881	5.91
435.24	5.96
435.6	6.02
435.959	6.19
436.319	5.95
436.678	6.06
437.037	5.89
437.396	6.19
437.756	6.03
438.115	6.13
438.474	6.17
438.833	6.02
439.192	6.01
439.551	5.97
439.91	6.17
440.269	6.07
440.628	6.08
440.987	6.05
441.345	6.04
441.704	5.99
442.063	5.98
442.421	6.09
442.78	6.11
443.138	5.96
443.497	6.09
443.855	6
444.214	6.1
444.572	6.1
444.93	5.93
445.288	5.96
445.647	6.07
446.005	6.13
446.363	6.18
446.721	6
447.079	6.19
447.437	6.03
447.795	6.02
448.153	6.12
448.51	6.08
448.868	6.03
449.226	5.98
449.584	6.11
449.941	6.04
450.299	6.04
450.656	6.19
451.014	6.03
451.371	6
451.729	6.01
452.086	6.03
452.443	6.3
452.801	6.21
453.158	6.19
453.515	6.14
453.872	6.11
454.229	6.2
454.586	6.33
454.943	6.01
455.3	6.23
455.657	6.09
456.014	6.22
456.371	6.07
456.727	6.25
457.084	6.23
457.441	6.45
457.797	6.23
458.154	6.36
458.51	6.47
458.867	6.07
459.223	6.3
459.58	6.3
459.936	6.46
460.292	6.3
460.648	6.18
461.005	6.14
461.361	6.17
461.717	6.2
462.073	6.23
462.429	6.09
462.785	6.13
463.141	6.2
463.496	6.26
463.852	6.33
464.208	6.29
464.564	6.34
464.919	6.32
465.275	6.42
465.631	6.18
465.986	6.34
466.342	6.33
466.697	6.15
467.052	6.41
467.408	6.31
467.763	6.29
468.118	6.25
468.473	6.22
468.829	6.41
469.184	6.46
469.539	6.44
469.894	6.38
470.249	6.29
470.603	6.39
470.958	6.43
471.313	6.23
471.668	6.36
472.023	6.33
472.377	6.39
472.732	6.56
473.086	6.42
473.441	6.41
473.795	6.5
474.15	6.63
474.504	6.39
474.859	6.54
475.213	6.45
475.567	6.56
475.921	6.63
476.275	6.36
476.63	6.58
476.984	6.49
477.338	6.59
477.692	6.46
478.045	6.54
478.399	6.54
478.753	6.41
479.107	6.44
479.461	6.36
479.814	6.63
480.168	6.52
480.521	6.45
480.875	6.43
481.228	6.49
481.582	6.6
481.935	6.43
482.289	6.48
482.642	6.6
482.995	6.72
483.348	6.38
483.701	6.55
484.055	6.54
484.408	6.44
484.761	6.44
485.114	6.37
485.466	6.33
485.819	6.21
486.172	6.19
486.525	6.24
486.878	6.24
487.23	6.28
487.583	6.32
487.936	6.38
488.288	6.4
488.641	6.41
488.993	6.43
489.345	6.43
489.698	6.41
490.05	6.34
490.402	6.31
490.754	6.38
491.107	6.41
491.459	6.42
491.811	6.52
492.163	6.52
492.515	6.6
492.866	6.58
493.218	6.52
493.57	6.47
493.922	6.39
494.274	6.48
494.625	6.45
494.977	6.6
495.328	6.62
495.68	6.6
496.031	6.69
496.383	6.64
496.734	6.58
497.086	6.86
497.437	6.8
497.788	6.71
498.139	6.69
498.49	6.75
498.842	6.71
499.193	6.7
499.544	6.77
499.894	6.82
500.245	6.67
500.596	6.71
500.947	6.85
501.298	6.84
501.648	6.77
501.999	6.75
502.35	6.78
502.7	6.84
503.051	6.92
503.401	7.05
503.752	7
504.102	6.84
504.452	6.84
504.803	7.02
505.153	6.88
505.503	6.93
505.853	6.84
506.203	6.86
506.553	6.89
506.903	7.1
507.253	7.11
507.603	6.96
507.953	7
508.303	7.1
508.652	7
509.002	7.07
509.352	6.89
509.701	6.98
510.051	7
510.4	6.99
510.75	7.05
511.099	7.09
511.449	6.92
511.798	7.01
512.147	7.06
512.496	7.14
512.846	7.13
513.195	7.02
513.544	7.03
513.893	7.16
514.242	7.09
514.591	7.17
514.939	6.99
515.288	7.11
515.637	7.23
515.986	7.1
516.334	7.17
516.683	7.11
517.032	7.27
517.38	7.41
517.729	7.35
518.077	7.22
518.426	7.1
518.774	7.18
519.122	7.27
519.47	7.23
519.819	7.18
520.167	7.18
520.515	7.27
520.863	7.2
521.211	7.19
521.559	7.29
521.907	7.29
522.255	7.15
522.602	7.23
522.95	7.37
523.298	7.35
523.645	7.32
523.993	7.34
524.341	7.49
524.688	7.49
525.036	7.42
525.383	7.48
525.73	7.46
526.078	7.54
526.425	7.48
526.772	7.38
527.119	7.39
527.466	7.32
527.814	7.33
528.161	7.36
528.508	7.37
528.854	7.47
529.201	7.44
529.548	7.44
529.895	7.46
530.242	7.33
530.588	7.26
530.935	7.25
531.282	7.3
531.628	7.28
531.975	7.28
532.321	7.34
532.667	7.39
533.014	7.56
533.36	7.53
533.706	7.63
534.052	7.64
534.399	7.62
534.745	7.72
535.091	7.57
535.437	7.56
535.783	7.6
536.129	7.59
536.474	7.54
536.82	7.62
537.166	7.66
537.512	7.73
537.857	7.85
538.203	7.78
538.549	7.75
538.894	7.77
539.239	7.74
539.585	7.88
539.93	7.85
540.276	7.87
540.621	7.92
540.966	7.85
541.311	8.08
541.656	8.09
542.001	8.07
542.346	8
542.691	8.03
543.036	7.95
543.381	7.89
543.726	7.82
544.071	7.97
544.415	7.89
544.76	7.95
545.105	8.03
545.449	7.96
545.794	8.03
546.138	8.14
546.483	8.15
546.827	8.14
547.171	8.2
547.516	8.34
547.86	8.33
548.204	8.4
548.548	8.39
548.892	8.24
549.236	8.3
549.58	8.19
549.924	8.31
550.268	8.44
550.612	8.37
550.956	8.33
551.3	8.45
551.643	8.54
551.987	8.46
552.33	8.82
552.674	8.54
553.017	8.43
553.361	8.78
553.704	8.65
554.048	8.79
554.391	8.65
554.734	8.59
555.077	8.64
555.42	8.55
555.764	8.76
556.107	8.69
556.45	8.82
556.793	8.87
557.135	8.81
557.478	8.85
557.821	8.87
558.164	9.27
558.507	8.83
558.849	8.99
559.192	8.85
559.534	8.8
559.877	8.87
560.219	9.05
560.562	9.04
560.904	9.18
561.246	9.06
561.589	8.95
561.931	9.09
562.273	9.05
562.615	9.09
562.957	9.29
563.299	9.3
563.641	9.05
563.983	9.25
564.325	9.12
564.667	9
565.008	9.13
565.35	9.47
565.692	9.39
566.033	9.24
566.375	9.33
566.716	9.28
567.058	9.58
567.399	9.35
567.741	9.4
568.082	9.4
568.423	9.62
568.764	9.4
569.105	9.64
569.447	9.6
569.788	9.56
570.129	9.4
570.47	9.58
570.811	9.58
571.151	9.41
571.492	9.7
571.833	9.64
572.174	9.86
572.514	9.82
572.855	9.56
573.195	9.85
573.536	9.9
573.876	9.63
574.217	9.92
574.557	9.82
574.898	9.93
575.238	9.74
575.578	9.76
575.918	9.95
576.258	10.06
576.598	10.03
576.938	9.93
577.278	9.94
577.618	9.99
577.958	10.05
578.298	10.23
578.638	10.15
578.977	10.06
579.317	9.93
579.657	10.06
579.996	10.3
580.336	10.37
580.675	10.27
581.014	10.47
581.354	10.46
581.693	10.37
582.032	10.57
582.372	10.53
582.711	10.44
583.05	10.53
583.389	10.57
583.728	10.75
584.067	10.86
584.406	10.58
584.745	10.45
585.083	10.46
585.422	10.79
585.761	10.49
586.1	11.09
586.438	10.5
586.777	10.55
587.115	10.68
587.454	10.88
587.792	10.89
588.13	11.08
588.469	10.91
588.807	10.94
589.145	11.02
589.483	11.13
589.821	10.96
590.159	11.07
590.497	11.28
590.835	11.29
591.173	11.16
591.511	11.17
591.849	11.03
592.187	11.29
592.524	11.29
592.862	11.21
593.2	11.37
593.537	11.36
593.875	11.43
594.212	11.43
594.55	11.61
594.887	11.41
595.224	11.54
595.561	11.32
595.899	11.26
596.236	11.55
596.573	11.71
596.91	11.56
597.247	11.6
597.584	11.58
597.921	11.64
598.258	11.53
598.594	11.75
598.931	11.61
599.268	11.76
599.604	11.91
599.941	11.64
600.277	11.54
600.614	11.91
600.95	11.84
601.287	11.78
601.623	12.08
601.959	11.96
602.296	11.89
602.632	12.27
602.968	12.33
603.304	12.14
603.64	12.09
603.976	12.31
604.312	12.05
604.648	12.18
604.984	12.22
605.319	12.16
605.655	12.25
605.991	12.1
606.326	12.46
606.662	12.36
606.998	12.34
607.333	12.21
607.668	12.25
608.004	12.22
608.339	12.32
608.674	12.17
609.01	12.57
609.345	12.77
609.68	12.5
610.015	12.88
610.35	12.92
610.685	12.86
611.02	12.65
611.355	12.99
611.689	12.62
612.024	12.73
612.359	12.8
612.694	12.89
613.028	12.77
613.363	12.74
613.697	12.53
614.032	12.84
614.366	12.89
614.7	13.25
615.035	13.12
615.369	13.33
615.703	13.31
616.037	13.12
616.371	12.89
616.705	13.21
617.039	13.2
617.373	13.13
617.707	13.15
618.041	13.51
618.375	13.56
618.709	13.46
619.042	13.42
619.376	13.29
619.71	13.64
620.043	13.69
620.377	13.51
620.71	13.09
621.043	13.65
621.377	13.81
621.71	13.4
622.043	13.08
622.376	13.93
622.709	13.5
623.043	13.9
623.376	13.64
623.709	14.06
624.041	13.88
624.374	13.53
624.707	13.64
625.04	13.9
625.373	14.15
625.705	14.44
626.038	13.99
626.37	14.05
626.703	14.25
627.035	13.96
627.368	14.7
627.7	14.07
628.032	14.33
628.365	13.66
628.697	14.42
629.029	14.06
629.361	14.08
629.693	14.49
630.025	14.21
630.357	14.18
630.689	14.42
631.021	14.19
631.353	14.41
631.684	14.21
632.016	14.21
632.348	14.42
632.679	14.49
633.011	14.69
633.342	14.09
633.674	14.48
634.005	14.4
634.336	14.34
634.668	14.54
634.999	14.77
635.33	14.84
635.661	14.71
635.992	14.67
636.323	15.01
636.654	14.92
636.985	14.66
637.316	14.75
637.647	15.22
637.977	15.05
638.308	15.12
638.639	15.03
638.969	15.46
639.3	15.31
639.63	14.95
639.961	15.27
640.291	15.58
640.622	15.29
640.952	15.05
641.282	15.45
641.612	15.3
641.943	15.26
642.273	15.71
642.603	15.38
642.933	15.31
643.263	15.75
643.592	15.79
643.922	15.87
644.252	15.4
644.582	15.44
644.911	15.61
645.241	15.31
645.571	15.38
645.9	15.22
646.23	15.88
646.559	15.52
646.888	15.76
647.218	15.84
647.547	15.87
647.876	15.73
648.205	15.8
648.534	16.12
648.863	15.68
649.192	15.67
649.521	15.81
649.85	16.29
650.179	16.38
650.508	16
650.837	15.6
651.165	16.15
651.494	16.17
651.822	15.94
652.151	16.54
652.479	16.32
652.808	15.8
653.136	16.12
653.465	16.18
653.793	16.61
654.121	16.61
654.449	16.56
654.777	15.79
655.105	16.35
655.433	16.35
655.761	16.33
656.089	16.66
656.417	16.16
656.745	16.77
657.073	16.78
657.4	17.04
657.728	16.77
658.056	17.11
658.383	16.64
658.711	17.07
659.038	17
659.365	16.41
659.693	16.91
660.02	16.83
660.347	17.13
660.674	17.29
661.001	17.55
661.329	16.84
661.656	16.83
661.982	16.93
662.309	17.3
662.636	17.18
662.963	17.75
663.29	17.34
663.616	16.98
663.943	17.39
664.27	17.13
664.596	17.22
664.923	17.54
665.249	17.78
665.576	17.49
665.902	17.21
666.228	17.46
666.554	17.86
666.881	17.71
667.207	17.41
667.533	18.18
667.859	17.15
668.185	17.06
668.511	17.32
668.837	17.3
669.162	17.64
669.488	17.32
669.814	17.79
670.139	17.84
670.465	18.14
670.791	18.22
671.116	18.08
671.442	17.86
671.767	17.39
672.092	18.32
672.418	18.09
672.743	18.05
673.068	17.93
673.393	17.98
673.718	17.14
674.043	17.57
674.368	18.24
674.693	18.42
675.018	18.27
675.343	17.92
675.667	18.61
675.992	18.76
676.317	18.36
676.641	18.78
676.966	18.44
677.29	18.34
677.615	18.94
677.939	18.45
678.264	17.83
678.588	18.71
678.912	18.79
679.236	18.22
679.56	18.08
679.885	18.85
680.209	18.23
680.532	18.95
680.856	18.21
681.18	18.75
681.504	18.69
681.828	19.3
682.152	19.43
682.475	19.24
682.799	18.95
683.122	18.67
683.446	18.87
683.769	18.95
684.093	19.46
684.416	19.62
684.739	18.97
685.062	19.49
