Data from 0143_chest_Reflection__3__201.txt Node

Date: Mon Aug 28 20:23:05 CDT 2023
User: ToomeyLab
Spectrometer: FLMS14357
Trigger mode: 0
Integration Time (sec): 1.000000E-2
Scans to average: 100
Electric dark correction enabled: true
Nonlinearity correction enabled: false
Boxcar width: 0
XAxis mode: Wavelengths
Number of Pixels in Spectrum: 2048
>>>>>Begin Spectral Data<<<<<
189.047	1526.81
189.435	1526.81
189.823	1526.81
190.211	-2.78
190.599	72.87
190.987	52.65
191.375	-42.92
191.763	171.75
192.151	-24.26
192.538	93.65
192.926	98.33
193.314	-55.03
193.702	206.73
194.089	45.72
194.477	61.81
194.864	-4.32
195.252	-211
195.639	26.58
196.027	58.96
196.414	73.64
196.801	-793.44
197.189	-0.83
197.576	-27.78
197.963	50.4
198.351	-34.39
198.738	19.67
199.125	30.21
199.512	-8.97
199.899	-37.18
200.286	-31.37
200.673	25.97
201.06	-11.06
201.447	-4.74
201.833	-4.62
202.22	17.77
202.607	-1.21
202.994	40.59
203.38	21.65
203.767	2.66
204.154	2.32
204.54	5.22
204.927	10.91
205.313	23.09
205.699	-37.37
206.086	23.99
206.472	-31.71
206.858	-48.32
207.245	18.1
207.631	34.57
208.017	-18.74
208.403	14.36
208.789	5.73
209.175	21.4
209.561	-20.48
209.947	-17.19
210.333	45.26
210.719	-11.62
211.105	40.17
211.491	-38.1
211.876	34.68
212.262	7.72
212.648	65.42
213.034	-2.96
213.419	-5.13
213.805	19.58
214.19	7.74
214.576	19.6
214.961	-5.58
215.346	0.54
215.732	14.69
216.117	11.14
216.502	3.85
216.888	16.75
217.273	13.68
217.658	12.64
218.043	-0.19
218.428	-4.54
218.813	-9.36
219.198	-4.15
219.583	5.6
219.968	6.11
220.353	-6.89
220.738	12.57
221.122	5.46
221.507	-3.73
221.892	4.26
222.276	3.54
222.661	11
223.046	-1.63
223.43	-2.18
223.815	4.39
224.199	14.11
224.583	6.28
224.968	22.56
225.352	15.83
225.736	14.9
226.121	9.07
226.505	6.08
226.889	9.38
227.273	6.38
227.657	12.95
228.041	4.59
228.425	2.6
228.809	6.52
229.193	4.72
229.577	6.16
229.961	2.67
230.344	5.9
230.728	5.03
231.112	5.21
231.495	4.74
231.879	5.39
232.263	4.77
232.646	3.4
233.03	5.96
233.413	7.94
233.797	4.38
234.18	3.8
234.563	4.99
234.946	8.2
235.33	3.9
235.713	3.31
236.096	6.11
236.479	4.72
236.862	6.96
237.245	4.09
237.628	4.28
238.011	5.58
238.394	5.04
238.777	7.14
239.16	3.49
239.543	4.77
239.925	6.23
240.308	3.62
240.691	4.82
241.073	4.87
241.456	4.46
241.838	4.72
242.221	4.75
242.603	5.64
242.986	5.57
243.368	5.12
243.75	3.85
244.133	4.89
244.515	4.42
244.897	4.83
245.279	4.77
245.661	4.54
246.043	5.56
246.425	4.31
246.807	5.72
247.189	3.48
247.571	4.23
247.953	4.39
248.335	4.82
248.717	4.81
249.098	4.5
249.48	4.61
249.862	4.76
250.243	4.83
250.625	4.8
251.006	4.83
251.388	4.97
251.769	5.91
252.151	4.74
252.532	3.79
252.913	5.15
253.295	3.98
253.676	3.97
254.057	3.73
254.438	4.07
254.819	4.52
255.2	4.95
255.581	5.03
255.962	4.6
256.343	6.6
256.724	3.98
257.105	5.09
257.486	4.79
257.867	3.52
258.247	3.89
258.628	5.39
259.009	3.4
259.389	3.16
259.77	4.46
260.15	3.58
260.531	3.97
260.911	4.01
261.292	4.45
261.672	4.15
262.052	3.82
262.432	4
262.813	4.69
263.193	4.39
263.573	4.23
263.953	3.97
264.333	3.86
264.713	4.1
265.093	4.87
265.473	3.5
265.853	3.88
266.233	3.49
266.612	4.33
266.992	4.61
267.372	3.63
267.752	4.16
268.131	4.34
268.511	3.51
268.89	4.05
269.27	3.93
269.649	3.55
270.029	4.03
270.408	4.46
270.787	4.05
271.167	3.85
271.546	3.87
271.925	4.09
272.304	3.48
272.683	4.12
273.062	4.08
273.441	4.35
273.82	4.08
274.199	3.37
274.578	3.69
274.957	3.89
275.336	4.1
275.715	3.96
276.093	3.65
276.472	3.79
276.851	3.48
277.229	3.75
277.608	3.98
277.986	3.35
278.365	3.67
278.743	3.67
279.122	3.94
279.5	3.78
279.878	3.45
280.257	3.52
280.635	3.92
281.013	4.13
281.391	3.75
281.769	3.48
282.147	4.54
282.525	4.43
282.903	3.95
283.281	3.75
283.659	4.39
284.037	4.33
284.415	3.81
284.792	4.21
285.17	3.35
285.548	3.18
285.925	4.54
286.303	3.87
286.68	4.33
287.058	4.26
287.435	3.94
287.813	3.45
288.19	3.78
288.567	3.9
288.945	3.94
289.322	3.8
289.699	3.6
290.076	3.75
290.453	3.59
290.83	3.09
291.207	3.95
291.584	3.57
291.961	4.51
292.338	3.88
292.715	3.65
293.092	3.93
293.469	3.97
293.845	3.69
294.222	4.04
294.599	3.77
294.975	3.96
295.352	3.48
295.728	3.68
296.105	3.88
296.481	3.64
296.858	4.66
297.234	4.02
297.61	3.81
297.986	3.71
298.363	4.22
298.739	3.89
299.115	3.5
299.491	4.1
299.867	3.91
300.243	3.61
300.619	3.65
300.995	4.08
301.371	3.72
301.746	3.97
302.122	3.45
302.498	3.99
302.874	4.39
303.249	3.84
303.625	3.97
304	3.95
304.376	3.69
304.751	3.03
305.127	4.03
305.502	4.15
305.878	4.09
306.253	3.94
306.628	3.56
307.003	3.65
307.378	4.12
307.754	3.64
308.129	3.63
308.504	4.51
308.879	3.91
309.254	4.49
309.629	3.5
310.003	3.49
310.378	3.46
310.753	3.62
311.128	4.14
311.502	3.89
311.877	3.49
312.252	3.77
312.626	3.88
313.001	3.98
313.375	4.04
313.75	3.86
314.124	4.05
314.498	3.94
314.873	4.04
315.247	4.48
315.621	3.52
315.995	4.35
316.369	3.79
316.743	3.56
317.117	4
317.491	3.54
317.865	3.46
318.239	4.15
318.613	4.21
318.987	3.82
319.361	4.01
319.734	3.25
320.108	3.36
320.482	3.85
320.855	3.4
321.229	3.72
321.602	3.64
321.976	3.36
322.349	4.17
322.723	3.19
323.096	3.92
323.469	3.68
323.843	3.59
324.216	4.08
324.589	4.12
324.962	3.96
325.335	4.13
325.708	3.93
326.081	3.63
326.454	3.92
326.827	4.05
327.2	3.68
327.573	3.32
327.945	4.06
328.318	3.99
328.691	3.28
329.063	3.74
329.436	3.53
329.809	4.13
330.181	3.73
330.553	3.78
330.926	3.66
331.298	3.86
331.671	3.59
332.043	3.43
332.415	4.26
332.787	3.64
333.159	3.73
333.532	3.92
333.904	4.03
334.276	3.61
334.648	4.1
335.02	3.88
335.391	3.86
335.763	3.67
336.135	4
336.507	4.3
336.879	3.56
337.25	4.08
337.622	3.48
337.993	3.77
338.365	3.85
338.736	4.47
339.108	3.7
339.479	3.32
339.851	4.05
340.222	4.1
340.593	4.23
340.964	3.62
341.336	3.71
341.707	3.73
342.078	3.42
342.449	3.54
342.82	3.81
343.191	3.58
343.562	3.46
343.933	3.53
344.303	3.41
344.674	4.18
345.045	4.53
345.416	3.78
345.786	3.96
346.157	3.96
346.527	3.6
346.898	3.49
347.268	3.85
347.639	3.47
348.009	3.29
348.38	3.78
348.75	3.75
349.12	3.79
349.49	3.91
349.861	3.66
350.231	4.01
350.601	4.4
350.971	3.94
351.341	3.52
351.711	3.9
352.081	3.88
352.45	3.8
352.82	3.8
353.19	4.22
353.56	3.96
353.929	4.06
354.299	3.58
354.669	3.78
355.038	3.99
355.408	4.08
355.777	3.37
356.147	4
356.516	4.27
356.885	3.81
357.254	3.77
357.624	3.8
357.993	3.88
358.362	3.68
358.731	3.91
359.1	4.08
359.469	4.16
359.838	3.74
360.207	3.84
360.576	3.78
360.945	3.96
361.314	3.72
361.682	3.47
362.051	4.08
362.42	3.76
362.788	3.71
363.157	3.99
363.525	3.72
363.894	3.85
364.262	3.88
364.631	3.71
364.999	3.7
365.367	4.31
365.735	3.73
366.104	3.98
366.472	3.42
366.84	3.69
367.208	3.95
367.576	3.66
367.944	4.14
368.312	4.15
368.68	3.63
369.048	3.92
369.416	4.06
369.783	3.67
370.151	3.98
370.519	3.88
370.886	3.68
371.254	3.55
371.621	3.69
371.989	3.7
372.356	3.73
372.724	4.46
373.091	3.81
373.458	3.52
373.826	4.03
374.193	3.99
374.56	4.29
374.927	3.7
375.294	3.92
375.661	4.02
376.028	3.83
376.395	3.75
376.762	4.07
377.129	3.76
377.496	4.09
377.863	4.04
378.229	4.06
378.596	4.02
378.963	4.12
379.329	4.23
379.696	4.07
380.062	3.76
380.429	3.69
380.795	3.84
381.161	4
381.528	4
381.894	3.91
382.26	4.09
382.626	4.19
382.993	4.03
383.359	4.03
383.725	4.33
384.091	4.01
384.457	3.9
384.823	4
385.188	4.04
385.554	3.98
385.92	3.84
386.286	4.25
386.651	4.11
387.017	4.02
387.383	3.98
387.748	3.89
388.114	3.67
388.479	3.94
388.845	3.94
389.21	3.83
389.575	4.37
389.94	4.06
390.306	4.32
390.671	4.02
391.036	3.88
391.401	3.99
391.766	4.12
392.131	3.84
392.496	4.03
392.861	4.13
393.226	4.05
393.591	3.82
393.956	4.07
394.32	4.11
394.685	4.03
395.05	4.02
395.414	4.17
395.779	4.08
396.143	3.9
396.508	3.84
396.872	4.35
397.236	3.91
397.601	3.96
397.965	4.11
398.329	4.18
398.694	4.11
399.058	3.95
399.422	4.1
399.786	4.21
400.15	4.4
400.514	3.95
400.878	3.9
401.242	4.07
401.605	4.25
401.969	4.11
402.333	3.93
402.697	4.31
403.06	4.29
403.424	4.19
403.787	3.96
404.151	3.67
404.514	4.04
404.878	3.96
405.241	4.13
405.604	4.19
405.968	3.89
406.331	4.14
406.694	4.13
407.057	4.34
407.42	4.18
407.783	4.22
408.146	4.13
408.509	4.18
408.872	4.1
409.235	4.4
409.598	4.28
409.961	4.16
410.323	4.16
410.686	4.22
411.049	4.53
411.411	4.34
411.774	4.17
412.136	4.1
412.499	4.19
412.861	4.11
413.223	4.13
413.586	4.16
413.948	4.14
414.31	4.39
414.672	4.13
415.035	4.5
415.397	4.07
415.759	4.23
416.121	4.35
416.483	4.2
416.845	4.35
417.206	4.42
417.568	4.4
417.93	4.08
418.292	4.35
418.653	4.07
419.015	4.22
419.377	4.15
419.738	4.42
420.1	4.22
420.461	4.3
420.822	4.23
421.184	4.25
421.545	4.3
421.906	4.21
422.267	4.17
422.629	4.18
422.99	4.14
423.351	4.21
423.712	4.11
424.073	4.15
424.434	4.21
424.795	4.25
425.155	4.26
425.516	4.22
425.877	4.16
426.238	4.14
426.598	4.17
426.959	4.25
427.32	4.21
427.68	4.32
428.041	4.21
428.401	4.37
428.761	4.27
429.122	4.31
429.482	4.33
429.842	4.51
430.202	4.36
430.563	4.47
430.923	4.53
431.283	4.29
431.643	4.26
432.003	4.37
432.363	4.52
432.722	4.23
433.082	4.4
433.442	4.33
433.802	4.3
434.161	4.5
434.521	4.41
434.881	4.35
435.24	4.44
435.6	4.37
435.959	4.46
436.319	4.51
436.678	4.29
437.037	4.44
437.396	4.58
437.756	4.4
438.115	4.41
438.474	4.59
438.833	4.39
439.192	4.42
439.551	4.36
439.91	4.47
440.269	4.35
440.628	4.38
440.987	4.39
441.345	4.29
441.704	4.42
442.063	4.36
442.421	4.33
442.78	4.51
443.138	4.27
443.497	4.25
443.855	4.4
444.214	4.42
444.572	4.48
444.93	4.62
445.288	4.25
445.647	4.47
446.005	4.52
446.363	4.48
446.721	4.35
447.079	4.43
447.437	4.33
447.795	4.32
448.153	4.42
448.51	4.34
448.868	4.41
449.226	4.31
449.584	4.3
449.941	4.41
450.299	4.44
450.656	4.4
451.014	4.43
451.371	4.38
451.729	4.4
452.086	4.44
452.443	4.51
452.801	4.48
453.158	4.58
453.515	4.42
453.872	4.65
454.229	4.47
454.586	4.58
454.943	4.37
455.3	4.54
455.657	4.56
456.014	4.71
456.371	4.42
456.727	4.53
457.084	4.44
457.441	4.64
457.797	4.5
458.154	4.64
458.51	4.63
458.867	4.64
459.223	4.51
459.58	4.57
459.936	4.57
460.292	4.57
460.648	4.46
461.005	4.33
461.361	4.48
461.717	4.42
462.073	4.32
462.429	4.35
462.785	4.51
463.141	4.32
463.496	4.64
463.852	4.47
464.208	4.63
464.564	4.47
464.919	4.61
465.275	4.71
465.631	4.51
465.986	4.67
466.342	4.69
466.697	4.49
467.052	4.57
467.408	4.59
467.763	4.55
468.118	4.63
468.473	4.44
468.829	4.48
469.184	4.44
469.539	4.61
469.894	4.35
470.249	4.6
470.603	4.59
470.958	4.35
471.313	4.71
471.668	4.45
472.023	4.65
472.377	4.64
472.732	4.6
473.086	4.6
473.441	4.55
473.795	4.58
474.15	4.84
474.504	4.65
474.859	4.53
475.213	4.64
475.567	4.51
475.921	4.84
476.275	4.62
476.63	4.74
476.984	4.71
477.338	4.73
477.692	4.6
478.045	4.74
478.399	4.68
478.753	4.65
479.107	4.65
479.461	4.68
479.814	4.86
480.168	4.71
480.521	4.75
480.875	4.71
481.228	4.78
481.582	4.7
481.935	4.65
482.289	4.58
482.642	4.63
482.995	4.73
483.348	4.65
483.701	4.61
484.055	4.52
484.408	4.52
484.761	4.57
485.114	4.48
485.466	4.41
485.819	4.3
486.172	4.25
486.525	4.32
486.878	4.44
487.23	4.49
487.583	4.54
487.936	4.64
488.288	4.59
488.641	4.59
488.993	4.55
489.345	4.46
489.698	4.49
490.05	4.41
490.402	4.4
490.754	4.48
491.107	4.53
491.459	4.6
491.811	4.65
492.163	4.63
492.515	4.67
492.866	4.71
493.218	4.54
493.57	4.5
493.922	4.44
494.274	4.47
494.625	4.51
494.977	4.77
495.328	4.79
495.68	4.89
496.031	4.81
496.383	4.7
496.734	4.67
497.086	4.82
497.437	4.8
497.788	4.74
498.139	4.85
498.49	4.69
498.842	4.87
499.193	4.73
499.544	4.75
499.894	4.77
500.245	4.89
500.596	4.81
500.947	4.9
501.298	4.93
501.648	4.89
501.999	4.95
502.35	4.9
502.7	4.91
503.051	4.93
503.401	4.95
503.752	4.95
504.102	4.85
504.452	4.87
504.803	5
505.153	4.9
505.503	4.85
505.853	4.85
506.203	5
506.553	4.85
506.903	5.06
507.253	5.04
507.603	4.95
507.953	4.93
508.303	5.12
508.652	4.94
509.002	5.02
509.352	4.86
509.701	4.94
510.051	4.96
510.4	4.97
510.75	5.04
511.099	5
511.449	5.02
511.798	5.03
512.147	5.07
512.496	4.99
512.846	5.01
513.195	4.97
513.544	5.1
513.893	4.98
514.242	5.07
514.591	5.09
514.939	4.89
515.288	5.07
515.637	5.19
515.986	5.09
516.334	5.19
516.683	5.18
517.032	5.04
517.38	5.09
517.729	5.2
518.077	5.09
518.426	5.1
518.774	5.06
519.122	5.15
519.47	5
519.819	5.05
520.167	5.06
520.515	5.07
520.863	4.96
521.211	5.06
521.559	5.18
521.907	5.19
522.255	5.09
522.602	5.18
522.95	5.28
523.298	5.35
523.645	5.27
523.993	5.12
524.341	5.29
524.688	5.32
525.036	5.27
525.383	5.45
525.73	5.31
526.078	5.42
526.425	5.22
526.772	5.33
527.119	5.28
527.466	5.23
527.814	5.21
528.161	5.12
528.508	5.23
528.854	5.19
529.201	5.29
529.548	5.21
529.895	5.21
530.242	5.12
530.588	5.02
530.935	5
531.282	5.09
531.628	5.18
531.975	5.26
532.321	5.24
532.667	5.31
533.014	5.4
533.36	5.38
533.706	5.4
534.052	5.4
534.399	5.36
534.745	5.43
535.091	5.27
535.437	5.27
535.783	5.31
536.129	5.4
536.474	5.46
536.82	5.54
537.166	5.53
537.512	5.64
537.857	5.68
538.203	5.45
538.549	5.48
538.894	5.43
539.239	5.38
539.585	5.7
539.93	5.64
540.276	5.66
540.621	5.68
540.966	5.7
541.311	5.9
541.656	5.77
542.001	5.66
542.346	5.74
542.691	5.58
543.036	5.52
543.381	5.55
543.726	5.47
544.071	5.55
544.415	5.64
544.76	5.7
545.105	5.78
545.449	5.71
545.794	5.76
546.138	5.81
546.483	5.85
546.827	5.77
547.171	5.81
547.516	5.94
547.86	5.85
548.204	6
548.548	5.92
548.892	5.85
549.236	5.87
549.58	6.01
549.924	6.08
550.268	6.08
550.612	6.12
550.956	6.02
551.3	6.27
551.643	6.18
551.987	6.19
552.33	6.38
552.674	6.15
553.017	6.16
553.361	6.31
553.704	6.18
554.048	6.32
554.391	6.18
554.734	6.24
555.077	6.21
555.42	6.39
555.764	6.41
556.107	6.23
556.45	6.43
556.793	6.2
557.135	6.34
557.478	6.23
557.821	6.56
558.164	6.57
558.507	6.45
558.849	6.59
559.192	6.52
559.534	6.28
559.877	6.59
560.219	6.69
560.562	6.68
560.904	6.69
561.246	6.71
561.589	6.54
561.931	6.68
562.273	6.55
562.615	6.59
562.957	6.78
563.299	6.97
563.641	6.73
563.983	6.74
564.325	6.84
564.667	6.7
565.008	6.6
565.35	6.88
565.692	6.91
566.033	6.81
566.375	6.91
566.716	6.95
567.058	6.84
567.399	6.85
567.741	6.91
568.082	6.74
568.423	6.9
568.764	6.76
569.105	7.14
569.447	7.09
569.788	7.02
570.129	6.98
570.47	7.02
570.811	7.23
571.151	6.93
571.492	7.24
571.833	7.34
572.174	7.43
572.514	7.31
572.855	7.14
573.195	7.24
573.536	7.44
573.876	7.19
574.217	7.31
574.557	7.36
574.898	7.46
575.238	7.41
575.578	7.44
575.918	7.53
576.258	7.64
576.598	7.43
576.938	7.35
577.278	7.38
577.618	7.43
577.958	7.57
578.298	7.66
578.638	7.6
578.977	7.68
579.317	7.66
579.657	7.55
579.996	7.73
580.336	7.69
580.675	7.79
581.014	7.94
581.354	8.02
581.693	7.88
582.032	8.07
582.372	7.78
582.711	8.08
583.05	7.88
583.389	7.96
583.728	8.29
584.067	8.14
584.406	8.06
584.745	8.01
585.083	8.03
585.422	8.31
585.761	8.21
586.1	8.25
586.438	8.03
586.777	8.1
587.115	8.44
587.454	8.24
587.792	8.44
588.13	8.5
588.469	8.52
588.807	8.27
589.145	8.37
589.483	8.51
589.821	8.56
590.159	8.65
590.497	8.44
590.835	8.53
591.173	8.36
591.511	8.46
591.849	8.59
592.187	8.79
592.524	8.82
592.862	8.65
593.2	8.77
593.537	8.76
593.875	8.9
594.212	8.87
594.55	8.87
594.887	8.87
595.224	9.01
595.561	8.81
595.899	8.57
596.236	9.1
596.573	9.13
596.91	9.05
597.247	9.07
597.584	9.3
597.921	8.99
598.258	9.16
598.594	9.07
598.931	8.88
599.268	9.14
599.604	9.27
599.941	9.1
600.277	9.26
600.614	9.41
600.95	9.49
601.287	9.38
601.623	9.49
601.959	9.52
602.296	9.42
602.632	9.65
602.968	9.61
603.304	9.46
603.64	9.37
603.976	9.66
604.312	9.39
604.648	9.4
604.984	9.59
605.319	9.75
605.655	9.76
605.991	9.83
606.326	9.84
606.662	9.57
606.998	9.8
607.333	9.83
607.668	9.85
608.004	9.74
608.339	10.04
608.674	9.81
609.01	10.29
609.345	10.15
609.68	10.02
610.015	10.44
610.35	10.46
610.685	10.26
611.02	10.25
611.355	10.48
611.689	10.03
612.024	10.15
612.359	10.31
612.694	10.46
613.028	10.38
613.363	10.4
613.697	10.04
614.032	10.53
614.366	10.32
614.7	10.62
615.035	10.46
615.369	10.54
615.703	10.44
616.037	10.62
616.371	10.51
616.705	10.84
617.039	10.58
617.373	10.74
617.707	10.75
618.041	10.99
618.375	10.86
618.709	10.83
619.042	11.11
619.376	11.01
619.71	10.82
620.043	11.37
620.377	11.2
620.71	10.98
621.043	11.4
621.377	11.28
621.71	11.26
622.043	10.68
622.376	11.47
622.709	11.21
623.043	11.81
623.376	11.18
623.709	11.46
624.041	11.49
624.374	11.29
624.707	11.4
625.04	11.46
625.373	11.62
625.705	11.89
626.038	11.47
626.37	11.59
626.703	11.91
627.035	11.77
627.368	11.99
627.7	12.28
628.032	11.62
628.365	11.57
628.697	11.89
629.029	11.98
629.361	11.73
629.693	11.83
630.025	11.71
630.357	11.84
630.689	12.09
631.021	12.3
631.353	12.2
631.684	12.04
632.016	11.83
632.348	12.14
632.679	12.3
633.011	12.11
633.342	11.83
633.674	12.33
634.005	12.61
634.336	12.4
634.668	12.65
634.999	12.69
635.33	12.57
635.661	12.62
635.992	12.4
636.323	12.62
636.654	12.45
636.985	12.83
637.316	12.73
637.647	13
637.977	12.56
638.308	13.07
638.639	12.76
638.969	13.38
639.3	12.73
639.63	12.79
639.961	13.21
640.291	13.35
640.622	13.1
640.952	12.74
641.282	13.08
641.612	13.34
641.943	13.29
642.273	13.59
642.603	13.21
642.933	12.77
643.263	13.6
643.592	13.01
643.922	13.86
644.252	13.27
644.582	13.52
644.911	13.14
645.241	13.75
645.571	13.29
645.9	13.43
646.23	13.4
646.559	13.74
646.888	13.92
647.218	13.72
647.547	13.59
647.876	13.72
648.205	13.89
648.534	14.16
648.863	13.79
649.192	13.6
649.521	14.28
649.85	13.88
650.179	14.04
650.508	14.17
650.837	14.07
651.165	14.21
651.494	13.79
651.822	14.02
652.151	14.27
652.479	14.62
652.808	14.54
653.136	14.45
653.465	14.63
653.793	14.4
654.121	14.87
654.449	14.62
654.777	14.75
655.105	14.34
655.433	14.24
655.761	14.23
656.089	14.77
656.417	14.58
656.745	15
657.073	14.61
657.4	15.21
657.728	15.41
658.056	14.86
658.383	14.9
658.711	15.24
659.038	15.27
659.365	15.12
659.693	15.02
660.02	14.93
660.347	15.08
660.674	15.14
661.001	15.49
661.329	15.1
661.656	14.76
661.982	15.6
662.309	15.77
662.636	15.16
662.963	15.72
663.29	15.53
663.616	15.36
663.943	15.67
664.27	15.78
664.596	15.33
664.923	15.68
665.249	15.72
665.576	15.7
665.902	15.79
666.228	15.22
666.554	15.96
666.881	15.81
667.207	15.45
667.533	15.69
667.859	15.16
668.185	15.35
668.511	16.36
668.837	15.32
669.162	16.59
669.488	15.86
669.814	16.17
670.139	16.17
670.465	16.29
670.791	16.27
671.116	16.14
671.442	16.48
671.767	15.81
672.092	16.69
672.418	16.16
672.743	16.64
673.068	16.36
673.393	16.34
673.718	15.97
674.043	16.19
674.368	16.59
674.693	16.46
675.018	17.09
675.343	16.51
675.667	16.98
675.992	17.48
676.317	16.45
676.641	17.41
676.966	16.69
677.29	17.03
677.615	17.27
677.939	17.38
678.264	17.05
678.588	16.85
678.912	17.47
679.236	16.59
679.56	16.88
679.885	17.53
680.209	16.97
680.532	16.92
680.856	17.59
681.18	17.23
681.504	17.27
681.828	17.08
682.152	17.57
682.475	17.34
682.799	17.79
683.122	17.53
683.446	16.84
683.769	18.03
684.093	17.7
684.416	18.19
684.739	17.15
685.062	18.25
685.386	17.73
685.709	18.02
686.032	17.6
686.355	17.71
686.678	18.1
687.001	17.12
687.324	18.05
687.646	17.94
