Data from 0143_chest_Reflection__0__198.txt Node

Date: Mon Aug 28 20:22:21 CDT 2023
User: ToomeyLab
Spectrometer: FLMS14357
Trigger mode: 0
Integration Time (sec): 1.000000E-2
Scans to average: 100
Electric dark correction enabled: true
Nonlinearity correction enabled: false
Boxcar width: 0
XAxis mode: Wavelengths
Number of Pixels in Spectrum: 2048
>>>>>Begin Spectral Data<<<<<
189.047	-902.13
189.435	-902.13
189.823	-902.13
190.211	35.56
190.599	24.72
190.987	80.52
191.375	92.7
191.763	92.38
192.151	-561.85
192.538	65.52
192.926	154.22
193.314	-52.05
193.702	107.92
194.089	92.3
194.477	48.98
194.864	128.52
195.252	-130.57
195.639	-83.53
196.027	71.57
196.414	220.66
196.801	-31.85
197.189	29.41
197.576	-12.89
197.963	33.75
198.351	-52.33
198.738	21.69
199.125	-5.57
199.512	-8.18
199.899	-26.28
200.286	-75.89
200.673	55.18
201.06	7.07
201.447	-30.87
201.833	30.07
202.22	29.31
202.607	10.82
202.994	57.81
203.38	-1.73
203.767	-0.81
204.154	-38.64
204.54	-87.5
204.927	-17.96
205.313	38.12
205.699	-25.18
206.086	30.49
206.472	-5.41
206.858	13.55
207.245	-4.02
207.631	34.5
208.017	-19.53
208.403	2.53
208.789	-13.98
209.175	-25.75
209.561	-1.2
209.947	-8.13
210.333	-20.89
210.719	9.86
211.105	35.54
211.491	22.62
211.876	19.73
212.262	-22.35
212.648	30.26
213.034	-18.56
213.419	8.73
213.805	16.09
214.19	-27.3
214.576	17.41
214.961	6.19
215.346	-4.85
215.732	34.51
216.117	-59.98
216.502	-2.28
216.888	-41
217.273	-16.42
217.658	17.41
218.043	10.17
218.428	-16.01
218.813	-8
219.198	10.39
219.583	-17.49
219.968	6.67
220.353	0.63
220.738	15.59
221.122	17.02
221.507	-9.12
221.892	7.44
222.276	22.39
222.661	1.74
223.046	-6.25
223.43	4.26
223.815	-2.62
224.199	10.46
224.583	-4.89
224.968	9.46
225.352	6.08
225.736	15.06
226.121	9.65
226.505	-4.81
226.889	-5.76
227.273	-1.52
227.657	-1.99
228.041	-0.48
228.425	-0.69
228.809	1.17
229.193	2.84
229.577	3.55
229.961	1.4
230.344	2.03
230.728	1.75
231.112	1.94
231.495	3.19
231.879	2.09
232.263	1.6
232.646	1.28
233.03	3.9
233.413	4.38
233.797	3.18
234.18	0.75
234.563	1.68
234.946	7.44
235.33	-0.3
235.713	0.73
236.096	4.86
236.479	3.26
236.862	3.02
237.245	1.57
237.628	1.94
238.011	2.86
238.394	2.37
238.777	4.43
239.16	1.05
239.543	1.74
239.925	3.07
240.308	1.32
240.691	3.01
241.073	2.17
241.456	1.94
241.838	1.46
242.221	4.02
242.603	2.8
242.986	3.95
243.368	3.99
243.75	3.18
244.133	2.64
244.515	2.47
244.897	2.95
245.279	3.27
245.661	2.51
246.043	3.26
246.425	2.8
246.807	3.15
247.189	1.37
247.571	3.02
247.953	2.79
248.335	2.67
248.717	2.77
249.098	2.7
249.48	2.85
249.862	2.84
250.243	2.96
250.625	3.09
251.006	2.79
251.388	2.75
251.769	2.96
252.151	2.56
252.532	2.56
252.913	2.8
253.295	1.1
253.676	2.36
254.057	2.58
254.438	2.3
254.819	2.79
255.2	3.5
255.581	2.82
255.962	2.25
256.343	4.77
256.724	2.03
257.105	2.68
257.486	2.59
257.867	1.85
258.247	2.87
258.628	3.28
259.009	1.81
259.389	1.86
259.77	3.05
260.15	2.04
260.531	2.5
260.911	2.07
261.292	2.83
261.672	2.75
262.052	2.56
262.432	2.72
262.813	2.89
263.193	2.69
263.573	2.34
263.953	2.46
264.333	2.63
264.713	2.28
265.093	3.34
265.473	2.42
265.853	2.49
266.233	2.06
266.612	2.83
266.992	1.75
267.372	1.84
267.752	3.07
268.131	2.89
268.511	2.32
268.89	3.08
269.27	2.67
269.649	2.41
270.029	2.96
270.408	3.04
270.787	3.35
271.167	2.83
271.546	2.56
271.925	2.3
272.304	2.08
272.683	3
273.062	2.36
273.441	3.01
273.82	2.31
274.199	1.94
274.578	2.29
274.957	2.75
275.336	2.42
275.715	2.85
276.093	2.29
276.472	2.27
276.851	2.81
277.229	2.87
277.608	2.72
277.986	2.65
278.365	2.77
278.743	2.37
279.122	2.44
279.5	2.06
279.878	2.36
280.257	2.31
280.635	2.86
281.013	2.79
281.391	2.24
281.769	2.06
282.147	2.58
282.525	1.77
282.903	2.21
283.281	2.33
283.659	2.73
284.037	2.95
284.415	2.61
284.792	2.69
285.17	2.32
285.548	2.25
285.925	3.11
286.303	2.43
286.68	2.74
287.058	2.66
287.435	2.41
287.813	2.36
288.19	2.7
288.567	2.81
288.945	2.48
289.322	2.7
289.699	2.87
290.076	2.85
290.453	3.03
290.83	2.35
291.207	2.1
291.584	2.46
291.961	2.77
292.338	2.73
292.715	2.48
293.092	2.83
293.469	2.81
293.845	2.25
294.222	2.68
294.599	2.74
294.975	3.06
295.352	2.4
295.728	3.07
296.105	2.88
296.481	2.45
296.858	3.39
297.234	3.02
297.61	3.03
297.986	3.25
298.363	3.67
298.739	2.92
299.115	3
299.491	3.44
299.867	3.26
300.243	3.34
300.619	3.53
300.995	3.89
301.371	2.93
301.746	3.12
302.122	3.31
302.498	3.35
302.874	3.47
303.249	3.73
303.625	3.23
304	3.61
304.376	3.24
304.751	3.69
305.127	3.12
305.502	3.42
305.878	3.32
306.253	2.93
306.628	3.22
307.003	3.34
307.378	3.6
307.754	4.02
308.129	3.1
308.504	3.83
308.879	3.68
309.254	3.73
309.629	2.81
310.003	3.78
310.378	3.28
310.753	3.6
311.128	3.8
311.502	4.1
311.877	3.59
312.252	3.77
312.626	3.94
313.001	3.37
313.375	3.8
313.75	3.38
314.124	3.73
314.498	3.6
314.873	4.16
315.247	4.16
315.621	3.23
315.995	3.98
316.369	3.8
316.743	3.45
317.117	4.05
317.491	3.06
317.865	3.39
318.239	3.61
318.613	3.86
318.987	3.45
319.361	3.6
319.734	3.65
320.108	4.01
320.482	3.99
320.855	3.47
321.229	3.71
321.602	3.97
321.976	3.9
322.349	3.94
322.723	3.3
323.096	3.55
323.469	3.39
323.843	4.03
324.216	4.02
324.589	4.85
324.962	3.98
325.335	4.27
325.708	3.78
326.081	4.49
326.454	4.24
326.827	4.04
327.2	3.89
327.573	3.81
327.945	4.67
328.318	4.02
328.691	3.72
329.063	3.62
329.436	3.7
329.809	4.54
330.181	3.67
330.553	4.22
330.926	4.26
331.298	4.54
331.671	4.03
332.043	4.08
332.415	4.38
332.787	3.75
333.159	4.18
333.532	4.16
333.904	4.63
334.276	3.83
334.648	4.6
335.02	4.04
335.391	4.46
335.763	4.09
336.135	4.9
336.507	4.17
336.879	3.52
337.25	4.6
337.622	4.2
337.993	4.29
338.365	3.92
338.736	4.76
339.108	3.5
339.479	3.71
339.851	4.29
340.222	4.43
340.593	4.08
340.964	3.95
341.336	3.98
341.707	4.29
342.078	4.38
342.449	4.5
342.82	4.65
343.191	3.94
343.562	3.79
343.933	4.29
344.303	4.15
344.674	4.07
345.045	3.94
345.416	4.22
345.786	4.45
346.157	4.51
346.527	4.04
346.898	4.08
347.268	4.28
347.639	3.54
348.009	4.18
348.38	4.2
348.75	4.2
349.12	4.49
349.49	4.13
349.861	4.32
350.231	3.88
350.601	4.18
350.971	4.86
351.341	4.46
351.711	4.33
352.081	4.2
352.45	4.57
352.82	4.28
353.19	4.69
353.56	4.67
353.929	4.12
354.299	3.87
354.669	4.85
355.038	4.74
355.408	4.86
355.777	4.32
356.147	4.36
356.516	4.83
356.885	4.55
357.254	4.43
357.624	4.29
357.993	4.66
358.362	3.94
358.731	4.62
359.1	4.48
359.469	4.43
359.838	4.17
360.207	4.46
360.576	4.63
360.945	4.58
361.314	4.36
361.682	4.41
362.051	4.69
362.42	4.28
362.788	4.3
363.157	4.33
363.525	4.24
363.894	4.37
364.262	4.54
364.631	4.3
364.999	4.72
365.367	4.37
365.735	4.37
366.104	4.21
366.472	4.44
366.84	4.43
367.208	4.33
367.576	4.43
367.944	4.47
368.312	4.69
368.68	4.65
369.048	4.48
369.416	4.46
369.783	4.23
370.151	4.51
370.519	4.86
370.886	4.62
371.254	4.39
371.621	4.29
371.989	4.54
372.356	4.59
372.724	4.71
373.091	4.82
373.458	4.27
373.826	4.48
374.193	4.76
374.56	4.67
374.927	4.25
375.294	4.59
375.661	5.11
376.028	4.3
376.395	4.43
376.762	4.69
377.129	4.32
377.496	4.34
377.863	4.91
378.229	4.31
378.596	5.13
378.963	4.59
379.329	4.57
379.696	4.7
380.062	4.55
380.429	4.43
380.795	4.87
381.161	4.62
381.528	4.93
381.894	4.4
382.26	4.81
382.626	4.73
382.993	4.69
383.359	4.64
383.725	4.71
384.091	5.03
384.457	4.8
384.823	4.7
385.188	4.54
385.554	4.39
385.92	4.5
386.286	4.96
386.651	4.48
387.017	5.03
387.383	4.83
387.748	4.73
388.114	4.54
388.479	4.57
388.845	4.93
389.21	4.51
389.575	4.99
389.94	4.57
390.306	4.85
390.671	4.82
391.036	4.63
391.401	4.78
391.766	4.95
392.131	4.69
392.496	4.67
392.861	4.7
393.226	4.86
393.591	4.61
393.956	4.68
394.32	4.68
394.685	4.84
395.05	4.84
395.414	4.6
395.779	5.08
396.143	4.57
396.508	4.51
396.872	5
397.236	4.78
397.601	4.84
397.965	5.05
398.329	4.91
398.694	4.73
399.058	4.61
399.422	4.79
399.786	5.15
400.15	4.87
400.514	4.7
400.878	4.8
401.242	4.78
401.605	5.04
401.969	4.89
402.333	4.93
402.697	4.57
403.06	4.84
403.424	4.8
403.787	4.76
404.151	4.57
404.514	4.91
404.878	4.88
405.241	5.01
405.604	5.02
405.968	4.66
406.331	5.12
406.694	4.92
407.057	4.97
407.42	4.84
407.783	4.78
408.146	4.61
408.509	5.02
408.872	4.91
409.235	5.04
409.598	4.91
409.961	4.78
410.323	5.22
410.686	5.06
411.049	4.95
411.411	4.98
411.774	4.94
412.136	5.05
412.499	4.91
412.861	4.95
413.223	4.8
413.586	4.77
413.948	5.12
414.31	5.15
414.672	5.09
415.035	5.1
415.397	4.94
415.759	4.97
416.121	5.17
416.483	4.98
416.845	5.2
417.206	5.41
417.568	4.94
417.93	4.82
418.292	5
418.653	4.93
419.015	4.9
419.377	4.75
419.738	5.16
420.1	4.95
420.461	5.02
420.822	4.96
421.184	5.08
421.545	5
421.906	4.98
422.267	4.96
422.629	4.93
422.99	4.85
423.351	4.92
423.712	4.9
424.073	5.04
424.434	5.11
424.795	4.93
425.155	4.9
425.516	5.06
425.877	4.95
426.238	4.94
426.598	4.93
426.959	5.01
427.32	5.03
427.68	5.09
428.041	5.08
428.401	5.07
428.761	5.06
429.122	5.08
429.482	5.17
429.842	5.31
430.202	5.26
430.563	5.25
430.923	5.25
431.283	5.01
431.643	5.03
432.003	5.13
432.363	5.23
432.722	5.12
433.082	5.18
433.442	5.26
433.802	5.23
434.161	5.18
434.521	5.23
434.881	5.15
435.24	5.06
435.6	5.16
435.959	5.29
436.319	5.33
436.678	5.21
437.037	5.23
437.396	5.39
437.756	5.08
438.115	5.32
438.474	5.35
438.833	5.14
439.192	5.29
439.551	5.1
439.91	5.21
440.269	5.15
440.628	5.16
440.987	5.17
441.345	5.05
441.704	5.27
442.063	5.04
442.421	5.19
442.78	5.29
443.138	5.14
443.497	5.2
443.855	5.24
444.214	5.36
444.572	5.43
444.93	5.41
445.288	5.36
445.647	5.5
446.005	5.41
446.363	5.45
446.721	5.31
447.079	5.28
447.437	5.2
447.795	5.22
448.153	5.27
448.51	5.23
448.868	5.28
449.226	5.23
449.584	5.18
449.941	5.36
450.299	5.29
450.656	5.4
451.014	5.3
451.371	5.45
451.729	5.39
452.086	5.39
452.443	5.58
452.801	5.64
453.158	5.39
453.515	5.42
453.872	5.33
454.229	5.46
454.586	5.56
454.943	5.46
455.3	5.45
455.657	5.51
456.014	5.56
456.371	5.46
456.727	5.64
457.084	5.47
457.441	5.55
457.797	5.44
458.154	5.49
458.51	5.68
458.867	5.32
459.223	5.68
459.58	5.6
459.936	5.65
460.292	5.45
460.648	5.33
461.005	5.37
461.361	5.34
461.717	5.34
462.073	5.31
462.429	5.41
462.785	5.53
463.141	5.68
463.496	5.76
463.852	5.65
464.208	5.64
464.564	5.56
464.919	5.68
465.275	5.85
465.631	5.71
465.986	5.69
466.342	5.6
466.697	5.6
467.052	5.64
467.408	5.72
467.763	5.55
468.118	5.54
468.473	5.64
468.829	5.75
469.184	5.65
469.539	5.62
469.894	5.78
470.249	5.89
470.603	5.79
470.958	5.69
471.313	5.69
471.668	5.65
472.023	5.85
472.377	5.66
472.732	5.98
473.086	5.8
473.441	5.81
473.795	5.84
474.15	5.88
474.504	5.96
474.859	5.65
475.213	5.76
475.567	5.69
475.921	6.05
476.275	5.82
476.63	5.94
476.984	5.99
477.338	5.87
477.692	5.77
478.045	5.83
478.399	5.77
478.753	5.77
479.107	5.79
479.461	5.8
479.814	5.9
480.168	5.78
480.521	5.87
480.875	5.87
481.228	5.75
481.582	5.79
481.935	5.88
482.289	5.88
482.642	5.93
482.995	5.9
483.348	5.81
483.701	5.69
484.055	5.74
484.408	5.67
484.761	5.73
485.114	5.61
485.466	5.46
485.819	5.28
486.172	5.26
486.525	5.42
486.878	5.65
487.23	5.89
487.583	5.91
487.936	6.07
488.288	5.96
488.641	5.85
488.993	5.69
489.345	5.53
489.698	5.57
490.05	5.57
490.402	5.65
490.754	5.78
491.107	5.94
491.459	5.94
491.811	6.07
492.163	6.11
492.515	5.98
492.866	5.9
493.218	5.81
493.57	5.67
493.922	5.58
494.274	5.71
494.625	5.88
494.977	6.16
495.328	6.24
495.68	6.22
496.031	6.23
496.383	6.11
496.734	6.13
497.086	6.17
497.437	6.29
497.788	6.12
498.139	6.24
498.49	6.04
498.842	6
499.193	6
499.544	6.11
499.894	6.21
500.245	6.1
500.596	6.26
500.947	6.11
501.298	6.36
501.648	6.32
501.999	6.33
502.35	6.31
502.7	6.35
503.051	6.33
503.401	6.37
503.752	6.41
504.102	6.19
504.452	6.35
504.803	6.45
505.153	6.39
505.503	6.23
505.853	6.43
506.203	6.39
506.553	6.35
506.903	6.42
507.253	6.42
507.603	6.36
507.953	6.53
508.303	6.58
508.652	6.46
509.002	6.7
509.352	6.35
509.701	6.29
510.051	6.41
510.4	6.26
510.75	6.4
511.099	6.36
511.449	6.49
511.798	6.52
512.147	6.45
512.496	6.45
512.846	6.45
513.195	6.51
513.544	6.52
513.893	6.48
514.242	6.58
514.591	6.67
514.939	6.46
515.288	6.59
515.637	6.74
515.986	6.54
516.334	6.71
516.683	6.67
517.032	6.72
517.38	6.62
517.729	6.67
518.077	6.73
518.426	6.67
518.774	6.77
519.122	6.69
519.47	6.62
519.819	6.58
520.167	6.49
520.515	6.53
520.863	6.4
521.211	6.55
521.559	6.63
521.907	6.74
522.255	6.67
522.602	6.86
522.95	6.94
523.298	6.89
523.645	6.86
523.993	6.78
524.341	6.94
524.688	6.93
525.036	6.93
525.383	6.9
525.73	6.83
526.078	6.94
526.425	6.93
526.772	6.89
527.119	6.79
527.466	6.71
527.814	6.63
528.161	6.66
528.508	6.83
528.854	6.88
529.201	6.93
529.548	6.73
529.895	6.71
530.242	6.58
530.588	6.41
530.935	6.4
531.282	6.56
531.628	6.7
531.975	7.02
532.321	7.05
532.667	7.11
533.014	7.26
533.36	7.2
533.706	7.18
534.052	7
534.399	7.04
534.745	7.06
535.091	6.84
535.437	6.82
535.783	6.8
536.129	7.04
536.474	7.16
536.82	7.31
537.166	7.37
537.512	7.37
537.857	7.3
538.203	7.22
538.549	7.15
538.894	7.04
539.239	7.08
539.585	7.33
539.93	7.48
540.276	7.57
540.621	7.66
540.966	7.54
541.311	7.56
541.656	7.49
542.001	7.55
542.346	7.39
542.691	7.28
543.036	7.04
543.381	7.01
543.726	7
544.071	7.26
544.415	7.41
544.76	7.56
545.105	7.56
545.449	7.46
545.794	7.56
546.138	7.69
546.483	7.7
546.827	7.85
547.171	7.74
547.516	7.76
547.86	7.64
548.204	7.71
548.548	7.7
548.892	7.55
549.236	7.59
549.58	7.68
549.924	7.8
550.268	8.01
550.612	8.02
550.956	8
551.3	8.03
551.643	8.19
551.987	7.89
552.33	8.29
552.674	8.21
553.017	7.99
553.361	8.03
553.704	8.12
554.048	8.17
554.391	8
554.734	7.97
555.077	7.94
555.42	8.06
555.764	8.22
556.107	8.24
556.45	8.4
556.793	8.29
557.135	8.51
557.478	8.26
557.821	8.28
558.164	8.4
558.507	8.5
558.849	8.54
559.192	8.27
559.534	8.18
559.877	8.5
560.219	8.56
560.562	8.58
560.904	8.77
561.246	8.44
561.589	8.56
561.931	8.82
562.273	8.58
562.615	8.45
562.957	8.68
563.299	8.69
563.641	8.48
563.983	8.77
564.325	8.59
564.667	8.65
565.008	8.44
565.35	9.01
565.692	8.86
566.033	8.79
566.375	8.67
566.716	8.7
567.058	8.92
567.399	8.75
567.741	8.86
568.082	8.75
568.423	8.75
568.764	8.57
569.105	8.99
569.447	9.04
569.788	8.98
570.129	9.27
570.47	9.09
570.811	9.01
571.151	8.73
571.492	9.12
571.833	8.92
572.174	9.21
572.514	9.14
572.855	9.05
573.195	9.32
573.536	9.22
573.876	9.07
574.217	9.12
574.557	9.07
574.898	9.32
575.238	9.3
575.578	9.33
575.918	9.31
576.258	9.43
576.598	9.44
576.938	9.22
577.278	9.35
577.618	9.22
577.958	9.44
578.298	9.56
578.638	9.61
578.977	9.73
579.317	9.46
579.657	9.43
579.996	9.57
580.336	9.66
580.675	9.64
581.014	9.8
581.354	9.69
581.693	9.73
582.032	9.82
582.372	9.95
582.711	10.17
583.05	9.91
583.389	10.01
583.728	9.94
584.067	10.02
584.406	9.99
584.745	10.21
585.083	10.12
585.422	10.21
585.761	10.06
586.1	10.01
586.438	10.05
586.777	10.3
587.115	10.18
587.454	10.22
587.792	10.27
588.13	10.17
588.469	10.3
588.807	10.13
589.145	10.44
589.483	10.41
589.821	10.32
590.159	10.65
590.497	10.38
590.835	10.49
591.173	10.45
591.511	10.2
591.849	10.38
592.187	10.37
592.524	10.63
592.862	10.84
593.2	10.48
593.537	10.52
593.875	10.87
594.212	10.8
594.55	10.87
594.887	10.8
595.224	10.93
595.561	10.66
595.899	10.91
596.236	10.91
596.573	10.9
596.91	10.85
597.247	10.97
597.584	10.9
597.921	11.06
598.258	10.8
598.594	10.64
598.931	10.65
599.268	10.8
599.604	10.87
599.941	11.11
600.277	11.13
600.614	11.3
600.95	11.25
601.287	11.21
601.623	11.51
601.959	11.34
602.296	11.28
602.632	11.28
602.968	11.11
603.304	11.39
603.64	11.33
603.976	11.57
604.312	11.38
604.648	11.03
604.984	11.23
605.319	11.39
605.655	11.42
605.991	11.44
606.326	11.3
606.662	11.47
606.998	11.47
607.333	11.26
607.668	11.6
608.004	11.57
608.339	11.68
608.674	11.56
609.01	11.86
609.345	11.9
609.68	11.95
610.015	11.9
610.35	11.82
610.685	11.72
611.02	11.68
611.355	11.73
611.689	11.45
612.024	11.85
612.359	11.93
612.694	12.1
613.028	11.85
613.363	11.88
613.697	12.31
614.032	12.22
614.366	12.09
614.7	12.25
615.035	12.36
615.369	12.22
615.703	12.09
616.037	11.99
616.371	12.21
616.705	12.21
617.039	12.09
617.373	12.21
617.707	12.41
618.041	12.45
618.375	12.35
618.709	12.87
619.042	12.49
619.376	12.43
619.71	12.38
620.043	12.54
620.377	12.71
620.71	12.52
621.043	12.67
621.377	12.63
621.71	12.78
622.043	12.3
622.376	12.95
622.709	12.89
623.043	12.8
623.376	13.01
623.709	13.06
624.041	13.26
624.374	12.62
624.707	12.68
625.04	12.76
625.373	12.97
625.705	13.12
626.038	12.8
626.37	13.15
626.703	13.3
627.035	13.12
627.368	13.25
627.7	13.12
628.032	13.37
628.365	13
628.697	13.2
629.029	12.88
629.361	13.17
629.693	12.99
630.025	13.21
630.357	12.93
630.689	13.37
631.021	13.4
631.353	13.15
631.684	13.59
632.016	13.05
632.348	13.69
632.679	13.76
633.011	13.47
633.342	13.39
633.674	13.26
634.005	13.02
634.336	13.43
634.668	13.87
634.999	13.71
635.33	13.51
635.661	13.74
635.992	13.36
636.323	13.86
636.654	13.64
636.985	13.55
637.316	13.89
637.647	13.67
637.977	13.58
638.308	14.21
638.639	13.76
638.969	14.16
639.3	13.62
639.63	13.89
639.961	14.05
640.291	14.35
640.622	14.52
640.952	14.06
641.282	14.09
641.612	14.34
641.943	13.91
642.273	14.23
642.603	14.03
642.933	13.76
643.263	14.61
643.592	14.35
643.922	14.26
644.252	13.88
644.582	14.5
644.911	14.38
645.241	14.63
645.571	14.29
645.9	14.3
646.23	14.25
646.559	13.76
646.888	14.55
647.218	13.52
647.547	14.21
647.876	14.6
648.205	14.63
648.534	14.59
648.863	14.54
649.192	14.93
649.521	14.97
649.85	14.5
650.179	15.02
650.508	14.96
650.837	14.32
651.165	15.11
651.494	14.89
651.822	14.57
652.151	14.81
652.479	15.26
652.808	14.6
653.136	14.9
653.465	15.3
653.793	15.07
654.121	15.02
654.449	14.82
654.777	14.92
655.105	15.48
655.433	14.99
655.761	14.95
656.089	15.37
656.417	14.9
656.745	15.24
657.073	14.8
657.4	15.2
657.728	15.71
658.056	15.41
658.383	15.14
658.711	16.1
659.038	15.46
659.365	15.39
659.693	14.83
660.02	15.31
660.347	15.76
660.674	15.27
661.001	15.72
661.329	15.42
661.656	15.32
661.982	15.76
662.309	15.29
662.636	15.6
662.963	15.92
663.29	15.83
663.616	15.32
663.943	15.27
664.27	16.08
664.596	15.8
664.923	16.27
665.249	15.77
665.576	15.34
665.902	15.53
666.228	15.26
666.554	15.95
666.881	15.61
667.207	16.06
667.533	15.87
667.859	15.45
668.185	15.88
668.511	16.16
668.837	15.62
669.162	16.37
669.488	16.22
669.814	16.25
670.139	16.26
670.465	16.32
670.791	16.32
671.116	16.08
671.442	15.89
671.767	15.67
672.092	16.84
672.418	16.62
672.743	16.89
673.068	16.69
673.393	16.36
673.718	16.41
674.043	15.93
674.368	16.26
674.693	16.81
675.018	16.89
675.343	16.99
675.667	16.91
675.992	17.22
676.317	16.45
676.641	17.46
676.966	16.9
677.29	16.14
677.615	17.36
677.939	16.98
678.264	16.27
678.588	16.14
678.912	17.78
679.236	17.08
679.56	16.61
679.885	16.52
680.209	16.62
680.532	17.14
680.856	16.77
681.18	16.66
681.504	16.64
681.828	16.76
682.152	17.24
682.475	16.92
682.799	16.67
683.122	16.51
683.446	16.93
683.769	17.58
684.093	16.99
684.416	17.81
684.739	17.2
685.062	17.42
685.386	17.39
