Data from 0143_chest_Reflection__1__199.txt Node

Date: Mon Aug 28 20:22:33 CDT 2023
User: ToomeyLab
Spectrometer: FLMS14357
Trigger mode: 0
Integration Time (sec): 1.000000E-2
Scans to average: 100
Electric dark correction enabled: true
Nonlinearity correction enabled: false
Boxcar width: 0
XAxis mode: Wavelengths
Number of Pixels in Spectrum: 2048
>>>>>Begin Spectral Data<<<<<
189.047	511.49
189.435	511.49
189.823	511.49
190.211	-80.25
190.599	137.44
190.987	39.21
191.375	146.78
191.763	45.36
192.151	-327.89
192.538	37.93
192.926	52.28
193.314	58.73
193.702	189.95
194.089	83.38
194.477	38.68
194.864	-29.05
195.252	-207.94
195.639	13.79
196.027	67.99
196.414	84.22
196.801	-190.63
197.189	19.19
197.576	78.21
197.963	30.93
198.351	-21.98
198.738	52.17
199.125	5.07
199.512	20.09
199.899	8.94
200.286	31.45
200.673	-11.92
201.06	-14.02
201.447	-140.44
201.833	-89.65
202.22	-16.01
202.607	3.91
202.994	30.63
203.38	28.01
203.767	-11.63
204.154	-20.15
204.54	8.84
204.927	8.78
205.313	4.91
205.699	13.77
206.086	32.24
206.472	-27.61
206.858	13.82
207.245	-17.07
207.631	-5.75
208.017	-6.42
208.403	2.12
208.789	-13.37
209.175	-25.06
209.561	-14.13
209.947	-21.3
210.333	33.72
210.719	11.05
211.105	40.16
211.491	3.15
211.876	57.97
212.262	2.96
212.648	13.01
213.034	11.56
213.419	-0.85
213.805	27.59
214.19	-26.62
214.576	-0.43
214.961	-14.66
215.346	-23.17
215.732	12.43
216.117	-26.58
216.502	-20.12
216.888	-38.82
217.273	26.15
217.658	-6.77
218.043	8.04
218.428	7.64
218.813	-0.08
219.198	4.11
219.583	2.37
219.968	-3.21
220.353	-19.66
220.738	15
221.122	6.32
221.507	-11.07
221.892	1.45
222.276	5.48
222.661	-7.84
223.046	-6.99
223.43	5.53
223.815	5.54
224.199	20.52
224.583	5.24
224.968	11.36
225.352	4.12
225.736	-6.21
226.121	0.37
226.505	0.75
226.889	-2.27
227.273	4.95
227.657	8.3
228.041	5
228.425	1.29
228.809	0.74
229.193	2.23
229.577	3.32
229.961	-0.42
230.344	0.2
230.728	0.41
231.112	0.34
231.495	1.06
231.879	0.35
232.263	0.81
232.646	-0.88
233.03	1.3
233.413	4.03
233.797	0.93
234.18	1.2
234.563	0.79
234.946	4.54
235.33	0.56
235.713	-0.68
236.096	2.23
236.479	1.12
236.862	0.48
237.245	1.45
237.628	0.93
238.011	3.98
238.394	1.01
238.777	1.59
239.16	-1.22
239.543	-0.99
239.925	1.48
240.308	-0.79
240.691	0.81
241.073	-0.04
241.456	0.46
241.838	0.49
242.221	3.09
242.603	2.05
242.986	2.51
243.368	2.03
243.75	1.1
244.133	0.31
244.515	1.16
244.897	1.47
245.279	1.04
245.661	1.43
246.043	1.77
246.425	1.16
246.807	1.99
247.189	-0.52
247.571	0.9
247.953	1.11
248.335	1.02
248.717	1.23
249.098	0.91
249.48	1.4
249.862	1.27
250.243	1.1
250.625	1.39
251.006	1.03
251.388	1.47
251.769	0.83
252.151	1.58
252.532	-0.03
252.913	1.89
253.295	-0.27
253.676	1.28
254.057	1.69
254.438	0.59
254.819	1.01
255.2	1.32
255.581	0.78
255.962	1.73
256.343	2.05
256.724	-0.22
257.105	-0.32
257.486	1.77
257.867	0.38
258.247	1.55
258.628	1.77
259.009	0.41
259.389	0.7
259.77	1.56
260.15	1.17
260.531	1.21
260.911	1.59
261.292	1.2
261.672	1.17
262.052	1.15
262.432	1.2
262.813	1.45
263.193	0.85
263.573	1.3
263.953	1.63
264.333	0.79
264.713	0.77
265.093	2.06
265.473	2.13
265.853	0.79
266.233	0.45
266.612	0.62
266.992	0.92
267.372	0.21
267.752	1.62
268.131	1.97
268.511	0.51
268.89	1.25
269.27	0.95
269.649	1.23
270.029	1.39
270.408	0.95
270.787	1.83
271.167	0.88
271.546	1.1
271.925	1.59
272.304	0.94
272.683	1.46
273.062	1.3
273.441	1.03
273.82	0.98
274.199	0.33
274.578	1.01
274.957	1.45
275.336	1.54
275.715	1.05
276.093	0.92
276.472	0.52
276.851	0.76
277.229	1.5
277.608	1.38
277.986	1.21
278.365	1.15
278.743	1.24
279.122	1.07
279.5	1.3
279.878	0.89
280.257	1.61
280.635	1.35
281.013	1.54
281.391	1.21
281.769	0.65
282.147	1.63
282.525	1.42
282.903	1.09
283.281	1.07
283.659	1.46
284.037	1.51
284.415	0.94
284.792	1.28
285.17	0.9
285.548	1.17
285.925	1.25
286.303	0.97
286.68	1.64
287.058	1.34
287.435	0.93
287.813	1.01
288.19	1.43
288.567	1.46
288.945	1.08
289.322	1.15
289.699	1.09
290.076	1.67
290.453	1.68
290.83	0.63
291.207	0.88
291.584	1.2
291.961	1.78
292.338	1.29
292.715	0.85
293.092	1.56
293.469	1.42
293.845	0.97
294.222	0.8
294.599	1.21
294.975	1.37
295.352	1.14
295.728	1.28
296.105	1.03
296.481	1.42
296.858	1.56
297.234	1.65
297.61	1.21
297.986	1.28
298.363	1.35
298.739	1.25
299.115	1.27
299.491	1.14
299.867	1.35
300.243	1.6
300.619	1.42
300.995	1.94
301.371	0.98
301.746	2.03
302.122	1.3
302.498	1.35
302.874	1.39
303.249	1.48
303.625	1.47
304	1.18
304.376	0.9
304.751	0.61
305.127	1.81
305.502	1.58
305.878	1.04
306.253	1.31
306.628	1.41
307.003	1.68
307.378	1.48
307.754	1.66
308.129	1.22
308.504	1.58
308.879	2.27
309.254	2.07
309.629	0.96
310.003	1.25
310.378	1.17
310.753	1.47
311.128	1.81
311.502	1.45
311.877	1.61
312.252	1.37
312.626	1.66
313.001	1.42
313.375	1.57
313.75	1.28
314.124	1.37
314.498	1.89
314.873	1.67
315.247	1.71
315.621	1.44
315.995	2.16
316.369	1.45
316.743	1.03
317.117	1.43
317.491	1.05
317.865	1.33
318.239	1.62
318.613	1.84
318.987	1.65
319.361	2.14
319.734	1.75
320.108	1.65
320.482	2.5
320.855	1.46
321.229	1.73
321.602	1.37
321.976	1.64
322.349	1.76
322.723	1.08
323.096	1.57
323.469	1.33
323.843	2.01
324.216	1.94
324.589	1.67
324.962	1.61
325.335	1.85
325.708	1.38
326.081	1.78
326.454	1.7
326.827	1.58
327.2	1.13
327.573	1.58
327.945	2.39
328.318	2.3
328.691	1.39
329.063	1.3
329.436	1.48
329.809	1.8
330.181	1.38
330.553	1.88
330.926	2.16
331.298	1.87
331.671	1.29
332.043	1.47
332.415	2.21
332.787	1.58
333.159	1.9
333.532	2.5
333.904	1.98
334.276	1.32
334.648	2.09
335.02	1.9
335.391	1.9
335.763	2.14
336.135	1.96
336.507	1.62
336.879	1.52
337.25	1.26
337.622	1.42
337.993	2.21
338.365	1.48
338.736	2.01
339.108	1.35
339.479	1.27
339.851	2.07
340.222	2.16
340.593	1.64
340.964	1.89
341.336	1.47
341.707	1.54
342.078	1.5
342.449	1.81
342.82	1.96
343.191	1.88
343.562	1.83
343.933	1.28
344.303	1.51
344.674	1.69
345.045	1.84
345.416	1.64
345.786	2.27
346.157	1.57
346.527	1.39
346.898	1.8
347.268	1.93
347.639	1.17
348.009	1.18
348.38	1.63
348.75	1.77
349.12	1.99
349.49	1.64
349.861	1.45
350.231	1.57
350.601	1.84
350.971	2.36
351.341	1.67
351.711	1.44
352.081	1.31
352.45	1.91
352.82	1.56
353.19	2.12
353.56	1.76
353.929	1.69
354.299	1.45
354.669	1.85
355.038	1.96
355.408	2.03
355.777	1.77
356.147	1.4
356.516	2.45
356.885	1.88
357.254	1.75
357.624	1.66
357.993	2.07
358.362	1.74
358.731	2.09
359.1	2.11
359.469	1.87
359.838	1.54
360.207	1.82
360.576	2.23
360.945	2.09
361.314	1.92
361.682	1.52
362.051	1.97
362.42	1.65
362.788	1.68
363.157	2.18
363.525	1.58
363.894	1.91
364.262	1.81
364.631	1.69
364.999	1.92
365.367	2.08
365.735	1.96
366.104	1.66
366.472	1.79
366.84	1.56
367.208	1.54
367.576	1.46
367.944	2.05
368.312	2.23
368.68	1.94
369.048	1.83
369.416	1.74
369.783	1.62
370.151	1.47
370.519	1.81
370.886	2.05
371.254	1.55
371.621	1.87
371.989	1.9
372.356	1.95
372.724	2.2
373.091	1.89
373.458	1.86
373.826	2.07
374.193	2.12
374.56	1.88
374.927	1.45
375.294	1.88
375.661	2.23
376.028	1.74
376.395	2.01
376.762	2.01
377.129	1.71
377.496	1.9
377.863	2.08
378.229	2.06
378.596	2.02
378.963	2.18
379.329	2
379.696	2.03
380.062	1.88
380.429	1.79
380.795	2.14
381.161	1.84
381.528	2.34
381.894	2.03
382.26	1.9
382.626	2.24
382.993	1.9
383.359	1.98
383.725	2.15
384.091	2.24
384.457	2.15
384.823	2.11
385.188	2.12
385.554	1.99
385.92	1.79
386.286	2.05
386.651	1.66
387.017	2.1
387.383	2.16
387.748	1.81
388.114	1.77
388.479	1.66
388.845	1.96
389.21	1.83
389.575	2.38
389.94	2.07
390.306	2
390.671	2.1
391.036	1.95
391.401	2.39
391.766	2.27
392.131	1.98
392.496	1.67
392.861	2.11
393.226	2.02
393.591	1.69
393.956	2.04
394.32	1.91
394.685	2.12
395.05	2.13
395.414	2.21
395.779	2.16
396.143	1.93
396.508	2.06
396.872	2.16
397.236	1.97
397.601	1.86
397.965	2.13
398.329	2.21
398.694	2.22
399.058	1.93
399.422	2.2
399.786	2.08
400.15	2.17
400.514	2.07
400.878	2.04
401.242	2.03
401.605	1.99
401.969	1.9
402.333	2.22
402.697	2.03
403.06	2.24
403.424	2.32
403.787	1.94
404.151	1.9
404.514	2
404.878	2.04
405.241	2.21
405.604	2.23
405.968	1.91
406.331	2.11
406.694	2.26
407.057	2.16
407.42	1.93
407.783	2.02
408.146	1.83
408.509	2.11
408.872	2.05
409.235	2
409.598	2.18
409.961	2.05
410.323	2.34
410.686	2.13
411.049	2.41
411.411	2.13
411.774	2.06
412.136	1.93
412.499	2.03
412.861	1.99
413.223	1.95
413.586	1.97
413.948	2.15
414.31	2.05
414.672	2.01
415.035	2.05
415.397	2.03
415.759	2.23
416.121	2.25
416.483	2.11
416.845	2.26
417.206	2.34
417.568	2.34
417.93	1.94
418.292	2.12
418.653	2.08
419.015	1.99
419.377	1.85
419.738	2.29
420.1	2.08
420.461	2.11
420.822	2.13
421.184	2.12
421.545	2.07
421.906	1.97
422.267	2.08
422.629	1.99
422.99	1.91
423.351	2.05
423.712	1.97
424.073	2.08
424.434	2.17
424.795	2.11
425.155	1.9
425.516	2.1
425.877	2.01
426.238	2.04
426.598	2.04
426.959	2.05
427.32	1.97
427.68	2.07
428.041	2.11
428.401	2.13
428.761	2.13
429.122	2.07
429.482	2.17
429.842	2.32
430.202	2.09
430.563	2.26
430.923	2.24
431.283	2.13
431.643	1.99
432.003	2.05
432.363	2.34
432.722	2.21
433.082	2.07
433.442	2.24
433.802	2.18
434.161	2.26
434.521	2.11
434.881	2.01
435.24	2.19
435.6	2.2
435.959	2.19
436.319	2.16
436.678	2.14
437.037	2.23
437.396	2.25
437.756	2.26
438.115	2.24
438.474	2.34
438.833	2.24
439.192	2.25
439.551	2.08
439.91	2.3
440.269	2.09
440.628	2.16
440.987	2.16
441.345	2.11
441.704	2.18
442.063	2.19
442.421	2.18
442.78	2.19
443.138	2.1
443.497	1.99
443.855	2.23
444.214	2.21
444.572	2.33
444.93	2.27
445.288	2.14
445.647	2.15
446.005	2.31
446.363	2.28
446.721	2.24
447.079	2.25
447.437	2.17
447.795	2.11
448.153	2.29
448.51	2.16
448.868	2.21
449.226	2.22
449.584	2.13
449.941	2.23
450.299	2.26
450.656	2.21
451.014	2.25
451.371	2.17
451.729	2.15
452.086	2.2
452.443	2.33
452.801	2.42
453.158	2.23
453.515	2.33
453.872	2.15
454.229	2.2
454.586	2.33
454.943	2.15
455.3	2.26
455.657	2.34
456.014	2.26
456.371	2.42
456.727	2.29
457.084	2.31
457.441	2.52
457.797	2.27
458.154	2.34
458.51	2.45
458.867	2.28
459.223	2.47
459.58	2.31
459.936	2.32
460.292	2.36
460.648	2.36
461.005	2.18
461.361	2.24
461.717	2.15
462.073	2.24
462.429	2.23
462.785	2.31
463.141	2.33
463.496	2.44
463.852	2.31
464.208	2.44
464.564	2.31
464.919	2.45
465.275	2.55
465.631	2.35
465.986	2.45
466.342	2.41
466.697	2.3
467.052	2.29
467.408	2.31
467.763	2.37
468.118	2.32
468.473	2.27
468.829	2.5
469.184	2.27
469.539	2.54
469.894	2.42
470.249	2.46
470.603	2.32
470.958	2.35
471.313	2.33
471.668	2.23
472.023	2.31
472.377	2.46
472.732	2.41
473.086	2.48
473.441	2.43
473.795	2.42
474.15	2.6
474.504	2.43
474.859	2.33
475.213	2.38
475.567	2.45
475.921	2.65
476.275	2.48
476.63	2.54
476.984	2.55
477.338	2.62
477.692	2.46
478.045	2.52
478.399	2.43
478.753	2.26
479.107	2.36
479.461	2.38
479.814	2.72
480.168	2.51
480.521	2.48
480.875	2.49
481.228	2.41
481.582	2.56
481.935	2.42
482.289	2.45
482.642	2.52
482.995	2.52
483.348	2.47
483.701	2.47
484.055	2.45
484.408	2.42
484.761	2.36
485.114	2.31
485.466	2.26
485.819	2.22
486.172	2.2
486.525	2.29
486.878	2.32
487.23	2.35
487.583	2.44
487.936	2.46
488.288	2.43
488.641	2.35
488.993	2.4
489.345	2.31
489.698	2.32
490.05	2.31
490.402	2.3
490.754	2.38
491.107	2.42
491.459	2.47
491.811	2.49
492.163	2.55
492.515	2.56
492.866	2.53
493.218	2.4
493.57	2.38
493.922	2.32
494.274	2.33
494.625	2.42
494.977	2.64
495.328	2.58
495.68	2.65
496.031	2.66
496.383	2.58
496.734	2.52
497.086	2.66
497.437	2.64
497.788	2.57
498.139	2.56
498.49	2.58
498.842	2.55
499.193	2.53
499.544	2.54
499.894	2.62
500.245	2.53
500.596	2.58
500.947	2.6
501.298	2.71
501.648	2.75
501.999	2.7
502.35	2.62
502.7	2.66
503.051	2.66
503.401	2.68
503.752	2.76
504.102	2.54
504.452	2.69
504.803	2.83
505.153	2.6
505.503	2.65
505.853	2.66
506.203	2.56
506.553	2.7
506.903	2.83
507.253	2.76
507.603	2.6
507.953	2.74
508.303	2.88
508.652	2.71
509.002	2.81
509.352	2.64
509.701	2.73
510.051	2.76
510.4	2.74
510.75	2.77
511.099	2.8
511.449	2.8
511.798	2.79
512.147	2.8
512.496	2.71
512.846	2.62
513.195	2.72
513.544	2.92
513.893	2.86
514.242	2.82
514.591	2.8
514.939	2.72
515.288	2.85
515.637	2.91
515.986	2.73
516.334	2.85
516.683	2.86
517.032	2.91
517.38	2.85
517.729	2.98
518.077	2.82
518.426	2.85
518.774	2.9
519.122	2.94
519.47	2.82
519.819	2.86
520.167	2.73
520.515	2.85
520.863	2.74
521.211	2.78
521.559	2.82
521.907	2.9
522.255	2.8
522.602	2.9
522.95	2.93
523.298	3.05
523.645	3.01
523.993	2.9
524.341	3.02
524.688	3.06
525.036	2.9
525.383	3.01
525.73	3.04
526.078	3.06
526.425	2.95
526.772	2.99
527.119	3.01
527.466	2.89
527.814	2.8
528.161	2.92
528.508	2.94
528.854	3.04
529.201	2.98
529.548	2.93
529.895	2.95
530.242	2.81
530.588	2.77
530.935	2.79
531.282	2.83
531.628	2.91
531.975	2.97
532.321	2.95
532.667	3.05
533.014	3.11
533.36	3.11
533.706	3.09
534.052	3.09
534.399	3.06
534.745	3.09
535.091	3
535.437	2.98
535.783	3.01
536.129	3.04
536.474	3.13
536.82	3.22
537.166	3.18
537.512	3.16
537.857	3.34
538.203	3.1
538.549	3.12
538.894	3.12
539.239	3.04
539.585	3.18
539.93	3.22
540.276	3.33
540.621	3.42
540.966	3.28
541.311	3.34
541.656	3.38
542.001	3.38
542.346	3.32
542.691	3.27
543.036	3.15
543.381	3.18
543.726	3.1
544.071	3.22
544.415	3.3
544.76	3.3
545.105	3.39
545.449	3.35
545.794	3.43
546.138	3.46
546.483	3.37
546.827	3.45
547.171	3.49
547.516	3.51
547.86	3.41
548.204	3.56
548.548	3.45
548.892	3.37
549.236	3.32
549.58	3.47
549.924	3.39
550.268	3.61
550.612	3.59
550.956	3.59
551.3	3.6
551.643	3.79
551.987	3.66
552.33	3.75
552.674	3.81
553.017	3.69
553.361	3.88
553.704	3.62
554.048	3.77
554.391	3.79
554.734	3.76
555.077	3.74
555.42	3.79
555.764	3.84
556.107	3.72
556.45	3.86
556.793	3.75
557.135	3.9
557.478	3.74
557.821	3.82
558.164	4.01
558.507	3.95
558.849	4.02
559.192	3.84
559.534	3.73
559.877	4.02
560.219	4.19
560.562	3.99
560.904	4.12
561.246	4.04
561.589	4.01
561.931	4.13
562.273	3.94
562.615	3.93
562.957	4.21
563.299	4.13
563.641	4.1
563.983	4.1
564.325	4.11
564.667	4.03
565.008	4.09
565.35	4.48
565.692	4.3
566.033	3.89
566.375	4.13
566.716	4.35
567.058	4.32
567.399	4.24
567.741	4.33
568.082	4.24
568.423	4.16
568.764	4.2
569.105	4.46
569.447	4.47
569.788	4.31
570.129	4.44
570.47	4.41
570.811	4.57
571.151	4.19
571.492	4.53
571.833	4.4
572.174	4.44
572.514	4.41
572.855	4.41
573.195	4.63
573.536	4.57
573.876	4.32
574.217	4.58
574.557	4.46
574.898	4.56
575.238	4.51
575.578	4.54
575.918	4.58
576.258	4.66
576.598	4.57
576.938	4.54
577.278	4.62
577.618	4.61
577.958	4.56
578.298	4.77
578.638	4.7
578.977	4.81
579.317	4.84
579.657	4.75
579.996	4.81
580.336	4.75
580.675	4.82
581.014	5.01
581.354	4.93
581.693	4.98
582.032	5.11
582.372	4.92
582.711	5.26
583.05	4.84
583.389	5.14
583.728	5.05
584.067	5.37
584.406	5.12
584.745	5.14
585.083	5.11
585.422	5.02
585.761	5.22
586.1	5.47
586.438	5.26
586.777	5.23
587.115	5.4
587.454	5.47
587.792	5.49
588.13	5.41
588.469	5.1
588.807	5.37
589.145	5.55
589.483	5.68
589.821	5.35
590.159	5.52
590.497	5.81
590.835	5.43
591.173	5.61
591.511	5.42
591.849	5.63
592.187	5.66
592.524	5.77
592.862	5.68
593.2	5.67
593.537	5.71
593.875	5.95
594.212	5.92
594.55	6.06
594.887	5.67
595.224	5.63
595.561	5.77
595.899	5.49
596.236	5.99
596.573	6.04
596.91	5.97
597.247	5.92
597.584	5.95
597.921	5.97
598.258	5.88
598.594	6.09
598.931	5.75
599.268	5.9
599.604	6.03
599.941	5.95
600.277	6.05
600.614	6.33
600.95	6.31
601.287	6.46
601.623	6.18
601.959	6.19
602.296	6.61
602.632	6.41
602.968	6.28
603.304	6.28
603.64	6.51
603.976	6.45
604.312	6.23
604.648	6.41
604.984	6.08
605.319	6.42
605.655	6.45
605.991	6.52
606.326	6.4
606.662	6.37
606.998	6.4
607.333	6.36
607.668	6.6
608.004	6.65
608.339	6.71
608.674	6.48
609.01	6.97
609.345	7.03
609.68	6.63
610.015	6.76
610.35	6.79
610.685	6.98
611.02	6.88
611.355	6.98
611.689	6.61
612.024	7.05
612.359	6.77
612.694	7.09
613.028	6.86
613.363	6.82
613.697	6.82
614.032	6.85
614.366	6.92
614.7	7.13
615.035	7.09
615.369	7.3
615.703	7.14
616.037	6.99
616.371	7.17
616.705	7.39
617.039	6.99
617.373	7.1
617.707	7.35
618.041	7.73
618.375	7.42
618.709	7.56
619.042	7.49
619.376	7.35
619.71	7.56
620.043	7.74
620.377	7.91
620.71	7.51
621.043	7.84
621.377	7.88
621.71	7.87
622.043	6.83
622.376	7.93
622.709	7.64
623.043	7.9
623.376	7.75
623.709	8.09
624.041	8.37
624.374	7.67
624.707	7.78
625.04	7.63
625.373	8.05
625.705	8.48
626.038	7.94
626.37	8.25
626.703	8.25
627.035	8.28
627.368	8.41
627.7	8.61
628.032	8.27
628.365	7.99
628.697	7.98
629.029	8.19
629.361	7.97
629.693	8.22
630.025	8.33
630.357	8.12
630.689	8.37
631.021	8.64
631.353	8.38
631.684	8.54
632.016	8.15
632.348	8.47
632.679	8.56
633.011	8.42
633.342	8.41
633.674	8.83
634.005	8.65
634.336	8.37
634.668	8.76
634.999	8.61
635.33	8.5
635.661	8.75
635.992	8.49
636.323	8.97
636.654	8.86
636.985	8.98
637.316	8.9
637.647	9.1
637.977	9.08
638.308	8.96
638.639	9.16
638.969	9.38
639.3	9.3
639.63	9.04
639.961	9.43
640.291	9.24
640.622	8.81
640.952	8.99
641.282	9.18
641.612	9.3
641.943	9.47
642.273	9.8
642.603	9.23
642.933	9.06
643.263	9.66
643.592	9.29
643.922	9.55
644.252	9.88
644.582	9.55
644.911	9.89
645.241	10
645.571	9.42
645.9	9.34
646.23	9.89
646.559	9.13
646.888	10
647.218	9.26
647.547	9.73
647.876	10.1
648.205	9.73
648.534	10.09
648.863	9.6
649.192	9.77
649.521	10.15
649.85	10.18
650.179	10.08
650.508	10.19
650.837	9.87
651.165	10.32
651.494	10.54
651.822	10.04
652.151	10.47
652.479	10.78
652.808	9.7
653.136	10.11
653.465	10.49
653.793	10.12
654.121	10.16
654.449	10.53
654.777	10.22
655.105	10.27
655.433	10.76
655.761	10.36
656.089	10.98
656.417	10.43
656.745	10.94
657.073	10.32
657.4	10.89
657.728	10.76
658.056	11.11
658.383	10.89
658.711	11.27
659.038	11.51
659.365	10.54
659.693	10.53
660.02	11.29
660.347	11.2
660.674	10.93
661.001	11.24
661.329	10.78
661.656	10.83
661.982	10.98
662.309	11.26
662.636	11.13
662.963	11.57
663.29	11.34
663.616	11.13
663.943	11.45
664.27	11.59
664.596	11.58
664.923	11.52
665.249	11.73
665.576	11.67
665.902	11.68
666.228	10.79
666.554	11.29
666.881	11.47
667.207	11.19
667.533	11.5
667.859	10.81
668.185	11.71
668.511	11.4
668.837	11.12
669.162	12.35
669.488	11.75
669.814	11.98
670.139	11.38
670.465	11.8
670.791	11.88
671.116	11.75
671.442	12.13
671.767	11.79
672.092	11.81
672.418	12.17
672.743	11.92
673.068	11.87
673.393	12.44
673.718	11.8
674.043	11.9
674.368	12.32
674.693	12.12
675.018	12.92
675.343	12.46
675.667	13.05
675.992	12.83
676.317	12.06
676.641	12.51
676.966	12.59
677.29	12.09
677.615	13.21
677.939	12.43
678.264	12.46
678.588	12.04
678.912	12.99
679.236	11.88
679.56	12.21
679.885	12.72
680.209	12.64
680.532	13.17
680.856	12.75
681.18	12.93
681.504	12.46
681.828	13.4
682.152	12.66
682.475	13.05
682.799	13.09
683.122	12.89
683.446	12.67
683.769	13.44
684.093	13.06
684.416	13.27
684.739	12.61
685.062	13.9
685.386	12.93
685.709	14.07
686.032	12.67
686.355	13.94
686.678	14.09
687.001	12.95
687.324	13.07
687.646	14.47
687.969	13.29
688.292	14.31
688.614	14.57
688.937	13.85
