Data from 0143_crown_Reflection__4__212.txt Node

Date: Mon Aug 28 20:26:36 CDT 2023
User: ToomeyLab
Spectrometer: FLMS14357
Trigger mode: 0
Integration Time (sec): 1.000000E-2
Scans to average: 100
Electric dark correction enabled: true
Nonlinearity correction enabled: false
Boxcar width: 0
XAxis mode: Wavelengths
Number of Pixels in Spectrum: 2048
>>>>>Begin Spectral Data<<<<<
189.047	-1306.38
189.435	-1306.38
189.823	-1306.38
190.211	-123.31
190.599	55.85
190.987	-7.66
191.375	-70.67
191.763	168.65
192.151	90.19
192.538	102.88
192.926	85.2
193.314	43.75
193.702	194.28
194.089	155.15
194.477	20.02
194.864	46.44
195.252	-506.58
195.639	33.03
196.027	89.46
196.414	46.45
196.801	-857.61
197.189	8.46
197.576	81.59
197.963	70.2
198.351	-63.3
198.738	23.25
199.125	16.07
199.512	-9.65
199.899	38.42
200.286	-10.45
200.673	33.32
201.06	5.56
201.447	-98.15
201.833	-61.43
202.22	12.92
202.607	5.55
202.994	45.81
203.38	7.78
203.767	-24.02
204.154	-33
204.54	-30.84
204.927	-52.72
205.313	21.14
205.699	-51.54
206.086	43.5
206.472	-3.07
206.858	-65.13
207.245	-27.01
207.631	8.28
208.017	-34.24
208.403	-21.6
208.789	27.71
209.175	-38.89
209.561	-23.05
209.947	18.19
210.333	-20.09
210.719	20.72
211.105	7.79
211.491	-14.15
211.876	29.45
212.262	3.86
212.648	18.7
213.034	14.05
213.419	-23.35
213.805	18.21
214.19	-3.72
214.576	16.84
214.961	-22.82
215.346	-32.74
215.732	12.58
216.117	-21.69
216.502	8.03
216.888	-60.67
217.273	-36.29
217.658	0.1
218.043	0.89
218.428	-15.08
218.813	-4.99
219.198	9.99
219.583	21.73
219.968	21.71
220.353	-36.9
220.738	18.93
221.122	1.17
221.507	-21.23
221.892	5.83
222.276	-10.15
222.661	-9.82
223.046	4.38
223.43	1.05
223.815	6.31
224.199	1.62
224.583	8.66
224.968	18.45
225.352	8.31
225.736	13.41
226.121	7.84
226.505	-0.1
226.889	10.51
227.273	2.68
227.657	4.34
228.041	7.66
228.425	3.22
228.809	4.3
229.193	10.76
229.577	6.02
229.961	5.21
230.344	9.72
230.728	7.7
231.112	7.6
231.495	7.19
231.879	6.2
232.263	6.62
232.646	5.93
233.03	8.12
233.413	10.52
233.797	5.83
234.18	6.63
234.563	7.24
234.946	9.44
235.33	5.1
235.713	3.86
236.096	6.74
236.479	7.32
236.862	7.81
237.245	7.47
237.628	6.57
238.011	7.87
238.394	5.46
238.777	7.08
239.16	4.61
239.543	5.52
239.925	9.34
240.308	4.89
240.691	4.79
241.073	4.01
241.456	5.78
241.838	6.05
242.221	7.76
242.603	7.37
242.986	6.73
243.368	6.56
243.75	6.74
244.133	6.4
244.515	6.49
244.897	6.15
245.279	6.69
245.661	6.28
246.043	6
246.425	5.07
246.807	6.3
247.189	5.43
247.571	6.64
247.953	6.08
248.335	5.54
248.717	5.84
249.098	6.16
249.48	5.83
249.862	6.35
250.243	5.98
250.625	6.29
251.006	5.73
251.388	6.31
251.769	6.47
252.151	5.51
252.532	5.06
252.913	6.32
253.295	4.81
253.676	5.2
254.057	6.27
254.438	5.3
254.819	5.77
255.2	6.03
255.581	5.6
255.962	4.66
256.343	6.6
256.724	4.17
257.105	4.58
257.486	5.43
257.867	5.59
258.247	6.27
258.628	7.12
259.009	4.52
259.389	4.71
259.77	5.38
260.15	5.13
260.531	5.43
260.911	5.36
261.292	5.93
261.672	5.44
262.052	5.3
262.432	5.41
262.813	5.82
263.193	4.84
263.573	4.78
263.953	5.72
264.333	5.44
264.713	5.07
265.093	6.01
265.473	5.45
265.853	4.6
266.233	4.65
266.612	5.4
266.992	4.68
267.372	4.69
267.752	5.73
268.131	5.14
268.511	4.48
268.89	5.47
269.27	5.55
269.649	4.84
270.029	5.58
270.408	5.49
270.787	5.68
271.167	5.18
271.546	4.75
271.925	5.4
272.304	5.2
272.683	5.58
273.062	5.11
273.441	5.25
273.82	5.04
274.199	4.11
274.578	5.25
274.957	5.01
275.336	5.4
275.715	5.34
276.093	4.31
276.472	4.84
276.851	4.49
277.229	5.65
277.608	5.35
277.986	4.07
278.365	5.05
278.743	4.91
279.122	5.18
279.5	5.26
279.878	4.6
280.257	4.11
280.635	5.03
281.013	4.45
281.391	4.89
281.769	4.93
282.147	5.54
282.525	5.21
282.903	5.01
283.281	4.54
283.659	5.2
284.037	5.47
284.415	4.47
284.792	5.2
285.17	4.48
285.548	4.19
285.925	5.45
286.303	4.8
286.68	5.13
287.058	4.95
287.435	4.44
287.813	4.86
288.19	5.15
288.567	4.91
288.945	5.15
289.322	4.89
289.699	4.97
290.076	4.99
290.453	5.35
290.83	4.18
291.207	4.63
291.584	4.76
291.961	5.05
292.338	4.95
292.715	4.92
293.092	4.98
293.469	4.83
293.845	4.27
294.222	4.45
294.599	5.02
294.975	4.91
295.352	4.63
295.728	4.69
296.105	4.98
296.481	4.49
296.858	5.14
297.234	4.22
297.61	4.77
297.986	4.96
298.363	4.79
298.739	4.24
299.115	4.48
299.491	4.89
299.867	4.77
300.243	4.63
300.619	4.52
300.995	4.76
301.371	4.46
301.746	4.88
302.122	4.63
302.498	4.86
302.874	4.19
303.249	4.68
303.625	5.04
304	4.31
304.376	4.23
304.751	4.25
305.127	4.64
305.502	4.55
305.878	3.82
306.253	4.4
306.628	5.07
307.003	4.53
307.378	4.55
307.754	4.61
308.129	4.05
308.504	5.2
308.879	4.51
309.254	4.79
309.629	4.55
310.003	4.23
310.378	4.46
310.753	4.87
311.128	4.92
311.502	4.9
311.877	4.26
312.252	4.71
312.626	4.06
313.001	4.79
313.375	4.49
313.75	4.49
314.124	4.87
314.498	4.3
314.873	4.9
315.247	4.92
315.621	4.05
315.995	5.39
316.369	5.02
316.743	3.92
317.117	5.11
317.491	3.85
317.865	3.87
318.239	4.32
318.613	4.34
318.987	4.32
319.361	4.82
319.734	3.82
320.108	4.46
320.482	4.46
320.855	4.24
321.229	4.17
321.602	4.5
321.976	3.83
322.349	4.53
322.723	4.27
323.096	4.79
323.469	3.89
323.843	4.15
324.216	4.32
324.589	4.46
324.962	4.88
325.335	4.77
325.708	3.81
326.081	3.88
326.454	5.05
326.827	4.51
327.2	3.74
327.573	4.34
327.945	4.89
328.318	4.83
328.691	4.4
329.063	4.04
329.436	4.15
329.809	4.82
330.181	4.06
330.553	3.72
330.926	4.7
331.298	3.88
331.671	3.47
332.043	4.45
332.415	5.06
332.787	4.47
333.159	4.59
333.532	5.1
333.904	4.98
334.276	4.14
334.648	4.85
335.02	4.95
335.391	4.34
335.763	4.03
336.135	5.14
336.507	4.27
336.879	4.44
337.25	4.84
337.622	4.29
337.993	4.52
338.365	4.13
338.736	4.8
339.108	3.99
339.479	4.21
339.851	4.82
340.222	4.31
340.593	4.17
340.964	4.44
341.336	4.41
341.707	4.36
342.078	4.19
342.449	4.47
342.82	4.33
343.191	4.59
343.562	4.49
343.933	4.2
344.303	4.1
344.674	4.71
345.045	4.62
345.416	4.59
345.786	4.53
346.157	4.49
346.527	3.97
346.898	4.62
347.268	4.21
347.639	4.08
348.009	4.33
348.38	4.55
348.75	4.4
349.12	4.48
349.49	4.25
349.861	3.86
350.231	4.05
350.601	5.12
350.971	4.48
351.341	4.94
351.711	4.31
352.081	4.42
352.45	4.33
352.82	4.3
353.19	4.46
353.56	4.76
353.929	4.58
354.299	4.19
354.669	4.24
355.038	4.59
355.408	4.49
355.777	4.52
356.147	4.46
356.516	4.94
356.885	4.51
357.254	4.72
357.624	4.49
357.993	4.48
358.362	3.99
358.731	4.73
359.1	4.6
359.469	4.64
359.838	4.28
360.207	4.6
360.576	4.71
360.945	4.55
361.314	4.34
361.682	4.64
362.051	4.73
362.42	4.39
362.788	4.47
363.157	4.46
363.525	4.44
363.894	4.62
364.262	4.56
364.631	4.43
364.999	4.61
365.367	4.69
365.735	4.47
366.104	4.49
366.472	4.58
366.84	4.43
367.208	4.3
367.576	4.21
367.944	4.81
368.312	5.06
368.68	4.73
369.048	4.7
369.416	4.52
369.783	4.53
370.151	4.89
370.519	4.67
370.886	4.36
371.254	4.43
371.621	4.38
371.989	4.37
372.356	4.37
372.724	5.09
373.091	4.86
373.458	4.66
373.826	4.65
374.193	4.61
374.56	4.83
374.927	4.41
375.294	4.79
375.661	4.84
376.028	4.3
376.395	4.6
376.762	4.83
377.129	4.7
377.496	4.53
377.863	4.94
378.229	4.64
378.596	4.83
378.963	5.05
379.329	4.84
379.696	4.86
380.062	4.71
380.429	4.75
380.795	4.81
381.161	4.86
381.528	4.87
381.894	4.82
382.26	4.62
382.626	4.51
382.993	4.6
383.359	4.76
383.725	5.04
384.091	4.89
384.457	4.82
384.823	4.75
385.188	4.68
385.554	4.78
385.92	4.8
386.286	5.09
386.651	4.94
387.017	4.92
387.383	4.92
387.748	4.67
388.114	4.61
388.479	4.56
388.845	4.81
389.21	4.68
389.575	4.91
389.94	4.96
390.306	4.66
390.671	4.76
391.036	4.59
391.401	5.14
391.766	5
392.131	5.02
392.496	4.75
392.861	4.7
393.226	5.02
393.591	4.75
393.956	4.86
394.32	4.7
394.685	4.97
395.05	4.76
395.414	4.84
395.779	4.74
396.143	4.7
396.508	4.71
396.872	4.96
397.236	4.8
397.601	4.76
397.965	4.87
398.329	5
398.694	4.96
399.058	4.81
399.422	4.87
399.786	5.05
400.15	4.99
400.514	4.86
400.878	4.69
401.242	4.75
401.605	4.94
401.969	4.77
402.333	4.92
402.697	4.9
403.06	4.97
403.424	5.2
403.787	4.98
404.151	4.69
404.514	4.67
404.878	4.86
405.241	5.07
405.604	4.97
405.968	4.82
406.331	4.99
406.694	4.96
407.057	4.97
407.42	4.89
407.783	4.84
408.146	4.67
408.509	5.07
408.872	4.78
409.235	5
409.598	5.01
409.961	4.76
410.323	4.99
410.686	4.87
411.049	5.14
411.411	5.05
411.774	4.97
412.136	4.89
412.499	4.98
412.861	4.85
413.223	4.96
413.586	4.54
413.948	4.93
414.31	4.92
414.672	4.79
415.035	5.02
415.397	4.93
415.759	4.94
416.121	5.31
416.483	5
416.845	5.06
417.206	5.09
417.568	5.02
417.93	5.03
418.292	4.94
418.653	4.7
419.015	4.95
419.377	4.78
419.738	5.12
420.1	4.9
420.461	5.02
420.822	4.94
421.184	4.94
421.545	4.94
421.906	4.87
422.267	4.86
422.629	4.8
422.99	4.93
423.351	4.88
423.712	4.79
424.073	4.8
424.434	4.89
424.795	4.81
425.155	4.81
425.516	4.86
425.877	4.82
426.238	4.74
426.598	4.92
426.959	4.78
427.32	4.83
427.68	4.92
428.041	4.9
428.401	5
428.761	4.73
429.122	4.91
429.482	4.96
429.842	4.96
430.202	4.93
430.563	4.95
430.923	4.98
431.283	5.13
431.643	4.97
432.003	5.07
432.363	5.05
432.722	5.04
433.082	5.01
433.442	5.05
433.802	4.96
434.161	4.98
434.521	5.09
434.881	4.85
435.24	4.88
435.6	4.82
435.959	5.02
436.319	5
436.678	4.82
437.037	4.93
437.396	4.99
437.756	4.9
438.115	5.05
438.474	5.09
438.833	4.96
439.192	5.06
439.551	4.7
439.91	5.04
440.269	4.81
440.628	4.84
440.987	4.96
441.345	4.79
441.704	4.97
442.063	4.94
442.421	5
442.78	4.97
443.138	4.86
443.497	4.81
443.855	4.83
444.214	4.96
444.572	4.94
444.93	4.92
445.288	4.81
445.647	4.9
446.005	5.16
446.363	5.04
446.721	4.89
447.079	4.97
447.437	4.84
447.795	4.86
448.153	4.9
448.51	4.83
448.868	4.97
449.226	4.88
449.584	4.77
449.941	4.91
450.299	4.98
450.656	4.9
451.014	4.78
451.371	5.02
451.729	4.82
452.086	5
452.443	5.14
452.801	5.04
453.158	5.1
453.515	4.98
453.872	4.96
454.229	5
454.586	5.13
454.943	4.82
455.3	5.07
455.657	4.83
456.014	5.06
456.371	5.06
456.727	5
457.084	4.91
457.441	5.13
457.797	5.07
458.154	4.96
458.51	5.24
458.867	4.84
459.223	4.95
459.58	4.82
459.936	4.98
460.292	5.09
460.648	4.99
461.005	4.87
461.361	4.94
461.717	4.93
462.073	4.97
462.429	4.79
462.785	4.91
463.141	4.88
463.496	5.1
463.852	5.1
464.208	4.87
464.564	5
464.919	5.06
465.275	5.09
465.631	4.79
465.986	5.06
466.342	4.84
466.697	4.85
467.052	4.91
467.408	4.92
467.763	4.91
468.118	4.75
468.473	4.78
468.829	4.99
469.184	5
469.539	5.1
469.894	4.88
470.249	5.09
470.603	5.02
470.958	4.98
471.313	4.98
471.668	4.82
472.023	5.07
472.377	5.08
472.732	5.03
473.086	5
473.441	4.91
473.795	4.99
474.15	5.03
474.504	4.9
474.859	4.91
475.213	4.94
475.567	5.06
475.921	5.18
476.275	4.94
476.63	5.03
476.984	5.05
477.338	5.15
477.692	4.86
478.045	5.06
478.399	4.97
478.753	4.87
479.107	5.03
479.461	4.89
479.814	5.23
480.168	5.02
480.521	4.97
480.875	4.87
481.228	4.99
481.582	4.96
481.935	5.04
482.289	5.01
482.642	4.99
482.995	4.98
483.348	4.99
483.701	4.87
484.055	4.86
484.408	4.86
484.761	4.89
485.114	4.81
485.466	4.73
485.819	4.69
486.172	4.63
486.525	4.66
486.878	4.68
487.23	4.75
487.583	4.79
487.936	4.8
488.288	4.75
488.641	4.83
488.993	4.82
489.345	4.82
489.698	4.75
490.05	4.69
490.402	4.72
490.754	4.76
491.107	4.78
491.459	4.8
491.811	4.8
492.163	4.85
492.515	4.88
492.866	4.85
493.218	4.8
493.57	4.8
493.922	4.74
494.274	4.72
494.625	4.73
494.977	4.91
495.328	4.91
495.68	4.94
496.031	4.88
496.383	4.83
496.734	4.91
497.086	4.95
497.437	4.99
497.788	4.93
498.139	5.02
498.49	4.95
498.842	4.88
499.193	4.77
499.544	4.91
499.894	4.93
500.245	4.83
500.596	4.85
500.947	4.96
501.298	4.95
501.648	4.88
501.999	4.86
502.35	4.94
502.7	4.89
503.051	5.03
503.401	4.98
503.752	5.02
504.102	4.98
504.452	4.86
504.803	4.98
505.153	4.89
505.503	5.02
505.853	4.95
506.203	5.03
506.553	4.91
506.903	5.09
507.253	5.01
507.603	5
507.953	4.94
508.303	5.03
508.652	4.89
509.002	5.07
509.352	4.76
509.701	4.95
510.051	4.93
510.4	4.94
510.75	4.99
511.099	5.04
511.449	5.02
511.798	4.92
512.147	4.98
512.496	4.91
512.846	4.9
513.195	4.93
513.544	4.99
513.893	4.87
514.242	4.96
514.591	5.03
514.939	4.87
515.288	4.93
515.637	4.91
515.986	4.87
516.334	4.93
516.683	5
517.032	4.93
517.38	5.04
517.729	5
518.077	4.94
518.426	4.91
518.774	4.94
519.122	4.97
519.47	4.87
519.819	4.97
520.167	4.92
520.515	4.97
520.863	4.84
521.211	4.78
521.559	4.86
521.907	4.88
522.255	4.74
522.602	4.91
522.95	4.98
523.298	5.03
523.645	5.02
523.993	5.02
524.341	4.91
524.688	5
525.036	5.07
525.383	5.05
525.73	5.06
526.078	5.03
526.425	4.87
526.772	5.04
527.119	5.02
527.466	4.96
527.814	4.87
528.161	4.86
528.508	4.85
528.854	4.86
529.201	4.89
529.548	4.81
529.895	4.86
530.242	4.76
530.588	4.73
530.935	4.72
531.282	4.76
531.628	4.69
531.975	4.76
532.321	4.75
532.667	4.81
533.014	4.85
533.36	4.91
533.706	4.84
534.052	4.84
534.399	4.89
534.745	4.92
535.091	4.83
535.437	4.78
535.783	4.85
536.129	4.8
536.474	4.76
536.82	4.83
537.166	4.82
537.512	4.92
537.857	4.98
538.203	4.87
538.549	4.93
538.894	4.9
539.239	4.82
539.585	4.82
539.93	4.94
540.276	4.95
540.621	4.87
540.966	4.91
541.311	5.08
541.656	4.96
542.001	4.9
542.346	4.97
542.691	4.9
543.036	4.87
543.381	4.81
543.726	4.82
544.071	4.83
544.415	4.82
544.76	4.78
545.105	4.77
545.449	4.79
545.794	4.87
546.138	4.93
546.483	4.92
546.827	4.84
547.171	4.86
547.516	4.95
547.86	5.06
548.204	5.01
548.548	4.85
548.892	4.88
549.236	4.84
549.58	4.82
549.924	4.91
550.268	5.04
550.612	5.03
550.956	5
551.3	5.03
551.643	5.23
551.987	4.84
552.33	5.16
552.674	5.04
553.017	5.09
553.361	4.98
553.704	4.89
554.048	5.11
554.391	4.97
554.734	5.08
555.077	4.99
555.42	5.13
555.764	5.05
556.107	4.95
556.45	4.96
556.793	4.87
557.135	4.92
557.478	4.96
557.821	4.91
558.164	5.13
558.507	5.05
558.849	5.07
559.192	4.94
559.534	4.79
559.877	4.9
560.219	5.04
560.562	5.04
560.904	5.23
561.246	5.09
561.589	5.11
561.931	5.14
562.273	5.06
562.615	4.94
562.957	5.12
563.299	5
563.641	4.85
563.983	5.01
564.325	4.91
564.667	4.91
565.008	4.82
565.35	5.24
565.692	5.25
566.033	4.93
566.375	4.95
566.716	5.13
567.058	5.09
567.399	4.94
567.741	5.13
568.082	5.01
568.423	5.05
568.764	4.84
569.105	5.2
569.447	5.12
569.788	5.05
570.129	4.95
570.47	4.9
570.811	5.11
571.151	4.91
571.492	4.98
571.833	5.07
572.174	5.07
572.514	5.01
572.855	4.82
573.195	5.21
573.536	5.22
573.876	5.02
574.217	5.07
574.557	5.11
574.898	5.15
575.238	4.98
575.578	4.89
575.918	5.11
576.258	5.13
576.598	5.04
576.938	4.79
577.278	5.03
577.618	5.08
577.958	5.09
578.298	5.34
578.638	4.95
578.977	4.82
579.317	4.94
579.657	4.97
579.996	5.04
580.336	5.1
580.675	4.99
581.014	5.06
581.354	5.05
581.693	5.11
582.032	5.12
582.372	4.96
582.711	5.34
583.05	5.09
583.389	5.13
583.728	5.12
584.067	5.38
584.406	5
584.745	5.06
585.083	4.98
585.422	4.98
585.761	4.96
586.1	5.41
586.438	5.14
586.777	4.88
587.115	5.28
587.454	5.11
587.792	5.08
588.13	5.39
588.469	5.17
588.807	5.07
589.145	5.02
589.483	5.09
589.821	5.03
590.159	5.3
590.497	5.14
590.835	5.17
591.173	5.07
591.511	4.8
591.849	5.04
592.187	4.98
592.524	5.1
592.862	5.03
593.2	4.88
593.537	5.23
593.875	5.28
594.212	5.2
594.55	5.49
594.887	5.14
595.224	4.98
595.561	4.87
595.899	4.72
596.236	5.24
596.573	5.17
596.91	5.03
597.247	5.14
597.584	5.28
597.921	4.88
598.258	5
598.594	5.02
598.931	4.92
599.268	5.21
599.604	4.99
599.941	5.09
600.277	4.94
600.614	5.27
600.95	5.06
601.287	4.94
601.623	5.35
601.959	5.3
602.296	5.12
602.632	5.08
602.968	4.98
603.304	5.27
603.64	5.14
603.976	4.95
604.312	4.96
604.648	4.9
604.984	5.02
605.319	5.11
605.655	5.01
605.991	5.23
606.326	5.25
606.662	5.15
606.998	4.98
607.333	4.92
607.668	5.18
608.004	5.09
608.339	5.08
608.674	4.87
609.01	5.19
609.345	5.35
609.68	5.13
610.015	5.19
610.35	5.41
610.685	5.09
611.02	5.24
611.355	5.32
611.689	4.95
612.024	5.3
612.359	5.17
612.694	5.18
613.028	5.27
613.363	5.02
613.697	5.03
614.032	5.14
614.366	5.05
614.7	5.17
615.035	4.85
615.369	4.98
615.703	4.93
616.037	4.98
616.371	5.05
616.705	4.95
617.039	5.34
617.373	4.71
617.707	5.12
618.041	5.15
618.375	5.07
618.709	5.03
619.042	5.32
619.376	5.17
619.71	5.26
620.043	5.18
620.377	5.21
620.71	5.04
621.043	5.29
621.377	5.34
621.71	5.1
622.043	4.66
622.376	5.22
622.709	4.84
623.043	5.49
623.376	5.55
623.709	5.45
624.041	5.29
624.374	5.18
624.707	5.04
625.04	4.87
625.373	5.2
625.705	5.49
626.038	5.31
626.37	5.45
626.703	5.47
627.035	5.29
627.368	5.24
627.7	5.41
628.032	5.03
628.365	4.95
628.697	5.46
629.029	5.36
629.361	5.43
629.693	5.15
630.025	5.18
630.357	5.06
630.689	5.17
631.021	5.34
631.353	5.3
631.684	5.55
632.016	4.81
632.348	4.92
632.679	5.16
633.011	5.2
633.342	4.98
633.674	4.94
634.005	5.04
634.336	4.92
634.668	5.29
634.999	4.9
635.33	5.47
635.661	5.48
635.992	5.38
636.323	5.44
636.654	5.2
636.985	5.24
637.316	5.02
637.647	5.22
637.977	5.1
638.308	5.58
638.639	5.08
638.969	5.4
639.3	5.55
639.63	5.15
639.961	5.37
640.291	5.01
640.622	5.52
640.952	5.12
641.282	4.92
641.612	5.11
641.943	5.21
642.273	5.92
642.603	5.13
642.933	4.84
643.263	5.9
643.592	5.26
643.922	5.4
644.252	5.29
644.582	5.41
644.911	5.5
645.241	4.97
645.571	5.29
645.9	5.13
646.23	5.12
646.559	5.12
646.888	5.39
647.218	4.79
647.547	4.96
647.876	5.49
648.205	5.23
648.534	5.08
648.863	4.76
649.192	5.33
649.521	5.32
649.85	5.86
650.179	5.04
650.508	5.51
650.837	5.1
651.165	5.76
651.494	5.23
651.822	4.9
652.151	5.26
652.479	6.03
652.808	5.21
653.136	5.25
653.465	5.3
653.793	5.5
654.121	5.87
654.449	5.12
654.777	5.19
655.105	5.61
655.433	5.39
655.761	5.27
656.089	5.23
656.417	5.03
656.745	5.74
657.073	5.31
657.4	5.05
657.728	5.83
658.056	5.63
658.383	5.05
658.711	5.33
659.038	5.38
659.365	5.35
659.693	5.09
660.02	5.72
660.347	5.59
660.674	5.51
661.001	5.73
661.329	5.32
661.656	5.38
661.982	5.49
662.309	5.62
662.636	5.51
662.963	5.69
663.29	5.51
663.616	5.53
663.943	5.41
664.27	5.39
664.596	5.1
664.923	5.21
665.249	5.73
665.576	5.82
665.902	5.32
666.228	5.78
666.554	5.5
666.881	5.47
667.207	4.93
667.533	5.34
667.859	5.07
668.185	5.26
668.511	5.57
668.837	5.02
669.162	6.17
669.488	4.98
669.814	6.16
670.139	5.05
670.465	5.5
670.791	5.62
671.116	5.37
671.442	5.62
671.767	5.14
672.092	5.34
672.418	5.35
672.743	5.67
673.068	5.35
673.393	5.87
673.718	4.88
674.043	5.27
674.368	5.45
674.693	5.88
675.018	5.95
675.343	5.71
675.667	5.68
675.992	5.63
676.317	4.9
676.641	5.59
676.966	5.37
677.29	4.63
677.615	6.06
677.939	5.84
678.264	4.95
678.588	5.57
678.912	6.01
679.236	5.11
679.56	5.1
679.885	6.16
680.209	5.4
680.532	5.43
680.856	5.56
681.18	5.76
681.504	5.14
681.828	6.08
682.152	5.68
682.475	5.43
682.799	5.88
683.122	5.49
683.446	5.68
683.769	5.34
684.093	5.62
684.416	6.1
684.739	5.23
685.062	6.22
685.386	5.03
685.709	5.83
686.032	5.47
686.355	5.12
686.678	5.62
687.001	5.28
687.324	5.32
687.646	5.24
687.969	5.65
688.292	5.95
688.614	6.42
688.937	5.88
689.26	6.12
689.582	4.65
689.904	5.59
690.227	5.8
690.549	5.17
690.871	6.3
691.194	5.41
691.516	4.75
691.838	5.89
692.16	6.35
692.482	5.55
692.804	5.7
693.126	5.11
