Data from 0143_crown_Reflection__2__210.txt Node

Date: Mon Aug 28 20:26:16 CDT 2023
User: ToomeyLab
Spectrometer: FLMS14357
Trigger mode: 0
Integration Time (sec): 1.000000E-2
Scans to average: 100
Electric dark correction enabled: true
Nonlinearity correction enabled: false
Boxcar width: 0
XAxis mode: Wavelengths
Number of Pixels in Spectrum: 2048
>>>>>Begin Spectral Data<<<<<
189.047	2124.26
189.435	2124.26
189.823	2124.26
190.211	37.25
190.599	-25.48
190.987	63.61
191.375	-309.01
191.763	116.31
192.151	-169.35
192.538	57.99
192.926	78.3
193.314	-38.03
193.702	30.31
194.089	68.74
194.477	-264.33
194.864	105.09
195.252	-320.29
195.639	114.41
196.027	75.74
196.414	67.2
196.801	-629.51
197.189	-12.95
197.576	125.9
197.963	23.82
198.351	-47.06
198.738	25.23
199.125	54.56
199.512	-1.82
199.899	24.43
200.286	-33.65
200.673	33.3
201.06	-11.66
201.447	22.85
201.833	57.44
202.22	15.81
202.607	15.49
202.994	71.84
203.38	37.69
203.767	40.19
204.154	14.8
204.54	-48.5
204.927	10.69
205.313	33.17
205.699	0.67
206.086	-13.78
206.472	24.03
206.858	-17.45
207.245	23.15
207.631	36.69
208.017	27.27
208.403	8.03
208.789	7.16
209.175	-16.67
209.561	-1.56
209.947	0
210.333	9.46
210.719	-11.16
211.105	16.32
211.491	1.67
211.876	19.26
212.262	-33.05
212.648	49.55
213.034	1.69
213.419	-39.48
213.805	-1.62
214.19	-23.86
214.576	18.78
214.961	12.89
215.346	-1.26
215.732	21.37
216.117	-41.62
216.502	4.1
216.888	-30.28
217.273	-17.12
217.658	30.15
218.043	-14.07
218.428	7.37
218.813	8.22
219.198	-7.67
219.583	-4.53
219.968	2.94
220.353	-16.27
220.738	18.92
221.122	24.82
221.507	-8.99
221.892	-4.31
222.276	-14.53
222.661	0.61
223.046	-4.02
223.43	5.82
223.815	9.44
224.199	17.2
224.583	6.22
224.968	8.71
225.352	4.42
225.736	5.99
226.121	4.98
226.505	3.51
226.889	8.14
227.273	5.08
227.657	1.65
228.041	9.41
228.425	7.92
228.809	2.61
229.193	4.17
229.577	4.8
229.961	4.68
230.344	4.91
230.728	5.66
231.112	4.77
231.495	4.9
231.879	4.58
232.263	4.64
232.646	2.85
233.03	5.81
233.413	6.76
233.797	3.76
234.18	2.67
234.563	3.68
234.946	6.02
235.33	3.78
235.713	2.42
236.096	7.53
236.479	3.49
236.862	6.17
237.245	4.97
237.628	6.5
238.011	5.7
238.394	4.71
238.777	7.23
239.16	2.27
239.543	2.16
239.925	6.29
240.308	2.38
240.691	3.56
241.073	2.88
241.456	3.77
241.838	4.75
242.221	5.81
242.603	5.54
242.986	5.06
243.368	4.93
243.75	4.33
244.133	3.99
244.515	4.12
244.897	5.31
245.279	4.29
245.661	4.48
246.043	4.53
246.425	4.68
246.807	5.02
247.189	3.44
247.571	4.87
247.953	4.22
248.335	4.44
248.717	3.72
249.098	4.17
249.48	4.13
249.862	4.07
250.243	4.12
250.625	4.91
251.006	4.17
251.388	4.25
251.769	4.89
252.151	3.37
252.532	2.9
252.913	5.06
253.295	2.87
253.676	3.52
254.057	4.42
254.438	4.07
254.819	3.7
255.2	4.11
255.581	4.03
255.962	4.45
256.343	5.22
256.724	3.65
257.105	2.77
257.486	4.12
257.867	4.28
258.247	3.68
258.628	4.25
259.009	3.53
259.389	2.77
259.77	4.59
260.15	3.77
260.531	3.35
260.911	4.16
261.292	4.09
261.672	3.62
262.052	3.55
262.432	3.68
262.813	3.83
263.193	3.85
263.573	3.74
263.953	3.98
264.333	3.67
264.713	3.25
265.093	4.07
265.473	3.5
265.853	3.23
266.233	2.9
266.612	4.26
266.992	3.41
267.372	3.67
267.752	4.52
268.131	3.72
268.511	2.57
268.89	4.06
269.27	3.75
269.649	3.61
270.029	4.13
270.408	3.56
270.787	4.25
271.167	4.33
271.546	3.88
271.925	3.37
272.304	3.42
272.683	4.32
273.062	3.42
273.441	3.71
273.82	3.76
274.199	3
274.578	3.67
274.957	3.6
275.336	3.88
275.715	3.96
276.093	3.44
276.472	3.36
276.851	3.34
277.229	3.67
277.608	3.83
277.986	3.05
278.365	3.68
278.743	3.2
279.122	3.41
279.5	2.99
279.878	3.56
280.257	3.23
280.635	3.13
281.013	3.7
281.391	3.51
281.769	2.61
282.147	3.66
282.525	3.51
282.903	3.41
283.281	3.29
283.659	3.87
284.037	3.66
284.415	3.48
284.792	3.89
285.17	3.3
285.548	3.4
285.925	3.97
286.303	2.9
286.68	3.61
287.058	3.21
287.435	3.22
287.813	3.34
288.19	3.7
288.567	3.37
288.945	3.3
289.322	3.77
289.699	3.77
290.076	3.8
290.453	3.71
290.83	3.21
291.207	3.01
291.584	3.77
291.961	3.72
292.338	3.33
292.715	3.26
293.092	3.34
293.469	3.48
293.845	3.01
294.222	2.94
294.599	3.89
294.975	3.54
295.352	3.44
295.728	3.26
296.105	3.27
296.481	3.32
296.858	3.61
297.234	3.47
297.61	3.21
297.986	2.98
298.363	3.52
298.739	3.21
299.115	2.99
299.491	3.34
299.867	3.25
300.243	3.55
300.619	3.38
300.995	3.54
301.371	3.33
301.746	3.6
302.122	3.46
302.498	3.22
302.874	3.6
303.249	3.74
303.625	2.93
304	3.07
304.376	3
304.751	2.99
305.127	3.65
305.502	3.3
305.878	3.14
306.253	3.22
306.628	2.96
307.003	3.1
307.378	3.13
307.754	3.67
308.129	2.77
308.504	3.93
308.879	3.13
309.254	3.36
309.629	3.43
310.003	3.56
310.378	3.09
310.753	2.97
311.128	3.63
311.502	3.34
311.877	3.17
312.252	3.38
312.626	3.09
313.001	3.14
313.375	3.18
313.75	2.93
314.124	3.08
314.498	3.25
314.873	3.45
315.247	3.53
315.621	3.16
315.995	3.84
316.369	3.09
316.743	2.66
317.117	3.4
317.491	2.85
317.865	2.91
318.239	2.98
318.613	3.34
318.987	2.92
319.361	3.56
319.734	3.47
320.108	3.08
320.482	3.2
320.855	2.88
321.229	3.33
321.602	2.83
321.976	2.53
322.349	3.08
322.723	3.12
323.096	3.45
323.469	2.92
323.843	2.78
324.216	3.42
324.589	2.7
324.962	2.87
325.335	3.49
325.708	3.08
326.081	3.06
326.454	3.28
326.827	3.25
327.2	2.99
327.573	3.35
327.945	3.28
328.318	3.71
328.691	2.63
329.063	2.43
329.436	2.64
329.809	3.24
330.181	2.46
330.553	2.62
330.926	3.75
331.298	2.84
331.671	3.16
332.043	3.14
332.415	3.44
332.787	2.95
333.159	2.87
333.532	3.24
333.904	2.73
334.276	2.91
334.648	3.38
335.02	3.51
335.391	2.84
335.763	2.78
336.135	3.23
336.507	3.21
336.879	2.71
337.25	3.56
337.622	2.98
337.993	3.33
338.365	2.85
338.736	3.2
339.108	2.69
339.479	2.37
339.851	3.31
340.222	3.66
340.593	2.86
340.964	3.19
341.336	2.67
341.707	3.16
342.078	2.93
342.449	3.09
342.82	3.48
343.191	3.37
343.562	2.79
343.933	3
344.303	2.8
344.674	2.97
345.045	3.15
345.416	2.84
345.786	3.23
346.157	3.14
346.527	2.83
346.898	2.95
347.268	2.75
347.639	2.68
348.009	3.02
348.38	3.31
348.75	3.09
349.12	3.46
349.49	3.06
349.861	2.75
350.231	2.51
350.601	3.4
350.971	2.97
351.341	3.4
351.711	2.84
352.081	3
352.45	3.02
352.82	3.37
353.19	3.8
353.56	3.36
353.929	3.19
354.299	3.13
354.669	2.94
355.038	3.59
355.408	3.28
355.777	3.06
356.147	2.93
356.516	3.45
356.885	3.23
357.254	3.17
357.624	3.14
357.993	3.4
358.362	2.73
358.731	3.08
359.1	3.01
359.469	3.61
359.838	2.96
360.207	3.24
360.576	3.61
360.945	3.23
361.314	2.94
361.682	3.11
362.051	3.2
362.42	3.05
362.788	3.25
363.157	3.1
363.525	2.98
363.894	3.22
364.262	3.14
364.631	2.83
364.999	3.07
365.367	3.45
365.735	3.42
366.104	3.05
366.472	3.29
366.84	2.94
367.208	3.17
367.576	2.98
367.944	2.99
368.312	3.35
368.68	3.06
369.048	3.26
369.416	2.9
369.783	3.13
370.151	3.09
370.519	2.94
370.886	2.75
371.254	2.93
371.621	2.86
371.989	3.15
372.356	3.3
372.724	3.46
373.091	3.41
373.458	3.02
373.826	3.31
374.193	3.49
374.56	3.21
374.927	2.93
375.294	3.16
375.661	3.5
376.028	2.94
376.395	3.12
376.762	3.49
377.129	3.1
377.496	3.21
377.863	3.46
378.229	3.13
378.596	3.35
378.963	3.26
379.329	3.18
379.696	2.95
380.062	3.14
380.429	2.98
380.795	3.45
381.161	3.07
381.528	3.4
381.894	3.27
382.26	3.41
382.626	3.23
382.993	3.44
383.359	3.38
383.725	3.29
384.091	3.42
384.457	3
384.823	2.7
385.188	3.19
385.554	3.03
385.92	3.05
386.286	3.82
386.651	3.3
387.017	3.36
387.383	3.24
387.748	3.18
388.114	3.1
388.479	2.98
388.845	3.25
389.21	3.23
389.575	3.59
389.94	3.45
390.306	3.47
390.671	3.05
391.036	3.26
391.401	3.46
391.766	3.65
392.131	3.46
392.496	3.07
392.861	3.26
393.226	3.41
393.591	3.16
393.956	3.3
394.32	3.16
394.685	3.25
395.05	3.32
395.414	3.17
395.779	3.14
396.143	3.42
396.508	3.2
396.872	3.39
397.236	3.18
397.601	3.08
397.965	3.57
398.329	3.38
398.694	3.28
399.058	3.39
399.422	3.4
399.786	3.25
400.15	3.49
400.514	3.4
400.878	3.4
401.242	3.42
401.605	3.48
401.969	3.26
402.333	3.24
402.697	3.29
403.06	3.67
403.424	3.43
403.787	3.19
404.151	3.22
404.514	3.28
404.878	3.23
405.241	3.39
405.604	3.5
405.968	3.27
406.331	3.5
406.694	3.42
407.057	3.61
407.42	3.31
407.783	3.25
408.146	3.33
408.509	3.54
408.872	3.35
409.235	3.55
409.598	3.44
409.961	3.01
410.323	3.55
410.686	3.44
411.049	3.82
411.411	3.31
411.774	3.45
412.136	3.59
412.499	3.47
412.861	3.38
413.223	3.43
413.586	3.2
413.948	3.44
414.31	3.47
414.672	3.4
415.035	3.42
415.397	3.45
415.759	3.45
416.121	3.56
416.483	3.37
416.845	3.22
417.206	3.46
417.568	3.33
417.93	3.26
418.292	3.45
418.653	3.34
419.015	3.41
419.377	3.06
419.738	3.55
420.1	3.41
420.461	3.42
420.822	3.35
421.184	3.46
421.545	3.38
421.906	3.21
422.267	3.35
422.629	3.33
422.99	3.24
423.351	3.39
423.712	3.27
424.073	3.34
424.434	3.44
424.795	3.35
425.155	3.33
425.516	3.23
425.877	3.36
426.238	3.25
426.598	3.32
426.959	3.43
427.32	3.38
427.68	3.36
428.041	3.29
428.401	3.37
428.761	3.37
429.122	3.32
429.482	3.47
429.842	3.44
430.202	3.23
430.563	3.56
430.923	3.59
431.283	3.4
431.643	3.36
432.003	3.46
432.363	3.49
432.722	3.35
433.082	3.51
433.442	3.49
433.802	3.35
434.161	3.48
434.521	3.3
434.881	3.34
435.24	3.46
435.6	3.41
435.959	3.45
436.319	3.5
436.678	3.53
437.037	3.46
437.396	3.53
437.756	3.46
438.115	3.47
438.474	3.56
438.833	3.5
439.192	3.57
439.551	3.48
439.91	3.38
440.269	3.33
440.628	3.37
440.987	3.59
441.345	3.44
441.704	3.47
442.063	3.35
442.421	3.42
442.78	3.49
443.138	3.47
443.497	3.38
443.855	3.48
444.214	3.52
444.572	3.55
444.93	3.58
445.288	3.41
445.647	3.44
446.005	3.46
446.363	3.36
446.721	3.43
447.079	3.44
447.437	3.44
447.795	3.26
448.153	3.5
448.51	3.48
448.868	3.45
449.226	3.39
449.584	3.46
449.941	3.44
450.299	3.63
450.656	3.43
451.014	3.44
451.371	3.58
451.729	3.4
452.086	3.51
452.443	3.66
452.801	3.59
453.158	3.47
453.515	3.54
453.872	3.52
454.229	3.52
454.586	3.6
454.943	3.57
455.3	3.61
455.657	3.57
456.014	3.79
456.371	3.5
456.727	3.63
457.084	3.48
457.441	3.54
457.797	3.67
458.154	3.76
458.51	3.69
458.867	3.56
459.223	3.57
459.58	3.53
459.936	3.68
460.292	3.59
460.648	3.52
461.005	3.39
461.361	3.33
461.717	3.57
462.073	3.45
462.429	3.49
462.785	3.46
463.141	3.52
463.496	3.82
463.852	3.49
464.208	3.49
464.564	3.67
464.919	3.67
465.275	3.56
465.631	3.67
465.986	3.68
466.342	3.69
466.697	3.51
467.052	3.44
467.408	3.48
467.763	3.38
468.118	3.46
468.473	3.47
468.829	3.56
469.184	3.48
469.539	3.7
469.894	3.59
470.249	3.34
470.603	3.57
470.958	3.54
471.313	3.68
471.668	3.44
472.023	3.51
472.377	3.56
472.732	3.71
473.086	3.69
473.441	3.52
473.795	3.62
474.15	3.61
474.504	3.65
474.859	3.62
475.213	3.58
475.567	3.61
475.921	3.79
476.275	3.58
476.63	3.77
476.984	3.58
477.338	3.65
477.692	3.61
478.045	3.73
478.399	3.61
478.753	3.61
479.107	3.65
479.461	3.57
479.814	3.77
480.168	3.66
480.521	3.52
480.875	3.62
481.228	3.57
481.582	3.61
481.935	3.59
482.289	3.58
482.642	3.67
482.995	3.73
483.348	3.58
483.701	3.6
484.055	3.52
484.408	3.55
484.761	3.44
485.114	3.39
485.466	3.34
485.819	3.29
486.172	3.24
486.525	3.31
486.878	3.41
487.23	3.5
487.583	3.59
487.936	3.62
488.288	3.55
488.641	3.5
488.993	3.43
489.345	3.46
489.698	3.4
490.05	3.38
490.402	3.35
490.754	3.57
491.107	3.55
491.459	3.55
491.811	3.63
492.163	3.55
492.515	3.65
492.866	3.57
493.218	3.44
493.57	3.47
493.922	3.35
494.274	3.44
494.625	3.45
494.977	3.68
495.328	3.69
495.68	3.72
496.031	3.54
496.383	3.57
496.734	3.64
497.086	3.7
497.437	3.67
497.788	3.54
498.139	3.53
498.49	3.66
498.842	3.62
499.193	3.55
499.544	3.57
499.894	3.64
500.245	3.6
500.596	3.67
500.947	3.66
501.298	3.72
501.648	3.57
501.999	3.64
502.35	3.6
502.7	3.73
503.051	3.68
503.401	3.55
503.752	3.66
504.102	3.58
504.452	3.6
504.803	3.79
505.153	3.61
505.503	3.56
505.853	3.6
506.203	3.67
506.553	3.63
506.903	3.75
507.253	3.66
507.603	3.61
507.953	3.78
508.303	3.7
508.652	3.58
509.002	3.84
509.352	3.51
509.701	3.63
510.051	3.61
510.4	3.67
510.75	3.59
511.099	3.67
511.449	3.71
511.798	3.69
512.147	3.71
512.496	3.74
512.846	3.66
513.195	3.63
513.544	3.66
513.893	3.73
514.242	3.65
514.591	3.8
514.939	3.48
515.288	3.69
515.637	3.71
515.986	3.66
516.334	3.74
516.683	3.77
517.032	3.72
517.38	3.79
517.729	3.71
518.077	3.79
518.426	3.56
518.774	3.74
519.122	3.72
519.47	3.71
519.819	3.72
520.167	3.59
520.515	3.67
520.863	3.49
521.211	3.6
521.559	3.69
521.907	3.71
522.255	3.59
522.602	3.66
522.95	3.76
523.298	3.77
523.645	3.74
523.993	3.75
524.341	3.89
524.688	3.62
525.036	3.79
525.383	3.73
525.73	3.76
526.078	3.85
526.425	3.63
526.772	3.62
527.119	3.7
527.466	3.64
527.814	3.6
528.161	3.59
528.508	3.62
528.854	3.65
529.201	3.8
529.548	3.63
529.895	3.59
530.242	3.48
530.588	3.45
530.935	3.44
531.282	3.49
531.628	3.54
531.975	3.6
532.321	3.62
532.667	3.68
533.014	3.75
533.36	3.69
533.706	3.67
534.052	3.72
534.399	3.67
534.745	3.7
535.091	3.58
535.437	3.62
535.783	3.6
536.129	3.66
536.474	3.68
536.82	3.8
537.166	3.71
537.512	3.81
537.857	3.85
538.203	3.57
538.549	3.61
538.894	3.55
539.239	3.63
539.585	3.76
539.93	3.72
540.276	3.77
540.621	3.72
540.966	3.71
541.311	3.79
541.656	3.72
542.001	3.8
542.346	3.78
542.691	3.64
543.036	3.54
543.381	3.57
543.726	3.57
544.071	3.6
544.415	3.66
544.76	3.67
545.105	3.72
545.449	3.64
545.794	3.79
546.138	3.71
546.483	3.73
546.827	3.75
547.171	3.73
547.516	3.69
547.86	3.76
548.204	3.85
548.548	3.76
548.892	3.66
549.236	3.64
549.58	3.75
549.924	3.72
550.268	3.81
550.612	3.8
550.956	3.84
551.3	3.89
551.643	3.92
551.987	3.84
552.33	3.96
552.674	3.91
553.017	3.81
553.361	3.86
553.704	3.74
554.048	3.67
554.391	3.77
554.734	3.78
555.077	3.91
555.42	3.69
555.764	3.87
556.107	3.71
556.45	3.8
556.793	3.87
557.135	3.91
557.478	3.75
557.821	3.93
558.164	4.07
558.507	3.79
558.849	3.97
559.192	3.76
559.534	3.77
559.877	3.93
560.219	3.88
560.562	3.86
560.904	3.84
561.246	3.77
561.589	3.87
561.931	3.89
562.273	3.76
562.615	3.69
562.957	3.95
563.299	3.96
563.641	3.68
563.983	3.97
564.325	3.83
564.667	3.65
565.008	3.77
565.35	3.98
565.692	4.01
566.033	3.79
566.375	3.85
566.716	3.75
567.058	3.92
567.399	3.8
567.741	3.74
568.082	3.74
568.423	3.75
568.764	3.54
569.105	3.92
569.447	3.81
569.788	3.84
570.129	3.75
570.47	3.86
570.811	3.77
571.151	3.8
571.492	3.93
571.833	3.76
572.174	3.98
572.514	3.77
572.855	3.65
573.195	3.8
573.536	3.77
573.876	3.6
574.217	3.84
574.557	3.84
574.898	3.86
575.238	3.74
575.578	3.77
575.918	3.78
576.258	3.83
576.598	3.83
576.938	3.78
577.278	3.84
577.618	3.82
577.958	3.79
578.298	3.89
578.638	3.85
578.977	3.79
579.317	3.79
579.657	3.91
579.996	3.9
580.336	3.83
580.675	3.74
581.014	3.96
581.354	3.9
581.693	3.77
582.032	3.92
582.372	3.96
582.711	3.99
583.05	3.77
583.389	4
583.728	3.79
584.067	4.06
584.406	3.95
584.745	4
585.083	3.91
585.422	3.77
585.761	3.94
586.1	4.21
586.438	3.71
586.777	3.76
587.115	3.98
587.454	3.85
587.792	4.05
588.13	4.06
588.469	4
588.807	3.95
589.145	4.06
589.483	3.82
589.821	3.89
590.159	4.05
590.497	3.89
590.835	3.89
591.173	3.72
591.511	3.85
591.849	4.01
592.187	3.94
592.524	4.01
592.862	3.98
593.2	3.64
593.537	3.76
593.875	4.04
594.212	4.05
594.55	4.07
594.887	3.94
595.224	3.92
595.561	3.7
595.899	3.66
596.236	4
596.573	4.03
596.91	3.87
597.247	3.98
597.584	3.95
597.921	3.6
598.258	3.94
598.594	3.88
598.931	3.88
599.268	3.92
599.604	3.79
599.941	3.8
600.277	3.92
600.614	4.11
600.95	3.93
601.287	3.88
601.623	4.2
601.959	3.89
602.296	3.9
602.632	4.11
602.968	3.94
603.304	3.92
603.64	3.84
603.976	4
604.312	3.86
604.648	3.88
604.984	3.86
605.319	4.02
605.655	4.02
605.991	4.01
606.326	3.98
606.662	3.97
606.998	3.96
607.333	3.85
607.668	3.8
608.004	3.9
608.339	4.04
608.674	3.88
609.01	3.87
609.345	4.19
609.68	3.71
610.015	4.1
610.35	3.98
610.685	3.95
611.02	3.91
611.355	4.13
611.689	3.9
612.024	3.83
612.359	3.93
612.694	3.97
613.028	3.95
613.363	3.9
613.697	3.83
614.032	3.87
614.366	3.67
614.7	3.94
615.035	3.85
615.369	3.89
615.703	3.65
616.037	3.85
616.371	3.86
616.705	3.98
617.039	3.96
617.373	3.73
617.707	3.78
618.041	3.98
618.375	4.13
618.709	4.05
619.042	4.2
619.376	4.04
619.71	3.96
620.043	3.81
620.377	4.08
620.71	3.94
621.043	4.02
621.377	4.25
621.71	4.06
622.043	3.47
622.376	4.03
622.709	3.75
623.043	4.34
623.376	4.1
623.709	4.03
624.041	4.18
624.374	3.63
624.707	3.67
625.04	3.71
625.373	3.96
625.705	4.42
626.038	3.89
626.37	4.03
626.703	4.01
627.035	4.3
627.368	4.5
627.7	4.33
628.032	4.17
628.365	3.75
628.697	3.91
629.029	4.3
629.361	4.19
629.693	3.88
630.025	4.09
630.357	3.81
630.689	4.17
631.021	4.07
631.353	4.02
631.684	4.42
632.016	3.72
632.348	4.12
632.679	4.16
633.011	4.1
633.342	3.52
633.674	4.09
634.005	3.88
634.336	3.9
634.668	3.91
634.999	4.48
635.33	4.22
635.661	4.23
635.992	3.67
636.323	4.08
636.654	3.96
636.985	3.68
637.316	4.11
637.647	3.92
637.977	3.99
638.308	4.3
638.639	4.13
638.969	4.16
639.3	4.2
639.63	3.88
639.961	4.37
640.291	4.23
640.622	4.03
640.952	3.89
641.282	4.16
641.612	3.98
641.943	4.21
642.273	4.26
642.603	3.83
642.933	3.93
643.263	4.03
643.592	3.94
643.922	4.37
644.252	3.65
644.582	3.88
644.911	4.02
645.241	4.14
645.571	3.71
645.9	4.01
646.23	4.56
646.559	4.01
646.888	4.33
647.218	3.91
647.547	4
647.876	4.12
648.205	4.06
648.534	4.34
648.863	3.61
649.192	4.05
649.521	4.4
649.85	4.33
650.179	4.41
650.508	4.22
650.837	3.9
651.165	4.07
651.494	4.31
651.822	3.87
652.151	4.08
652.479	4.49
652.808	4.25
653.136	4.18
653.465	4.03
653.793	4.28
654.121	4.27
654.449	4.38
654.777	4.04
655.105	4.3
655.433	4.01
655.761	3.91
656.089	4.43
656.417	3.73
656.745	4.67
657.073	3.99
657.4	4.24
657.728	5.04
658.056	4.13
658.383	4.4
658.711	4.08
659.038	4.8
659.365	4.7
659.693	3.47
660.02	4.07
660.347	4.44
660.674	4.13
661.001	4.3
661.329	3.73
661.656	4.13
661.982	3.8
662.309	4.38
662.636	3.99
662.963	4.25
663.29	4.33
663.616	4.03
663.943	4.46
664.27	4.53
664.596	4.01
664.923	4.59
665.249	4.29
665.576	4.21
665.902	4.06
666.228	4.37
666.554	4.4
666.881	4.42
667.207	4.12
667.533	4.45
667.859	3.68
668.185	4.14
668.511	4.47
668.837	3.68
669.162	4.89
669.488	3.41
669.814	3.96
670.139	4.1
670.465	4.56
670.791	4.51
671.116	4.26
671.442	4.02
671.767	3.62
672.092	4.34
672.418	3.85
672.743	4.8
673.068	4.3
673.393	4.21
673.718	3.82
674.043	4.11
674.368	3.91
674.693	4.8
675.018	4.77
675.343	4.37
675.667	4.68
675.992	3.96
676.317	4.08
676.641	4.63
676.966	4.11
677.29	3.74
677.615	5.19
677.939	4.18
678.264	3.61
678.588	4.61
678.912	4.67
679.236	4.39
679.56	4.05
679.885	4.25
680.209	3.69
680.532	4.25
680.856	4.13
681.18	4.48
681.504	4.1
681.828	4.33
682.152	4.49
682.475	4.54
682.799	4.41
683.122	4.01
683.446	4.58
683.769	4.95
684.093	3.88
684.416	4.28
684.739	3.73
685.062	4.06
685.386	3.67
685.709	4.19
686.032	3.66
686.355	3.74
686.678	3.8
687.001	3.53
687.324	4.38
687.646	4.05
687.969	4.15
688.292	4.59
688.614	4.77
688.937	4.77
689.26	4.42
689.582	3.76
689.904	4.48
690.227	4.97
690.549	3.72
690.871	4.64
691.194	5.18
691.516	3.95
691.838	4.6
692.16	4.85
692.482	4.26
692.804	4.09
