Data from 0143_chest_Reflection__2__200.txt Node

Date: Mon Aug 28 20:22:52 CDT 2023
User: ToomeyLab
Spectrometer: FLMS14357
Trigger mode: 0
Integration Time (sec): 1.000000E-2
Scans to average: 100
Electric dark correction enabled: true
Nonlinearity correction enabled: false
Boxcar width: 0
XAxis mode: Wavelengths
Number of Pixels in Spectrum: 2048
>>>>>Begin Spectral Data<<<<<
189.047	-1699.57
189.435	-1699.57
189.823	-1699.57
190.211	-2.72
190.599	25.9
190.987	118.98
191.375	-134.19
191.763	80.2
192.151	-288.64
192.538	45.76
192.926	92.8
193.314	-61.99
193.702	115.89
194.089	90.62
194.477	-221.38
194.864	7.59
195.252	-185.21
195.639	60.28
196.027	76.08
196.414	110.65
196.801	-931.62
197.189	22.43
197.576	15.79
197.963	-56.74
198.351	-55.22
198.738	4.33
199.125	-14.81
199.512	-27.7
199.899	-23.97
200.286	13.46
200.673	35.71
201.06	12.26
201.447	-174.35
201.833	-7.26
202.22	4.13
202.607	6.5
202.994	37.11
203.38	-9.79
203.767	-2.33
204.154	18.28
204.54	-58.58
204.927	-57.76
205.313	25.25
205.699	-34.14
206.086	79.48
206.472	16.71
206.858	-29.35
207.245	17.62
207.631	23.44
208.017	-3.24
208.403	29.44
208.789	-3.26
209.175	-13.42
209.561	1.61
209.947	-3.23
210.333	-21.42
210.719	-1.81
211.105	1.08
211.491	-35.57
211.876	33.35
212.262	-18.27
212.648	42.69
213.034	-14.89
213.419	-11.03
213.805	10.13
214.19	-21.53
214.576	5.35
214.961	-27.9
215.346	-20.11
215.732	8.83
216.117	-26.05
216.502	4.32
216.888	-38.12
217.273	-25.96
217.658	6.47
218.043	-32.28
218.428	13.9
218.813	-10.78
219.198	-15.24
219.583	-3.98
219.968	6.67
220.353	-15.35
220.738	21.67
221.122	15.05
221.507	3.11
221.892	13.69
222.276	15.03
222.661	3.03
223.046	-1.47
223.43	-2.27
223.815	13.98
224.199	9.88
224.583	9.94
224.968	7.49
225.352	0.09
225.736	8.53
226.121	1.78
226.505	0.32
226.889	14.73
227.273	8.8
227.657	11.6
228.041	8.81
228.425	6.81
228.809	2.11
229.193	7.66
229.577	8.28
229.961	3.84
230.344	6.22
230.728	6.66
231.112	6.02
231.495	6.33
231.879	5.54
232.263	4.76
232.646	4.81
233.03	7.86
233.413	9.02
233.797	6.15
234.18	5.66
234.563	5.18
234.946	9.93
235.33	6.14
235.713	2.72
236.096	5.43
236.479	4.26
236.862	7.58
237.245	4.25
237.628	5.53
238.011	7.92
238.394	6.81
238.777	7.11
239.16	3.52
239.543	5.32
239.925	6.98
240.308	4.62
240.691	5.42
241.073	4.22
241.456	5.43
241.838	6.2
242.221	6.48
242.603	6.12
242.986	7.8
243.368	6.39
243.75	5.69
244.133	5.81
244.515	5.8
244.897	6.36
245.279	5.63
245.661	5.09
246.043	5.53
246.425	5.67
246.807	6.14
247.189	5.44
247.571	5.99
247.953	5.79
248.335	5.64
248.717	5.32
249.098	5.47
249.48	5.63
249.862	5.71
250.243	5.74
250.625	6.21
251.006	5.98
251.388	4.99
251.769	5.37
252.151	6.02
252.532	4.67
252.913	5.08
253.295	4.61
253.676	4.93
254.057	5.03
254.438	5.77
254.819	5.15
255.2	5.65
255.581	5.19
255.962	5.32
256.343	6.52
256.724	4.75
257.105	5
257.486	5.12
257.867	4.19
258.247	5.62
258.628	6.39
259.009	4.71
259.389	4.31
259.77	4.95
260.15	5.14
260.531	4.97
260.911	4.87
261.292	5.43
261.672	5.26
262.052	5.01
262.432	5.13
262.813	5.31
263.193	4.79
263.573	4.78
263.953	5.08
264.333	4.36
264.713	4.8
265.093	5.79
265.473	6.07
265.853	4.02
266.233	4.21
266.612	5.63
266.992	4.3
267.372	5.27
267.752	5.68
268.131	5.03
268.511	4.45
268.89	5.69
269.27	4.71
269.649	4.93
270.029	5.45
270.408	5.65
270.787	5.51
271.167	4.65
271.546	5.18
271.925	4.85
272.304	4.88
272.683	5.39
273.062	4.62
273.441	5.19
273.82	4.48
274.199	4.87
274.578	4.97
274.957	4.98
275.336	5.56
275.715	5.28
276.093	4.49
276.472	4.58
276.851	4.77
277.229	5.54
277.608	4.87
277.986	4.52
278.365	4.71
278.743	4.5
279.122	4.35
279.5	4.62
279.878	4.76
280.257	4.55
280.635	3.98
281.013	4.61
281.391	5.34
281.769	4.92
282.147	4.88
282.525	4.77
282.903	5.14
283.281	5.05
283.659	5.53
284.037	5.2
284.415	4.84
284.792	4.81
285.17	4.39
285.548	4.68
285.925	4.54
286.303	4.4
286.68	5.12
287.058	4.63
287.435	4.58
287.813	4.93
288.19	4.94
288.567	4.92
288.945	5.03
289.322	5.15
289.699	5.3
290.076	5.03
290.453	4.71
290.83	4.72
291.207	4.54
291.584	4.92
291.961	5.13
292.338	4.6
292.715	4.78
293.092	5.01
293.469	4.6
293.845	4.79
294.222	4.81
294.599	4.83
294.975	5.52
295.352	4.82
295.728	5.07
296.105	4.59
296.481	5.06
296.858	4.73
297.234	4.68
297.61	4.87
297.986	4.68
298.363	5.09
298.739	4.8
299.115	4.59
299.491	4.94
299.867	5.04
300.243	5.14
300.619	4.53
300.995	5.36
301.371	5.01
301.746	4.98
302.122	5.14
302.498	4.89
302.874	5.13
303.249	4.74
303.625	4.4
304	4.81
304.376	4.52
304.751	4.16
305.127	4.89
305.502	4.73
305.878	4.85
306.253	4.34
306.628	5.01
307.003	4.82
307.378	4.92
307.754	4.53
308.129	4.64
308.504	5.4
308.879	4.86
309.254	5.19
309.629	4.8
310.003	5.08
310.378	4.89
310.753	4.83
311.128	5.5
311.502	4.75
311.877	4.5
312.252	4.97
312.626	4.79
313.001	4.25
313.375	4.93
313.75	5.03
314.124	4.85
314.498	5.2
314.873	5.29
315.247	5.17
315.621	4.46
315.995	5.14
316.369	5.03
316.743	4.53
317.117	5.21
317.491	4.53
317.865	4.67
318.239	4.64
318.613	5
318.987	4.69
319.361	5.1
319.734	5.1
320.108	4.82
320.482	4.87
320.855	4.59
321.229	4.75
321.602	4.67
321.976	3.95
322.349	4.48
322.723	4.52
323.096	4.66
323.469	4.62
323.843	4.26
324.216	5.34
324.589	4.73
324.962	5.37
325.335	4.92
325.708	4.96
326.081	4.62
326.454	5.14
326.827	4.85
327.2	4.8
327.573	4.35
327.945	5.4
328.318	5.04
328.691	4.23
329.063	4.39
329.436	4.03
329.809	5.13
330.181	4.52
330.553	4.3
330.926	5.16
331.298	4.42
331.671	4.69
332.043	5.2
332.415	5.57
332.787	4.81
333.159	4.83
333.532	5.6
333.904	4.77
334.276	4.51
334.648	4.42
335.02	5.29
335.391	4.57
335.763	4.53
336.135	4.94
336.507	5.07
336.879	4.03
337.25	5.25
337.622	4.63
337.993	4.83
338.365	4.79
338.736	4.99
339.108	4.76
339.479	3.96
339.851	5.2
340.222	5.08
340.593	4.71
340.964	5.11
341.336	4.76
341.707	4.46
342.078	4.61
342.449	4.58
342.82	5.02
343.191	4.99
343.562	4.48
343.933	4.68
344.303	4.75
344.674	5.04
345.045	4.97
345.416	4.92
345.786	4.96
346.157	5
346.527	4.43
346.898	4.95
347.268	4.79
347.639	4.24
348.009	4.56
348.38	4.6
348.75	4.81
349.12	4.99
349.49	4.64
349.861	4.66
350.231	4.9
350.601	4.88
350.971	5.08
351.341	4.46
351.711	5.25
352.081	4.65
352.45	5.07
352.82	5.04
353.19	5.05
353.56	5
353.929	5.02
354.299	4.63
354.669	4.87
355.038	5.08
355.408	4.96
355.777	4.94
356.147	4.77
356.516	5.11
356.885	5.35
357.254	5.01
357.624	5.01
357.993	5.34
358.362	4.95
358.731	5.2
359.1	5.15
359.469	5.26
359.838	4.79
360.207	4.93
360.576	5.14
360.945	4.95
361.314	4.73
361.682	4.67
362.051	5.2
362.42	4.83
362.788	5.1
363.157	5.05
363.525	4.8
363.894	5.01
364.262	5.02
364.631	4.87
364.999	5.02
365.367	5.17
365.735	4.93
366.104	4.97
366.472	4.98
366.84	4.87
367.208	4.97
367.576	4.61
367.944	5.33
368.312	5.33
368.68	5.06
369.048	5.12
369.416	5.24
369.783	4.65
370.151	4.78
370.519	4.98
370.886	4.66
371.254	4.61
371.621	4.69
371.989	4.79
372.356	5.03
372.724	5.24
373.091	5.1
373.458	5
373.826	4.98
374.193	5.05
374.56	5.12
374.927	4.41
375.294	5.11
375.661	5.35
376.028	4.96
376.395	4.93
376.762	5.46
377.129	5.07
377.496	4.88
377.863	5.26
378.229	4.94
378.596	5.42
378.963	5.04
379.329	5.25
379.696	4.93
380.062	5.03
380.429	4.95
380.795	5.16
381.161	5.12
381.528	5.36
381.894	5.15
382.26	5.28
382.626	5.27
382.993	5.34
383.359	5.42
383.725	5.27
384.091	5.07
384.457	4.91
384.823	5.21
385.188	5.14
385.554	4.91
385.92	5.19
386.286	5.51
386.651	4.93
387.017	5.34
387.383	5.11
387.748	5.22
388.114	5.14
388.479	5.22
388.845	5.15
389.21	5.14
389.575	5.11
389.94	5
390.306	5.13
390.671	5.04
391.036	5.28
391.401	5.33
391.766	5.32
392.131	5.02
392.496	5.09
392.861	5
393.226	5.33
393.591	4.94
393.956	5.16
394.32	5.11
394.685	5.13
395.05	5.13
395.414	5.09
395.779	5.12
396.143	5.04
396.508	4.92
396.872	5.38
397.236	5.13
397.601	5.09
397.965	5.08
398.329	5.2
398.694	5.04
399.058	5.08
399.422	5.37
399.786	5.31
400.15	5.18
400.514	5.28
400.878	5.25
401.242	5.12
401.605	5.11
401.969	5.12
402.333	5.11
402.697	5.27
403.06	5.24
403.424	5.45
403.787	5.23
404.151	5.1
404.514	5.24
404.878	5.15
405.241	5.28
405.604	5.27
405.968	4.99
406.331	5.44
406.694	5.34
407.057	5.32
407.42	5.15
407.783	5.29
408.146	5.14
408.509	5.12
408.872	5.24
409.235	5.29
409.598	5.2
409.961	5.12
410.323	5.55
410.686	5.3
411.049	5.44
411.411	5.33
411.774	5.26
412.136	5.32
412.499	5.3
412.861	5.35
413.223	5.12
413.586	5.12
413.948	5.31
414.31	5.36
414.672	5.08
415.035	5.25
415.397	5.17
415.759	5.31
416.121	5.33
416.483	5.03
416.845	5.26
417.206	5.36
417.568	5.29
417.93	5.19
418.292	5.38
418.653	5.22
419.015	5.23
419.377	5.02
419.738	5.42
420.1	5.28
420.461	5.24
420.822	5.33
421.184	5.25
421.545	5.34
421.906	5.33
422.267	5.28
422.629	5.23
422.99	5.27
423.351	5.18
423.712	5.19
424.073	5.32
424.434	5.2
424.795	5.23
425.155	5.15
425.516	5.23
425.877	5.22
426.238	5.14
426.598	5.14
426.959	5.21
427.32	5.21
427.68	5.29
428.041	5.29
428.401	5.31
428.761	5.26
429.122	5.14
429.482	5.39
429.842	5.5
430.202	5.15
430.563	5.39
430.923	5.72
431.283	5.42
431.643	5.13
432.003	5.34
432.363	5.36
432.722	5.43
433.082	5.35
433.442	5.42
433.802	5.45
434.161	5.49
434.521	5.26
434.881	5.39
435.24	5.39
435.6	5.52
435.959	5.42
436.319	5.42
436.678	5.29
437.037	5.42
437.396	5.49
437.756	5.36
438.115	5.52
438.474	5.51
438.833	5.42
439.192	5.62
439.551	5.32
439.91	5.5
440.269	5.49
440.628	5.47
440.987	5.39
441.345	5.19
441.704	5.41
442.063	5.41
442.421	5.4
442.78	5.47
443.138	5.52
443.497	5.45
443.855	5.44
444.214	5.51
444.572	5.5
444.93	5.48
445.288	5.3
445.647	5.49
446.005	5.55
446.363	5.39
446.721	5.45
447.079	5.48
447.437	5.38
447.795	5.36
448.153	5.5
448.51	5.5
448.868	5.53
449.226	5.25
449.584	5.44
449.941	5.47
450.299	5.54
450.656	5.47
451.014	5.41
451.371	5.45
451.729	5.39
452.086	5.47
452.443	5.73
452.801	5.64
453.158	5.53
453.515	5.42
453.872	5.37
454.229	5.59
454.586	5.57
454.943	5.46
455.3	5.67
455.657	5.45
456.014	5.54
456.371	5.46
456.727	5.64
457.084	5.36
457.441	5.67
457.797	5.68
458.154	5.7
458.51	5.73
458.867	5.6
459.223	5.73
459.58	5.61
459.936	5.61
460.292	5.67
460.648	5.55
461.005	5.53
461.361	5.5
461.717	5.41
462.073	5.55
462.429	5.5
462.785	5.63
463.141	5.43
463.496	5.66
463.852	5.56
464.208	5.6
464.564	5.59
464.919	5.8
465.275	5.76
465.631	5.6
465.986	5.81
466.342	5.67
466.697	5.53
467.052	5.57
467.408	5.77
467.763	5.58
468.118	5.57
468.473	5.59
468.829	5.65
469.184	5.67
469.539	5.77
469.894	5.69
470.249	5.66
470.603	5.71
470.958	5.68
471.313	5.72
471.668	5.58
472.023	5.8
472.377	5.64
472.732	5.66
473.086	5.67
473.441	5.62
473.795	5.88
474.15	5.91
474.504	5.72
474.859	5.67
475.213	5.69
475.567	5.64
475.921	5.96
476.275	5.65
476.63	5.94
476.984	5.66
477.338	5.76
477.692	5.62
478.045	5.79
478.399	5.89
478.753	5.69
479.107	5.84
479.461	5.73
479.814	5.88
480.168	5.81
480.521	5.83
480.875	5.77
481.228	5.69
481.582	5.88
481.935	5.8
482.289	5.7
482.642	5.94
482.995	5.88
483.348	5.77
483.701	5.81
484.055	5.65
484.408	5.66
484.761	5.69
485.114	5.59
485.466	5.55
485.819	5.52
486.172	5.43
486.525	5.49
486.878	5.51
487.23	5.57
487.583	5.64
487.936	5.71
488.288	5.75
488.641	5.74
488.993	5.65
489.345	5.64
489.698	5.65
490.05	5.59
490.402	5.6
490.754	5.66
491.107	5.7
491.459	5.67
491.811	5.76
492.163	5.86
492.515	5.85
492.866	5.79
493.218	5.74
493.57	5.7
493.922	5.69
494.274	5.7
494.625	5.67
494.977	5.82
495.328	5.85
495.68	5.97
496.031	5.95
496.383	5.81
496.734	5.93
497.086	6.1
497.437	6.05
497.788	5.84
498.139	6.03
498.49	5.9
498.842	5.93
499.193	5.84
499.544	5.96
499.894	6.03
500.245	5.86
500.596	6.01
500.947	6.01
501.298	6.11
501.648	5.97
501.999	6.09
502.35	6.08
502.7	6.04
503.051	6.11
503.401	6.18
503.752	6.09
504.102	6.03
504.452	6.02
504.803	6.3
505.153	6.24
505.503	6.05
505.853	6.04
506.203	6.21
506.553	6.08
506.903	6.19
507.253	6.18
507.603	6.18
507.953	6.29
508.303	6.26
508.652	6.24
509.002	6.29
509.352	6.11
509.701	6.05
510.051	6.16
510.4	6.19
510.75	6.15
511.099	6.09
511.449	6.21
511.798	6.21
512.147	6.24
512.496	6.38
512.846	6.13
513.195	6.35
513.544	6.22
513.893	6.28
514.242	6.24
514.591	6.32
514.939	6.19
515.288	6.29
515.637	6.27
515.986	6.26
516.334	6.33
516.683	6.37
517.032	6.39
517.38	6.43
517.729	6.39
518.077	6.33
518.426	6.31
518.774	6.25
519.122	6.5
519.47	6.38
519.819	6.32
520.167	6.37
520.515	6.4
520.863	6.3
521.211	6.34
521.559	6.27
521.907	6.38
522.255	6.3
522.602	6.41
522.95	6.48
523.298	6.44
523.645	6.56
523.993	6.45
524.341	6.5
524.688	6.69
525.036	6.53
525.383	6.5
525.73	6.52
526.078	6.69
526.425	6.57
526.772	6.55
527.119	6.57
527.466	6.47
527.814	6.43
528.161	6.42
528.508	6.55
528.854	6.51
529.201	6.53
529.548	6.54
529.895	6.5
530.242	6.42
530.588	6.4
530.935	6.33
531.282	6.38
531.628	6.39
531.975	6.47
532.321	6.49
532.667	6.49
533.014	6.64
533.36	6.75
533.706	6.69
534.052	6.65
534.399	6.72
534.745	6.72
535.091	6.58
535.437	6.6
535.783	6.67
536.129	6.63
536.474	6.69
536.82	6.78
537.166	6.81
537.512	6.88
537.857	6.94
538.203	6.84
538.549	6.78
538.894	6.76
539.239	6.76
539.585	6.83
539.93	6.9
540.276	6.99
540.621	6.95
540.966	7.02
541.311	7.07
541.656	7.09
542.001	7.11
542.346	7.03
542.691	6.98
543.036	6.93
543.381	6.88
543.726	6.85
544.071	6.89
544.415	6.92
544.76	6.94
545.105	6.99
545.449	6.97
545.794	7.11
546.138	7.12
546.483	7.09
546.827	7.18
547.171	7.12
547.516	7.25
547.86	7.25
548.204	7.35
548.548	7.29
548.892	7.16
549.236	7.2
549.58	7.24
549.924	7.29
550.268	7.33
550.612	7.35
550.956	7.48
551.3	7.47
551.643	7.6
551.987	7.42
552.33	7.84
552.674	7.64
553.017	7.5
553.361	7.62
553.704	7.53
554.048	7.64
554.391	7.54
554.734	7.63
555.077	7.58
555.42	7.62
555.764	7.54
556.107	7.6
556.45	7.68
556.793	7.54
557.135	7.71
557.478	7.73
557.821	7.89
558.164	8.02
558.507	7.83
558.849	7.91
559.192	7.75
559.534	7.77
559.877	7.84
560.219	8.09
560.562	7.83
560.904	8.12
561.246	7.87
561.589	7.92
561.931	8.05
562.273	7.8
562.615	8.07
562.957	8.07
563.299	8.18
563.641	8.03
563.983	8.05
564.325	8.03
564.667	8.11
565.008	8.1
565.35	8.26
565.692	8.28
566.033	7.98
566.375	8.26
566.716	8.31
567.058	8.32
567.399	8.08
567.741	8.24
568.082	8.24
568.423	8.35
568.764	8.23
569.105	8.5
569.447	8.37
569.788	8.31
570.129	8.46
570.47	8.3
570.811	8.53
571.151	8.4
571.492	8.47
571.833	8.42
572.174	8.64
572.514	8.48
572.855	8.29
573.195	8.72
573.536	8.72
573.876	8.59
574.217	8.66
574.557	8.71
574.898	8.79
575.238	8.69
575.578	8.65
575.918	8.78
576.258	8.84
576.598	8.9
576.938	8.79
577.278	8.93
577.618	8.7
577.958	8.92
578.298	9.06
578.638	9.05
578.977	9.01
579.317	8.85
579.657	9.01
579.996	9.08
580.336	8.97
580.675	9.08
581.014	9.26
581.354	9.22
581.693	9.3
582.032	9.25
582.372	9.36
582.711	9.64
583.05	9.16
583.389	9.16
583.728	9.57
584.067	9.51
584.406	9.57
584.745	9.53
585.083	9.29
585.422	9.55
585.761	9.46
586.1	9.38
586.438	9.44
586.777	9.57
587.115	9.65
587.454	9.52
587.792	9.69
588.13	9.65
588.469	9.44
588.807	9.52
589.145	9.71
589.483	9.87
589.821	9.74
590.159	9.85
590.497	9.81
590.835	9.96
591.173	9.84
591.511	9.59
591.849	9.9
592.187	10.02
592.524	10.22
592.862	10.06
593.2	10.06
593.537	10.14
593.875	10.31
594.212	10.3
594.55	10.24
594.887	10.04
595.224	10.12
595.561	10.36
595.899	9.98
596.236	10.48
596.573	10.56
596.91	10.19
597.247	10.35
597.584	10.28
597.921	10.42
598.258	10.22
598.594	10.42
598.931	10.34
599.268	10.46
599.604	10.41
599.941	10.59
600.277	10.46
600.614	10.71
600.95	10.71
601.287	10.69
601.623	10.92
601.959	10.71
602.296	10.71
602.632	10.68
602.968	10.73
603.304	10.79
603.64	10.8
603.976	10.81
604.312	10.92
604.648	10.83
604.984	11.04
605.319	10.96
605.655	11.05
605.991	10.87
606.326	11.29
606.662	11.16
606.998	10.99
607.333	10.96
607.668	11.12
608.004	11.19
608.339	11.39
608.674	11.33
609.01	11.33
609.345	11.29
609.68	11.43
610.015	11.4
610.35	11.67
610.685	11.44
611.02	11.45
611.355	11.61
611.689	11.28
612.024	11.54
612.359	11.57
612.694	11.67
613.028	11.54
613.363	11.49
613.697	11.82
614.032	11.85
614.366	11.71
614.7	11.97
615.035	11.77
615.369	11.86
615.703	11.84
616.037	11.91
616.371	11.73
616.705	11.79
617.039	11.88
617.373	11.96
617.707	12.06
618.041	12.19
618.375	12.22
618.709	11.95
619.042	11.92
619.376	12
619.71	12.2
620.043	12.55
620.377	12.24
620.71	11.93
621.043	12.34
621.377	12.6
621.71	12.47
622.043	12.14
622.376	12.26
622.709	12.16
623.043	12.78
623.376	12.86
623.709	12.63
624.041	12.94
624.374	12.38
624.707	12.25
625.04	12.15
625.373	12.83
625.705	12.97
626.038	12.69
626.37	12.65
626.703	12.85
627.035	13.18
627.368	13.04
627.7	12.98
628.032	13.03
628.365	12.63
628.697	13.16
629.029	13.18
629.361	13.11
629.693	12.98
630.025	13.38
630.357	13.28
630.689	13.18
631.021	13.45
631.353	13.05
631.684	13.4
632.016	13.57
632.348	13.29
632.679	13.28
633.011	13.55
633.342	13.43
633.674	13.66
634.005	13.53
634.336	13.2
634.668	13.85
634.999	13.54
635.33	13.78
635.661	13.78
635.992	13.55
636.323	14.03
636.654	13.69
636.985	13.78
637.316	13.93
637.647	14.36
637.977	13.76
638.308	14.06
638.639	13.89
638.969	14.1
639.3	14.05
639.63	13.94
639.961	14.32
640.291	14.13
640.622	14.31
640.952	14.04
641.282	14.25
641.612	14.6
641.943	14.49
642.273	14.56
642.603	14.39
642.933	14.54
643.263	14.7
643.592	14.56
643.922	14.33
644.252	14.35
644.582	14.5
644.911	14.99
645.241	14.75
645.571	14.4
645.9	14.05
646.23	14.95
646.559	14.74
646.888	15.16
647.218	14.83
647.547	14.88
647.876	15.34
648.205	14.78
648.534	15.47
648.863	15.17
649.192	15.25
649.521	15.43
649.85	15.45
650.179	15.22
650.508	15.49
650.837	14.81
651.165	15.19
651.494	15.45
651.822	15.32
652.151	15.28
652.479	15.74
652.808	15.79
653.136	15.46
653.465	15.23
653.793	16.13
654.121	15.85
654.449	15.58
654.777	15.69
655.105	15.68
655.433	15.6
655.761	15.72
656.089	15.92
656.417	15.73
656.745	15.98
657.073	15.83
657.4	15.99
657.728	16.3
658.056	16
658.383	16.61
658.711	16.32
659.038	16.17
659.365	16.01
659.693	16.34
660.02	16.06
660.347	16.7
660.674	16.2
661.001	16.86
661.329	16.44
661.656	16.68
661.982	16.48
662.309	16.62
662.636	16.18
662.963	17.03
663.29	16.49
663.616	16.53
663.943	16.57
664.27	16.92
664.596	16.78
664.923	16.99
665.249	16.92
665.576	17
665.902	16.83
666.228	16.65
666.554	16.88
666.881	17.28
667.207	16.64
667.533	16.96
667.859	16.11
668.185	17.21
668.511	17.41
668.837	17.13
669.162	17.33
669.488	17.36
669.814	17.55
670.139	17.18
670.465	18.16
670.791	17.2
671.116	17.19
671.442	17.09
671.767	16.81
672.092	17.69
672.418	17.5
672.743	17.75
673.068	18.11
673.393	18.2
673.718	17.13
674.043	17.86
674.368	17.8
674.693	17.64
675.018	18.43
675.343	18.2
675.667	18.73
675.992	18
676.317	17.86
676.641	18.81
676.966	18.46
677.29	17.76
677.615	18.37
677.939	18.12
678.264	18.05
678.588	17.92
678.912	18.33
679.236	18.39
679.56	17.55
679.885	18.65
680.209	18.04
680.532	18.31
680.856	18.56
681.18	18.88
681.504	18.53
681.828	18.25
682.152	18.64
682.475	19.29
682.799	18.75
683.122	18.58
683.446	18.2
683.769	19.06
684.093	19.03
684.416	19.26
684.739	18.63
685.062	19.34
685.386	18.42
