Data from 0370_crown_Reflection__4__145.txt Node

Date: Mon Dec 11 19:12:44 CST 2023
User: ToomeyLab
Spectrometer: FLMS14357
Trigger mode: 0
Integration Time (sec): 1.000000E-2
Scans to average: 100
Electric dark correction enabled: true
Nonlinearity correction enabled: false
Boxcar width: 0
XAxis mode: Wavelengths
Number of Pixels in Spectrum: 2048
>>>>>Begin Spectral Data<<<<<
189.047	-21600
189.435	-21600
189.823	-21600
190.211	197.78
190.599	180.98
190.987	10.84
191.375	-134.18
191.763	110.5
192.151	-49.63
192.538	-134.6
192.926	203200
193.314	520.15
193.702	-902.49
194.089	-156.47
194.477	143.25
194.864	601.46
195.252	66.71
195.639	-71.57
196.027	9.48
196.414	-589.47
196.801	425.1
197.189	141.25
197.576	106.88
197.963	2.66
198.351	-12.47
198.738	8.46
199.125	-260.43
199.512	-55.71
199.899	-24.33
200.286	-11.63
200.673	-82.86
201.06	15.02
201.447	8.33
201.833	3.74
202.22	12.97
202.607	2.92
202.994	-55.8
203.38	-60.3
203.767	51.42
204.154	7.18
204.54	-40.92
204.927	-61.96
205.313	-22.28
205.699	-115.93
206.086	-54.88
206.472	11.16
206.858	-5.61
207.245	-16.09
207.631	8.56
208.017	15.34
208.403	15.63
208.789	-25.73
209.175	26.13
209.561	2.18
209.947	-43.09
210.333	4.53
210.719	10.04
211.105	22.92
211.491	12.4
211.876	19.3
212.262	6.52
212.648	23.5
213.034	-8.8
213.419	-16.51
213.805	-15.9
214.19	6.82
214.576	-26.43
214.961	2.8
215.346	-46.15
215.732	-29.4
216.117	-18.16
216.502	-14.29
216.888	-11.7
217.273	4.97
217.658	1.44
218.043	-40.62
218.428	-0.85
218.813	-11.94
219.198	-9.92
219.583	8.5
219.968	16.56
220.353	-22.46
220.738	25.29
221.122	11.19
221.507	44.54
221.892	5.5
222.276	-8.87
222.661	-19.39
223.046	-12.01
223.43	-1.06
223.815	-6.89
224.199	11.87
224.583	-8.46
224.968	7.56
225.352	2.88
225.736	7.92
226.121	6.7
226.505	0.36
226.889	3.44
227.273	8.66
227.657	17.79
228.041	3.75
228.425	1.03
228.809	-0.68
229.193	6.38
229.577	5.04
229.961	5.06
230.344	5.93
230.728	4.05
231.112	4.18
231.495	5.68
231.879	4.86
232.263	4
232.646	4.85
233.03	4.82
233.413	4.71
233.797	6.74
234.18	3.58
234.563	6.36
234.946	4.09
235.33	7.28
235.713	4.26
236.096	5.13
236.479	4.87
236.862	4.33
237.245	3.76
237.628	5.84
238.011	5.08
238.394	4.83
238.777	3.97
239.16	4.88
239.543	4.59
239.925	1.4
240.308	3.55
240.691	4.2
241.073	6.15
241.456	5.96
241.838	6.25
242.221	4.69
242.603	2.55
242.986	4.48
243.368	4.48
243.75	5.17
244.133	4.76
244.515	4.45
244.897	4.43
245.279	4.25
245.661	4.55
246.043	4.9
246.425	3.95
246.807	5.05
247.189	5.3
247.571	3.95
247.953	4.17
248.335	4.24
248.717	4.84
249.098	4.38
249.48	4.45
249.862	4.73
250.243	4.74
250.625	4.32
251.006	3.79
251.388	4.57
251.769	4.36
252.151	4.73
252.532	4.22
252.913	3.72
253.295	4.43
253.676	3.85
254.057	4.1
254.438	4.74
254.819	3.7
255.2	3.83
255.581	4.09
255.962	2.83
256.343	3.13
256.724	4.13
257.105	2.98
257.486	3.88
257.867	4.85
258.247	4.5
258.628	4.59
259.009	4.97
259.389	4.64
259.77	3.9
260.15	3.93
260.531	3.72
260.911	3.08
261.292	3.8
261.672	4.28
262.052	4
262.432	4.06
262.813	3.77
263.193	3.64
263.573	4.38
263.953	4.04
264.333	3.69
264.713	4.47
265.093	4.63
265.473	3.97
265.853	3.76
266.233	3.46
266.612	3.86
266.992	4.41
267.372	4.81
267.752	4.26
268.131	4.18
268.511	3.86
268.89	4.39
269.27	4.83
269.649	4.21
270.029	4
270.408	4.25
270.787	3.22
271.167	2.86
271.546	3.48
271.925	3.42
272.304	4.02
272.683	3.96
273.062	3.3
273.441	3.7
273.82	3.54
274.199	3.68
274.578	3.78
274.957	3.66
275.336	3.52
275.715	3.54
276.093	4.31
276.472	4.17
276.851	4.11
277.229	4.08
277.608	3.75
277.986	4.81
278.365	3.8
278.743	3.99
279.122	3.73
279.5	4.24
279.878	4.06
280.257	3.27
280.635	3.78
281.013	3.12
281.391	3.91
281.769	2.64
282.147	3.88
282.525	2.89
282.903	3.51
283.281	3.05
283.659	3.48
284.037	3.44
284.415	3.49
284.792	3.83
285.17	3.82
285.548	3
285.925	3.54
286.303	3.69
286.68	3.34
287.058	3.38
287.435	3.66
287.813	3.89
288.19	3.51
288.567	3.3
288.945	3.71
289.322	3.21
289.699	3.51
290.076	3.36
290.453	3.65
290.83	3.79
291.207	3.45
291.584	3.81
291.961	3.69
292.338	3.71
292.715	4.04
293.092	3.12
293.469	3.76
293.845	3.72
294.222	3.85
294.599	3.03
294.975	3.33
295.352	3.73
295.728	4.01
296.105	3.39
296.481	3.36
296.858	3.29
297.234	3.31
297.61	3.79
297.986	4.07
298.363	3.4
298.739	3.43
299.115	3.52
299.491	3.48
299.867	3.35
300.243	3.6
300.619	3.5
300.995	3.38
301.371	3.8
301.746	3.52
302.122	3.84
302.498	3.17
302.874	3.17
303.249	3.83
303.625	3.1
304	3.26
304.376	3.22
304.751	3.47
305.127	3
305.502	3.9
305.878	3.47
306.253	3.9
306.628	3.42
307.003	3.09
307.378	2.54
307.754	3.43
308.129	3.61
308.504	3.02
308.879	3.15
309.254	3.96
309.629	4.31
310.003	4.12
310.378	3.42
310.753	3.68
311.128	3.71
311.502	3.23
311.877	3.2
312.252	3.26
312.626	3.49
313.001	3.66
313.375	3.19
313.75	3.15
314.124	3.83
314.498	3.55
314.873	3.11
315.247	3.17
315.621	3.61
315.995	3.71
316.369	3.34
316.743	3.48
317.117	2.97
317.491	3.68
317.865	2.96
318.239	3.67
318.613	3.73
318.987	3.31
319.361	4.27
319.734	3.37
320.108	3.55
320.482	3.11
320.855	3.6
321.229	3.37
321.602	3.44
321.976	3.98
322.349	3.05
322.723	3.46
323.096	3.36
323.469	3.57
323.843	4.15
324.216	3.82
324.589	3.71
324.962	3.66
325.335	3.74
325.708	3.49
326.081	4.26
326.454	3.57
326.827	3.55
327.2	3.51
327.573	3.73
327.945	3.82
328.318	3.78
328.691	3.78
329.063	3.23
329.436	3.46
329.809	3.49
330.181	3.82
330.553	3.95
330.926	3.46
331.298	4.14
331.671	3.21
332.043	4.22
332.415	3.46
332.787	3.16
333.159	3.58
333.532	3.99
333.904	3.77
334.276	3.9
334.648	3.69
335.02	3.51
335.391	3.69
335.763	2.97
336.135	3.79
336.507	3.39
336.879	3.93
337.25	3.51
337.622	3.14
337.993	3.34
338.365	3.38
338.736	3.98
339.108	3.8
339.479	3.51
339.851	3.66
340.222	3.56
340.593	3.06
340.964	3.52
341.336	3.39
341.707	3.15
342.078	3.78
342.449	3.56
342.82	3.53
343.191	3.05
343.562	3.67
343.933	3.45
344.303	3.25
344.674	3.38
345.045	3.81
345.416	3.4
345.786	3.76
346.157	3.53
346.527	3.75
346.898	3.76
347.268	3.25
347.639	3.66
348.009	3.9
348.38	3.28
348.75	3.34
349.12	3.53
349.49	3.19
349.861	3.32
350.231	3.45
350.601	3.78
350.971	4.16
351.341	3.51
351.711	3.29
352.081	2.98
352.45	3.2
352.82	2.98
353.19	3.59
353.56	3.63
353.929	3.24
354.299	3.76
354.669	3.87
355.038	3.77
355.408	3.69
355.777	3.56
356.147	3.75
356.516	3.4
356.885	3.43
357.254	3.77
357.624	3.43
357.993	3.29
358.362	3.81
358.731	3.42
359.1	3.57
359.469	3.38
359.838	3.56
360.207	3.32
360.576	3.5
360.945	3.98
361.314	3.99
361.682	3.25
362.051	3.53
362.42	3.53
362.788	3.56
363.157	3.47
363.525	3.22
363.894	3.52
364.262	3.51
364.631	3.43
364.999	3.63
365.367	3.55
365.735	3.53
366.104	3.56
366.472	3.82
366.84	3.58
367.208	3.35
367.576	3.79
367.944	3.85
368.312	3.96
368.68	3.66
369.048	3.68
369.416	3.3
369.783	3.65
370.151	3.95
370.519	4.09
370.886	3.92
371.254	4.04
371.621	3.95
371.989	3.79
372.356	3.98
372.724	4.01
373.091	4
373.458	3.68
373.826	3.78
374.193	3.94
374.56	3.9
374.927	3.95
375.294	3.75
375.661	3.64
376.028	3.93
376.395	3.89
376.762	3.89
377.129	4.32
377.496	3.61
377.863	3.86
378.229	3.78
378.596	3.9
378.963	3.84
379.329	3.74
379.696	3.91
380.062	3.52
380.429	3.67
380.795	3.92
381.161	3.8
381.528	3.78
381.894	3.84
382.26	3.88
382.626	3.57
382.993	3.82
383.359	3.78
383.725	3.55
384.091	3.7
384.457	3.71
384.823	4.38
385.188	3.97
385.554	3.24
385.92	3.6
386.286	3.82
386.651	3.73
387.017	3.73
387.383	3.7
387.748	3.58
388.114	3.86
388.479	3.72
388.845	3.57
389.21	3.85
389.575	3.91
389.94	3.99
390.306	3.85
390.671	3.89
391.036	3.89
391.401	3.99
391.766	3.87
392.131	3.75
392.496	4.03
392.861	4.21
393.226	4.09
393.591	4.11
393.956	3.81
394.32	4.01
394.685	3.76
395.05	3.83
395.414	3.94
395.779	3.77
396.143	3.84
396.508	3.82
396.872	3.94
397.236	3.84
397.601	3.97
397.965	4.03
398.329	3.95
398.694	3.84
399.058	3.9
399.422	3.9
399.786	3.87
400.15	3.89
400.514	3.9
400.878	3.83
401.242	3.57
401.605	4.07
401.969	3.73
402.333	3.75
402.697	3.83
403.06	4.03
403.424	3.91
403.787	4.1
404.151	3.83
404.514	3.78
404.878	4.12
405.241	3.91
405.604	3.94
405.968	3.74
406.331	3.8
406.694	3.82
407.057	3.7
407.42	4.17
407.783	3.9
408.146	4.22
408.509	3.76
408.872	3.9
409.235	3.95
409.598	4.07
409.961	4.1
410.323	4.16
410.686	4.02
411.049	4.03
411.411	4.2
411.774	3.97
412.136	3.85
412.499	4.15
412.861	3.94
413.223	4.01
413.586	4.05
413.948	4.23
414.31	3.82
414.672	3.61
415.035	4.07
415.397	3.78
415.759	4.2
416.121	3.88
416.483	3.98
416.845	4.26
417.206	3.9
417.568	4.08
417.93	4.31
418.292	3.93
418.653	4.14
419.015	3.9
419.377	4.13
419.738	3.96
420.1	3.92
420.461	3.86
420.822	3.86
421.184	3.96
421.545	3.94
421.906	3.93
422.267	3.95
422.629	3.83
422.99	3.82
423.351	3.81
423.712	3.88
424.073	3.85
424.434	3.83
424.795	3.94
425.155	3.9
425.516	3.82
425.877	3.76
426.238	3.95
426.598	3.9
426.959	3.88
427.32	3.99
427.68	4.08
428.041	3.82
428.401	4.03
428.761	3.99
429.122	3.93
429.482	4.01
429.842	4.07
430.202	3.91
430.563	3.94
430.923	3.99
431.283	3.92
431.643	4.2
432.003	4.2
432.363	3.98
432.722	4.16
433.082	4.12
433.442	4.16
433.802	3.89
434.161	4.34
434.521	3.87
434.881	4.13
435.24	3.94
435.6	3.99
435.959	3.98
436.319	4.02
436.678	4.05
437.037	4.04
437.396	4.21
437.756	4.06
438.115	4.21
438.474	4.02
438.833	4.15
439.192	4.05
439.551	4.11
439.91	4.14
440.269	4.22
440.628	3.88
440.987	4.24
441.345	4
441.704	3.98
442.063	4
442.421	4.04
442.78	3.95
443.138	3.96
443.497	3.91
443.855	4.02
444.214	4.15
444.572	3.99
444.93	4.22
445.288	4.31
445.647	4.19
446.005	3.92
446.363	4.04
446.721	4.08
447.079	4.03
447.437	4.08
447.795	3.95
448.153	4.18
448.51	4.03
448.868	3.94
449.226	3.93
449.584	4.02
449.941	4.13
450.299	4.02
450.656	3.89
451.014	4.26
451.371	4.06
451.729	4.26
452.086	4.11
452.443	4.32
452.801	4.24
453.158	4.17
453.515	4.06
453.872	4.2
454.229	4.23
454.586	4.11
454.943	4.17
455.3	4.17
455.657	4.3
456.014	4.15
456.371	4.34
456.727	4.07
457.084	4.22
457.441	4.29
457.797	4.23
458.154	4.19
458.51	4.15
458.867	3.99
459.223	4.09
459.58	4.02
459.936	4.23
460.292	4.28
460.648	4.16
461.005	4.08
461.361	4.18
461.717	3.99
462.073	4.06
462.429	4.15
462.785	4.17
463.141	4.06
463.496	4.29
463.852	4.14
464.208	4.13
464.564	4.2
464.919	4.3
465.275	4.04
465.631	4.08
465.986	4.32
466.342	4.25
466.697	4.09
467.052	4.16
467.408	4.32
467.763	4.19
468.118	4.11
468.473	4.1
468.829	4.17
469.184	4.43
469.539	4.19
469.894	4.16
470.249	4.27
470.603	4.24
470.958	4.2
471.313	4.29
471.668	4.47
472.023	4.23
472.377	4.17
472.732	4.25
473.086	4.23
473.441	4.24
473.795	4.31
474.15	4.25
474.504	4.12
474.859	4.22
475.213	4.29
475.567	4.32
475.921	4.29
476.275	4.22
476.63	4.23
476.984	4.19
477.338	4.23
477.692	4.21
478.045	4.27
478.399	4.31
478.753	3.98
479.107	4.08
479.461	4.37
479.814	4.21
480.168	4.24
480.521	4.35
480.875	4.27
481.228	4.19
481.582	4.48
481.935	4.12
482.289	4.29
482.642	4.28
482.995	4.19
483.348	4.24
483.701	4.08
484.055	4.31
484.408	4.15
484.761	4.19
485.114	4.13
485.466	3.99
485.819	3.91
486.172	3.99
486.525	4.07
486.878	4.13
487.23	4.13
487.583	4.16
487.936	4.15
488.288	4.17
488.641	4.11
488.993	4.04
489.345	4.08
489.698	4.06
490.05	4.09
490.402	4.08
490.754	4.13
491.107	4.15
491.459	4.21
491.811	4.26
492.163	4.35
492.515	4.24
492.866	4.16
493.218	4.06
493.57	4.01
493.922	4.09
494.274	4.17
494.625	4.26
494.977	4.26
495.328	4.32
495.68	4.27
496.031	4.26
496.383	4.32
496.734	4.39
497.086	4.25
497.437	4.45
497.788	4.39
498.139	4.22
498.49	4.3
498.842	4.33
499.193	4.29
499.544	4.25
499.894	4.25
500.245	4.29
500.596	4.47
500.947	4.32
501.298	4.52
501.648	4.4
501.999	4.23
502.35	4.34
502.7	4.39
503.051	4.37
503.401	4.43
503.752	4.33
504.102	4.33
504.452	4.41
504.803	4.49
505.153	4.39
505.503	4.45
505.853	4.44
506.203	4.27
506.553	4.41
506.903	4.28
507.253	4.39
507.603	4.38
507.953	4.49
508.303	4.35
508.652	4.39
509.002	4.46
509.352	4.56
509.701	4.46
510.051	4.34
510.4	4.27
510.75	4.25
511.099	4.36
511.449	4.42
511.798	4.38
512.147	4.5
512.496	4.35
512.846	4.39
513.195	4.35
513.544	4.29
513.893	4.34
514.242	4.38
514.591	4.32
514.939	4.43
515.288	4.47
515.637	4.46
515.986	4.38
516.334	4.37
516.683	4.63
517.032	4.42
517.38	4.42
517.729	4.51
518.077	4.49
518.426	4.53
518.774	4.49
519.122	4.35
519.47	4.32
519.819	4.35
520.167	4.33
520.515	4.27
520.863	4.31
521.211	4.43
521.559	4.38
521.907	4.4
522.255	4.34
522.602	4.45
522.95	4.5
523.298	4.4
523.645	4.66
523.993	4.42
524.341	4.48
524.688	4.41
525.036	4.42
525.383	4.53
525.73	4.55
526.078	4.54
526.425	4.36
526.772	4.44
527.119	4.39
527.466	4.34
527.814	4.32
528.161	4.38
528.508	4.44
528.854	4.38
529.201	4.31
529.548	4.39
529.895	4.22
530.242	4.19
530.588	4.16
530.935	4.22
531.282	4.29
531.628	4.28
531.975	4.3
532.321	4.36
532.667	4.37
533.014	4.38
533.36	4.38
533.706	4.46
534.052	4.4
534.399	4.42
534.745	4.38
535.091	4.28
535.437	4.27
535.783	4.3
536.129	4.4
536.474	4.39
536.82	4.4
537.166	4.38
537.512	4.41
537.857	4.47
538.203	4.39
538.549	4.4
538.894	4.44
539.239	4.5
539.585	4.55
539.93	4.44
540.276	4.45
540.621	4.57
540.966	4.58
541.311	4.58
541.656	4.48
542.001	4.51
542.346	4.47
542.691	4.43
543.036	4.34
543.381	4.25
543.726	4.35
544.071	4.4
544.415	4.38
544.76	4.47
545.105	4.43
545.449	4.37
545.794	4.43
546.138	4.49
546.483	4.54
546.827	4.52
547.171	4.4
547.516	4.5
547.86	4.56
548.204	4.56
548.548	4.4
548.892	4.47
549.236	4.43
549.58	4.52
549.924	4.74
550.268	4.53
550.612	4.5
550.956	4.52
551.3	4.51
551.643	4.62
551.987	4.75
552.33	4.79
552.674	4.73
553.017	4.71
553.361	4.44
553.704	4.44
554.048	4.75
554.391	4.57
554.734	4.58
555.077	4.77
555.42	4.65
555.764	4.6
556.107	4.8
556.45	4.63
556.793	4.52
557.135	4.66
557.478	4.58
557.821	4.65
558.164	4.65
558.507	4.5
558.849	4.7
559.192	4.57
559.534	4.5
559.877	4.69
560.219	4.57
560.562	4.67
560.904	4.64
561.246	4.74
561.589	4.52
561.931	4.67
562.273	4.6
562.615	4.67
562.957	4.77
563.299	4.85
563.641	4.42
563.983	4.84
564.325	4.64
564.667	4.73
565.008	4.8
565.35	4.91
565.692	4.47
566.033	4.62
566.375	4.87
566.716	4.74
567.058	4.69
567.399	4.69
567.741	4.61
568.082	4.58
568.423	4.61
568.764	4.65
569.105	4.63
569.447	4.75
569.788	4.67
570.129	4.77
570.47	4.49
570.811	4.65
571.151	4.66
571.492	4.93
571.833	4.49
572.174	4.78
572.514	4.79
572.855	4.45
573.195	4.71
573.536	4.59
573.876	4.76
574.217	4.68
574.557	4.59
574.898	4.67
575.238	4.72
575.578	4.74
575.918	4.81
576.258	4.8
576.598	4.74
576.938	4.78
577.278	4.66
577.618	4.62
577.958	4.68
578.298	4.88
578.638	4.78
578.977	4.74
579.317	4.76
579.657	4.66
579.996	4.67
580.336	4.87
580.675	4.86
581.014	4.78
581.354	4.71
581.693	5
582.032	4.66
582.372	4.9
582.711	4.67
583.05	4.76
583.389	4.96
583.728	4.96
584.067	4.78
584.406	4.71
584.745	4.85
585.083	4.93
585.422	4.88
585.761	4.9
586.1	4.78
586.438	4.62
586.777	4.81
587.115	4.8
587.454	4.72
587.792	4.67
588.13	4.96
588.469	4.98
588.807	4.82
589.145	5.01
589.483	4.82
589.821	4.59
590.159	4.72
590.497	4.82
590.835	4.6
591.173	4.81
591.511	4.94
591.849	4.95
592.187	4.52
592.524	4.88
592.862	4.85
593.2	4.64
593.537	4.82
593.875	4.94
594.212	4.85
594.55	4.76
594.887	4.72
595.224	5.01
595.561	4.94
595.899	4.86
596.236	4.81
596.573	4.65
596.91	4.58
597.247	4.81
597.584	4.66
597.921	4.65
598.258	4.78
598.594	4.84
598.931	4.63
599.268	4.82
599.604	4.89
599.941	4.97
600.277	4.81
600.614	4.96
600.95	4.61
601.287	4.62
601.623	4.88
601.959	4.86
602.296	4.86
602.632	5.09
602.968	4.76
603.304	5.03
603.64	4.88
603.976	4.91
604.312	4.93
604.648	4.83
604.984	4.95
605.319	5.08
605.655	4.78
605.991	4.72
606.326	4.94
606.662	4.63
606.998	4.73
607.333	4.76
607.668	4.96
608.004	4.59
608.339	4.94
608.674	5.05
609.01	4.75
609.345	4.85
609.68	5.05
610.015	5.08
610.35	5.1
610.685	4.81
611.02	4.8
611.355	4.83
611.689	4.91
612.024	4.71
612.359	4.77
612.694	4.84
613.028	4.61
613.363	4.99
613.697	4.94
614.032	5.07
614.366	5.04
614.7	4.8
615.035	5.15
615.369	5.1
615.703	5.07
616.037	4.97
616.371	4.92
616.705	4.98
617.039	5.12
617.373	4.94
617.707	4.94
618.041	5.13
618.375	5.27
618.709	5.04
619.042	4.89
619.376	5.2
619.71	5.36
620.043	4.79
620.377	4.83
620.71	4.93
621.043	4.86
621.377	4.69
621.71	4.95
622.043	4.83
622.376	5.14
622.709	5.28
623.043	5.24
623.376	5.1
623.709	5.14
624.041	4.95
624.374	4.92
624.707	4.87
625.04	5.4
625.373	5.2
625.705	5.01
626.038	4.73
626.37	5.36
626.703	5.5
627.035	4.98
627.368	5.11
627.7	4.97
628.032	4.96
628.365	5.08
628.697	4.75
629.029	5.19
629.361	4.84
629.693	5
630.025	4.87
630.357	4.88
630.689	4.74
631.021	4.88
631.353	5
631.684	4.9
632.016	5.32
632.348	5.39
632.679	5.39
633.011	4.9
633.342	5.27
633.674	5.46
634.005	5.22
634.336	4.92
634.668	5.2
634.999	5.37
635.33	4.97
635.661	4.95
635.992	5.2
636.323	5.05
636.654	5.11
636.985	5.01
637.316	4.77
637.647	5.06
637.977	5.36
638.308	5.1
638.639	4.84
638.969	4.91
639.3	4.97
639.63	4.85
639.961	5.02
640.291	5.58
640.622	5.14
640.952	5.23
641.282	5.46
641.612	5.46
641.943	5.13
642.273	4.84
642.603	5.08
642.933	5.51
643.263	5.06
643.592	5.45
643.922	5.53
644.252	5.01
644.582	5.45
644.911	5.27
645.241	5.17
645.571	4.94
645.9	4.61
646.23	5.02
646.559	4.86
646.888	5.13
647.218	5.3
647.547	4.78
647.876	5.06
648.205	4.71
648.534	5.1
648.863	4.87
649.192	5.3
649.521	5.49
649.85	5
650.179	5.39
650.508	5.7
650.837	4.52
651.165	5.65
651.494	5.2
651.822	5.35
652.151	6.02
652.479	5.26
652.808	5.55
653.136	4.99
653.465	5.52
653.793	5.04
654.121	5.11
654.449	5.27
654.777	5.5
655.105	5.12
655.433	5.06
655.761	5.07
656.089	5.43
656.417	5.46
656.745	5.39
657.073	5.23
657.4	5.39
657.728	5.18
658.056	5.65
658.383	4.9
658.711	5.55
659.038	5.63
659.365	5.31
659.693	5.88
660.02	5.03
660.347	4.94
660.674	4.93
661.001	5.19
661.329	5.09
661.656	5.36
661.982	5.38
662.309	5.24
662.636	5.34
662.963	5.63
663.29	5.22
663.616	4.93
663.943	4.79
664.27	5.22
664.596	6.07
664.923	5.38
665.249	5.29
665.576	5.44
665.902	5.09
666.228	5.81
666.554	5.4
666.881	4.67
667.207	5.23
667.533	5.29
667.859	5.75
668.185	5.2
668.511	5.51
668.837	5.65
669.162	5.61
669.488	5.29
669.814	4.99
670.139	4.9
670.465	5.7
670.791	5.39
671.116	5.88
671.442	6.01
671.767	5.57
672.092	5.79
672.418	5.62
672.743	4.96
673.068	4.95
673.393	5.39
673.718	5.55
674.043	5.81
674.368	5.74
674.693	5.36
675.018	5.98
675.343	4.77
675.667	5.29
675.992	5.55
676.317	5.21
676.641	5.22
676.966	6.21
677.29	4.83
677.615	6.08
677.939	5.43
678.264	5.23
678.588	5.45
678.912	5.74
679.236	5.28
679.56	5.33
679.885	5.69
680.209	5.38
680.532	5.81
680.856	6.05
681.18	5.39
681.504	5.54
681.828	5.1
682.152	5.19
682.475	5.64
682.799	5.43
683.122	5.36
683.446	5.25
683.769	5.47
684.093	5.08
684.416	5.57
684.739	5.63
685.062	5.38
685.386	5.63
685.709	5.37
686.032	5.76
686.355	5.56
686.678	5.35
687.001	5.79
687.324	4.78
687.646	5.16
687.969	5.47
688.292	6.37
688.614	6.23
688.937	5.48
689.26	5.23
689.582	4.87
689.904	5.67
690.227	5.67
690.549	6.06
690.871	5.96
691.194	5.27
691.516	5.4
691.838	5.41
692.16	6.57
692.482	6.45
