Data from 0370_chest_Reflection__2__138.txt Node

Date: Mon Dec 11 19:10:45 CST 2023
User: ToomeyLab
Spectrometer: FLMS14357
Trigger mode: 0
Integration Time (sec): 1.000000E-2
Scans to average: 100
Electric dark correction enabled: true
Nonlinearity correction enabled: false
Boxcar width: 0
XAxis mode: Wavelengths
Number of Pixels in Spectrum: 2048
>>>>>Begin Spectral Data<<<<<
189.047	14000
189.435	14000
189.823	14000
190.211	36.61
190.599	243.7
190.987	88.01
191.375	235.19
191.763	39.07
192.151	171.71
192.538	-58.16
192.926	304400
193.314	202.28
193.702	-485.41
194.089	75.3
194.477	307.11
194.864	-2175.18
195.252	98.66
195.639	-47.4
196.027	60.37
196.414	-311.78
196.801	1256.9
197.189	317.2
197.576	97.8
197.963	-69.46
198.351	-63.88
198.738	16.15
199.125	-165.75
199.512	-4.99
199.899	43.05
200.286	17.28
200.673	-87.83
201.06	14.12
201.447	40.55
201.833	53.26
202.22	66.58
202.607	-40.54
202.994	-62.1
203.38	8.39
203.767	35.08
204.154	16.3
204.54	30.23
204.927	-114.97
205.313	1.28
205.699	-126.37
206.086	-64.73
206.472	24.07
206.858	34.41
207.245	21.61
207.631	-10.61
208.017	-5.91
208.403	12.48
208.789	-46.88
209.175	29.37
209.561	48.92
209.947	24.73
210.333	15.5
210.719	48.29
211.105	15.69
211.491	2.71
211.876	19.45
212.262	-11.18
212.648	22.92
213.034	18.28
213.419	0.88
213.805	-29.68
214.19	3.04
214.576	-46.32
214.961	-15.6
215.346	-17.93
215.732	24.09
216.117	20.73
216.502	-13.64
216.888	20.04
217.273	12.07
217.658	39.73
218.043	-17.6
218.428	-0.71
218.813	11.81
219.198	4.23
219.583	7.32
219.968	-13.54
220.353	-30.43
220.738	17.49
221.122	13.31
221.507	24.04
221.892	-9.06
222.276	-1.12
222.661	-4.5
223.046	-1.45
223.43	-6.1
223.815	-7.29
224.199	5.36
224.583	0.84
224.968	-3.62
225.352	4.43
225.736	-0.53
226.121	11.02
226.505	-3.98
226.889	4.63
227.273	4.24
227.657	14.47
228.041	7.25
228.425	0.01
228.809	3.76
229.193	4.24
229.577	5.34
229.961	3.51
230.344	5.48
230.728	4.43
231.112	4.08
231.495	4.87
231.879	5.18
232.263	4.25
232.646	4.87
233.03	4.2
233.413	4.35
233.797	5.83
234.18	5.99
234.563	6.69
234.946	6.92
235.33	5.99
235.713	3.17
236.096	4.77
236.479	6.32
236.862	3.42
237.245	4.24
237.628	5.14
238.011	4.69
238.394	7.4
238.777	4.97
239.16	3.73
239.543	7.2
239.925	4.83
240.308	6.13
240.691	4.52
241.073	6.32
241.456	5.2
241.838	6.79
242.221	4.91
242.603	3.44
242.986	4.19
243.368	4.69
243.75	4.9
244.133	4.89
244.515	4.75
244.897	4.74
245.279	5.36
245.661	5.13
246.043	4.46
246.425	4.86
246.807	5.87
247.189	4.8
247.571	4.93
247.953	4.27
248.335	4.65
248.717	4.99
249.098	4.72
249.48	4.82
249.862	5.26
250.243	5.05
250.625	4.94
251.006	4.88
251.388	5.09
251.769	5.1
252.151	5.05
252.532	5.54
252.913	5.17
253.295	5.79
253.676	4.5
254.057	4.9
254.438	5.33
254.819	3.97
255.2	3.8
255.581	3.63
255.962	4.27
256.343	3.89
256.724	4.55
257.105	4.32
257.486	4.54
257.867	5.37
258.247	3.95
258.628	4.96
259.009	5.59
259.389	4.82
259.77	4.35
260.15	4.44
260.531	4.66
260.911	3.74
261.292	4.33
261.672	4.33
262.052	4.69
262.432	4.51
262.813	4.86
263.193	4.68
263.573	4.16
263.953	4.68
264.333	4.56
264.713	5.07
265.093	4.2
265.473	5.01
265.853	3.79
266.233	4.15
266.612	4.5
266.992	4.55
267.372	4.84
267.752	5.26
268.131	4.72
268.511	4
268.89	4.46
269.27	4.55
269.649	4.62
270.029	5.1
270.408	4.3
270.787	4.25
271.167	3.74
271.546	4.13
271.925	4.84
272.304	3.62
272.683	4.12
273.062	3.83
273.441	3.96
273.82	4.44
274.199	4.44
274.578	4.34
274.957	4.42
275.336	3.8
275.715	3.53
276.093	4.9
276.472	4.02
276.851	4.6
277.229	4.55
277.608	3.74
277.986	4.45
278.365	4.45
278.743	3.57
279.122	4.36
279.5	4.82
279.878	4.57
280.257	4.26
280.635	3.94
281.013	4.01
281.391	4.29
281.769	4.64
282.147	3.8
282.525	4.23
282.903	3.99
283.281	4.25
283.659	3.91
284.037	4.16
284.415	3.85
284.792	4.02
285.17	4.37
285.548	3.93
285.925	3.38
286.303	4.42
286.68	3.97
287.058	3.96
287.435	4.24
287.813	4.15
288.19	4.21
288.567	3.74
288.945	4.1
289.322	3.73
289.699	4.45
290.076	3.86
290.453	4.05
290.83	4.61
291.207	4.19
291.584	4.33
291.961	4.32
292.338	3.81
292.715	4.27
293.092	4.23
293.469	4.26
293.845	4.42
294.222	4.69
294.599	4.77
294.975	4.3
295.352	3.66
295.728	4.52
296.105	4.47
296.481	4.43
296.858	4.21
297.234	4.49
297.61	4.95
297.986	4.7
298.363	4.34
298.739	4.67
299.115	4.61
299.491	4.61
299.867	4.77
300.243	4.5
300.619	4.49
300.995	4.51
301.371	4.22
301.746	4.31
302.122	4.39
302.498	4.85
302.874	4.55
303.249	4.93
303.625	4.62
304	5.17
304.376	4.87
304.751	5.03
305.127	5.05
305.502	4.79
305.878	4.4
306.253	4.91
306.628	4.7
307.003	5.13
307.378	4.41
307.754	5.42
308.129	5.31
308.504	4.07
308.879	4.21
309.254	4.36
309.629	5.35
310.003	4.91
310.378	5.06
310.753	5.04
311.128	5.1
311.502	4.22
311.877	4.68
312.252	5.06
312.626	4.92
313.001	4.87
313.375	4.7
313.75	4.78
314.124	4.99
314.498	4.44
314.873	5.33
315.247	4.37
315.621	4.89
315.995	5.11
316.369	4.92
316.743	5.16
317.117	5.18
317.491	5.18
317.865	4.9
318.239	5.27
318.613	5.05
318.987	4.95
319.361	5.42
319.734	4.55
320.108	5.01
320.482	5.15
320.855	5.31
321.229	4.56
321.602	4.62
321.976	5.62
322.349	4.94
322.723	5.4
323.096	5.73
323.469	5.35
323.843	5.02
324.216	5.5
324.589	5.06
324.962	4.78
325.335	5.49
325.708	5.42
326.081	5.49
326.454	5.28
326.827	4.47
327.2	4.56
327.573	4.62
327.945	5.32
328.318	5.08
328.691	4.81
329.063	5.12
329.436	5.04
329.809	5.08
330.181	5.47
330.553	4.91
330.926	5.16
331.298	5.5
331.671	5.19
332.043	5.38
332.415	5.42
332.787	5.23
333.159	5.12
333.532	5.15
333.904	5.3
334.276	5.51
334.648	5.59
335.02	5.1
335.391	4.73
335.763	4.96
336.135	5.43
336.507	5.19
336.879	5.65
337.25	5.05
337.622	4.68
337.993	5.39
338.365	4.74
338.736	5.37
339.108	5.46
339.479	5.03
339.851	4.79
340.222	5.06
340.593	4.7
340.964	5.76
341.336	5.17
341.707	4.99
342.078	5.45
342.449	4.96
342.82	4.67
343.191	5.02
343.562	5.21
343.933	5.21
344.303	5.16
344.674	5.49
345.045	5.54
345.416	4.89
345.786	5.72
346.157	5.38
346.527	5.32
346.898	5.2
347.268	5.45
347.639	5.07
348.009	5.27
348.38	4.94
348.75	4.91
349.12	5.52
349.49	5.22
349.861	4.72
350.231	5.18
350.601	5.25
350.971	5.39
351.341	5.18
351.711	5.21
352.081	5.11
352.45	5.19
352.82	5.12
353.19	5.63
353.56	5.14
353.929	5.35
354.299	5.67
354.669	5.31
355.038	5.18
355.408	4.86
355.777	5.46
356.147	5.09
356.516	5.01
356.885	4.8
357.254	5.45
357.624	5.55
357.993	4.66
358.362	5.51
358.731	5.15
359.1	5.23
359.469	4.83
359.838	5.09
360.207	5.14
360.576	5.37
360.945	5.46
361.314	5.51
361.682	5.36
362.051	5.15
362.42	5
362.788	5.29
363.157	5.05
363.525	4.76
363.894	5.04
364.262	5.17
364.631	5.07
364.999	5.26
365.367	5.53
365.735	5.29
366.104	5.2
366.472	5.46
366.84	5.32
367.208	4.9
367.576	5.44
367.944	5.07
368.312	5.13
368.68	5.11
369.048	5.32
369.416	4.91
369.783	5.33
370.151	5.62
370.519	5.51
370.886	5
371.254	5.42
371.621	5.59
371.989	5.3
372.356	5.48
372.724	5.87
373.091	5.5
373.458	5.35
373.826	5.43
374.193	5.01
374.56	5.36
374.927	5.52
375.294	5.35
375.661	5.27
376.028	5.65
376.395	5.44
376.762	5.53
377.129	5.68
377.496	5.31
377.863	5.6
378.229	5.65
378.596	5.52
378.963	5.38
379.329	5.26
379.696	5.51
380.062	4.98
380.429	4.94
380.795	5.64
381.161	5.22
381.528	5.48
381.894	5.15
382.26	5.5
382.626	5.45
382.993	5.59
383.359	5.44
383.725	5.2
384.091	5.44
384.457	5.32
384.823	5.56
385.188	4.98
385.554	5.26
385.92	5.62
386.286	5.59
386.651	5.28
387.017	5.63
387.383	5.42
387.748	5.08
388.114	5.24
388.479	5.26
388.845	5.4
389.21	5.2
389.575	5.58
389.94	5.47
390.306	5.61
390.671	5.49
391.036	5.38
391.401	5.9
391.766	5.37
392.131	5.63
392.496	5.59
392.861	5.53
393.226	5.68
393.591	5.58
393.956	5.35
394.32	5.55
394.685	5.39
395.05	5.56
395.414	5.64
395.779	5.39
396.143	5.24
396.508	5.38
396.872	5.45
397.236	5.36
397.601	5.32
397.965	5.56
398.329	5.67
398.694	5.62
399.058	5.41
399.422	5.42
399.786	5.64
400.15	5.41
400.514	5.63
400.878	5.66
401.242	5.56
401.605	5.67
401.969	5.39
402.333	5.41
402.697	5.62
403.06	5.52
403.424	5.69
403.787	5.62
404.151	5.58
404.514	5.23
404.878	5.8
405.241	5.67
405.604	5.54
405.968	5.49
406.331	5.51
406.694	5.46
407.057	5.67
407.42	5.84
407.783	5.53
408.146	5.62
408.509	5.55
408.872	5.56
409.235	5.55
409.598	5.45
409.961	5.72
410.323	5.41
410.686	5.56
411.049	5.73
411.411	5.66
411.774	5.68
412.136	5.59
412.499	5.64
412.861	5.5
413.223	5.53
413.586	5.85
413.948	5.76
414.31	5.59
414.672	5.44
415.035	5.83
415.397	5.4
415.759	5.83
416.121	5.8
416.483	5.71
416.845	5.61
417.206	5.5
417.568	5.7
417.93	5.86
418.292	5.61
418.653	5.54
419.015	5.67
419.377	5.75
419.738	5.59
420.1	5.53
420.461	5.58
420.822	5.55
421.184	5.63
421.545	5.49
421.906	5.61
422.267	5.61
422.629	5.51
422.99	5.62
423.351	5.45
423.712	5.52
424.073	5.6
424.434	5.53
424.795	5.54
425.155	5.61
425.516	5.53
425.877	5.52
426.238	5.59
426.598	5.62
426.959	5.67
427.32	5.61
427.68	5.72
428.041	5.63
428.401	5.6
428.761	5.73
429.122	5.71
429.482	5.7
429.842	5.66
430.202	5.68
430.563	5.71
430.923	5.75
431.283	5.79
431.643	5.9
432.003	5.82
432.363	5.85
432.722	5.87
433.082	5.79
433.442	5.7
433.802	5.64
434.161	5.96
434.521	5.61
434.881	5.71
435.24	5.62
435.6	5.76
435.959	5.69
436.319	5.65
436.678	5.77
437.037	5.68
437.396	5.71
437.756	5.83
438.115	5.98
438.474	5.91
438.833	5.87
439.192	5.75
439.551	5.9
439.91	5.68
440.269	5.88
440.628	5.67
440.987	6.09
441.345	5.71
441.704	5.81
442.063	5.79
442.421	5.78
442.78	5.71
443.138	5.75
443.497	5.68
443.855	5.74
444.214	5.95
444.572	5.85
444.93	6.06
445.288	5.91
445.647	5.97
446.005	5.74
446.363	5.91
446.721	5.86
447.079	5.88
447.437	5.79
447.795	5.84
448.153	5.93
448.51	5.82
448.868	5.76
449.226	5.68
449.584	5.92
449.941	5.83
450.299	5.84
450.656	5.87
451.014	6.03
451.371	5.87
451.729	6.06
452.086	5.97
452.443	6.06
452.801	5.97
453.158	5.96
453.515	5.91
453.872	6.13
454.229	6.04
454.586	5.9
454.943	5.97
455.3	6.01
455.657	5.96
456.014	5.98
456.371	6.02
456.727	5.98
457.084	6.08
457.441	6.18
457.797	5.95
458.154	6.08
458.51	6.1
458.867	5.86
459.223	6.04
459.58	6.08
459.936	6.07
460.292	6.15
460.648	6.15
461.005	5.95
461.361	6.05
461.717	5.92
462.073	5.99
462.429	6.07
462.785	5.94
463.141	6.03
463.496	6.2
463.852	6
464.208	6.06
464.564	6.01
464.919	6.21
465.275	6.07
465.631	6.08
465.986	6.27
466.342	6.3
466.697	6.17
467.052	6.2
467.408	6.33
467.763	6.22
468.118	6.01
468.473	6.18
468.829	6.19
469.184	6.36
469.539	6.14
469.894	6.01
470.249	6.3
470.603	6.15
470.958	6.15
471.313	6.13
471.668	6.29
472.023	6.25
472.377	6.19
472.732	6.26
473.086	6.49
473.441	6.19
473.795	6.37
474.15	6.22
474.504	6.3
474.859	6.22
475.213	6.25
475.567	6.27
475.921	6.23
476.275	6.32
476.63	6.31
476.984	6.2
477.338	6.07
477.692	6.38
478.045	6.31
478.399	6.19
478.753	6.18
479.107	6.23
479.461	6.35
479.814	6.25
480.168	6.25
480.521	6.48
480.875	6.29
481.228	6.22
481.582	6.5
481.935	6.41
482.289	6.28
482.642	6.26
482.995	6.38
483.348	6.28
483.701	6.18
484.055	6.27
484.408	6.24
484.761	6.29
485.114	6.14
485.466	6.04
485.819	5.98
486.172	5.99
486.525	6.07
486.878	6.11
487.23	6.19
487.583	6.17
487.936	6.28
488.288	6.31
488.641	6.16
488.993	6.11
489.345	6.19
489.698	6.1
490.05	6.19
490.402	6.15
490.754	6.22
491.107	6.32
491.459	6.33
491.811	6.42
492.163	6.42
492.515	6.42
492.866	6.39
493.218	6.18
493.57	6.28
493.922	6.24
494.274	6.3
494.625	6.35
494.977	6.51
495.328	6.57
495.68	6.56
496.031	6.6
496.383	6.43
496.734	6.58
497.086	6.65
497.437	6.7
497.788	6.6
498.139	6.52
498.49	6.53
498.842	6.6
499.193	6.72
499.544	6.51
499.894	6.57
500.245	6.71
500.596	6.7
500.947	6.6
501.298	6.59
501.648	6.67
501.999	6.61
502.35	6.68
502.7	6.75
503.051	6.61
503.401	6.73
503.752	6.69
504.102	6.74
504.452	6.75
504.803	6.96
505.153	6.99
505.503	6.84
505.853	6.94
506.203	6.66
506.553	6.87
506.903	6.73
507.253	6.87
507.603	6.77
507.953	6.93
508.303	6.85
508.652	6.87
509.002	6.84
509.352	6.85
509.701	6.9
510.051	6.78
510.4	6.84
510.75	6.93
511.099	6.87
511.449	6.84
511.798	6.81
512.147	6.92
512.496	6.82
512.846	6.92
513.195	7.04
513.544	7
513.893	6.9
514.242	6.97
514.591	6.81
514.939	6.8
515.288	7.03
515.637	7.05
515.986	7.03
516.334	6.87
516.683	7.21
517.032	7.08
517.38	7.18
517.729	6.97
518.077	7.08
518.426	7.09
518.774	7.08
519.122	7.03
519.47	7.08
519.819	7.03
520.167	7.05
520.515	6.93
520.863	6.95
521.211	7.03
521.559	7.04
521.907	7.05
522.255	7.03
522.602	7.17
522.95	7.34
523.298	7.23
523.645	7.3
523.993	7.18
524.341	7.29
524.688	7.25
525.036	7.14
525.383	7.24
525.73	7.27
526.078	7.51
526.425	7.29
526.772	7.22
527.119	7.29
527.466	7.21
527.814	7.29
528.161	7.23
528.508	7.27
528.854	7.18
529.201	7.24
529.548	7.26
529.895	7.18
530.242	7.16
530.588	7.1
530.935	7.13
531.282	7.17
531.628	7.17
531.975	7.26
532.321	7.3
532.667	7.4
533.014	7.38
533.36	7.47
533.706	7.58
534.052	7.5
534.399	7.52
534.745	7.36
535.091	7.34
535.437	7.38
535.783	7.42
536.129	7.52
536.474	7.53
536.82	7.55
537.166	7.61
537.512	7.54
537.857	7.65
538.203	7.61
538.549	7.65
538.894	7.63
539.239	7.7
539.585	7.69
539.93	7.73
540.276	7.73
540.621	7.85
540.966	7.91
541.311	7.85
541.656	7.93
542.001	7.87
542.346	7.84
542.691	7.87
543.036	7.59
543.381	7.6
543.726	7.62
544.071	7.68
544.415	7.7
544.76	7.77
545.105	7.8
545.449	7.88
545.794	7.92
546.138	7.96
546.483	7.95
546.827	8.05
547.171	8.02
547.516	8.04
547.86	8.14
548.204	8.09
548.548	8.06
548.892	7.96
549.236	8.02
549.58	8.13
549.924	8.21
550.268	8.13
550.612	8.25
550.956	8.21
551.3	8.26
551.643	8.34
551.987	8.39
552.33	8.46
552.674	8.4
553.017	8.47
553.361	8.32
553.704	8.31
554.048	8.57
554.391	8.4
554.734	8.43
555.077	8.37
555.42	8.56
555.764	8.51
556.107	8.6
556.45	8.5
556.793	8.49
557.135	8.62
557.478	8.59
557.821	8.56
558.164	8.7
558.507	8.63
558.849	8.69
559.192	8.75
559.534	8.65
559.877	8.92
560.219	8.72
560.562	8.85
560.904	8.81
561.246	8.86
561.589	8.92
561.931	8.86
562.273	8.91
562.615	8.93
562.957	9
563.299	9.13
563.641	8.94
563.983	9.24
564.325	9.1
564.667	8.93
565.008	9.09
565.35	9.19
565.692	9.24
566.033	9.25
566.375	9.16
566.716	9.14
567.058	9.08
567.399	9.1
567.741	9.24
568.082	9.23
568.423	9.43
568.764	9.2
569.105	9.26
569.447	9.39
569.788	9.2
570.129	9.42
570.47	9.17
570.811	9.16
571.151	9.44
571.492	9.66
571.833	9.36
572.174	9.54
572.514	9.52
572.855	9.25
573.195	9.65
573.536	9.44
573.876	9.46
574.217	9.54
574.557	9.49
574.898	9.7
575.238	9.77
575.578	9.68
575.918	9.79
576.258	9.79
576.598	9.85
576.938	9.88
577.278	9.71
577.618	9.7
577.958	9.75
578.298	9.96
578.638	10.02
578.977	9.94
579.317	9.94
579.657	9.97
579.996	9.87
580.336	9.97
580.675	9.99
581.014	10.21
581.354	10.27
581.693	10.16
582.032	9.87
582.372	10.53
582.711	9.94
583.05	10.47
583.389	10.26
583.728	10.54
584.067	10.21
584.406	10.29
584.745	10.43
585.083	10.3
585.422	10.35
585.761	10.43
586.1	10.29
586.438	10.37
586.777	10.31
587.115	10.35
587.454	10.57
587.792	10.64
588.13	10.62
588.469	10.81
588.807	10.67
589.145	10.86
589.483	10.88
589.821	10.57
590.159	10.9
590.497	10.65
590.835	10.66
591.173	10.8
591.511	10.92
591.849	11.11
592.187	10.66
592.524	10.98
592.862	10.82
593.2	10.7
593.537	10.96
593.875	11.03
594.212	11.02
594.55	10.97
594.887	10.97
595.224	11.14
595.561	11.32
595.899	10.93
596.236	11.09
596.573	11.21
596.91	11.17
597.247	11.18
597.584	11.12
597.921	11.38
598.258	11.16
598.594	11.37
598.931	11.22
599.268	11.32
599.604	11.42
599.941	11.59
600.277	11.21
600.614	11.63
600.95	11.58
601.287	11.73
601.623	11.78
601.959	11.73
602.296	11.51
602.632	11.69
602.968	11.48
603.304	11.82
603.64	11.61
603.976	12.02
604.312	11.77
604.648	11.86
604.984	11.7
605.319	11.78
605.655	11.79
605.991	11.89
606.326	11.92
606.662	11.68
606.998	11.8
607.333	11.95
607.668	11.89
608.004	11.77
608.339	12.16
608.674	12.31
609.01	12.14
609.345	12.26
609.68	12.27
610.015	12.18
610.35	12.25
610.685	12.14
611.02	12.52
611.355	12.35
611.689	12.41
612.024	12.3
612.359	12.28
612.694	12.49
613.028	12.37
613.363	12.66
613.697	12.41
614.032	12.46
614.366	12.76
614.7	12.66
615.035	12.77
615.369	12.86
615.703	12.82
616.037	12.69
616.371	12.72
616.705	12.96
617.039	12.53
617.373	12.91
617.707	12.99
618.041	13.07
618.375	13.15
618.709	13
619.042	13.04
619.376	13.24
619.71	13.19
620.043	12.79
620.377	13.14
620.71	13.28
621.043	13.18
621.377	12.85
621.71	13.2
622.043	12.86
622.376	13.41
622.709	13.24
623.043	13.59
623.376	13.3
623.709	13.48
624.041	13.86
624.374	13.62
624.707	13.04
625.04	13.77
625.373	13.41
625.705	13.57
626.038	13.32
626.37	13.77
626.703	14.1
627.035	13.63
627.368	14.12
627.7	13.69
628.032	13.35
628.365	13.93
628.697	13.95
629.029	13.75
629.361	13.61
629.693	13.87
630.025	13.85
630.357	13.7
630.689	13.47
631.021	14.2
631.353	13.83
631.684	13.83
632.016	14.37
632.348	14.24
632.679	14.62
633.011	14.22
633.342	13.94
633.674	14.53
634.005	14.23
634.336	14.62
634.668	14.6
634.999	14.7
635.33	14.36
635.661	14.66
635.992	14.66
636.323	14.25
636.654	14.63
636.985	14.33
637.316	14.61
637.647	14.79
637.977	14.8
638.308	14.69
638.639	14.28
638.969	14.71
639.3	14.8
639.63	14.41
639.961	15.05
640.291	15.41
640.622	14.87
640.952	14.9
641.282	14.85
641.612	15.03
641.943	14.88
642.273	14.49
642.603	15.13
642.933	14.82
643.263	15.01
643.592	15.35
643.922	15.42
644.252	14.73
644.582	15.62
644.911	15.39
645.241	14.97
645.571	15.34
645.9	15.26
646.23	15.39
646.559	15.2
646.888	15.67
647.218	15.96
647.547	15.22
647.876	15.25
648.205	14.96
648.534	15.71
648.863	15.35
649.192	15.31
649.521	15.82
649.85	15.75
650.179	15.46
650.508	15.7
650.837	15.71
651.165	16.28
651.494	16.12
651.822	15.78
652.151	16.38
652.479	15.81
652.808	15.73
653.136	15.72
653.465	16.42
653.793	16.01
654.121	16.08
654.449	16.49
654.777	16.43
655.105	16.23
655.433	16.52
655.761	16.2
656.089	16.26
656.417	15.93
656.745	16.66
657.073	16.45
657.4	16.77
657.728	16.29
658.056	16.89
658.383	16.25
658.711	16.4
659.038	16.58
659.365	16.26
659.693	16.72
660.02	16.58
660.347	16.65
660.674	16.9
661.001	16.64
661.329	16.82
661.656	17.07
661.982	16.91
662.309	17.07
662.636	16.85
662.963	17.04
663.29	16.85
663.616	16.92
663.943	16.4
664.27	17.03
664.596	17.44
664.923	17.09
665.249	17.09
665.576	16.81
665.902	17.29
666.228	17.13
666.554	17.17
666.881	17.01
667.207	17.87
667.533	17.54
667.859	17.06
668.185	17.46
668.511	17.32
668.837	17.83
669.162	17.75
669.488	17.48
669.814	17.35
670.139	17.96
670.465	17.83
670.791	17.57
671.116	18.13
671.442	17.74
671.767	18.14
672.092	17.42
672.418	17.07
672.743	17.72
673.068	17.74
673.393	18.01
673.718	18.01
674.043	18.73
674.368	17.88
674.693	18.23
675.018	18.28
675.343	17.85
675.667	17.64
675.992	18.76
676.317	17.85
676.641	18.35
676.966	18.67
677.29	18.28
677.615	19.07
677.939	18.37
678.264	18.35
678.588	18.85
678.912	18.22
679.236	18.7
679.56	18.59
679.885	18.8
680.209	18.61
680.532	19.12
680.856	19.28
681.18	18.79
681.504	18.96
681.828	18.7
682.152	18.57
682.475	19.22
682.799	19.42
683.122	19.17
683.446	18.12
683.769	18.71
684.093	18.58
684.416	18.25
684.739	19.43
685.062	19.36
