Data from 0370_forehead_Reflection__1__147.txt Node

Date: Mon Dec 11 19:13:29 CST 2023
User: ToomeyLab
Spectrometer: FLMS14357
Trigger mode: 0
Integration Time (sec): 1.000000E-2
Scans to average: 100
Electric dark correction enabled: true
Nonlinearity correction enabled: false
Boxcar width: 0
XAxis mode: Wavelengths
Number of Pixels in Spectrum: 2048
>>>>>Begin Spectral Data<<<<<
189.047	91850
189.435	91850
189.823	91850
190.211	144.95
190.599	238
190.987	66.89
191.375	170.51
191.763	26.83
192.151	-18.65
192.538	-116.73
192.926	126250
193.314	611.98
193.702	-820.46
194.089	42.47
194.477	277.47
194.864	-345.62
195.252	-62.08
195.639	-13.04
196.027	102.44
196.414	-302.38
196.801	830.75
197.189	-119.56
197.576	160.12
197.963	-27.05
198.351	30.08
198.738	-7.74
199.125	-49.01
199.512	0.35
199.899	11.38
200.286	52.11
200.673	-33.69
201.06	24.51
201.447	-25.38
201.833	12.69
202.22	24.6
202.607	-5.07
202.994	29.62
203.38	-21.48
203.767	30.53
204.154	16.93
204.54	-19.98
204.927	-107.77
205.313	11.09
205.699	-104.28
206.086	-40.9
206.472	18.01
206.858	-11.73
207.245	-9.35
207.631	27.69
208.017	30.93
208.403	6.33
208.789	-8.46
209.175	21.1
209.561	-76.97
209.947	-17.3
210.333	24.09
210.719	56.28
211.105	7.3
211.491	41.42
211.876	-12.3
212.262	-32.02
212.648	-3.83
213.034	-16.94
213.419	8.01
213.805	-30.56
214.19	-4.14
214.576	-4.81
214.961	12.68
215.346	-33.27
215.732	10.75
216.117	-2.78
216.502	7.82
216.888	8.63
217.273	20.59
217.658	3.97
218.043	6.56
218.428	8.83
218.813	14.81
219.198	-11.07
219.583	18.84
219.968	-3.99
220.353	-17.63
220.738	19.5
221.122	-10.66
221.507	28.82
221.892	-3.02
222.276	-5.73
222.661	-16.38
223.046	-5.97
223.43	9.53
223.815	-2.63
224.199	12.23
224.583	2.03
224.968	6.7
225.352	6.91
225.736	6.04
226.121	2.11
226.505	1.16
226.889	-1.94
227.273	2.01
227.657	10.2
228.041	3.72
228.425	0.06
228.809	0.97
229.193	1.92
229.577	4.71
229.961	2.91
230.344	2.86
230.728	2.39
231.112	2.86
231.495	3.08
231.879	2.53
232.263	2.53
232.646	2.48
233.03	2.94
233.413	3.01
233.797	4.77
234.18	5.52
234.563	4.51
234.946	2.81
235.33	2.87
235.713	2.14
236.096	3.87
236.479	5.37
236.862	0.85
237.245	1.72
237.628	3.32
238.011	3.08
238.394	1.9
238.777	1.99
239.16	1.88
239.543	4.71
239.925	1.51
240.308	4.66
240.691	2.8
241.073	3.81
241.456	3.95
241.838	4.77
242.221	4.25
242.603	1.55
242.986	1.6
243.368	3.02
243.75	3.15
244.133	3.38
244.515	2.45
244.897	2.7
245.279	2.98
245.661	2.67
246.043	1.87
246.425	4.15
246.807	3.69
247.189	3.34
247.571	3.28
247.953	2.83
248.335	3.03
248.717	3
249.098	2.8
249.48	2.79
249.862	3.15
250.243	2.85
250.625	2.68
251.006	2.66
251.388	3.38
251.769	3.26
252.151	3.5
252.532	2.22
252.913	2.23
253.295	2.7
253.676	2.18
254.057	2.58
254.438	3.1
254.819	2.49
255.2	2.48
255.581	1.63
255.962	2.69
256.343	2.83
256.724	4.15
257.105	3.12
257.486	1.11
257.867	3.69
258.247	2.54
258.628	3.65
259.009	2.43
259.389	3.27
259.77	2.54
260.15	1.94
260.531	3.55
260.911	2.61
261.292	2.5
261.672	2.78
262.052	2.9
262.432	2.91
262.813	2.49
263.193	2.44
263.573	2.85
263.953	3.38
264.333	1.95
264.713	3.39
265.093	2.48
265.473	2.42
265.853	2.59
266.233	2.57
266.612	2.32
266.992	2.81
267.372	4.01
267.752	3.57
268.131	2.68
268.511	1.9
268.89	2.86
269.27	3.25
269.649	2.45
270.029	3.21
270.408	2.83
270.787	2.72
271.167	1.84
271.546	2.98
271.925	2.46
272.304	2.85
272.683	2.71
273.062	2.1
273.441	2.39
273.82	2.73
274.199	2.23
274.578	2.68
274.957	3.07
275.336	2.34
275.715	2.31
276.093	3.21
276.472	3.35
276.851	3.1
277.229	2.93
277.608	2.84
277.986	3.07
278.365	2.28
278.743	2.18
279.122	2.93
279.5	3.03
279.878	2.54
280.257	2.61
280.635	2.89
281.013	2.69
281.391	3.27
281.769	2.01
282.147	2.3
282.525	2.84
282.903	3.18
283.281	2.44
283.659	2.62
284.037	2.12
284.415	2.19
284.792	2.75
285.17	3.23
285.548	1.94
285.925	2.2
286.303	2.72
286.68	2.76
287.058	2.49
287.435	2.75
287.813	2.64
288.19	2.62
288.567	2.75
288.945	2.58
289.322	2.5
289.699	2.55
290.076	2.29
290.453	2.67
290.83	3.19
291.207	2.66
291.584	2.61
291.961	2.54
292.338	2.61
292.715	3.03
293.092	2.68
293.469	3.04
293.845	2.28
294.222	3.49
294.599	2.47
294.975	2.26
295.352	2.67
295.728	2.72
296.105	2.72
296.481	2.86
296.858	2.83
297.234	3.62
297.61	3.19
297.986	3.01
298.363	3.15
298.739	2.91
299.115	2.84
299.491	3
299.867	3.06
300.243	3.07
300.619	2.87
300.995	3.34
301.371	3.03
301.746	2.82
302.122	2.96
302.498	3.63
302.874	3.32
303.249	3.44
303.625	3.2
304	3.37
304.376	3.03
304.751	3.4
305.127	3.25
305.502	3.34
305.878	3.27
306.253	3.6
306.628	3.38
307.003	3.67
307.378	3.28
307.754	3.42
308.129	3.43
308.504	3.79
308.879	3.51
309.254	3.68
309.629	3.92
310.003	4.19
310.378	3.43
310.753	4.09
311.128	3.81
311.502	3.81
311.877	4.07
312.252	4.13
312.626	3.95
313.001	4.27
313.375	3.73
313.75	3.54
314.124	4.12
314.498	4.17
314.873	3.9
315.247	4.43
315.621	4.92
315.995	4.37
316.369	4.21
316.743	4.51
317.117	4.45
317.491	5
317.865	4.27
318.239	5.29
318.613	4.61
318.987	4.53
319.361	4.88
319.734	4.69
320.108	4.42
320.482	4.95
320.855	4.74
321.229	4.56
321.602	5.36
321.976	5.48
322.349	4.63
322.723	4.75
323.096	5.88
323.469	5.96
323.843	5.73
324.216	5.64
324.589	5.67
324.962	5.14
325.335	5.28
325.708	5.09
326.081	5.33
326.454	5.59
326.827	5.64
327.2	5.32
327.573	5.11
327.945	5.43
328.318	5.55
328.691	5.84
329.063	5.64
329.436	5.14
329.809	5.73
330.181	6.29
330.553	5.69
330.926	5.49
331.298	5.85
331.671	5.99
332.043	6.56
332.415	5.91
332.787	6.49
333.159	5.88
333.532	6.1
333.904	6.16
334.276	6.4
334.648	6.43
335.02	5.5
335.391	5.95
335.763	6.36
336.135	6.6
336.507	6.51
336.879	6.88
337.25	6.08
337.622	6.71
337.993	6.4
338.365	5.92
338.736	6.39
339.108	6.6
339.479	5.99
339.851	6.41
340.222	6.8
340.593	6.11
340.964	6.86
341.336	6.58
341.707	6.34
342.078	7.28
342.449	6.7
342.82	6.14
343.191	6.39
343.562	6.57
343.933	6.77
344.303	6.56
344.674	7.05
345.045	6.98
345.416	6.91
345.786	6.98
346.157	7.06
346.527	6.74
346.898	6.92
347.268	7.27
347.639	6.79
348.009	7.21
348.38	6.43
348.75	7.04
349.12	7.23
349.49	7.05
349.861	6.77
350.231	7.15
350.601	7.68
350.971	7.45
351.341	6.96
351.711	7.46
352.081	7.24
352.45	7.38
352.82	7.08
353.19	7.37
353.56	7.1
353.929	7.82
354.299	7.24
354.669	7.68
355.038	7.81
355.408	7.19
355.777	7.62
356.147	7.6
356.516	7.65
356.885	7.77
357.254	7.62
357.624	7.76
357.993	7.33
358.362	8.2
358.731	7.4
359.1	7.81
359.469	7.59
359.838	7.92
360.207	7.9
360.576	7.71
360.945	7.78
361.314	8.17
361.682	7.87
362.051	7.68
362.42	8.01
362.788	7.81
363.157	8.03
363.525	7.66
363.894	8.18
364.262	8
364.631	8.05
364.999	8.02
365.367	8.37
365.735	8.39
366.104	8.37
366.472	8.38
366.84	8.24
367.208	8.25
367.576	8.57
367.944	8.57
368.312	8.5
368.68	8.56
369.048	8.16
369.416	8.42
369.783	8.51
370.151	8.68
370.519	8.81
370.886	8.2
371.254	9.02
371.621	8.74
371.989	8.76
372.356	8.88
372.724	9.15
373.091	9.22
373.458	8.68
373.826	8.81
374.193	8.74
374.56	9.16
374.927	9.08
375.294	9.18
375.661	9.23
376.028	8.94
376.395	9.01
376.762	9.41
377.129	9.3
377.496	9.09
377.863	9.65
378.229	9.3
378.596	9.15
378.963	9.27
379.329	9.25
379.696	9.2
380.062	9.19
380.429	9.12
380.795	9.46
381.161	9.21
381.528	9.53
381.894	9.57
382.26	9.56
382.626	9.15
382.993	9.41
383.359	9.15
383.725	9.48
384.091	9.87
384.457	9.64
384.823	10.17
385.188	9.62
385.554	9.49
385.92	9.72
386.286	9.76
386.651	9.54
387.017	10.02
387.383	9.64
387.748	9.96
388.114	10.19
388.479	9.84
388.845	9.91
389.21	10.03
389.575	10.25
389.94	10.21
390.306	10.3
390.671	10.13
391.036	10.59
391.401	10.39
391.766	10.24
392.131	10.27
392.496	10.4
392.861	10.54
393.226	10.36
393.591	10.41
393.956	10.47
394.32	10.56
394.685	10.66
395.05	10.61
395.414	10.7
395.779	10.61
396.143	10.37
396.508	10.52
396.872	10.46
397.236	10.85
397.601	10.75
397.965	10.84
398.329	10.89
398.694	10.78
399.058	10.91
399.422	10.93
399.786	11.11
400.15	10.63
400.514	11.02
400.878	11.06
401.242	10.9
401.605	11.15
401.969	11.04
402.333	10.78
402.697	11.01
403.06	11.15
403.424	11.01
403.787	11.5
404.151	11.26
404.514	11.28
404.878	11.33
405.241	11.34
405.604	11.44
405.968	11.33
406.331	11.21
406.694	11.37
407.057	11.31
407.42	11.51
407.783	11.55
408.146	11.6
408.509	11.41
408.872	11.55
409.235	11.45
409.598	11.66
409.961	11.91
410.323	11.81
410.686	12
411.049	11.81
411.411	11.6
411.774	12.03
412.136	11.83
412.499	12.03
412.861	11.86
413.223	11.95
413.586	12.19
413.948	11.83
414.31	12.08
414.672	11.76
415.035	11.94
415.397	12.07
415.759	12.03
416.121	12.16
416.483	12.13
416.845	11.97
417.206	12.18
417.568	12.28
417.93	12.28
418.292	12.2
418.653	12.07
419.015	12.16
419.377	12.47
419.738	12.14
420.1	12.23
420.461	12.24
420.822	12.28
421.184	12.19
421.545	12.12
421.906	12.27
422.267	12.32
422.629	12.16
422.99	12.32
423.351	12.25
423.712	12.29
424.073	12.35
424.434	12.36
424.795	12.54
425.155	12.39
425.516	12.43
425.877	12.34
426.238	12.36
426.598	12.43
426.959	12.58
427.32	12.57
427.68	12.78
428.041	12.63
428.401	12.58
428.761	12.75
429.122	12.79
429.482	12.78
429.842	13.03
430.202	12.94
430.563	13.16
430.923	13.06
431.283	13.21
431.643	13.03
432.003	13.24
432.363	13.19
432.722	13.08
433.082	13.37
433.442	13.4
433.802	13.18
434.161	13.42
434.521	13.11
434.881	13.19
435.24	13.2
435.6	13.38
435.959	13.37
436.319	13.16
436.678	13.47
437.037	13.47
437.396	13.6
437.756	13.7
438.115	13.82
438.474	13.73
438.833	13.56
439.192	13.56
439.551	13.67
439.91	13.65
440.269	13.72
440.628	13.66
440.987	13.82
441.345	13.69
441.704	13.84
442.063	13.71
442.421	13.75
442.78	13.59
443.138	13.66
443.497	13.82
443.855	13.97
444.214	13.9
444.572	13.89
444.93	13.98
445.288	14.1
445.647	14.07
446.005	13.81
446.363	14.06
446.721	14.01
447.079	13.89
447.437	14.07
447.795	13.96
448.153	13.93
448.51	13.9
448.868	13.82
449.226	13.93
449.584	14.02
449.941	14.14
450.299	14.19
450.656	14.14
451.014	14.45
451.371	14.36
451.729	14.34
452.086	14.34
452.443	14.67
452.801	14.45
453.158	14.74
453.515	14.5
453.872	14.74
454.229	14.47
454.586	14.52
454.943	14.65
455.3	14.56
455.657	14.8
456.014	14.77
456.371	14.88
456.727	14.75
457.084	14.79
457.441	15.14
457.797	15.08
458.154	15.05
458.51	15.07
458.867	14.75
459.223	14.96
459.58	15.08
459.936	15.2
460.292	15.02
460.648	15.12
461.005	15.02
461.361	14.78
461.717	14.78
462.073	14.96
462.429	14.97
462.785	15
463.141	15.09
463.496	15.24
463.852	15.32
464.208	15.21
464.564	15.46
464.919	15.3
465.275	15.37
465.631	15.39
465.986	15.49
466.342	15.7
466.697	15.64
467.052	15.46
467.408	15.72
467.763	15.72
468.118	15.52
468.473	15.61
468.829	15.79
469.184	15.78
469.539	15.76
469.894	15.56
470.249	15.84
470.603	15.92
470.958	16.08
471.313	15.88
471.668	16.09
472.023	16.01
472.377	15.99
472.732	15.91
473.086	16.17
473.441	16.11
473.795	16.12
474.15	16.25
474.504	16.09
474.859	16.1
475.213	16.28
475.567	16.25
475.921	16.19
476.275	16.27
476.63	16.35
476.984	16.35
477.338	16.22
477.692	16.16
478.045	16.23
478.399	16.26
478.753	16.2
479.107	16.47
479.461	16.33
479.814	16.32
480.168	16.38
480.521	16.39
480.875	16.41
481.228	16.34
481.582	16.68
481.935	16.39
482.289	16.52
482.642	16.52
482.995	16.54
483.348	16.36
483.701	16.4
484.055	16.53
484.408	16.25
484.761	16.33
485.114	16.1
485.466	15.92
485.819	15.72
486.172	15.77
486.525	15.85
486.878	16.08
487.23	16.13
487.583	16.29
487.936	16.33
488.288	16.37
488.641	16.32
488.993	16.28
489.345	16.2
489.698	16.09
490.05	16.23
490.402	16.24
490.754	16.4
491.107	16.48
491.459	16.66
491.811	16.79
492.163	16.91
492.515	16.87
492.866	16.84
493.218	16.55
493.57	16.5
493.922	16.54
494.274	16.66
494.625	16.84
494.977	17.06
495.328	17.02
495.68	17.28
496.031	17.49
496.383	17.4
496.734	17.53
497.086	17.68
497.437	17.74
497.788	17.59
498.139	17.37
498.49	17.52
498.842	17.62
499.193	17.62
499.544	17.54
499.894	17.67
500.245	17.72
500.596	17.84
500.947	17.79
501.298	17.85
501.648	17.91
501.999	17.86
502.35	18.06
502.7	18.04
503.051	18.03
503.401	18.14
503.752	18.21
504.102	18.13
504.452	18.15
504.803	18.18
505.153	18.32
505.503	18.18
505.853	18.33
506.203	18.19
506.553	18.32
506.903	18.22
507.253	18.44
507.603	18.28
507.953	18.53
508.303	18.23
508.652	18.33
509.002	18.35
509.352	18.43
509.701	18.45
510.051	18.44
510.4	18.38
510.75	18.31
511.099	18.49
511.449	18.62
511.798	18.46
512.147	18.64
512.496	18.53
512.846	18.47
513.195	18.68
513.544	18.57
513.893	18.59
514.242	18.56
514.591	18.53
514.939	18.67
515.288	18.86
515.637	18.88
515.986	18.81
516.334	19
516.683	19.12
517.032	19.04
517.38	19.04
517.729	19.04
518.077	19.12
518.426	19.13
518.774	19.07
519.122	18.97
519.47	18.98
519.819	19.01
520.167	18.94
520.515	18.74
520.863	18.67
521.211	18.91
521.559	18.95
521.907	18.92
522.255	19
522.602	19.04
522.95	19.32
523.298	19.32
523.645	19.44
523.993	19.55
524.341	19.35
524.688	19.53
525.036	19.58
525.383	19.5
525.73	19.59
526.078	19.63
526.425	19.49
526.772	19.42
527.119	19.32
527.466	19.19
527.814	19.19
528.161	19.22
528.508	19.35
528.854	19.34
529.201	19.26
529.548	19.27
529.895	19.08
530.242	18.88
530.588	18.79
530.935	18.91
531.282	19.04
531.628	19.04
531.975	19.18
532.321	19.26
532.667	19.44
533.014	19.41
533.36	19.57
533.706	19.74
534.052	19.76
534.399	19.74
534.745	19.55
535.091	19.36
535.437	19.36
535.783	19.47
536.129	19.55
536.474	19.84
536.82	19.88
537.166	19.95
537.512	19.99
537.857	19.98
538.203	20.01
538.549	19.99
538.894	20.11
539.239	20.14
539.585	20.09
539.93	20.16
540.276	20.34
540.621	20.41
540.966	20.64
541.311	20.45
541.656	20.48
542.001	20.42
542.346	20.5
542.691	20.14
543.036	19.78
543.381	19.72
543.726	19.91
544.071	19.95
544.415	20.1
544.76	20.19
545.105	20.31
545.449	20.31
545.794	20.47
546.138	20.66
546.483	20.67
546.827	20.7
547.171	20.53
547.516	20.83
547.86	20.85
548.204	20.96
548.548	20.84
548.892	20.69
549.236	20.86
549.58	20.89
549.924	21.09
550.268	20.93
550.612	21.13
550.956	21.25
551.3	21.42
551.643	21.63
551.987	21.37
552.33	21.59
552.674	21.73
553.017	21.48
553.361	21.73
553.704	21.61
554.048	21.49
554.391	21.44
554.734	21.52
555.077	21.61
555.42	21.64
555.764	21.62
556.107	21.89
556.45	21.72
556.793	21.74
557.135	21.96
557.478	21.85
557.821	21.94
558.164	22.05
558.507	21.76
558.849	22.12
559.192	22.12
559.534	22
559.877	22
560.219	22.1
560.562	22.42
560.904	22.15
561.246	22.25
561.589	22.45
561.931	22.36
562.273	22.37
562.615	22.05
562.957	22.46
563.299	22.38
563.641	22.16
563.983	22.43
564.325	22.42
564.667	22.61
565.008	22.34
565.35	22.63
565.692	22.48
566.033	22.51
566.375	22.56
566.716	22.6
567.058	22.46
567.399	22.36
567.741	22.37
568.082	22.65
568.423	22.47
568.764	22.34
569.105	22.41
569.447	22.56
569.788	22.57
570.129	22.79
570.47	22.78
570.811	22.82
571.151	22.67
571.492	23.13
571.833	22.97
572.174	22.85
572.514	22.91
572.855	22.82
573.195	22.85
573.536	22.84
573.876	22.8
574.217	22.98
574.557	22.81
574.898	22.84
575.238	23
575.578	23.13
575.918	23.01
576.258	23.08
576.598	23.29
576.938	23.03
577.278	23.16
577.618	23.08
577.958	23.39
578.298	23.3
578.638	23.37
578.977	23.29
579.317	23.48
579.657	23.48
579.996	23.44
580.336	23.57
580.675	23.78
581.014	23.56
581.354	23.35
581.693	23.73
582.032	23.38
582.372	23.72
582.711	23.64
583.05	23.86
583.389	23.81
583.728	23.89
584.067	23.9
584.406	23.92
584.745	23.68
585.083	24.07
585.422	23.95
585.761	24.11
586.1	23.97
586.438	23.76
586.777	24.26
587.115	24.12
587.454	23.89
587.792	23.94
588.13	24.52
588.469	24.17
588.807	24.16
589.145	24.44
589.483	24.07
589.821	24.26
590.159	24.3
590.497	24.28
590.835	24.31
591.173	24.23
591.511	24.34
591.849	24.3
592.187	24.09
592.524	24.4
592.862	24.19
593.2	24.36
593.537	24.39
593.875	24.52
594.212	24.45
594.55	24.55
594.887	24.78
595.224	24.7
595.561	24.51
595.899	24.77
596.236	24.68
596.573	24.8
596.91	24.5
597.247	24.7
597.584	24.52
597.921	24.43
598.258	24.51
598.594	24.32
598.931	24.46
599.268	24.36
599.604	24.71
599.941	24.73
600.277	24.64
600.614	24.98
600.95	24.91
601.287	25.14
601.623	25.03
601.959	25.06
602.296	25.07
602.632	25.16
602.968	24.92
603.304	25.11
603.64	25.18
603.976	25.3
604.312	25.23
604.648	25.06
604.984	25.08
605.319	25.01
605.655	24.68
605.991	24.9
606.326	25.18
606.662	24.84
606.998	24.88
607.333	25.09
607.668	25.17
608.004	24.95
608.339	25.36
608.674	25.42
609.01	25.46
609.345	25.54
609.68	25.55
610.015	25.56
610.35	25.64
610.685	25.08
611.02	25.35
611.355	25.47
611.689	25.66
612.024	25.16
612.359	25.33
612.694	25.53
613.028	25.68
613.363	25.74
613.697	25.76
614.032	25.83
614.366	25.85
614.7	25.81
615.035	26.06
615.369	25.9
615.703	26.37
616.037	26.31
616.371	26.06
616.705	26.18
617.039	26.15
617.373	26.03
617.707	26.22
618.041	26.44
618.375	26.39
618.709	26.22
619.042	26.39
619.376	26.4
619.71	26.13
620.043	25.96
620.377	26.49
620.71	26.27
621.043	26.54
621.377	25.64
621.71	26.4
622.043	26
622.376	26.26
622.709	26.49
623.043	26.7
623.376	26.46
623.709	26.43
624.041	26.7
624.374	26.42
624.707	26.27
625.04	27.29
625.373	26.88
625.705	26.74
626.038	26.67
626.37	26.59
626.703	26.71
627.035	26.2
627.368	26.73
627.7	26.7
628.032	26.77
628.365	26.6
628.697	26.24
629.029	26.52
629.361	26.46
629.693	26.86
630.025	26.69
630.357	26.62
630.689	26.68
631.021	26.93
631.353	27.01
631.684	26.74
632.016	26.91
632.348	27.01
632.679	27.16
633.011	26.93
633.342	27.08
633.674	27.15
634.005	27.16
634.336	27.05
634.668	27.18
634.999	27.24
635.33	27
635.661	27.27
635.992	27.4
636.323	27.11
636.654	27.5
636.985	27.17
637.316	27.4
637.647	27.76
637.977	26.94
638.308	27.71
638.639	27.47
638.969	27.37
639.3	27.62
639.63	27.41
639.961	27.63
640.291	28.19
640.622	27.64
640.952	27.61
641.282	27.76
641.612	27.98
641.943	27.88
642.273	27.53
642.603	27.6
642.933	27.59
643.263	27.92
643.592	27.72
643.922	27.79
644.252	27.86
644.582	27.68
644.911	27.75
645.241	28.08
645.571	28.4
645.9	27.76
646.23	27.97
646.559	28.4
646.888	27.99
647.218	28.32
647.547	27.81
647.876	28.13
648.205	27.88
648.534	28.01
648.863	28.06
649.192	28.12
649.521	28.06
649.85	28.35
650.179	28.11
650.508	28.04
650.837	28
651.165	28.8
651.494	28.91
651.822	28.54
652.151	28.7
652.479	27.77
652.808	28.67
653.136	28.53
653.465	28.19
653.793	28.36
654.121	28.29
654.449	28.34
654.777	28.88
655.105	28.25
655.433	28.66
655.761	28.64
656.089	28.46
656.417	28.99
656.745	28.99
657.073	28.79
657.4	28.99
657.728	28.76
658.056	29.06
658.383	28.93
658.711	28.87
659.038	28.99
659.365	29.17
659.693	28.61
660.02	28.5
660.347	28.89
660.674	28.96
661.001	28.74
661.329	28.97
661.656	28.62
661.982	28.82
662.309	28.91
662.636	28.97
662.963	29.11
663.29	29.14
663.616	29.31
663.943	28.81
664.27	28.85
664.596	29.22
664.923	29.5
665.249	29.01
665.576	29.53
665.902	28.81
666.228	29.39
666.554	29.49
666.881	29.64
667.207	29.29
667.533	29.13
667.859	29.35
668.185	29.74
668.511	29.75
668.837	29.99
669.162	29.89
669.488	29.56
669.814	29.79
670.139	29.81
670.465	29.95
670.791	29.47
671.116	29.74
671.442	29.94
671.767	30.4
672.092	29.67
672.418	30.03
672.743	29.43
673.068	29.66
