Data from 0370_crown_Reflection__2__143.txt Node

Date: Mon Dec 11 19:12:24 CST 2023
User: ToomeyLab
Spectrometer: FLMS14357
Trigger mode: 0
Integration Time (sec): 1.000000E-2
Scans to average: 100
Electric dark correction enabled: true
Nonlinearity correction enabled: false
Boxcar width: 0
XAxis mode: Wavelengths
Number of Pixels in Spectrum: 2048
>>>>>Begin Spectral Data<<<<<
189.047	123850
189.435	123850
189.823	123850
190.211	48.46
190.599	76.91
190.987	161.99
191.375	-202.87
191.763	290.71
192.151	37.59
192.538	-235.59
192.926	115050
193.314	-163.69
193.702	-666.73
194.089	-14.1
194.477	172.16
194.864	-1747.08
195.252	26.11
195.639	73.89
196.027	61.95
196.414	-424.69
196.801	1232.43
197.189	117.88
197.576	60.73
197.963	-58.98
198.351	-109
198.738	-2.56
199.125	-93.42
199.512	-24.03
199.899	-12.41
200.286	66.76
200.673	-98.78
201.06	7.4
201.447	-5.13
201.833	-30.14
202.22	47.04
202.607	-50.61
202.994	-48.81
203.38	-61.44
203.767	62.74
204.154	29.97
204.54	-24.22
204.927	-77.48
205.313	-30.93
205.699	-162.6
206.086	-50.86
206.472	-2.59
206.858	18.04
207.245	17.79
207.631	8.7
208.017	16.91
208.403	17.05
208.789	9.89
209.175	-12.6
209.561	-28.14
209.947	14.5
210.333	-5.05
210.719	38.63
211.105	11.58
211.491	15.31
211.876	-8.13
212.262	-33.6
212.648	-3.31
213.034	-30.51
213.419	8.15
213.805	-9.44
214.19	-2.22
214.576	-18.78
214.961	8.61
215.346	-20.67
215.732	-2.77
216.117	6.43
216.502	-23.83
216.888	-10.14
217.273	22.9
217.658	-2.41
218.043	-47.13
218.428	18.22
218.813	22.25
219.198	0.8
219.583	-5.39
219.968	-16.71
220.353	-18.81
220.738	24.75
221.122	11.28
221.507	30.51
221.892	-7.04
222.276	-0.56
222.661	0.75
223.046	4.51
223.43	15.61
223.815	-12.88
224.199	7.93
224.583	-0.89
224.968	9.25
225.352	11.65
225.736	4.3
226.121	6.71
226.505	4.1
226.889	0.11
227.273	8.29
227.657	13.73
228.041	3.6
228.425	0.93
228.809	-7.29
229.193	4.02
229.577	5.14
229.961	7.64
230.344	8.23
230.728	7.12
231.112	7.33
231.495	7.02
231.879	5.79
232.263	5.26
232.646	6.28
233.03	6.28
233.413	6.61
233.797	8.78
234.18	5.53
234.563	7.66
234.946	7.5
235.33	7.35
235.713	6.63
236.096	6.9
236.479	6.41
236.862	4.21
237.245	8.85
237.628	7.76
238.011	8.05
238.394	5.76
238.777	6.19
239.16	6
239.543	8.71
239.925	3.18
240.308	4.02
240.691	6.3
241.073	6.76
241.456	6.95
241.838	9.19
242.221	6.2
242.603	5.55
242.986	6.12
243.368	5.69
243.75	7.04
244.133	6.88
244.515	6.11
244.897	6.71
245.279	6.63
245.661	6.41
246.043	5.83
246.425	7.26
246.807	6.89
247.189	5.86
247.571	6.51
247.953	5.46
248.335	6.1
248.717	6.06
249.098	6.02
249.48	5.86
249.862	6.39
250.243	5.86
250.625	6.04
251.006	5.74
251.388	6.12
251.769	5.76
252.151	6.16
252.532	6.55
252.913	6.28
253.295	6.07
253.676	6.07
254.057	5.96
254.438	6.15
254.819	4.86
255.2	3.91
255.581	4.63
255.962	6.42
256.343	5.05
256.724	5.77
257.105	5.25
257.486	4.88
257.867	6.56
258.247	5.26
258.628	5.34
259.009	7.19
259.389	6.43
259.77	5.41
260.15	5.47
260.531	5.47
260.911	4.9
261.292	5.4
261.672	5.62
262.052	5.38
262.432	5.69
262.813	5.59
263.193	5.52
263.573	5.03
263.953	5.88
264.333	4.67
264.713	5.62
265.093	5.19
265.473	6.13
265.853	5.04
266.233	5.05
266.612	5.4
266.992	5.44
267.372	5.7
267.752	6.03
268.131	5.53
268.511	5.39
268.89	5.27
269.27	5.56
269.649	5.22
270.029	5.57
270.408	5.5
270.787	5.23
271.167	3.98
271.546	4.96
271.925	5.06
272.304	5.47
272.683	5.15
273.062	4.35
273.441	4.74
273.82	4.88
274.199	5.05
274.578	4.78
274.957	5
275.336	5.05
275.715	5.15
276.093	5.63
276.472	5.3
276.851	5.77
277.229	5.2
277.608	4.97
277.986	5.59
278.365	4.67
278.743	5.5
279.122	4.45
279.5	4.86
279.878	5.25
280.257	4.54
280.635	4.26
281.013	4.28
281.391	5.48
281.769	4.24
282.147	4.28
282.525	4.76
282.903	5.38
283.281	4.72
283.659	4.57
284.037	4.3
284.415	5.09
284.792	4.6
285.17	4.72
285.548	4.47
285.925	4.38
286.303	4.9
286.68	4.73
287.058	4.91
287.435	5.02
287.813	5.25
288.19	4.85
288.567	4.88
288.945	4.85
289.322	4.9
289.699	4.68
290.076	4.62
290.453	5.08
290.83	4.54
291.207	5.05
291.584	4.8
291.961	4.78
292.338	5.04
292.715	4.89
293.092	4.66
293.469	4.78
293.845	4.67
294.222	5.04
294.599	4.12
294.975	4.8
295.352	4.28
295.728	4.88
296.105	4.45
296.481	4.51
296.858	4.19
297.234	4.84
297.61	4.75
297.986	4.45
298.363	4.52
298.739	4.63
299.115	4.47
299.491	4.45
299.867	4.93
300.243	4.96
300.619	4.31
300.995	4.4
301.371	4.73
301.746	4.46
302.122	4.41
302.498	4.73
302.874	4.71
303.249	4.61
303.625	4.34
304	4.53
304.376	4.19
304.751	4.15
305.127	4.27
305.502	4.61
305.878	4.38
306.253	4.72
306.628	4.27
307.003	4.6
307.378	4.22
307.754	4.63
308.129	4.44
308.504	4.4
308.879	4.2
309.254	4.63
309.629	4.59
310.003	4.08
310.378	3.61
310.753	4.54
311.128	4
311.502	4.22
311.877	4.54
312.252	4.48
312.626	4.3
313.001	4.37
313.375	4.1
313.75	4.39
314.124	4.27
314.498	4.55
314.873	3.97
315.247	3.84
315.621	4.62
315.995	4.47
316.369	4.46
316.743	4.38
317.117	4.04
317.491	4.35
317.865	4.26
318.239	4.42
318.613	4.13
318.987	4.23
319.361	4.36
319.734	3.86
320.108	4.19
320.482	4.19
320.855	4.17
321.229	3.99
321.602	4.25
321.976	4.83
322.349	4.44
322.723	4.4
323.096	4.48
323.469	4.31
323.843	4.65
324.216	4.85
324.589	4.79
324.962	3.74
325.335	3.84
325.708	4.42
326.081	4.64
326.454	4.24
326.827	4.63
327.2	3.37
327.573	4.05
327.945	4.23
328.318	3.77
328.691	3.89
329.063	4.06
329.436	4.18
329.809	4.23
330.181	4.7
330.553	4.47
330.926	4.31
331.298	4.63
331.671	4.1
332.043	4.53
332.415	4.12
332.787	4.68
333.159	4.13
333.532	4.45
333.904	4.39
334.276	4.63
334.648	4.56
335.02	3.65
335.391	3.86
335.763	4.22
336.135	4.52
336.507	4.39
336.879	4.77
337.25	4.32
337.622	4.69
337.993	4.25
338.365	3.91
338.736	4.33
339.108	4.26
339.479	3.89
339.851	4.42
340.222	4.26
340.593	4.17
340.964	4.87
341.336	3.9
341.707	3.91
342.078	4.7
342.449	4.47
342.82	3.95
343.191	4.11
343.562	3.98
343.933	4.17
344.303	3.85
344.674	4.55
345.045	4.57
345.416	4.48
345.786	4.53
346.157	4.15
346.527	4.15
346.898	4.61
347.268	3.94
347.639	3.95
348.009	4.52
348.38	3.86
348.75	4.1
349.12	4.26
349.49	3.91
349.861	3.68
350.231	4.11
350.601	4.58
350.971	4.39
351.341	3.76
351.711	4.26
352.081	3.79
352.45	4.43
352.82	3.74
353.19	4.25
353.56	4.18
353.929	4.24
354.299	4.19
354.669	4.33
355.038	4.56
355.408	3.97
355.777	4.35
356.147	4.29
356.516	4.3
356.885	4.04
357.254	4.56
357.624	4.28
357.993	4.18
358.362	4.66
358.731	4.32
359.1	4.62
359.469	4.35
359.838	4.1
360.207	4.3
360.576	4.26
360.945	4.44
361.314	4.71
361.682	4.21
362.051	4.34
362.42	4.38
362.788	4.1
363.157	4.27
363.525	4.21
363.894	4.28
364.262	4.18
364.631	4.43
364.999	4.27
365.367	4.51
365.735	4.52
366.104	4.64
366.472	4.53
366.84	4.33
367.208	4.44
367.576	4.57
367.944	4.23
368.312	4.27
368.68	4.41
369.048	4.27
369.416	4.16
369.783	4.46
370.151	4.76
370.519	4.68
370.886	4.48
371.254	4.41
371.621	4.61
371.989	4.6
372.356	4.2
372.724	4.54
373.091	4.9
373.458	4.57
373.826	4.37
374.193	4.53
374.56	4.9
374.927	4.55
375.294	4.59
375.661	4.2
376.028	4.89
376.395	4.89
376.762	4.56
377.129	4.6
377.496	4.45
377.863	4.46
378.229	4.77
378.596	4.58
378.963	4.52
379.329	4.36
379.696	4.66
380.062	4.57
380.429	4.4
380.795	4.92
381.161	4.67
381.528	4.77
381.894	4.47
382.26	4.61
382.626	4.67
382.993	4.96
383.359	4.66
383.725	4.53
384.091	4.93
384.457	4.48
384.823	4.92
385.188	4.78
385.554	4.38
385.92	4.31
386.286	4.54
386.651	4.37
387.017	4.83
387.383	4.55
387.748	4.52
388.114	4.44
388.479	4.42
388.845	4.39
389.21	4.48
389.575	4.78
389.94	4.63
390.306	4.43
390.671	4.73
391.036	4.81
391.401	4.79
391.766	4.55
392.131	4.95
392.496	4.79
392.861	5.1
393.226	4.86
393.591	4.81
393.956	4.71
394.32	4.65
394.685	4.64
395.05	4.69
395.414	4.65
395.779	4.59
396.143	4.43
396.508	4.6
396.872	4.86
397.236	4.66
397.601	4.53
397.965	4.76
398.329	4.75
398.694	4.87
399.058	4.61
399.422	4.79
399.786	4.58
400.15	4.81
400.514	4.69
400.878	4.84
401.242	4.83
401.605	4.8
401.969	4.49
402.333	4.44
402.697	4.75
403.06	4.91
403.424	4.72
403.787	5.03
404.151	4.89
404.514	4.51
404.878	4.48
405.241	4.76
405.604	4.67
405.968	4.7
406.331	4.71
406.694	4.72
407.057	4.84
407.42	4.93
407.783	4.63
408.146	5.05
408.509	4.93
408.872	4.83
409.235	4.59
409.598	4.63
409.961	4.95
410.323	4.96
410.686	4.82
411.049	4.78
411.411	4.59
411.774	4.97
412.136	4.85
412.499	4.89
412.861	4.79
413.223	4.84
413.586	4.91
413.948	4.95
414.31	4.8
414.672	4.23
415.035	4.89
415.397	4.88
415.759	4.91
416.121	4.99
416.483	4.88
416.845	4.92
417.206	4.81
417.568	5.09
417.93	4.93
418.292	4.65
418.653	4.66
419.015	4.87
419.377	4.98
419.738	4.82
420.1	5.01
420.461	4.81
420.822	4.74
421.184	4.69
421.545	4.73
421.906	4.76
422.267	4.87
422.629	4.67
422.99	4.76
423.351	4.66
423.712	4.68
424.073	4.77
424.434	4.7
424.795	4.84
425.155	4.77
425.516	4.84
425.877	4.68
426.238	4.76
426.598	4.75
426.959	4.81
427.32	4.9
427.68	4.95
428.041	4.79
428.401	4.8
428.761	4.81
429.122	4.86
429.482	4.88
429.842	4.84
430.202	4.79
430.563	4.95
430.923	4.75
431.283	4.89
431.643	4.97
432.003	4.97
432.363	5.04
432.722	4.8
433.082	4.99
433.442	4.79
433.802	4.7
434.161	5.1
434.521	4.75
434.881	4.93
435.24	4.73
435.6	4.86
435.959	4.79
436.319	4.9
436.678	4.94
437.037	4.86
437.396	5.01
437.756	4.9
438.115	5.04
438.474	4.91
438.833	4.88
439.192	4.92
439.551	5.09
439.91	4.84
440.269	4.98
440.628	4.91
440.987	5.09
441.345	4.93
441.704	4.9
442.063	4.92
442.421	4.85
442.78	4.86
443.138	4.92
443.497	4.84
443.855	4.79
444.214	5.07
444.572	4.94
444.93	5.04
445.288	5.02
445.647	5.14
446.005	4.84
446.363	4.88
446.721	4.99
447.079	4.93
447.437	4.98
447.795	4.77
448.153	4.97
448.51	4.84
448.868	4.8
449.226	4.71
449.584	4.96
449.941	4.99
450.299	4.88
450.656	4.94
451.014	4.93
451.371	4.77
451.729	5.05
452.086	5.12
452.443	5.16
452.801	4.94
453.158	4.99
453.515	4.85
453.872	4.91
454.229	5.07
454.586	4.84
454.943	4.92
455.3	4.98
455.657	5.03
456.014	5.04
456.371	5.02
456.727	5.19
457.084	4.99
457.441	5.03
457.797	4.98
458.154	4.98
458.51	5.05
458.867	4.8
459.223	4.94
459.58	4.99
459.936	5
460.292	5
460.648	4.9
461.005	4.88
461.361	4.9
461.717	4.76
462.073	4.91
462.429	4.86
462.785	4.95
463.141	4.93
463.496	5.04
463.852	4.9
464.208	4.97
464.564	5.01
464.919	5.11
465.275	4.9
465.631	4.84
465.986	5.24
466.342	5.03
466.697	4.95
467.052	4.89
467.408	5.05
467.763	5.08
468.118	4.64
468.473	4.81
468.829	5.12
469.184	5.23
469.539	4.99
469.894	4.84
470.249	4.86
470.603	5.06
470.958	5.03
471.313	4.93
471.668	5
472.023	5.08
472.377	5.03
472.732	4.93
473.086	5.19
473.441	5.16
473.795	5.09
474.15	5.08
474.504	4.96
474.859	4.94
475.213	5.02
475.567	4.99
475.921	5.02
476.275	5.05
476.63	5.03
476.984	4.94
477.338	4.83
477.692	5.08
478.045	4.98
478.399	4.83
478.753	4.83
479.107	4.83
479.461	4.99
479.814	4.96
480.168	5.03
480.521	5.04
480.875	4.95
481.228	4.94
481.582	5.07
481.935	5.1
482.289	5.11
482.642	4.91
482.995	4.99
483.348	4.89
483.701	4.81
484.055	4.98
484.408	4.88
484.761	4.86
485.114	4.77
485.466	4.65
485.819	4.63
486.172	4.64
486.525	4.7
486.878	4.81
487.23	4.83
487.583	4.79
487.936	4.84
488.288	4.89
488.641	4.82
488.993	4.72
489.345	4.78
489.698	4.71
490.05	4.74
490.402	4.73
490.754	4.79
491.107	4.89
491.459	4.87
491.811	4.96
492.163	5
492.515	4.9
492.866	4.91
493.218	4.8
493.57	4.73
493.922	4.74
494.274	4.9
494.625	4.92
494.977	4.92
495.328	5
495.68	5.01
496.031	4.98
496.383	4.96
496.734	5.06
497.086	5
497.437	5.06
497.788	5.07
498.139	4.98
498.49	5
498.842	5.11
499.193	5.05
499.544	4.94
499.894	4.9
500.245	4.91
500.596	5.08
500.947	4.98
501.298	5.03
501.648	4.92
501.999	4.91
502.35	5.02
502.7	5.09
503.051	5
503.401	5.01
503.752	4.93
504.102	4.93
504.452	4.98
504.803	5.18
505.153	5.11
505.503	5.14
505.853	5.19
506.203	4.95
506.553	5.03
506.903	4.99
507.253	5.15
507.603	5.02
507.953	5.01
508.303	5.02
508.652	5.06
509.002	5.01
509.352	5.2
509.701	4.97
510.051	4.91
510.4	4.99
510.75	4.96
511.099	4.97
511.449	5.08
511.798	5.03
512.147	5.04
512.496	4.95
512.846	5
513.195	5.14
513.544	5.12
513.893	4.85
514.242	5.14
514.591	4.88
514.939	4.93
515.288	5.11
515.637	4.97
515.986	4.95
516.334	4.99
516.683	5.07
517.032	5.12
517.38	5.05
517.729	5
518.077	5.15
518.426	5.2
518.774	4.96
519.122	4.96
519.47	5.01
519.819	4.97
520.167	4.98
520.515	4.88
520.863	4.91
521.211	4.95
521.559	5
521.907	4.97
522.255	4.95
522.602	4.96
522.95	5.07
523.298	5.05
523.645	5.11
523.993	5.05
524.341	5.14
524.688	5.01
525.036	5.04
525.383	4.93
525.73	5.05
526.078	5.07
526.425	5.01
526.772	5.03
527.119	4.97
527.466	4.91
527.814	5.01
528.161	4.93
528.508	4.96
528.854	4.88
529.201	4.86
529.548	4.98
529.895	4.81
530.242	4.8
530.588	4.75
530.935	4.77
531.282	4.87
531.628	4.88
531.975	4.9
532.321	4.97
532.667	4.91
533.014	4.92
533.36	4.94
533.706	5.09
534.052	4.95
534.399	4.98
534.745	4.91
535.091	4.84
535.437	4.86
535.783	4.88
536.129	4.94
536.474	5.02
536.82	4.96
537.166	4.95
537.512	4.9
537.857	5.02
538.203	4.94
538.549	4.98
538.894	5.01
539.239	5.03
539.585	5.08
539.93	4.97
540.276	5.13
540.621	5.04
540.966	5.06
541.311	5.04
541.656	5.05
542.001	5.13
542.346	4.98
542.691	4.98
543.036	4.85
543.381	4.75
543.726	4.85
544.071	4.87
544.415	4.92
544.76	4.91
545.105	4.89
545.449	4.9
545.794	5.02
546.138	4.94
546.483	5.04
546.827	5.13
547.171	4.98
547.516	4.98
547.86	5.02
548.204	5.03
548.548	5.03
548.892	5.03
549.236	5
549.58	5.15
549.924	5.11
550.268	5.01
550.612	5.11
550.956	5.03
551.3	5.14
551.643	5.07
551.987	5.24
552.33	5.27
552.674	5.25
553.017	5.04
553.361	5.09
553.704	5
554.048	5.15
554.391	5.01
554.734	5.15
555.077	5.05
555.42	5.29
555.764	5.05
556.107	5.05
556.45	5.12
556.793	5.03
557.135	5.19
557.478	5.13
557.821	5.05
558.164	5.22
558.507	4.97
558.849	5.11
559.192	5.03
559.534	5.16
559.877	5.34
560.219	5.16
560.562	5.24
560.904	4.94
561.246	5.21
561.589	5.16
561.931	5.2
562.273	4.95
562.615	5.22
562.957	5.28
563.299	5.28
563.641	5.16
563.983	5.14
564.325	5.24
564.667	5.19
565.008	5.21
565.35	5.18
565.692	4.96
566.033	5
566.375	5.25
566.716	5.07
567.058	5.19
567.399	5.06
567.741	5.03
568.082	5.17
568.423	5.01
568.764	5.05
569.105	5.05
569.447	5.1
569.788	4.96
570.129	5.11
570.47	5.04
570.811	4.92
571.151	5.25
571.492	5.28
571.833	5.22
572.174	5.25
572.514	5.1
572.855	4.97
573.195	5.26
573.536	5.24
573.876	5.1
574.217	5.09
574.557	5.21
574.898	5.17
575.238	5.31
575.578	5.19
575.918	5.05
576.258	5.11
576.598	5.16
576.938	5.11
577.278	5.16
577.618	4.93
577.958	5.07
578.298	5.39
578.638	5.32
578.977	5.14
579.317	5.09
579.657	5.04
579.996	5.14
580.336	5.1
580.675	5.25
581.014	5.19
581.354	5.09
581.693	5.27
582.032	4.8
582.372	5.27
582.711	4.88
583.05	5.2
583.389	5.27
583.728	5.29
584.067	5.06
584.406	4.97
584.745	5.3
585.083	5.14
585.422	5.21
585.761	5.22
586.1	5.28
586.438	5.02
586.777	5.14
587.115	4.89
587.454	5.02
587.792	5.08
588.13	5.1
588.469	5.01
588.807	5.31
589.145	5.43
589.483	5.34
589.821	5.06
590.159	5.12
590.497	5.22
590.835	5.06
591.173	5.07
591.511	5.32
591.849	5.12
592.187	4.9
592.524	5.23
592.862	5.09
593.2	5.17
593.537	5.25
593.875	5.1
594.212	4.98
594.55	5.09
594.887	5.14
595.224	5.29
595.561	5.05
595.899	5.05
596.236	5.17
596.573	5.36
596.91	5.27
597.247	5.31
597.584	5.05
597.921	5.02
598.258	5.01
598.594	4.99
598.931	4.98
599.268	5.14
599.604	5.04
599.941	5.33
600.277	5.05
600.614	5.14
600.95	4.94
601.287	5.21
601.623	5.27
601.959	5.15
602.296	5.11
602.632	5.09
602.968	5
603.304	5.34
603.64	5.15
603.976	5.37
604.312	5.04
604.648	5.06
604.984	5.14
605.319	5.03
605.655	5.01
605.991	4.99
606.326	5.13
606.662	5.04
606.998	5.07
607.333	5.19
607.668	5.22
608.004	4.94
608.339	5.23
608.674	5.18
609.01	5.14
609.345	5.1
609.68	5.17
610.015	5.18
610.35	5.45
610.685	4.88
611.02	4.91
611.355	5.16
611.689	5.5
612.024	5.09
612.359	5.07
612.694	5.19
613.028	4.92
613.363	5.06
613.697	5.1
614.032	5.13
614.366	5.28
614.7	5.03
615.035	5.08
615.369	5.19
615.703	5.13
616.037	4.9
616.371	5.33
616.705	5.23
617.039	5.43
617.373	4.96
617.707	5.41
618.041	5.34
618.375	5.39
618.709	5.14
619.042	5.12
619.376	5.25
619.71	5.1
620.043	4.69
620.377	5.22
620.71	5.14
621.043	5.06
621.377	4.66
621.71	5.27
622.043	4.73
622.376	5.28
622.709	5.51
623.043	5.23
623.376	5.23
623.709	5.43
624.041	5.17
624.374	5.21
624.707	5.09
625.04	5.51
625.373	5.22
625.705	5.4
626.038	5.01
626.37	5.21
626.703	5.46
627.035	4.85
627.368	5.05
627.7	5
628.032	5.06
628.365	5.14
628.697	4.86
629.029	5.23
629.361	5.01
629.693	5.1
630.025	5.16
630.357	4.93
630.689	4.66
631.021	5.17
631.353	5.14
631.684	5.02
632.016	5.02
632.348	5.51
632.679	5.4
633.011	5.1
633.342	5.25
633.674	5.56
634.005	5.36
634.336	5.18
634.668	4.97
634.999	5.48
635.33	5.08
635.661	5.23
635.992	5.36
636.323	5.09
636.654	5.41
636.985	4.83
637.316	5.03
637.647	5.26
637.977	5.32
638.308	5.24
638.639	4.83
638.969	5.01
639.3	5.13
639.63	5.05
639.961	5.29
640.291	5.24
640.622	5.12
640.952	5.1
641.282	5.17
641.612	5.56
641.943	5
642.273	5.23
642.603	5.25
642.933	5.08
643.263	5.13
643.592	5.02
643.922	5.46
644.252	4.84
644.582	5.42
644.911	5.64
645.241	4.92
645.571	5.58
645.9	4.69
646.23	5.02
646.559	5.13
646.888	4.91
647.218	5.27
647.547	5.1
647.876	5.41
648.205	4.86
648.534	5.25
648.863	5.19
649.192	5.23
649.521	5.42
649.85	5.41
650.179	5.19
650.508	4.85
650.837	4.9
651.165	5.3
651.494	5.23
651.822	5.08
652.151	5.37
652.479	5.09
652.808	5.35
653.136	5.13
653.465	5.3
653.793	5.06
654.121	5.39
654.449	5.08
654.777	5.28
655.105	5.18
655.433	5.12
655.761	5.31
656.089	5.1
656.417	5.34
656.745	5.17
657.073	5.01
657.4	4.87
657.728	5.47
658.056	5.76
658.383	5.13
658.711	5.51
659.038	5.23
659.365	4.9
659.693	5.5
660.02	4.47
660.347	5.24
660.674	5.26
661.001	4.94
661.329	5.3
661.656	5.32
661.982	5.34
662.309	5.31
662.636	5.2
662.963	5.57
663.29	5.1
663.616	4.88
663.943	4.77
664.27	5.21
664.596	5.64
664.923	5.34
665.249	5.34
665.576	5.03
665.902	5
666.228	4.91
666.554	5.21
666.881	5.19
667.207	5.51
667.533	5.25
667.859	5.37
668.185	5.63
668.511	4.99
668.837	5.24
669.162	5.53
669.488	5.6
669.814	4.75
670.139	5.17
670.465	5.43
670.791	5.36
671.116	5.25
671.442	5.66
671.767	5.74
672.092	5.49
672.418	5.64
672.743	5.17
673.068	5.04
673.393	5.37
673.718	5.08
674.043	5.72
674.368	5.85
674.693	4.59
675.018	5.51
675.343	5.37
675.667	5.83
675.992	5.44
676.317	5.04
676.641	5.13
676.966	5.35
677.29	5.08
677.615	5.57
677.939	5.21
678.264	5.29
678.588	5.42
678.912	5.57
679.236	5.44
679.56	5.36
679.885	5.5
680.209	5.68
680.532	5.89
680.856	5.46
681.18	5.5
681.504	5.26
681.828	4.68
682.152	4.99
682.475	5.81
682.799	5.64
683.122	5.32
683.446	5.05
683.769	5.35
684.093	5.4
684.416	5.09
684.739	5.3
685.062	5.4
685.386	6.16
685.709	5.19
686.032	5.85
686.355	5.37
686.678	5.1
687.001	6.2
687.324	5.08
687.646	5.17
687.969	5.4
688.292	6.04
688.614	6.19
688.937	5.82
689.26	5.66
689.582	4.79
689.904	6.02
690.227	5.66
690.549	5.41
690.871	5.42
691.194	5.12
691.516	5.08
691.838	4.88
692.16	6.09
692.482	6.38
692.804	4.88
