Data from 0370_forehead_Reflection__4__150.txt Node

Date: Mon Dec 11 19:13:59 CST 2023
User: ToomeyLab
Spectrometer: FLMS14357
Trigger mode: 0
Integration Time (sec): 1.000000E-2
Scans to average: 100
Electric dark correction enabled: true
Nonlinearity correction enabled: false
Boxcar width: 0
XAxis mode: Wavelengths
Number of Pixels in Spectrum: 2048
>>>>>Begin Spectral Data<<<<<
189.047	-143050
189.435	-143050
189.823	-143050
190.211	69.25
190.599	225.41
190.987	246.77
191.375	196.31
191.763	209.43
192.151	88.13
192.538	-100.16
192.926	62550
193.314	407.03
193.702	-859.25
194.089	142.65
194.477	121.55
194.864	-1850
195.252	110.14
195.639	47.89
196.027	79.23
196.414	270.3
196.801	-87.66
197.189	90.33
197.576	107.22
197.963	-65.04
198.351	-15.75
198.738	24.67
199.125	-28.14
199.512	6.46
199.899	33.09
200.286	78.01
200.673	-61.53
201.06	56.31
201.447	-28.2
201.833	46.31
202.22	72.82
202.607	7.44
202.994	-44.54
203.38	-17.07
203.767	48.95
204.154	66.4
204.54	17.4
204.927	25.16
205.313	21.57
205.699	30.11
206.086	40.24
206.472	25.21
206.858	21
207.245	53.97
207.631	24.95
208.017	3.95
208.403	6.9
208.789	-19.51
209.175	12.93
209.561	-7.38
209.947	3.79
210.333	42
210.719	46.75
211.105	28.78
211.491	3.35
211.876	14.63
212.262	-12.71
212.648	15.25
213.034	37.17
213.419	-1.92
213.805	7.62
214.19	15.97
214.576	-15.53
214.961	25.75
215.346	-26.51
215.732	28.63
216.117	-3
216.502	5.41
216.888	52.08
217.273	24.13
217.658	6.36
218.043	-27.71
218.428	28.04
218.813	15.04
219.198	21.19
219.583	13.62
219.968	1.4
220.353	-13.93
220.738	5.79
221.122	15.85
221.507	37.21
221.892	-5.73
222.276	8.98
222.661	-7.54
223.046	-4.51
223.43	5.71
223.815	-7.32
224.199	9.58
224.583	16.69
224.968	12.95
225.352	10.74
225.736	19.11
226.121	-6.31
226.505	-7.08
226.889	5.97
227.273	9.63
227.657	14.21
228.041	5.13
228.425	4.42
228.809	-2.07
229.193	8.07
229.577	2.18
229.961	4.48
230.344	3.25
230.728	2.33
231.112	3.27
231.495	3.42
231.879	2.65
232.263	2.07
232.646	2.09
233.03	2.62
233.413	2.19
233.797	4.81
234.18	1.82
234.563	2.73
234.946	3.03
235.33	4.6
235.713	2.46
236.096	2.77
236.479	4.03
236.862	2.14
237.245	2.4
237.628	1.8
238.011	3.46
238.394	3.85
238.777	2.09
239.16	2.96
239.543	3.53
239.925	2.15
240.308	2.94
240.691	2.61
241.073	3.6
241.456	2.96
241.838	4.67
242.221	4.19
242.603	1.58
242.986	1.4
243.368	2.78
243.75	3
244.133	2.77
244.515	2.42
244.897	2.44
245.279	2.66
245.661	2.7
246.043	2.24
246.425	3.76
246.807	4.38
247.189	3.38
247.571	2.18
247.953	2.42
248.335	2.47
248.717	2.98
249.098	2.36
249.48	2.36
249.862	3.12
250.243	3.03
250.625	2.68
251.006	2.49
251.388	2.93
251.769	3.38
252.151	3.96
252.532	2.02
252.913	3.1
253.295	3.18
253.676	2.41
254.057	2.23
254.438	2.87
254.819	2.29
255.2	2.49
255.581	1.47
255.962	3.17
256.343	3.43
256.724	3.21
257.105	3.22
257.486	2.71
257.867	4.3
258.247	2.15
258.628	2.44
259.009	3
259.389	2.66
259.77	2.48
260.15	2.72
260.531	2.54
260.911	2.09
261.292	2.35
261.672	2.24
262.052	2.43
262.432	2.39
262.813	2.54
263.193	2.68
263.573	2.71
263.953	2.93
264.333	2.32
264.713	2.75
265.093	2.65
265.473	3.51
265.853	2.59
266.233	2.46
266.612	3.95
266.992	3.15
267.372	2.98
267.752	2.56
268.131	2.73
268.511	2.35
268.89	2.89
269.27	2.98
269.649	2.6
270.029	3.03
270.408	3.07
270.787	1.86
271.167	1.62
271.546	2.77
271.925	2.73
272.304	2.95
272.683	2.21
273.062	1.93
273.441	2.57
273.82	1.95
274.199	2.2
274.578	2.54
274.957	2.9
275.336	2.5
275.715	2
276.093	3.55
276.472	2.76
276.851	2.89
277.229	2.32
277.608	2.65
277.986	2.77
278.365	2.07
278.743	2.85
279.122	2.62
279.5	2.88
279.878	2.28
280.257	2.11
280.635	2.54
281.013	1.99
281.391	2.73
281.769	2.75
282.147	1.96
282.525	2.51
282.903	2.95
283.281	2.49
283.659	1.85
284.037	2.09
284.415	2.14
284.792	2.23
285.17	2.02
285.548	2.24
285.925	2.01
286.303	2.18
286.68	2.36
287.058	2.31
287.435	2.44
287.813	2.6
288.19	2.41
288.567	2.17
288.945	2.52
289.322	1.85
289.699	1.86
290.076	2.08
290.453	2.63
290.83	2.88
291.207	2.56
291.584	2.47
291.961	2.63
292.338	2.61
292.715	2.71
293.092	2.57
293.469	2.96
293.845	2.5
294.222	3
294.599	2.41
294.975	2.36
295.352	2.83
295.728	2.92
296.105	2.56
296.481	2.61
296.858	2.82
297.234	3.2
297.61	3.3
297.986	3.11
298.363	2.94
298.739	3.09
299.115	2.61
299.491	2.78
299.867	2.97
300.243	3.31
300.619	3.04
300.995	2.89
301.371	2.99
301.746	3.06
302.122	2.88
302.498	3.33
302.874	3.34
303.249	2.92
303.625	3.03
304	3.06
304.376	3.22
304.751	2.86
305.127	3.16
305.502	3.21
305.878	3.12
306.253	3.77
306.628	3.42
307.003	3.62
307.378	3.27
307.754	3.94
308.129	3.89
308.504	3.39
308.879	3.3
309.254	3.91
309.629	3.77
310.003	3.37
310.378	3.25
310.753	3.75
311.128	3.73
311.502	3.14
311.877	3.35
312.252	3.74
312.626	3.75
313.001	3.77
313.375	3.38
313.75	3.42
314.124	3.85
314.498	3.67
314.873	3.99
315.247	3.75
315.621	4.61
315.995	4.14
316.369	4.09
316.743	4.81
317.117	3.66
317.491	4.08
317.865	4.19
318.239	4.81
318.613	4.67
318.987	4.27
319.361	4.51
319.734	3.7
320.108	4.01
320.482	3.93
320.855	4.23
321.229	4.22
321.602	4.93
321.976	4.85
322.349	4.47
322.723	4.66
323.096	4.71
323.469	5.55
323.843	4.8
324.216	5.55
324.589	4.64
324.962	5.11
325.335	5.09
325.708	4.62
326.081	5.52
326.454	5.4
326.827	5.47
327.2	4.83
327.573	4.99
327.945	5.6
328.318	5.4
328.691	5.11
329.063	5.48
329.436	5.13
329.809	5
330.181	6.3
330.553	5.29
330.926	5.17
331.298	5.54
331.671	5.76
332.043	6.1
332.415	5.31
332.787	5.43
333.159	4.91
333.532	5.79
333.904	5.79
334.276	5.91
334.648	6.36
335.02	5.26
335.391	5.79
335.763	6.07
336.135	6.74
336.507	5.85
336.879	6.05
337.25	6.19
337.622	5.93
337.993	5.68
338.365	6.16
338.736	6.11
339.108	6.28
339.479	6.03
339.851	6.21
340.222	6.4
340.593	5.95
340.964	6.16
341.336	6.09
341.707	6.15
342.078	6.4
342.449	6.1
342.82	5.97
343.191	6.22
343.562	6.46
343.933	6
344.303	6.03
344.674	6.72
345.045	6.5
345.416	6.45
345.786	6.71
346.157	6.24
346.527	6.44
346.898	6.65
347.268	6.22
347.639	6.63
348.009	6.64
348.38	6.24
348.75	6.66
349.12	6.77
349.49	6.96
349.861	6.96
350.231	6.91
350.601	7.09
350.971	7.16
351.341	6.24
351.711	7.32
352.081	6.5
352.45	6.78
352.82	6.4
353.19	7.21
353.56	6.47
353.929	6.93
354.299	7.11
354.669	6.99
355.038	7.36
355.408	6.87
355.777	7.12
356.147	7.14
356.516	7.16
356.885	7.43
357.254	6.94
357.624	7.59
357.993	6.97
358.362	7.37
358.731	7.12
359.1	7.13
359.469	7.11
359.838	7.07
360.207	7.26
360.576	7.16
360.945	7.69
361.314	7.79
361.682	7.34
362.051	7.71
362.42	7.41
362.788	7.05
363.157	7.45
363.525	7.14
363.894	7.36
364.262	7.47
364.631	7.54
364.999	7.57
365.367	7.61
365.735	7.75
366.104	7.55
366.472	7.89
366.84	7.53
367.208	7.69
367.576	8.07
367.944	7.82
368.312	7.71
368.68	8.04
369.048	7.76
369.416	7.73
369.783	8.32
370.151	8.16
370.519	8.45
370.886	7.92
371.254	8.52
371.621	8.44
371.989	8.3
372.356	8.28
372.724	8.59
373.091	8.74
373.458	8.07
373.826	8.32
374.193	8.11
374.56	8.49
374.927	8.66
375.294	8.57
375.661	8.57
376.028	8.7
376.395	8.81
376.762	8.68
377.129	8.86
377.496	8.59
377.863	8.51
378.229	8.8
378.596	8.9
378.963	8.87
379.329	8.49
379.696	8.52
380.062	8.37
380.429	8.65
380.795	8.85
381.161	8.89
381.528	8.77
381.894	8.85
382.26	9.12
382.626	9.03
382.993	9.03
383.359	9.18
383.725	8.92
384.091	9.04
384.457	8.8
384.823	9.38
385.188	8.94
385.554	8.73
385.92	9.14
386.286	9.42
386.651	9.2
387.017	9.46
387.383	9.5
387.748	9.17
388.114	9.24
388.479	9.4
388.845	9.5
389.21	9.42
389.575	9.51
389.94	9.57
390.306	9.6
390.671	9.56
391.036	9.56
391.401	9.85
391.766	9.29
392.131	9.78
392.496	9.76
392.861	9.72
393.226	10.07
393.591	9.88
393.956	9.84
394.32	9.87
394.685	9.8
395.05	9.92
395.414	10.06
395.779	9.85
396.143	9.79
396.508	9.77
396.872	9.89
397.236	10.05
397.601	9.88
397.965	10.09
398.329	10.56
398.694	10.08
399.058	9.99
399.422	10.47
399.786	10.23
400.15	10.3
400.514	10.36
400.878	10.65
401.242	10.42
401.605	10.54
401.969	10.35
402.333	10.56
402.697	10.46
403.06	10.41
403.424	10.47
403.787	10.93
404.151	10.22
404.514	10.55
404.878	10.8
405.241	10.65
405.604	10.54
405.968	10.69
406.331	10.34
406.694	10.78
407.057	10.69
407.42	10.81
407.783	10.92
408.146	10.88
408.509	10.66
408.872	10.89
409.235	10.93
409.598	11.07
409.961	11.03
410.323	10.85
410.686	11.17
411.049	10.97
411.411	10.76
411.774	11.01
412.136	11.13
412.499	11.32
412.861	10.89
413.223	11.31
413.586	11.39
413.948	11.29
414.31	11.4
414.672	11.08
415.035	11.22
415.397	11.4
415.759	11.38
416.121	11.59
416.483	11.52
416.845	11.47
417.206	11.36
417.568	11.36
417.93	11.59
418.292	11.37
418.653	11.41
419.015	11.44
419.377	11.51
419.738	11.49
420.1	11.38
420.461	11.33
420.822	11.47
421.184	11.45
421.545	11.48
421.906	11.35
422.267	11.52
422.629	11.39
422.99	11.34
423.351	11.5
423.712	11.5
424.073	11.46
424.434	11.61
424.795	11.7
425.155	11.63
425.516	11.57
425.877	11.56
426.238	11.66
426.598	11.72
426.959	11.85
427.32	11.84
427.68	11.91
428.041	11.82
428.401	12.02
428.761	12.14
429.122	11.85
429.482	12.26
429.842	12.35
430.202	12.1
430.563	12.25
430.923	12.11
431.283	12.29
431.643	12.32
432.003	12.4
432.363	12.41
432.722	12.52
433.082	12.45
433.442	12.5
433.802	12.31
434.161	12.77
434.521	12.25
434.881	12.34
435.24	12.41
435.6	12.54
435.959	12.36
436.319	12.49
436.678	12.56
437.037	12.8
437.396	12.76
437.756	12.84
438.115	13.03
438.474	12.91
438.833	12.58
439.192	12.7
439.551	12.87
439.91	12.83
440.269	12.84
440.628	12.86
440.987	13.01
441.345	12.75
441.704	12.88
442.063	12.83
442.421	12.82
442.78	12.78
443.138	12.83
443.497	12.83
443.855	13.03
444.214	13.18
444.572	13.15
444.93	13.2
445.288	13.09
445.647	13.34
446.005	13.15
446.363	13.29
446.721	13.17
447.079	13.09
447.437	13.22
447.795	13.13
448.153	13.11
448.51	13.07
448.868	12.99
449.226	13.09
449.584	13.31
449.941	13.42
450.299	13.4
450.656	13.45
451.014	13.6
451.371	13.47
451.729	13.66
452.086	13.67
452.443	13.84
452.801	13.74
453.158	13.72
453.515	13.77
453.872	13.89
454.229	13.8
454.586	13.65
454.943	13.79
455.3	13.93
455.657	13.95
456.014	14.04
456.371	14.05
456.727	13.95
457.084	13.92
457.441	14.19
457.797	14.06
458.154	14.03
458.51	14.14
458.867	14.09
459.223	14.08
459.58	13.99
459.936	14.2
460.292	14.1
460.648	14.2
461.005	13.99
461.361	13.95
461.717	13.73
462.073	13.96
462.429	13.97
462.785	14.04
463.141	14.26
463.496	14.36
463.852	14.33
464.208	14.5
464.564	14.41
464.919	14.55
465.275	14.61
465.631	14.48
465.986	14.82
466.342	14.99
466.697	14.75
467.052	14.58
467.408	14.81
467.763	14.72
468.118	14.65
468.473	14.7
468.829	14.75
469.184	15.07
469.539	14.99
469.894	14.67
470.249	14.9
470.603	14.8
470.958	15.15
471.313	14.89
471.668	15.23
472.023	15.24
472.377	14.93
472.732	15.15
473.086	15.05
473.441	15.16
473.795	15.1
474.15	15.21
474.504	15.19
474.859	15.22
475.213	15.05
475.567	15.48
475.921	15.4
476.275	15.47
476.63	15.42
476.984	15.53
477.338	15.22
477.692	15.33
478.045	15.47
478.399	15.35
478.753	15.47
479.107	15.25
479.461	15.37
479.814	15.43
480.168	15.54
480.521	15.53
480.875	15.37
481.228	15.42
481.582	15.75
481.935	15.58
482.289	15.66
482.642	15.67
482.995	15.55
483.348	15.56
483.701	15.38
484.055	15.52
484.408	15.42
484.761	15.26
485.114	15.1
485.466	14.75
485.819	14.61
486.172	14.76
486.525	14.96
486.878	15.1
487.23	15.24
487.583	15.28
487.936	15.4
488.288	15.49
488.641	15.3
488.993	15.18
489.345	15.29
489.698	15.23
490.05	15.24
490.402	15.29
490.754	15.49
491.107	15.65
491.459	15.71
491.811	15.9
492.163	15.96
492.515	15.94
492.866	15.86
493.218	15.59
493.57	15.46
493.922	15.5
494.274	15.7
494.625	15.95
494.977	16.12
495.328	16.21
495.68	16.24
496.031	16.49
496.383	16.37
496.734	16.65
497.086	16.58
497.437	16.75
497.788	16.72
498.139	16.43
498.49	16.65
498.842	16.63
499.193	16.6
499.544	16.58
499.894	16.68
500.245	16.57
500.596	16.89
500.947	16.9
501.298	16.74
501.648	16.78
501.999	16.91
502.35	17.03
502.7	17.02
503.051	16.96
503.401	17.12
503.752	17.22
504.102	17.16
504.452	17.09
504.803	17.28
505.153	17.29
505.503	17.22
505.853	17.25
506.203	17.1
506.553	17.23
506.903	17.25
507.253	17.44
507.603	17.22
507.953	17.39
508.303	17.46
508.652	17.46
509.002	17.5
509.352	17.39
509.701	17.35
510.051	17.33
510.4	17.36
510.75	17.29
511.099	17.42
511.449	17.46
511.798	17.47
512.147	17.43
512.496	17.42
512.846	17.45
513.195	17.49
513.544	17.58
513.893	17.51
514.242	17.48
514.591	17.56
514.939	17.53
515.288	17.87
515.637	17.88
515.986	17.77
516.334	17.81
516.683	18.04
517.032	17.99
517.38	17.97
517.729	17.89
518.077	18.02
518.426	18.06
518.774	18.02
519.122	17.92
519.47	17.9
519.819	17.78
520.167	17.77
520.515	17.63
520.863	17.75
521.211	17.88
521.559	17.89
521.907	17.97
522.255	18.12
522.602	18.18
522.95	18.28
523.298	18.23
523.645	18.43
523.993	18.37
524.341	18.41
524.688	18.37
525.036	18.35
525.383	18.32
525.73	18.56
526.078	18.51
526.425	18.56
526.772	18.2
527.119	18.19
527.466	18.07
527.814	18
528.161	18.13
528.508	18.27
528.854	18.27
529.201	18.13
529.548	18.23
529.895	17.96
530.242	17.73
530.588	17.63
530.935	17.8
531.282	17.98
531.628	18.03
531.975	18.12
532.321	18.19
532.667	18.42
533.014	18.43
533.36	18.54
533.706	18.57
534.052	18.67
534.399	18.63
534.745	18.47
535.091	18.23
535.437	18.19
535.783	18.37
536.129	18.54
536.474	18.73
536.82	18.76
537.166	18.89
537.512	19
537.857	18.95
538.203	18.75
538.549	18.82
538.894	18.78
539.239	18.96
539.585	19.03
539.93	19.11
540.276	19.35
540.621	19.28
540.966	19.56
541.311	19.41
541.656	19.37
542.001	19.39
542.346	19.34
542.691	18.96
543.036	18.78
543.381	18.5
543.726	18.67
544.071	18.87
544.415	19.04
544.76	19.11
545.105	19.12
545.449	19.06
545.794	19.3
546.138	19.53
546.483	19.51
546.827	19.53
547.171	19.54
547.516	19.66
547.86	19.68
548.204	19.76
548.548	19.45
548.892	19.62
549.236	19.75
549.58	19.8
549.924	19.96
550.268	19.98
550.612	20.08
550.956	20.07
551.3	20.25
551.643	20.32
551.987	20.45
552.33	20.4
552.674	20.37
553.017	20.19
553.361	20.36
553.704	20.41
554.048	20.37
554.391	20.23
554.734	20.42
555.077	20.29
555.42	20.67
555.764	20.62
556.107	20.49
556.45	20.55
556.793	20.72
557.135	20.6
557.478	20.59
557.821	20.64
558.164	20.81
558.507	20.7
558.849	20.76
559.192	20.8
559.534	20.88
559.877	20.93
560.219	20.84
560.562	21.11
560.904	20.94
561.246	20.85
561.589	21.11
561.931	21.12
562.273	20.96
562.615	21.12
562.957	21.14
563.299	21.06
563.641	20.89
563.983	21.33
564.325	21.3
564.667	21.14
565.008	21.14
565.35	21.46
565.692	21.26
566.033	21.43
566.375	21.13
566.716	21.33
567.058	21.14
567.399	21.34
567.741	21.12
568.082	21.22
568.423	21.29
568.764	21.19
569.105	21.31
569.447	21.26
569.788	21.18
570.129	21.46
570.47	21.24
570.811	21.55
571.151	21.38
571.492	21.61
571.833	21.64
572.174	21.58
572.514	21.58
572.855	21.55
573.195	21.69
573.536	21.56
573.876	21.49
574.217	21.4
574.557	21.57
574.898	21.53
575.238	21.7
575.578	21.82
575.918	21.83
576.258	21.91
576.598	21.86
576.938	21.86
577.278	21.76
577.618	21.62
577.958	21.7
578.298	21.93
578.638	22.12
578.977	22.06
579.317	22.11
579.657	21.87
579.996	22.08
580.336	22.25
580.675	22.43
581.014	22.1
581.354	22.4
581.693	22.51
582.032	21.96
582.372	22.33
582.711	22.26
583.05	22.44
583.389	22.36
583.728	22.69
584.067	22.62
584.406	22.28
584.745	22.7
585.083	22.47
585.422	22.52
585.761	22.89
586.1	22.67
586.438	22.6
586.777	22.73
587.115	22.53
587.454	22.6
587.792	22.76
588.13	22.94
588.469	23.01
588.807	22.91
589.145	23.24
589.483	22.93
589.821	22.64
590.159	22.93
590.497	22.72
590.835	22.88
591.173	23.12
591.511	22.85
591.849	23.1
592.187	22.95
592.524	23.09
592.862	22.93
593.2	23.15
593.537	23.02
593.875	22.99
594.212	23.12
594.55	23.18
594.887	23.1
595.224	23.11
595.561	23.21
595.899	23.11
596.236	23.3
596.573	22.99
596.91	23.04
597.247	23.25
597.584	22.93
597.921	22.98
598.258	23.12
598.594	23.11
598.931	23.1
599.268	23.09
599.604	23.18
599.941	23.31
600.277	23.37
600.614	23.5
600.95	23.62
601.287	23.7
601.623	23.77
601.959	23.41
602.296	23.89
602.632	23.56
602.968	23.54
603.304	23.6
603.64	23.47
603.976	23.86
604.312	23.45
604.648	23.83
604.984	23.93
605.319	23.26
605.655	23.49
605.991	23.55
606.326	23.42
606.662	23.44
606.998	23.41
607.333	23.45
607.668	23.65
608.004	23.53
608.339	23.8
608.674	24.19
609.01	24.1
609.345	24.03
609.68	24.03
610.015	24.26
610.35	24.1
610.685	24.09
611.02	24.09
611.355	23.87
611.689	24.09
612.024	23.86
612.359	23.88
612.694	23.97
613.028	24.19
613.363	24.27
613.697	24.01
614.032	24.35
614.366	24.53
614.7	24.55
615.035	24.61
615.369	24.59
615.703	24.56
616.037	24.65
616.371	24.57
616.705	24.8
617.039	24.81
617.373	24.53
617.707	24.82
618.041	25.19
618.375	24.99
618.709	24.61
619.042	24.71
619.376	24.81
619.71	24.62
620.043	24.51
620.377	25.02
620.71	25.21
621.043	24.84
621.377	24.64
621.71	24.78
622.043	25.01
622.376	24.92
622.709	24.59
623.043	24.97
623.376	24.89
623.709	25.05
624.041	25.15
624.374	25.24
624.707	24.76
625.04	25.24
625.373	25.18
625.705	25.4
626.038	25.2
626.37	25.28
626.703	25.44
627.035	25.41
627.368	25.02
627.7	25.43
628.032	25.32
628.365	24.89
628.697	24.98
629.029	25.27
629.361	25
629.693	25.42
630.025	25.11
630.357	24.91
630.689	24.93
631.021	25.3
631.353	25.12
631.684	25.4
632.016	25.46
632.348	25.63
632.679	25.48
633.011	25.59
633.342	25.65
633.674	25.68
634.005	25.71
634.336	25.77
634.668	25.91
634.999	25.61
635.33	25.53
635.661	25.71
635.992	25.67
636.323	25.31
636.654	25.7
636.985	25.63
637.316	25.69
637.647	25.99
637.977	25.61
638.308	25.98
638.639	25.63
638.969	25.55
639.3	25.51
639.63	25.57
639.961	26
640.291	26.01
640.622	25.86
640.952	26.38
641.282	26.05
641.612	26.58
641.943	26.25
642.273	26.28
642.603	26.32
642.933	26.44
643.263	26.4
643.592	26.2
643.922	26.33
644.252	25.9
644.582	26.48
644.911	26.45
645.241	26.17
645.571	26.6
645.9	26.21
646.23	26.7
646.559	26.14
646.888	26.31
647.218	26.68
647.547	27.02
647.876	26.8
648.205	26.65
648.534	26.82
648.863	26.85
649.192	26.63
649.521	26.8
649.85	26.7
650.179	26.62
650.508	26.75
650.837	26.28
651.165	26.67
651.494	27.03
651.822	26.61
652.151	27.13
652.479	26.6
652.808	26.87
653.136	26.73
653.465	27.14
653.793	26.79
654.121	26.58
654.449	27.25
654.777	26.94
655.105	26.91
655.433	26.79
655.761	26.88
656.089	27.16
656.417	26.94
656.745	27.06
657.073	26.86
657.4	27.1
657.728	27.19
658.056	27.41
658.383	26.82
658.711	27.28
659.038	27.39
659.365	26.91
659.693	27.29
660.02	27.06
660.347	27.09
660.674	27.01
661.001	26.97
661.329	27.1
661.656	26.96
661.982	26.94
662.309	27.23
662.636	27.68
662.963	27.78
663.29	27.43
663.616	27.45
663.943	27.32
664.27	27.42
664.596	27.49
664.923	27.43
665.249	27.47
665.576	27.57
665.902	27.41
666.228	27.35
666.554	27.28
666.881	27.53
667.207	27.54
667.533	27.67
667.859	27.52
668.185	27.87
668.511	27.18
668.837	27.94
669.162	27.45
669.488	27.86
669.814	27.74
670.139	27.98
670.465	28.13
670.791	27.72
671.116	27.78
671.442	28.11
671.767	27.91
672.092	27.82
672.418	28.4
672.743	27.92
673.068	27.88
673.393	27.97
673.718	28.03
674.043	28.15
