Data from 0370_forehead_Reflection__0__146.txt Node

Date: Mon Dec 11 19:13:19 CST 2023
User: ToomeyLab
Spectrometer: FLMS14357
Trigger mode: 0
Integration Time (sec): 1.000000E-2
Scans to average: 100
Electric dark correction enabled: true
Nonlinearity correction enabled: false
Boxcar width: 0
XAxis mode: Wavelengths
Number of Pixels in Spectrum: 2048
>>>>>Begin Spectral Data<<<<<
189.047	124250
189.435	124250
189.823	124250
190.211	113.82
190.599	44.34
190.987	84.83
191.375	49.82
191.763	116.06
192.151	-92.43
192.538	-135.27
192.926	213050
193.314	84.22
193.702	9.43
194.089	31.08
194.477	262.76
194.864	-1592.34
195.252	6.61
195.639	-20.35
196.027	70.88
196.414	93.61
196.801	711.92
197.189	57.61
197.576	109.27
197.963	-134.83
198.351	8.48
198.738	53.15
199.125	-21.65
199.512	54.39
199.899	19.83
200.286	38.02
200.673	-31.13
201.06	38.77
201.447	37.53
201.833	29.52
202.22	54.76
202.607	52.6
202.994	-34.28
203.38	-73.62
203.767	48.09
204.154	16.65
204.54	-32.17
204.927	-16.67
205.313	47.24
205.699	63.14
206.086	-19.76
206.472	38.87
206.858	39
207.245	34.09
207.631	31.86
208.017	11.67
208.403	22.42
208.789	-2.76
209.175	41.03
209.561	16.81
209.947	-19.45
210.333	22.98
210.719	78.88
211.105	10.89
211.491	32.58
211.876	32.18
212.262	-50.95
212.648	-7.1
213.034	9.01
213.419	-28.46
213.805	-2.95
214.19	23.74
214.576	12.16
214.961	13.72
215.346	2.02
215.732	34.31
216.117	11.17
216.502	2.32
216.888	33.41
217.273	15.58
217.658	19.99
218.043	-9.78
218.428	14.1
218.813	13.47
219.198	16.31
219.583	4.5
219.968	-16.27
220.353	-15.33
220.738	34.91
221.122	-0.99
221.507	40.26
221.892	20.15
222.276	15.41
222.661	-20.94
223.046	6.87
223.43	9.86
223.815	-0.3
224.199	8.3
224.583	8.18
224.968	10.52
225.352	4.26
225.736	11.42
226.121	10.96
226.505	-7.88
226.889	4.88
227.273	2.21
227.657	11.72
228.041	8.78
228.425	6.95
228.809	4.83
229.193	8.77
229.577	7.82
229.961	6.08
230.344	6.46
230.728	5.06
231.112	5.66
231.495	6.18
231.879	5.37
232.263	3.89
232.646	5.27
233.03	5.92
233.413	5.28
233.797	7.83
234.18	5.5
234.563	5.57
234.946	8.84
235.33	7.72
235.713	5.59
236.096	5.75
236.479	6.96
236.862	7
237.245	5.67
237.628	5.42
238.011	5.59
238.394	5.01
238.777	5.03
239.16	7.21
239.543	8.07
239.925	4.28
240.308	6.66
240.691	4.79
241.073	5.76
241.456	6.36
241.838	8.37
242.221	6.62
242.603	5.34
242.986	5.03
243.368	5.96
243.75	6.04
244.133	6.01
244.515	5.32
244.897	5.99
245.279	5.69
245.661	6.01
246.043	6.03
246.425	6.25
246.807	6.74
247.189	6.25
247.571	5.77
247.953	5.8
248.335	6.12
248.717	6.03
249.098	5.73
249.48	5.54
249.862	5.9
250.243	5.71
250.625	5.62
251.006	5.69
251.388	5.16
251.769	6.22
252.151	6.69
252.532	5.22
252.913	6.58
253.295	6.95
253.676	5.37
254.057	5.74
254.438	5.9
254.819	5.27
255.2	5.03
255.581	4.61
255.962	5.39
256.343	5.45
256.724	6.09
257.105	6.29
257.486	4.95
257.867	7.44
258.247	5.22
258.628	5.8
259.009	6.99
259.389	6.66
259.77	5.36
260.15	5.84
260.531	5.65
260.911	4.85
261.292	5.13
261.672	5.45
262.052	5.24
262.432	5.46
262.813	5.63
263.193	5.63
263.573	5.79
263.953	5.37
264.333	5.12
264.713	6.2
265.093	5.77
265.473	5.62
265.853	6.27
266.233	5.2
266.612	5.14
266.992	6.43
267.372	6.05
267.752	6.51
268.131	5.27
268.511	5.43
268.89	5.44
269.27	5.35
269.649	5.48
270.029	6.08
270.408	5.16
270.787	5
271.167	4.68
271.546	5.56
271.925	5.08
272.304	5.38
272.683	5.16
273.062	4.92
273.441	4.89
273.82	5.04
274.199	5.23
274.578	5.38
274.957	5.46
275.336	5.42
275.715	4.67
276.093	5.77
276.472	5.69
276.851	5.32
277.229	5.53
277.608	5.18
277.986	5.72
278.365	5.29
278.743	5.29
279.122	5.41
279.5	5.27
279.878	5.66
280.257	5.04
280.635	5.43
281.013	4.91
281.391	6.32
281.769	5.13
282.147	4.61
282.525	4.8
282.903	4.75
283.281	4.95
283.659	5.45
284.037	4.74
284.415	5.33
284.792	5.63
285.17	5.16
285.548	4.86
285.925	4.8
286.303	4.95
286.68	5.21
287.058	4.84
287.435	5.37
287.813	5.39
288.19	4.94
288.567	4.76
288.945	5.38
289.322	4.69
289.699	5.36
290.076	5.25
290.453	5.33
290.83	5.7
291.207	5.35
291.584	4.88
291.961	5.58
292.338	5.31
292.715	5.48
293.092	5.38
293.469	5.66
293.845	5.61
294.222	5.83
294.599	5.5
294.975	5.63
295.352	5.86
295.728	5.86
296.105	5.47
296.481	4.92
296.858	5.81
297.234	5.77
297.61	5.72
297.986	5.81
298.363	5.7
298.739	6.05
299.115	5.9
299.491	5.86
299.867	5.79
300.243	6.03
300.619	5.83
300.995	5.71
301.371	6.58
301.746	5.92
302.122	5.97
302.498	6.51
302.874	6.1
303.249	6.28
303.625	6.31
304	6.64
304.376	6.53
304.751	5.87
305.127	6.78
305.502	6.4
305.878	6.5
306.253	6.77
306.628	7.02
307.003	7.04
307.378	6.66
307.754	6.89
308.129	7.05
308.504	6.85
308.879	6.4
309.254	7.21
309.629	7.79
310.003	7.24
310.378	6.72
310.753	7.11
311.128	7.53
311.502	7.16
311.877	7.08
312.252	7.2
312.626	7.59
313.001	7.36
313.375	7
313.75	7.51
314.124	7.63
314.498	7.57
314.873	7.69
315.247	7.95
315.621	9.01
315.995	8.37
316.369	7.9
316.743	8.28
317.117	7.91
317.491	8.22
317.865	8.18
318.239	8.39
318.613	8.69
318.987	8.57
319.361	9.02
319.734	8.37
320.108	8.2
320.482	8.52
320.855	8.15
321.229	8.52
321.602	8.77
321.976	9.51
322.349	8.82
322.723	9.38
323.096	9.71
323.469	9.45
323.843	9.57
324.216	9.45
324.589	9.8
324.962	9.35
325.335	9.78
325.708	9.48
326.081	9.28
326.454	10
326.827	9.68
327.2	9.28
327.573	9.47
327.945	10.1
328.318	9.57
328.691	10.17
329.063	9.34
329.436	9.32
329.809	10.02
330.181	10
330.553	9.92
330.926	10.25
331.298	10.01
331.671	10.43
332.043	10.48
332.415	10.58
332.787	10.87
333.159	10.25
333.532	10.68
333.904	10.75
334.276	10.8
334.648	10.33
335.02	10.67
335.391	10.88
335.763	11.06
336.135	10.58
336.507	10.31
336.879	10.75
337.25	10.91
337.622	10.26
337.993	10.68
338.365	10.99
338.736	10.67
339.108	11.46
339.479	10.85
339.851	10.91
340.222	11.03
340.593	10.53
340.964	11.48
341.336	10.93
341.707	11.09
342.078	11.52
342.449	11.47
342.82	11.43
343.191	11.21
343.562	11.19
343.933	11.37
344.303	11.24
344.674	11.25
345.045	11.9
345.416	11.31
345.786	12.07
346.157	11.88
346.527	11.93
346.898	11.87
347.268	11.75
347.639	11.72
348.009	11.82
348.38	11.32
348.75	11.86
349.12	12.23
349.49	11.49
349.861	11.83
350.231	11.86
350.601	12.48
350.971	12.48
351.341	11.76
351.711	12.07
352.081	11.98
352.45	12.23
352.82	11.84
353.19	12.48
353.56	12.07
353.929	12.35
354.299	12.67
354.669	12.45
355.038	12.41
355.408	11.92
355.777	13.01
356.147	12.75
356.516	12.56
356.885	12.79
357.254	12.84
357.624	12.62
357.993	12.17
358.362	12.54
358.731	12.36
359.1	12.42
359.469	12.69
359.838	12.74
360.207	12.83
360.576	12.8
360.945	13.5
361.314	13.48
361.682	12.81
362.051	13.09
362.42	13.01
362.788	12.67
363.157	12.75
363.525	12.6
363.894	12.99
364.262	12.94
364.631	13.1
364.999	12.86
365.367	13.47
365.735	13.57
366.104	13.12
366.472	13.18
366.84	13.34
367.208	13.29
367.576	13.87
367.944	14.03
368.312	13.75
368.68	13.9
369.048	13.49
369.416	13.31
369.783	13.8
370.151	13.7
370.519	14.08
370.886	13.71
371.254	14.03
371.621	14.26
371.989	13.85
372.356	13.98
372.724	14.04
373.091	14.22
373.458	13.92
373.826	14.16
374.193	14.2
374.56	14.16
374.927	14.58
375.294	14.07
375.661	14.21
376.028	14.14
376.395	14.34
376.762	14.34
377.129	14.76
377.496	14.11
377.863	14.54
378.229	14.48
378.596	14.69
378.963	14.8
379.329	14.47
379.696	14.73
380.062	14.42
380.429	14.83
380.795	14.96
381.161	14.75
381.528	14.64
381.894	15.01
382.26	15.08
382.626	14.77
382.993	15.13
383.359	14.79
383.725	15.11
384.091	15.16
384.457	14.77
384.823	15.2
385.188	15.5
385.554	15.21
385.92	15.04
386.286	15.08
386.651	15.39
387.017	15.37
387.383	15.35
387.748	15.49
388.114	15.5
388.479	15.73
388.845	15.78
389.21	15.13
389.575	15.71
389.94	15.96
390.306	15.83
390.671	15.62
391.036	15.84
391.401	16.01
391.766	15.84
392.131	15.96
392.496	16.02
392.861	16.21
393.226	15.93
393.591	16.02
393.956	15.89
394.32	16
394.685	15.88
395.05	16.28
395.414	16.42
395.779	16.12
396.143	15.82
396.508	16.12
396.872	16.21
397.236	16.28
397.601	16.07
397.965	16.43
398.329	16.29
398.694	16.37
399.058	16.29
399.422	16.67
399.786	16.53
400.15	16.11
400.514	16.85
400.878	16.68
401.242	16.54
401.605	16.64
401.969	16.44
402.333	16.59
402.697	16.79
403.06	17.04
403.424	17.13
403.787	16.96
404.151	16.78
404.514	16.57
404.878	17.06
405.241	17.01
405.604	16.93
405.968	16.86
406.331	16.79
406.694	17.06
407.057	17
407.42	17.25
407.783	17.22
408.146	17.05
408.509	17.27
408.872	17.37
409.235	17.14
409.598	17.25
409.961	17.37
410.323	17.71
410.686	17.56
411.049	17.42
411.411	17.45
411.774	17.52
412.136	17.48
412.499	17.51
412.861	17.4
413.223	17.52
413.586	17.72
413.948	17.93
414.31	17.86
414.672	17.69
415.035	18.01
415.397	17.9
415.759	17.91
416.121	17.93
416.483	17.98
416.845	18.09
417.206	17.85
417.568	17.99
417.93	17.97
418.292	17.97
418.653	18
419.015	17.99
419.377	18.02
419.738	18.08
420.1	17.84
420.461	18.02
420.822	18.02
421.184	18.06
421.545	17.89
421.906	18.07
422.267	18.23
422.629	18.01
422.99	18.04
423.351	17.99
423.712	18
424.073	18.26
424.434	18.28
424.795	18.47
425.155	18.27
425.516	18.33
425.877	18.24
426.238	18.32
426.598	18.26
426.959	18.4
427.32	18.44
427.68	18.57
428.041	18.45
428.401	18.67
428.761	18.7
429.122	18.86
429.482	18.93
429.842	18.91
430.202	18.92
430.563	19.04
430.923	19.04
431.283	19.1
431.643	19.21
432.003	19.25
432.363	19.11
432.722	19.34
433.082	19.23
433.442	19.27
433.802	19.07
434.161	19.61
434.521	19.1
434.881	19.4
435.24	19.23
435.6	19.27
435.959	19.19
436.319	19.41
436.678	19.6
437.037	19.57
437.396	19.57
437.756	19.69
438.115	19.82
438.474	19.87
438.833	19.75
439.192	19.78
439.551	19.81
439.91	19.84
440.269	19.85
440.628	19.59
440.987	19.99
441.345	19.86
441.704	19.7
442.063	19.74
442.421	19.72
442.78	19.69
443.138	19.87
443.497	19.81
443.855	19.78
444.214	20.1
444.572	20.06
444.93	20.08
445.288	20.1
445.647	20.22
446.005	20.23
446.363	20.06
446.721	19.96
447.079	20.1
447.437	20.09
447.795	19.96
448.153	19.97
448.51	20.08
448.868	19.95
449.226	19.93
449.584	20.23
449.941	20.29
450.299	20.32
450.656	20.37
451.014	20.54
451.371	20.43
451.729	20.79
452.086	20.74
452.443	20.94
452.801	20.83
453.158	21.03
453.515	20.89
453.872	20.86
454.229	20.92
454.586	21.02
454.943	21.1
455.3	20.87
455.657	20.99
456.014	21.31
456.371	21.12
456.727	21.17
457.084	20.95
457.441	21.42
457.797	21.28
458.154	21.54
458.51	21.43
458.867	21.04
459.223	21.45
459.58	21.42
459.936	21.39
460.292	21.51
460.648	21.42
461.005	21.42
461.361	21.14
461.717	21.06
462.073	21.18
462.429	21.29
462.785	21.32
463.141	21.35
463.496	21.66
463.852	21.65
464.208	21.64
464.564	21.87
464.919	21.89
465.275	21.88
465.631	22.05
465.986	21.92
466.342	22.19
466.697	22.17
467.052	22.08
467.408	22.19
467.763	22.18
468.118	22.14
468.473	22.12
468.829	22.35
469.184	22.22
469.539	22.29
469.894	22.14
470.249	22.31
470.603	22.22
470.958	22.6
471.313	22.36
471.668	22.69
472.023	22.71
472.377	22.61
472.732	22.43
473.086	22.53
473.441	22.55
473.795	22.47
474.15	22.54
474.504	22.72
474.859	22.77
475.213	22.79
475.567	22.62
475.921	22.87
476.275	22.92
476.63	22.97
476.984	23
477.338	22.93
477.692	22.95
478.045	23.09
478.399	23.14
478.753	22.66
479.107	22.79
479.461	23.02
479.814	22.92
480.168	23.14
480.521	23.17
480.875	23.12
481.228	23.04
481.582	23.31
481.935	23.14
482.289	23.42
482.642	23.04
482.995	23.17
483.348	23.13
483.701	23.06
484.055	23.03
484.408	22.96
484.761	23.01
485.114	22.68
485.466	22.31
485.819	22.28
486.172	22.34
486.525	22.45
486.878	22.53
487.23	22.73
487.583	22.82
487.936	22.96
488.288	23.08
488.641	23.02
488.993	22.81
489.345	22.85
489.698	22.72
490.05	22.82
490.402	22.78
490.754	23
491.107	23.15
491.459	23.39
491.811	23.61
492.163	23.71
492.515	23.66
492.866	23.54
493.218	23.3
493.57	23.16
493.922	23.2
494.274	23.34
494.625	23.63
494.977	23.76
495.328	23.91
495.68	24.11
496.031	24.32
496.383	24.29
496.734	24.43
497.086	24.36
497.437	24.72
497.788	24.53
498.139	24.25
498.49	24.4
498.842	24.42
499.193	24.18
499.544	24.37
499.894	24.52
500.245	24.47
500.596	24.54
500.947	24.51
501.298	24.79
501.648	24.92
501.999	24.84
502.35	24.9
502.7	24.99
503.051	25
503.401	25.07
503.752	25.1
504.102	25.19
504.452	24.97
504.803	25.38
505.153	25.58
505.503	25.45
505.853	25.3
506.203	25.14
506.553	25.32
506.903	25.41
507.253	25.45
507.603	25.41
507.953	25.41
508.303	25.43
508.652	25.42
509.002	25.64
509.352	25.65
509.701	25.42
510.051	25.42
510.4	25.54
510.75	25.31
511.099	25.61
511.449	25.62
511.798	25.61
512.147	25.56
512.496	25.45
512.846	25.57
513.195	25.62
513.544	25.64
513.893	25.77
514.242	25.69
514.591	25.71
514.939	25.69
515.288	25.95
515.637	25.84
515.986	25.94
516.334	26.13
516.683	26.17
517.032	26.07
517.38	26.21
517.729	26.3
518.077	26.33
518.426	26.32
518.774	26.32
519.122	26.16
519.47	26.15
519.819	25.92
520.167	26
520.515	25.88
520.863	25.9
521.211	26.02
521.559	26.12
521.907	26.23
522.255	26.15
522.602	26.36
522.95	26.68
523.298	26.53
523.645	26.83
523.993	26.84
524.341	26.74
524.688	26.71
525.036	26.78
525.383	26.93
525.73	26.99
526.078	26.91
526.425	26.94
526.772	26.95
527.119	26.76
527.466	26.53
527.814	26.53
528.161	26.52
528.508	26.62
528.854	26.69
529.201	26.69
529.548	26.74
529.895	26.53
530.242	26.21
530.588	26.14
530.935	26.25
531.282	26.35
531.628	26.37
531.975	26.51
532.321	26.66
532.667	26.77
533.014	27.01
533.36	27.23
533.706	27.26
534.052	27.3
534.399	27.07
534.745	27.12
535.091	26.96
535.437	26.75
535.783	26.93
536.129	27.1
536.474	27.21
536.82	27.33
537.166	27.56
537.512	27.56
537.857	27.69
538.203	27.45
538.549	27.45
538.894	27.52
539.239	27.49
539.585	27.76
539.93	27.81
540.276	27.91
540.621	28.08
540.966	28.27
541.311	28.15
541.656	28.33
542.001	28.14
542.346	28.14
542.691	27.88
543.036	27.63
543.381	27.33
543.726	27.49
544.071	27.58
544.415	27.77
544.76	27.78
545.105	27.97
545.449	27.94
545.794	28.14
546.138	28.22
546.483	28.3
546.827	28.5
547.171	28.41
547.516	28.52
547.86	28.62
548.204	28.65
548.548	28.7
548.892	28.64
549.236	28.58
549.58	28.67
549.924	28.94
550.268	28.89
550.612	29.05
550.956	29.21
551.3	29.28
551.643	29.32
551.987	29.59
552.33	29.6
552.674	29.58
553.017	29.35
553.361	29.69
553.704	29.59
554.048	29.48
554.391	29.63
554.734	29.5
555.077	29.57
555.42	29.61
555.764	29.6
556.107	29.7
556.45	29.69
556.793	29.77
557.135	29.97
557.478	29.92
557.821	30
558.164	29.85
558.507	29.76
558.849	29.95
559.192	30
559.534	30.04
559.877	30.01
560.219	30.3
560.562	30.48
560.904	30.3
561.246	30.26
561.589	30.37
561.931	30.19
562.273	30.25
562.615	30.57
562.957	30.46
563.299	30.53
563.641	30.4
563.983	30.82
564.325	30.54
564.667	30.62
565.008	30.68
565.35	30.66
565.692	30.45
566.033	30.69
566.375	30.85
566.716	30.56
567.058	30.74
567.399	30.67
567.741	30.5
568.082	30.69
568.423	30.7
568.764	30.7
569.105	30.69
569.447	30.81
569.788	30.69
570.129	30.96
570.47	30.84
570.811	30.84
571.151	30.91
571.492	31.16
571.833	30.91
572.174	31.23
572.514	31.33
572.855	31.15
573.195	31.08
573.536	31.09
573.876	31.01
574.217	31.16
574.557	31.19
574.898	31.23
575.238	31.24
575.578	31.36
575.918	31.56
576.258	31.19
576.598	31.25
576.938	31.51
577.278	31.22
577.618	31.67
577.958	31.36
578.298	31.69
578.638	31.78
578.977	31.93
579.317	31.7
579.657	31.8
579.996	31.73
580.336	32.06
580.675	32.15
581.014	32.12
581.354	32.05
581.693	32.42
582.032	31.98
582.372	32.35
582.711	32.46
583.05	32.14
583.389	32.29
583.728	32.75
584.067	32.53
584.406	32.33
584.745	32.39
585.083	32.64
585.422	32.54
585.761	32.73
586.1	32.54
586.438	32.04
586.777	32.72
587.115	32.48
587.454	32.78
587.792	32.86
588.13	33
588.469	32.71
588.807	32.8
589.145	32.98
589.483	33.04
589.821	32.72
590.159	32.89
590.497	32.72
590.835	32.93
591.173	33.12
591.511	32.95
591.849	33.08
592.187	32.99
592.524	33.06
592.862	32.87
593.2	33.08
593.537	33.1
593.875	33.22
594.212	33.15
594.55	33.12
594.887	33.33
595.224	33.46
595.561	33.45
595.899	33.15
596.236	33.41
596.573	33.4
596.91	33.04
597.247	33.62
597.584	33.26
597.921	33.32
598.258	33.32
598.594	33.24
598.931	33.11
599.268	33.26
599.604	33.59
599.941	33.45
600.277	33.4
600.614	33.87
600.95	33.63
601.287	33.69
601.623	33.66
601.959	33.93
602.296	33.73
602.632	34.02
602.968	33.82
603.304	34.14
603.64	33.74
603.976	34
604.312	33.98
604.648	34.16
604.984	34.17
605.319	33.89
605.655	33.7
605.991	33.86
606.326	33.77
606.662	33.84
606.998	33.69
607.333	33.76
607.668	34
608.004	33.99
608.339	34.17
608.674	34.62
609.01	34.46
609.345	34.42
609.68	34.72
610.015	34.77
610.35	34.94
610.685	34.47
611.02	34.39
611.355	34.54
611.689	34.47
612.024	34.2
612.359	34.57
612.694	34.56
613.028	34.87
613.363	34.69
613.697	34.89
614.032	34.63
614.366	34.92
614.7	35.19
615.035	35.13
615.369	34.9
615.703	34.83
616.037	35.04
616.371	34.99
616.705	35.04
617.039	34.96
617.373	34.59
617.707	35.24
618.041	35.33
618.375	35.33
618.709	35
619.042	35.29
619.376	35.27
619.71	35.1
620.043	35.18
620.377	35.12
620.71	35.67
621.043	35.65
621.377	34.74
621.71	35.89
622.043	35.38
622.376	35.28
622.709	35.79
623.043	35.82
623.376	36.11
623.709	35.69
624.041	35.92
624.374	35.67
624.707	35.86
625.04	35.89
625.373	35.73
625.705	36.2
626.038	35.73
626.37	36.24
626.703	35.87
627.035	35.77
627.368	35.8
627.7	35.84
628.032	35.9
628.365	36.01
628.697	35.91
629.029	35.97
629.361	35.82
629.693	35.75
630.025	36.08
630.357	36.06
630.689	35.7
631.021	36.08
631.353	36.3
631.684	36.13
632.016	36.26
632.348	36.06
632.679	36.26
633.011	36.56
633.342	36.14
633.674	36.53
634.005	36.67
634.336	36.51
634.668	36.5
634.999	36.66
635.33	36.99
635.661	36.79
635.992	36.93
636.323	36.76
636.654	36.76
636.985	36.96
637.316	36.59
637.647	37.15
637.977	36.86
638.308	36.89
638.639	36.81
638.969	36.85
639.3	36.71
639.63	36.67
639.961	36.64
640.291	37.16
640.622	37.24
640.952	36.96
641.282	37.09
641.612	37.56
641.943	37.25
642.273	37.12
642.603	37.27
642.933	37.03
643.263	37.4
643.592	37.81
643.922	37.08
644.252	36.75
644.582	37.44
644.911	37.33
645.241	37.45
645.571	37.72
645.9	37.13
646.23	37.61
646.559	37.56
646.888	37.61
647.218	37.66
647.547	38.05
647.876	37.94
648.205	37.68
648.534	37.61
648.863	37.84
649.192	37.56
649.521	38.4
649.85	38.2
650.179	38.24
650.508	38.17
650.837	37.59
651.165	38.49
651.494	38.17
651.822	38.19
652.151	38.73
652.479	38.34
652.808	38.03
653.136	38.21
653.465	37.92
653.793	37.83
654.121	37.96
654.449	38.35
654.777	37.88
655.105	38.45
655.433	38.45
655.761	38.27
656.089	38.28
656.417	38.36
656.745	39.09
657.073	38.61
657.4	38.66
657.728	38.39
658.056	38.46
658.383	38.29
658.711	38.71
659.038	38.89
659.365	38.34
659.693	38.56
660.02	37.73
660.347	38.19
660.674	38.78
661.001	38.64
661.329	38.24
661.656	38.63
661.982	38.49
662.309	38.9
662.636	38.49
662.963	38.6
663.29	38.93
663.616	38.56
663.943	38.83
664.27	38.69
664.596	39.2
664.923	39.16
665.249	39.4
665.576	39.39
665.902	39.1
666.228	38.85
666.554	39.13
666.881	39.15
667.207	39.19
667.533	39.41
667.859	38.69
668.185	39.15
668.511	39.57
668.837	38.97
669.162	39.14
669.488	39.48
669.814	39.18
