Data from 0370_chest_Reflection__4__140.txt Node

Date: Mon Dec 11 19:11:03 CST 2023
User: ToomeyLab
Spectrometer: FLMS14357
Trigger mode: 0
Integration Time (sec): 1.000000E-2
Scans to average: 100
Electric dark correction enabled: true
Nonlinearity correction enabled: false
Boxcar width: 0
XAxis mode: Wavelengths
Number of Pixels in Spectrum: 2048
>>>>>Begin Spectral Data<<<<<
189.047	-61700
189.435	-61700
189.823	-61700
190.211	104.62
190.599	96.06
190.987	145.26
191.375	221.6
191.763	135.89
192.151	11.17
192.538	-125.9
192.926	-16100
193.314	465.78
193.702	-1364.06
194.089	63.09
194.477	58.95
194.864	-1390.51
195.252	40.21
195.639	24.03
196.027	32.42
196.414	-322.56
196.801	-39.75
197.189	307.91
197.576	26.18
197.963	-43.58
198.351	-14.76
198.738	-18.81
199.125	-180.42
199.512	-1.88
199.899	0.29
200.286	-1.09
200.673	-85.54
201.06	14.9
201.447	-17.31
201.833	-14.58
202.22	23.24
202.607	-25.3
202.994	-73.51
203.38	-34.5
203.767	38.25
204.154	6.98
204.54	-18.47
204.927	0.52
205.313	39.32
205.699	-242.57
206.086	-90.04
206.472	2.73
206.858	-1.29
207.245	19.46
207.631	-31.53
208.017	9.84
208.403	21.86
208.789	-36.22
209.175	11.54
209.561	-31.73
209.947	-31.94
210.333	23.64
210.719	10.06
211.105	2.05
211.491	-5.04
211.876	25.91
212.262	-32.38
212.648	24.67
213.034	-54.39
213.419	27.09
213.805	-25.11
214.19	-4.46
214.576	-13.07
214.961	0.83
215.346	-16.18
215.732	11.71
216.117	24.49
216.502	-20.53
216.888	-4.18
217.273	25.62
217.658	6.74
218.043	-39.91
218.428	-24.45
218.813	1.22
219.198	-19.54
219.583	6.01
219.968	-32.1
220.353	-15.18
220.738	-2.29
221.122	-1.1
221.507	37.05
221.892	13.2
222.276	-10.2
222.661	-9.32
223.046	-25.15
223.43	-4.2
223.815	-6.27
224.199	0.82
224.583	-3.64
224.968	-12.49
225.352	-4.27
225.736	-4.8
226.121	6.64
226.505	-6.61
226.889	-3.39
227.273	-3.54
227.657	11.69
228.041	-0.7
228.425	-3.58
228.809	-6.45
229.193	2.18
229.577	2.24
229.961	-1.37
230.344	0.35
230.728	2.25
231.112	1.03
231.495	1.74
231.879	1.58
232.263	1.04
232.646	1.72
233.03	-0.23
233.413	0.85
233.797	1.96
234.18	-0.5
234.563	0.79
234.946	-0.53
235.33	3.71
235.713	1.9
236.096	1.72
236.479	2.3
236.862	0.9
237.245	1.42
237.628	0.9
238.011	1.28
238.394	1.98
238.777	-0.16
239.16	0.59
239.543	1.58
239.925	0.28
240.308	1.41
240.691	2.71
241.073	2.06
241.456	2.41
241.838	2.59
242.221	2.14
242.603	-0.1
242.986	1.15
243.368	0.96
243.75	1.98
244.133	1.7
244.515	1.5
244.897	1.44
245.279	1.85
245.661	1.41
246.043	1.29
246.425	2.43
246.807	1.09
247.189	1.96
247.571	1
247.953	1.44
248.335	2.36
248.717	2.05
249.098	1.71
249.48	1.65
249.862	2.02
250.243	1.75
250.625	1.95
251.006	1.54
251.388	1.47
251.769	2.51
252.151	2.04
252.532	1.97
252.913	2.03
253.295	2.11
253.676	1.37
254.057	1.3
254.438	2.28
254.819	1.39
255.2	1.2
255.581	-0.68
255.962	0.65
256.343	0.69
256.724	1.61
257.105	1.75
257.486	0.7
257.867	2.05
258.247	1.32
258.628	2.04
259.009	2.44
259.389	2.23
259.77	1.9
260.15	1.4
260.531	1.87
260.911	0.83
261.292	1.36
261.672	1.8
262.052	1.65
262.432	1.78
262.813	1.8
263.193	1.32
263.573	1.49
263.953	1.59
264.333	1.34
264.713	1.8
265.093	1.3
265.473	1.45
265.853	1.62
266.233	0.81
266.612	2
266.992	1.92
267.372	1.99
267.752	1.49
268.131	1.55
268.511	1.27
268.89	1.96
269.27	2.19
269.649	1.69
270.029	2.05
270.408	1.77
270.787	1.03
271.167	0.64
271.546	1.68
271.925	0.84
272.304	1.32
272.683	1.07
273.062	1.27
273.441	1.38
273.82	1.29
274.199	1.91
274.578	1.45
274.957	1.42
275.336	1.49
275.715	1.28
276.093	2.25
276.472	1.21
276.851	1.33
277.229	1.41
277.608	1.31
277.986	1.78
278.365	1.67
278.743	1.4
279.122	1.59
279.5	1.51
279.878	1.05
280.257	0.81
280.635	1.38
281.013	1.28
281.391	1.58
281.769	1.67
282.147	1.33
282.525	0.83
282.903	1.47
283.281	1.15
283.659	1.26
284.037	1.44
284.415	1.75
284.792	1.93
285.17	1.22
285.548	1.67
285.925	1.35
286.303	1.68
286.68	0.98
287.058	1.78
287.435	1.51
287.813	2.02
288.19	1.38
288.567	1.1
288.945	1.27
289.322	1.06
289.699	1.68
290.076	0.69
290.453	1.92
290.83	1.55
291.207	1.98
291.584	1.61
291.961	1.25
292.338	1.68
292.715	1.95
293.092	1.6
293.469	1.45
293.845	1.32
294.222	1.93
294.599	1.4
294.975	0.87
295.352	1.28
295.728	1.77
296.105	1.81
296.481	1.43
296.858	1.72
297.234	2.15
297.61	2.32
297.986	1.81
298.363	1.67
298.739	1.78
299.115	1.66
299.491	1.6
299.867	1.36
300.243	2.04
300.619	1.58
300.995	1.7
301.371	2
301.746	1.64
302.122	1.3
302.498	1.67
302.874	1.98
303.249	2
303.625	1.4
304	1.84
304.376	1.64
304.751	1.58
305.127	1.75
305.502	1.79
305.878	2.18
306.253	2.41
306.628	2.19
307.003	2.06
307.378	1.94
307.754	2.38
308.129	1.75
308.504	1.82
308.879	1.52
309.254	2.27
309.629	2.24
310.003	1.55
310.378	1.72
310.753	2.23
311.128	1.87
311.502	1.89
311.877	2.24
312.252	2.04
312.626	2.1
313.001	2.22
313.375	1.75
313.75	2.17
314.124	2.02
314.498	2.16
314.873	2.17
315.247	1.8
315.621	2.2
315.995	2.33
316.369	2.26
316.743	2.27
317.117	2.07
317.491	2.22
317.865	1.75
318.239	2.12
318.613	2.3
318.987	1.69
319.361	2.54
319.734	2.15
320.108	2.19
320.482	1.97
320.855	2.1
321.229	1.43
321.602	2.45
321.976	3.27
322.349	2.33
322.723	2.57
323.096	2.56
323.469	2.48
323.843	2.34
324.216	2.9
324.589	3.19
324.962	2.28
325.335	2.41
325.708	2.66
326.081	2.89
326.454	2.72
326.827	2.42
327.2	1.71
327.573	1.97
327.945	2.97
328.318	2.1
328.691	2
329.063	2.5
329.436	2.22
329.809	2.5
330.181	2.88
330.553	2.12
330.926	2.29
331.298	3.02
331.671	1.87
332.043	2.85
332.415	1.75
332.787	2.55
333.159	2.41
333.532	2.68
333.904	2.83
334.276	2.38
334.648	2.83
335.02	1.92
335.391	2.34
335.763	2.51
336.135	3.02
336.507	2.82
336.879	2.42
337.25	2.52
337.622	2.42
337.993	2.79
338.365	2.11
338.736	2.83
339.108	2.7
339.479	2.43
339.851	2.58
340.222	2.49
340.593	2.12
340.964	2.45
341.336	2.45
341.707	2.21
342.078	2.54
342.449	2.16
342.82	2.47
343.191	2.83
343.562	2.4
343.933	2.45
344.303	2.35
344.674	2.49
345.045	2.71
345.416	2.57
345.786	3.32
346.157	2.6
346.527	2.63
346.898	2.69
347.268	2.93
347.639	2.3
348.009	2.73
348.38	2.01
348.75	2.65
349.12	3.21
349.49	2.47
349.861	2.67
350.231	2.22
350.601	3.03
350.971	2.69
351.341	2.16
351.711	2.33
352.081	2.2
352.45	2.86
352.82	2.45
353.19	2.67
353.56	2.27
353.929	2.53
354.299	3.04
354.669	2.74
355.038	2.65
355.408	2.3
355.777	2.2
356.147	2.95
356.516	2.5
356.885	3.1
357.254	2.9
357.624	2.93
357.993	2.75
358.362	2.97
358.731	2.26
359.1	2.72
359.469	2.55
359.838	2.63
360.207	2.51
360.576	2.56
360.945	2.81
361.314	2.99
361.682	2.5
362.051	2.34
362.42	2.51
362.788	2.21
363.157	2.53
363.525	2.44
363.894	2.7
364.262	2.59
364.631	2.8
364.999	2.49
365.367	2.7
365.735	2.45
366.104	2.56
366.472	2.72
366.84	2.4
367.208	2.55
367.576	2.91
367.944	2.85
368.312	2.45
368.68	2.62
369.048	2.47
369.416	2.67
369.783	2.71
370.151	2.94
370.519	3.19
370.886	2.55
371.254	3.09
371.621	2.82
371.989	2.65
372.356	2.63
372.724	3.25
373.091	2.84
373.458	2.51
373.826	2.87
374.193	2.73
374.56	3.08
374.927	2.92
375.294	2.77
375.661	2.6
376.028	2.88
376.395	2.89
376.762	2.59
377.129	3.09
377.496	2.62
377.863	2.7
378.229	2.72
378.596	2.6
378.963	2.95
379.329	2.88
379.696	2.75
380.062	2.74
380.429	2.66
380.795	3.12
381.161	2.83
381.528	3.05
381.894	2.93
382.26	2.83
382.626	2.61
382.993	2.8
383.359	2.64
383.725	2.7
384.091	2.88
384.457	2.63
384.823	3.11
385.188	2.9
385.554	2.8
385.92	2.63
386.286	2.86
386.651	2.8
387.017	2.83
387.383	2.75
387.748	2.65
388.114	2.7
388.479	2.6
388.845	3
389.21	2.72
389.575	2.76
389.94	3.11
390.306	2.93
390.671	2.83
391.036	2.95
391.401	3.21
391.766	2.61
392.131	2.87
392.496	3.02
392.861	3.12
393.226	2.97
393.591	2.92
393.956	2.66
394.32	3.04
394.685	2.71
395.05	2.96
395.414	3.2
395.779	2.86
396.143	2.61
396.508	2.77
396.872	3.01
397.236	2.74
397.601	2.77
397.965	2.98
398.329	3.11
398.694	2.98
399.058	2.9
399.422	3.02
399.786	2.78
400.15	2.95
400.514	3.01
400.878	2.81
401.242	2.86
401.605	3.05
401.969	2.86
402.333	2.94
402.697	2.95
403.06	3
403.424	2.95
403.787	2.91
404.151	2.74
404.514	2.75
404.878	3.01
405.241	3.07
405.604	2.81
405.968	2.83
406.331	2.82
406.694	2.89
407.057	2.96
407.42	3.03
407.783	3.01
408.146	2.98
408.509	2.97
408.872	2.68
409.235	2.84
409.598	2.83
409.961	2.85
410.323	2.93
410.686	2.94
411.049	2.91
411.411	3.15
411.774	2.98
412.136	2.84
412.499	3.1
412.861	2.84
413.223	3.19
413.586	3.03
413.948	3
414.31	2.93
414.672	2.7
415.035	2.91
415.397	3.06
415.759	2.97
416.121	2.87
416.483	2.97
416.845	3.17
417.206	2.97
417.568	3.18
417.93	2.87
418.292	3.03
418.653	2.88
419.015	2.92
419.377	3.12
419.738	2.95
420.1	3.01
420.461	2.98
420.822	2.84
421.184	2.98
421.545	2.95
421.906	2.94
422.267	3
422.629	2.82
422.99	3.03
423.351	2.85
423.712	2.91
424.073	2.87
424.434	2.94
424.795	3.04
425.155	2.96
425.516	2.95
425.877	2.89
426.238	3.08
426.598	2.99
426.959	3.03
427.32	3.05
427.68	3.13
428.041	2.88
428.401	2.91
428.761	3.06
429.122	2.9
429.482	3.11
429.842	3.2
430.202	3.11
430.563	3.15
430.923	3.08
431.283	3.28
431.643	3.25
432.003	3.23
432.363	3.15
432.722	3.18
433.082	3.14
433.442	3.14
433.802	3.1
434.161	3.3
434.521	2.96
434.881	3.09
435.24	3.08
435.6	3.06
435.959	3.07
436.319	3.04
436.678	2.99
437.037	3.08
437.396	3.24
437.756	3.22
438.115	3.31
438.474	3.18
438.833	3.15
439.192	3.05
439.551	3.19
439.91	3.26
440.269	3.34
440.628	2.99
440.987	3.35
441.345	3.17
441.704	3.18
442.063	3.13
442.421	3.08
442.78	2.97
443.138	3.1
443.497	3.13
443.855	3.1
444.214	3.28
444.572	3.18
444.93	3.2
445.288	3.24
445.647	3.33
446.005	3.03
446.363	3.16
446.721	3.27
447.079	3.2
447.437	3.12
447.795	3.2
448.153	3.27
448.51	3.13
448.868	3.08
449.226	3.04
449.584	3.19
449.941	3.37
450.299	3.14
450.656	3.29
451.014	3.41
451.371	3.14
451.729	3.39
452.086	3.24
452.443	3.53
452.801	3.33
453.158	3.27
453.515	3.12
453.872	3.29
454.229	3.26
454.586	3.32
454.943	3.46
455.3	3.34
455.657	3.38
456.014	3.37
456.371	3.58
456.727	3.32
457.084	3.34
457.441	3.44
457.797	3.38
458.154	3.37
458.51	3.44
458.867	3.3
459.223	3.31
459.58	3.39
459.936	3.34
460.292	3.43
460.648	3.34
461.005	3.28
461.361	3.27
461.717	3.27
462.073	3.21
462.429	3.33
462.785	3.3
463.141	3.32
463.496	3.54
463.852	3.42
464.208	3.41
464.564	3.29
464.919	3.43
465.275	3.28
465.631	3.35
465.986	3.44
466.342	3.55
466.697	3.36
467.052	3.52
467.408	3.56
467.763	3.37
468.118	3.33
468.473	3.36
468.829	3.56
469.184	3.66
469.539	3.47
469.894	3.34
470.249	3.44
470.603	3.32
470.958	3.41
471.313	3.53
471.668	3.57
472.023	3.62
472.377	3.54
472.732	3.4
473.086	3.53
473.441	3.59
473.795	3.6
474.15	3.5
474.504	3.38
474.859	3.62
475.213	3.5
475.567	3.58
475.921	3.52
476.275	3.6
476.63	3.62
476.984	3.48
477.338	3.52
477.692	3.5
478.045	3.5
478.399	3.54
478.753	3.52
479.107	3.55
479.461	3.65
479.814	3.48
480.168	3.59
480.521	3.56
480.875	3.53
481.228	3.47
481.582	3.67
481.935	3.59
482.289	3.52
482.642	3.54
482.995	3.58
483.348	3.47
483.701	3.42
484.055	3.58
484.408	3.49
484.761	3.56
485.114	3.46
485.466	3.38
485.819	3.31
486.172	3.34
486.525	3.41
486.878	3.46
487.23	3.53
487.583	3.54
487.936	3.51
488.288	3.61
488.641	3.52
488.993	3.45
489.345	3.48
489.698	3.44
490.05	3.48
490.402	3.49
490.754	3.53
491.107	3.59
491.459	3.53
491.811	3.6
492.163	3.72
492.515	3.73
492.866	3.73
493.218	3.46
493.57	3.49
493.922	3.52
494.274	3.6
494.625	3.61
494.977	3.74
495.328	3.8
495.68	3.83
496.031	3.81
496.383	3.72
496.734	3.73
497.086	3.88
497.437	3.79
497.788	3.87
498.139	3.64
498.49	3.79
498.842	3.86
499.193	3.88
499.544	3.65
499.894	3.8
500.245	3.79
500.596	3.87
500.947	3.85
501.298	3.88
501.648	3.79
501.999	3.81
502.35	3.91
502.7	3.92
503.051	3.85
503.401	3.86
503.752	3.95
504.102	3.81
504.452	3.79
504.803	4.01
505.153	4.03
505.503	3.97
505.853	3.96
506.203	3.86
506.553	3.91
506.903	3.88
507.253	3.97
507.603	3.92
507.953	4.03
508.303	3.95
508.652	3.84
509.002	3.89
509.352	4.12
509.701	3.92
510.051	3.95
510.4	3.93
510.75	3.91
511.099	3.97
511.449	3.96
511.798	3.99
512.147	4.11
512.496	3.89
512.846	4.05
513.195	4.15
513.544	3.98
513.893	4.04
514.242	4.06
514.591	3.96
514.939	3.97
515.288	4.17
515.637	3.97
515.986	4.08
516.334	4.06
516.683	4.18
517.032	4.18
517.38	4.18
517.729	4.14
518.077	4.29
518.426	4.16
518.774	4.12
519.122	4.13
519.47	4.07
519.819	3.93
520.167	4.02
520.515	3.94
520.863	4.01
521.211	4.1
521.559	4.12
521.907	4.08
522.255	4.06
522.602	4.22
522.95	4.18
523.298	4.23
523.645	4.35
523.993	4.2
524.341	4.2
524.688	4.16
525.036	4.23
525.383	4.26
525.73	4.27
526.078	4.32
526.425	4.18
526.772	4.17
527.119	4.17
527.466	4.18
527.814	4.18
528.161	4.17
528.508	4.18
528.854	4.15
529.201	4.11
529.548	4.12
529.895	4.08
530.242	4.04
530.588	4.01
530.935	4.07
531.282	4.1
531.628	4.14
531.975	4.17
532.321	4.17
532.667	4.28
533.014	4.15
533.36	4.29
533.706	4.37
534.052	4.28
534.399	4.27
534.745	4.22
535.091	4.18
535.437	4.13
535.783	4.2
536.129	4.33
536.474	4.4
536.82	4.33
537.166	4.29
537.512	4.39
537.857	4.39
538.203	4.35
538.549	4.39
538.894	4.39
539.239	4.5
539.585	4.42
539.93	4.42
540.276	4.52
540.621	4.53
540.966	4.67
541.311	4.58
541.656	4.46
542.001	4.55
542.346	4.55
542.691	4.37
543.036	4.31
543.381	4.26
543.726	4.36
544.071	4.42
544.415	4.42
544.76	4.5
545.105	4.55
545.449	4.45
545.794	4.57
546.138	4.59
546.483	4.58
546.827	4.65
547.171	4.56
547.516	4.65
547.86	4.79
548.204	4.54
548.548	4.62
548.892	4.7
549.236	4.65
549.58	4.77
549.924	4.77
550.268	4.74
550.612	4.81
550.956	4.74
551.3	4.74
551.643	4.9
551.987	5.1
552.33	4.88
552.674	4.95
553.017	4.88
553.361	4.78
553.704	4.88
554.048	4.9
554.391	4.86
554.734	4.85
555.077	4.87
555.42	5.02
555.764	4.87
556.107	5.05
556.45	5.03
556.793	5.03
557.135	5.11
557.478	5.12
557.821	5.22
558.164	4.99
558.507	5.03
558.849	5.05
559.192	5.04
559.534	4.99
559.877	5
560.219	4.96
560.562	5.36
560.904	5.11
561.246	5.31
561.589	5.11
561.931	5.27
562.273	5.15
562.615	5.05
562.957	5.29
563.299	5.21
563.641	5
563.983	5.34
564.325	5.38
564.667	5.42
565.008	5.35
565.35	5.51
565.692	5.34
566.033	5.23
566.375	5.49
566.716	5.34
567.058	5.31
567.399	5.33
567.741	5.21
568.082	5.35
568.423	5.3
568.764	5.3
569.105	5.5
569.447	5.42
569.788	5.27
570.129	5.61
570.47	5.31
570.811	5.36
571.151	5.42
571.492	5.57
571.833	5.37
572.174	5.57
572.514	5.62
572.855	5.59
573.195	5.54
573.536	5.47
573.876	5.61
574.217	5.61
574.557	5.5
574.898	5.61
575.238	5.73
575.578	5.68
575.918	5.78
576.258	5.77
576.598	5.87
576.938	5.85
577.278	5.73
577.618	5.68
577.958	5.61
578.298	5.79
578.638	5.84
578.977	5.74
579.317	5.8
579.657	5.86
579.996	5.85
580.336	5.88
580.675	5.76
581.014	6.1
581.354	5.84
581.693	6.24
582.032	5.72
582.372	6.2
582.711	5.86
583.05	5.97
583.389	6.07
583.728	6.32
584.067	5.99
584.406	5.87
584.745	6.03
585.083	5.97
585.422	6.2
585.761	6.18
586.1	6.15
586.438	5.96
586.777	6.15
587.115	6.04
587.454	5.99
587.792	6.28
588.13	6.29
588.469	6.31
588.807	6.37
589.145	6.35
589.483	6.19
589.821	6.14
590.159	6.44
590.497	6.34
590.835	6.29
591.173	6.4
591.511	6.43
591.849	6.61
592.187	6.12
592.524	6.45
592.862	6.39
593.2	6.24
593.537	6.39
593.875	6.6
594.212	6.58
594.55	6.57
594.887	6.47
595.224	6.53
595.561	6.65
595.899	6.69
596.236	6.63
596.573	6.71
596.91	6.54
597.247	6.63
597.584	6.51
597.921	6.56
598.258	6.63
598.594	6.84
598.931	6.78
599.268	6.76
599.604	6.89
599.941	6.88
600.277	6.76
600.614	6.88
600.95	6.76
601.287	6.68
601.623	6.78
601.959	6.8
602.296	6.94
602.632	6.85
602.968	6.84
603.304	7.1
603.64	6.97
603.976	6.95
604.312	7.04
604.648	7.16
604.984	7.09
605.319	7.04
605.655	6.9
605.991	7.01
606.326	7
606.662	6.99
606.998	6.95
607.333	7.14
607.668	7.12
608.004	7.07
608.339	7.46
608.674	7.45
609.01	7.24
609.345	7.32
609.68	7.54
610.015	7.34
610.35	7.27
610.685	7.16
611.02	7.38
611.355	7.39
611.689	7.33
612.024	7.39
612.359	7.29
612.694	7.36
613.028	7.35
613.363	7.44
613.697	7.31
614.032	7.8
614.366	7.75
614.7	7.53
615.035	7.53
615.369	7.73
615.703	7.77
616.037	7.56
616.371	7.79
616.705	7.75
617.039	7.75
617.373	7.58
617.707	7.76
618.041	7.92
618.375	8
618.709	7.76
619.042	7.75
619.376	7.96
619.71	7.72
620.043	7.78
620.377	7.83
620.71	8.3
621.043	7.91
621.377	7.28
621.71	8.25
622.043	7.54
622.376	7.94
622.709	8.33
623.043	8.04
623.376	7.94
623.709	8.09
624.041	8.14
624.374	8.22
624.707	7.99
625.04	8.67
625.373	8.26
625.705	8.07
626.038	8.12
626.37	8.53
626.703	8.66
627.035	8.43
627.368	8.28
627.7	8.36
628.032	8.61
628.365	8.38
628.697	8.42
629.029	8.35
629.361	8.21
629.693	8.3
630.025	8.22
630.357	7.87
630.689	8.25
631.021	8.38
631.353	8.49
631.684	8.59
632.016	8.96
632.348	8.65
632.679	8.68
633.011	8.59
633.342	8.51
633.674	8.67
634.005	8.5
634.336	8.77
634.668	8.96
634.999	8.99
635.33	8.44
635.661	8.76
635.992	9.05
636.323	8.68
636.654	9.15
636.985	8.82
637.316	9.03
637.647	9.14
637.977	9.01
638.308	9.08
638.639	8.87
638.969	8.88
639.3	8.97
639.63	8.94
639.961	9.1
640.291	9.53
640.622	9.15
640.952	9.35
641.282	9.06
641.612	9.53
641.943	9.46
642.273	9.37
642.603	9.28
642.933	9.08
643.263	9.41
643.592	9.45
643.922	9.04
644.252	8.99
644.582	9.51
644.911	9.63
645.241	8.95
645.571	9.5
645.9	9.31
646.23	9.62
646.559	9.47
646.888	8.98
647.218	9.65
647.547	9.1
647.876	9.72
648.205	9.3
648.534	9.77
648.863	9.43
649.192	9.81
649.521	9.43
649.85	9.71
650.179	9.92
650.508	9.85
650.837	9.53
651.165	9.93
651.494	10.1
651.822	9.86
652.151	10.48
652.479	9.9
652.808	9.95
653.136	9.25
653.465	9.9
653.793	9.85
654.121	10.22
654.449	10.22
654.777	10.1
655.105	9.98
655.433	9.75
655.761	10.37
656.089	9.78
656.417	9.96
656.745	10.34
657.073	10.14
657.4	9.99
657.728	10.5
658.056	10.88
658.383	10.25
658.711	10.52
659.038	10.52
659.365	10.56
659.693	10.88
660.02	10.03
660.347	10.17
660.674	10.35
661.001	10.24
661.329	10.26
661.656	10.62
661.982	10.26
662.309	10.74
662.636	10.27
662.963	10.57
663.29	10.66
663.616	10.19
663.943	10.33
664.27	11.17
664.596	11.07
664.923	10.72
665.249	10.66
665.576	10.94
665.902	10.56
666.228	10.52
666.554	10.96
666.881	10.69
667.207	10.99
667.533	10.92
667.859	10.68
668.185	11.07
668.511	10.81
668.837	11.26
669.162	11.05
669.488	10.92
669.814	10.89
670.139	11.08
670.465	11.46
670.791	11.26
671.116	11.88
671.442	11.39
671.767	11.29
672.092	11.22
672.418	11.45
672.743	10.55
673.068	10.73
673.393	10.88
673.718	11.85
674.043	11.16
674.368	11.35
674.693	10.81
675.018	11.58
675.343	10.79
675.667	11.44
675.992	11.59
676.317	11.76
676.641	12.19
676.966	11.75
677.29	10.69
677.615	11.79
677.939	11.35
678.264	11.28
678.588	11.94
678.912	11.37
679.236	11.37
679.56	11.23
679.885	11.72
680.209	11.62
680.532	11.98
680.856	12.12
681.18	11.77
681.504	11.1
681.828	11.14
682.152	11.7
682.475	11.85
682.799	12.04
683.122	11.61
683.446	11.32
683.769	12.11
684.093	11.77
684.416	11.74
684.739	12.58
685.062	11.58
685.386	12.27
685.709	12.24
686.032	11.58
686.355	12.23
686.678	12.25
687.001	12.44
687.324	11.53
687.646	12.15
687.969	12.61
688.292	12.11
688.614	12.5
688.937	12.8
689.26	13.23
689.582	12.57
