Data from 0370_forehead_Reflection__2__148.txt Node

Date: Mon Dec 11 19:13:39 CST 2023
User: ToomeyLab
Spectrometer: FLMS14357
Trigger mode: 0
Integration Time (sec): 1.000000E-2
Scans to average: 100
Electric dark correction enabled: true
Nonlinearity correction enabled: false
Boxcar width: 0
XAxis mode: Wavelengths
Number of Pixels in Spectrum: 2048
>>>>>Begin Spectral Data<<<<<
189.047	-94550
189.435	-94550
189.823	-94550
190.211	76.52
190.599	-19.75
190.987	250.42
191.375	136.96
191.763	184.58
192.151	120.97
192.538	-159.4
192.926	143850
193.314	237.83
193.702	-863.17
194.089	-145.59
194.477	26.94
194.864	-1747.08
195.252	14.24
195.639	129.72
196.027	69.97
196.414	-336.47
196.801	469.25
197.189	-17.28
197.576	54.39
197.963	109.75
198.351	14.14
198.738	18.34
199.125	-24.23
199.512	3.19
199.899	23.27
200.286	23.44
200.673	-119.57
201.06	29.24
201.447	19.6
201.833	19.21
202.22	61.02
202.607	-47.7
202.994	51.74
203.38	-4.21
203.767	64.53
204.154	42.57
204.54	1.7
204.927	16.15
205.313	4.45
205.699	-138.12
206.086	9.56
206.472	14.9
206.858	10.6
207.245	-8.23
207.631	31.45
208.017	16.47
208.403	-1.58
208.789	-23.9
209.175	18.57
209.561	-8.3
209.947	-7.76
210.333	24.53
210.719	80.24
211.105	48.42
211.491	24.82
211.876	15.83
212.262	-0.5
212.648	27.5
213.034	20
213.419	16
213.805	-3.74
214.19	25.93
214.576	18.32
214.961	-0.71
215.346	-18.1
215.732	37.58
216.117	28.57
216.502	40.64
216.888	-6.05
217.273	8.76
217.658	-0.88
218.043	12.27
218.428	7.6
218.813	22.08
219.198	13.15
219.583	6.83
219.968	7.39
220.353	-19.23
220.738	27.98
221.122	25.22
221.507	29.55
221.892	9.68
222.276	15.13
222.661	-7.58
223.046	4
223.43	16.16
223.815	0.1
224.199	12.61
224.583	1.9
224.968	-3.24
225.352	6.31
225.736	7.77
226.121	6.84
226.505	4.2
226.889	8.68
227.273	4.75
227.657	13.04
228.041	7.15
228.425	4.18
228.809	0.15
229.193	3.68
229.577	1.79
229.961	4.07
230.344	3.13
230.728	2.77
231.112	3.11
231.495	3.51
231.879	3.34
232.263	2.86
232.646	1.81
233.03	1.8
233.413	3.06
233.797	4.41
234.18	4.58
234.563	2.48
234.946	4.23
235.33	4.85
235.713	2.16
236.096	4.84
236.479	3.58
236.862	2.96
237.245	2.89
237.628	0.83
238.011	4.26
238.394	3.21
238.777	2.3
239.16	4.86
239.543	4.58
239.925	2.58
240.308	3.89
240.691	4.46
241.073	3.35
241.456	4.61
241.838	6.51
242.221	3.63
242.603	3.59
242.986	2.27
243.368	3.21
243.75	3.54
244.133	3.11
244.515	2.81
244.897	3.13
245.279	3.3
245.661	3.72
246.043	3.32
246.425	3.89
246.807	2.98
247.189	3.21
247.571	3.53
247.953	3.51
248.335	3.27
248.717	3.23
249.098	3.18
249.48	3.28
249.862	3.7
250.243	3.54
250.625	3.46
251.006	2.48
251.388	3.52
251.769	4.02
252.151	4.75
252.532	3.31
252.913	3.4
253.295	4.04
253.676	3.36
254.057	3.4
254.438	3.67
254.819	3.51
255.2	2.21
255.581	2.53
255.962	3.88
256.343	2.97
256.724	3.99
257.105	4.17
257.486	2.63
257.867	3.53
258.247	2.4
258.628	2.96
259.009	4.11
259.389	3.79
259.77	3.47
260.15	2.75
260.531	3.21
260.911	2.89
261.292	2.54
261.672	3.15
262.052	3.35
262.432	3.3
262.813	3.28
263.193	2.84
263.573	3.67
263.953	2.61
264.333	2.44
264.713	3.82
265.093	2.88
265.473	3.67
265.853	2.94
266.233	3.71
266.612	3.26
266.992	4.16
267.372	3.73
267.752	3.26
268.131	2.96
268.511	2.47
268.89	3.36
269.27	3.87
269.649	3.56
270.029	3.71
270.408	2.73
270.787	2.66
271.167	2.31
271.546	2.79
271.925	3.17
272.304	2.41
272.683	2.82
273.062	2.6
273.441	2.65
273.82	2.86
274.199	3.1
274.578	3.06
274.957	3.19
275.336	3.48
275.715	2.97
276.093	3.91
276.472	3.42
276.851	3.73
277.229	3.67
277.608	2.69
277.986	3.63
278.365	2.71
278.743	3.48
279.122	2.79
279.5	3.34
279.878	2.65
280.257	2.69
280.635	3.06
281.013	2.99
281.391	3.3
281.769	2.47
282.147	2.69
282.525	2.42
282.903	3.22
283.281	2.8
283.659	2.74
284.037	2.76
284.415	2.47
284.792	3.27
285.17	3.07
285.548	2.64
285.925	2.82
286.303	3
286.68	3.11
287.058	2.97
287.435	3.09
287.813	3.38
288.19	2.94
288.567	2.93
288.945	2.65
289.322	2.68
289.699	3.02
290.076	2.74
290.453	3.67
290.83	3.58
291.207	3.18
291.584	3.3
291.961	3.29
292.338	2.95
292.715	3.66
293.092	3.37
293.469	3.35
293.845	2.83
294.222	3.33
294.599	2.62
294.975	3.27
295.352	3.22
295.728	2.7
296.105	2.87
296.481	3.02
296.858	3.09
297.234	4
297.61	3.59
297.986	3.81
298.363	3.6
298.739	3.66
299.115	3.29
299.491	3.56
299.867	3.43
300.243	3.65
300.619	3.77
300.995	3.59
301.371	3.39
301.746	3.57
302.122	3.95
302.498	4.12
302.874	4.26
303.249	4.12
303.625	3.7
304	3.98
304.376	3.88
304.751	3.93
305.127	4.09
305.502	3.98
305.878	3.97
306.253	4.43
306.628	4.46
307.003	4.46
307.378	4.09
307.754	4.42
308.129	3.8
308.504	4.13
308.879	3.77
309.254	5.25
309.629	5.15
310.003	4.49
310.378	4.51
310.753	4.59
311.128	5.05
311.502	4.52
311.877	4.68
312.252	4.79
312.626	4.91
313.001	5.27
313.375	5.14
313.75	4.66
314.124	5
314.498	4.35
314.873	5.24
315.247	5.39
315.621	6.63
315.995	5.05
316.369	5.48
316.743	5.77
317.117	5.33
317.491	5.71
317.865	5.14
318.239	5.49
318.613	6.21
318.987	5.16
319.361	6.47
319.734	5.66
320.108	5.51
320.482	5.81
320.855	5.5
321.229	5.7
321.602	5.52
321.976	6.85
322.349	6.15
322.723	6.49
323.096	6.64
323.469	6.7
323.843	6.9
324.216	6.85
324.589	7.02
324.962	6.65
325.335	6.32
325.708	7.03
326.081	7.05
326.454	7.23
326.827	6.63
327.2	6.34
327.573	6.55
327.945	7.06
328.318	7.13
328.691	6.82
329.063	6.99
329.436	7.25
329.809	6.94
330.181	7.36
330.553	7.28
330.926	7.15
331.298	7.98
331.671	7.42
332.043	7.26
332.415	7.19
332.787	8.05
333.159	7.31
333.532	7.78
333.904	7.55
334.276	8.03
334.648	7.93
335.02	7.42
335.391	7.5
335.763	7.41
336.135	8.04
336.507	7.99
336.879	8.6
337.25	7.87
337.622	8.31
337.993	7.7
338.365	7.97
338.736	8.25
339.108	8.23
339.479	8.01
339.851	8.03
340.222	8.47
340.593	8.22
340.964	8.49
341.336	8.09
341.707	8.6
342.078	9.24
342.449	8.16
342.82	8.18
343.191	8.16
343.562	8.66
343.933	8.42
344.303	8.63
344.674	8.99
345.045	8.62
345.416	8.58
345.786	9.2
346.157	8.43
346.527	8.75
346.898	9.04
347.268	9.16
347.639	8.77
348.009	9.22
348.38	8.68
348.75	9.1
349.12	9.17
349.49	9.02
349.861	8.8
350.231	9.21
350.601	9.45
350.971	9.45
351.341	8.76
351.711	9.65
352.081	8.76
352.45	9.83
352.82	8.87
353.19	9.33
353.56	9.02
353.929	9.57
354.299	9.65
354.669	9.35
355.038	9.62
355.408	9.65
355.777	9.66
356.147	9.81
356.516	9.62
356.885	9.78
357.254	10.13
357.624	9.82
357.993	9.37
358.362	9.72
358.731	9.8
359.1	10.04
359.469	9.91
359.838	9.83
360.207	9.95
360.576	9.83
360.945	10.1
361.314	10.27
361.682	10.1
362.051	10.08
362.42	9.99
362.788	10.14
363.157	9.99
363.525	9.83
363.894	10.14
364.262	10.16
364.631	10.31
364.999	10.19
365.367	10.61
365.735	10.36
366.104	10.31
366.472	10.32
366.84	10.5
367.208	10.3
367.576	10.9
367.944	10.74
368.312	10.58
368.68	10.36
369.048	10.45
369.416	10.36
369.783	10.79
370.151	11.13
370.519	11.18
370.886	11
371.254	11.07
371.621	11.16
371.989	11.07
372.356	10.9
372.724	11.08
373.091	11.41
373.458	11.02
373.826	11.12
374.193	10.99
374.56	11.31
374.927	11.5
375.294	11.03
375.661	11.25
376.028	11.51
376.395	11.31
376.762	11.59
377.129	11.47
377.496	11.34
377.863	11.73
378.229	11.71
378.596	11.51
378.963	11.61
379.329	11.51
379.696	11.66
380.062	11.45
380.429	11.69
380.795	12.01
381.161	11.71
381.528	12.11
381.894	11.9
382.26	12
382.626	11.94
382.993	12.01
383.359	11.94
383.725	12.04
384.091	12
384.457	12.13
384.823	12.67
385.188	12.38
385.554	12.37
385.92	12.04
386.286	12.32
386.651	12.27
387.017	12.6
387.383	12.46
387.748	12.67
388.114	12.5
388.479	12.41
388.845	12.45
389.21	12.68
389.575	12.66
389.94	12.75
390.306	12.54
390.671	12.53
391.036	12.75
391.401	12.98
391.766	12.68
392.131	12.83
392.496	13.13
392.861	13.13
393.226	13.17
393.591	12.96
393.956	12.85
394.32	13.01
394.685	13.09
395.05	12.97
395.414	13.08
395.779	13.24
396.143	12.87
396.508	13.03
396.872	13.09
397.236	13.28
397.601	13.11
397.965	13.66
398.329	13.39
398.694	13.36
399.058	13.57
399.422	13.35
399.786	13.3
400.15	13.5
400.514	13.66
400.878	13.84
401.242	13.85
401.605	13.82
401.969	13.65
402.333	13.52
402.697	13.9
403.06	13.87
403.424	13.97
403.787	14
404.151	13.89
404.514	13.8
404.878	14.08
405.241	13.88
405.604	13.62
405.968	13.88
406.331	13.66
406.694	14.03
407.057	13.92
407.42	14.34
407.783	14.07
408.146	14.4
408.509	14.1
408.872	14.2
409.235	14.22
409.598	14.09
409.961	14.41
410.323	14.58
410.686	14.48
411.049	14.59
411.411	14.52
411.774	14.56
412.136	14.4
412.499	14.69
412.861	14.43
413.223	14.87
413.586	14.58
413.948	14.6
414.31	14.83
414.672	14.4
415.035	14.77
415.397	14.83
415.759	14.91
416.121	14.78
416.483	15.05
416.845	14.93
417.206	14.72
417.568	14.99
417.93	14.91
418.292	14.77
418.653	14.75
419.015	14.92
419.377	14.78
419.738	14.9
420.1	14.85
420.461	15.02
420.822	14.82
421.184	14.98
421.545	14.87
421.906	14.98
422.267	14.95
422.629	14.78
422.99	14.94
423.351	14.89
423.712	14.96
424.073	15.11
424.434	15.01
424.795	15.04
425.155	15.11
425.516	15.16
425.877	15.1
426.238	15.13
426.598	15.09
426.959	15.17
427.32	15.33
427.68	15.43
428.041	15.36
428.401	15.43
428.761	15.49
429.122	15.49
429.482	15.55
429.842	15.68
430.202	15.65
430.563	15.79
430.923	15.67
431.283	15.97
431.643	16.13
432.003	16.1
432.363	16.05
432.722	16.08
433.082	15.87
433.442	16.22
433.802	16.02
434.161	16.13
434.521	15.9
434.881	16.03
435.24	16.01
435.6	16.15
435.959	16.11
436.319	16.16
436.678	16.23
437.037	16.22
437.396	16.29
437.756	16.63
438.115	16.71
438.474	16.43
438.833	16.54
439.192	16.6
439.551	16.56
439.91	16.63
440.269	16.56
440.628	16.4
440.987	16.62
441.345	16.44
441.704	16.53
442.063	16.57
442.421	16.48
442.78	16.49
443.138	16.57
443.497	16.59
443.855	16.64
444.214	16.95
444.572	16.85
444.93	16.95
445.288	16.74
445.647	16.95
446.005	16.81
446.363	16.91
446.721	16.91
447.079	16.87
447.437	16.83
447.795	16.79
448.153	16.79
448.51	16.88
448.868	16.74
449.226	16.77
449.584	16.88
449.941	17.06
450.299	17.05
450.656	17.15
451.014	17.25
451.371	17.31
451.729	17.28
452.086	17.6
452.443	17.55
452.801	17.49
453.158	17.49
453.515	17.57
453.872	17.52
454.229	17.52
454.586	17.49
454.943	17.71
455.3	17.66
455.657	17.74
456.014	17.85
456.371	17.87
456.727	17.73
457.084	17.81
457.441	17.83
457.797	18
458.154	18.07
458.51	18.1
458.867	17.81
459.223	17.84
459.58	18.04
459.936	18.13
460.292	18.17
460.648	18.06
461.005	18.05
461.361	17.92
461.717	17.77
462.073	17.82
462.429	17.84
462.785	18.12
463.141	18.11
463.496	18.22
463.852	18.25
464.208	18.32
464.564	18.48
464.919	18.59
465.275	18.46
465.631	18.56
465.986	18.67
466.342	18.67
466.697	18.63
467.052	18.63
467.408	19.02
467.763	18.48
468.118	18.69
468.473	18.85
468.829	18.85
469.184	19.03
469.539	18.76
469.894	18.74
470.249	19.05
470.603	18.93
470.958	18.98
471.313	18.85
471.668	19.2
472.023	19.18
472.377	19.02
472.732	19.18
473.086	19.35
473.441	19.18
473.795	19.2
474.15	19.39
474.504	19.19
474.859	19.28
475.213	19.15
475.567	19.26
475.921	19.27
476.275	19.43
476.63	19.53
476.984	19.46
477.338	19.35
477.692	19.45
478.045	19.51
478.399	19.56
478.753	19.4
479.107	19.44
479.461	19.61
479.814	19.54
480.168	19.51
480.521	19.61
480.875	19.55
481.228	19.54
481.582	19.95
481.935	19.68
482.289	19.78
482.642	19.78
482.995	19.64
483.348	19.53
483.701	19.57
484.055	19.66
484.408	19.47
484.761	19.39
485.114	19.18
485.466	18.82
485.819	18.74
486.172	18.84
486.525	19.04
486.878	19.21
487.23	19.22
487.583	19.45
487.936	19.53
488.288	19.57
488.641	19.46
488.993	19.32
489.345	19.36
489.698	19.16
490.05	19.35
490.402	19.33
490.754	19.53
491.107	19.7
491.459	19.93
491.811	20.07
492.163	20.14
492.515	20.21
492.866	20.02
493.218	19.78
493.57	19.6
493.922	19.66
494.274	19.87
494.625	20.04
494.977	20.33
495.328	20.42
495.68	20.53
496.031	20.78
496.383	20.62
496.734	20.91
497.086	21.03
497.437	21.11
497.788	20.97
498.139	20.75
498.49	20.9
498.842	20.82
499.193	20.75
499.544	20.74
499.894	21.03
500.245	20.91
500.596	21.14
500.947	20.92
501.298	21.19
501.648	21.26
501.999	21.2
502.35	21.32
502.7	21.34
503.051	21.45
503.401	21.51
503.752	21.56
504.102	21.47
504.452	21.53
504.803	21.67
505.153	21.69
505.503	21.6
505.853	21.62
506.203	21.51
506.553	21.73
506.903	21.62
507.253	21.94
507.603	21.86
507.953	21.86
508.303	21.8
508.652	21.79
509.002	21.82
509.352	21.91
509.701	21.89
510.051	21.95
510.4	21.74
510.75	21.75
511.099	21.77
511.449	21.87
511.798	21.94
512.147	21.96
512.496	21.86
512.846	21.97
513.195	22.09
513.544	22.06
513.893	22.04
514.242	22.11
514.591	22.1
514.939	22.18
515.288	22.21
515.637	22.18
515.986	22.24
516.334	22.39
516.683	22.55
517.032	22.52
517.38	22.45
517.729	22.67
518.077	22.61
518.426	22.67
518.774	22.54
519.122	22.5
519.47	22.58
519.819	22.33
520.167	22.22
520.515	22.25
520.863	22.19
521.211	22.4
521.559	22.43
521.907	22.42
522.255	22.52
522.602	22.81
522.95	22.83
523.298	22.73
523.645	23.08
523.993	22.94
524.341	23.11
524.688	22.95
525.036	23.11
525.383	23.1
525.73	23.13
526.078	23.02
526.425	22.97
526.772	22.84
527.119	22.93
527.466	22.76
527.814	22.78
528.161	22.7
528.508	22.89
528.854	22.88
529.201	22.83
529.548	22.78
529.895	22.59
530.242	22.28
530.588	22.27
530.935	22.34
531.282	22.56
531.628	22.64
531.975	22.72
532.321	22.78
532.667	23.11
533.014	23.03
533.36	23.18
533.706	23.24
534.052	23.39
534.399	23.26
534.745	23.15
535.091	22.85
535.437	22.8
535.783	23.04
536.129	23.25
536.474	23.36
536.82	23.49
537.166	23.58
537.512	23.65
537.857	23.81
538.203	23.72
538.549	23.6
538.894	23.59
539.239	23.74
539.585	23.8
539.93	23.82
540.276	24.04
540.621	24.21
540.966	24.24
541.311	24.28
541.656	24.3
542.001	24.27
542.346	24.29
542.691	23.95
543.036	23.6
543.381	23.4
543.726	23.52
544.071	23.73
544.415	23.82
544.76	23.85
545.105	23.96
545.449	24.01
545.794	24.24
546.138	24.44
546.483	24.45
546.827	24.46
547.171	24.44
547.516	24.54
547.86	24.65
548.204	24.73
548.548	24.62
548.892	24.61
549.236	24.58
549.58	24.84
549.924	24.86
550.268	24.84
550.612	25.08
550.956	25.16
551.3	25.29
551.643	25.4
551.987	25.46
552.33	25.65
552.674	25.56
553.017	25.54
553.361	25.38
553.704	25.5
554.048	25.47
554.391	25.38
554.734	25.6
555.077	25.63
555.42	25.63
555.764	25.62
556.107	25.54
556.45	25.9
556.793	25.79
557.135	25.73
557.478	25.91
557.821	25.85
558.164	25.99
558.507	25.99
558.849	25.94
559.192	25.85
559.534	26
559.877	26.01
560.219	26.08
560.562	26.37
560.904	26.07
561.246	26.14
561.589	26.03
561.931	26.41
562.273	26.16
562.615	26.13
562.957	26.35
563.299	26.37
563.641	26.39
563.983	26.56
564.325	26.52
564.667	26.59
565.008	26.6
565.35	26.74
565.692	26.58
566.033	26.53
566.375	26.69
566.716	26.47
567.058	26.52
567.399	26.5
567.741	26.2
568.082	26.38
568.423	26.61
568.764	26.47
569.105	26.43
569.447	26.55
569.788	26.92
570.129	26.71
570.47	26.69
570.811	26.83
571.151	26.7
571.492	27.05
571.833	26.93
572.174	27.06
572.514	26.91
572.855	27.07
573.195	26.97
573.536	26.78
573.876	26.69
574.217	26.95
574.557	26.94
574.898	27.05
575.238	27.21
575.578	27.17
575.918	27.28
576.258	27.27
576.598	27.38
576.938	27.25
577.278	27.08
577.618	27.1
577.958	27.31
578.298	27.33
578.638	27.53
578.977	27.55
579.317	27.6
579.657	27.28
579.996	27.51
580.336	27.51
580.675	27.88
581.014	27.6
581.354	27.85
581.693	28.2
582.032	27.57
582.372	27.94
582.711	28.18
583.05	28.1
583.389	27.92
583.728	28.21
584.067	27.9
584.406	27.85
584.745	28.02
585.083	28.04
585.422	28.14
585.761	28.37
586.1	28.38
586.438	28.05
586.777	28.42
587.115	28
587.454	28.38
587.792	28.15
588.13	28.71
588.469	28.58
588.807	28.43
589.145	28.72
589.483	28.64
589.821	28.37
590.159	28.71
590.497	28.5
590.835	28.63
591.173	28.62
591.511	28.81
591.849	28.66
592.187	28.38
592.524	28.29
592.862	28.54
593.2	28.66
593.537	28.83
593.875	28.73
594.212	28.98
594.55	28.84
594.887	28.8
595.224	28.9
595.561	28.99
595.899	28.95
596.236	28.83
596.573	29.09
596.91	28.72
597.247	28.94
597.584	28.6
597.921	28.83
598.258	28.96
598.594	28.99
598.931	28.75
599.268	28.92
599.604	28.97
599.941	29.54
600.277	28.82
600.614	29.21
600.95	28.96
601.287	29.35
601.623	29.37
601.959	29.41
602.296	29.3
602.632	29.55
602.968	29.19
603.304	29.33
603.64	29.53
603.976	29.79
604.312	29.69
604.648	29.61
604.984	29.8
605.319	29.51
605.655	29.46
605.991	29.56
606.326	29.44
606.662	29.26
606.998	29.19
607.333	29.32
607.668	29.38
608.004	29.23
608.339	29.83
608.674	29.79
609.01	29.91
609.345	30.04
609.68	30.06
610.015	29.97
610.35	29.91
610.685	29.72
611.02	29.98
611.355	29.86
611.689	29.82
612.024	29.75
612.359	29.55
612.694	30.05
613.028	30.1
613.363	29.79
613.697	30.1
614.032	30.25
614.366	30.59
614.7	30.27
615.035	30.3
615.369	30.23
615.703	30.31
616.037	30.19
616.371	30.69
616.705	30.58
617.039	30.65
617.373	30.56
617.707	30.74
618.041	30.56
618.375	30.94
618.709	30.56
619.042	30.99
619.376	30.56
619.71	30.58
620.043	30.59
620.377	30.77
620.71	30.98
621.043	31.23
621.377	30.49
621.71	31.28
622.043	30.98
622.376	30.9
622.709	30.86
623.043	31.6
623.376	31.11
623.709	31.19
624.041	30.93
624.374	31.35
624.707	31.21
625.04	31.46
625.373	31.02
625.705	31.46
626.038	30.89
626.37	31.45
626.703	31.52
627.035	31.17
627.368	31.35
627.7	30.94
628.032	31.1
628.365	31.05
628.697	30.89
629.029	31.32
629.361	30.89
629.693	31.35
630.025	31.38
630.357	31.21
630.689	31.14
631.021	31.82
631.353	31.33
631.684	31.48
632.016	31.65
632.348	31.36
632.679	31.23
633.011	31.31
633.342	31.69
633.674	31.74
634.005	31.81
634.336	31.94
634.668	31.93
634.999	32.09
635.33	31.82
635.661	31.49
635.992	31.84
636.323	31.76
636.654	32.22
636.985	32.13
637.316	31.42
637.647	32.23
637.977	31.82
638.308	32.2
638.639	31.8
638.969	31.98
639.3	31.99
639.63	32.02
639.961	32.2
640.291	32.29
640.622	32.29
640.952	32.46
641.282	32.13
641.612	32.87
641.943	32.38
642.273	31.89
642.603	32.55
642.933	32.42
643.263	32.31
643.592	32.63
643.922	32.6
644.252	32.14
644.582	32.39
644.911	32.63
645.241	32.69
645.571	32.94
645.9	32.05
646.23	32.47
646.559	32.88
646.888	32.83
647.218	33.2
647.547	32.66
647.876	32.96
648.205	32.76
648.534	32.72
648.863	32.55
649.192	32.84
649.521	33.43
649.85	33.06
650.179	32.86
650.508	32.8
650.837	32.99
651.165	33.35
651.494	33.37
651.822	32.85
652.151	33.25
652.479	33.46
652.808	33.03
653.136	33.54
653.465	32.92
653.793	32.97
654.121	33.34
654.449	33.13
654.777	33.01
655.105	33.24
655.433	33.67
655.761	33.49
656.089	33.26
656.417	33.6
656.745	33.57
657.073	33.44
657.4	33.31
657.728	33.4
658.056	33.84
658.383	33.18
658.711	32.85
659.038	33.02
659.365	33.3
659.693	33.75
660.02	33.33
660.347	33.6
660.674	33.55
661.001	33.37
661.329	33.39
661.656	33.33
661.982	33.22
662.309	33.6
662.636	33.53
662.963	33.67
663.29	33.6
663.616	33.47
663.943	33.75
664.27	33.87
664.596	33.87
664.923	34.15
665.249	34.22
665.576	34.26
665.902	33.58
666.228	33.9
666.554	34.14
666.881	33.98
667.207	33.98
667.533	34.06
667.859	34.74
668.185	34.48
668.511	33.88
668.837	34
669.162	34.13
669.488	34.94
669.814	34.67
670.139	34.1
670.465	34.72
670.791	34.95
671.116	34.25
671.442	34.11
671.767	34.37
672.092	33.85
