Data from 0370_chest_Reflection__1__137.txt Node

Date: Mon Dec 11 19:10:32 CST 2023
User: ToomeyLab
Spectrometer: FLMS14357
Trigger mode: 0
Integration Time (sec): 1.000000E-2
Scans to average: 100
Electric dark correction enabled: true
Nonlinearity correction enabled: false
Boxcar width: 0
XAxis mode: Wavelengths
Number of Pixels in Spectrum: 2048
>>>>>Begin Spectral Data<<<<<
189.047	-15350
189.435	-15350
189.823	-15350
190.211	19.72
190.599	150.26
190.987	106.1
191.375	12.26
191.763	102.79
192.151	106.41
192.538	-107.08
192.926	219050
193.314	46.2
193.702	-592.7
194.089	20.43
194.477	195.05
194.864	-100.36
195.252	109.22
195.639	-8.92
196.027	-42.75
196.414	-318.42
196.801	599.79
197.189	-55.02
197.576	44.02
197.963	102.3
198.351	-35.3
198.738	30.09
199.125	-44.33
199.512	35.32
199.899	-7.27
200.286	-6.66
200.673	-59.6
201.06	40.37
201.447	36.94
201.833	31.87
202.22	29.68
202.607	2.95
202.994	19.33
203.38	-55.05
203.767	43.81
204.154	54.61
204.54	-42.1
204.927	-44.89
205.313	-18.17
205.699	-188.52
206.086	7.12
206.472	42.94
206.858	44.94
207.245	28.7
207.631	0.37
208.017	-3.07
208.403	15.65
208.789	-82.08
209.175	13.52
209.561	4.8
209.947	12.91
210.333	19.56
210.719	1.89
211.105	38.03
211.491	1.11
211.876	31.64
212.262	16.06
212.648	10.42
213.034	-3.37
213.419	-37.46
213.805	10.58
214.19	10.68
214.576	-19.55
214.961	0.74
215.346	-26.46
215.732	10.21
216.117	-9.38
216.502	18.21
216.888	3.88
217.273	42
217.658	4.24
218.043	-9.99
218.428	-1.12
218.813	13.25
219.198	33.58
219.583	14.18
219.968	-9.95
220.353	-8.64
220.738	24.2
221.122	6.24
221.507	29.61
221.892	1.71
222.276	-9.43
222.661	-16.18
223.046	9.29
223.43	14.95
223.815	-9.43
224.199	0.2
224.583	0.27
224.968	-1.72
225.352	7.84
225.736	9.86
226.121	9.37
226.505	-3.27
226.889	2.41
227.273	3.45
227.657	12.82
228.041	5.29
228.425	-0.79
228.809	-2.24
229.193	4.95
229.577	4.89
229.961	2.38
230.344	2.95
230.728	2.87
231.112	3.23
231.495	4.01
231.879	3.9
232.263	1.67
232.646	3.34
233.03	3.46
233.413	1.65
233.797	5.56
234.18	2.14
234.563	4.58
234.946	1.77
235.33	4.88
235.713	3.24
236.096	3.42
236.479	4.21
236.862	4.47
237.245	0.16
237.628	1.85
238.011	1.98
238.394	4
238.777	3.37
239.16	4.71
239.543	3.16
239.925	3.59
240.308	5.09
240.691	3.01
241.073	5.16
241.456	4.39
241.838	5.49
242.221	3.81
242.603	3.68
242.986	3.66
243.368	4.08
243.75	3.84
244.133	3.92
244.515	3.95
244.897	3.77
245.279	4.16
245.661	3.72
246.043	3.62
246.425	3.84
246.807	4.84
247.189	3.72
247.571	4.45
247.953	3.85
248.335	3.89
248.717	4.13
249.098	3.86
249.48	3.92
249.862	4.54
250.243	4.28
250.625	4.29
251.006	3.61
251.388	4.43
251.769	4.71
252.151	4.72
252.532	5.21
252.913	4.16
253.295	4.08
253.676	4.36
254.057	4.37
254.438	4.45
254.819	3.57
255.2	3.66
255.581	2.16
255.962	4.65
256.343	2.78
256.724	3.81
257.105	3
257.486	4.23
257.867	4.41
258.247	3.54
258.628	4.64
259.009	4.54
259.389	4.48
259.77	3.71
260.15	3.4
260.531	4.02
260.911	3.23
261.292	3.52
261.672	3.75
262.052	4
262.432	3.7
262.813	4.08
263.193	3.98
263.573	3.83
263.953	3.72
264.333	3.43
264.713	4.03
265.093	3.98
265.473	3.88
265.853	3.29
266.233	3.06
266.612	3.9
266.992	4.02
267.372	4.56
267.752	3.88
268.131	3.79
268.511	3.08
268.89	3.73
269.27	4.08
269.649	4.17
270.029	3.53
270.408	3.35
270.787	3.26
271.167	3.03
271.546	3.43
271.925	3.02
272.304	3.79
272.683	3.7
273.062	3.01
273.441	3.68
273.82	3.36
274.199	3.31
274.578	3.59
274.957	3.92
275.336	3.32
275.715	3.6
276.093	3.84
276.472	3.86
276.851	4.04
277.229	3.97
277.608	3.52
277.986	3.92
278.365	3.2
278.743	3.13
279.122	3.2
279.5	3.67
279.878	3.82
280.257	3.34
280.635	3.97
281.013	3
281.391	4.3
281.769	3.56
282.147	3.65
282.525	3.3
282.903	3.23
283.281	3.51
283.659	2.95
284.037	3.08
284.415	3.44
284.792	3.45
285.17	3.84
285.548	3.68
285.925	2.99
286.303	3.77
286.68	3.33
287.058	3.27
287.435	3.92
287.813	3.89
288.19	3.48
288.567	3.48
288.945	3.54
289.322	3.34
289.699	3.63
290.076	3.29
290.453	3.76
290.83	4.12
291.207	3.71
291.584	3.75
291.961	3.59
292.338	3.61
292.715	4.39
293.092	3.54
293.469	4
293.845	4.26
294.222	4.26
294.599	3.58
294.975	4.01
295.352	3.65
295.728	4.22
296.105	3.67
296.481	4.16
296.858	4.31
297.234	4.66
297.61	4.61
297.986	4.67
298.363	4.27
298.739	4.38
299.115	4.3
299.491	4.53
299.867	4.37
300.243	4.25
300.619	4.34
300.995	4.6
301.371	4.55
301.746	4.58
302.122	4.7
302.498	4.61
302.874	4.24
303.249	4.78
303.625	4.76
304	4.64
304.376	4.19
304.751	4.53
305.127	4.88
305.502	5.13
305.878	4.67
306.253	5.5
306.628	5.17
307.003	5.18
307.378	4.86
307.754	4.98
308.129	4.73
308.504	5.03
308.879	4.81
309.254	5.36
309.629	5.27
310.003	4.98
310.378	4.9
310.753	5
311.128	5.21
311.502	4.52
311.877	5.18
312.252	5.23
312.626	5
313.001	5.37
313.375	4.83
313.75	4.79
314.124	5.07
314.498	4.88
314.873	4.58
315.247	5.24
315.621	5.64
315.995	5.57
316.369	5.06
316.743	5.5
317.117	5.31
317.491	5.6
317.865	4.91
318.239	5.88
318.613	5.25
318.987	5.65
319.361	6.02
319.734	5.53
320.108	4.75
320.482	5.56
320.855	5.23
321.229	4.82
321.602	5.68
321.976	6.5
322.349	5.73
322.723	5.02
323.096	5.98
323.469	6.29
323.843	5.53
324.216	6.7
324.589	5.84
324.962	5.06
325.335	5.55
325.708	5.82
326.081	5.85
326.454	5.68
326.827	5.5
327.2	5.44
327.573	5.52
327.945	6.05
328.318	5.63
328.691	5.73
329.063	5.74
329.436	5.49
329.809	5.78
330.181	6.34
330.553	5.67
330.926	5.55
331.298	5.35
331.671	5.89
332.043	6.06
332.415	5.23
332.787	6.27
333.159	6.44
333.532	5.75
333.904	6.03
334.276	5.58
334.648	5.82
335.02	5.28
335.391	5.8
335.763	5.55
336.135	5.51
336.507	5.92
336.879	5.95
337.25	5.9
337.622	5.18
337.993	5.92
338.365	6.06
338.736	5.93
339.108	6.23
339.479	5.74
339.851	5.63
340.222	5.39
340.593	5.15
340.964	5.75
341.336	5.77
341.707	5.51
342.078	5.87
342.449	5.82
342.82	5.25
343.191	5.42
343.562	6.09
343.933	5.31
344.303	5.65
344.674	5.97
345.045	6.02
345.416	5.42
345.786	6.12
346.157	5.86
346.527	5.61
346.898	5.88
347.268	5.71
347.639	5.91
348.009	5.66
348.38	5.16
348.75	5.77
349.12	6.15
349.49	5.68
349.861	5.46
350.231	5.47
350.601	5.94
350.971	6.03
351.341	5.4
351.711	5.78
352.081	5.81
352.45	5.52
352.82	5.1
353.19	6.07
353.56	5.45
353.929	5.87
354.299	5.78
354.669	5.81
355.038	6.15
355.408	5.65
355.777	6.23
356.147	5.98
356.516	5.48
356.885	5.69
357.254	5.94
357.624	6.05
357.993	5.37
358.362	5.85
358.731	5.44
359.1	6.13
359.469	5.72
359.838	5.71
360.207	5.82
360.576	5.64
360.945	6.13
361.314	6.22
361.682	5.7
362.051	5.47
362.42	5.69
362.788	5.52
363.157	5.94
363.525	5.69
363.894	5.59
364.262	5.81
364.631	5.84
364.999	5.59
365.367	5.87
365.735	5.74
366.104	5.51
366.472	5.8
366.84	5.44
367.208	5.73
367.576	6.31
367.944	5.79
368.312	6.09
368.68	5.82
369.048	5.82
369.416	5.59
369.783	5.87
370.151	6.1
370.519	6.34
370.886	5.49
371.254	5.95
371.621	6.01
371.989	6.18
372.356	5.98
372.724	6.45
373.091	6.22
373.458	5.91
373.826	5.89
374.193	5.88
374.56	5.86
374.927	6.13
375.294	5.95
375.661	6.2
376.028	6.15
376.395	5.95
376.762	6.04
377.129	6.29
377.496	5.96
377.863	6.02
378.229	5.92
378.596	5.88
378.963	6.07
379.329	5.85
379.696	5.8
380.062	5.73
380.429	5.71
380.795	6.29
381.161	6.05
381.528	6.04
381.894	6.06
382.26	5.93
382.626	6.06
382.993	5.95
383.359	6.2
383.725	5.76
384.091	5.96
384.457	5.79
384.823	6.2
385.188	5.95
385.554	5.79
385.92	5.94
386.286	6
386.651	5.92
387.017	5.91
387.383	5.99
387.748	6.03
388.114	5.94
388.479	5.91
388.845	5.74
389.21	6.2
389.575	6.2
389.94	6
390.306	6.17
390.671	6.15
391.036	6.3
391.401	6.38
391.766	5.96
392.131	6.06
392.496	6.22
392.861	6.37
393.226	6.02
393.591	6.13
393.956	6.02
394.32	6.08
394.685	6.18
395.05	6.11
395.414	6.01
395.779	5.94
396.143	5.99
396.508	6.15
396.872	6.22
397.236	6.14
397.601	6.02
397.965	6.1
398.329	5.98
398.694	6.21
399.058	6.16
399.422	6.3
399.786	5.97
400.15	5.95
400.514	6.47
400.878	5.96
401.242	6
401.605	6.3
401.969	6.21
402.333	6.13
402.697	6.17
403.06	5.95
403.424	6.24
403.787	6.48
404.151	5.85
404.514	6.04
404.878	6.29
405.241	6.04
405.604	6.13
405.968	6.3
406.331	5.86
406.694	6.17
407.057	5.95
407.42	6.28
407.783	6.02
408.146	6.19
408.509	6.22
408.872	5.88
409.235	6.25
409.598	6.17
409.961	6.12
410.323	6.32
410.686	6.28
411.049	6.34
411.411	6.13
411.774	6.29
412.136	6.25
412.499	6.4
412.861	6.1
413.223	6.15
413.586	6.41
413.948	6.18
414.31	6.15
414.672	6.08
415.035	6.28
415.397	6.23
415.759	6.12
416.121	6.34
416.483	6.24
416.845	6.35
417.206	6.22
417.568	6.36
417.93	6.28
418.292	6.34
418.653	6.12
419.015	6.14
419.377	6.31
419.738	6.33
420.1	6.23
420.461	6.18
420.822	6.18
421.184	6.13
421.545	6.04
421.906	6.17
422.267	6.19
422.629	6.13
422.99	6.16
423.351	6.1
423.712	6.09
424.073	6.04
424.434	6.12
424.795	6.27
425.155	6.19
425.516	6.12
425.877	6.09
426.238	6.09
426.598	6.14
426.959	6.14
427.32	6.33
427.68	6.32
428.041	6.09
428.401	6.17
428.761	6.4
429.122	6.27
429.482	6.27
429.842	6.48
430.202	6.38
430.563	6.24
430.923	6.33
431.283	6.4
431.643	6.59
432.003	6.49
432.363	6.51
432.722	6.48
433.082	6.4
433.442	6.45
433.802	6.32
434.161	6.69
434.521	6.27
434.881	6.45
435.24	6.47
435.6	6.47
435.959	6.32
436.319	6.25
436.678	6.41
437.037	6.39
437.396	6.52
437.756	6.56
438.115	6.58
438.474	6.57
438.833	6.41
439.192	6.38
439.551	6.51
439.91	6.44
440.269	6.6
440.628	6.34
440.987	6.62
441.345	6.49
441.704	6.51
442.063	6.44
442.421	6.4
442.78	6.37
443.138	6.46
443.497	6.37
443.855	6.42
444.214	6.64
444.572	6.51
444.93	6.49
445.288	6.69
445.647	6.76
446.005	6.36
446.363	6.36
446.721	6.46
447.079	6.4
447.437	6.45
447.795	6.48
448.153	6.5
448.51	6.42
448.868	6.34
449.226	6.44
449.584	6.47
449.941	6.5
450.299	6.55
450.656	6.44
451.014	6.64
451.371	6.49
451.729	6.59
452.086	6.51
452.443	6.76
452.801	6.53
453.158	6.61
453.515	6.62
453.872	6.78
454.229	6.61
454.586	6.54
454.943	6.75
455.3	6.77
455.657	6.8
456.014	6.68
456.371	6.72
456.727	6.7
457.084	6.62
457.441	6.95
457.797	6.68
458.154	6.81
458.51	6.94
458.867	6.51
459.223	6.6
459.58	6.61
459.936	6.73
460.292	6.86
460.648	6.72
461.005	6.67
461.361	6.65
461.717	6.59
462.073	6.65
462.429	6.6
462.785	6.57
463.141	6.69
463.496	6.81
463.852	6.74
464.208	6.63
464.564	6.72
464.919	6.9
465.275	6.78
465.631	6.74
465.986	6.95
466.342	6.71
466.697	6.75
467.052	6.81
467.408	6.98
467.763	6.77
468.118	6.82
468.473	6.7
468.829	6.99
469.184	7.04
469.539	7.04
469.894	6.67
470.249	6.77
470.603	6.88
470.958	6.97
471.313	6.83
471.668	6.98
472.023	6.93
472.377	6.9
472.732	7.07
473.086	7.11
473.441	6.95
473.795	7
474.15	7.09
474.504	6.75
474.859	6.92
475.213	7.04
475.567	7.03
475.921	7.09
476.275	6.76
476.63	6.86
476.984	6.93
477.338	6.84
477.692	7
478.045	6.94
478.399	6.83
478.753	6.77
479.107	6.89
479.461	6.93
479.814	6.96
480.168	6.99
480.521	7.07
480.875	6.94
481.228	6.93
481.582	7.2
481.935	7.14
482.289	7.08
482.642	7.02
482.995	7.07
483.348	6.95
483.701	6.97
484.055	6.89
484.408	6.86
484.761	6.91
485.114	6.86
485.466	6.69
485.819	6.62
486.172	6.63
486.525	6.67
486.878	6.78
487.23	6.83
487.583	6.87
487.936	6.89
488.288	6.91
488.641	6.91
488.993	6.82
489.345	6.8
489.698	6.83
490.05	6.82
490.402	6.86
490.754	6.92
491.107	6.85
491.459	6.97
491.811	7.08
492.163	7.04
492.515	7.18
492.866	7.03
493.218	6.86
493.57	6.9
493.922	6.9
494.274	6.98
494.625	7.06
494.977	7.22
495.328	7.24
495.68	7.3
496.031	7.17
496.383	7.14
496.734	7.41
497.086	7.27
497.437	7.22
497.788	7.31
498.139	7.18
498.49	7.26
498.842	7.26
499.193	7.27
499.544	7.24
499.894	7.26
500.245	7.17
500.596	7.45
500.947	7.25
501.298	7.29
501.648	7.41
501.999	7.32
502.35	7.42
502.7	7.44
503.051	7.32
503.401	7.41
503.752	7.35
504.102	7.33
504.452	7.4
504.803	7.63
505.153	7.49
505.503	7.43
505.853	7.53
506.203	7.46
506.553	7.48
506.903	7.39
507.253	7.61
507.603	7.43
507.953	7.54
508.303	7.51
508.652	7.46
509.002	7.67
509.352	7.65
509.701	7.43
510.051	7.43
510.4	7.42
510.75	7.62
511.099	7.47
511.449	7.55
511.798	7.43
512.147	7.6
512.496	7.59
512.846	7.52
513.195	7.63
513.544	7.57
513.893	7.64
514.242	7.69
514.591	7.54
514.939	7.48
515.288	7.64
515.637	7.58
515.986	7.68
516.334	7.79
516.683	7.75
517.032	7.78
517.38	7.71
517.729	7.7
518.077	7.77
518.426	7.89
518.774	7.79
519.122	7.69
519.47	7.64
519.819	7.64
520.167	7.49
520.515	7.55
520.863	7.61
521.211	7.67
521.559	7.69
521.907	7.73
522.255	7.75
522.602	7.78
522.95	7.89
523.298	7.8
523.645	7.91
523.993	7.93
524.341	7.97
524.688	7.87
525.036	7.92
525.383	7.86
525.73	8.01
526.078	7.96
526.425	7.8
526.772	7.9
527.119	7.86
527.466	7.78
527.814	7.83
528.161	7.71
528.508	7.79
528.854	7.83
529.201	7.79
529.548	7.82
529.895	7.73
530.242	7.68
530.588	7.64
530.935	7.68
531.282	7.73
531.628	7.76
531.975	7.8
532.321	7.84
532.667	7.87
533.014	7.94
533.36	7.93
533.706	8.02
534.052	8.04
534.399	7.99
534.745	7.91
535.091	7.83
535.437	7.83
535.783	7.9
536.129	7.98
536.474	8.08
536.82	8.09
537.166	8.11
537.512	8.13
537.857	8.23
538.203	8.22
538.549	8.14
538.894	8.17
539.239	8.17
539.585	8.21
539.93	8.13
540.276	8.24
540.621	8.33
540.966	8.46
541.311	8.4
541.656	8.36
542.001	8.44
542.346	8.29
542.691	8.22
543.036	8.13
543.381	8.06
543.726	8.14
544.071	8.12
544.415	8.23
544.76	8.2
545.105	8.33
545.449	8.31
545.794	8.39
546.138	8.34
546.483	8.45
546.827	8.51
547.171	8.4
547.516	8.56
547.86	8.66
548.204	8.49
548.548	8.53
548.892	8.39
549.236	8.53
549.58	8.65
549.924	8.76
550.268	8.65
550.612	8.55
550.956	8.77
551.3	8.76
551.643	8.77
551.987	8.89
552.33	8.81
552.674	9.01
553.017	8.88
553.361	8.88
553.704	8.7
554.048	8.78
554.391	8.84
554.734	8.8
555.077	8.98
555.42	8.92
555.764	8.98
556.107	9
556.45	8.94
556.793	8.86
557.135	8.93
557.478	8.92
557.821	8.94
558.164	9.18
558.507	9.02
558.849	9.13
559.192	9.23
559.534	8.9
559.877	9.02
560.219	9.06
560.562	9.19
560.904	9.16
561.246	9.32
561.589	9.29
561.931	9.24
562.273	9.2
562.615	9.31
562.957	9.31
563.299	9.31
563.641	9.21
563.983	9.41
564.325	9.47
564.667	9.17
565.008	9.48
565.35	9.61
565.692	9.42
566.033	9.21
566.375	9.57
566.716	9.68
567.058	9.28
567.399	9.53
567.741	9.24
568.082	9.31
568.423	9.42
568.764	9.55
569.105	9.52
569.447	9.68
569.788	9.53
570.129	9.4
570.47	9.41
570.811	9.43
571.151	9.43
571.492	9.62
571.833	9.56
572.174	9.76
572.514	9.64
572.855	9.4
573.195	9.88
573.536	9.63
573.876	9.53
574.217	9.65
574.557	9.54
574.898	9.74
575.238	9.74
575.578	9.84
575.918	9.74
576.258	9.74
576.598	9.88
576.938	9.79
577.278	9.79
577.618	9.76
577.958	9.83
578.298	10.07
578.638	9.92
578.977	10.01
579.317	10.03
579.657	9.8
579.996	9.93
580.336	10
580.675	10.28
581.014	9.99
581.354	9.96
581.693	10.27
582.032	9.79
582.372	10.31
582.711	10.17
583.05	10.18
583.389	10.21
583.728	10.36
584.067	10.11
584.406	10.27
584.745	10.23
585.083	10.39
585.422	10.45
585.761	10.45
586.1	10.31
586.438	10.14
586.777	10.26
587.115	10.09
587.454	10.3
587.792	10.53
588.13	10.68
588.469	10.59
588.807	10.4
589.145	10.68
589.483	10.46
589.821	10.61
590.159	10.58
590.497	10.79
590.835	10.78
591.173	10.51
591.511	10.75
591.849	10.65
592.187	10.57
592.524	10.51
592.862	10.61
593.2	10.4
593.537	10.83
593.875	10.85
594.212	10.81
594.55	10.67
594.887	10.84
595.224	11.03
595.561	11.01
595.899	10.7
596.236	10.77
596.573	10.74
596.91	10.66
597.247	10.86
597.584	10.78
597.921	10.88
598.258	10.82
598.594	10.91
598.931	10.81
599.268	10.95
599.604	10.93
599.941	11.13
600.277	10.94
600.614	11.3
600.95	10.92
601.287	11.12
601.623	11.26
601.959	11.06
602.296	11.15
602.632	11.31
602.968	10.72
603.304	11.11
603.64	11.1
603.976	11.24
604.312	11.15
604.648	11.2
604.984	11.44
605.319	11.29
605.655	11.31
605.991	11.27
606.326	11.37
606.662	11.14
606.998	11.17
607.333	11.33
607.668	11.44
608.004	11.18
608.339	11.59
608.674	11.61
609.01	11.51
609.345	11.37
609.68	11.42
610.015	11.47
610.35	11.67
610.685	11.52
611.02	11.44
611.355	11.73
611.689	11.7
612.024	11.76
612.359	11.49
612.694	11.81
613.028	11.65
613.363	11.78
613.697	11.67
614.032	11.7
614.366	11.86
614.7	11.39
615.035	12.18
615.369	11.69
615.703	11.82
616.037	12
616.371	11.97
616.705	11.98
617.039	12.08
617.373	11.64
617.707	11.89
618.041	11.95
618.375	12.11
618.709	11.8
619.042	12.08
619.376	12.06
619.71	11.86
620.043	11.78
620.377	11.91
620.71	12.17
621.043	12.12
621.377	11.59
621.71	12.11
622.043	12.23
622.376	12.33
622.709	12.45
623.043	12.42
623.376	12.17
623.709	12.69
624.041	12.14
624.374	12.26
624.707	12.38
625.04	12.72
625.373	12.44
625.705	12.56
626.038	12.38
626.37	12.54
626.703	12.77
627.035	12.61
627.368	12.51
627.7	12.35
628.032	12.42
628.365	12.57
628.697	12.45
629.029	12.69
629.361	12.37
629.693	12.27
630.025	12.57
630.357	12.38
630.689	12.23
631.021	12.51
631.353	12.59
631.684	12.7
632.016	12.66
632.348	13.14
632.679	12.93
633.011	12.86
633.342	12.85
633.674	13.2
634.005	13.02
634.336	13
634.668	12.8
634.999	13.09
635.33	12.54
635.661	12.74
635.992	13.21
636.323	13.15
636.654	13.11
636.985	12.92
637.316	13.2
637.647	13.14
637.977	13.32
638.308	12.97
638.639	12.95
638.969	13.07
639.3	13.01
639.63	13.18
639.961	13.32
640.291	13.31
640.622	13.01
640.952	13.33
641.282	12.84
641.612	13.74
641.943	13.46
642.273	12.8
642.603	13.42
642.933	12.92
643.263	13.26
643.592	13.45
643.922	13.62
644.252	13.17
644.582	13.4
644.911	13.61
645.241	13.49
645.571	13.88
645.9	13.72
646.23	13.65
646.559	13.65
646.888	13.32
647.218	13.66
647.547	13.24
647.876	14.01
648.205	13.45
648.534	13.41
648.863	13.94
649.192	13.73
649.521	13.6
649.85	13.83
650.179	13.73
650.508	13.89
650.837	13.46
651.165	13.99
651.494	13.65
651.822	13.94
652.151	14.06
652.479	14.04
652.808	14.09
653.136	13.8
653.465	14.05
653.793	14.06
654.121	14.18
654.449	13.98
654.777	13.88
655.105	13.68
655.433	14.35
655.761	13.76
656.089	14.06
656.417	14.28
656.745	14.37
657.073	14.35
657.4	13.96
657.728	14.26
658.056	14.49
658.383	14.04
658.711	14.2
659.038	14.19
659.365	14.41
659.693	14.56
660.02	13.76
660.347	14.46
660.674	14.27
661.001	14.15
661.329	14.21
661.656	14.44
661.982	14.12
662.309	14.41
662.636	14.07
662.963	14.55
663.29	14.65
663.616	14.3
663.943	14.46
664.27	14.66
664.596	14.94
664.923	14.45
665.249	15.09
665.576	14.25
665.902	14.7
666.228	14.58
666.554	14.77
666.881	14.36
667.207	14.71
667.533	14.81
667.859	14.65
668.185	14.85
668.511	14.79
668.837	14.73
669.162	15
669.488	14.87
669.814	13.99
670.139	14.61
670.465	14.96
670.791	14.81
671.116	15.03
671.442	15.24
671.767	14.62
672.092	15.18
672.418	15.33
672.743	14.29
673.068	15.07
673.393	14.78
673.718	15.18
674.043	15.86
674.368	15.29
674.693	14.92
675.018	15.37
675.343	15.16
675.667	15.2
675.992	15.49
676.317	14.86
676.641	15.41
676.966	15.78
677.29	14.62
677.615	15.63
677.939	15.13
678.264	15.12
678.588	15.11
678.912	15.52
679.236	15.26
679.56	15.39
679.885	15.42
680.209	15.86
680.532	15.41
680.856	15.75
681.18	15.1
681.504	15
681.828	14.64
682.152	15.04
682.475	15.49
682.799	15.84
683.122	15.69
683.446	14.97
683.769	15.74
684.093	15.28
684.416	15.69
684.739	15.71
685.062	15.65
685.386	15.42
