Data from 0370_crown_Reflection__3__144.txt Node

Date: Mon Dec 11 19:12:35 CST 2023
User: ToomeyLab
Spectrometer: FLMS14357
Trigger mode: 0
Integration Time (sec): 1.000000E-2
Scans to average: 100
Electric dark correction enabled: true
Nonlinearity correction enabled: false
Boxcar width: 0
XAxis mode: Wavelengths
Number of Pixels in Spectrum: 2048
>>>>>Begin Spectral Data<<<<<
189.047	-63900
189.435	-63900
189.823	-63900
190.211	64.41
190.599	106.86
190.987	21.58
191.375	225.43
191.763	170.15
192.151	78.83
192.538	-108.25
192.926	100900
193.314	772.24
193.702	-1377.58
194.089	-129.94
194.477	31.97
194.864	-2767.15
195.252	64.95
195.639	-51.01
196.027	36.89
196.414	-525.56
196.801	525.1
197.189	-255.56
197.576	126.79
197.963	90.42
198.351	19.15
198.738	7.92
199.125	-256.28
199.512	-8.09
199.899	8.23
200.286	24.19
200.673	-109.42
201.06	34.48
201.447	42.32
201.833	30.75
202.22	19.49
202.607	-15.51
202.994	-53.26
203.38	-6.65
203.767	52.91
204.154	56.68
204.54	-53.21
204.927	-80.38
205.313	43.7
205.699	15.03
206.086	-52.7
206.472	44.11
206.858	7.43
207.245	-3.09
207.631	34.69
208.017	22.95
208.403	28.35
208.789	5.79
209.175	9.65
209.561	-13.32
209.947	-7.97
210.333	6.56
210.719	8.16
211.105	8.87
211.491	28.15
211.876	23.75
212.262	39.6
212.648	33.88
213.034	-7.93
213.419	4.99
213.805	-10.21
214.19	15.13
214.576	3.16
214.961	6.5
215.346	-9.01
215.732	4.71
216.117	-0.28
216.502	8.37
216.888	5.84
217.273	19.17
217.658	5.91
218.043	21.68
218.428	32.22
218.813	16.95
219.198	16.14
219.583	6.94
219.968	1.72
220.353	-37.02
220.738	31.52
221.122	8.29
221.507	36.13
221.892	14.8
222.276	1.27
222.661	-10.47
223.046	6.14
223.43	14.68
223.815	-2.08
224.199	3.05
224.583	2.1
224.968	9.74
225.352	17.4
225.736	10.2
226.121	0.88
226.505	6.37
226.889	14.04
227.273	5.76
227.657	12.79
228.041	2.19
228.425	8.11
228.809	3.13
229.193	6.43
229.577	5.68
229.961	5.78
230.344	7.48
230.728	5.9
231.112	6.12
231.495	7.55
231.879	6.14
232.263	5.27
232.646	5.76
233.03	6.67
233.413	5.75
233.797	7.82
234.18	5.5
234.563	3.56
234.946	7.2
235.33	8.38
235.713	5.62
236.096	7.09
236.479	6.96
236.862	6.59
237.245	5.87
237.628	7.4
238.011	4.86
238.394	6.04
238.777	5.75
239.16	6.85
239.543	6.65
239.925	4.59
240.308	7.33
240.691	7.37
241.073	7.31
241.456	7
241.838	9.15
242.221	6.36
242.603	5.57
242.986	5.87
243.368	5.98
243.75	6.06
244.133	6.72
244.515	6.52
244.897	6.46
245.279	6.8
245.661	6.11
246.043	6.53
246.425	6.11
246.807	7.04
247.189	7.76
247.571	6.79
247.953	6.28
248.335	6.53
248.717	6.65
249.098	6.29
249.48	6.57
249.862	6.96
250.243	6.79
250.625	6.7
251.006	6.59
251.388	6.38
251.769	6.94
252.151	7.37
252.532	7.08
252.913	7.32
253.295	6.67
253.676	6.54
254.057	6.64
254.438	7.22
254.819	6.31
255.2	4.82
255.581	5.2
255.962	5.2
256.343	5.98
256.724	6.91
257.105	6.58
257.486	5.26
257.867	8.26
258.247	5.54
258.628	6.26
259.009	6.94
259.389	6.82
259.77	6.39
260.15	5.41
260.531	6.51
260.911	5.2
261.292	5.95
261.672	6.13
262.052	5.92
262.432	6.03
262.813	6.15
263.193	5.6
263.573	6.1
263.953	5.89
264.333	5.64
264.713	6.6
265.093	5.37
265.473	6.58
265.853	5.78
266.233	5.55
266.612	6.37
266.992	5.93
267.372	6.2
267.752	6.35
268.131	5.59
268.511	5.25
268.89	5.77
269.27	6.36
269.649	6.18
270.029	5.94
270.408	5.7
270.787	4.99
271.167	5.16
271.546	5.59
271.925	5.83
272.304	5.59
272.683	5.41
273.062	5.51
273.441	5.47
273.82	5.62
274.199	5.63
274.578	5.87
274.957	5.83
275.336	5.69
275.715	5.67
276.093	6.19
276.472	6.09
276.851	5.88
277.229	5.83
277.608	5.61
277.986	6.28
278.365	5.55
278.743	5.48
279.122	5.35
279.5	5.22
279.878	5.42
280.257	5.78
280.635	5.34
281.013	5.54
281.391	5.4
281.769	5.22
282.147	5.05
282.525	5.5
282.903	5.26
283.281	5.2
283.659	5.75
284.037	5.44
284.415	5.21
284.792	5.56
285.17	5.79
285.548	5.38
285.925	5.54
286.303	5.98
286.68	5.6
287.058	5.88
287.435	5.75
287.813	5.95
288.19	5.38
288.567	5.13
288.945	5.33
289.322	5.27
289.699	5.25
290.076	5.2
290.453	5.89
290.83	5.89
291.207	6.03
291.584	5.34
291.961	5.59
292.338	5.54
292.715	5.78
293.092	5.59
293.469	5.98
293.845	5.77
294.222	6.61
294.599	5.9
294.975	5.92
295.352	5.88
295.728	6.08
296.105	5.4
296.481	5.68
296.858	5.77
297.234	6.2
297.61	6.62
297.986	6.3
298.363	6.45
298.739	6.17
299.115	6.03
299.491	6.44
299.867	6.26
300.243	6.27
300.619	6.14
300.995	5.74
301.371	6.26
301.746	6.06
302.122	6.12
302.498	6.71
302.874	7.01
303.249	6.32
303.625	6.06
304	5.96
304.376	6.35
304.751	6.51
305.127	6.73
305.502	6.78
305.878	6.28
306.253	6.16
306.628	6.41
307.003	6.1
307.378	6.27
307.754	6.44
308.129	6.14
308.504	6.22
308.879	6.28
309.254	7.14
309.629	6.61
310.003	6.95
310.378	6.55
310.753	6.81
311.128	6.2
311.502	6.09
311.877	6.1
312.252	6.9
312.626	6.17
313.001	6.78
313.375	6.02
313.75	6.34
314.124	6.92
314.498	6.1
314.873	6.35
315.247	6.02
315.621	7.17
315.995	6.63
316.369	6.36
316.743	7.17
317.117	7
317.491	6.58
317.865	6.7
318.239	6.8
318.613	7.06
318.987	6.94
319.361	7.13
319.734	6.56
320.108	6.53
320.482	6.34
320.855	6.26
321.229	6.24
321.602	6.58
321.976	6.78
322.349	6.92
322.723	6.54
323.096	6.89
323.469	7.32
323.843	6.89
324.216	7.65
324.589	7.03
324.962	6.4
325.335	6.25
325.708	6.75
326.081	7.21
326.454	6.88
326.827	6.6
327.2	6.43
327.573	6.52
327.945	6.68
328.318	6.64
328.691	6.82
329.063	6.64
329.436	6.58
329.809	6.27
330.181	6.78
330.553	6.39
330.926	6.71
331.298	6.81
331.671	7.04
332.043	7
332.415	6.85
332.787	7.23
333.159	6.59
333.532	6.38
333.904	7
334.276	6.99
334.648	6.78
335.02	6.22
335.391	6.01
335.763	6.89
336.135	6.83
336.507	6.74
336.879	6.61
337.25	6.65
337.622	6.71
337.993	6.74
338.365	6.54
338.736	6.68
339.108	7.05
339.479	6.9
339.851	6.89
340.222	6.52
340.593	6.09
340.964	6.9
341.336	7.02
341.707	6.2
342.078	6.8
342.449	6.54
342.82	6.3
343.191	6.35
343.562	6
343.933	6.49
344.303	6.37
344.674	6.52
345.045	6.44
345.416	6.45
345.786	7.05
346.157	6.67
346.527	6.56
346.898	6.62
347.268	6.5
347.639	6.42
348.009	6.83
348.38	5.87
348.75	6.23
349.12	6.82
349.49	6.12
349.861	6.29
350.231	6.63
350.601	6.86
350.971	6.7
351.341	6.3
351.711	6.87
352.081	6.55
352.45	6.78
352.82	6.14
353.19	6.5
353.56	6.32
353.929	6.81
354.299	6.71
354.669	6.8
355.038	6.62
355.408	6.5
355.777	6.82
356.147	6.77
356.516	6.37
356.885	6.52
357.254	6.78
357.624	6.63
357.993	6.48
358.362	6.85
358.731	6.57
359.1	6.53
359.469	6.42
359.838	6.57
360.207	6.42
360.576	6.28
360.945	6.92
361.314	6.84
361.682	6.66
362.051	6.35
362.42	6.47
362.788	6.58
363.157	6.47
363.525	6.27
363.894	6.67
364.262	6.49
364.631	6.56
364.999	6.37
365.367	6.73
365.735	6.57
366.104	6.46
366.472	6.94
366.84	6.15
367.208	6.52
367.576	6.98
367.944	6.78
368.312	6.74
368.68	6.62
369.048	6.54
369.416	6.5
369.783	6.66
370.151	6.82
370.519	7.25
370.886	6.53
371.254	6.99
371.621	6.58
371.989	6.63
372.356	6.69
372.724	6.99
373.091	7.1
373.458	6.44
373.826	6.83
374.193	6.56
374.56	6.77
374.927	6.8
375.294	6.63
375.661	6.61
376.028	6.86
376.395	6.74
376.762	6.54
377.129	6.95
377.496	6.82
377.863	6.77
378.229	6.9
378.596	6.91
378.963	6.72
379.329	6.65
379.696	6.67
380.062	6.57
380.429	6.63
380.795	6.99
381.161	6.73
381.528	6.66
381.894	6.47
382.26	6.81
382.626	6.75
382.993	6.86
383.359	6.8
383.725	6.48
384.091	6.64
384.457	6.71
384.823	7.13
385.188	6.81
385.554	6.54
385.92	6.7
386.286	6.81
386.651	6.64
387.017	6.77
387.383	6.76
387.748	6.66
388.114	6.75
388.479	6.85
388.845	6.69
389.21	6.85
389.575	6.96
389.94	6.92
390.306	6.78
390.671	6.59
391.036	6.85
391.401	7.13
391.766	6.76
392.131	6.82
392.496	6.92
392.861	6.99
393.226	7.01
393.591	6.96
393.956	6.73
394.32	6.81
394.685	6.79
395.05	6.71
395.414	7
395.779	6.65
396.143	6.62
396.508	6.7
396.872	6.83
397.236	6.63
397.601	6.81
397.965	6.85
398.329	6.97
398.694	6.77
399.058	6.74
399.422	6.87
399.786	6.78
400.15	6.92
400.514	6.9
400.878	6.65
401.242	6.81
401.605	6.68
401.969	6.56
402.333	6.85
402.697	6.97
403.06	6.73
403.424	6.78
403.787	7.21
404.151	6.8
404.514	6.87
404.878	6.78
405.241	6.91
405.604	6.94
405.968	6.78
406.331	6.67
406.694	6.87
407.057	6.9
407.42	6.98
407.783	6.83
408.146	6.93
408.509	6.68
408.872	6.95
409.235	6.68
409.598	6.86
409.961	7.21
410.323	6.94
410.686	6.88
411.049	7.02
411.411	6.94
411.774	6.94
412.136	6.94
412.499	6.88
412.861	6.95
413.223	7.09
413.586	7.17
413.948	7.15
414.31	6.9
414.672	6.79
415.035	6.78
415.397	6.7
415.759	7.04
416.121	7.1
416.483	7.01
416.845	7.05
417.206	6.85
417.568	7.05
417.93	7.05
418.292	6.97
418.653	6.86
419.015	6.84
419.377	7.07
419.738	6.99
420.1	6.84
420.461	6.92
420.822	6.97
421.184	7.03
421.545	6.88
421.906	6.93
422.267	7.04
422.629	6.85
422.99	6.91
423.351	6.74
423.712	6.81
424.073	6.8
424.434	6.95
424.795	7.01
425.155	6.89
425.516	6.78
425.877	6.82
426.238	6.93
426.598	6.87
426.959	6.88
427.32	7
427.68	7
428.041	6.82
428.401	6.98
428.761	6.84
429.122	6.9
429.482	7.1
429.842	7.09
430.202	7.09
430.563	7.08
430.923	7.04
431.283	7.15
431.643	7.08
432.003	7.39
432.363	7.11
432.722	7.08
433.082	7.26
433.442	7.11
433.802	7.15
434.161	7.33
434.521	7.01
434.881	7.16
435.24	7
435.6	7.04
435.959	7.12
436.319	7.05
436.678	7.27
437.037	7.26
437.396	7.26
437.756	7.24
438.115	7.23
438.474	7.26
438.833	7.1
439.192	7.04
439.551	7.22
439.91	7.25
440.269	7.26
440.628	7.05
440.987	7.32
441.345	7.24
441.704	7.15
442.063	7.3
442.421	7.08
442.78	7.09
443.138	7.06
443.497	7.14
443.855	7.16
444.214	7.36
444.572	7.17
444.93	7.3
445.288	7.31
445.647	7.38
446.005	7.16
446.363	7.32
446.721	7.33
447.079	7.18
447.437	7.22
447.795	7.16
448.153	7.28
448.51	7.26
448.868	7.11
449.226	7.1
449.584	7.19
449.941	7.43
450.299	7.41
450.656	7.2
451.014	7.35
451.371	7.29
451.729	7.42
452.086	7.52
452.443	7.51
452.801	7.41
453.158	7.49
453.515	7.35
453.872	7.41
454.229	7.51
454.586	7.34
454.943	7.46
455.3	7.38
455.657	7.43
456.014	7.51
456.371	7.53
456.727	7.47
457.084	7.59
457.441	7.52
457.797	7.54
458.154	7.52
458.51	7.56
458.867	7.4
459.223	7.44
459.58	7.47
459.936	7.55
460.292	7.51
460.648	7.34
461.005	7.53
461.361	7.33
461.717	7.35
462.073	7.36
462.429	7.35
462.785	7.31
463.141	7.37
463.496	7.7
463.852	7.44
464.208	7.43
464.564	7.45
464.919	7.44
465.275	7.45
465.631	7.56
465.986	7.69
466.342	7.8
466.697	7.74
467.052	7.73
467.408	7.89
467.763	7.63
468.118	7.47
468.473	7.49
468.829	7.68
469.184	7.95
469.539	7.74
469.894	7.54
470.249	7.62
470.603	7.59
470.958	7.78
471.313	7.7
471.668	7.6
472.023	7.76
472.377	7.8
472.732	7.63
473.086	7.81
473.441	7.68
473.795	7.82
474.15	7.94
474.504	7.7
474.859	7.71
475.213	7.75
475.567	7.79
475.921	7.83
476.275	7.67
476.63	7.75
476.984	7.6
477.338	7.52
477.692	7.79
478.045	7.76
478.399	7.82
478.753	7.5
479.107	7.67
479.461	7.6
479.814	7.71
480.168	7.88
480.521	7.85
480.875	7.62
481.228	7.77
481.582	8.01
481.935	7.8
482.289	7.91
482.642	7.86
482.995	7.74
483.348	7.76
483.701	7.6
484.055	7.82
484.408	7.78
484.761	7.77
485.114	7.63
485.466	7.59
485.819	7.46
486.172	7.49
486.525	7.45
486.878	7.46
487.23	7.55
487.583	7.69
487.936	7.67
488.288	7.76
488.641	7.67
488.993	7.67
489.345	7.74
489.698	7.57
490.05	7.59
490.402	7.57
490.754	7.61
491.107	7.75
491.459	7.83
491.811	7.86
492.163	7.97
492.515	7.95
492.866	7.87
493.218	7.74
493.57	7.74
493.922	7.67
494.274	7.71
494.625	7.78
494.977	7.94
495.328	7.97
495.68	8.07
496.031	8.04
496.383	7.99
496.734	8.01
497.086	8.2
497.437	8.25
497.788	8.17
498.139	8.13
498.49	8.14
498.842	8.16
499.193	8.05
499.544	8.06
499.894	8.09
500.245	8.01
500.596	8.22
500.947	8.18
501.298	8.21
501.648	8.13
501.999	8.11
502.35	8.27
502.7	8.35
503.051	8.15
503.401	8.19
503.752	8.01
504.102	8.24
504.452	8.23
504.803	8.21
505.153	8.28
505.503	8.29
505.853	8.41
506.203	8.18
506.553	8.26
506.903	8.19
507.253	8.21
507.603	8.18
507.953	8.38
508.303	8.26
508.652	8.46
509.002	8.31
509.352	8.45
509.701	8.19
510.051	8.26
510.4	8.37
510.75	8.17
511.099	8.26
511.449	8.38
511.798	8.27
512.147	8.45
512.496	8.24
512.846	8.3
513.195	8.39
513.544	8.37
513.893	8.36
514.242	8.34
514.591	8.31
514.939	8.33
515.288	8.36
515.637	8.46
515.986	8.36
516.334	8.48
516.683	8.46
517.032	8.44
517.38	8.47
517.729	8.49
518.077	8.45
518.426	8.73
518.774	8.58
519.122	8.38
519.47	8.48
519.819	8.42
520.167	8.37
520.515	8.42
520.863	8.38
521.211	8.46
521.559	8.44
521.907	8.41
522.255	8.37
522.602	8.47
522.95	8.7
523.298	8.62
523.645	8.72
523.993	8.58
524.341	8.62
524.688	8.55
525.036	8.56
525.383	8.59
525.73	8.69
526.078	8.67
526.425	8.54
526.772	8.6
527.119	8.67
527.466	8.61
527.814	8.52
528.161	8.46
528.508	8.52
528.854	8.54
529.201	8.44
529.548	8.57
529.895	8.44
530.242	8.38
530.588	8.4
530.935	8.41
531.282	8.41
531.628	8.33
531.975	8.32
532.321	8.47
532.667	8.57
533.014	8.61
533.36	8.67
533.706	8.68
534.052	8.68
534.399	8.73
534.745	8.75
535.091	8.59
535.437	8.53
535.783	8.52
536.129	8.58
536.474	8.61
536.82	8.66
537.166	8.8
537.512	8.87
537.857	8.82
538.203	8.81
538.549	8.74
538.894	8.89
539.239	8.76
539.585	8.84
539.93	8.76
540.276	8.81
540.621	8.9
540.966	8.96
541.311	8.93
541.656	8.98
542.001	8.95
542.346	8.98
542.691	8.89
543.036	8.81
543.381	8.69
543.726	8.77
544.071	8.76
544.415	8.7
544.76	8.75
545.105	8.82
545.449	8.97
545.794	8.9
546.138	8.89
546.483	8.98
546.827	9.1
547.171	8.99
547.516	9.04
547.86	9.11
548.204	9.14
548.548	9.01
548.892	9.02
549.236	9.03
549.58	9.09
549.924	9.18
550.268	9.06
550.612	9.07
550.956	9.1
551.3	9.1
551.643	9.26
551.987	9.23
552.33	9.2
552.674	9.29
553.017	9.26
553.361	9.19
553.704	9.3
554.048	9.31
554.391	9.26
554.734	9.19
555.077	9.27
555.42	9.38
555.764	9.32
556.107	9.19
556.45	9.38
556.793	9.28
557.135	9.32
557.478	9.41
557.821	9.37
558.164	9.46
558.507	9.23
558.849	9.38
559.192	9.44
559.534	9.43
559.877	9.42
560.219	9.56
560.562	9.57
560.904	9.4
561.246	9.68
561.589	9.51
561.931	9.55
562.273	9.42
562.615	9.62
562.957	9.49
563.299	9.55
563.641	9.61
563.983	9.52
564.325	9.7
564.667	9.79
565.008	9.7
565.35	9.82
565.692	9.51
566.033	9.68
566.375	9.8
566.716	9.43
567.058	9.63
567.399	9.74
567.741	9.38
568.082	9.73
568.423	9.57
568.764	9.46
569.105	9.71
569.447	9.8
569.788	9.57
570.129	9.71
570.47	9.41
570.811	9.54
571.151	9.73
571.492	9.82
571.833	9.66
572.174	9.72
572.514	9.74
572.855	9.68
573.195	9.77
573.536	9.71
573.876	9.69
574.217	9.74
574.557	9.73
574.898	9.93
575.238	9.81
575.578	9.94
575.918	9.99
576.258	9.76
576.598	10.04
576.938	10
577.278	9.81
577.618	9.9
577.958	9.88
578.298	9.9
578.638	10.03
578.977	10.13
579.317	9.92
579.657	9.96
579.996	10.02
580.336	9.97
580.675	9.99
581.014	9.97
581.354	10.06
581.693	10.15
582.032	9.69
582.372	10.05
582.711	9.79
583.05	10.34
583.389	9.95
583.728	10.02
584.067	9.96
584.406	10.11
584.745	10.14
585.083	10.07
585.422	10.13
585.761	10.27
586.1	10.33
586.438	10.11
586.777	10.12
587.115	10.09
587.454	9.99
587.792	10.07
588.13	10.29
588.469	10.33
588.807	10.34
589.145	10.54
589.483	10.15
589.821	10.09
590.159	10.29
590.497	10.32
590.835	10.45
591.173	10.34
591.511	10.53
591.849	10.36
592.187	10.45
592.524	10.43
592.862	10.43
593.2	10.12
593.537	10.19
593.875	10.66
594.212	10.2
594.55	10.2
594.887	10.3
595.224	10.38
595.561	10.64
595.899	10.45
596.236	10.38
596.573	10.47
596.91	10.51
597.247	10.38
597.584	10.43
597.921	10.43
598.258	10.5
598.594	10.4
598.931	10.51
599.268	10.47
599.604	10.56
599.941	10.6
600.277	10.41
600.614	10.65
600.95	10.62
601.287	10.54
601.623	10.57
601.959	10.6
602.296	10.6
602.632	10.66
602.968	10.58
603.304	10.65
603.64	10.72
603.976	10.82
604.312	10.78
604.648	10.65
604.984	10.85
605.319	10.77
605.655	10.68
605.991	10.52
606.326	10.79
606.662	10.61
606.998	10.52
607.333	10.67
607.668	10.67
608.004	10.65
608.339	10.95
608.674	10.83
609.01	10.58
609.345	10.85
609.68	10.79
610.015	10.84
610.35	11.05
610.685	11
611.02	10.73
611.355	11.08
611.689	10.8
612.024	10.74
612.359	10.7
612.694	10.81
613.028	10.95
613.363	10.94
613.697	11.11
614.032	10.76
614.366	11.34
614.7	10.88
615.035	11.11
615.369	10.96
615.703	11.03
616.037	10.91
616.371	11.32
616.705	11.18
617.039	10.82
617.373	11.31
617.707	11.28
618.041	11.34
618.375	11.18
618.709	10.88
619.042	10.98
619.376	11.2
619.71	10.86
620.043	11.06
620.377	11.06
620.71	11.19
621.043	11.18
621.377	10.9
621.71	11.21
622.043	11.17
622.376	11.11
622.709	11.58
623.043	11.36
623.376	11.2
623.709	11.29
624.041	11.38
624.374	11.03
624.707	11.3
625.04	11.84
625.373	11.47
625.705	11.62
626.038	11.09
626.37	11.36
626.703	11.53
627.035	11.3
627.368	11.38
627.7	11.45
628.032	11.32
628.365	11.34
628.697	11.22
629.029	11.77
629.361	11.47
629.693	11.37
630.025	11.53
630.357	11.28
630.689	10.95
631.021	11.63
631.353	11.3
631.684	11.79
632.016	11.74
632.348	11.58
632.679	11.84
633.011	11.82
633.342	12.03
633.674	11.69
634.005	11.77
634.336	11.69
634.668	11.61
634.999	12.05
635.33	11.67
635.661	11.96
635.992	11.53
636.323	11.54
636.654	11.78
636.985	11.67
637.316	11.78
637.647	11.82
637.977	11.6
638.308	11.76
638.639	11.74
638.969	11.66
639.3	11.71
639.63	11.63
639.961	12.13
640.291	11.93
640.622	11.63
640.952	12.03
641.282	11.69
641.612	11.95
641.943	11.56
642.273	11.63
642.603	12
642.933	11.4
643.263	11.99
643.592	11.97
643.922	12.04
644.252	11.63
644.582	12.11
644.911	12.41
645.241	11.93
645.571	12.34
645.9	12.19
646.23	11.82
646.559	11.64
646.888	11.58
647.218	12.37
647.547	11.89
647.876	11.99
648.205	11.83
648.534	11.89
648.863	11.75
649.192	12.02
649.521	12.13
649.85	12.07
650.179	12.21
650.508	12.17
650.837	11.53
651.165	12.48
651.494	12.11
651.822	12.45
652.151	12.57
652.479	12.34
652.808	12.72
653.136	12.16
653.465	12.28
653.793	12.33
654.121	11.86
654.449	12.72
654.777	12.29
655.105	12.34
655.433	12.43
655.761	12.05
656.089	12.26
656.417	12.14
656.745	12.4
657.073	12.34
657.4	12.39
657.728	12.98
658.056	12.76
658.383	12.17
658.711	12.58
659.038	12.57
659.365	12.45
659.693	12.57
660.02	12.36
660.347	12.74
660.674	12.32
661.001	12.56
661.329	12.63
661.656	12.48
661.982	12.53
662.309	12.52
662.636	12.42
662.963	12.53
663.29	12.35
663.616	12.38
663.943	12.32
664.27	12.67
664.596	13.15
664.923	12.74
665.249	12.91
665.576	12.55
665.902	12.67
666.228	12.86
666.554	12.33
666.881	12.78
667.207	13.14
667.533	12.38
667.859	13.39
668.185	12.6
668.511	13.3
668.837	13.39
669.162	13.24
669.488	13.18
669.814	12.63
670.139	12.69
670.465	13.07
670.791	12.72
671.116	13.49
671.442	13.1
671.767	12.69
672.092	12.71
672.418	13.33
672.743	12.93
673.068	13.17
673.393	12.95
673.718	12.55
674.043	13.66
674.368	12.96
674.693	13.04
675.018	13.31
675.343	12.27
675.667	13.62
675.992	13.05
676.317	13.05
676.641	13.39
676.966	13.52
677.29	12.91
677.615	13.37
677.939	12.84
678.264	13.13
678.588	13.32
678.912	13.03
679.236	13.5
679.56	13.42
679.885	13.68
680.209	13.08
680.532	13.06
680.856	13.38
681.18	13.03
681.504	13.42
681.828	13.42
682.152	13.08
682.475	13.56
682.799	13.6
683.122	13.34
683.446	12.96
683.769	13.25
684.093	13.54
684.416	13.49
684.739	13.67
685.062	13.65
685.386	13.91
