Data from 0370_crown_Reflection__1__142.txt Node

Date: Mon Dec 11 19:12:14 CST 2023
User: ToomeyLab
Spectrometer: FLMS14357
Trigger mode: 0
Integration Time (sec): 1.000000E-2
Scans to average: 100
Electric dark correction enabled: true
Nonlinearity correction enabled: false
Boxcar width: 0
XAxis mode: Wavelengths
Number of Pixels in Spectrum: 2048
>>>>>Begin Spectral Data<<<<<
189.047	-104900
189.435	-104900
189.823	-104900
190.211	117.62
190.599	150.9
190.987	5.94
191.375	144.3
191.763	80.65
192.151	78
192.538	-115.75
192.926	251100
193.314	733.46
193.702	-379
194.089	-14.05
194.477	247.34
194.864	-1875.18
195.252	-106.78
195.639	30.4
196.027	9.44
196.414	100.5
196.801	211.3
197.189	-76.86
197.576	151.21
197.963	78.84
198.351	-13.37
198.738	-35.22
199.125	29.05
199.512	9.2
199.899	-22.82
200.286	62.29
200.673	-79.51
201.06	70.82
201.447	1.47
201.833	-17.36
202.22	1.82
202.607	-5.81
202.994	-19
203.38	-69.73
203.767	49.26
204.154	11.73
204.54	-25.74
204.927	-20.14
205.313	14.48
205.699	-107.92
206.086	-66.36
206.472	-0.79
206.858	8.11
207.245	2.82
207.631	-12.53
208.017	13.81
208.403	3.82
208.789	-86.8
209.175	20.54
209.561	-38.68
209.947	19.58
210.333	16.27
210.719	37.04
211.105	30.85
211.491	12.17
211.876	0.59
212.262	-16.88
212.648	-13.98
213.034	-31.65
213.419	1.91
213.805	-40.52
214.19	-9.69
214.576	-2.4
214.961	9.05
215.346	-21.71
215.732	2.91
216.117	4.17
216.502	7.57
216.888	7.19
217.273	14.01
217.658	-9.06
218.043	-32.81
218.428	-21.03
218.813	0.62
219.198	8.96
219.583	-0.53
219.968	-6.03
220.353	-28.33
220.738	19.44
221.122	3.05
221.507	25.28
221.892	-1.33
222.276	-2.42
222.661	2.94
223.046	-9.78
223.43	17.48
223.815	-13.73
224.199	7.24
224.583	4.08
224.968	-3.05
225.352	6.88
225.736	5.8
226.121	-3.41
226.505	5.42
226.889	8.41
227.273	3.8
227.657	14.91
228.041	4.24
228.425	0.53
228.809	4.15
229.193	5.2
229.577	7.6
229.961	4.97
230.344	6.63
230.728	6.18
231.112	5.96
231.495	5.85
231.879	5.82
232.263	3.65
232.646	4.63
233.03	4.6
233.413	5.67
233.797	8.36
234.18	5.21
234.563	5.6
234.946	5.76
235.33	7.21
235.713	5.19
236.096	5.5
236.479	6.82
236.862	3.83
237.245	3.46
237.628	6.07
238.011	5.31
238.394	6.57
238.777	5.02
239.16	5.16
239.543	5.03
239.925	4.01
240.308	6.57
240.691	5.65
241.073	7.51
241.456	6.48
241.838	8.7
242.221	6.4
242.603	4.69
242.986	5.04
243.368	5.52
243.75	6.28
244.133	6
244.515	5.72
244.897	5.81
245.279	6.18
245.661	5.52
246.043	6.36
246.425	6.38
246.807	4.51
247.189	6.17
247.571	5.53
247.953	5.2
248.335	6.31
248.717	6.09
249.098	5.72
249.48	5.78
249.862	6.35
250.243	6.11
250.625	5.61
251.006	5.53
251.388	5.08
251.769	6.38
252.151	6.2
252.532	6.14
252.913	5.81
253.295	6.09
253.676	5.06
254.057	5.69
254.438	5.46
254.819	6.19
255.2	4.69
255.581	5.47
255.962	4.91
256.343	5.06
256.724	6.24
257.105	5.76
257.486	4.9
257.867	5.34
258.247	4.46
258.628	6.26
259.009	5.87
259.389	6.83
259.77	5.17
260.15	5.47
260.531	5.57
260.911	4.53
261.292	5.38
261.672	5.41
262.052	5.4
262.432	5.49
262.813	5.74
263.193	5.3
263.573	5.46
263.953	5.3
264.333	4.54
264.713	5.77
265.093	4.84
265.473	5.23
265.853	5.27
266.233	5.4
266.612	5.94
266.992	5.77
267.372	5.96
267.752	5.31
268.131	5.26
268.511	5.17
268.89	5.63
269.27	5.61
269.649	5.25
270.029	5.34
270.408	5.38
270.787	5.42
271.167	4.65
271.546	4.39
271.925	5.29
272.304	5.29
272.683	5.15
273.062	5.23
273.441	4.66
273.82	4.76
274.199	5.02
274.578	4.94
274.957	5.26
275.336	5.06
275.715	5.01
276.093	5.63
276.472	5.07
276.851	5.92
277.229	5.31
277.608	5.44
277.986	5.31
278.365	4.81
278.743	4.77
279.122	4.74
279.5	5.37
279.878	4.68
280.257	4.95
280.635	5.36
281.013	4.77
281.391	4.95
281.769	4.64
282.147	5.23
282.525	4.75
282.903	5.19
283.281	4.46
283.659	5.04
284.037	4.65
284.415	5.02
284.792	5.44
285.17	5.33
285.548	5.02
285.925	5.08
286.303	5.36
286.68	5.03
287.058	4.67
287.435	5.31
287.813	5.33
288.19	4.72
288.567	4.78
288.945	4.86
289.322	5
289.699	5.04
290.076	4.53
290.453	5.52
290.83	5.83
291.207	5.57
291.584	5.09
291.961	5.52
292.338	5.11
292.715	5.52
293.092	5.39
293.469	5.17
293.845	5.06
294.222	5.43
294.599	5.06
294.975	5.46
295.352	5.08
295.728	5.19
296.105	5.27
296.481	5.62
296.858	5.29
297.234	5.24
297.61	5.71
297.986	5.41
298.363	5.12
298.739	5.48
299.115	5.47
299.491	5.41
299.867	5.36
300.243	5.35
300.619	5.1
300.995	5.11
301.371	5.54
301.746	4.96
302.122	5.18
302.498	5.73
302.874	5.81
303.249	5.53
303.625	5.28
304	5.53
304.376	5.43
304.751	5.2
305.127	5.24
305.502	5.4
305.878	5.49
306.253	5.67
306.628	5.41
307.003	5.13
307.378	5.2
307.754	5.69
308.129	5.07
308.504	5.08
308.879	5.08
309.254	5.75
309.629	5.85
310.003	5.8
310.378	5.67
310.753	5.89
311.128	5.55
311.502	5.4
311.877	6.04
312.252	5.79
312.626	5.74
313.001	5.74
313.375	5.48
313.75	5.13
314.124	5.64
314.498	5.33
314.873	5.66
315.247	5.53
315.621	6.13
315.995	6.38
316.369	5.68
316.743	5.98
317.117	5.85
317.491	5.95
317.865	5.47
318.239	6.41
318.613	6.16
318.987	5.79
319.361	6.05
319.734	5.67
320.108	5.38
320.482	5.73
320.855	5.35
321.229	5.03
321.602	5.36
321.976	6.11
322.349	5.15
322.723	5.1
323.096	6.69
323.469	6.28
323.843	6.11
324.216	6.42
324.589	6.24
324.962	5.44
325.335	5.87
325.708	5.93
326.081	5.88
326.454	5.74
326.827	5.59
327.2	5.76
327.573	5.64
327.945	6.21
328.318	5.58
328.691	5.6
329.063	6.15
329.436	5.75
329.809	5.7
330.181	5.77
330.553	5.55
330.926	5.71
331.298	5.8
331.671	5.68
332.043	6.63
332.415	5.79
332.787	5.89
333.159	5.65
333.532	5.67
333.904	5.91
334.276	6.06
334.648	5.88
335.02	5.64
335.391	5.55
335.763	5.45
336.135	5.8
336.507	5.49
336.879	6.37
337.25	5.01
337.622	5.94
337.993	6.05
338.365	5.84
338.736	6.11
339.108	6.11
339.479	5.63
339.851	5.66
340.222	5.85
340.593	5.81
340.964	6.02
341.336	5.62
341.707	5.42
342.078	5.89
342.449	6.17
342.82	5.69
343.191	5.89
343.562	5.65
343.933	5.87
344.303	5.54
344.674	5.97
345.045	6.04
345.416	5.54
345.786	6.33
346.157	5.79
346.527	5.58
346.898	5.72
347.268	6.05
347.639	5.76
348.009	5.79
348.38	5.41
348.75	5.77
349.12	6.25
349.49	5.49
349.861	5.17
350.231	5.74
350.601	5.74
350.971	6.11
351.341	5.38
351.711	6.32
352.081	5.47
352.45	5.74
352.82	5.41
353.19	5.78
353.56	5.38
353.929	5.82
354.299	6.15
354.669	5.59
355.038	5.83
355.408	5.36
355.777	6.01
356.147	5.79
356.516	5.72
356.885	5.9
357.254	6.09
357.624	5.46
357.993	5.51
358.362	5.91
358.731	5.55
359.1	5.84
359.469	5.85
359.838	5.52
360.207	5.89
360.576	5.77
360.945	6.16
361.314	6.09
361.682	5.81
362.051	5.64
362.42	5.44
362.788	5.34
363.157	5.57
363.525	5.54
363.894	5.88
364.262	5.66
364.631	5.66
364.999	5.59
365.367	5.95
365.735	5.55
366.104	5.41
366.472	5.69
366.84	5.73
367.208	5.64
367.576	5.97
367.944	5.64
368.312	5.75
368.68	5.75
369.048	5.61
369.416	5.48
369.783	5.75
370.151	6.01
370.519	5.8
370.886	5.45
371.254	6.19
371.621	5.88
371.989	6.25
372.356	5.9
372.724	6.08
373.091	6.15
373.458	5.46
373.826	6.1
374.193	5.56
374.56	6.02
374.927	6.18
375.294	5.79
375.661	5.74
376.028	6.2
376.395	5.84
376.762	5.74
377.129	6.21
377.496	6.21
377.863	6
378.229	5.75
378.596	5.72
378.963	5.74
379.329	5.85
379.696	5.89
380.062	5.27
380.429	5.56
380.795	5.8
381.161	5.61
381.528	6.01
381.894	5.97
382.26	6.02
382.626	5.91
382.993	5.95
383.359	5.8
383.725	5.64
384.091	5.92
384.457	5.74
384.823	5.95
385.188	5.83
385.554	5.94
385.92	5.74
386.286	5.75
386.651	5.93
387.017	6.12
387.383	5.91
387.748	5.85
388.114	5.97
388.479	5.84
388.845	5.74
389.21	5.7
389.575	5.81
389.94	6.05
390.306	5.74
390.671	5.63
391.036	6.24
391.401	5.99
391.766	5.88
392.131	6.1
392.496	6.29
392.861	6.06
393.226	5.98
393.591	5.95
393.956	5.64
394.32	6.05
394.685	5.79
395.05	6.33
395.414	6.09
395.779	5.77
396.143	5.86
396.508	5.8
396.872	5.98
397.236	6.08
397.601	5.88
397.965	5.87
398.329	6.01
398.694	5.86
399.058	5.88
399.422	6.03
399.786	6.1
400.15	5.87
400.514	6.05
400.878	5.9
401.242	6.04
401.605	6.14
401.969	5.79
402.333	5.8
402.697	5.79
403.06	5.9
403.424	5.95
403.787	6.32
404.151	5.82
404.514	6.08
404.878	5.96
405.241	5.71
405.604	6.29
405.968	5.77
406.331	5.95
406.694	5.98
407.057	6.01
407.42	6.06
407.783	6.14
408.146	6.05
408.509	5.95
408.872	5.93
409.235	5.73
409.598	6.01
409.961	6.15
410.323	6.27
410.686	6.07
411.049	6.03
411.411	6.12
411.774	6.14
412.136	5.91
412.499	6.21
412.861	5.92
413.223	6.14
413.586	6.38
413.948	6.15
414.31	6.26
414.672	5.99
415.035	6.2
415.397	6.2
415.759	6.13
416.121	5.78
416.483	6.22
416.845	6.2
417.206	6.18
417.568	6.12
417.93	6.2
418.292	6.16
418.653	5.81
419.015	5.92
419.377	6.03
419.738	6.05
420.1	5.92
420.461	6.17
420.822	5.92
421.184	6.06
421.545	6.08
421.906	6.07
422.267	6.13
422.629	6
422.99	6.01
423.351	5.91
423.712	5.97
424.073	5.95
424.434	5.97
424.795	6.09
425.155	6.1
425.516	6.09
425.877	5.89
426.238	6.01
426.598	5.99
426.959	6.07
427.32	6.18
427.68	6.23
428.041	6.03
428.401	6.05
428.761	6.08
429.122	6.27
429.482	6.21
429.842	6.06
430.202	6.28
430.563	6.28
430.923	6.26
431.283	6.16
431.643	6.38
432.003	6.36
432.363	6.27
432.722	6.22
433.082	6.19
433.442	6.34
433.802	6.14
434.161	6.39
434.521	6.05
434.881	6.2
435.24	6.07
435.6	6.18
435.959	6.12
436.319	6.06
436.678	6.28
437.037	6.39
437.396	6.23
437.756	6.4
438.115	6.44
438.474	6.41
438.833	6.25
439.192	6.13
439.551	6.37
439.91	6.44
440.269	6.39
440.628	6.09
440.987	6.43
441.345	6.25
441.704	6.23
442.063	6.26
442.421	6.15
442.78	6.23
443.138	6.28
443.497	6.25
443.855	6.29
444.214	6.38
444.572	6.36
444.93	6.44
445.288	6.47
445.647	6.38
446.005	6.14
446.363	6.24
446.721	6.32
447.079	6.29
447.437	6.18
447.795	6.19
448.153	6.31
448.51	6.31
448.868	6.16
449.226	6.24
449.584	6.35
449.941	6.35
450.299	6.3
450.656	6.4
451.014	6.54
451.371	6.3
451.729	6.44
452.086	6.33
452.443	6.6
452.801	6.41
453.158	6.55
453.515	6.42
453.872	6.41
454.229	6.33
454.586	6.45
454.943	6.53
455.3	6.55
455.657	6.45
456.014	6.47
456.371	6.58
456.727	6.41
457.084	6.45
457.441	6.69
457.797	6.26
458.154	6.43
458.51	6.58
458.867	6.44
459.223	6.48
459.58	6.64
459.936	6.52
460.292	6.52
460.648	6.51
461.005	6.43
461.361	6.38
461.717	6.37
462.073	6.46
462.429	6.46
462.785	6.4
463.141	6.51
463.496	6.5
463.852	6.57
464.208	6.67
464.564	6.47
464.919	6.49
465.275	6.58
465.631	6.59
465.986	6.67
466.342	6.52
466.697	6.57
467.052	6.76
467.408	6.73
467.763	6.74
468.118	6.34
468.473	6.62
468.829	6.69
469.184	6.79
469.539	6.66
469.894	6.58
470.249	6.64
470.603	6.65
470.958	6.76
471.313	6.69
471.668	6.95
472.023	6.82
472.377	6.59
472.732	6.73
473.086	6.84
473.441	6.84
473.795	6.78
474.15	6.81
474.504	6.73
474.859	6.77
475.213	6.87
475.567	6.84
475.921	6.77
476.275	6.8
476.63	6.76
476.984	6.83
477.338	6.64
477.692	6.75
478.045	6.74
478.399	6.71
478.753	6.43
479.107	6.69
479.461	6.83
479.814	6.89
480.168	6.93
480.521	6.99
480.875	6.69
481.228	6.72
481.582	7.04
481.935	6.91
482.289	6.76
482.642	6.72
482.995	6.9
483.348	6.8
483.701	6.61
484.055	6.77
484.408	6.77
484.761	6.71
485.114	6.6
485.466	6.49
485.819	6.38
486.172	6.41
486.525	6.53
486.878	6.56
487.23	6.6
487.583	6.73
487.936	6.72
488.288	6.76
488.641	6.65
488.993	6.59
489.345	6.66
489.698	6.57
490.05	6.63
490.402	6.56
490.754	6.69
491.107	6.74
491.459	6.73
491.811	6.91
492.163	6.73
492.515	6.94
492.866	6.88
493.218	6.69
493.57	6.7
493.922	6.68
494.274	6.74
494.625	6.82
494.977	6.93
495.328	6.91
495.68	6.97
496.031	6.97
496.383	6.94
496.734	7.08
497.086	7.02
497.437	7.24
497.788	6.95
498.139	6.99
498.49	7.01
498.842	6.97
499.193	6.96
499.544	6.92
499.894	7.05
500.245	7.06
500.596	7.06
500.947	7.01
501.298	7.18
501.648	7.1
501.999	7.06
502.35	7.13
502.7	7.22
503.051	7.14
503.401	7.22
503.752	7.25
504.102	7.15
504.452	7.11
504.803	7.18
505.153	7.33
505.503	7.27
505.853	7.28
506.203	7.19
506.553	7.27
506.903	7.09
507.253	7.29
507.603	7.19
507.953	7.25
508.303	7.18
508.652	7.24
509.002	7.2
509.352	7.35
509.701	7.33
510.051	7.26
510.4	7.18
510.75	7.24
511.099	7.23
511.449	7.3
511.798	7.16
512.147	7.35
512.496	7.29
512.846	7.28
513.195	7.43
513.544	7.33
513.893	7.34
514.242	7.36
514.591	7.27
514.939	7.23
515.288	7.38
515.637	7.38
515.986	7.26
516.334	7.4
516.683	7.53
517.032	7.42
517.38	7.46
517.729	7.42
518.077	7.47
518.426	7.45
518.774	7.4
519.122	7.37
519.47	7.34
519.819	7.38
520.167	7.34
520.515	7.17
520.863	7.38
521.211	7.42
521.559	7.51
521.907	7.38
522.255	7.36
522.602	7.49
522.95	7.46
523.298	7.48
523.645	7.65
523.993	7.48
524.341	7.49
524.688	7.57
525.036	7.45
525.383	7.58
525.73	7.66
526.078	7.56
526.425	7.5
526.772	7.59
527.119	7.4
527.466	7.4
527.814	7.48
528.161	7.44
528.508	7.43
528.854	7.42
529.201	7.46
529.548	7.46
529.895	7.3
530.242	7.3
530.588	7.23
530.935	7.25
531.282	7.3
531.628	7.32
531.975	7.38
532.321	7.48
532.667	7.54
533.014	7.45
533.36	7.57
533.706	7.68
534.052	7.57
534.399	7.57
534.745	7.51
535.091	7.41
535.437	7.4
535.783	7.56
536.129	7.55
536.474	7.59
536.82	7.65
537.166	7.66
537.512	7.65
537.857	7.65
538.203	7.61
538.549	7.59
538.894	7.74
539.239	7.64
539.585	7.76
539.93	7.7
540.276	7.81
540.621	7.69
540.966	7.96
541.311	7.78
541.656	7.78
542.001	7.86
542.346	7.81
542.691	7.66
543.036	7.62
543.381	7.44
543.726	7.57
544.071	7.68
544.415	7.68
544.76	7.68
545.105	7.64
545.449	7.71
545.794	7.64
546.138	7.82
546.483	7.83
546.827	7.97
547.171	7.81
547.516	7.96
547.86	7.91
548.204	7.98
548.548	7.81
548.892	7.84
549.236	7.77
549.58	8.06
549.924	8.1
550.268	7.89
550.612	7.91
550.956	8.01
551.3	8.08
551.643	8.15
551.987	8.24
552.33	8.1
552.674	8.02
553.017	8.03
553.361	8.02
553.704	8.09
554.048	8.3
554.391	8.02
554.734	8.02
555.077	8.06
555.42	8.24
555.764	8.19
556.107	8.32
556.45	8.18
556.793	8.15
557.135	8.36
557.478	8.18
557.821	8.08
558.164	8.46
558.507	8.06
558.849	8.13
559.192	8.2
559.534	8.27
559.877	8.39
560.219	8.24
560.562	8.28
560.904	8.32
561.246	8.46
561.589	8.47
561.931	8.19
562.273	8.23
562.615	8.16
562.957	8.31
563.299	8.5
563.641	8.17
563.983	8.45
564.325	8.59
564.667	8.21
565.008	8.25
565.35	8.53
565.692	8.47
566.033	8.36
566.375	8.45
566.716	8.27
567.058	8.35
567.399	8.3
567.741	8.17
568.082	8.43
568.423	8.41
568.764	8.32
569.105	8.41
569.447	8.3
569.788	8.38
570.129	8.52
570.47	8.32
570.811	8.43
571.151	8.49
571.492	8.68
571.833	8.38
572.174	8.73
572.514	8.64
572.855	8.28
573.195	8.55
573.536	8.47
573.876	8.52
574.217	8.37
574.557	8.39
574.898	8.5
575.238	8.61
575.578	8.73
575.918	8.6
576.258	8.68
576.598	8.58
576.938	8.65
577.278	8.77
577.618	8.74
577.958	8.52
578.298	8.81
578.638	8.69
578.977	8.66
579.317	8.82
579.657	8.67
579.996	8.65
580.336	8.69
580.675	9.01
581.014	8.73
581.354	8.6
581.693	9
582.032	8.47
582.372	8.99
582.711	8.55
583.05	8.82
583.389	8.76
583.728	9
584.067	8.87
584.406	8.6
584.745	8.74
585.083	8.65
585.422	8.68
585.761	8.87
586.1	8.86
586.438	8.57
586.777	9.08
587.115	8.85
587.454	8.87
587.792	8.85
588.13	9.07
588.469	8.92
588.807	9.08
589.145	9.17
589.483	8.95
589.821	8.85
590.159	8.97
590.497	9.11
590.835	8.87
591.173	8.88
591.511	9.16
591.849	9.04
592.187	8.84
592.524	9.03
592.862	8.96
593.2	9.02
593.537	8.98
593.875	9.21
594.212	9.11
594.55	9.13
594.887	9
595.224	8.92
595.561	9.04
595.899	9.08
596.236	9.05
596.573	8.9
596.91	8.99
597.247	9.15
597.584	9.01
597.921	9.02
598.258	9.09
598.594	9.08
598.931	8.76
599.268	9
599.604	9.05
599.941	9.14
600.277	9.09
600.614	9.11
600.95	8.95
601.287	9.18
601.623	9.31
601.959	9.29
602.296	9.34
602.632	9.21
602.968	9.15
603.304	9.16
603.64	9.18
603.976	9.14
604.312	9.24
604.648	9.13
604.984	9.34
605.319	9.21
605.655	9.18
605.991	9.1
606.326	9.22
606.662	9.16
606.998	9.09
607.333	9.29
607.668	9.3
608.004	9.1
608.339	9.41
608.674	9.36
609.01	9.33
609.345	9.26
609.68	9.24
610.015	9.38
610.35	9.41
610.685	9.05
611.02	9.33
611.355	9.41
611.689	9.1
612.024	9.26
612.359	9.32
612.694	9.46
613.028	9.42
613.363	9.45
613.697	9.31
614.032	9.62
614.366	9.57
614.7	9.37
615.035	9.46
615.369	9.58
615.703	9.32
616.037	9.79
616.371	9.61
616.705	9.74
617.039	9.75
617.373	9.61
617.707	9.7
618.041	9.58
618.375	9.85
618.709	9.56
619.042	9.75
619.376	10.09
619.71	9.61
620.043	9.65
620.377	9.67
620.71	9.48
621.043	9.72
621.377	9.29
621.71	9.84
622.043	9.4
622.376	9.55
622.709	9.8
623.043	9.99
623.376	9.86
623.709	9.89
624.041	9.74
624.374	9.63
624.707	9.75
625.04	9.94
625.373	9.96
625.705	10.19
626.038	9.77
626.37	9.88
626.703	9.65
627.035	9.94
627.368	10.15
627.7	10.18
628.032	9.82
628.365	10.11
628.697	9.59
629.029	9.98
629.361	9.71
629.693	9.85
630.025	9.61
630.357	9.8
630.689	9.79
631.021	9.88
631.353	9.76
631.684	9.74
632.016	10.23
632.348	9.83
632.679	10.01
633.011	9.94
633.342	10.17
633.674	10.3
634.005	9.67
634.336	10.03
634.668	9.92
634.999	10.39
635.33	9.73
635.661	9.98
635.992	10.38
636.323	9.97
636.654	10.4
636.985	10.06
637.316	9.88
637.647	10.18
637.977	10.21
638.308	10.4
638.639	10.08
638.969	9.77
639.3	9.92
639.63	9.94
639.961	10.41
640.291	10.52
640.622	9.95
640.952	10.03
641.282	10.08
641.612	10.84
641.943	10.02
642.273	9.98
642.603	10.1
642.933	9.88
643.263	10.32
643.592	10.01
643.922	10.4
644.252	9.69
644.582	10.26
644.911	10.53
645.241	9.94
645.571	10.56
645.9	9.84
646.23	10.66
646.559	10.46
646.888	10.2
647.218	10.37
647.547	10.14
647.876	10.42
648.205	10.21
648.534	10.67
648.863	10.65
649.192	9.98
649.521	10.49
649.85	10.52
650.179	10.51
650.508	10.13
650.837	10.05
651.165	10.74
651.494	10.62
651.822	10.53
652.151	10.74
652.479	10.48
652.808	10.39
653.136	10.46
653.465	10.49
653.793	10.54
654.121	10.16
654.449	10.54
654.777	10.76
655.105	10.55
655.433	10.52
655.761	10.86
656.089	10.41
656.417	10.16
656.745	10.51
657.073	10.69
657.4	10.8
657.728	10.15
658.056	10.56
658.383	10.52
658.711	10.63
659.038	10.49
659.365	10.59
659.693	10.65
660.02	10.38
660.347	10.74
660.674	10.63
661.001	10.38
661.329	10.32
661.656	10.86
661.982	10.76
662.309	10.61
662.636	10.69
662.963	11.04
663.29	10.69
663.616	10.19
663.943	10.64
664.27	10.89
664.596	11.08
664.923	10.22
665.249	10.89
665.576	9.9
665.902	10.9
666.228	10.38
666.554	10.83
666.881	10.55
667.207	11.13
667.533	10.69
667.859	10.62
668.185	10.88
668.511	10.52
668.837	11.54
669.162	10.78
669.488	11.39
669.814	10.47
670.139	10.89
670.465	11.04
670.791	11.54
671.116	11.29
671.442	11.01
671.767	11.1
672.092	10.86
672.418	10.81
672.743	11.02
673.068	10.87
673.393	11.09
673.718	10.49
674.043	11.04
674.368	11.26
674.693	10.63
675.018	10.95
675.343	10.95
675.667	11.23
675.992	11.52
676.317	10.68
676.641	11.3
676.966	11.81
677.29	10.92
677.615	11.63
677.939	10.82
678.264	11.29
678.588	11.52
678.912	10.85
679.236	10.97
679.56	11.44
679.885	11.11
680.209	11.31
680.532	11.36
680.856	12.04
681.18	11.79
681.504	11.29
681.828	11.39
682.152	10.94
682.475	11.32
682.799	11.21
683.122	11.31
683.446	11.04
683.769	11.27
684.093	11.61
684.416	11.19
684.739	11.82
685.062	11.55
685.386	11.57
685.709	11.65
686.032	11.93
686.355	11.37
686.678	12.23
687.001	12.03
687.324	11.13
687.646	11.54
687.969	11.64
688.292	12.31
