Data from 0370_forehead_Reflection__3__149.txt Node

Date: Mon Dec 11 19:13:49 CST 2023
User: ToomeyLab
Spectrometer: FLMS14357
Trigger mode: 0
Integration Time (sec): 1.000000E-2
Scans to average: 100
Electric dark correction enabled: true
Nonlinearity correction enabled: false
Boxcar width: 0
XAxis mode: Wavelengths
Number of Pixels in Spectrum: 2048
>>>>>Begin Spectral Data<<<<<
189.047	-28250
189.435	-28250
189.823	-28250
190.211	116.12
190.599	-14.18
190.987	95.36
191.375	252.1
191.763	109.29
192.151	5.75
192.538	-70.44
192.926	-3450
193.314	-272.81
193.702	-923.31
194.089	284.07
194.477	183.36
194.864	-1683.58
195.252	172.05
195.639	-38.1
196.027	110.42
196.414	187.09
196.801	888.08
197.189	170.09
197.576	152.02
197.963	17.2
198.351	-21.18
198.738	21.65
199.125	-82.14
199.512	-29.39
199.899	30.86
200.286	-11.74
200.673	-99.04
201.06	3.52
201.447	6.26
201.833	21.63
202.22	37.13
202.607	17
202.994	-30.26
203.38	20.88
203.767	27.62
204.154	32.08
204.54	-26.78
204.927	-47.13
205.313	19.27
205.699	-85.46
206.086	-35.12
206.472	25.26
206.858	2.65
207.245	4.94
207.631	-7.47
208.017	-0.19
208.403	0.33
208.789	-65.27
209.175	4.97
209.561	-51.74
209.947	-11.56
210.333	34.13
210.719	27.02
211.105	37.3
211.491	-4.9
211.876	9.05
212.262	-23.19
212.648	18.53
213.034	-17.17
213.419	-30.54
213.805	-34.8
214.19	10.48
214.576	-11.14
214.961	-6.84
215.346	21.77
215.732	7.33
216.117	-4.22
216.502	20.58
216.888	10.85
217.273	34.17
217.658	15.2
218.043	-69.79
218.428	-8.22
218.813	6.17
219.198	16.47
219.583	4.95
219.968	-12.46
220.353	-24.25
220.738	12.61
221.122	15.22
221.507	14.91
221.892	6.23
222.276	-8.72
222.661	12.48
223.046	-2.6
223.43	3.31
223.815	0.16
224.199	7.59
224.583	5.72
224.968	5.22
225.352	7.42
225.736	6.2
226.121	0.77
226.505	-4.55
226.889	1.48
227.273	7.37
227.657	8.74
228.041	1.88
228.425	1.74
228.809	0.61
229.193	1.34
229.577	4.57
229.961	4.17
230.344	2.4
230.728	1.69
231.112	2.49
231.495	2.71
231.879	1.77
232.263	1.05
232.646	0.25
233.03	1.39
233.413	2.45
233.797	3.85
234.18	4.16
234.563	2.53
234.946	2.47
235.33	4.93
235.713	1.83
236.096	3.64
236.479	3.63
236.862	0.87
237.245	2.85
237.628	1.76
238.011	1.84
238.394	1.61
238.777	0.7
239.16	3.04
239.543	0.72
239.925	2.63
240.308	0.18
240.691	3.69
241.073	2.06
241.456	3.23
241.838	3.98
242.221	2.66
242.603	1.02
242.986	2.51
243.368	2.15
243.75	2.67
244.133	2.31
244.515	2.44
244.897	2.45
245.279	2.77
245.661	2.42
246.043	1.91
246.425	2.65
246.807	3.19
247.189	2.38
247.571	2.47
247.953	2.27
248.335	2.93
248.717	2.9
249.098	2.27
249.48	2.22
249.862	2.73
250.243	2.42
250.625	2.6
251.006	2.4
251.388	2.8
251.769	3.04
252.151	3.62
252.532	2.05
252.913	2.21
253.295	3.52
253.676	2.83
254.057	2.36
254.438	3.12
254.819	1.95
255.2	1.53
255.581	1.13
255.962	2.26
256.343	2.88
256.724	2.47
257.105	2.83
257.486	2.81
257.867	2.62
258.247	1.72
258.628	2.73
259.009	3.75
259.389	2.97
259.77	2.19
260.15	2.52
260.531	2.59
260.911	1.91
261.292	2.46
261.672	2.36
262.052	2.33
262.432	2.69
262.813	2.32
263.193	2.16
263.573	2.69
263.953	2.71
264.333	1.81
264.713	2.9
265.093	2.52
265.473	2.73
265.853	2.82
266.233	2.18
266.612	2.86
266.992	2.11
267.372	3.05
267.752	2.46
268.131	2.74
268.511	1.74
268.89	2.56
269.27	3.6
269.649	2.52
270.029	2.46
270.408	2.67
270.787	1.81
271.167	1.7
271.546	1.91
271.925	2.52
272.304	2.14
272.683	2.32
273.062	1.86
273.441	2.74
273.82	2.1
274.199	2.16
274.578	1.95
274.957	2.35
275.336	2.36
275.715	2.29
276.093	3.72
276.472	2.37
276.851	1.87
277.229	2.78
277.608	2.1
277.986	2.82
278.365	2.01
278.743	2.02
279.122	1.9
279.5	2.7
279.878	2.36
280.257	2.34
280.635	1.82
281.013	1.93
281.391	2.45
281.769	2.52
282.147	1.62
282.525	2.07
282.903	2.2
283.281	2.03
283.659	1.72
284.037	2.16
284.415	2.44
284.792	2.36
285.17	2.26
285.548	1.93
285.925	1.55
286.303	2
286.68	2.04
287.058	2.36
287.435	2.3
287.813	2.47
288.19	2.18
288.567	2.28
288.945	2.47
289.322	1.78
289.699	2.18
290.076	2.17
290.453	2.44
290.83	2.74
291.207	2.52
291.584	2.15
291.961	2.67
292.338	2.38
292.715	2.99
293.092	2.4
293.469	2.25
293.845	2.39
294.222	2.85
294.599	2.27
294.975	2.26
295.352	2
295.728	2.47
296.105	2.58
296.481	2.18
296.858	2.31
297.234	2.58
297.61	2.9
297.986	2.75
298.363	2.45
298.739	2.9
299.115	2.71
299.491	2.69
299.867	2.7
300.243	2.95
300.619	2.49
300.995	2.43
301.371	2.67
301.746	2.24
302.122	2.45
302.498	2.77
302.874	3.18
303.249	2.82
303.625	2.96
304	2.93
304.376	2.97
304.751	3.06
305.127	3.24
305.502	3.62
305.878	3.01
306.253	3.24
306.628	3.1
307.003	3.36
307.378	2.81
307.754	3.17
308.129	3.03
308.504	2.98
308.879	2.98
309.254	3.84
309.629	3.58
310.003	3.2
310.378	2.86
310.753	3.41
311.128	3.95
311.502	2.97
311.877	3.35
312.252	3.58
312.626	3.78
313.001	3.55
313.375	3.19
313.75	3.33
314.124	3.61
314.498	3.73
314.873	3.56
315.247	3.16
315.621	4.24
315.995	3.92
316.369	3.77
316.743	4.22
317.117	3.9
317.491	4.26
317.865	3.91
318.239	3.87
318.613	4.34
318.987	4.33
319.361	5.17
319.734	3.96
320.108	4.3
320.482	4.13
320.855	4.53
321.229	4.43
321.602	4.12
321.976	5.11
322.349	4.85
322.723	4.72
323.096	5.1
323.469	4.59
323.843	4.68
324.216	5.47
324.589	4.72
324.962	4.71
325.335	4.81
325.708	4.62
326.081	5.14
326.454	4.87
326.827	4.66
327.2	4.66
327.573	4.7
327.945	5.21
328.318	4.94
328.691	4.63
329.063	4.97
329.436	5.25
329.809	4.7
330.181	5.39
330.553	4.82
330.926	4.9
331.298	5.75
331.671	5.42
332.043	5.91
332.415	5.4
332.787	5.94
333.159	5.63
333.532	5.54
333.904	6.04
334.276	5.32
334.648	5.89
335.02	5.34
335.391	5.52
335.763	5.87
336.135	5.83
336.507	6.1
336.879	6.64
337.25	5.99
337.622	5.92
337.993	6.11
338.365	6.15
338.736	6.23
339.108	5.92
339.479	5.78
339.851	5.67
340.222	6.68
340.593	5.84
340.964	6.28
341.336	6.42
341.707	6.16
342.078	6.26
342.449	6.53
342.82	5.63
343.191	6.01
343.562	6.25
343.933	5.74
344.303	6.21
344.674	6.12
345.045	6.49
345.416	6.3
345.786	6.75
346.157	6.5
346.527	6.69
346.898	6.29
347.268	6.69
347.639	6.54
348.009	6.5
348.38	6.05
348.75	6.7
349.12	6.84
349.49	6.21
349.861	6.6
350.231	6.7
350.601	6.79
350.971	7.23
351.341	6.42
351.711	6.51
352.081	6.92
352.45	6.88
352.82	6.23
353.19	6.87
353.56	6.81
353.929	6.36
354.299	6.93
354.669	7.06
355.038	6.9
355.408	6.29
355.777	7.17
356.147	6.75
356.516	6.92
356.885	6.87
357.254	7.16
357.624	6.83
357.993	6.91
358.362	7.23
358.731	6.73
359.1	7.05
359.469	6.91
359.838	7.09
360.207	7.14
360.576	7.61
360.945	7.57
361.314	7.22
361.682	7.22
362.051	7.09
362.42	7.18
362.788	6.93
363.157	7.06
363.525	7
363.894	7.32
364.262	7.22
364.631	7.51
364.999	7.33
365.367	7.43
365.735	7.6
366.104	6.99
366.472	7.5
366.84	7.44
367.208	7.22
367.576	7.61
367.944	7.62
368.312	7.63
368.68	8.15
369.048	7.52
369.416	7.64
369.783	7.77
370.151	8.03
370.519	8.02
370.886	7.57
371.254	7.88
371.621	7.87
371.989	7.95
372.356	8.15
372.724	8.17
373.091	8.3
373.458	7.84
373.826	8.17
374.193	8.21
374.56	8.29
374.927	8.48
375.294	8.34
375.661	8.22
376.028	8.22
376.395	8.68
376.762	8.08
377.129	8.49
377.496	8.02
377.863	8.15
378.229	8.08
378.596	8.31
378.963	8.35
379.329	8.4
379.696	8.47
380.062	8.24
380.429	8.59
380.795	8.67
381.161	8.31
381.528	8.53
381.894	8.65
382.26	8.8
382.626	8.66
382.993	8.55
383.359	8.75
383.725	8.56
384.091	8.8
384.457	8.73
384.823	9.03
385.188	8.7
385.554	8.49
385.92	8.78
386.286	8.9
386.651	9.03
387.017	9.08
387.383	8.83
387.748	8.93
388.114	8.98
388.479	9.15
388.845	9
389.21	8.75
389.575	9.2
389.94	9.08
390.306	9.21
390.671	9.31
391.036	9.18
391.401	9.27
391.766	9.27
392.131	9.25
392.496	9.36
392.861	9.34
393.226	9.34
393.591	9.52
393.956	9.18
394.32	9.51
394.685	9.49
395.05	9.45
395.414	9.52
395.779	9.4
396.143	9.13
396.508	9.42
396.872	9.49
397.236	9.75
397.601	9.62
397.965	9.7
398.329	9.63
398.694	9.86
399.058	9.43
399.422	9.61
399.786	9.76
400.15	9.84
400.514	9.9
400.878	9.97
401.242	9.96
401.605	9.78
401.969	9.7
402.333	9.74
402.697	9.95
403.06	9.97
403.424	9.96
403.787	10.1
404.151	9.87
404.514	10.04
404.878	10.06
405.241	9.88
405.604	10.14
405.968	10.08
406.331	10.01
406.694	10.17
407.057	10.17
407.42	10.19
407.783	10.47
408.146	10.26
408.509	10.16
408.872	10.34
409.235	10.38
409.598	10.43
409.961	10.49
410.323	10.54
410.686	10.5
411.049	10.63
411.411	10.6
411.774	10.65
412.136	10.34
412.499	10.59
412.861	10.47
413.223	10.65
413.586	10.86
413.948	10.88
414.31	10.45
414.672	10.48
415.035	10.69
415.397	10.62
415.759	10.63
416.121	10.93
416.483	10.8
416.845	11.02
417.206	10.83
417.568	10.87
417.93	10.86
418.292	10.74
418.653	10.9
419.015	10.65
419.377	10.88
419.738	10.81
420.1	10.92
420.461	10.89
420.822	10.81
421.184	10.94
421.545	10.81
421.906	10.91
422.267	10.82
422.629	10.87
422.99	10.81
423.351	10.84
423.712	10.91
424.073	10.98
424.434	10.86
424.795	11.07
425.155	11.02
425.516	10.98
425.877	10.87
426.238	11.14
426.598	11.1
426.959	11.02
427.32	11.19
427.68	11.35
428.041	11.1
428.401	11.18
428.761	11.24
429.122	11.31
429.482	11.34
429.842	11.38
430.202	11.48
430.563	11.5
430.923	11.53
431.283	11.69
431.643	11.63
432.003	11.8
432.363	11.65
432.722	11.56
433.082	11.76
433.442	11.69
433.802	11.63
434.161	11.87
434.521	11.63
434.881	11.66
435.24	11.66
435.6	11.72
435.959	11.72
436.319	11.72
436.678	11.78
437.037	11.84
437.396	11.92
437.756	12.03
438.115	12.18
438.474	12.08
438.833	12.02
439.192	12.21
439.551	12.21
439.91	12.04
440.269	12.21
440.628	11.97
440.987	12.24
441.345	12.02
441.704	12.15
442.063	12
442.421	12.11
442.78	12.11
443.138	12.13
443.497	12.06
443.855	11.93
444.214	12.33
444.572	12.14
444.93	12.45
445.288	12.46
445.647	12.38
446.005	12.17
446.363	12.51
446.721	12.59
447.079	12.29
447.437	12.4
447.795	12.14
448.153	12.36
448.51	12.39
448.868	12.21
449.226	12.27
449.584	12.36
449.941	12.53
450.299	12.62
450.656	12.51
451.014	12.72
451.371	12.65
451.729	12.87
452.086	12.69
452.443	12.97
452.801	12.9
453.158	12.79
453.515	12.86
453.872	12.84
454.229	12.79
454.586	12.94
454.943	12.99
455.3	12.93
455.657	12.99
456.014	13.16
456.371	13.08
456.727	13.24
457.084	13.04
457.441	13.31
457.797	13.2
458.154	13.08
458.51	13.3
458.867	13.09
459.223	13.31
459.58	13.22
459.936	13.42
460.292	13.4
460.648	13.31
461.005	13.14
461.361	13.16
461.717	13.02
462.073	13.13
462.429	13.1
462.785	13.13
463.141	13.2
463.496	13.35
463.852	13.49
464.208	13.51
464.564	13.46
464.919	13.52
465.275	13.56
465.631	13.36
465.986	13.77
466.342	13.78
466.697	13.64
467.052	13.78
467.408	13.82
467.763	13.79
468.118	13.7
468.473	13.7
468.829	14.05
469.184	14.1
469.539	13.92
469.894	13.69
470.249	13.96
470.603	14.04
470.958	14.09
471.313	13.92
471.668	14.13
472.023	14.23
472.377	14.07
472.732	14.03
473.086	14.24
473.441	14.08
473.795	14.18
474.15	14.26
474.504	14.14
474.859	14.28
475.213	14.28
475.567	14.17
475.921	14.27
476.275	14.32
476.63	14.31
476.984	14.26
477.338	14.14
477.692	14.41
478.045	14.38
478.399	14.49
478.753	14.19
479.107	14.4
479.461	14.47
479.814	14.35
480.168	14.26
480.521	14.55
480.875	14.41
481.228	14.42
481.582	14.46
481.935	14.52
482.289	14.69
482.642	14.53
482.995	14.46
483.348	14.41
483.701	14.37
484.055	14.46
484.408	14.46
484.761	14.43
485.114	14.13
485.466	13.87
485.819	13.84
486.172	13.9
486.525	13.99
486.878	14.1
487.23	14.18
487.583	14.24
487.936	14.43
488.288	14.53
488.641	14.38
488.993	14.28
489.345	14.29
489.698	14.19
490.05	14.17
490.402	14.27
490.754	14.43
491.107	14.48
491.459	14.58
491.811	14.85
492.163	14.83
492.515	14.87
492.866	14.8
493.218	14.6
493.57	14.58
493.922	14.49
494.274	14.69
494.625	14.79
494.977	15
495.328	15.12
495.68	15.14
496.031	15.53
496.383	15.29
496.734	15.43
497.086	15.45
497.437	15.52
497.788	15.49
498.139	15.38
498.49	15.41
498.842	15.43
499.193	15.44
499.544	15.31
499.894	15.48
500.245	15.51
500.596	15.56
500.947	15.64
501.298	15.69
501.648	15.58
501.999	15.69
502.35	15.78
502.7	15.86
503.051	15.86
503.401	15.81
503.752	15.85
504.102	15.91
504.452	15.89
504.803	16.04
505.153	16.04
505.503	16.02
505.853	16.01
506.203	15.92
506.553	16.08
506.903	16.02
507.253	16.25
507.603	16.05
507.953	16.24
508.303	16.06
508.652	16.13
509.002	16.28
509.352	16.39
509.701	16.27
510.051	16.28
510.4	16.16
510.75	16.12
511.099	16.19
511.449	16.25
511.798	16.24
512.147	16.47
512.496	16.26
512.846	16.41
513.195	16.47
513.544	16.45
513.893	16.33
514.242	16.35
514.591	16.35
514.939	16.43
515.288	16.47
515.637	16.56
515.986	16.5
516.334	16.78
516.683	16.67
517.032	16.67
517.38	16.7
517.729	16.77
518.077	16.72
518.426	16.99
518.774	16.7
519.122	16.69
519.47	16.68
519.819	16.59
520.167	16.57
520.515	16.46
520.863	16.53
521.211	16.77
521.559	16.7
521.907	16.73
522.255	16.84
522.602	16.94
522.95	17
523.298	16.93
523.645	17.07
523.993	17.09
524.341	17.04
524.688	17.17
525.036	17.18
525.383	17.08
525.73	17.32
526.078	17.32
526.425	17.22
526.772	17.11
527.119	17.04
527.466	16.93
527.814	17.03
528.161	17
528.508	17.04
528.854	16.96
529.201	16.97
529.548	16.98
529.895	16.91
530.242	16.65
530.588	16.65
530.935	16.58
531.282	16.77
531.628	16.8
531.975	16.92
532.321	17.03
532.667	17.18
533.014	17.2
533.36	17.33
533.706	17.4
534.052	17.48
534.399	17.35
534.745	17.27
535.091	17.13
535.437	17.03
535.783	17.23
536.129	17.26
536.474	17.51
536.82	17.47
537.166	17.59
537.512	17.58
537.857	17.57
538.203	17.66
538.549	17.69
538.894	17.7
539.239	17.81
539.585	17.8
539.93	17.81
540.276	17.94
540.621	18.05
540.966	18.12
541.311	18.03
541.656	18.13
542.001	18.1
542.346	18.06
542.691	17.9
543.036	17.68
543.381	17.43
543.726	17.58
544.071	17.72
544.415	17.79
544.76	17.76
545.105	17.92
545.449	17.95
545.794	18.09
546.138	18.13
546.483	18.23
546.827	18.29
547.171	18.23
547.516	18.46
547.86	18.48
548.204	18.57
548.548	18.31
548.892	18.46
549.236	18.49
549.58	18.57
549.924	18.67
550.268	18.63
550.612	18.76
550.956	18.66
551.3	18.61
551.643	19.1
551.987	19.05
552.33	18.99
552.674	18.99
553.017	18.99
553.361	18.98
553.704	19
554.048	19.11
554.391	19.02
554.734	19.05
555.077	19.07
555.42	19.2
555.764	19.1
556.107	19.26
556.45	19.17
556.793	19.15
557.135	19.29
557.478	19.27
557.821	19.5
558.164	19.39
558.507	19.23
558.849	19.46
559.192	19.33
559.534	19.42
559.877	19.61
560.219	19.42
560.562	19.64
560.904	19.57
561.246	19.68
561.589	19.79
561.931	19.61
562.273	19.71
562.615	19.66
562.957	19.71
563.299	19.7
563.641	19.62
563.983	19.92
564.325	20.08
564.667	19.81
565.008	19.83
565.35	19.98
565.692	19.83
566.033	19.95
566.375	19.88
566.716	20.13
567.058	19.94
567.399	19.93
567.741	19.75
568.082	19.94
568.423	19.97
568.764	19.85
569.105	19.97
569.447	20.03
569.788	19.95
570.129	20.24
570.47	19.86
570.811	20.11
571.151	20.13
571.492	20.33
571.833	20.09
572.174	20.31
572.514	20.28
572.855	20.17
573.195	20.45
573.536	20.12
573.876	20.16
574.217	20.29
574.557	20.33
574.898	20.3
575.238	20.44
575.578	20.46
575.918	20.54
576.258	20.46
576.598	20.53
576.938	20.61
577.278	20.37
577.618	20.46
577.958	20.62
578.298	20.58
578.638	20.68
578.977	20.7
579.317	20.67
579.657	20.68
579.996	20.62
580.336	20.8
580.675	20.66
581.014	20.87
581.354	21.06
581.693	21.1
582.032	20.8
582.372	21.23
582.711	20.99
583.05	21.25
583.389	21.08
583.728	21.23
584.067	20.97
584.406	20.95
584.745	21.1
585.083	21.36
585.422	21.28
585.761	21.44
586.1	21.26
586.438	21.21
586.777	21.33
587.115	21.36
587.454	21.11
587.792	21.31
588.13	21.35
588.469	21.24
588.807	21.46
589.145	21.88
589.483	21.47
589.821	21.44
590.159	21.62
590.497	21.39
590.835	21.73
591.173	21.5
591.511	21.62
591.849	21.49
592.187	21.57
592.524	21.64
592.862	21.43
593.2	21.58
593.537	21.63
593.875	21.88
594.212	21.75
594.55	21.79
594.887	21.87
595.224	22.1
595.561	21.66
595.899	21.65
596.236	21.94
596.573	21.63
596.91	21.63
597.247	21.97
597.584	21.7
597.921	21.64
598.258	21.93
598.594	21.64
598.931	21.68
599.268	21.83
599.604	21.76
599.941	22.07
600.277	21.78
600.614	22
600.95	21.97
601.287	21.99
601.623	21.93
601.959	22.2
602.296	22.32
602.632	22.28
602.968	22.07
603.304	22.27
603.64	22.37
603.976	22.41
604.312	22.36
604.648	22.42
604.984	22.47
605.319	22.32
605.655	21.96
605.991	22.31
606.326	22.32
606.662	22.2
606.998	22.07
607.333	22.31
607.668	21.98
608.004	22.23
608.339	22.39
608.674	22.54
609.01	22.51
609.345	22.54
609.68	22.84
610.015	22.36
610.35	22.6
610.685	22.7
611.02	22.56
611.355	22.64
611.689	22.54
612.024	22.58
612.359	22.6
612.694	22.53
613.028	22.82
613.363	22.71
613.697	22.51
614.032	22.71
614.366	23.23
614.7	22.98
615.035	23.25
615.369	22.91
615.703	23.28
616.037	22.91
616.371	23.33
616.705	23.16
617.039	23.43
617.373	22.91
617.707	23.51
618.041	23.27
618.375	23.39
618.709	23.21
619.042	23.47
619.376	23.27
619.71	22.91
620.043	23
620.377	23.32
620.71	23.23
621.043	23.37
621.377	23.06
621.71	23.2
622.043	23.45
622.376	23.55
622.709	23.34
623.043	23.83
623.376	23.33
623.709	23.79
624.041	23.9
624.374	23.61
624.707	23.69
625.04	24.02
625.373	23.86
625.705	24.02
626.038	23.65
626.37	23.94
626.703	23.98
627.035	23.34
627.368	23.8
627.7	23.58
628.032	23.71
628.365	23.95
628.697	23.65
629.029	23.73
629.361	23.6
629.693	23.62
630.025	23.84
630.357	23.66
630.689	23.58
631.021	24.02
631.353	23.71
631.684	24.07
632.016	24.14
632.348	24.08
632.679	24.3
633.011	24.07
633.342	23.85
633.674	24.3
634.005	24.46
634.336	24.05
634.668	24.14
634.999	24.27
635.33	24.25
635.661	23.87
635.992	24.31
636.323	24.42
636.654	24.33
636.985	24.11
637.316	24.14
637.647	24.54
637.977	24.34
638.308	24.57
638.639	24.37
638.969	24.03
639.3	24.2
639.63	23.8
639.961	24.28
640.291	24.59
640.622	24.27
640.952	24.5
641.282	24.43
641.612	25.16
641.943	24.84
642.273	24.56
642.603	25.08
642.933	24.6
643.263	24.59
643.592	24.47
643.922	25.02
644.252	24.35
644.582	25.03
644.911	24.92
645.241	24.93
645.571	24.82
645.9	24.64
646.23	25.05
646.559	25.13
646.888	24.46
647.218	24.77
647.547	25.07
647.876	24.85
648.205	24.74
648.534	25.24
648.863	24.97
649.192	25.27
649.521	25.31
649.85	24.93
650.179	25.04
650.508	24.72
650.837	24.95
651.165	25.79
651.494	25.14
651.822	25.11
652.151	25.51
652.479	25.44
652.808	25.73
653.136	25.26
653.465	25.48
653.793	25.42
654.121	25.19
654.449	25.47
654.777	25.25
655.105	25.29
655.433	25.22
655.761	25.44
656.089	24.83
656.417	25.27
656.745	25.69
657.073	25.75
657.4	25.44
657.728	25.41
658.056	25.88
658.383	25.79
658.711	25.75
659.038	25.68
659.365	25.5
659.693	25.46
660.02	25.88
660.347	25.43
660.674	25.61
661.001	25.71
661.329	25.77
661.656	25.21
661.982	25.55
662.309	25.78
662.636	25.56
662.963	25.89
663.29	25.48
663.616	25.79
663.943	25.6
664.27	25.47
664.596	26.22
664.923	26.1
665.249	26.23
665.576	25.85
665.902	25.81
666.228	26.14
666.554	25.85
666.881	25.99
667.207	26.26
667.533	26.47
667.859	25.47
668.185	26.44
668.511	26.73
668.837	26.72
669.162	26.33
669.488	26.6
669.814	25.98
670.139	25.72
670.465	26.35
670.791	26.64
671.116	26.78
671.442	26.96
671.767	26.64
672.092	25.91
672.418	26.72
672.743	25.33
673.068	26.32
673.393	26.68
673.718	26.84
674.043	26.72
674.368	26.55
