Data from 0370_crown_Reflection__0__141.txt Node

Date: Mon Dec 11 19:12:05 CST 2023
User: ToomeyLab
Spectrometer: FLMS14357
Trigger mode: 0
Integration Time (sec): 1.000000E-2
Scans to average: 100
Electric dark correction enabled: true
Nonlinearity correction enabled: false
Boxcar width: 0
XAxis mode: Wavelengths
Number of Pixels in Spectrum: 2048
>>>>>Begin Spectral Data<<<<<
189.047	339950
189.435	339950
189.823	339950
190.211	160.78
190.599	191.3
190.987	-25.81
191.375	125.39
191.763	20.33
192.151	28.41
192.538	56.41
192.926	217550
193.314	-94.11
193.702	-1218.68
194.089	106.47
194.477	219.83
194.864	-1763.87
195.252	-7.88
195.639	3.4
196.027	109.42
196.414	-354.76
196.801	180.96
197.189	-2.51
197.576	38.58
197.963	124.58
198.351	-32.1
198.738	-7.07
199.125	-139.77
199.512	-30.69
199.899	13.79
200.286	21.99
200.673	-131.66
201.06	63.44
201.447	-6.21
201.833	12.92
202.22	34.96
202.607	-48.45
202.994	-60.67
203.38	-99.07
203.767	36.55
204.154	10.62
204.54	31.08
204.927	-28.43
205.313	10.9
205.699	-150.45
206.086	-17.69
206.472	23.83
206.858	35.26
207.245	-26.29
207.631	18.77
208.017	-35.76
208.403	21.45
208.789	-16.55
209.175	-2.63
209.561	28.79
209.947	-51.19
210.333	17.5
210.719	5.61
211.105	23.35
211.491	5.78
211.876	13
212.262	-44.89
212.648	21.19
213.034	-30.78
213.419	-25.3
213.805	-24.15
214.19	6.08
214.576	-35.7
214.961	29.3
215.346	-52.19
215.732	9.99
216.117	-12.64
216.502	9.34
216.888	26.61
217.273	-9.58
217.658	10.33
218.043	-47.84
218.428	5.98
218.813	18.35
219.198	-4.76
219.583	8.71
219.968	-6.59
220.353	-32.08
220.738	5.59
221.122	2.97
221.507	31.94
221.892	1.2
222.276	-2.74
222.661	-8.99
223.046	7.92
223.43	0.71
223.815	3.68
224.199	0.89
224.583	-15.15
224.968	-2.82
225.352	14.06
225.736	5.92
226.121	1.22
226.505	-12.56
226.889	6.17
227.273	2.22
227.657	14.14
228.041	4.07
228.425	-3.63
228.809	0.67
229.193	3.91
229.577	7.12
229.961	4.13
230.344	3.82
230.728	4.07
231.112	5.29
231.495	5.13
231.879	4.41
232.263	4.1
232.646	4.66
233.03	4.97
233.413	4.25
233.797	6.25
234.18	3.22
234.563	0.63
234.946	6.42
235.33	6.79
235.713	5.17
236.096	5.34
236.479	4.99
236.862	5.12
237.245	4.07
237.628	3.71
238.011	3.73
238.394	3.28
238.777	4.61
239.16	2.84
239.543	4.22
239.925	2.41
240.308	4.04
240.691	4.41
241.073	5.12
241.456	4.55
241.838	4.96
242.221	4.38
242.603	3.18
242.986	4.21
243.368	3.55
243.75	4.45
244.133	4.67
244.515	4.15
244.897	4.49
245.279	4.78
245.661	4.62
246.043	4.78
246.425	4.53
246.807	4.09
247.189	4.33
247.571	4.21
247.953	4.64
248.335	4.25
248.717	4.52
249.098	4.13
249.48	4.07
249.862	4.32
250.243	3.89
250.625	4.06
251.006	4.05
251.388	4.49
251.769	4.35
252.151	5.59
252.532	4.43
252.913	4.12
253.295	4.17
253.676	3.58
254.057	4.27
254.438	4.12
254.819	3.53
255.2	3.21
255.581	2.46
255.962	3.77
256.343	3.9
256.724	3.14
257.105	2.89
257.486	3.18
257.867	3.96
258.247	2.83
258.628	4
259.009	4.4
259.389	4.08
259.77	3.55
260.15	3.74
260.531	4.56
260.911	3.12
261.292	3.24
261.672	3.55
262.052	3.66
262.432	3.8
262.813	3.86
263.193	3.22
263.573	2.98
263.953	3.19
264.333	3.1
264.713	4.63
265.093	3.62
265.473	4.08
265.853	3.67
266.233	3.53
266.612	3.64
266.992	3.94
267.372	4.97
267.752	4.46
268.131	3.63
268.511	3.04
268.89	3.36
269.27	4.39
269.649	3.32
270.029	3.83
270.408	3.98
270.787	3.17
271.167	2.49
271.546	3.67
271.925	3.75
272.304	2.96
272.683	3.57
273.062	3.23
273.441	3.25
273.82	3.49
274.199	3.36
274.578	3.76
274.957	3.74
275.336	3.11
275.715	3.12
276.093	4.25
276.472	3.75
276.851	3.72
277.229	3.6
277.608	3.56
277.986	3.66
278.365	3.4
278.743	3.37
279.122	3.89
279.5	3.81
279.878	3.77
280.257	2.51
280.635	3.3
281.013	3.35
281.391	3.32
281.769	3.1
282.147	2.9
282.525	2.95
282.903	3.71
283.281	3.2
283.659	3.05
284.037	2.58
284.415	3.61
284.792	3.54
285.17	3.56
285.548	3.01
285.925	3.25
286.303	3.43
286.68	2.91
287.058	3.29
287.435	3.26
287.813	3.21
288.19	3.34
288.567	3.11
288.945	3.39
289.322	3.11
289.699	3.67
290.076	3.47
290.453	3.54
290.83	3.91
291.207	3.27
291.584	3.56
291.961	3.39
292.338	2.98
292.715	3.5
293.092	3.06
293.469	3.39
293.845	3.28
294.222	3.37
294.599	3.23
294.975	2.69
295.352	3
295.728	3.45
296.105	3.21
296.481	3.01
296.858	3.24
297.234	3.52
297.61	3.47
297.986	3.33
298.363	3.17
298.739	3.15
299.115	3.18
299.491	3.4
299.867	3.14
300.243	3.17
300.619	3.39
300.995	3.31
301.371	2.61
301.746	2.93
302.122	3.1
302.498	3.1
302.874	3.16
303.249	3.31
303.625	3.17
304	3.42
304.376	3.17
304.751	3.03
305.127	2.8
305.502	3.51
305.878	3.03
306.253	3.15
306.628	3.45
307.003	3.24
307.378	2.92
307.754	3.72
308.129	3.37
308.504	2.96
308.879	2.71
309.254	2.61
309.629	3.33
310.003	2.86
310.378	3.35
310.753	2.9
311.128	2.94
311.502	2.61
311.877	3.48
312.252	3.47
312.626	2.94
313.001	3.32
313.375	2.93
313.75	2.71
314.124	2.89
314.498	2.95
314.873	3.16
315.247	2.98
315.621	4.04
315.995	2.92
316.369	3.14
316.743	3.35
317.117	3.29
317.491	3.26
317.865	2.93
318.239	3.25
318.613	2.93
318.987	3.45
319.361	2.92
319.734	2.74
320.108	3.63
320.482	3.14
320.855	3.07
321.229	2.59
321.602	2.76
321.976	3.92
322.349	3.5
322.723	2.99
323.096	3.59
323.469	3.27
323.843	3.21
324.216	3.77
324.589	3.63
324.962	3.06
325.335	2.59
325.708	3.44
326.081	3.51
326.454	3.58
326.827	3.11
327.2	2.85
327.573	2.85
327.945	3.46
328.318	2.87
328.691	3.36
329.063	2.74
329.436	2.89
329.809	2.73
330.181	3.34
330.553	2.84
330.926	2.89
331.298	3.6
331.671	3.04
332.043	3.8
332.415	3.09
332.787	3.58
333.159	2.88
333.532	3.97
333.904	3.22
334.276	3.6
334.648	3.53
335.02	3.29
335.391	2.72
335.763	2.84
336.135	3.12
336.507	3.41
336.879	3.63
337.25	3.31
337.622	2.66
337.993	3.21
338.365	2.84
338.736	3.03
339.108	3.84
339.479	3.33
339.851	2.98
340.222	3.05
340.593	3
340.964	3.74
341.336	2.96
341.707	3.01
342.078	3.42
342.449	2.76
342.82	2.91
343.191	3.19
343.562	3.03
343.933	3
344.303	2.56
344.674	3.24
345.045	3.41
345.416	3.18
345.786	3.24
346.157	3.08
346.527	3.44
346.898	3.39
347.268	3.35
347.639	3.46
348.009	3.5
348.38	2.84
348.75	3.24
349.12	3.51
349.49	3.13
349.861	3.01
350.231	3.02
350.601	3.37
350.971	3.18
351.341	2.68
351.711	3.47
352.081	2.91
352.45	3.34
352.82	2.88
353.19	3
353.56	3.09
353.929	3.17
354.299	3.7
354.669	3.68
355.038	2.94
355.408	2.75
355.777	3.17
356.147	3.41
356.516	3.07
356.885	3.57
357.254	3.1
357.624	3.17
357.993	3.17
358.362	3.52
358.731	2.96
359.1	3.29
359.469	3.19
359.838	3.22
360.207	3.15
360.576	3.35
360.945	3.44
361.314	3.43
361.682	3
362.051	3.3
362.42	3.26
362.788	3.1
363.157	3.3
363.525	3.08
363.894	3.29
364.262	2.99
364.631	3.3
364.999	3.08
365.367	3.49
365.735	3.03
366.104	3.1
366.472	3.18
366.84	3.09
367.208	3.15
367.576	3.56
367.944	3.55
368.312	3.23
368.68	3.53
369.048	3.32
369.416	3.09
369.783	3.64
370.151	3.41
370.519	3.57
370.886	3.29
371.254	3.38
371.621	3.55
371.989	3.68
372.356	3.47
372.724	3.61
373.091	3.87
373.458	3.42
373.826	3.45
374.193	3.5
374.56	3.44
374.927	3.31
375.294	3.76
375.661	3.2
376.028	3.43
376.395	3.71
376.762	3.17
377.129	3.5
377.496	3.19
377.863	3.47
378.229	3.17
378.596	3.39
378.963	3.81
379.329	3.5
379.696	3.66
380.062	3.34
380.429	3.38
380.795	3.36
381.161	3.48
381.528	3.42
381.894	3.6
382.26	3.52
382.626	3.4
382.993	3.64
383.359	3.53
383.725	3.21
384.091	3.46
384.457	3.14
384.823	3.38
385.188	3.41
385.554	3.31
385.92	3.26
386.286	3.43
386.651	3.62
387.017	3.61
387.383	3.5
387.748	3.55
388.114	3.26
388.479	3.6
388.845	3.33
389.21	3.19
389.575	3.48
389.94	3.69
390.306	3.47
390.671	3.42
391.036	3.47
391.401	3.73
391.766	3.56
392.131	3.48
392.496	3.82
392.861	3.73
393.226	3.62
393.591	3.65
393.956	3.42
394.32	3.46
394.685	3.56
395.05	3.51
395.414	3.73
395.779	3.66
396.143	3.41
396.508	3.33
396.872	3.41
397.236	3.21
397.601	3.42
397.965	3.59
398.329	3.51
398.694	3.57
399.058	3.37
399.422	3.61
399.786	3.66
400.15	3.31
400.514	3.84
400.878	3.65
401.242	3.57
401.605	3.72
401.969	3.46
402.333	3.61
402.697	3.58
403.06	3.34
403.424	3.75
403.787	3.68
404.151	3.49
404.514	3.55
404.878	3.59
405.241	3.52
405.604	3.69
405.968	3.61
406.331	3.54
406.694	3.46
407.057	3.62
407.42	3.66
407.783	3.8
408.146	3.64
408.509	3.51
408.872	3.6
409.235	3.67
409.598	3.59
409.961	3.61
410.323	3.68
410.686	3.66
411.049	3.55
411.411	3.54
411.774	3.57
412.136	3.33
412.499	3.72
412.861	3.53
413.223	3.61
413.586	3.61
413.948	3.79
414.31	3.73
414.672	3.2
415.035	3.71
415.397	3.42
415.759	3.67
416.121	3.71
416.483	3.43
416.845	3.72
417.206	3.74
417.568	3.66
417.93	3.8
418.292	3.62
418.653	3.5
419.015	3.5
419.377	3.69
419.738	3.57
420.1	3.55
420.461	3.52
420.822	3.65
421.184	3.54
421.545	3.55
421.906	3.48
422.267	3.6
422.629	3.46
422.99	3.51
423.351	3.37
423.712	3.48
424.073	3.51
424.434	3.53
424.795	3.57
425.155	3.59
425.516	3.48
425.877	3.44
426.238	3.53
426.598	3.58
426.959	3.51
427.32	3.67
427.68	3.59
428.041	3.46
428.401	3.54
428.761	3.59
429.122	3.67
429.482	3.81
429.842	3.7
430.202	3.5
430.563	3.57
430.923	3.58
431.283	3.73
431.643	3.8
432.003	3.72
432.363	3.73
432.722	3.64
433.082	3.69
433.442	3.64
433.802	3.48
434.161	3.66
434.521	3.5
434.881	3.78
435.24	3.65
435.6	3.63
435.959	3.55
436.319	3.57
436.678	3.56
437.037	3.67
437.396	3.52
437.756	3.53
438.115	3.85
438.474	3.67
438.833	3.72
439.192	3.62
439.551	3.8
439.91	3.63
440.269	3.77
440.628	3.59
440.987	3.7
441.345	3.59
441.704	3.79
442.063	3.62
442.421	3.64
442.78	3.54
443.138	3.68
443.497	3.65
443.855	3.56
444.214	3.7
444.572	3.65
444.93	3.78
445.288	3.63
445.647	3.69
446.005	3.44
446.363	3.68
446.721	3.62
447.079	3.6
447.437	3.55
447.795	3.6
448.153	3.68
448.51	3.61
448.868	3.49
449.226	3.48
449.584	3.73
449.941	3.65
450.299	3.53
450.656	3.61
451.014	3.68
451.371	3.5
451.729	3.7
452.086	3.61
452.443	3.78
452.801	3.92
453.158	3.64
453.515	3.51
453.872	3.77
454.229	3.72
454.586	3.62
454.943	3.79
455.3	3.7
455.657	3.61
456.014	3.64
456.371	3.63
456.727	3.77
457.084	3.67
457.441	3.9
457.797	3.64
458.154	3.76
458.51	3.76
458.867	3.59
459.223	3.66
459.58	3.58
459.936	3.78
460.292	3.72
460.648	3.66
461.005	3.69
461.361	3.69
461.717	3.53
462.073	3.66
462.429	3.65
462.785	3.61
463.141	3.62
463.496	3.8
463.852	3.69
464.208	3.7
464.564	3.48
464.919	3.65
465.275	3.63
465.631	3.51
465.986	3.89
466.342	3.65
466.697	3.65
467.052	3.65
467.408	3.79
467.763	3.67
468.118	3.55
468.473	3.6
468.829	3.8
469.184	3.71
469.539	3.63
469.894	3.74
470.249	3.64
470.603	3.59
470.958	3.66
471.313	3.7
471.668	3.84
472.023	3.93
472.377	3.65
472.732	3.72
473.086	3.75
473.441	3.89
473.795	3.73
474.15	3.67
474.504	3.66
474.859	3.73
475.213	3.7
475.567	3.75
475.921	3.85
476.275	3.68
476.63	3.75
476.984	3.87
477.338	3.61
477.692	3.65
478.045	3.55
478.399	3.74
478.753	3.5
479.107	3.57
479.461	3.82
479.814	3.62
480.168	3.82
480.521	3.88
480.875	3.67
481.228	3.67
481.582	3.69
481.935	3.77
482.289	3.83
482.642	3.59
482.995	3.71
483.348	3.65
483.701	3.63
484.055	3.7
484.408	3.63
484.761	3.63
485.114	3.59
485.466	3.49
485.819	3.43
486.172	3.42
486.525	3.52
486.878	3.59
487.23	3.58
487.583	3.61
487.936	3.63
488.288	3.65
488.641	3.53
488.993	3.5
489.345	3.52
489.698	3.51
490.05	3.56
490.402	3.55
490.754	3.63
491.107	3.58
491.459	3.62
491.811	3.67
492.163	3.67
492.515	3.69
492.866	3.64
493.218	3.5
493.57	3.5
493.922	3.54
494.274	3.58
494.625	3.69
494.977	3.74
495.328	3.77
495.68	3.82
496.031	3.68
496.383	3.69
496.734	3.77
497.086	3.72
497.437	3.89
497.788	3.67
498.139	3.69
498.49	3.64
498.842	3.68
499.193	3.72
499.544	3.6
499.894	3.7
500.245	3.71
500.596	3.74
500.947	3.67
501.298	3.84
501.648	3.74
501.999	3.68
502.35	3.77
502.7	3.74
503.051	3.81
503.401	3.72
503.752	3.73
504.102	3.77
504.452	3.74
504.803	3.88
505.153	3.73
505.503	3.77
505.853	3.8
506.203	3.74
506.553	3.73
506.903	3.64
507.253	3.82
507.603	3.63
507.953	3.84
508.303	3.65
508.652	3.72
509.002	3.71
509.352	3.85
509.701	3.73
510.051	3.78
510.4	3.68
510.75	3.71
511.099	3.71
511.449	3.7
511.798	3.81
512.147	3.78
512.496	3.79
512.846	3.77
513.195	3.8
513.544	3.74
513.893	3.65
514.242	3.72
514.591	3.74
514.939	3.64
515.288	3.86
515.637	3.76
515.986	3.8
516.334	3.74
516.683	3.91
517.032	3.84
517.38	3.85
517.729	3.73
518.077	3.87
518.426	3.94
518.774	3.82
519.122	3.74
519.47	3.6
519.819	3.77
520.167	3.68
520.515	3.64
520.863	3.68
521.211	3.74
521.559	3.69
521.907	3.74
522.255	3.73
522.602	3.73
522.95	3.8
523.298	3.72
523.645	3.89
523.993	3.85
524.341	3.89
524.688	3.82
525.036	3.77
525.383	3.75
525.73	3.82
526.078	3.89
526.425	3.73
526.772	3.72
527.119	3.83
527.466	3.69
527.814	3.75
528.161	3.7
528.508	3.74
528.854	3.69
529.201	3.63
529.548	3.73
529.895	3.6
530.242	3.54
530.588	3.5
530.935	3.58
531.282	3.67
531.628	3.64
531.975	3.65
532.321	3.69
532.667	3.7
533.014	3.63
533.36	3.65
533.706	3.78
534.052	3.73
534.399	3.74
534.745	3.7
535.091	3.61
535.437	3.61
535.783	3.71
536.129	3.72
536.474	3.73
536.82	3.69
537.166	3.73
537.512	3.71
537.857	3.8
538.203	3.74
538.549	3.75
538.894	3.75
539.239	3.79
539.585	3.7
539.93	3.67
540.276	3.84
540.621	3.84
540.966	3.84
541.311	3.83
541.656	3.66
542.001	3.77
542.346	3.8
542.691	3.72
543.036	3.57
543.381	3.54
543.726	3.55
544.071	3.66
544.415	3.69
544.76	3.71
545.105	3.67
545.449	3.68
545.794	3.75
546.138	3.66
546.483	3.72
546.827	3.8
547.171	3.66
547.516	3.76
547.86	3.73
548.204	3.76
548.548	3.82
548.892	3.79
549.236	3.72
549.58	3.85
549.924	3.95
550.268	3.84
550.612	3.8
550.956	3.88
551.3	3.81
551.643	3.88
551.987	3.97
552.33	3.8
552.674	4
553.017	3.92
553.361	3.83
553.704	3.77
554.048	3.95
554.391	3.69
554.734	3.76
555.077	3.85
555.42	3.76
555.764	3.86
556.107	4.03
556.45	3.91
556.793	3.79
557.135	4.11
557.478	3.9
557.821	3.9
558.164	3.95
558.507	3.82
558.849	3.9
559.192	3.87
559.534	3.95
559.877	3.89
560.219	3.85
560.562	3.89
560.904	3.99
561.246	3.78
561.589	4.1
561.931	3.88
562.273	3.77
562.615	3.93
562.957	3.99
563.299	3.83
563.641	3.67
563.983	4
564.325	4.08
564.667	3.93
565.008	3.94
565.35	3.97
565.692	3.99
566.033	3.82
566.375	3.99
566.716	3.85
567.058	3.83
567.399	3.96
567.741	3.84
568.082	3.87
568.423	3.84
568.764	3.79
569.105	3.78
569.447	4.01
569.788	3.8
570.129	3.88
570.47	3.76
570.811	3.72
571.151	3.74
571.492	3.97
571.833	3.91
572.174	3.93
572.514	3.65
572.855	3.63
573.195	3.81
573.536	3.87
573.876	3.65
574.217	3.92
574.557	3.87
574.898	3.95
575.238	4
575.578	3.91
575.918	3.87
576.258	3.87
576.598	3.94
576.938	3.96
577.278	3.86
577.618	3.79
577.958	3.74
578.298	3.99
578.638	4.01
578.977	3.89
579.317	3.96
579.657	3.93
579.996	3.77
580.336	3.8
580.675	3.87
581.014	4.02
581.354	3.71
581.693	3.92
582.032	3.54
582.372	3.98
582.711	3.77
583.05	4.07
583.389	3.95
583.728	4.14
584.067	3.9
584.406	3.88
584.745	4.07
585.083	3.97
585.422	3.75
585.761	4
586.1	4.01
586.438	3.68
586.777	3.89
587.115	3.76
587.454	3.65
587.792	3.91
588.13	4.07
588.469	3.88
588.807	4.02
589.145	4.23
589.483	4.22
589.821	3.61
590.159	3.75
590.497	3.89
590.835	4.03
591.173	3.8
591.511	4.02
591.849	4.07
592.187	3.77
592.524	3.66
592.862	3.96
593.2	3.81
593.537	3.76
593.875	3.87
594.212	3.93
594.55	3.58
594.887	3.76
595.224	4.01
595.561	3.95
595.899	3.91
596.236	3.87
596.573	3.84
596.91	3.68
597.247	3.95
597.584	3.81
597.921	3.69
598.258	3.72
598.594	3.9
598.931	3.6
599.268	3.8
599.604	4.04
599.941	4.05
600.277	3.87
600.614	4.07
600.95	3.84
601.287	4.09
601.623	3.83
601.959	4.09
602.296	3.92
602.632	3.86
602.968	3.88
603.304	3.94
603.64	3.93
603.976	4.02
604.312	3.78
604.648	3.83
604.984	3.89
605.319	3.9
605.655	3.93
605.991	3.7
606.326	3.78
606.662	3.81
606.998	3.88
607.333	3.92
607.668	3.72
608.004	3.9
608.339	3.93
608.674	3.95
609.01	3.96
609.345	3.93
609.68	3.86
610.015	3.95
610.35	3.91
610.685	3.82
611.02	3.9
611.355	3.86
611.689	3.91
612.024	3.64
612.359	3.82
612.694	3.79
613.028	3.85
613.363	3.87
613.697	3.93
614.032	3.78
614.366	4.11
614.7	3.93
615.035	3.9
615.369	3.92
615.703	4.18
616.037	3.87
616.371	3.95
616.705	3.75
617.039	4.22
617.373	3.98
617.707	3.77
618.041	4.17
618.375	4.03
618.709	3.84
619.042	3.96
619.376	4.37
619.71	3.83
620.043	3.99
620.377	3.99
620.71	4.11
621.043	3.62
621.377	3.69
621.71	3.76
622.043	3.8
622.376	4.11
622.709	3.84
623.043	4.1
623.376	3.86
623.709	4.11
624.041	3.95
624.374	4.25
624.707	3.99
625.04	4.49
625.373	4.1
625.705	4.11
626.038	3.54
626.37	4.08
626.703	3.91
627.035	3.81
627.368	3.69
627.7	3.84
628.032	4.13
628.365	3.97
628.697	3.68
629.029	4.02
629.361	3.8
629.693	3.87
630.025	3.61
630.357	3.63
630.689	3.7
631.021	3.83
631.353	3.91
631.684	3.77
632.016	3.99
632.348	4.31
632.679	4.11
633.011	4.02
633.342	3.77
633.674	4.2
634.005	3.82
634.336	4.06
634.668	4.23
634.999	4.05
635.33	3.84
635.661	3.82
635.992	4
636.323	4.1
636.654	4.06
636.985	3.78
637.316	3.53
637.647	4.12
637.977	4.25
638.308	4.21
638.639	3.6
638.969	3.81
639.3	3.73
639.63	3.73
639.961	4.26
640.291	4.12
640.622	3.85
640.952	3.99
641.282	4.12
641.612	4.1
641.943	3.57
642.273	3.8
642.603	3.97
642.933	4.08
643.263	3.98
643.592	4.09
643.922	3.8
644.252	3.47
644.582	4.15
644.911	3.87
645.241	3.99
645.571	4.3
645.9	3.73
646.23	4.01
646.559	3.75
646.888	3.86
647.218	4.26
647.547	3.47
647.876	4.01
648.205	3.81
648.534	3.74
648.863	3.89
649.192	3.64
649.521	4.24
649.85	4.19
650.179	3.87
650.508	4.06
650.837	3.71
651.165	4.48
651.494	4.37
651.822	4.38
652.151	4.32
652.479	4.06
652.808	3.87
653.136	3.75
653.465	4.42
653.793	4.02
654.121	3.91
654.449	4.22
654.777	4.36
655.105	3.8
655.433	3.88
655.761	4.02
656.089	3.65
656.417	4.02
656.745	4.19
657.073	4.36
657.4	4.21
657.728	4.25
658.056	4.47
658.383	3.62
658.711	4.11
659.038	3.9
659.365	4.17
659.693	3.98
660.02	3.56
660.347	3.96
660.674	4.02
661.001	3.9
661.329	3.92
661.656	4.13
661.982	4.21
662.309	4.17
662.636	4.09
662.963	4.42
663.29	3.94
663.616	3.83
663.943	4.06
664.27	4.61
664.596	4.18
664.923	4.29
665.249	4.28
665.576	3.92
665.902	3.56
666.228	4.06
666.554	4
666.881	4.05
667.207	3.92
667.533	4.1
667.859	3.97
668.185	4.53
668.511	4.09
668.837	4.33
669.162	4.44
669.488	4.45
669.814	4.21
670.139	3.92
670.465	4.47
670.791	4.46
671.116	4.53
671.442	3.9
671.767	4.22
672.092	4.01
672.418	3.98
672.743	3.62
673.068	4.04
673.393	3.69
673.718	3.56
674.043	4.14
674.368	4.43
674.693	3.9
675.018	4.76
675.343	3.83
675.667	3.89
675.992	4.76
676.317	4.21
676.641	4.57
676.966	4.3
677.29	3.34
677.615	4.53
677.939	3.75
678.264	3.78
678.588	4.55
678.912	3.95
679.236	4.53
679.56	4.69
679.885	4.26
680.209	4.35
680.532	4.49
680.856	4.17
681.18	3.75
681.504	3.57
681.828	3.82
682.152	3.48
682.475	4.42
682.799	4.41
683.122	4.35
683.446	3.68
683.769	4.22
684.093	4.16
684.416	4.32
684.739	4.46
685.062	4.44
685.386	4.29
685.709	4.14
686.032	4.11
686.355	4.34
686.678	4.5
687.001	4.66
687.324	3.95
687.646	3.6
687.969	4.55
688.292	4.81
688.614	5.1
688.937	4.46
689.26	3.98
689.582	3.95
689.904	4.51
690.227	5.05
690.549	4.68
690.871	4.11
691.194	4.06
691.516	4.22
691.838	3.4
692.16	4.84
692.482	5.01
