Data from 0370_chest_Reflection__3__139.txt Node

Date: Mon Dec 11 19:10:54 CST 2023
User: ToomeyLab
Spectrometer: FLMS14357
Trigger mode: 0
Integration Time (sec): 1.000000E-2
Scans to average: 100
Electric dark correction enabled: true
Nonlinearity correction enabled: false
Boxcar width: 0
XAxis mode: Wavelengths
Number of Pixels in Spectrum: 2048
>>>>>Begin Spectral Data<<<<<
189.047	-25800
189.435	-25800
189.823	-25800
190.211	92.22
190.599	330.59
190.987	-58.19
191.375	204.01
191.763	168.2
192.151	27.63
192.538	-96.38
192.926	192600
193.314	660.84
193.702	-1079.72
194.089	68.14
194.477	53.15
194.864	-789.78
195.252	259.65
195.639	85.9
196.027	-20.88
196.414	-540.85
196.801	295.4
197.189	204.26
197.576	173.06
197.963	-37.13
198.351	-40.83
198.738	47.38
199.125	-59.73
199.512	18.56
199.899	22.2
200.286	-1.87
200.673	-82.79
201.06	17.7
201.447	-7.51
201.833	16.92
202.22	39.94
202.607	0.96
202.994	23.47
203.38	-157.2
203.767	33.45
204.154	39.26
204.54	-44.97
204.927	-219.28
205.313	-11.86
205.699	-290.73
206.086	-65.45
206.472	28.67
206.858	-17.72
207.245	9.55
207.631	9.06
208.017	12.94
208.403	27.38
208.789	-47.61
209.175	24.95
209.561	-16.62
209.947	0.36
210.333	9.79
210.719	24.14
211.105	15.55
211.491	5.09
211.876	-5.99
212.262	-32.18
212.648	-33.22
213.034	-20.2
213.419	0.58
213.805	-25.7
214.19	12.4
214.576	-21.19
214.961	-27.29
215.346	-27.61
215.732	-6.09
216.117	8.61
216.502	-3.75
216.888	13.94
217.273	13.38
217.658	-3.84
218.043	-33.63
218.428	2.3
218.813	33.76
219.198	-4.35
219.583	-3.63
219.968	-21.41
220.353	-11.63
220.738	1.27
221.122	2.24
221.507	25.83
221.892	17.51
222.276	-19.5
222.661	-19.44
223.046	-2.15
223.43	14.34
223.815	-5.65
224.199	-0.26
224.583	-7.37
224.968	10.66
225.352	4.57
225.736	-3.34
226.121	-2.16
226.505	-6.44
226.889	4.92
227.273	0.19
227.657	6.33
228.041	4.3
228.425	-0.6
228.809	-4.76
229.193	2.61
229.577	0.81
229.961	1.71
230.344	1.7
230.728	1.82
231.112	1.56
231.495	2.73
231.879	2.57
232.263	2.04
232.646	0.74
233.03	0.18
233.413	0.65
233.797	5.33
234.18	-0.26
234.563	2.43
234.946	0.4
235.33	3.2
235.713	1.18
236.096	2.16
236.479	2.26
236.862	-0.36
237.245	0.06
237.628	1.63
238.011	1.52
238.394	2.43
238.777	0.98
239.16	1.27
239.543	1.82
239.925	-0.19
240.308	0.26
240.691	1.78
241.073	1.95
241.456	3.24
241.838	4.3
242.221	2.94
242.603	1.53
242.986	2.38
243.368	1.93
243.75	2.33
244.133	2.21
244.515	2.07
244.897	2.46
245.279	2.24
245.661	1.74
246.043	1.15
246.425	3
246.807	2.59
247.189	1.68
247.571	2.31
247.953	2
248.335	2.3
248.717	2.1
249.098	2.29
249.48	1.95
249.862	2.44
250.243	2.53
250.625	1.98
251.006	1.52
251.388	1.55
251.769	1.9
252.151	3.72
252.532	2.72
252.913	1.54
253.295	1.79
253.676	2.19
254.057	1.96
254.438	2.05
254.819	1.67
255.2	1.27
255.581	2.29
255.962	1.25
256.343	1.87
256.724	2.13
257.105	1.89
257.486	2.52
257.867	2.45
258.247	1.25
258.628	2.54
259.009	2.5
259.389	2.86
259.77	1.89
260.15	1.88
260.531	1.8
260.911	1.08
261.292	1.97
261.672	1.85
262.052	2.07
262.432	1.88
262.813	2.35
263.193	1.7
263.573	1.76
263.953	1.99
264.333	1.66
264.713	2.07
265.093	1.91
265.473	2.53
265.853	1.94
266.233	2.17
266.612	1.8
266.992	2.01
267.372	2.68
267.752	2.46
268.131	2.17
268.511	1.4
268.89	1.83
269.27	2.27
269.649	2.12
270.029	2.24
270.408	1.86
270.787	1.35
271.167	0.87
271.546	1.19
271.925	1.84
272.304	1.69
272.683	2.17
273.062	1.4
273.441	2.1
273.82	1.85
274.199	1.99
274.578	1.63
274.957	2.09
275.336	2.27
275.715	1.9
276.093	2.52
276.472	2.48
276.851	2.44
277.229	2.13
277.608	1.67
277.986	2.73
278.365	1.61
278.743	1.79
279.122	1.28
279.5	1.98
279.878	1.68
280.257	1.56
280.635	1.82
281.013	1.56
281.391	1.5
281.769	1.63
282.147	1.19
282.525	1.93
282.903	2.05
283.281	1.65
283.659	2.12
284.037	1.44
284.415	1.39
284.792	2.28
285.17	2.4
285.548	1.72
285.925	1.79
286.303	1.72
286.68	1.74
287.058	1.76
287.435	1.83
287.813	2.02
288.19	1.63
288.567	1.81
288.945	1.78
289.322	1.54
289.699	1.77
290.076	1.73
290.453	2.02
290.83	2.07
291.207	1.97
291.584	2.06
291.961	1.62
292.338	2.04
292.715	2.37
293.092	1.82
293.469	1.74
293.845	2.01
294.222	2.28
294.599	1.71
294.975	1.99
295.352	1.79
295.728	1.76
296.105	1.88
296.481	1.86
296.858	1.99
297.234	2.38
297.61	2.57
297.986	2.2
298.363	1.75
298.739	2.27
299.115	1.91
299.491	2.02
299.867	2.35
300.243	2.13
300.619	1.94
300.995	1.99
301.371	2.16
301.746	1.98
302.122	2.49
302.498	2.59
302.874	2.03
303.249	2.31
303.625	1.91
304	2.21
304.376	2.22
304.751	1.69
305.127	2.11
305.502	2.79
305.878	2.13
306.253	2.4
306.628	2.4
307.003	2.67
307.378	2.32
307.754	2.31
308.129	2.81
308.504	1.9
308.879	2.17
309.254	2.71
309.629	2.74
310.003	2.12
310.378	2.01
310.753	2.62
311.128	2.37
311.502	2.1
311.877	2.32
312.252	2.44
312.626	2.01
313.001	2.6
313.375	2.18
313.75	2.07
314.124	2.23
314.498	2.34
314.873	1.91
315.247	1.93
315.621	2.44
315.995	3
316.369	2.37
316.743	2.93
317.117	2.53
317.491	2.16
317.865	2.32
318.239	2.93
318.613	2.19
318.987	2.52
319.361	3.42
319.734	2.27
320.108	2.25
320.482	2.24
320.855	1.9
321.229	2.81
321.602	2.55
321.976	3.07
322.349	2.37
322.723	2.44
323.096	3.15
323.469	3.48
323.843	2.67
324.216	3.1
324.589	3
324.962	2.14
325.335	2.53
325.708	2.54
326.081	3.34
326.454	2.9
326.827	2.93
327.2	2.32
327.573	2.05
327.945	2.78
328.318	2.68
328.691	2.46
329.063	2.45
329.436	2.63
329.809	2.92
330.181	2.76
330.553	2.62
330.926	2.37
331.298	3.34
331.671	2.55
332.043	2.93
332.415	3
332.787	2.92
333.159	3.1
333.532	2.77
333.904	2.4
334.276	3.27
334.648	3.28
335.02	2.22
335.391	2.72
335.763	2.88
336.135	2.88
336.507	2.69
336.879	3.35
337.25	2.76
337.622	2.46
337.993	2.57
338.365	2.67
338.736	3.15
339.108	3.11
339.479	2.58
339.851	2.37
340.222	2.64
340.593	2.05
340.964	2.74
341.336	2.76
341.707	2.06
342.078	2.9
342.449	2.62
342.82	2.64
343.191	2.35
343.562	2.87
343.933	2.42
344.303	2.16
344.674	2.64
345.045	2.85
345.416	2.79
345.786	3.07
346.157	2.93
346.527	2.83
346.898	2.68
347.268	2.84
347.639	2.94
348.009	3.03
348.38	2.66
348.75	2.64
349.12	2.73
349.49	2.45
349.861	2.73
350.231	2.44
350.601	2.9
350.971	2.72
351.341	2.36
351.711	2.72
352.081	2.21
352.45	2.76
352.82	2.34
353.19	2.73
353.56	2.71
353.929	2.86
354.299	2.92
354.669	3
355.038	2.76
355.408	2.33
355.777	2.7
356.147	2.61
356.516	2.84
356.885	2.42
357.254	2.97
357.624	2.95
357.993	2.16
358.362	2.91
358.731	2.84
359.1	2.64
359.469	2.53
359.838	2.69
360.207	2.81
360.576	2.72
360.945	3.16
361.314	3.17
361.682	2.68
362.051	2.79
362.42	3.02
362.788	2.72
363.157	2.59
363.525	2.71
363.894	3.08
364.262	2.7
364.631	2.94
364.999	2.8
365.367	2.85
365.735	2.81
366.104	2.78
366.472	2.73
366.84	2.54
367.208	2.41
367.576	3.22
367.944	2.94
368.312	2.68
368.68	2.61
369.048	2.6
369.416	2.43
369.783	2.79
370.151	3.16
370.519	3.45
370.886	2.64
371.254	3.14
371.621	2.88
371.989	2.71
372.356	3.04
372.724	3.17
373.091	2.95
373.458	2.86
373.826	2.96
374.193	2.75
374.56	3.18
374.927	3.04
375.294	2.91
375.661	2.64
376.028	2.78
376.395	3.28
376.762	2.99
377.129	3.17
377.496	2.76
377.863	2.95
378.229	2.67
378.596	2.93
378.963	3.02
379.329	2.75
379.696	3.06
380.062	2.59
380.429	2.7
380.795	2.91
381.161	2.91
381.528	2.95
381.894	2.85
382.26	3.12
382.626	2.86
382.993	2.89
383.359	2.77
383.725	2.82
384.091	2.78
384.457	2.82
384.823	2.78
385.188	2.7
385.554	2.66
385.92	2.89
386.286	2.77
386.651	2.76
387.017	2.99
387.383	3.06
387.748	2.99
388.114	3.05
388.479	2.91
388.845	3.05
389.21	2.95
389.575	2.87
389.94	2.72
390.306	3.03
390.671	3.18
391.036	2.86
391.401	3.13
391.766	2.76
392.131	3.02
392.496	3.18
392.861	3.1
393.226	2.85
393.591	3.02
393.956	2.93
394.32	2.92
394.685	3.07
395.05	3.04
395.414	3.28
395.779	3
396.143	2.82
396.508	2.82
396.872	3.06
397.236	3.01
397.601	3.05
397.965	2.94
398.329	2.97
398.694	3.22
399.058	2.88
399.422	2.95
399.786	2.98
400.15	2.9
400.514	3.09
400.878	2.97
401.242	2.83
401.605	3.25
401.969	3.07
402.333	2.99
402.697	2.9
403.06	2.96
403.424	3.2
403.787	3.08
404.151	3.01
404.514	2.84
404.878	3.04
405.241	2.89
405.604	2.91
405.968	3.21
406.331	2.8
406.694	2.99
407.057	2.97
407.42	3.16
407.783	3.04
408.146	3.29
408.509	3.17
408.872	3.01
409.235	2.99
409.598	3.14
409.961	3.18
410.323	3.17
410.686	3.24
411.049	2.95
411.411	3.08
411.774	3.13
412.136	3.04
412.499	3.06
412.861	3.02
413.223	3.01
413.586	3.23
413.948	2.96
414.31	2.89
414.672	2.67
415.035	2.95
415.397	3.12
415.759	3.18
416.121	3.11
416.483	3.2
416.845	3.33
417.206	3.4
417.568	3.23
417.93	3.2
418.292	3.1
418.653	3.06
419.015	3.04
419.377	3.2
419.738	3.11
420.1	2.98
420.461	3.05
420.822	3.05
421.184	3.1
421.545	2.99
421.906	3.16
422.267	3.23
422.629	2.92
422.99	3.03
423.351	3.02
423.712	3.03
424.073	3.04
424.434	3.03
424.795	3.12
425.155	3.13
425.516	3.09
425.877	2.87
426.238	2.99
426.598	3.06
426.959	3.1
427.32	3.2
427.68	3.11
428.041	3.06
428.401	2.99
428.761	3.11
429.122	3.07
429.482	3.07
429.842	3.22
430.202	3.13
430.563	3.04
430.923	3.12
431.283	3.32
431.643	3.13
432.003	3.39
432.363	3.34
432.722	3.25
433.082	3.25
433.442	3.32
433.802	3.09
434.161	3.52
434.521	3.14
434.881	3.37
435.24	3.23
435.6	3.01
435.959	3.15
436.319	3.16
436.678	3.27
437.037	3.14
437.396	3.2
437.756	3.33
438.115	3.45
438.474	3.28
438.833	3.13
439.192	3.21
439.551	3.24
439.91	3.3
440.269	3.27
440.628	3.04
440.987	3.23
441.345	3.17
441.704	3.32
442.063	3.22
442.421	3.13
442.78	3.19
443.138	3.31
443.497	3.22
443.855	3.17
444.214	3.4
444.572	3.07
444.93	3.4
445.288	3.17
445.647	3.32
446.005	3.21
446.363	3.32
446.721	3.33
447.079	3.22
447.437	3.19
447.795	3.2
448.153	3.34
448.51	3.25
448.868	3.17
449.226	3.12
449.584	3.31
449.941	3.36
450.299	3.29
450.656	3.26
451.014	3.43
451.371	3.14
451.729	3.48
452.086	3.39
452.443	3.43
452.801	3.42
453.158	3.46
453.515	3.11
453.872	3.36
454.229	3.47
454.586	3.22
454.943	3.45
455.3	3.36
455.657	3.48
456.014	3.45
456.371	3.46
456.727	3.48
457.084	3.37
457.441	3.48
457.797	3.38
458.154	3.37
458.51	3.52
458.867	3.22
459.223	3.21
459.58	3.38
459.936	3.6
460.292	3.38
460.648	3.42
461.005	3.29
461.361	3.34
461.717	3.33
462.073	3.3
462.429	3.33
462.785	3.25
463.141	3.37
463.496	3.67
463.852	3.37
464.208	3.39
464.564	3.43
464.919	3.48
465.275	3.45
465.631	3.33
465.986	3.54
466.342	3.45
466.697	3.28
467.052	3.53
467.408	3.55
467.763	3.37
468.118	3.35
468.473	3.43
468.829	3.47
469.184	3.64
469.539	3.51
469.894	3.4
470.249	3.57
470.603	3.42
470.958	3.63
471.313	3.45
471.668	3.68
472.023	3.61
472.377	3.53
472.732	3.47
473.086	3.66
473.441	3.6
473.795	3.46
474.15	3.62
474.504	3.38
474.859	3.68
475.213	3.66
475.567	3.61
475.921	3.6
476.275	3.59
476.63	3.52
476.984	3.76
477.338	3.49
477.692	3.55
478.045	3.54
478.399	3.52
478.753	3.39
479.107	3.46
479.461	3.49
479.814	3.54
480.168	3.53
480.521	3.66
480.875	3.58
481.228	3.5
481.582	3.73
481.935	3.57
482.289	3.65
482.642	3.5
482.995	3.57
483.348	3.53
483.701	3.47
484.055	3.44
484.408	3.47
484.761	3.47
485.114	3.44
485.466	3.39
485.819	3.32
486.172	3.39
486.525	3.4
486.878	3.48
487.23	3.53
487.583	3.53
487.936	3.49
488.288	3.61
488.641	3.47
488.993	3.45
489.345	3.49
489.698	3.44
490.05	3.48
490.402	3.47
490.754	3.5
491.107	3.49
491.459	3.62
491.811	3.65
492.163	3.64
492.515	3.67
492.866	3.61
493.218	3.48
493.57	3.48
493.922	3.48
494.274	3.56
494.625	3.66
494.977	3.74
495.328	3.7
495.68	3.82
496.031	3.77
496.383	3.8
496.734	3.86
497.086	3.83
497.437	3.77
497.788	3.72
498.139	3.7
498.49	3.77
498.842	3.78
499.193	3.74
499.544	3.73
499.894	3.82
500.245	3.82
500.596	3.88
500.947	3.75
501.298	3.87
501.648	3.77
501.999	3.72
502.35	3.82
502.7	3.97
503.051	3.8
503.401	3.86
503.752	3.83
504.102	3.77
504.452	3.82
504.803	4.07
505.153	4.07
505.503	3.97
505.853	3.89
506.203	3.79
506.553	3.99
506.903	3.84
507.253	4
507.603	3.94
507.953	3.93
508.303	3.84
508.652	4.11
509.002	3.89
509.352	3.98
509.701	3.95
510.051	3.94
510.4	3.87
510.75	3.89
511.099	3.96
511.449	3.99
511.798	3.85
512.147	4.06
512.496	3.92
512.846	3.94
513.195	4.14
513.544	3.97
513.893	3.9
514.242	3.93
514.591	3.93
514.939	3.93
515.288	4.01
515.637	4.03
515.986	4.06
516.334	4.09
516.683	4.13
517.032	4.21
517.38	4.24
517.729	4.13
518.077	4.17
518.426	4.14
518.774	4.12
519.122	4.07
519.47	4.12
519.819	4.06
520.167	4.11
520.515	4.06
520.863	4.05
521.211	4.18
521.559	4.07
521.907	4.15
522.255	4.14
522.602	4.23
522.95	4.29
523.298	4.2
523.645	4.5
523.993	4.17
524.341	4.31
524.688	4.2
525.036	4.34
525.383	4.39
525.73	4.37
526.078	4.25
526.425	4.21
526.772	4.27
527.119	4.2
527.466	4.16
527.814	4.26
528.161	4.19
528.508	4.25
528.854	4.31
529.201	4.27
529.548	4.34
529.895	4.09
530.242	4.17
530.588	4.12
530.935	4.17
531.282	4.23
531.628	4.31
531.975	4.31
532.321	4.33
532.667	4.38
533.014	4.27
533.36	4.41
533.706	4.42
534.052	4.41
534.399	4.48
534.745	4.41
535.091	4.27
535.437	4.34
535.783	4.37
536.129	4.48
536.474	4.55
536.82	4.46
537.166	4.43
537.512	4.58
537.857	4.6
538.203	4.54
538.549	4.56
538.894	4.54
539.239	4.71
539.585	4.74
539.93	4.56
540.276	4.62
540.621	4.63
540.966	4.78
541.311	4.78
541.656	4.68
542.001	4.74
542.346	4.69
542.691	4.56
543.036	4.58
543.381	4.52
543.726	4.58
544.071	4.65
544.415	4.67
544.76	4.67
545.105	4.76
545.449	4.67
545.794	4.81
546.138	4.8
546.483	4.94
546.827	4.95
547.171	4.9
547.516	4.84
547.86	4.9
548.204	4.91
548.548	4.88
548.892	4.89
549.236	4.98
549.58	5.03
549.924	5.11
550.268	4.99
550.612	4.98
550.956	5.13
551.3	5.1
551.643	5.35
551.987	5.25
552.33	5.12
552.674	5.35
553.017	5.25
553.361	5.1
553.704	5.27
554.048	5.24
554.391	5.06
554.734	5.27
555.077	5.2
555.42	5.28
555.764	5.25
556.107	5.32
556.45	5.27
556.793	5.28
557.135	5.25
557.478	5.34
557.821	5.34
558.164	5.47
558.507	5.39
558.849	5.5
559.192	5.59
559.534	5.39
559.877	5.54
560.219	5.52
560.562	5.75
560.904	5.46
561.246	5.48
561.589	5.67
561.931	5.65
562.273	5.32
562.615	5.58
562.957	5.66
563.299	5.71
563.641	5.51
563.983	5.86
564.325	5.74
564.667	5.85
565.008	5.68
565.35	6.07
565.692	5.88
566.033	5.85
566.375	5.97
566.716	5.93
567.058	5.83
567.399	5.94
567.741	5.81
568.082	5.86
568.423	5.88
568.764	5.78
569.105	5.97
569.447	5.98
569.788	5.92
570.129	6
570.47	6.02
570.811	5.85
571.151	6.07
571.492	6.28
571.833	6.2
572.174	6.32
572.514	6.13
572.855	6.08
573.195	6.09
573.536	6.11
573.876	6
574.217	6.26
574.557	6.18
574.898	6.23
575.238	6.36
575.578	6.49
575.918	6.41
576.258	6.43
576.598	6.36
576.938	6.45
577.278	6.43
577.618	6.44
577.958	6.43
578.298	6.58
578.638	6.75
578.977	6.59
579.317	6.69
579.657	6.49
579.996	6.57
580.336	6.77
580.675	6.81
581.014	6.66
581.354	6.8
581.693	6.86
582.032	6.61
582.372	7.02
582.711	6.62
583.05	7.03
583.389	6.9
583.728	7.14
584.067	6.86
584.406	6.83
584.745	6.91
585.083	7.03
585.422	7.12
585.761	7.19
586.1	7.04
586.438	6.89
586.777	7.1
587.115	7.03
587.454	7.17
587.792	7.03
588.13	7.34
588.469	7.11
588.807	7.33
589.145	7.6
589.483	7.38
589.821	7.21
590.159	7.23
590.497	7.02
590.835	7.56
591.173	7.28
591.511	7.56
591.849	7.59
592.187	7.53
592.524	7.51
592.862	7.45
593.2	7.46
593.537	7.37
593.875	7.34
594.212	7.69
594.55	7.67
594.887	7.67
595.224	7.65
595.561	7.69
595.899	7.7
596.236	7.77
596.573	7.84
596.91	7.72
597.247	7.75
597.584	7.71
597.921	7.9
598.258	7.76
598.594	7.77
598.931	7.9
599.268	7.85
599.604	7.93
599.941	8.22
600.277	7.87
600.614	8.19
600.95	7.9
601.287	8.17
601.623	8
601.959	8.34
602.296	8.08
602.632	8.24
602.968	8.4
603.304	8.17
603.64	8.56
603.976	8.22
604.312	8.09
604.648	8.14
604.984	8.6
605.319	8.41
605.655	8.32
605.991	8.38
606.326	8.42
606.662	8.44
606.998	8.3
607.333	8.48
607.668	8.48
608.004	8.35
608.339	8.78
608.674	8.85
609.01	8.65
609.345	8.8
609.68	8.82
610.015	8.87
610.35	8.7
610.685	8.44
611.02	8.5
611.355	8.82
611.689	8.84
612.024	8.8
612.359	8.79
612.694	8.92
613.028	8.82
613.363	8.79
613.697	9.08
614.032	9.21
614.366	9.43
614.7	9.06
615.035	9.13
615.369	9.21
615.703	9.14
616.037	9.23
616.371	9.6
616.705	9.5
617.039	9.59
617.373	9.48
617.707	9.81
618.041	9.68
618.375	9.58
618.709	9.54
619.042	9.31
619.376	10.03
619.71	9.49
620.043	9.37
620.377	9.77
620.71	9.42
621.043	9.94
621.377	9.55
621.71	10.05
622.043	9.39
622.376	9.81
622.709	10.22
623.043	10.15
623.376	9.92
623.709	10.16
624.041	10.14
624.374	9.95
624.707	9.69
625.04	10.13
625.373	9.97
625.705	9.92
626.038	9.84
626.37	10.4
626.703	10.33
627.035	10.21
627.368	10.16
627.7	9.89
628.032	9.72
628.365	10.23
628.697	10.42
629.029	10.35
629.361	10.14
629.693	10.29
630.025	10.23
630.357	10.36
630.689	9.95
631.021	10.49
631.353	10.68
631.684	10.28
632.016	10.66
632.348	10.74
632.679	10.99
633.011	10.42
633.342	10.6
633.674	10.66
634.005	11
634.336	10.73
634.668	10.86
634.999	11.19
635.33	10.55
635.661	11.15
635.992	11.09
636.323	10.94
636.654	11.08
636.985	10.95
637.316	10.88
637.647	11.11
637.977	11.15
638.308	11.39
638.639	11.09
638.969	11.57
639.3	11.42
639.63	11.15
639.961	11.38
640.291	11.66
640.622	11.34
640.952	11.7
641.282	11.57
641.612	11.87
641.943	11.71
642.273	11.28
642.603	11.95
642.933	11.42
643.263	11.54
643.592	11.67
643.922	11.51
644.252	11.36
644.582	11.88
644.911	11.87
645.241	11.78
645.571	11.86
645.9	11.61
646.23	12.11
646.559	12.2
646.888	12.08
647.218	12.15
647.547	11.84
647.876	12.19
648.205	11.65
648.534	12.02
648.863	12.01
649.192	12.2
649.521	12.55
649.85	12.45
650.179	11.93
650.508	12.39
650.837	11.61
651.165	12.72
651.494	12.18
651.822	12.42
652.151	12.86
652.479	12.19
652.808	12.5
653.136	12.35
653.465	12.97
653.793	12.52
654.121	12.63
654.449	12.08
654.777	13.08
655.105	12.59
655.433	12.9
655.761	12.84
656.089	12.79
656.417	12.63
656.745	12.68
657.073	12.71
657.4	12.8
657.728	13.12
658.056	13.76
658.383	13.1
658.711	13.08
659.038	13.42
659.365	13.48
659.693	13.05
660.02	12.69
660.347	12.68
660.674	13.35
661.001	12.85
661.329	13.35
661.656	13.34
661.982	13.18
662.309	13.27
662.636	13.62
662.963	13.97
663.29	13.74
663.616	13.07
663.943	12.88
664.27	13.68
664.596	13.2
664.923	13.54
665.249	13.79
665.576	13.56
665.902	13.11
666.228	13.6
666.554	13.9
666.881	13.89
667.207	14.44
667.533	13.76
667.859	13.88
668.185	14.09
668.511	13.82
668.837	14.57
669.162	13.78
669.488	14.06
669.814	14.23
670.139	13.87
670.465	14.18
670.791	13.89
671.116	14.26
671.442	14.31
671.767	14.5
672.092	14.32
672.418	14.65
672.743	14.16
673.068	14.04
673.393	14.27
673.718	14.26
674.043	15.66
674.368	14.97
674.693	14.32
675.018	14.76
675.343	14.35
675.667	14.43
675.992	14.47
676.317	15.07
676.641	14.48
676.966	15.68
677.29	14.69
677.615	15.18
677.939	14.51
678.264	15.05
678.588	14.92
678.912	14.56
679.236	14.75
679.56	15.1
679.885	15.36
680.209	15.2
680.532	14.86
680.856	15.38
681.18	15.1
681.504	14.8
681.828	14.51
682.152	14.8
682.475	15.19
682.799	15.42
683.122	15.02
683.446	14.86
683.769	15.49
684.093	16
684.416	14.8
684.739	15.55
685.062	15.66
685.386	15.6
685.709	15.95
686.032	15.15
686.355	16.03
686.678	15.71
687.001	15.56
687.324	14.71
687.646	14.91
687.969	15.29
