Data from 0370_chest_Reflection__0__136.txt Node

Date: Mon Dec 11 19:10:20 CST 2023
User: ToomeyLab
Spectrometer: FLMS14357
Trigger mode: 0
Integration Time (sec): 1.000000E-2
Scans to average: 100
Electric dark correction enabled: true
Nonlinearity correction enabled: false
Boxcar width: 0
XAxis mode: Wavelengths
Number of Pixels in Spectrum: 2048
>>>>>Begin Spectral Data<<<<<
189.047	201800
189.435	201800
189.823	201800
190.211	137.72
190.599	129.39
190.987	107.4
191.375	32.27
191.763	93.5
192.151	61.7
192.538	-31.11
192.926	97800
193.314	312.55
193.702	-554.45
194.089	1.65
194.477	2.45
194.864	-1715.33
195.252	-147.14
195.639	0.66
196.027	-37.12
196.414	290.23
196.801	-439.33
197.189	31.96
197.576	155.35
197.963	-145.44
198.351	-43.49
198.738	9.46
199.125	-121.22
199.512	44.43
199.899	-1.25
200.286	10.15
200.673	-89.27
201.06	9.29
201.447	-3.08
201.833	10.59
202.22	48.46
202.607	18.17
202.994	-32.72
203.38	35.18
203.767	40.09
204.154	47.27
204.54	-8.83
204.927	53.59
205.313	-25.73
205.699	-325.65
206.086	-38.56
206.472	35.96
206.858	15.37
207.245	9.48
207.631	18.26
208.017	29.45
208.403	2.18
208.789	6.43
209.175	-4.75
209.561	1.14
209.947	-8.47
210.333	23.25
210.719	79.03
211.105	9.08
211.491	42.94
211.876	12.3
212.262	-55.34
212.648	-11.2
213.034	0.6
213.419	15.8
213.805	-8.89
214.19	-11.54
214.576	-46.42
214.961	-8.79
215.346	-17.52
215.732	-9.68
216.117	-15.92
216.502	18.75
216.888	-8.2
217.273	35.88
217.658	-3.79
218.043	30.29
218.428	14.39
218.813	20.48
219.198	10
219.583	-10.54
219.968	-8.89
220.353	-20.35
220.738	14.49
221.122	-11.29
221.507	26.88
221.892	15
222.276	-2.44
222.661	-7.01
223.046	-1.27
223.43	10.32
223.815	3.2
224.199	7.84
224.583	-2.71
224.968	2.69
225.352	4.26
225.736	5.15
226.121	13.63
226.505	0.85
226.889	3.7
227.273	4.64
227.657	11.8
228.041	3.44
228.425	4.52
228.809	6.05
229.193	8.02
229.577	6.77
229.961	5.22
230.344	5.34
230.728	5.51
231.112	5.59
231.495	5.96
231.879	6.21
232.263	4.83
232.646	4.55
233.03	4.81
233.413	5.39
233.797	7.06
234.18	5.22
234.563	3.19
234.946	8.03
235.33	7.05
235.713	6.16
236.096	5.83
236.479	6.35
236.862	5.16
237.245	6.75
237.628	6.11
238.011	5.56
238.394	5.79
238.777	5.65
239.16	5.45
239.543	6.23
239.925	4.46
240.308	7.16
240.691	7.54
241.073	5.25
241.456	5.81
241.838	6.09
242.221	5.87
242.603	4.99
242.986	4.39
243.368	4.76
243.75	6.08
244.133	6.19
244.515	5.6
244.897	5.87
245.279	5.93
245.661	6.48
246.043	5.56
246.425	6.11
246.807	5.02
247.189	6.26
247.571	6.07
247.953	5.92
248.335	6.26
248.717	5.92
249.098	5.7
249.48	5.74
249.862	6.21
250.243	6.18
250.625	5.5
251.006	5.19
251.388	6.02
251.769	6.01
252.151	6.57
252.532	5.99
252.913	6.7
253.295	6.89
253.676	5.87
254.057	5.98
254.438	5.47
254.819	4.98
255.2	5.06
255.581	5.03
255.962	5.38
256.343	5.76
256.724	6.16
257.105	5.3
257.486	4.79
257.867	6.84
258.247	4.74
258.628	5.73
259.009	6.37
259.389	5.76
259.77	4.92
260.15	4.73
260.531	5.15
260.911	4.92
261.292	4.82
261.672	5.36
262.052	5.26
262.432	5.33
262.813	5.45
263.193	4.82
263.573	5.42
263.953	4.78
264.333	4.56
264.713	5.74
265.093	5.02
265.473	6.19
265.853	5.61
266.233	4.98
266.612	4.94
266.992	5.3
267.372	6.15
267.752	5.48
268.131	5.21
268.511	5.11
268.89	5.56
269.27	5.2
269.649	5.33
270.029	5.33
270.408	5.24
270.787	4.86
271.167	3.97
271.546	4.84
271.925	5.27
272.304	5.24
272.683	4.84
273.062	4.72
273.441	4.89
273.82	4.94
274.199	4.97
274.578	5.15
274.957	5.05
275.336	5.04
275.715	5.12
276.093	5.7
276.472	5.15
276.851	5.5
277.229	4.93
277.608	4.73
277.986	5.22
278.365	4.84
278.743	4.84
279.122	5.11
279.5	5.25
279.878	4.89
280.257	4.96
280.635	4.99
281.013	4.61
281.391	5.14
281.769	4.73
282.147	4.95
282.525	4.46
282.903	4.84
283.281	4.36
283.659	4.59
284.037	4.7
284.415	5.05
284.792	4.68
285.17	5.22
285.548	5.11
285.925	4.55
286.303	4.79
286.68	4.44
287.058	4.66
287.435	5.16
287.813	4.88
288.19	4.55
288.567	4.5
288.945	4.93
289.322	4.77
289.699	5.45
290.076	4.93
290.453	4.69
290.83	5.38
291.207	5.08
291.584	4.62
291.961	5.04
292.338	4.94
292.715	5.26
293.092	4.77
293.469	4.86
293.845	4.89
294.222	5.44
294.599	5.33
294.975	4.91
295.352	4.87
295.728	4.62
296.105	4.76
296.481	4.98
296.858	5.17
297.234	5.21
297.61	5.32
297.986	5.32
298.363	5.18
298.739	5.29
299.115	5.04
299.491	5.43
299.867	5.25
300.243	5
300.619	5.07
300.995	5.09
301.371	5.71
301.746	5.24
302.122	5.3
302.498	5.53
302.874	5.45
303.249	5.34
303.625	5.11
304	5.39
304.376	5.58
304.751	5.19
305.127	5.21
305.502	5.18
305.878	5.67
306.253	5.37
306.628	5.67
307.003	5.68
307.378	5.16
307.754	5.12
308.129	5.67
308.504	5.17
308.879	5.01
309.254	5.87
309.629	5.64
310.003	5.64
310.378	5.1
310.753	5.6
311.128	5.42
311.502	4.94
311.877	5.59
312.252	5.68
312.626	5.54
313.001	5.73
313.375	5.17
313.75	5.64
314.124	5.56
314.498	5.31
314.873	5.26
315.247	5.28
315.621	6.52
315.995	6.05
316.369	5.2
316.743	6.09
317.117	6.27
317.491	5.93
317.865	5.2
318.239	6.01
318.613	6.11
318.987	5.6
319.361	6.11
319.734	5.69
320.108	5.16
320.482	5.31
320.855	5.69
321.229	5.55
321.602	5.6
321.976	6.47
322.349	5.75
322.723	4.97
323.096	5.83
323.469	6.05
323.843	6.21
324.216	6.59
324.589	6.47
324.962	5.47
325.335	5.67
325.708	5.91
326.081	6.28
326.454	6.26
326.827	5.98
327.2	5.73
327.573	5.71
327.945	6.46
328.318	5.69
328.691	5.91
329.063	5.64
329.436	5.33
329.809	6
330.181	6.13
330.553	6.06
330.926	5.18
331.298	5.79
331.671	5.07
332.043	5.82
332.415	5.85
332.787	5.84
333.159	5.51
333.532	5.81
333.904	5.42
334.276	6.38
334.648	6.44
335.02	5.52
335.391	5.64
335.763	5.72
336.135	6.08
336.507	6.17
336.879	5.89
337.25	5.57
337.622	5.45
337.993	6.28
338.365	5.56
338.736	5.72
339.108	5.81
339.479	6.27
339.851	6.17
340.222	5.81
340.593	5.59
340.964	6.08
341.336	5.86
341.707	5.68
342.078	6.12
342.449	5.73
342.82	5.32
343.191	5.62
343.562	5.68
343.933	5.38
344.303	5.44
344.674	5.63
345.045	5.72
345.416	5.63
345.786	6.03
346.157	5.77
346.527	5.47
346.898	6.14
347.268	6.12
347.639	5.89
348.009	5.65
348.38	5.41
348.75	5.94
349.12	5.97
349.49	5.65
349.861	5.38
350.231	5.63
350.601	5.95
350.971	5.79
351.341	5.52
351.711	5.82
352.081	5.74
352.45	6.02
352.82	5.16
353.19	5.56
353.56	5.42
353.929	5.37
354.299	6.05
354.669	6.11
355.038	5.83
355.408	5.39
355.777	5.95
356.147	5.76
356.516	5.8
356.885	6.02
357.254	5.85
357.624	5.52
357.993	5.49
358.362	5.76
358.731	5.89
359.1	5.92
359.469	5.83
359.838	6.04
360.207	5.79
360.576	5.87
360.945	6.24
361.314	5.95
361.682	5.74
362.051	5.66
362.42	5.76
362.788	5.65
363.157	5.58
363.525	5.61
363.894	5.54
364.262	5.75
364.631	5.74
364.999	5.61
365.367	5.85
365.735	5.95
366.104	5.91
366.472	6.09
366.84	5.5
367.208	5.56
367.576	5.99
367.944	5.92
368.312	5.78
368.68	5.97
369.048	5.84
369.416	5.43
369.783	5.78
370.151	6.09
370.519	6.21
370.886	5.7
371.254	5.78
371.621	6
371.989	5.91
372.356	5.89
372.724	6.08
373.091	6.28
373.458	5.79
373.826	5.93
374.193	6.12
374.56	6.16
374.927	6
375.294	6.33
375.661	5.87
376.028	6.39
376.395	6.14
376.762	6.24
377.129	6.22
377.496	5.82
377.863	6.18
378.229	5.9
378.596	6.27
378.963	6.05
379.329	5.94
379.696	6.27
380.062	5.84
380.429	5.52
380.795	6.14
381.161	6.07
381.528	5.92
381.894	6.03
382.26	6.21
382.626	5.97
382.993	6.16
383.359	6.12
383.725	5.98
384.091	6.07
384.457	5.79
384.823	6.55
385.188	6.08
385.554	5.92
385.92	5.73
386.286	5.92
386.651	6.06
387.017	6.21
387.383	6.06
387.748	6.06
388.114	5.92
388.479	6.14
388.845	5.86
389.21	5.92
389.575	5.92
389.94	6.15
390.306	6.11
390.671	5.97
391.036	6.22
391.401	6.46
391.766	6.15
392.131	6.08
392.496	6.28
392.861	6.23
393.226	5.94
393.591	6.22
393.956	6
394.32	6.12
394.685	6.16
395.05	6.33
395.414	6.18
395.779	6.08
396.143	5.93
396.508	6.05
396.872	5.97
397.236	6.13
397.601	6.16
397.965	6.07
398.329	6.03
398.694	6.26
399.058	5.71
399.422	6.07
399.786	6.09
400.15	6.1
400.514	6.07
400.878	6.17
401.242	6.1
401.605	6.17
401.969	6.02
402.333	5.96
402.697	6.25
403.06	6.19
403.424	5.92
403.787	6.33
404.151	6.12
404.514	5.98
404.878	6.13
405.241	5.98
405.604	6.21
405.968	6.25
406.331	5.99
406.694	6.06
407.057	5.98
407.42	6.42
407.783	6.3
408.146	6.17
408.509	6.18
408.872	5.97
409.235	6.05
409.598	6.34
409.961	6.26
410.323	6.51
410.686	6.25
411.049	6.15
411.411	6.11
411.774	6.29
412.136	6.27
412.499	6.4
412.861	6.07
413.223	6.14
413.586	6.22
413.948	6.32
414.31	5.99
414.672	6.17
415.035	6.08
415.397	6.23
415.759	6.18
416.121	6.14
416.483	6.19
416.845	6.26
417.206	6.14
417.568	6.36
417.93	6.36
418.292	6.24
418.653	6.17
419.015	6.1
419.377	6.15
419.738	6.16
420.1	6.28
420.461	6.3
420.822	6.18
421.184	6.09
421.545	6.11
421.906	6.16
422.267	6.24
422.629	6.06
422.99	6.22
423.351	6.05
423.712	6.05
424.073	6.22
424.434	6.12
424.795	6.3
425.155	6.23
425.516	6.15
425.877	6.05
426.238	6.13
426.598	6.14
426.959	6.16
427.32	6.25
427.68	6.28
428.041	6.16
428.401	6.2
428.761	6.19
429.122	6.32
429.482	6.22
429.842	6.37
430.202	6.31
430.563	6.4
430.923	6.28
431.283	6.27
431.643	6.45
432.003	6.42
432.363	6.33
432.722	6.3
433.082	6.39
433.442	6.46
433.802	6.25
434.161	6.35
434.521	6.24
434.881	6.57
435.24	6.22
435.6	6.32
435.959	6.17
436.319	6.29
436.678	6.46
437.037	6.24
437.396	6.4
437.756	6.41
438.115	6.59
438.474	6.34
438.833	6.38
439.192	6.55
439.551	6.58
439.91	6.53
440.269	6.47
440.628	6.26
440.987	6.51
441.345	6.35
441.704	6.44
442.063	6.23
442.421	6.28
442.78	6.28
443.138	6.24
443.497	6.42
443.855	6.34
444.214	6.43
444.572	6.38
444.93	6.49
445.288	6.46
445.647	6.61
446.005	6.26
446.363	6.36
446.721	6.48
447.079	6.38
447.437	6.31
447.795	6.31
448.153	6.35
448.51	6.38
448.868	6.28
449.226	6.22
449.584	6.43
449.941	6.53
450.299	6.38
450.656	6.48
451.014	6.63
451.371	6.4
451.729	6.57
452.086	6.61
452.443	6.6
452.801	6.52
453.158	6.5
453.515	6.4
453.872	6.49
454.229	6.56
454.586	6.44
454.943	6.56
455.3	6.5
455.657	6.62
456.014	6.54
456.371	6.69
456.727	6.61
457.084	6.56
457.441	6.66
457.797	6.49
458.154	6.58
458.51	6.76
458.867	6.47
459.223	6.47
459.58	6.46
459.936	6.65
460.292	6.62
460.648	6.61
461.005	6.55
461.361	6.55
461.717	6.37
462.073	6.45
462.429	6.44
462.785	6.49
463.141	6.53
463.496	6.76
463.852	6.48
464.208	6.57
464.564	6.67
464.919	6.58
465.275	6.51
465.631	6.56
465.986	6.69
466.342	6.76
466.697	6.64
467.052	6.51
467.408	6.63
467.763	6.56
468.118	6.58
468.473	6.51
468.829	6.52
469.184	6.93
469.539	6.64
469.894	6.64
470.249	6.62
470.603	6.74
470.958	6.76
471.313	6.6
471.668	6.71
472.023	6.87
472.377	6.73
472.732	6.62
473.086	6.82
473.441	6.95
473.795	6.78
474.15	6.74
474.504	6.75
474.859	6.77
475.213	6.79
475.567	6.73
475.921	6.8
476.275	6.83
476.63	6.74
476.984	6.86
477.338	6.6
477.692	6.62
478.045	6.64
478.399	6.77
478.753	6.67
479.107	6.72
479.461	6.65
479.814	6.75
480.168	6.72
480.521	6.92
480.875	6.77
481.228	6.72
481.582	6.86
481.935	6.8
482.289	6.84
482.642	6.67
482.995	6.87
483.348	6.72
483.701	6.65
484.055	6.8
484.408	6.72
484.761	6.7
485.114	6.52
485.466	6.47
485.819	6.37
486.172	6.41
486.525	6.44
486.878	6.49
487.23	6.55
487.583	6.59
487.936	6.71
488.288	6.68
488.641	6.65
488.993	6.57
489.345	6.63
489.698	6.55
490.05	6.61
490.402	6.55
490.754	6.66
491.107	6.69
491.459	6.75
491.811	6.8
492.163	6.82
492.515	6.85
492.866	6.76
493.218	6.64
493.57	6.68
493.922	6.62
494.274	6.67
494.625	6.73
494.977	6.9
495.328	6.92
495.68	6.97
496.031	6.94
496.383	6.8
496.734	6.96
497.086	7.09
497.437	7.08
497.788	6.95
498.139	6.88
498.49	6.89
498.842	6.99
499.193	6.93
499.544	6.89
499.894	6.97
500.245	6.91
500.596	7.06
500.947	6.91
501.298	6.93
501.648	6.92
501.999	6.92
502.35	7.13
502.7	7.05
503.051	7.04
503.401	7.02
503.752	7.07
504.102	7.01
504.452	7.11
504.803	7.36
505.153	7.15
505.503	7.2
505.853	7.19
506.203	7.11
506.553	7.14
506.903	6.99
507.253	7.13
507.603	7.09
507.953	7.4
508.303	7.12
508.652	7.18
509.002	7.16
509.352	7.26
509.701	7.06
510.051	7.07
510.4	7.14
510.75	7.18
511.099	7.12
511.449	7.21
511.798	7.14
512.147	7.35
512.496	7.05
512.846	7.24
513.195	7.28
513.544	7.32
513.893	7.14
514.242	7.15
514.591	7.2
514.939	7.09
515.288	7.32
515.637	7.31
515.986	7.23
516.334	7.3
516.683	7.39
517.032	7.33
517.38	7.34
517.729	7.35
518.077	7.4
518.426	7.5
518.774	7.27
519.122	7.38
519.47	7.28
519.819	7.24
520.167	7.25
520.515	7.25
520.863	7.25
521.211	7.32
521.559	7.26
521.907	7.33
522.255	7.27
522.602	7.25
522.95	7.43
523.298	7.46
523.645	7.5
523.993	7.49
524.341	7.54
524.688	7.42
525.036	7.37
525.383	7.52
525.73	7.53
526.078	7.56
526.425	7.47
526.772	7.41
527.119	7.48
527.466	7.34
527.814	7.4
528.161	7.39
528.508	7.44
528.854	7.43
529.201	7.41
529.548	7.47
529.895	7.31
530.242	7.28
530.588	7.21
530.935	7.29
531.282	7.33
531.628	7.37
531.975	7.37
532.321	7.42
532.667	7.48
533.014	7.48
533.36	7.48
533.706	7.69
534.052	7.58
534.399	7.59
534.745	7.62
535.091	7.5
535.437	7.44
535.783	7.51
536.129	7.59
536.474	7.61
536.82	7.59
537.166	7.64
537.512	7.56
537.857	7.8
538.203	7.67
538.549	7.71
538.894	7.72
539.239	7.7
539.585	7.76
539.93	7.67
540.276	7.82
540.621	7.8
540.966	8.02
541.311	7.89
541.656	7.95
542.001	7.98
542.346	7.93
542.691	7.86
543.036	7.71
543.381	7.63
543.726	7.63
544.071	7.68
544.415	7.78
544.76	7.83
545.105	7.83
545.449	7.89
545.794	7.97
546.138	8.01
546.483	7.98
546.827	8.12
547.171	7.96
547.516	8.02
547.86	8.14
548.204	8.15
548.548	8.05
548.892	8.02
549.236	8.04
549.58	8.15
549.924	8.26
550.268	8.07
550.612	8.25
550.956	8.18
551.3	8.25
551.643	8.24
551.987	8.42
552.33	8.5
552.674	8.37
553.017	8.4
553.361	8.37
553.704	8.28
554.048	8.4
554.391	8.22
554.734	8.39
555.077	8.38
555.42	8.58
555.764	8.58
556.107	8.61
556.45	8.51
556.793	8.4
557.135	8.58
557.478	8.62
557.821	8.59
558.164	8.69
558.507	8.5
558.849	8.71
559.192	8.51
559.534	8.69
559.877	8.65
560.219	8.55
560.562	8.84
560.904	8.77
561.246	8.8
561.589	8.63
561.931	8.84
562.273	8.64
562.615	8.67
562.957	8.84
563.299	8.77
563.641	8.6
563.983	8.97
564.325	9.17
564.667	9.16
565.008	8.96
565.35	8.98
565.692	8.95
566.033	9.01
566.375	9.06
566.716	8.83
567.058	8.91
567.399	9.11
567.741	8.96
568.082	9
568.423	9.05
568.764	8.98
569.105	8.99
569.447	9.1
569.788	9.01
570.129	9.26
570.47	9.01
570.811	8.98
571.151	9.14
571.492	9.33
571.833	9.23
572.174	9.3
572.514	9.26
572.855	9.18
573.195	9.29
573.536	9.32
573.876	9.09
574.217	9.37
574.557	9.28
574.898	9.31
575.238	9.42
575.578	9.5
575.918	9.47
576.258	9.5
576.598	9.66
576.938	9.61
577.278	9.45
577.618	9.52
577.958	9.41
578.298	9.82
578.638	9.72
578.977	9.75
579.317	9.59
579.657	9.53
579.996	9.59
580.336	9.7
580.675	9.52
581.014	9.77
581.354	9.84
581.693	9.89
582.032	9.69
582.372	9.94
582.711	9.69
583.05	10.1
583.389	10.1
583.728	9.9
584.067	9.81
584.406	10.01
584.745	9.99
585.083	10
585.422	10
585.761	10.38
586.1	9.96
586.438	9.74
586.777	10.16
587.115	9.92
587.454	10.05
587.792	10.04
588.13	10.34
588.469	10.13
588.807	10.02
589.145	10.39
589.483	10.23
589.821	10.07
590.159	10.13
590.497	10.42
590.835	10.24
591.173	10.32
591.511	10.65
591.849	10.65
592.187	10.24
592.524	10.66
592.862	10.33
593.2	10.47
593.537	10.4
593.875	10.66
594.212	10.5
594.55	10.43
594.887	10.3
595.224	10.76
595.561	10.45
595.899	10.57
596.236	10.63
596.573	10.62
596.91	10.57
597.247	10.77
597.584	10.53
597.921	10.71
598.258	10.9
598.594	10.78
598.931	10.63
599.268	10.7
599.604	10.84
599.941	11.02
600.277	10.75
600.614	10.99
600.95	10.81
601.287	11.07
601.623	10.92
601.959	11.15
602.296	10.99
602.632	11.01
602.968	10.98
603.304	11.32
603.64	11.06
603.976	11.38
604.312	10.96
604.648	11.41
604.984	11.57
605.319	11.25
605.655	11.29
605.991	11.31
606.326	11.24
606.662	11.2
606.998	11.19
607.333	11.11
607.668	11.28
608.004	11.19
608.339	11.54
608.674	11.58
609.01	11.49
609.345	11.61
609.68	11.3
610.015	11.62
610.35	11.59
610.685	11.43
611.02	11.69
611.355	11.69
611.689	11.69
612.024	11.43
612.359	11.61
612.694	11.88
613.028	11.7
613.363	11.45
613.697	11.7
614.032	11.65
614.366	12.02
614.7	11.64
615.035	11.97
615.369	11.91
615.703	11.86
616.037	12.26
616.371	12.14
616.705	12.18
617.039	12.21
617.373	12.24
617.707	12.14
618.041	12.29
618.375	12.15
618.709	12.18
619.042	11.97
619.376	12.6
619.71	12.32
620.043	11.97
620.377	12.31
620.71	12.3
621.043	12.34
621.377	11.96
621.71	12.43
622.043	12.2
622.376	12.34
622.709	12.5
623.043	12.7
623.376	12.56
623.709	12.7
624.041	12.29
624.374	12.39
624.707	12.22
625.04	13.01
625.373	12.38
625.705	12.71
626.038	12.39
626.37	12.81
626.703	13.02
627.035	12.65
627.368	12.8
627.7	12.79
628.032	12.94
628.365	13.04
628.697	12.9
629.029	12.86
629.361	12.7
629.693	12.61
630.025	12.89
630.357	13.1
630.689	12.99
631.021	12.83
631.353	13.14
631.684	13.13
632.016	13.11
632.348	12.96
632.679	13.12
633.011	13.15
633.342	13.07
633.674	13.36
634.005	13.26
634.336	13.38
634.668	13.27
634.999	13.71
635.33	13.28
635.661	13.4
635.992	13.89
636.323	13.31
636.654	13.54
636.985	13.57
637.316	13.26
637.647	13.58
637.977	13.43
638.308	13.86
638.639	13.36
638.969	13.51
639.3	13.5
639.63	13.26
639.961	13.88
640.291	13.82
640.622	13.46
640.952	14.11
641.282	13.82
641.612	14.13
641.943	13.88
642.273	13.92
642.603	13.83
642.933	13.67
643.263	14.02
643.592	14.38
643.922	14.01
644.252	13.69
644.582	14.11
644.911	14.29
645.241	14.3
645.571	14.62
645.9	13.73
646.23	14.29
646.559	13.96
646.888	13.82
647.218	14.32
647.547	14.39
647.876	14.59
648.205	14.04
648.534	14.15
648.863	14.61
649.192	14.15
649.521	14.38
649.85	14.63
650.179	14.59
650.508	14.23
650.837	14.04
651.165	14.89
651.494	14.98
651.822	15.12
652.151	15.12
652.479	14.54
652.808	14.76
653.136	14.38
653.465	14.63
653.793	14.75
654.121	14.58
654.449	14.83
654.777	15.03
655.105	14.88
655.433	15.08
655.761	14.74
656.089	14.66
656.417	14.51
656.745	15.25
657.073	14.85
657.4	15.14
657.728	15.02
658.056	15.1
658.383	14.9
658.711	15.16
659.038	15.39
659.365	15.08
659.693	15.24
660.02	15
660.347	15.56
660.674	15.22
661.001	14.99
661.329	15.16
661.656	15.52
661.982	15.13
662.309	15.67
662.636	15.56
662.963	15.61
663.29	15.57
663.616	15.42
663.943	15.32
664.27	15.71
664.596	15.86
664.923	16.03
665.249	15.83
665.576	15.6
665.902	15.14
666.228	16.02
666.554	15.79
666.881	15.7
667.207	16.06
667.533	15.75
667.859	15.88
668.185	15.92
668.511	16.13
668.837	15.97
669.162	15.79
669.488	16.28
669.814	15.81
670.139	15.61
670.465	16.46
670.791	16.11
671.116	16.1
671.442	16.16
671.767	16.6
672.092	16.28
672.418	16.15
672.743	16.06
673.068	16.42
673.393	16.56
673.718	16.53
674.043	16.74
674.368	16.83
674.693	16.19
675.018	16.58
675.343	16.11
675.667	16.51
675.992	16.63
676.317	17.01
676.641	17.37
676.966	16.39
677.29	15.95
677.615	17.22
677.939	17.07
678.264	16.43
678.588	17.06
678.912	16.14
679.236	16.84
679.56	16.86
679.885	16.73
680.209	16.7
680.532	17.29
680.856	16.99
681.18	16.88
681.504	17.2
681.828	16.55
682.152	16.41
682.475	17.21
682.799	17.02
683.122	17.51
683.446	16.91
683.769	17.13
684.093	17.31
684.416	17.36
684.739	17.48
685.062	17.2
