Data from 0075_forehead_Reflection__4__389.txt Node

Date: Fri Dec 16 17:07:42 CST 2022
User: ToomeyLab
Spectrometer: FLMS14357
Trigger mode: 0
Integration Time (sec): 1.000000E-2
Scans to average: 100
Electric dark correction enabled: true
Nonlinearity correction enabled: false
Boxcar width: 0
XAxis mode: Wavelengths
Number of Pixels in Spectrum: 2048
>>>>>Begin Spectral Data<<<<<
189.047	270.8
189.435	270.8
189.823	270.8
190.211	-27.31
190.599	-13.3
190.987	157.61
191.375	157.35
191.763	189.17
192.151	-135.54
192.538	39.83
192.926	92.84
193.314	134.93
193.702	83.88
194.089	2121.61
194.477	-265.01
194.864	52.72
195.252	62.75
195.639	81.41
196.027	400.72
196.414	-1571.17
196.801	-222.78
197.189	182.74
197.576	15247.06
197.963	-128.01
198.351	32.48
198.738	17.72
199.125	45.77
199.512	-2.01
199.899	-11.3
200.286	4.26
200.673	38.67
201.06	42.21
201.447	55.3
201.833	28.85
202.22	7.11
202.607	-9.01
202.994	21.04
203.38	-13.42
203.767	-3.97
204.154	-67.43
204.54	-2.08
204.927	5.41
205.313	48.09
205.699	13.17
206.086	-29.88
206.472	2.39
206.858	23
207.245	42.3
207.631	50.15
208.017	8.22
208.403	4.72
208.789	21.23
209.175	56.09
209.561	9.92
209.947	6.54
210.333	-14.76
210.719	31.95
211.105	24.77
211.491	18.79
211.876	-25.19
212.262	-0.4
212.648	9.05
213.034	-4.65
213.419	28.92
213.805	4.45
214.19	-1.47
214.576	-27.49
214.961	15.19
215.346	-16.65
215.732	-4.12
216.117	26
216.502	-11.83
216.888	-3.73
217.273	-8.66
217.658	10.55
218.043	7.38
218.428	7.16
218.813	-10.47
219.198	-24.75
219.583	10.25
219.968	7.45
220.353	14.14
220.738	-2.86
221.122	12.05
221.507	12.77
221.892	9.26
222.276	20.63
222.661	24.08
223.046	15.51
223.43	4.9
223.815	7.49
224.199	2.61
224.583	-1.49
224.968	10.54
225.352	2.24
225.736	10.07
226.121	-0.68
226.505	0.34
226.889	7.93
227.273	7.58
227.657	8.79
228.041	6.42
228.425	10.1
228.809	6.32
229.193	4.98
229.577	5.86
229.961	7.32
230.344	6.09
230.728	6.29
231.112	4.84
231.495	5.46
231.879	6.11
232.263	5.41
232.646	6.13
233.03	5.58
233.413	5.67
233.797	7.99
234.18	5.72
234.563	6.32
234.946	5.7
235.33	6.41
235.713	6.57
236.096	4.94
236.479	5.74
236.862	6.32
237.245	5.97
237.628	8.39
238.011	7.65
238.394	10
238.777	6.27
239.16	2.87
239.543	6.45
239.925	7.16
240.308	8.08
240.691	6.41
241.073	6.58
241.456	5.94
241.838	7.51
242.221	6.68
242.603	6.79
242.986	7.54
243.368	6.55
243.75	6.28
244.133	6.63
244.515	6.63
244.897	6.87
245.279	6.83
245.661	6.57
246.043	7.61
246.425	6.09
246.807	6.3
247.189	6.66
247.571	7.08
247.953	6.66
248.335	6.83
248.717	6.81
249.098	6.9
249.48	6.73
249.862	6.81
250.243	7.02
250.625	6.7
251.006	6.73
251.388	7.31
251.769	7.3
252.151	6.69
252.532	7.18
252.913	7.29
253.295	7.02
253.676	6.77
254.057	6.11
254.438	6.46
254.819	6.67
255.2	7.5
255.581	6.71
255.962	6.12
256.343	7.55
256.724	6.72
257.105	7.95
257.486	7.21
257.867	5.04
258.247	6.87
258.628	6.98
259.009	6.61
259.389	7.45
259.77	6.8
260.15	7.44
260.531	6.67
260.911	6.73
261.292	6.78
261.672	6.58
262.052	6.29
262.432	6.53
262.813	6.43
263.193	6.32
263.573	6.33
263.953	6.46
264.333	7
264.713	6.67
265.093	6.28
265.473	8.35
265.853	7.68
266.233	6.63
266.612	6.38
266.992	5.7
267.372	6.67
267.752	6.01
268.131	6.65
268.511	6.52
268.89	6.89
269.27	6.32
269.649	6.79
270.029	6.52
270.408	6.29
270.787	6.62
271.167	6.68
271.546	6.04
271.925	7.08
272.304	6.9
272.683	6.15
273.062	6.42
273.441	6.98
273.82	6.59
274.199	6.29
274.578	5.91
274.957	6.28
275.336	6.43
275.715	6.61
276.093	7.04
276.472	6.53
276.851	6.84
277.229	6.44
277.608	5.76
277.986	6.42
278.365	5.89
278.743	6.86
279.122	6.26
279.5	6.39
279.878	5.81
280.257	6.6
280.635	6.78
281.013	6.59
281.391	5.61
281.769	6.19
282.147	6.9
282.525	6.28
282.903	6.65
283.281	6.82
283.659	6.76
284.037	6.06
284.415	6.92
284.792	6.26
285.17	6.32
285.548	6.37
285.925	6.27
286.303	6.05
286.68	6.65
287.058	6.5
287.435	6.4
287.813	6.57
288.19	6.77
288.567	6.3
288.945	6.89
289.322	6.97
289.699	6.84
290.076	6.75
290.453	6.71
290.83	6.9
291.207	6.94
291.584	6.9
291.961	7.15
292.338	6.85
292.715	7.27
293.092	7.07
293.469	7.17
293.845	7.61
294.222	7.31
294.599	7.45
294.975	7.49
295.352	7
295.728	7.31
296.105	7.83
296.481	8.09
296.858	7.74
297.234	7.7
297.61	8.07
297.986	8
298.363	7.57
298.739	8.15
299.115	7.63
299.491	7.51
299.867	8
300.243	8.05
300.619	7.86
300.995	8.21
301.371	8.5
301.746	8.27
302.122	8.33
302.498	8.55
302.874	8.87
303.249	9.11
303.625	8.47
304	8.15
304.376	8.9
304.751	8.57
305.127	8.42
305.502	8.9
305.878	8.62
306.253	8.69
306.628	8.82
307.003	8.65
307.378	8.89
307.754	9.13
308.129	9.04
308.504	8.92
308.879	9.32
309.254	9.63
309.629	9.35
310.003	9.84
310.378	9.94
310.753	9.78
311.128	9.77
311.502	9.09
311.877	9.52
312.252	9.66
312.626	9.28
313.001	9.85
313.375	9.8
313.75	9.61
314.124	9.98
314.498	9.87
314.873	9.91
315.247	9.98
315.621	9.79
315.995	10.54
316.369	10.59
316.743	10.29
317.117	9.77
317.491	10.25
317.865	9.45
318.239	10.76
318.613	10.48
318.987	10.6
319.361	10.26
319.734	10.54
320.108	11.17
320.482	10.55
320.855	10.78
321.229	10.99
321.602	10.94
321.976	10.83
322.349	10.33
322.723	10.68
323.096	10.6
323.469	10.97
323.843	11.2
324.216	10.74
324.589	11.2
324.962	11.25
325.335	11.4
325.708	11.22
326.081	11.67
326.454	11.29
326.827	11.29
327.2	12.15
327.573	11.78
327.945	11.71
328.318	11.66
328.691	11.6
329.063	11.9
329.436	11.64
329.809	11.23
330.181	12.09
330.553	12.37
330.926	12.08
331.298	11.43
331.671	12.14
332.043	12.13
332.415	12.17
332.787	12.87
333.159	12.76
333.532	12.28
333.904	12.5
334.276	12.91
334.648	12.47
335.02	12.5
335.391	12.89
335.763	12.77
336.135	12.52
336.507	12.93
336.879	13.38
337.25	13
337.622	12.98
337.993	12.61
338.365	12.83
338.736	12.9
339.108	12.82
339.479	13.36
339.851	13.37
340.222	13.77
340.593	12.78
340.964	13.45
341.336	13.13
341.707	13.17
342.078	13.3
342.449	13.74
342.82	13.5
343.191	13.19
343.562	13.52
343.933	13.78
344.303	13.55
344.674	13.61
345.045	14.21
345.416	14.03
345.786	13.5
346.157	13.73
346.527	13.25
346.898	13.83
347.268	13.87
347.639	14.28
348.009	14.26
348.38	14.29
348.75	13.66
349.12	14.09
349.49	14.11
349.861	14.32
350.231	14.38
350.601	14.13
350.971	14.32
351.341	14.41
351.711	14.73
352.081	14.5
352.45	14.89
352.82	14.38
353.19	14.44
353.56	14.97
353.929	14.58
354.299	15.13
354.669	14.87
355.038	15.06
355.408	15.07
355.777	15.09
356.147	15.18
356.516	15.68
356.885	14.68
357.254	15.47
357.624	15.48
357.993	15.07
358.362	15.55
358.731	15.36
359.1	15.34
359.469	15.66
359.838	15.1
360.207	15.25
360.576	15.72
360.945	15.29
361.314	15.87
361.682	15.61
362.051	15.63
362.42	15.98
362.788	16.1
363.157	15.77
363.525	15.84
363.894	15.56
364.262	15.81
364.631	16.41
364.999	15.86
365.367	16.31
365.735	15.7
366.104	16
366.472	16.47
366.84	16.4
367.208	16.14
367.576	16.28
367.944	16.26
368.312	16.23
368.68	16.63
369.048	16.69
369.416	16.82
369.783	16.6
370.151	16.78
370.519	16.73
370.886	16.52
371.254	16.66
371.621	17.1
371.989	16.86
372.356	16.89
372.724	16.93
373.091	16.89
373.458	17.34
373.826	16.9
374.193	17.57
374.56	17.41
374.927	17.22
375.294	17.68
375.661	17.62
376.028	17.52
376.395	17.48
376.762	17.89
377.129	18
377.496	17.81
377.863	17.75
378.229	17.7
378.596	17.94
378.963	17.61
379.329	18.08
379.696	17.83
380.062	17.98
380.429	17.97
380.795	17.87
381.161	18.08
381.528	17.65
381.894	18.4
382.26	18
382.626	18.2
382.993	17.93
383.359	18.23
383.725	18.53
384.091	18.45
384.457	18.55
384.823	18.43
385.188	18.82
385.554	18.51
385.92	18.66
386.286	19.12
386.651	18.95
387.017	18.58
387.383	18.86
387.748	18.84
388.114	19.07
388.479	19.12
388.845	19.05
389.21	18.88
389.575	18.95
389.94	19.3
390.306	19.07
390.671	19.14
391.036	19.45
391.401	19.49
391.766	19.39
392.131	19.63
392.496	19.52
392.861	19.62
393.226	19.58
393.591	19.44
393.956	19.57
394.32	19.41
394.685	19.88
395.05	19.56
395.414	19.89
395.779	19.76
396.143	19.9
396.508	19.82
396.872	19.94
397.236	19.81
397.601	20.13
397.965	19.72
398.329	20.03
398.694	19.95
399.058	20.21
399.422	20.13
399.786	20.24
400.15	20.25
400.514	20.49
400.878	20.34
401.242	20.48
401.605	20.48
401.969	20.63
402.333	20.49
402.697	20.89
403.06	20.61
403.424	20.57
403.787	20.87
404.151	20.87
404.514	20.89
404.878	20.88
405.241	20.99
405.604	20.95
405.968	21.03
406.331	21.2
406.694	20.94
407.057	21.19
407.42	21.02
407.783	21.23
408.146	20.96
408.509	21
408.872	21.19
409.235	21.53
409.598	21.34
409.961	21.57
410.323	21.39
410.686	21.55
411.049	21.48
411.411	21.59
411.774	21.64
412.136	21.71
412.499	21.74
412.861	21.39
413.223	21.83
413.586	21.8
413.948	21.82
414.31	21.94
414.672	21.81
415.035	22.26
415.397	22.26
415.759	21.97
416.121	22.26
416.483	22.22
416.845	22.23
417.206	22.39
417.568	22.14
417.93	22.04
418.292	22.19
418.653	22.31
419.015	22.24
419.377	22.31
419.738	22.25
420.1	22.38
420.461	22.31
420.822	22.42
421.184	22.33
421.545	22.3
421.906	22.36
422.267	22.25
422.629	22.33
422.99	22.35
423.351	22.34
423.712	22.46
424.073	22.62
424.434	22.6
424.795	22.67
425.155	22.77
425.516	22.58
425.877	22.73
426.238	22.63
426.598	22.92
426.959	22.8
427.32	22.96
427.68	22.99
428.041	23.08
428.401	23.16
428.761	23.26
429.122	23.33
429.482	23.37
429.842	23.71
430.202	23.43
430.563	23.64
430.923	24
431.283	23.75
431.643	23.63
432.003	23.93
432.363	24
432.722	23.97
433.082	23.94
433.442	24.11
433.802	24.09
434.161	24.03
434.521	24.09
434.881	24
435.24	23.99
435.6	24.09
435.959	24.03
436.319	24.14
436.678	24.38
437.037	24.29
437.396	24.5
437.756	24.58
438.115	24.65
438.474	24.66
438.833	24.62
439.192	24.76
439.551	24.59
439.91	24.69
440.269	24.69
440.628	24.79
440.987	24.59
441.345	24.76
441.704	24.77
442.063	24.6
442.421	24.91
442.78	24.65
443.138	24.72
443.497	24.95
443.855	25.19
444.214	25.13
444.572	25.11
444.93	25.19
445.288	25.27
445.647	25.44
446.005	25.12
446.363	25.33
446.721	25.28
447.079	25.25
447.437	25.24
447.795	25.26
448.153	25.18
448.51	25.12
448.868	25.37
449.226	25.33
449.584	25.62
449.941	25.61
450.299	25.6
450.656	25.77
451.014	25.94
451.371	25.93
451.729	25.88
452.086	26.04
452.443	26.17
452.801	26.28
453.158	26.27
453.515	26.1
453.872	26.29
454.229	26.14
454.586	26.32
454.943	26.42
455.3	26.53
455.657	26.55
456.014	26.64
456.371	26.8
456.727	26.68
457.084	26.68
457.441	26.72
457.797	26.56
458.154	26.8
458.51	26.72
458.867	26.94
459.223	27.06
459.58	26.98
459.936	27.02
460.292	27.14
460.648	26.83
461.005	26.75
461.361	26.76
461.717	26.77
462.073	26.97
462.429	26.82
462.785	27.05
463.141	27.41
463.496	27.23
463.852	27.47
464.208	27.61
464.564	27.51
464.919	27.59
465.275	27.5
465.631	27.65
465.986	27.71
466.342	27.71
466.697	28.03
467.052	27.82
467.408	27.8
467.763	27.86
468.118	28.06
468.473	28.09
468.829	27.91
469.184	28
469.539	28.01
469.894	28.06
470.249	28.08
470.603	28.57
470.958	28.31
471.313	28.45
471.668	28.4
472.023	28.69
472.377	28.38
472.732	28.45
473.086	28.34
473.441	28.59
473.795	28.66
474.15	28.47
474.504	28.94
474.859	28.79
475.213	28.68
475.567	28.63
475.921	29
476.275	28.93
476.63	28.91
476.984	28.96
477.338	29.17
477.692	29.03
478.045	29.02
478.399	29.36
478.753	29.02
479.107	29
479.461	28.98
479.814	29.2
480.168	29.21
480.521	28.99
480.875	29.39
481.228	29.45
481.582	29.37
481.935	29.27
482.289	29.35
482.642	29.37
482.995	29.41
483.348	29.21
483.701	29.32
484.055	29.28
484.408	28.91
484.761	28.87
485.114	28.8
485.466	28.77
485.819	28.71
486.172	28.7
486.525	28.64
486.878	28.9
487.23	29.15
487.583	29.33
487.936	29.46
488.288	29.38
488.641	29.22
488.993	29.17
489.345	29.13
489.698	29.27
490.05	29.31
490.402	29.38
490.754	29.52
491.107	29.79
491.459	29.85
491.811	30.1
492.163	30.19
492.515	29.95
492.866	29.79
493.218	29.65
493.57	29.84
493.922	29.87
494.274	30.01
494.625	30.2
494.977	30.45
495.328	30.58
495.68	30.98
496.031	30.82
496.383	30.92
496.734	31.03
497.086	30.93
497.437	31.09
497.788	31.02
498.139	31.13
498.49	31.1
498.842	31
499.193	31.13
499.544	31.18
499.894	31.21
500.245	31.41
500.596	31.43
500.947	31.52
501.298	31.51
501.648	31.64
501.999	31.79
502.35	31.62
502.7	31.89
503.051	31.9
503.401	31.77
503.752	32
504.102	31.95
504.452	32
504.803	31.8
505.153	32.11
505.503	31.99
505.853	32.26
506.203	32.07
506.553	32.17
506.903	32.04
507.253	32.35
507.603	32.23
507.953	32.3
508.303	32.41
508.652	32.6
509.002	32.64
509.352	32.37
509.701	32.42
510.051	32.73
510.4	32.42
510.75	32.56
511.099	32.55
511.449	32.52
511.798	32.75
512.147	32.69
512.496	32.83
512.846	32.86
513.195	32.76
513.544	32.87
513.893	32.81
514.242	33.08
514.591	32.97
514.939	33.24
515.288	33.05
515.637	33.22
515.986	33.08
516.334	33.43
516.683	33.23
517.032	33.31
517.38	33.17
517.729	33.46
518.077	33.52
518.426	33.38
518.774	33.3
519.122	33.27
519.47	33.29
519.819	33.3
520.167	33.14
520.515	33.28
520.863	33.25
521.211	33.26
521.559	33.52
521.907	33.46
522.255	33.77
522.602	33.85
522.95	33.89
523.298	33.89
523.645	34.16
523.993	34.39
524.341	34.01
524.688	34.24
525.036	34.28
525.383	34.38
525.73	34.3
526.078	34.24
526.425	34.13
526.772	33.87
527.119	34
527.466	34.01
527.814	33.92
528.161	34.06
528.508	34.18
528.854	34
529.201	34.07
529.548	33.9
529.895	33.84
530.242	33.91
530.588	33.79
530.935	33.74
531.282	33.84
531.628	34.13
531.975	34.27
532.321	34.51
532.667	34.61
533.014	34.68
533.36	34.88
533.706	34.69
534.052	34.68
534.399	34.56
534.745	34.47
535.091	34.58
535.437	34.51
535.783	34.7
536.129	34.85
536.474	35.05
536.82	35.16
537.166	35.25
537.512	35.32
537.857	35.14
538.203	35.09
538.549	35.26
538.894	35.29
539.239	35.34
539.585	35.59
539.93	35.76
540.276	35.82
540.621	35.96
540.966	35.88
541.311	35.89
541.656	35.82
542.001	35.68
542.346	35.56
542.691	35.33
543.036	35.33
543.381	35.27
543.726	35.42
544.071	35.53
544.415	35.63
544.76	35.79
545.105	35.84
545.449	36.02
545.794	36.06
546.138	36.3
546.483	36.45
546.827	36.55
547.171	36.4
547.516	36.74
547.86	36.58
548.204	36.43
548.548	36.52
548.892	36.68
549.236	36.6
549.58	36.67
549.924	36.82
550.268	36.89
550.612	36.87
550.956	37.1
551.3	37.25
551.643	37.4
551.987	37.36
552.33	37.42
552.674	37.67
553.017	37.51
553.361	37.65
553.704	37.49
554.048	37.33
554.391	37.51
554.734	37.47
555.077	37.6
555.42	37.76
555.764	37.8
556.107	37.7
556.45	37.77
556.793	37.88
557.135	38.05
557.478	38.06
557.821	37.83
558.164	38.28
558.507	38.3
558.849	38.04
559.192	38.51
559.534	37.96
559.877	38.24
560.219	38.4
560.562	38.52
560.904	38.47
561.246	38.68
561.589	38.67
561.931	38.48
562.273	38.39
562.615	38.59
562.957	38.59
563.299	38.71
563.641	38.87
563.983	38.67
564.325	38.39
564.667	38.84
565.008	38.83
565.35	38.98
565.692	38.98
566.033	38.7
566.375	38.96
566.716	38.87
567.058	39.1
567.399	39.01
567.741	38.89
568.082	39.01
568.423	39
568.764	38.94
569.105	39
569.447	39.32
569.788	39.22
570.129	39.4
570.47	39.33
570.811	39.44
571.151	39.45
571.492	39.45
571.833	39.44
572.174	39.44
572.514	39.58
572.855	39.73
573.195	39.56
573.536	39.63
573.876	39.64
574.217	39.76
574.557	39.72
574.898	39.43
575.238	40.13
575.578	39.98
575.918	39.79
576.258	39.96
576.598	39.95
576.938	40
577.278	39.84
577.618	39.97
577.958	40.07
578.298	40.1
578.638	40.03
578.977	40.38
579.317	40.25
579.657	40.45
579.996	40.45
580.336	40.47
580.675	40.77
581.014	40.61
581.354	40.27
581.693	40.68
582.032	40.78
582.372	40.82
582.711	41.11
583.05	41.2
583.389	40.77
583.728	41.14
584.067	41.18
584.406	41.15
584.745	40.74
585.083	41.18
585.422	41.18
585.761	40.92
586.1	41.33
586.438	41.21
586.777	41.18
587.115	41.31
587.454	40.88
587.792	41.22
588.13	41.44
588.469	41.68
588.807	41.2
589.145	41.23
589.483	41.52
589.821	41.6
590.159	41.69
590.497	41.46
590.835	41.82
591.173	41.53
591.511	41.46
591.849	41.69
592.187	42.01
592.524	41.8
592.862	41.84
593.2	42.14
593.537	41.77
593.875	42.11
594.212	42.19
594.55	41.93
594.887	42.13
595.224	41.93
595.561	42.21
595.899	42.07
596.236	42.63
596.573	42.11
596.91	42.44
597.247	42.13
597.584	42.23
597.921	42.51
598.258	42.48
598.594	42.02
598.931	42.09
599.268	41.94
599.604	42.56
599.941	42.5
600.277	42.56
600.614	42.37
600.95	42.45
601.287	42.67
601.623	42.85
601.959	42.65
602.296	42.69
602.632	42.9
602.968	43.09
603.304	42.62
603.64	42.61
603.976	42.65
604.312	42.76
604.648	43.18
604.984	42.79
605.319	42.74
605.655	42.66
605.991	42.83
606.326	42.65
606.662	42.61
606.998	42.8
607.333	42.82
607.668	42.9
608.004	42.98
608.339	43.04
608.674	42.82
609.01	43.12
609.345	43.53
609.68	43.37
610.015	43.32
610.35	43.84
610.685	43.25
611.02	43.12
611.355	43.34
611.689	43.15
612.024	43.72
612.359	43.38
612.694	43.58
613.028	43.86
613.363	43.81
613.697	44.29
614.032	44.18
614.366	43.65
614.7	44.33
615.035	43.55
615.369	43.8
615.703	44.26
616.037	44.26
616.371	44.1
616.705	44.54
617.039	44.4
617.373	43.92
617.707	44.5
618.041	43.87
618.375	43.95
618.709	44.31
619.042	44.44
619.376	44.45
619.71	44.31
620.043	44.22
620.377	44.64
620.71	44.35
621.043	43.72
621.377	44.68
621.71	44.29
622.043	44.36
622.376	44.83
622.709	44.57
623.043	44.36
623.376	44.83
623.709	44.83
624.041	44.74
624.374	44.77
624.707	44.98
625.04	44.98
625.373	44.37
625.705	44.88
626.038	44.67
626.37	44.75
626.703	45
627.035	44.8
627.368	45.3
627.7	45.31
628.032	44.73
628.365	44.83
628.697	45.04
629.029	45.18
629.361	44.93
629.693	44.9
630.025	45.35
630.357	45.39
630.689	45.57
631.021	45.62
631.353	45.59
631.684	45.89
632.016	45.44
632.348	45.54
632.679	45.17
633.011	45.35
633.342	45.82
633.674	45.88
634.005	45.65
634.336	45.45
634.668	45.43
634.999	45.8
635.33	45.37
635.661	45.72
635.992	45.76
636.323	45.75
636.654	45.51
636.985	45.76
637.316	46.16
637.647	45.99
637.977	45.78
638.308	45.77
638.639	46.1
638.969	45.71
639.3	46.31
639.63	45.58
639.961	46.08
640.291	46.06
640.622	46.32
640.952	46.49
641.282	45.59
641.612	45.96
641.943	46.52
642.273	46.57
642.603	46.84
642.933	46.43
643.263	46.83
643.592	46.16
643.922	46.48
644.252	46.31
644.582	46.28
644.911	46.54
645.241	46.57
645.571	46.49
645.9	46.73
646.23	46.2
646.559	46.72
646.888	45.73
647.218	46.64
647.547	46.25
647.876	47.03
648.205	46.6
648.534	46.72
648.863	47.06
649.192	46.59
649.521	46.76
649.85	47.4
650.179	46.53
650.508	46.81
650.837	46.75
651.165	46.92
651.494	47.24
651.822	47.34
652.151	47.7
652.479	47.51
652.808	46.86
653.136	46.91
653.465	47.41
653.793	47.56
654.121	47.81
654.449	47.52
654.777	47.45
655.105	47.03
655.433	47.4
655.761	47.45
656.089	47.88
656.417	47.47
656.745	48.21
657.073	47.61
657.4	47.42
657.728	47.17
658.056	47.46
658.383	47.75
658.711	47.24
659.038	48.1
659.365	47.86
659.693	47.67
660.02	47.41
660.347	47.92
660.674	47.55
661.001	47.01
661.329	47.57
661.656	47.7
661.982	47.77
662.309	47.95
662.636	47.76
662.963	47.85
663.29	48.44
663.616	47.83
663.943	48.3
664.27	48.41
664.596	47.46
664.923	48.02
665.249	48.63
665.576	47.71
665.902	48.1
666.228	47.97
666.554	48.04
666.881	47.87
667.207	47.79
667.533	48.49
667.859	48.32
668.185	49.18
668.511	47.45
668.837	48.18
669.162	48.95
669.488	48.49
669.814	48.46
670.139	48.47
