Data from 0075_forehead_Reflection__0__385.txt Node

Date: Fri Dec 16 17:06:55 CST 2022
User: ToomeyLab
Spectrometer: FLMS14357
Trigger mode: 0
Integration Time (sec): 1.000000E-2
Scans to average: 100
Electric dark correction enabled: true
Nonlinearity correction enabled: false
Boxcar width: 0
XAxis mode: Wavelengths
Number of Pixels in Spectrum: 2048
>>>>>Begin Spectral Data<<<<<
189.047	-97.25
189.435	-97.25
189.823	-97.25
190.211	-54.99
190.599	3.84
190.987	-14.11
191.375	5.96
191.763	185.02
192.151	-51.54
192.538	78.08
192.926	-119.29
193.314	63.24
193.702	-108.92
194.089	-223.08
194.477	75.77
194.864	-308.24
195.252	93.34
195.639	74.09
196.027	684.26
196.414	-1325.23
196.801	46.54
197.189	172.01
197.576	28229.41
197.963	-55.97
198.351	-10.34
198.738	-23.17
199.125	42.56
199.512	-8.96
199.899	-39.89
200.286	-162.23
200.673	49.48
201.06	-8.04
201.447	31.44
201.833	11.07
202.22	13.42
202.607	38.21
202.994	15.85
203.38	-19.67
203.767	-9
204.154	-51.6
204.54	21.26
204.927	-0.12
205.313	55.38
205.699	5.77
206.086	2.08
206.472	26.93
206.858	30.17
207.245	10.06
207.631	-51.44
208.017	9.02
208.403	45.05
208.789	-25.78
209.175	69.96
209.561	-11.54
209.947	-16.13
210.333	28.42
210.719	-15.4
211.105	-22.76
211.491	-13.17
211.876	-6.93
212.262	-80.48
212.648	-62.94
213.034	-20.63
213.419	10.96
213.805	31.69
214.19	-3.14
214.576	11.45
214.961	11.47
215.346	-18.15
215.732	3.01
216.117	-0.7
216.502	-16.84
216.888	-2.21
217.273	21.92
217.658	-0.68
218.043	13.62
218.428	25.12
218.813	-15.65
219.198	-4.76
219.583	4.3
219.968	0
220.353	13.73
220.738	-2.92
221.122	-10.03
221.507	-3.45
221.892	-9.32
222.276	9.58
222.661	6.3
223.046	-3.9
223.43	-8.07
223.815	5.49
224.199	17.44
224.583	2.19
224.968	-1.88
225.352	4.49
225.736	0.58
226.121	-7.09
226.505	-1.89
226.889	5.82
227.273	3.82
227.657	0.15
228.041	6
228.425	1.96
228.809	3.82
229.193	3.35
229.577	3.23
229.961	2.92
230.344	3.18
230.728	3.29
231.112	2.93
231.495	3.3
231.879	3.79
232.263	2.23
232.646	3.67
233.03	1.31
233.413	3.1
233.797	3.72
234.18	1.52
234.563	2.98
234.946	2.29
235.33	4.43
235.713	5.76
236.096	3.33
236.479	4.52
236.862	3.51
237.245	4.23
237.628	5.28
238.011	4.13
238.394	4.26
238.777	3.94
239.16	3.26
239.543	1.96
239.925	5.16
240.308	3.85
240.691	3.88
241.073	2.49
241.456	3.18
241.838	4.53
242.221	3.68
242.603	4.22
242.986	4.88
243.368	4.32
243.75	3.79
244.133	3.65
244.515	3.98
244.897	3.83
245.279	4.13
245.661	3.91
246.043	3.47
246.425	3.15
246.807	4.27
247.189	4.05
247.571	4.31
247.953	4.33
248.335	4.43
248.717	4.12
249.098	4.35
249.48	3.92
249.862	3.74
250.243	3.84
250.625	4.23
251.006	4.99
251.388	4.18
251.769	3.89
252.151	4.57
252.532	4.51
252.913	4.43
253.295	3.48
253.676	4.28
254.057	3.97
254.438	4.38
254.819	4.26
255.2	3.67
255.581	3.88
255.962	3.39
256.343	4.89
256.724	4.73
257.105	3.88
257.486	4.27
257.867	2.92
258.247	5.04
258.628	4.77
259.009	4.64
259.389	4.41
259.77	4.67
260.15	5.3
260.531	4.26
260.911	4.32
261.292	4.27
261.672	4.14
262.052	3.96
262.432	4.28
262.813	4.04
263.193	4.11
263.573	4.29
263.953	4.26
264.333	4.27
264.713	3.53
265.093	3.71
265.473	4.61
265.853	3.78
266.233	3.22
266.612	4.47
266.992	3.71
267.372	4.48
267.752	4
268.131	4.14
268.511	4.33
268.89	4.36
269.27	4.52
269.649	4.45
270.029	4.29
270.408	3.89
270.787	3.99
271.167	4.33
271.546	3.23
271.925	4.62
272.304	4.32
272.683	3.85
273.062	4.21
273.441	4.22
273.82	4.61
274.199	4.34
274.578	3.8
274.957	4.47
275.336	3.55
275.715	4
276.093	4.64
276.472	4.07
276.851	4.46
277.229	4.8
277.608	3.54
277.986	4.2
278.365	3.41
278.743	3.98
279.122	3.8
279.5	3.96
279.878	2.95
280.257	3.92
280.635	3.62
281.013	4.21
281.391	4.16
281.769	3.62
282.147	4.37
282.525	3.86
282.903	4.06
283.281	4.66
283.659	3.82
284.037	4.05
284.415	4.23
284.792	4.42
285.17	3.62
285.548	3.99
285.925	4.21
286.303	4.33
286.68	4.14
287.058	3.97
287.435	4.28
287.813	4.44
288.19	4.53
288.567	4.2
288.945	4.09
289.322	4.03
289.699	4.15
290.076	4.56
290.453	4.18
290.83	4.57
291.207	4.36
291.584	4.22
291.961	4.88
292.338	4.7
292.715	4.8
293.092	4.45
293.469	4.96
293.845	5.07
294.222	4.7
294.599	5.34
294.975	4.98
295.352	4.6
295.728	5.17
296.105	5.23
296.481	5.26
296.858	5.2
297.234	4.81
297.61	5.11
297.986	5.41
298.363	4.77
298.739	5.24
299.115	4.79
299.491	5.21
299.867	5.47
300.243	5.22
300.619	5.08
300.995	5.61
301.371	5.9
301.746	5.48
302.122	6.02
302.498	5.94
302.874	5.78
303.249	5.75
303.625	5.92
304	5.36
304.376	5.89
304.751	5.69
305.127	5.96
305.502	5.92
305.878	5.78
306.253	6
306.628	6.54
307.003	6.22
307.378	5.92
307.754	6.34
308.129	5.78
308.504	6.37
308.879	6.44
309.254	6.92
309.629	6.56
310.003	6.79
310.378	6.92
310.753	6.88
311.128	6.66
311.502	6.51
311.877	7.1
312.252	6.71
312.626	6.57
313.001	7.05
313.375	6.76
313.75	6.65
314.124	7.59
314.498	7.03
314.873	6.86
315.247	6.58
315.621	7.65
315.995	6.99
316.369	7.32
316.743	7.48
317.117	7.35
317.491	7.54
317.865	6.78
318.239	7.64
318.613	7.36
318.987	7.65
319.361	7.78
319.734	7.7
320.108	7.59
320.482	7.71
320.855	7.63
321.229	8.2
321.602	7.98
321.976	7.96
322.349	7.53
322.723	7.2
323.096	8.38
323.469	7.58
323.843	8.31
324.216	7.7
324.589	8.29
324.962	8.52
325.335	8.41
325.708	8.49
326.081	8.72
326.454	8.42
326.827	8.56
327.2	8.7
327.573	8.53
327.945	8.21
328.318	8.65
328.691	8.31
329.063	8.53
329.436	8.99
329.809	8.57
330.181	8.68
330.553	9.54
330.926	9.04
331.298	8.98
331.671	8.54
332.043	9.29
332.415	9.3
332.787	9.92
333.159	8.98
333.532	9.18
333.904	9.33
334.276	9.48
334.648	9.54
335.02	9.41
335.391	9.08
335.763	9.54
336.135	9.47
336.507	9.53
336.879	9.65
337.25	9.56
337.622	9.88
337.993	9.64
338.365	9.92
338.736	10.01
339.108	9.72
339.479	9.77
339.851	10.06
340.222	10.14
340.593	9.33
340.964	10.09
341.336	9.71
341.707	9.96
342.078	10.3
342.449	10.38
342.82	10.22
343.191	10.16
343.562	10.2
343.933	10.61
344.303	10.32
344.674	10.22
345.045	10.55
345.416	10.47
345.786	10.12
346.157	10.76
346.527	10.45
346.898	10.48
347.268	10.34
347.639	10.26
348.009	10.6
348.38	10.32
348.75	10.67
349.12	10.58
349.49	10.79
349.861	11.2
350.231	11.01
350.601	11.24
350.971	11.1
351.341	11
351.711	10.92
352.081	11.21
352.45	11.14
352.82	11.19
353.19	11.31
353.56	11.14
353.929	11.89
354.299	11.74
354.669	11.45
355.038	11.65
355.408	11.94
355.777	11.59
356.147	11.77
356.516	11.94
356.885	11.8
357.254	11.59
357.624	11.73
357.993	11.49
358.362	11.8
358.731	11.88
359.1	11.97
359.469	12.18
359.838	11.64
360.207	12
360.576	12.14
360.945	12.17
361.314	11.94
361.682	11.69
362.051	12.31
362.42	12.44
362.788	12.46
363.157	12.18
363.525	12.24
363.894	12.15
364.262	12.24
364.631	13.02
364.999	12.21
365.367	12.79
365.735	12.46
366.104	12.3
366.472	12.57
366.84	12.85
367.208	12.65
367.576	12.5
367.944	13.18
368.312	12.37
368.68	12.87
369.048	13.04
369.416	12.86
369.783	12.88
370.151	13.01
370.519	13.37
370.886	13.06
371.254	13.68
371.621	13.09
371.989	13.11
372.356	13.2
372.724	13.24
373.091	13.45
373.458	13.63
373.826	13.67
374.193	14.05
374.56	13.39
374.927	13.6
375.294	14.05
375.661	13.8
376.028	13.78
376.395	13.96
376.762	14.19
377.129	14.16
377.496	13.78
377.863	14.16
378.229	13.91
378.596	13.87
378.963	14.05
379.329	14.06
379.696	13.83
380.062	14.37
380.429	14.33
380.795	14.25
381.161	14.22
381.528	13.87
381.894	14.59
382.26	14.48
382.626	14.44
382.993	14.33
383.359	14.25
383.725	14.64
384.091	14.79
384.457	14.7
384.823	14.62
385.188	14.97
385.554	14.85
385.92	14.99
386.286	15.07
386.651	14.81
387.017	15.25
387.383	15.2
387.748	15.08
388.114	15.09
388.479	15.28
388.845	15.22
389.21	15.48
389.575	15.37
389.94	15.23
390.306	15.03
390.671	15.31
391.036	15.64
391.401	15.84
391.766	15.57
392.131	15.61
392.496	15.47
392.861	15.4
393.226	15.4
393.591	15.71
393.956	15.85
394.32	15.9
394.685	15.95
395.05	15.7
395.414	15.79
395.779	15.89
396.143	16.02
396.508	16.2
396.872	16.16
397.236	15.95
397.601	16.28
397.965	16.08
398.329	16.08
398.694	16.1
399.058	16.35
399.422	16.27
399.786	16.47
400.15	16.41
400.514	16.44
400.878	16.33
401.242	16.47
401.605	16.48
401.969	16.72
402.333	16.69
402.697	17.03
403.06	16.84
403.424	16.84
403.787	16.88
404.151	16.93
404.514	16.94
404.878	16.94
405.241	16.96
405.604	16.96
405.968	16.92
406.331	16.96
406.694	17.09
407.057	17.29
407.42	17.06
407.783	16.92
408.146	17.05
408.509	17.49
408.872	17.29
409.235	17.47
409.598	17.57
409.961	17.7
410.323	17.25
410.686	17.21
411.049	17.41
411.411	17.72
411.774	17.63
412.136	17.66
412.499	17.4
412.861	17.65
413.223	17.89
413.586	17.81
413.948	17.99
414.31	17.93
414.672	17.88
415.035	18.11
415.397	18.36
415.759	18.3
416.121	18.27
416.483	18.19
416.845	18.14
417.206	18.37
417.568	18.51
417.93	18.18
418.292	18.26
418.653	18.14
419.015	18.37
419.377	18.3
419.738	18.14
420.1	18.21
420.461	18.23
420.822	18.23
421.184	18.26
421.545	18.29
421.906	18.26
422.267	18.28
422.629	18.36
422.99	18.39
423.351	18.39
423.712	18.41
424.073	18.65
424.434	18.55
424.795	18.58
425.155	18.66
425.516	18.6
425.877	18.65
426.238	18.7
426.598	18.76
426.959	18.8
427.32	18.9
427.68	19.12
428.041	19.1
428.401	19.12
428.761	19.28
429.122	19.23
429.482	19.09
429.842	19.46
430.202	19.26
430.563	19.42
430.923	19.44
431.283	19.36
431.643	19.74
432.003	19.72
432.363	19.73
432.722	19.67
433.082	19.71
433.442	19.85
433.802	19.94
434.161	19.79
434.521	19.79
434.881	19.86
435.24	19.72
435.6	19.84
435.959	19.96
436.319	19.93
436.678	20.2
437.037	20.11
437.396	20.22
437.756	20.09
438.115	20.41
438.474	20.31
438.833	20.39
439.192	20.48
439.551	20.46
439.91	20.63
440.269	20.6
440.628	20.46
440.987	20.45
441.345	20.42
441.704	20.44
442.063	20.48
442.421	20.62
442.78	20.54
443.138	20.57
443.497	20.63
443.855	20.8
444.214	21.11
444.572	20.87
444.93	20.95
445.288	21.09
445.647	20.94
446.005	21.02
446.363	21.07
446.721	20.89
447.079	20.99
447.437	21
447.795	20.9
448.153	20.91
448.51	20.91
448.868	21.14
449.226	21.1
449.584	21.18
449.941	21.41
450.299	21.47
450.656	21.56
451.014	21.6
451.371	21.67
451.729	21.81
452.086	21.79
452.443	21.88
452.801	21.88
453.158	21.95
453.515	21.85
453.872	21.97
454.229	21.88
454.586	22.01
454.943	21.91
455.3	22.14
455.657	22.06
456.014	22.3
456.371	22.25
456.727	22.32
457.084	22.37
457.441	22.4
457.797	22.61
458.154	22.41
458.51	22.37
458.867	22.29
459.223	22.63
459.58	22.42
459.936	22.46
460.292	22.58
460.648	22.53
461.005	22.33
461.361	22.27
461.717	22.37
462.073	22.49
462.429	22.73
462.785	22.86
463.141	22.95
463.496	22.8
463.852	23.23
464.208	23.11
464.564	23.19
464.919	23.24
465.275	23.14
465.631	23.19
465.986	23.16
466.342	23.29
466.697	23.44
467.052	23.39
467.408	23.36
467.763	23.44
468.118	23.54
468.473	23.73
468.829	23.52
469.184	23.82
469.539	23.49
469.894	23.56
470.249	23.71
470.603	23.91
470.958	23.79
471.313	23.9
471.668	23.96
472.023	24.16
472.377	23.92
472.732	23.99
473.086	24.09
473.441	24.07
473.795	24.48
474.15	24.15
474.504	24.24
474.859	24.28
475.213	24.43
475.567	24.43
475.921	24.51
476.275	24.53
476.63	24.65
476.984	24.47
477.338	24.75
477.692	24.52
478.045	24.55
478.399	24.82
478.753	24.77
479.107	24.67
479.461	24.74
479.814	24.65
480.168	24.77
480.521	24.68
480.875	24.83
481.228	24.89
481.582	24.97
481.935	25.01
482.289	24.88
482.642	24.88
482.995	24.74
483.348	24.87
483.701	24.85
484.055	24.68
484.408	24.5
484.761	24.21
485.114	24.2
485.466	24.2
485.819	24.2
486.172	24.34
486.525	24.44
486.878	24.62
487.23	24.73
487.583	24.94
487.936	24.93
488.288	24.81
488.641	24.68
488.993	24.67
489.345	24.67
489.698	24.82
490.05	24.86
490.402	25.16
490.754	25.14
491.107	25.37
491.459	25.55
491.811	25.64
492.163	25.59
492.515	25.4
492.866	25.15
493.218	25.18
493.57	25.38
493.922	25.45
494.274	25.62
494.625	25.82
494.977	26.12
495.328	26.16
495.68	26.33
496.031	26.36
496.383	26.54
496.734	26.47
497.086	26.54
497.437	26.62
497.788	26.42
498.139	26.52
498.49	26.54
498.842	26.52
499.193	26.63
499.544	26.78
499.894	26.74
500.245	26.89
500.596	26.94
500.947	26.91
501.298	26.9
501.648	26.92
501.999	27.37
502.35	27.36
502.7	27.31
503.051	27.43
503.401	27.33
503.752	27.34
504.102	27.36
504.452	27.59
504.803	27.28
505.153	27.53
505.503	27.45
505.853	27.49
506.203	27.42
506.553	27.55
506.903	27.71
507.253	27.8
507.603	27.67
507.953	27.86
508.303	28.04
508.652	27.88
509.002	27.97
509.352	27.86
509.701	27.82
510.051	27.97
510.4	27.81
510.75	27.94
511.099	28.07
511.449	27.89
511.798	28.07
512.147	28.04
512.496	28.15
512.846	28.09
513.195	28.1
513.544	28.39
513.893	28.27
514.242	28.42
514.591	28.34
514.939	28.67
515.288	28.55
515.637	28.56
515.986	28.58
516.334	28.72
516.683	28.75
517.032	28.66
517.38	28.65
517.729	28.71
518.077	28.98
518.426	28.96
518.774	28.71
519.122	28.76
519.47	28.83
519.819	28.64
520.167	28.67
520.515	28.66
520.863	28.79
521.211	28.77
521.559	28.89
521.907	29.1
522.255	29.25
522.602	29.22
522.95	29.3
523.298	29.47
523.645	29.53
523.993	29.65
524.341	29.49
524.688	29.63
525.036	29.74
525.383	29.71
525.73	29.63
526.078	29.62
526.425	29.56
526.772	29.37
527.119	29.3
527.466	29.38
527.814	29.36
528.161	29.38
528.508	29.55
528.854	29.47
529.201	29.35
529.548	29.16
529.895	29.02
530.242	29.13
530.588	29.13
530.935	29.18
531.282	29.29
531.628	29.45
531.975	29.65
532.321	29.8
532.667	29.97
533.014	30.12
533.36	30.23
533.706	30.12
534.052	29.87
534.399	29.81
534.745	29.71
535.091	29.85
535.437	29.91
535.783	30.12
536.129	30.09
536.474	30.43
536.82	30.38
537.166	30.6
537.512	30.62
537.857	30.52
538.203	30.49
538.549	30.59
538.894	30.67
539.239	30.77
539.585	30.97
539.93	31.14
540.276	31.19
540.621	31.23
540.966	31.41
541.311	31.09
541.656	31.11
542.001	31.06
542.346	30.8
542.691	30.68
543.036	30.69
543.381	30.83
543.726	30.81
544.071	30.9
544.415	31.01
544.76	30.95
545.105	31.06
545.449	31.28
545.794	31.63
546.138	31.65
546.483	31.77
546.827	31.8
547.171	31.86
547.516	32.13
547.86	31.89
548.204	31.79
548.548	31.88
548.892	31.78
549.236	32.01
549.58	31.95
549.924	32.15
550.268	32.42
550.612	32.51
550.956	32.36
551.3	32.66
551.643	32.8
551.987	32.69
552.33	32.62
552.674	32.92
553.017	32.97
553.361	33.1
553.704	33.05
554.048	32.64
554.391	32.77
554.734	32.83
555.077	32.96
555.42	32.95
555.764	33.25
556.107	33.22
556.45	33.17
556.793	33.4
557.135	33.22
557.478	33.43
557.821	33.41
558.164	33.66
558.507	33.61
558.849	33.53
559.192	33.86
559.534	33.6
559.877	33.76
560.219	33.74
560.562	33.69
560.904	34.01
561.246	33.93
561.589	33.9
561.931	34.04
562.273	33.74
562.615	33.86
562.957	34.03
563.299	33.96
563.641	34.22
563.983	34.03
564.325	34.15
564.667	34.08
565.008	34.04
565.35	34.37
565.692	34.29
566.033	34.3
566.375	34.26
566.716	34.41
567.058	34.38
567.399	34.36
567.741	34.38
568.082	34.29
568.423	34.35
568.764	34.43
569.105	34.35
569.447	34.61
569.788	34.61
570.129	34.85
570.47	34.64
570.811	34.86
571.151	34.88
571.492	34.86
571.833	34.85
572.174	34.99
572.514	34.93
572.855	34.94
573.195	34.78
573.536	34.93
573.876	34.99
574.217	34.97
574.557	35.1
574.898	35.06
575.238	35.15
575.578	35.33
575.918	35.2
576.258	35.41
576.598	35.36
576.938	35.56
577.278	35.07
577.618	35.29
577.958	35.28
578.298	35.64
578.638	35.5
578.977	35.64
579.317	35.89
579.657	35.78
579.996	36.03
580.336	35.83
580.675	36
581.014	36.29
581.354	36.09
581.693	35.97
582.032	36.28
582.372	36.49
582.711	36.67
583.05	36.46
583.389	36.38
583.728	36.19
584.067	36.51
584.406	36.75
584.745	36.31
585.083	36.74
585.422	36.64
585.761	36.73
586.1	36.99
586.438	36.5
586.777	36.82
587.115	36.63
587.454	36.68
587.792	36.86
588.13	37.01
588.469	36.93
588.807	36.92
589.145	36.94
589.483	37.09
589.821	37.16
590.159	36.91
590.497	37.02
590.835	37.05
591.173	37.27
591.511	37.19
591.849	36.9
592.187	37.22
592.524	37.07
592.862	37.04
593.2	37.57
593.537	37
593.875	37.59
594.212	37.62
594.55	37.01
594.887	37.76
595.224	37.11
595.561	37.43
595.899	37.68
596.236	37.83
596.573	37.4
596.91	37.27
597.247	37.34
597.584	37.63
597.921	37.44
598.258	37.7
598.594	37.35
598.931	37.48
599.268	37.28
599.604	37.77
599.941	37.93
600.277	38
600.614	37.76
600.95	37.93
601.287	38.26
601.623	38.23
601.959	38.08
602.296	38.38
602.632	38.49
602.968	38.25
603.304	37.92
603.64	37.91
603.976	38.3
604.312	38.48
604.648	38.5
604.984	38.38
605.319	38.4
605.655	38.1
605.991	38.3
606.326	38.09
606.662	37.99
606.998	38.44
607.333	38.29
607.668	38.43
608.004	38.37
608.339	38.8
608.674	38.39
609.01	38.7
609.345	38.63
609.68	38.81
610.015	38.67
610.35	39.02
610.685	38.74
611.02	38.77
611.355	38.78
611.689	38.43
612.024	38.77
612.359	38.88
612.694	38.91
613.028	39.54
613.363	39.08
613.697	39.36
614.032	39.36
614.366	39.12
614.7	39.26
615.035	39.36
615.369	39.39
615.703	39.73
616.037	39.21
616.371	39.86
616.705	39.51
617.039	39.96
617.373	39.43
617.707	39.85
618.041	39.71
618.375	39.49
618.709	39.92
619.042	39.69
619.376	39.78
619.71	40.02
620.043	39.58
620.377	39.77
620.71	40.26
621.043	39.83
621.377	39.73
621.71	39.47
622.043	40.32
622.376	39.84
622.709	39.84
623.043	39.48
623.376	40.11
623.709	40.48
624.041	40.08
624.374	39.97
624.707	40.33
625.04	40.56
625.373	40.4
625.705	40.26
626.038	40.36
626.37	40.38
626.703	40.57
627.035	40.55
627.368	40.64
627.7	40.15
628.032	40.37
628.365	40.2
628.697	40.53
629.029	40.73
629.361	40.41
629.693	40.53
630.025	40.59
630.357	40.57
630.689	40.73
631.021	41.18
631.353	40.89
631.684	41
632.016	40.86
632.348	41.15
632.679	40.5
633.011	41.05
633.342	41.21
633.674	41.11
634.005	40.72
634.336	40.73
634.668	40.96
634.999	41.25
635.33	40.81
635.661	41.43
635.992	41.16
636.323	41.44
636.654	41.06
636.985	41.34
637.316	41.1
637.647	41.35
637.977	41.19
638.308	41.22
638.639	41.63
638.969	41.41
639.3	42.02
639.63	41.36
639.961	41.45
640.291	41.77
640.622	41.04
640.952	41.41
641.282	41.8
641.612	41.24
641.943	41.72
642.273	41.89
642.603	41.83
642.933	41.89
643.263	41.74
643.592	42.03
643.922	42.43
644.252	41.78
644.582	41.37
644.911	41.61
645.241	42.02
645.571	41.84
645.9	42.24
646.23	42.03
646.559	42.5
646.888	42.09
647.218	41.9
647.547	41.88
647.876	43.09
648.205	42.05
648.534	43.01
648.863	42.26
649.192	41.97
649.521	42.45
649.85	42.32
650.179	42.73
650.508	42.77
650.837	42.55
651.165	42.66
651.494	42.82
651.822	42.32
652.151	42.39
652.479	43.04
652.808	42.1
653.136	42.83
653.465	42.65
653.793	42.91
654.121	42.68
654.449	42.71
654.777	43
655.105	42.91
655.433	42.85
655.761	42.5
656.089	43.15
656.417	42.7
656.745	42.95
657.073	42.78
657.4	42.84
657.728	43.03
658.056	42.94
658.383	43.62
658.711	43.16
659.038	42.99
659.365	43.85
659.693	43.22
660.02	43.28
660.347	43.12
660.674	43.41
661.001	42.88
661.329	43.5
661.656	42.92
661.982	43.23
662.309	43.72
662.636	43.39
662.963	43.53
663.29	42.99
663.616	43.57
663.943	43.92
664.27	43.36
664.596	42.92
664.923	43.33
665.249	43.98
665.576	43.26
665.902	43.62
666.228	43.76
666.554	43.75
666.881	43.95
667.207	43.24
667.533	44.17
667.859	43.79
668.185	44.29
668.511	43.7
668.837	43.59
669.162	44.34
669.488	44.19
669.814	44.19
670.139	44.49
