Data from 0075_crown_Reflection__4__384.txt Node

Date: Fri Dec 16 17:06:27 CST 2022
User: ToomeyLab
Spectrometer: FLMS14357
Trigger mode: 0
Integration Time (sec): 1.000000E-2
Scans to average: 100
Electric dark correction enabled: true
Nonlinearity correction enabled: false
Boxcar width: 0
XAxis mode: Wavelengths
Number of Pixels in Spectrum: 2048
>>>>>Begin Spectral Data<<<<<
189.047	205.79
189.435	205.79
189.823	205.79
190.211	109.33
190.599	-218.32
190.987	-94.58
191.375	37.63
191.763	172.52
192.151	-15.29
192.538	74.52
192.926	-143.26
193.314	120.84
193.702	-122.42
194.089	930.77
194.477	-105.3
194.864	751.73
195.252	48.75
195.639	81.18
196.027	-102.5
196.414	-645.95
196.801	146.76
197.189	160.8
197.576	4029.41
197.963	14.84
198.351	9.69
198.738	-12.55
199.125	30.03
199.512	-10.77
199.899	-29.59
200.286	-90.87
200.673	23.36
201.06	88.08
201.447	21.68
201.833	-4.11
202.22	18.74
202.607	-33.12
202.994	5.11
203.38	-43.98
203.767	-119.09
204.154	-83.18
204.54	-0.67
204.927	-0.47
205.313	14.08
205.699	-10.4
206.086	-52.54
206.472	-10.79
206.858	27.1
207.245	43.5
207.631	-25.84
208.017	-7.2
208.403	40.82
208.789	-34.73
209.175	32.4
209.561	3.53
209.947	-68.41
210.333	-8.75
210.719	-23.72
211.105	-21.81
211.491	-51.04
211.876	-30.74
212.262	-73.61
212.648	-19.92
213.034	-6.84
213.419	19.65
213.805	-23.8
214.19	-31.95
214.576	-35.93
214.961	-36.59
215.346	-28.72
215.732	-16.8
216.117	-8.35
216.502	-2.86
216.888	-38.29
217.273	25.84
217.658	-6.5
218.043	31.8
218.428	-5.75
218.813	-43.17
219.198	-55.06
219.583	-19.82
219.968	10.43
220.353	9.44
220.738	-7.7
221.122	-19.43
221.507	2.76
221.892	4.26
222.276	-2.89
222.661	-14.5
223.046	1.01
223.43	-7.09
223.815	-2.19
224.199	-16.23
224.583	3.18
224.968	2.32
225.352	-1.41
225.736	7.72
226.121	1.46
226.505	4.99
226.889	16.1
227.273	6.69
227.657	8.07
228.041	9.42
228.425	10.02
228.809	9.15
229.193	6.89
229.577	9.73
229.961	11.3
230.344	10.76
230.728	10.6
231.112	9.38
231.495	9.83
231.879	11.1
232.263	6.94
232.646	8.51
233.03	6.89
233.413	7.53
233.797	8.75
234.18	6.66
234.563	10.05
234.946	7.96
235.33	9.35
235.713	9.27
236.096	8.8
236.479	11.24
236.862	10.52
237.245	9.48
237.628	11.29
238.011	9.22
238.394	10.26
238.777	9.98
239.16	5.48
239.543	8.17
239.925	7.4
240.308	8.86
240.691	8.23
241.073	10.47
241.456	9.23
241.838	7.9
242.221	10.27
242.603	9.92
242.986	10.58
243.368	9.81
243.75	9.49
244.133	9.56
244.515	9.86
244.897	9.02
245.279	8.46
245.661	8.49
246.043	9.68
246.425	8.76
246.807	9.02
247.189	8.52
247.571	10.15
247.953	9.33
248.335	9.22
248.717	9.17
249.098	9.33
249.48	8.71
249.862	9.14
250.243	9.03
250.625	9.36
251.006	8.28
251.388	8.88
251.769	8.42
252.151	8.94
252.532	9.02
252.913	8.4
253.295	8.95
253.676	9.25
254.057	8.51
254.438	8.79
254.819	8.17
255.2	7.4
255.581	7.54
255.962	9.09
256.343	9.11
256.724	7.53
257.105	7.95
257.486	9.31
257.867	6.8
258.247	8.1
258.628	8.72
259.009	8.63
259.389	8.97
259.77	8.01
260.15	8.9
260.531	8.78
260.911	8.58
261.292	8.43
261.672	8.4
262.052	8.27
262.432	8.25
262.813	8.06
263.193	8.2
263.573	7.73
263.953	8.18
264.333	8.25
264.713	8.31
265.093	7.82
265.473	8.03
265.853	7.78
266.233	8.13
266.612	8.06
266.992	7.61
267.372	8.23
267.752	7.29
268.131	8.19
268.511	8.38
268.89	8.37
269.27	8.29
269.649	7.93
270.029	8.09
270.408	7.57
270.787	8.23
271.167	7.77
271.546	7.01
271.925	7.97
272.304	8.04
272.683	7.74
273.062	8.13
273.441	7.82
273.82	8.22
274.199	7.96
274.578	7.5
274.957	7.77
275.336	6.86
275.715	7.81
276.093	8.52
276.472	7.67
276.851	7.81
277.229	7.96
277.608	7.59
277.986	7.49
278.365	7
278.743	7.25
279.122	7.02
279.5	7.5
279.878	6.43
280.257	7.32
280.635	6.97
281.013	7.32
281.391	7.06
281.769	7.17
282.147	7.09
282.525	7.48
282.903	7.31
283.281	7.38
283.659	7.03
284.037	7.17
284.415	7.17
284.792	7.22
285.17	6.86
285.548	7.08
285.925	6.98
286.303	6.89
286.68	7.35
287.058	7.35
287.435	7.03
287.813	6.98
288.19	7.29
288.567	6.96
288.945	7.2
289.322	7.03
289.699	6.8
290.076	7.44
290.453	7.26
290.83	7.1
291.207	6.69
291.584	6.65
291.961	7.19
292.338	6.79
292.715	6.7
293.092	6.8
293.469	7.11
293.845	6.46
294.222	6.76
294.599	7.25
294.975	7.27
295.352	6.3
295.728	6.98
296.105	6.47
296.481	6.79
296.858	6.85
297.234	6.33
297.61	6.68
297.986	6.94
298.363	6.65
298.739	6.93
299.115	6.52
299.491	6.7
299.867	6.61
300.243	6.48
300.619	6.52
300.995	6.79
301.371	7.13
301.746	6.55
302.122	7.01
302.498	6.19
302.874	6.57
303.249	7.09
303.625	7.04
304	6.12
304.376	6.48
304.751	6.56
305.127	6.57
305.502	6.48
305.878	5.67
306.253	6.38
306.628	6.47
307.003	6.27
307.378	6.27
307.754	6.25
308.129	5.69
308.504	6.09
308.879	6.23
309.254	5.94
309.629	6.61
310.003	6.88
310.378	6.5
310.753	6.34
311.128	6.75
311.502	6.33
311.877	6.19
312.252	6.1
312.626	6.22
313.001	6.26
313.375	6.5
313.75	6.13
314.124	6.42
314.498	6.38
314.873	6.36
315.247	5.9
315.621	6.02
315.995	6.44
316.369	6.88
316.743	6.64
317.117	6.48
317.491	5.61
317.865	5.79
318.239	6.83
318.613	5.8
318.987	6.28
319.361	6.27
319.734	6.33
320.108	6.21
320.482	5.6
320.855	5.78
321.229	6.54
321.602	5.91
321.976	6.5
322.349	5.26
322.723	5.96
323.096	5.56
323.469	6.03
323.843	6.1
324.216	5.94
324.589	6.55
324.962	6.2
325.335	5.94
325.708	6.32
326.081	6.92
326.454	6.55
326.827	5.84
327.2	6.5
327.573	6.17
327.945	6
328.318	6.47
328.691	6.18
329.063	6.46
329.436	6.3
329.809	5.88
330.181	6.25
330.553	5.79
330.926	6.38
331.298	6.2
331.671	5.82
332.043	6.43
332.415	6.62
332.787	6.85
333.159	6.57
333.532	6.22
333.904	6.56
334.276	6.25
334.648	6.67
335.02	6
335.391	6.15
335.763	6.32
336.135	6.06
336.507	6.33
336.879	6.75
337.25	6.36
337.622	6.63
337.993	6.17
338.365	6.39
338.736	6.22
339.108	5.99
339.479	6.53
339.851	6.56
340.222	6.27
340.593	5.76
340.964	6.32
341.336	5.77
341.707	6.53
342.078	6.12
342.449	6.8
342.82	6.16
343.191	6.12
343.562	6.56
343.933	6.4
344.303	6.72
344.674	6.58
345.045	6.55
345.416	6.5
345.786	6.49
346.157	6.46
346.527	6.4
346.898	6.34
347.268	6.03
347.639	6.34
348.009	6.73
348.38	6.28
348.75	6.68
349.12	6.53
349.49	6.56
349.861	6.97
350.231	6.31
350.601	6.66
350.971	6.43
351.341	6.68
351.711	6.58
352.081	6.66
352.45	6.65
352.82	6.81
353.19	6.42
353.56	6.51
353.929	6.6
354.299	6.65
354.669	6.35
355.038	6.8
355.408	7.03
355.777	6.55
356.147	6.89
356.516	6.94
356.885	6.65
357.254	6.88
357.624	6.87
357.993	6.77
358.362	7.08
358.731	7.01
359.1	6.82
359.469	7.04
359.838	6.57
360.207	6.61
360.576	6.84
360.945	6.72
361.314	7.04
361.682	6.67
362.051	6.87
362.42	7.02
362.788	7.15
363.157	6.68
363.525	6.86
363.894	6.71
364.262	6.7
364.631	7.34
364.999	6.68
365.367	7.29
365.735	6.93
366.104	6.81
366.472	7.04
366.84	7.21
367.208	6.95
367.576	6.82
367.944	7.34
368.312	6.66
368.68	7.11
369.048	7.37
369.416	6.97
369.783	6.9
370.151	7.14
370.519	6.89
370.886	6.98
371.254	6.96
371.621	7.15
371.989	7.25
372.356	7.18
372.724	7.22
373.091	7.13
373.458	7.01
373.826	6.89
374.193	7.64
374.56	7.2
374.927	7.07
375.294	7.86
375.661	7.35
376.028	7.15
376.395	7.25
376.762	7.41
377.129	7.47
377.496	7.31
377.863	7.31
378.229	7.34
378.596	7.33
378.963	7.11
379.329	7.12
379.696	7.24
380.062	7.78
380.429	7.57
380.795	7.31
381.161	7.1
381.528	6.89
381.894	7.91
382.26	7.45
382.626	7.2
382.993	7.02
383.359	7.55
383.725	7.51
384.091	7.61
384.457	7.26
384.823	7.44
385.188	7.73
385.554	7.47
385.92	7.54
386.286	7.74
386.651	7.58
387.017	7.73
387.383	7.56
387.748	7.36
388.114	7.54
388.479	7.68
388.845	7.35
389.21	7.66
389.575	7.63
389.94	7.55
390.306	7.77
390.671	7.53
391.036	7.74
391.401	7.8
391.766	7.76
392.131	7.76
392.496	7.83
392.861	7.54
393.226	7.66
393.591	7.65
393.956	7.73
394.32	7.74
394.685	7.91
395.05	7.64
395.414	7.99
395.779	7.6
396.143	7.78
396.508	7.9
396.872	7.81
397.236	7.57
397.601	7.62
397.965	7.55
398.329	8.05
398.694	7.56
399.058	7.88
399.422	8.08
399.786	7.86
400.15	7.95
400.514	7.84
400.878	7.8
401.242	7.89
401.605	7.96
401.969	7.8
402.333	7.79
402.697	7.82
403.06	7.89
403.424	8.04
403.787	7.89
404.151	7.95
404.514	8.07
404.878	7.94
405.241	8.01
405.604	7.9
405.968	8.19
406.331	8.16
406.694	8.16
407.057	8.23
407.42	7.84
407.783	7.92
408.146	8.08
408.509	7.71
408.872	7.78
409.235	8.16
409.598	7.89
409.961	8.1
410.323	8.18
410.686	8.01
411.049	7.94
411.411	7.97
411.774	8.12
412.136	8.2
412.499	8.02
412.861	7.89
413.223	8.17
413.586	8.19
413.948	8.1
414.31	8.08
414.672	7.96
415.035	8.28
415.397	8.17
415.759	7.88
416.121	8.3
416.483	8.46
416.845	8.1
417.206	8.13
417.568	8.13
417.93	8.04
418.292	8.21
418.653	8.04
419.015	8.08
419.377	8.28
419.738	8.02
420.1	8.2
420.461	7.96
420.822	8.2
421.184	8.15
421.545	8.08
421.906	8.23
422.267	8.12
422.629	8.13
422.99	8.17
423.351	8.14
423.712	8.05
424.073	8.16
424.434	8.08
424.795	8.11
425.155	8.17
425.516	8.18
425.877	8.16
426.238	8.04
426.598	8.04
426.959	8.06
427.32	8.11
427.68	8.25
428.041	8.14
428.401	8.16
428.761	8.12
429.122	8.22
429.482	8.07
429.842	8.34
430.202	8.2
430.563	8.25
430.923	8.3
431.283	8.22
431.643	8.25
432.003	8.47
432.363	8.28
432.722	8.34
433.082	8.28
433.442	8.41
433.802	8.38
434.161	8.18
434.521	8.38
434.881	8.48
435.24	8.23
435.6	8.28
435.959	8.3
436.319	8.26
436.678	8.53
437.037	8.37
437.396	8.42
437.756	8.32
438.115	8.44
438.474	8.54
438.833	8.33
439.192	8.48
439.551	8.33
439.91	8.53
440.269	8.53
440.628	8.48
440.987	8.35
441.345	8.37
441.704	8.29
442.063	8.3
442.421	8.36
442.78	8.31
443.138	8.22
443.497	8.22
443.855	8.25
444.214	8.32
444.572	8.35
444.93	8.34
445.288	8.51
445.647	8.57
446.005	8.26
446.363	8.39
446.721	8.3
447.079	8.37
447.437	8.33
447.795	8.32
448.153	8.31
448.51	8.16
448.868	8.38
449.226	8.26
449.584	8.29
449.941	8.33
450.299	8.22
450.656	8.33
451.014	8.31
451.371	8.48
451.729	8.36
452.086	8.32
452.443	8.33
452.801	8.52
453.158	8.48
453.515	8.44
453.872	8.58
454.229	8.4
454.586	8.36
454.943	8.28
455.3	8.57
455.657	8.4
456.014	8.52
456.371	8.49
456.727	8.37
457.084	8.42
457.441	8.43
457.797	8.49
458.154	8.38
458.51	8.37
458.867	8.45
459.223	8.55
459.58	8.46
459.936	8.55
460.292	8.51
460.648	8.4
461.005	8.38
461.361	8.35
461.717	8.3
462.073	8.36
462.429	8.48
462.785	8.42
463.141	8.49
463.496	8.29
463.852	8.64
464.208	8.54
464.564	8.48
464.919	8.37
465.275	8.41
465.631	8.52
465.986	8.45
466.342	8.55
466.697	8.66
467.052	8.64
467.408	8.37
467.763	8.24
468.118	8.6
468.473	8.63
468.829	8.56
469.184	8.57
469.539	8.37
469.894	8.63
470.249	8.47
470.603	8.65
470.958	8.56
471.313	8.52
471.668	8.6
472.023	8.72
472.377	8.53
472.732	8.57
473.086	8.62
473.441	8.5
473.795	8.66
474.15	8.48
474.504	8.55
474.859	8.49
475.213	8.69
475.567	8.47
475.921	8.53
476.275	8.51
476.63	8.42
476.984	8.57
477.338	8.73
477.692	8.37
478.045	8.37
478.399	8.51
478.753	8.43
479.107	8.46
479.461	8.52
479.814	8.5
480.168	8.48
480.521	8.49
480.875	8.52
481.228	8.52
481.582	8.57
481.935	8.44
482.289	8.47
482.642	8.54
482.995	8.5
483.348	8.48
483.701	8.42
484.055	8.35
484.408	8.36
484.761	8.33
485.114	8.26
485.466	8.21
485.819	8.04
486.172	8
486.525	8.06
486.878	8.15
487.23	8.16
487.583	8.36
487.936	8.31
488.288	8.35
488.641	8.3
488.993	8.22
489.345	8.18
489.698	8.25
490.05	8.15
490.402	8.21
490.754	8.24
491.107	8.32
491.459	8.36
491.811	8.51
492.163	8.52
492.515	8.46
492.866	8.3
493.218	8.31
493.57	8.23
493.922	8.15
494.274	8.18
494.625	8.31
494.977	8.32
495.328	8.48
495.68	8.59
496.031	8.57
496.383	8.46
496.734	8.54
497.086	8.47
497.437	8.62
497.788	8.48
498.139	8.59
498.49	8.51
498.842	8.37
499.193	8.39
499.544	8.54
499.894	8.46
500.245	8.36
500.596	8.44
500.947	8.45
501.298	8.48
501.648	8.44
501.999	8.65
502.35	8.63
502.7	8.56
503.051	8.72
503.401	8.65
503.752	8.51
504.102	8.52
504.452	8.45
504.803	8.37
505.153	8.51
505.503	8.43
505.853	8.45
506.203	8.53
506.553	8.53
506.903	8.38
507.253	8.59
507.603	8.45
507.953	8.55
508.303	8.38
508.652	8.37
509.002	8.55
509.352	8.47
509.701	8.45
510.051	8.68
510.4	8.54
510.75	8.41
511.099	8.48
511.449	8.51
511.798	8.51
512.147	8.39
512.496	8.49
512.846	8.36
513.195	8.54
513.544	8.44
513.893	8.36
514.242	8.47
514.591	8.42
514.939	8.47
515.288	8.53
515.637	8.57
515.986	8.48
516.334	8.53
516.683	8.45
517.032	8.45
517.38	8.44
517.729	8.51
518.077	8.54
518.426	8.47
518.774	8.4
519.122	8.4
519.47	8.42
519.819	8.43
520.167	8.51
520.515	8.35
520.863	8.31
521.211	8.25
521.559	8.29
521.907	8.33
522.255	8.47
522.602	8.43
522.95	8.46
523.298	8.43
523.645	8.45
523.993	8.52
524.341	8.44
524.688	8.41
525.036	8.47
525.383	8.55
525.73	8.49
526.078	8.49
526.425	8.48
526.772	8.43
527.119	8.32
527.466	8.32
527.814	8.19
528.161	8.22
528.508	8.33
528.854	8.22
529.201	8.26
529.548	8.23
529.895	8.18
530.242	8.13
530.588	8.03
530.935	7.98
531.282	8.01
531.628	8.08
531.975	8.07
532.321	8.18
532.667	8.25
533.014	8.23
533.36	8.23
533.706	8.28
534.052	8.28
534.399	8.17
534.745	8.17
535.091	8.18
535.437	8.14
535.783	8.21
536.129	8.03
536.474	8.2
536.82	8.25
537.166	8.3
537.512	8.32
537.857	8.25
538.203	8.23
538.549	8.23
538.894	8.07
539.239	8.19
539.585	8.16
539.93	8.28
540.276	8.24
540.621	8.21
540.966	8.37
541.311	8.33
541.656	8.24
542.001	8.29
542.346	8.27
542.691	8.13
543.036	8.08
543.381	8.05
543.726	8.03
544.071	8.08
544.415	8.06
544.76	8.01
545.105	8.19
545.449	8.09
545.794	8.12
546.138	8.11
546.483	8.14
546.827	8.27
547.171	8.09
547.516	8.31
547.86	8.13
548.204	8.09
548.548	8.26
548.892	8.15
549.236	8.14
549.58	8.09
549.924	8.18
550.268	8.12
550.612	8.12
550.956	8.15
551.3	8.37
551.643	8.17
551.987	8.27
552.33	8.17
552.674	8.34
553.017	8.21
553.361	8.4
553.704	8.05
554.048	8.24
554.391	8.16
554.734	8.12
555.077	8.23
555.42	8.14
555.764	8.14
556.107	8.23
556.45	7.98
556.793	8.31
557.135	8.36
557.478	8.2
557.821	8.01
558.164	8.25
558.507	7.93
558.849	8.01
559.192	8.27
559.534	8.09
559.877	8.31
560.219	8.3
560.562	8.18
560.904	8.04
561.246	8.06
561.589	8.1
561.931	8.3
562.273	8.02
562.615	8.15
562.957	8.23
563.299	8.13
563.641	8.17
563.983	7.96
564.325	7.94
564.667	8.08
565.008	8.07
565.35	8.29
565.692	8.25
566.033	7.96
566.375	7.85
566.716	8.08
567.058	8.04
567.399	8.1
567.741	8.02
568.082	7.96
568.423	7.8
568.764	7.99
569.105	7.97
569.447	7.84
569.788	7.81
570.129	7.86
570.47	8.11
570.811	8.11
571.151	7.92
571.492	7.97
571.833	7.9
572.174	7.81
572.514	7.87
572.855	8.02
573.195	7.82
573.536	7.91
573.876	7.93
574.217	7.96
574.557	8.07
574.898	7.79
575.238	7.84
575.578	7.9
575.918	7.85
576.258	7.85
576.598	7.83
576.938	7.98
577.278	7.66
577.618	7.86
577.958	7.85
578.298	7.99
578.638	7.68
578.977	7.91
579.317	7.94
579.657	7.83
579.996	7.79
580.336	7.71
580.675	8.05
581.014	7.74
581.354	7.89
581.693	7.89
582.032	7.69
582.372	7.78
582.711	7.85
583.05	8.03
583.389	7.71
583.728	7.77
584.067	7.67
584.406	7.98
584.745	7.73
585.083	8.14
585.422	7.85
585.761	7.9
586.1	7.89
586.438	8.06
586.777	7.76
587.115	7.69
587.454	7.75
587.792	7.42
588.13	8.13
588.469	7.87
588.807	7.74
589.145	7.55
589.483	7.74
589.821	7.73
590.159	7.61
590.497	7.31
590.835	7.84
591.173	7.94
591.511	7.8
591.849	7.64
592.187	7.66
592.524	7.66
592.862	7.54
593.2	7.4
593.537	7.66
593.875	7.8
594.212	7.52
594.55	7.5
594.887	7.63
595.224	7.53
595.561	7.63
595.899	7.54
596.236	7.65
596.573	7.52
596.91	7.73
597.247	7.47
597.584	7.6
597.921	7.43
598.258	7.55
598.594	7.47
598.931	7.51
599.268	7.36
599.604	7.65
599.941	7.36
600.277	7.42
600.614	7.64
600.95	7.64
601.287	7.44
601.623	7.59
601.959	7.39
602.296	7.65
602.632	7.86
602.968	7.41
603.304	7.38
603.64	7.47
603.976	7.52
604.312	7.51
604.648	7.52
604.984	7.59
605.319	7.47
605.655	7.43
605.991	7.32
606.326	7.54
606.662	7.38
606.998	7.32
607.333	7.35
607.668	7.47
608.004	7.45
608.339	7.13
608.674	7.16
609.01	7.31
609.345	7.5
609.68	7.1
610.015	7.51
610.35	7.57
610.685	7.44
611.02	7.48
611.355	7.32
611.689	7.14
612.024	7.6
612.359	7.43
612.694	7.6
613.028	7.58
613.363	7.27
613.697	7.5
614.032	7.55
614.366	7.2
614.7	7.65
615.035	7.17
615.369	7.43
615.703	7.75
616.037	7.38
616.371	7.31
616.705	7.42
617.039	7.48
617.373	7.14
617.707	7.39
618.041	6.9
618.375	7.26
618.709	7.35
619.042	7.38
619.376	6.99
619.71	7.02
620.043	7.47
620.377	7.15
620.71	7.47
621.043	7.03
621.377	7.33
621.71	7.48
622.043	7.25
622.376	7.33
622.709	7.31
623.043	7.01
623.376	7.28
623.709	7.47
624.041	7.38
624.374	7.1
624.707	6.91
625.04	7.71
625.373	7.37
625.705	7.22
626.038	7.06
626.37	7.08
626.703	6.92
627.035	7.01
627.368	7.37
627.7	7.38
628.032	7.35
628.365	7.18
628.697	7.09
629.029	7.28
629.361	6.89
629.693	7.42
630.025	7.15
630.357	7.15
630.689	7.5
631.021	7.43
631.353	7.2
631.684	7.4
632.016	6.91
632.348	7.59
632.679	6.97
633.011	7.02
633.342	7.17
633.674	7.01
634.005	7.19
634.336	7.16
634.668	6.71
634.999	7.35
635.33	6.85
635.661	6.85
635.992	6.94
636.323	6.79
636.654	7.16
636.985	7.13
637.316	7.16
637.647	6.78
637.977	7.02
638.308	6.94
638.639	6.62
638.969	7.32
639.3	7.13
639.63	6.73
639.961	7.01
640.291	7.48
640.622	7.08
640.952	6.72
641.282	6.65
641.612	6.77
641.943	7.19
642.273	7.01
642.603	7.1
642.933	6.96
643.263	7.21
643.592	7.03
643.922	7.19
644.252	7.13
644.582	6.8
644.911	6.98
645.241	7.07
645.571	6.78
645.9	7.54
646.23	6.91
646.559	6.88
646.888	6.62
647.218	7.24
647.547	7.38
647.876	7.2
648.205	6.72
648.534	6.54
648.863	7.21
649.192	6.7
649.521	6.53
649.85	7.38
650.179	6.81
650.508	6.85
650.837	7.15
651.165	7.22
651.494	7.06
651.822	7.36
652.151	7.46
652.479	7.17
652.808	6.52
653.136	6.95
653.465	7.13
653.793	7.28
654.121	7
654.449	7.1
654.777	6.75
655.105	7.35
655.433	7
655.761	7.15
656.089	7.24
656.417	6.97
656.745	7.27
657.073	7.3
657.4	6.8
657.728	7.01
658.056	6.84
658.383	7.3
658.711	6.55
659.038	6.7
659.365	6.84
659.693	7.15
660.02	6.63
660.347	7.11
660.674	6.56
661.001	6.3
661.329	7
661.656	6.6
661.982	7.07
662.309	7.02
662.636	6.69
662.963	7.46
663.29	6.98
663.616	6.55
663.943	7.21
664.27	6.92
664.596	6.44
664.923	7.1
665.249	6.77
665.576	6.89
665.902	6.42
666.228	6.37
666.554	6.37
666.881	6.86
667.207	6.46
667.533	7.01
667.859	6.42
668.185	7.05
668.511	7.04
668.837	5.97
669.162	6.83
669.488	6.72
669.814	7.43
670.139	7.02
670.465	6.8
670.791	6.78
671.116	6.52
671.442	6.75
671.767	6.8
672.092	7.2
672.418	7.3
672.743	6.52
673.068	6.53
673.393	6.89
673.718	6.59
674.043	6.64
674.368	7.19
674.693	6.5
675.018	6.45
675.343	7.24
675.667	6.92
675.992	6.08
676.317	7.14
676.641	6.4
676.966	6.2
677.29	6.46
677.615	6.19
677.939	6.6
678.264	6.41
678.588	7.44
678.912	6.95
679.236	6.91
679.56	6.32
679.885	6.97
680.209	6.85
680.532	6.76
680.856	7.5
681.18	6.98
681.504	7.01
681.828	6.27
682.152	6.79
682.475	7.47
682.799	6.65
683.122	6.29
683.446	6.77
683.769	7.15
684.093	6.83
684.416	6.57
684.739	6.74
685.062	6.89
685.386	6.95
685.709	6.25
686.032	6.49
686.355	6.78
686.678	6.89
687.001	6.04
687.324	5.9
687.646	6.3
687.969	7.2
688.292	6.83
688.614	7.56
688.937	6.95
689.26	6.57
689.582	6.08
689.904	6.7
690.227	6.4
690.549	6.9
690.871	7.01
691.194	6.85
691.516	6.75
691.838	6.96
