Data from 0075_chest_Reflection__0__375.txt Node

Date: Fri Dec 16 17:03:53 CST 2022
User: ToomeyLab
Spectrometer: FLMS14357
Trigger mode: 0
Integration Time (sec): 1.000000E-2
Scans to average: 100
Electric dark correction enabled: true
Nonlinearity correction enabled: false
Boxcar width: 0
XAxis mode: Wavelengths
Number of Pixels in Spectrum: 2048
>>>>>Begin Spectral Data<<<<<
189.047	113.2
189.435	113.2
189.823	113.2
190.211	2.04
190.599	-1.07
190.987	-28.06
191.375	83.54
191.763	119.65
192.151	-15.38
192.538	81.5
192.926	3.99
193.314	57.03
193.702	-11.88
194.089	-851.65
194.477	-89.86
194.864	87.81
195.252	-30.14
195.639	44.2
196.027	18.07
196.414	-4391.89
196.801	83.77
197.189	210.96
197.576	6088.24
197.963	-23.81
198.351	37.49
198.738	-38.03
199.125	17.72
199.512	-13.13
199.899	-51.32
200.286	-119.82
200.673	-6.09
201.06	-11.65
201.447	23.2
201.833	-10.83
202.22	-3.93
202.607	9.07
202.994	-21.8
203.38	-24.63
203.767	-6.39
204.154	26.56
204.54	22.41
204.927	15.29
205.313	26.67
205.699	-41.39
206.086	32.13
206.472	-12.04
206.858	3.83
207.245	-4.27
207.631	-29.58
208.017	27.39
208.403	-3.42
208.789	-27.74
209.175	53.58
209.561	13.01
209.947	-173.38
210.333	-61.38
210.719	-16.38
211.105	-36.31
211.491	-46.32
211.876	-49.13
212.262	-51.45
212.648	-75.07
213.034	-19.43
213.419	3.71
213.805	-24.04
214.19	-3.22
214.576	-41.26
214.961	-27.36
215.346	1.01
215.732	-50.86
216.117	-13.74
216.502	-32.59
216.888	-34.35
217.273	-2.73
217.658	-25.27
218.043	0.63
218.428	13.24
218.813	-17.35
219.198	-28.57
219.583	0.19
219.968	-2.07
220.353	-14.6
220.738	-21.57
221.122	-29.76
221.507	-24.45
221.892	-4.47
222.276	-0.87
222.661	2.33
223.046	2.53
223.43	-12.68
223.815	3.19
224.199	12.4
224.583	-13.25
224.968	-0.22
225.352	-17.72
225.736	3.46
226.121	-0.35
226.505	-3.75
226.889	1.46
227.273	-0.19
227.657	-1.75
228.041	-5
228.425	1.8
228.809	0.72
229.193	-2.11
229.577	-0.47
229.961	2.44
230.344	1.01
230.728	0.64
231.112	0.44
231.495	0.37
231.879	1.8
232.263	0.39
232.646	0.37
233.03	-0.95
233.413	-0.7
233.797	2.13
234.18	-0.69
234.563	0.43
234.946	-0.17
235.33	0.6
235.713	0.48
236.096	-0.43
236.479	2.44
236.862	-1.29
237.245	1.87
237.628	-0.11
238.011	0.25
238.394	2.54
238.777	0.62
239.16	-1.95
239.543	-2.69
239.925	0.71
240.308	-0.52
240.691	1.52
241.073	-0
241.456	-0.79
241.838	0.68
242.221	0.27
242.603	0.53
242.986	1.32
243.368	0.44
243.75	0.47
244.133	1.06
244.515	0.81
244.897	0.34
245.279	0.69
245.661	0.6
246.043	1.69
246.425	-0.19
246.807	0.96
247.189	1.14
247.571	1.1
247.953	1.13
248.335	1.07
248.717	1.09
249.098	1.14
249.48	0.58
249.862	1.36
250.243	1.09
250.625	0.95
251.006	1.07
251.388	0.86
251.769	0.09
252.151	0.8
252.532	0.35
252.913	1.64
253.295	1.02
253.676	1.16
254.057	0.5
254.438	1.08
254.819	-0.07
255.2	1.7
255.581	0.37
255.962	-0.26
256.343	1.92
256.724	0.48
257.105	0.62
257.486	0.77
257.867	-0.56
258.247	0.38
258.628	1.81
259.009	1.11
259.389	1.27
259.77	0.52
260.15	1.52
260.531	1.16
260.911	1.15
261.292	0.89
261.672	0.88
262.052	1.04
262.432	0.95
262.813	0.35
263.193	0.61
263.573	0.74
263.953	0.91
264.333	0.95
264.713	0.57
265.093	1.08
265.473	1.21
265.853	0.4
266.233	0.18
266.612	0.32
266.992	1.28
267.372	1.05
267.752	0.53
268.131	0.85
268.511	0.98
268.89	1.59
269.27	0.93
269.649	0.79
270.029	0.75
270.408	0.97
270.787	0.36
271.167	1.36
271.546	0.17
271.925	0.81
272.304	1
272.683	0.66
273.062	1.02
273.441	1.37
273.82	1.08
274.199	0.61
274.578	0.52
274.957	1.23
275.336	0.68
275.715	1.28
276.093	1.68
276.472	1.33
276.851	1.37
277.229	1.28
277.608	0.5
277.986	1
278.365	0.55
278.743	0.56
279.122	0.41
279.5	0.21
279.878	0.3
280.257	0.79
280.635	0.46
281.013	1.26
281.391	0.71
281.769	0.55
282.147	1.15
282.525	1.18
282.903	1.14
283.281	0.77
283.659	0.9
284.037	0.56
284.415	1.23
284.792	0.51
285.17	0.64
285.548	1.02
285.925	0.88
286.303	0.73
286.68	0.8
287.058	1.06
287.435	0.64
287.813	1
288.19	1.27
288.567	0.72
288.945	0.76
289.322	1.11
289.699	0.81
290.076	1.25
290.453	0.82
290.83	1.27
291.207	0.9
291.584	0.94
291.961	1.34
292.338	0.99
292.715	1.18
293.092	0.76
293.469	1.33
293.845	1.18
294.222	0.96
294.599	1.65
294.975	1.16
295.352	0.7
295.728	1.19
296.105	0.76
296.481	1.37
296.858	1.35
297.234	1.28
297.61	1.2
297.986	1.09
298.363	1.12
298.739	1.47
299.115	1
299.491	1.07
299.867	1.52
300.243	1.28
300.619	1.03
300.995	1.68
301.371	1.58
301.746	1.44
302.122	1.16
302.498	1.41
302.874	1.31
303.249	1.11
303.625	1.09
304	1
304.376	0.96
304.751	1.02
305.127	1.21
305.502	1.92
305.878	1.75
306.253	0.85
306.628	1.61
307.003	1.41
307.378	1.35
307.754	1.52
308.129	0.9
308.504	1.17
308.879	1.58
309.254	1.8
309.629	1.27
310.003	1.73
310.378	1.52
310.753	1.18
311.128	1.31
311.502	1
311.877	1.47
312.252	1.26
312.626	1.21
313.001	1.46
313.375	1.65
313.75	1.73
314.124	2.09
314.498	1.51
314.873	1.67
315.247	1.51
315.621	1.67
315.995	1.48
316.369	1.75
316.743	1.18
317.117	1.65
317.491	1.44
317.865	0.76
318.239	1.66
318.613	1.59
318.987	1.36
319.361	1.43
319.734	2.07
320.108	1.86
320.482	1.16
320.855	1.23
321.229	2.68
321.602	1.45
321.976	1.89
322.349	0.69
322.723	1.18
323.096	1.93
323.469	1.15
323.843	1.69
324.216	1.4
324.589	1.88
324.962	1.85
325.335	1.88
325.708	1.65
326.081	1.87
326.454	1.7
326.827	2.14
327.2	1.72
327.573	1.5
327.945	1.74
328.318	1.71
328.691	1.93
329.063	2.16
329.436	1.63
329.809	1.29
330.181	1.75
330.553	2.12
330.926	2.51
331.298	1
331.671	1.59
332.043	2.04
332.415	1.95
332.787	2.17
333.159	1.79
333.532	2.01
333.904	1.86
334.276	1.6
334.648	2.1
335.02	1.81
335.391	1.77
335.763	1.45
336.135	2.09
336.507	1.82
336.879	1.86
337.25	1.78
337.622	1.89
337.993	1.87
338.365	2.13
338.736	2.14
339.108	1.73
339.479	1.88
339.851	1.89
340.222	2
340.593	1.57
340.964	1.79
341.336	1.66
341.707	1.99
342.078	1.51
342.449	2.08
342.82	1.68
343.191	1.75
343.562	1.71
343.933	1.8
344.303	1.88
344.674	1.94
345.045	2.19
345.416	2.14
345.786	1.74
346.157	1.81
346.527	1.71
346.898	1.72
347.268	1.67
347.639	1.81
348.009	1.99
348.38	2.05
348.75	1.89
349.12	1.9
349.49	1.81
349.861	2.36
350.231	2.27
350.601	2.07
350.971	2.2
351.341	1.96
351.711	1.96
352.081	2.35
352.45	2.33
352.82	2.32
353.19	2.04
353.56	1.92
353.929	2.2
354.299	2.17
354.669	2.53
355.038	1.9
355.408	1.82
355.777	1.89
356.147	1.93
356.516	2.28
356.885	1.89
357.254	2.26
357.624	2.1
357.993	1.7
358.362	2.28
358.731	2.22
359.1	2.3
359.469	2.27
359.838	1.81
360.207	1.67
360.576	2.1
360.945	1.95
361.314	2.05
361.682	1.81
362.051	2.06
362.42	2.31
362.788	2.03
363.157	1.91
363.525	2.02
363.894	1.77
364.262	1.99
364.631	2.67
364.999	1.79
365.367	2.21
365.735	1.95
366.104	2.05
366.472	2.08
366.84	2.21
367.208	1.98
367.576	1.92
367.944	2.19
368.312	1.85
368.68	1.92
369.048	2.29
369.416	2.15
369.783	2.08
370.151	2.02
370.519	2.19
370.886	2.29
371.254	2.24
371.621	1.93
371.989	2.34
372.356	2.31
372.724	2.34
373.091	2.2
373.458	2.26
373.826	2.12
374.193	2.52
374.56	1.98
374.927	2.13
375.294	2.39
375.661	2.04
376.028	2.48
376.395	2.06
376.762	2.17
377.129	2.26
377.496	2.16
377.863	2.43
378.229	2.11
378.596	2.17
378.963	2.3
379.329	2.25
379.696	2.33
380.062	2.55
380.429	2.16
380.795	2.12
381.161	2.17
381.528	1.62
381.894	2.29
382.26	1.99
382.626	2.07
382.993	1.89
383.359	2.17
383.725	2.46
384.091	2.38
384.457	2.56
384.823	2.24
385.188	2.46
385.554	2.13
385.92	2.42
386.286	2.4
386.651	2.51
387.017	2.34
387.383	2.25
387.748	2.18
388.114	2.49
388.479	2.43
388.845	2.29
389.21	2.47
389.575	2.24
389.94	2.33
390.306	2.49
390.671	2.29
391.036	2.38
391.401	2.71
391.766	2.46
392.131	2.33
392.496	2.28
392.861	2.08
393.226	2.5
393.591	2.33
393.956	2.23
394.32	2.41
394.685	2.34
395.05	2.13
395.414	2.43
395.779	2.35
396.143	2.45
396.508	2.41
396.872	2.47
397.236	2.14
397.601	2.71
397.965	2.17
398.329	2.6
398.694	2.2
399.058	2.64
399.422	2.46
399.786	2.23
400.15	2.46
400.514	2.52
400.878	2.41
401.242	2.56
401.605	2.4
401.969	2.63
402.333	2.38
402.697	2.72
403.06	2.61
403.424	2.26
403.787	2.61
404.151	2.56
404.514	2.56
404.878	2.53
405.241	2.53
405.604	2.49
405.968	2.41
406.331	2.4
406.694	2.47
407.057	2.91
407.42	2.56
407.783	2.45
408.146	2.45
408.509	2.28
408.872	2.61
409.235	2.6
409.598	2.81
409.961	2.56
410.323	2.69
410.686	2.43
411.049	2.51
411.411	2.55
411.774	2.46
412.136	2.57
412.499	2.54
412.861	2.43
413.223	2.79
413.586	2.42
413.948	2.64
414.31	2.78
414.672	2.6
415.035	2.82
415.397	2.5
415.759	2.47
416.121	2.86
416.483	2.79
416.845	2.77
417.206	2.76
417.568	2.53
417.93	2.63
418.292	2.68
418.653	2.69
419.015	2.68
419.377	2.56
419.738	2.59
420.1	2.61
420.461	2.58
420.822	2.67
421.184	2.51
421.545	2.63
421.906	2.64
422.267	2.55
422.629	2.67
422.99	2.67
423.351	2.66
423.712	2.66
424.073	2.79
424.434	2.7
424.795	2.69
425.155	2.56
425.516	2.68
425.877	2.66
426.238	2.66
426.598	2.7
426.959	2.63
427.32	2.71
427.68	2.76
428.041	2.7
428.401	2.73
428.761	2.59
429.122	2.71
429.482	2.71
429.842	2.66
430.202	2.82
430.563	2.75
430.923	2.66
431.283	2.72
431.643	2.66
432.003	2.89
432.363	2.92
432.722	2.71
433.082	2.69
433.442	2.64
433.802	2.75
434.161	2.66
434.521	2.69
434.881	2.99
435.24	2.58
435.6	2.89
435.959	2.72
436.319	2.72
436.678	2.98
437.037	2.89
437.396	2.82
437.756	2.75
438.115	2.86
438.474	2.92
438.833	2.91
439.192	3.05
439.551	3.02
439.91	2.82
440.269	2.99
440.628	2.82
440.987	2.82
441.345	2.77
441.704	2.88
442.063	2.79
442.421	2.94
442.78	2.8
443.138	2.79
443.497	2.71
443.855	2.84
444.214	2.86
444.572	2.9
444.93	2.87
445.288	2.99
445.647	2.97
446.005	2.78
446.363	2.82
446.721	2.74
447.079	2.79
447.437	2.87
447.795	2.84
448.153	2.85
448.51	2.79
448.868	2.99
449.226	2.96
449.584	2.79
449.941	2.92
450.299	2.83
450.656	2.88
451.014	2.91
451.371	2.98
451.729	2.94
452.086	2.97
452.443	2.74
452.801	2.99
453.158	2.94
453.515	2.84
453.872	3.08
454.229	2.82
454.586	2.99
454.943	2.9
455.3	3.16
455.657	2.8
456.014	2.92
456.371	2.99
456.727	2.84
457.084	2.96
457.441	2.94
457.797	3.01
458.154	3.17
458.51	2.88
458.867	3.03
459.223	3.02
459.58	2.93
459.936	3
460.292	3.05
460.648	2.94
461.005	2.94
461.361	2.95
461.717	2.99
462.073	3.05
462.429	3.12
462.785	3.08
463.141	3.17
463.496	2.98
463.852	3.23
464.208	3.05
464.564	2.94
464.919	2.97
465.275	3.11
465.631	3.07
465.986	3.07
466.342	3.09
466.697	3.07
467.052	3.17
467.408	2.99
467.763	3.05
468.118	3.12
468.473	3.32
468.829	3.01
469.184	3.28
469.539	3.09
469.894	2.99
470.249	3.11
470.603	3.3
470.958	3.33
471.313	3.1
471.668	3.33
472.023	3.35
472.377	3.11
472.732	3.12
473.086	2.96
473.441	3.22
473.795	3.3
474.15	3.12
474.504	3.15
474.859	3.22
475.213	3.26
475.567	3.17
475.921	3.37
476.275	3.22
476.63	3.27
476.984	3.26
477.338	3.4
477.692	3.28
478.045	3.17
478.399	3.26
478.753	3.27
479.107	3.17
479.461	3.29
479.814	3.27
480.168	3.18
480.521	3.28
480.875	3.36
481.228	3.48
481.582	3.21
481.935	3.2
482.289	3.26
482.642	3.23
482.995	3.19
483.348	3.16
483.701	3.29
484.055	3.16
484.408	3.17
484.761	3.1
485.114	3.03
485.466	3.07
485.819	3.11
486.172	3.15
486.525	3.23
486.878	3.2
487.23	3.28
487.583	3.22
487.936	3.28
488.288	3.22
488.641	3.19
488.993	3.13
489.345	3.18
489.698	3.23
490.05	3.24
490.402	3.28
490.754	3.37
491.107	3.28
491.459	3.37
491.811	3.29
492.163	3.44
492.515	3.29
492.866	3.16
493.218	3.18
493.57	3.27
493.922	3.35
494.274	3.36
494.625	3.4
494.977	3.32
495.328	3.53
495.68	3.51
496.031	3.59
496.383	3.51
496.734	3.58
497.086	3.47
497.437	3.63
497.788	3.39
498.139	3.56
498.49	3.5
498.842	3.52
499.193	3.57
499.544	3.65
499.894	3.59
500.245	3.63
500.596	3.54
500.947	3.63
501.298	3.59
501.648	3.57
501.999	3.73
502.35	3.65
502.7	3.74
503.051	3.7
503.401	3.71
503.752	3.6
504.102	3.56
504.452	3.74
504.803	3.45
505.153	3.54
505.503	3.61
505.853	3.58
506.203	3.64
506.553	3.66
506.903	3.73
507.253	3.75
507.603	3.65
507.953	3.71
508.303	3.79
508.652	3.76
509.002	3.74
509.352	3.73
509.701	3.72
510.051	3.75
510.4	3.8
510.75	3.73
511.099	3.67
511.449	3.73
511.798	3.93
512.147	3.74
512.496	3.83
512.846	3.8
513.195	3.74
513.544	3.78
513.893	3.72
514.242	3.81
514.591	3.77
514.939	3.84
515.288	3.85
515.637	3.97
515.986	3.73
516.334	3.94
516.683	3.79
517.032	3.77
517.38	4.01
517.729	3.93
518.077	3.99
518.426	3.89
518.774	3.95
519.122	4.03
519.47	3.89
519.819	3.93
520.167	3.84
520.515	3.92
520.863	3.93
521.211	4
521.559	3.98
521.907	3.94
522.255	4.03
522.602	4.09
522.95	4.11
523.298	4.01
523.645	4.06
523.993	4.18
524.341	4.15
524.688	4.06
525.036	4.15
525.383	4.1
525.73	4.1
526.078	4.11
526.425	4.05
526.772	3.94
527.119	4
527.466	4.11
527.814	4.1
528.161	4.17
528.508	4.11
528.854	4
529.201	4.11
529.548	3.97
529.895	3.94
530.242	3.93
530.588	4
530.935	4
531.282	4.1
531.628	4.11
531.975	4.18
532.321	4.21
532.667	4.2
533.014	4.23
533.36	4.25
533.706	4.25
534.052	4.19
534.399	4.15
534.745	4.12
535.091	4.17
535.437	4.25
535.783	4.33
536.129	4.27
536.474	4.41
536.82	4.33
537.166	4.37
537.512	4.44
537.857	4.3
538.203	4.34
538.549	4.43
538.894	4.43
539.239	4.51
539.585	4.5
539.93	4.57
540.276	4.6
540.621	4.39
540.966	4.6
541.311	4.46
541.656	4.53
542.001	4.55
542.346	4.46
542.691	4.36
543.036	4.38
543.381	4.44
543.726	4.51
544.071	4.5
544.415	4.51
544.76	4.53
545.105	4.57
545.449	4.53
545.794	4.68
546.138	4.71
546.483	4.7
546.827	4.8
547.171	4.74
547.516	4.9
547.86	4.74
548.204	4.76
548.548	4.94
548.892	4.86
549.236	4.95
549.58	4.84
549.924	4.88
550.268	4.9
550.612	4.95
550.956	4.94
551.3	5.08
551.643	5.04
551.987	4.87
552.33	4.95
552.674	5.08
553.017	5.13
553.361	4.95
553.704	4.95
554.048	5.11
554.391	5.03
554.734	5.08
555.077	5.19
555.42	5.15
555.764	5.11
556.107	5.27
556.45	5.14
556.793	5.25
557.135	5.21
557.478	5.21
557.821	5.28
558.164	5.33
558.507	5.29
558.849	5.21
559.192	5.5
559.534	5.27
559.877	5.65
560.219	5.66
560.562	5.53
560.904	5.37
561.246	5.57
561.589	5.56
561.931	5.71
562.273	5.57
562.615	5.56
562.957	5.61
563.299	5.58
563.641	5.71
563.983	5.63
564.325	5.5
564.667	5.44
565.008	5.49
565.35	5.8
565.692	5.63
566.033	5.7
566.375	5.66
566.716	5.83
567.058	5.75
567.399	5.75
567.741	5.9
568.082	5.72
568.423	5.77
568.764	5.79
569.105	5.77
569.447	5.76
569.788	5.79
570.129	5.76
570.47	5.93
570.811	5.91
571.151	5.89
571.492	6.14
571.833	5.8
572.174	5.98
572.514	5.92
572.855	5.95
573.195	5.9
573.536	6.04
573.876	5.98
574.217	6.13
574.557	6.23
574.898	5.93
575.238	6.13
575.578	6.28
575.918	6.11
576.258	6.2
576.598	6.11
576.938	6.34
577.278	6.16
577.618	6.24
577.958	6.17
578.298	6.26
578.638	6.11
578.977	6.45
579.317	6.51
579.657	6.33
579.996	6.43
580.336	6.28
580.675	6.59
581.014	6.29
581.354	6.6
581.693	6.45
582.032	6.51
582.372	6.59
582.711	6.39
583.05	6.85
583.389	6.71
583.728	6.8
584.067	6.67
584.406	6.98
584.745	6.71
585.083	6.93
585.422	6.72
585.761	6.73
586.1	7.12
586.438	7.05
586.777	6.78
587.115	7.03
587.454	6.78
587.792	6.74
588.13	7.07
588.469	6.94
588.807	7.29
589.145	7.11
589.483	7.06
589.821	7.29
590.159	6.89
590.497	6.9
590.835	7.13
591.173	7.06
591.511	7.2
591.849	7.16
592.187	7.36
592.524	7.24
592.862	7.08
593.2	7.32
593.537	7.21
593.875	7.29
594.212	7.27
594.55	7.3
594.887	7.57
595.224	7.13
595.561	7.61
595.899	7.5
596.236	7.38
596.573	7.53
596.91	7.45
597.247	7.41
597.584	7.82
597.921	7.35
598.258	7.55
598.594	7.25
598.931	7.47
599.268	7.47
599.604	7.71
599.941	7.62
600.277	7.53
600.614	7.47
600.95	7.71
601.287	7.91
601.623	7.71
601.959	7.74
602.296	8.03
602.632	8.27
602.968	7.66
603.304	7.74
603.64	7.67
603.976	7.89
604.312	7.93
604.648	8.03
604.984	7.92
605.319	7.92
605.655	7.93
605.991	8.04
606.326	8.06
606.662	7.78
606.998	7.89
607.333	8.06
607.668	7.84
608.004	8.06
608.339	8.15
608.674	8.08
609.01	8.51
609.345	8.44
609.68	8.03
610.015	8.28
610.35	8.22
610.685	8.19
611.02	8.34
611.355	8.23
611.689	8.09
612.024	8.47
612.359	8.5
612.694	8.56
613.028	8.68
613.363	8.3
613.697	8.58
614.032	8.66
614.366	8.51
614.7	8.94
615.035	8.51
615.369	8.78
615.703	9.17
616.037	8.79
616.371	8.6
616.705	8.76
617.039	8.65
617.373	8.82
617.707	8.88
618.041	8.8
618.375	8.66
618.709	9.1
619.042	9.15
619.376	8.52
619.71	8.83
620.043	8.89
620.377	9.04
620.71	8.9
621.043	8.82
621.377	8.69
621.71	9.11
622.043	9.03
622.376	8.91
622.709	9.2
623.043	9.23
623.376	9.25
623.709	9.27
624.041	9.27
624.374	9.27
624.707	8.96
625.04	9.52
625.373	9.44
625.705	9.13
626.038	9.35
626.37	8.96
626.703	9.5
627.035	9.28
627.368	9.34
627.7	9.46
628.032	9.44
628.365	9.27
628.697	9.11
629.029	9.68
629.361	9.13
629.693	9.58
630.025	9.66
630.357	9.35
630.689	9.7
631.021	9.76
631.353	9.84
631.684	9.86
632.016	9.13
632.348	9.75
632.679	9.62
633.011	9.76
633.342	9.64
633.674	9.8
634.005	9.79
634.336	9.82
634.668	9.81
634.999	9.95
635.33	10.03
635.661	9.84
635.992	9.55
636.323	9.87
636.654	9.96
636.985	10.02
637.316	10.02
637.647	10.4
637.977	10.57
638.308	10.03
638.639	10.06
638.969	10.09
639.3	10.16
639.63	10.28
639.961	10.67
640.291	10.29
640.622	10.32
640.952	10.45
641.282	10.02
641.612	9.89
641.943	10.29
642.273	10.47
642.603	10.57
642.933	10.74
643.263	10.65
643.592	10.33
643.922	11.03
644.252	10.39
644.582	10.5
644.911	9.96
645.241	10.95
645.571	10.5
645.9	11.05
646.23	10.27
646.559	10.6
646.888	10.36
647.218	10.79
647.547	10.45
647.876	10.95
648.205	10.64
648.534	10.85
648.863	11.72
649.192	10.78
649.521	10.43
649.85	11.22
650.179	10.27
650.508	11.1
650.837	11.04
651.165	11.13
651.494	10.61
651.822	10.76
652.151	11.18
652.479	11.2
652.808	10.69
653.136	10.85
653.465	11.36
653.793	11.16
654.121	10.78
654.449	11.29
654.777	11.15
655.105	11.3
655.433	11.22
655.761	11.22
656.089	11.4
656.417	10.93
656.745	11.58
657.073	11.32
657.4	11.05
657.728	11.32
658.056	11.02
658.383	11.44
658.711	10.86
659.038	11.6
659.365	11.28
659.693	11.2
660.02	11.13
660.347	11.48
660.674	11.18
661.001	11.08
661.329	11.23
661.656	11.41
661.982	11.57
662.309	11.89
662.636	11.4
662.963	11.6
663.29	11.46
663.616	11.63
663.943	11.84
664.27	11.8
664.596	11.91
664.923	11.57
665.249	11.66
665.576	11.75
665.902	11.41
666.228	11.71
666.554	11.23
666.881	11.61
667.207	11.74
667.533	12.14
667.859	11.88
668.185	12.58
668.511	12.1
668.837	11.44
669.162	11.9
669.488	12
669.814	12.53
670.139	12.47
670.465	12.3
670.791	12.02
671.116	11.95
671.442	12.15
671.767	11.93
672.092	12.4
672.418	11.96
672.743	12.29
673.068	11.83
673.393	12.1
673.718	12.04
674.043	11.85
674.368	12.22
674.693	12.07
675.018	12.48
675.343	12.38
675.667	12.61
675.992	12.19
676.317	12.52
676.641	12.05
676.966	12.45
677.29	12.1
677.615	12.36
677.939	12.32
678.264	12.12
678.588	12.53
678.912	12.42
679.236	12.17
679.56	11.71
679.885	12.71
680.209	12.23
680.532	12.4
680.856	12.41
681.18	12.74
681.504	12.26
681.828	12.17
682.152	12.67
682.475	12.69
682.799	13.19
683.122	12.99
683.446	12.29
683.769	12.87
684.093	12.83
684.416	12.74
684.739	13.05
685.062	12.7
685.386	12.14
685.709	12.73
686.032	12.83
686.355	13.15
686.678	13.2
687.001	12.37
687.324	12.29
687.646	13.21
687.969	12.97
688.292	12.97
