Data from 0075_chest_Reflection__2__377.txt Node

Date: Fri Dec 16 17:04:19 CST 2022
User: ToomeyLab
Spectrometer: FLMS14357
Trigger mode: 0
Integration Time (sec): 1.000000E-2
Scans to average: 100
Electric dark correction enabled: true
Nonlinearity correction enabled: false
Boxcar width: 0
XAxis mode: Wavelengths
Number of Pixels in Spectrum: 2048
>>>>>Begin Spectral Data<<<<<
189.047	147.45
189.435	147.45
189.823	147.45
190.211	-49.39
190.599	-56.59
190.987	111.23
191.375	45.71
191.763	222.49
192.151	-163.27
192.538	117.31
192.926	50.19
193.314	99.9
193.702	-29.11
194.089	1074.73
194.477	-96.79
194.864	-335.75
195.252	-44.96
195.639	67.65
196.027	325.22
196.414	-3291.89
196.801	0.74
197.189	277.77
197.576	17917.65
197.963	-15.53
198.351	-55.39
198.738	-54.04
199.125	18.18
199.512	-17.47
199.899	-88.94
200.286	-118.59
200.673	-1.25
201.06	9.17
201.447	13.23
201.833	-74.86
202.22	15.81
202.607	-49.08
202.994	34.12
203.38	-45.33
203.767	-53.58
204.154	-203.39
204.54	-1.16
204.927	-35.84
205.313	12.29
205.699	-4.44
206.086	-21.22
206.472	-38.16
206.858	5.42
207.245	24.1
207.631	-39.94
208.017	3.47
208.403	-25.57
208.789	-6.32
209.175	70.12
209.561	-8.6
209.947	-44.77
210.333	-37.52
210.719	11.32
211.105	-53.18
211.491	-11.88
211.876	4.47
212.262	-32.47
212.648	-55.93
213.034	-34.68
213.419	6.1
213.805	-4.63
214.19	-29.71
214.576	-36.17
214.961	14.65
215.346	-35.54
215.732	-37.79
216.117	-83.87
216.502	10.3
216.888	-39.76
217.273	-17.42
217.658	-34.43
218.043	-20.11
218.428	-16.87
218.813	-11.12
219.198	-12.82
219.583	-3.01
219.968	-7.4
220.353	-1.6
220.738	-22.15
221.122	9.3
221.507	-8.14
221.892	-15.6
222.276	11.5
222.661	-30.25
223.046	-1.02
223.43	-3.66
223.815	7.18
224.199	-1.43
224.583	-4.04
224.968	-4.24
225.352	-10.57
225.736	3.24
226.121	-2.05
226.505	-9.07
226.889	2.87
227.273	3.77
227.657	2.87
228.041	3.51
228.425	2.59
228.809	-0
229.193	0.34
229.577	1.61
229.961	3.36
230.344	3.9
230.728	2.93
231.112	3.32
231.495	2.89
231.879	3.43
232.263	1.67
232.646	3.79
233.03	1.33
233.413	1.08
233.797	5.97
234.18	-1.39
234.563	4.41
234.946	3.12
235.33	4.46
235.713	3.47
236.096	2.02
236.479	3.48
236.862	4.67
237.245	3.38
237.628	4.06
238.011	3.4
238.394	6.6
238.777	4.9
239.16	-0.28
239.543	2.27
239.925	4.44
240.308	3.55
240.691	2.35
241.073	1.8
241.456	3.06
241.838	3.14
242.221	3.71
242.603	4.07
242.986	4.45
243.368	3.52
243.75	3.2
244.133	3.66
244.515	3.39
244.897	3.57
245.279	3.09
245.661	2.93
246.043	3.81
246.425	3.94
246.807	3.78
247.189	3.29
247.571	4.22
247.953	3.81
248.335	4.09
248.717	4.05
249.098	4.03
249.48	3.72
249.862	3.89
250.243	3.88
250.625	3.58
251.006	3.19
251.388	4.4
251.769	3.42
252.151	4.43
252.532	3.79
252.913	3.52
253.295	3.37
253.676	4.08
254.057	3.67
254.438	2.82
254.819	2.98
255.2	3.31
255.581	2.11
255.962	2.79
256.343	3.72
256.724	2.3
257.105	3.66
257.486	3.59
257.867	1.41
258.247	3.35
258.628	4.02
259.009	3.82
259.389	3.87
259.77	3.6
260.15	4.54
260.531	3.86
260.911	3.73
261.292	3.81
261.672	3.71
262.052	3.77
262.432	3.62
262.813	3.82
263.193	3.46
263.573	3.77
263.953	3.17
264.333	3.88
264.713	2.63
265.093	3.03
265.473	4.41
265.853	3.74
266.233	2.99
266.612	3.09
266.992	3.15
267.372	3.64
267.752	3.31
268.131	3.47
268.511	3.77
268.89	3.77
269.27	3.94
269.649	3.45
270.029	3.7
270.408	3.38
270.787	3.18
271.167	3.23
271.546	2.62
271.925	3.7
272.304	3.65
272.683	3.05
273.062	3.75
273.441	4.02
273.82	3.73
274.199	3.63
274.578	2.99
274.957	3.38
275.336	2.97
275.715	3.39
276.093	3.74
276.472	3.41
276.851	3.47
277.229	3.67
277.608	3.39
277.986	3.51
278.365	2.94
278.743	3.96
279.122	3.18
279.5	3.29
279.878	2.46
280.257	3.56
280.635	2.78
281.013	3.83
281.391	2.98
281.769	3.36
282.147	3.61
282.525	3.11
282.903	3.63
283.281	3.48
283.659	3.35
284.037	3.7
284.415	3.75
284.792	3.55
285.17	2.77
285.548	3.14
285.925	3.14
286.303	3.27
286.68	3.52
287.058	3.76
287.435	3.34
287.813	3.4
288.19	3.78
288.567	3.27
288.945	3.54
289.322	3.51
289.699	3.18
290.076	3.62
290.453	3.34
290.83	3.55
291.207	3.32
291.584	3.07
291.961	3.92
292.338	3.19
292.715	3.27
293.092	3.4
293.469	3.38
293.845	3.73
294.222	3.06
294.599	3.66
294.975	3.66
295.352	3.12
295.728	3.73
296.105	3.48
296.481	3.78
296.858	3.67
297.234	3.32
297.61	3.68
297.986	3.75
298.363	3.33
298.739	3.87
299.115	3.41
299.491	3.45
299.867	3.73
300.243	3.66
300.619	3.5
300.995	3.25
301.371	3.79
301.746	3.39
302.122	4.14
302.498	3.5
302.874	4.04
303.249	3.56
303.625	3.51
304	3.34
304.376	3.42
304.751	3.45
305.127	3.44
305.502	3.54
305.878	3.37
306.253	3.44
306.628	3.49
307.003	3.77
307.378	3.33
307.754	3.85
308.129	2.96
308.504	3.35
308.879	3.46
309.254	3.65
309.629	3.28
310.003	4.16
310.378	3.92
310.753	3.88
311.128	3.41
311.502	3.15
311.877	3.54
312.252	3.27
312.626	3.8
313.001	3.84
313.375	3.54
313.75	3.61
314.124	3.91
314.498	4.02
314.873	3.42
315.247	3.63
315.621	3.96
315.995	3.74
316.369	4.01
316.743	3.95
317.117	3.39
317.491	3.6
317.865	3.24
318.239	4.02
318.613	3.4
318.987	3.57
319.361	3.71
319.734	3.95
320.108	3.81
320.482	3.32
320.855	3.82
321.229	3.89
321.602	3.62
321.976	3.92
322.349	2.94
322.723	2.85
323.096	3.83
323.469	3
323.843	4
324.216	3.52
324.589	4.02
324.962	3.92
325.335	3.56
325.708	3.66
326.081	3.83
326.454	3.45
326.827	4.2
327.2	3.86
327.573	3.64
327.945	3.52
328.318	3.93
328.691	3.76
329.063	3.21
329.436	3.73
329.809	3.14
330.181	2.94
330.553	3.57
330.926	3.73
331.298	3.42
331.671	3.57
332.043	3.49
332.415	4.18
332.787	4.38
333.159	3.4
333.532	3.15
333.904	3.74
334.276	3.42
334.648	3.49
335.02	3.38
335.391	3.92
335.763	3.7
336.135	3.77
336.507	3.53
336.879	3.65
337.25	3.73
337.622	4.32
337.993	3.9
338.365	4.06
338.736	3.84
339.108	3.05
339.479	4.03
339.851	3.91
340.222	3.93
340.593	3.52
340.964	3.83
341.336	3.61
341.707	3.84
342.078	3.5
342.449	3.85
342.82	3.56
343.191	3.39
343.562	3.79
343.933	3.78
344.303	3.9
344.674	3.66
345.045	3.86
345.416	3.19
345.786	3.41
346.157	3.59
346.527	3.88
346.898	3.81
347.268	3.32
347.639	3.71
348.009	3.92
348.38	3.58
348.75	3.54
349.12	3.94
349.49	3.56
349.861	4.26
350.231	3.98
350.601	3.87
350.971	3.75
351.341	3.95
351.711	3.61
352.081	3.84
352.45	3.78
352.82	3.9
353.19	3.72
353.56	3.79
353.929	3.78
354.299	3.43
354.669	3.82
355.038	4.03
355.408	4.16
355.777	3.83
356.147	3.93
356.516	4.11
356.885	3.68
357.254	4.32
357.624	3.72
357.993	3.73
358.362	4
358.731	3.8
359.1	4.12
359.469	3.66
359.838	3.68
360.207	3.69
360.576	3.64
360.945	3.58
361.314	3.97
361.682	3.55
362.051	3.64
362.42	4.26
362.788	3.89
363.157	3.71
363.525	3.82
363.894	3.58
364.262	3.71
364.631	4.63
364.999	3.69
365.367	4.17
365.735	3.48
366.104	3.79
366.472	3.72
366.84	3.71
367.208	3.51
367.576	3.57
367.944	4.24
368.312	3.56
368.68	3.81
369.048	4.11
369.416	3.86
369.783	3.81
370.151	3.83
370.519	3.64
370.886	3.63
371.254	4.13
371.621	3.89
371.989	3.83
372.356	4.07
372.724	3.65
373.091	3.78
373.458	3.74
373.826	3.97
374.193	4.27
374.56	3.98
374.927	3.74
375.294	4.21
375.661	4.3
376.028	4.12
376.395	3.8
376.762	4.11
377.129	4.27
377.496	3.83
377.863	3.93
378.229	3.93
378.596	3.85
378.963	3.85
379.329	3.64
379.696	3.82
380.062	4.1
380.429	4.05
380.795	3.76
381.161	3.7
381.528	3.51
381.894	3.81
382.26	3.94
382.626	4.07
382.993	3.74
383.359	3.69
383.725	3.94
384.091	3.94
384.457	3.96
384.823	3.97
385.188	4.01
385.554	3.87
385.92	4.04
386.286	4.07
386.651	3.94
387.017	4.1
387.383	3.95
387.748	3.81
388.114	3.95
388.479	4.12
388.845	4.19
389.21	3.86
389.575	4.09
389.94	3.93
390.306	4.02
390.671	3.84
391.036	4.16
391.401	4.26
391.766	4.16
392.131	4.11
392.496	4.02
392.861	4.11
393.226	4.09
393.591	4.15
393.956	4.02
394.32	4.14
394.685	4.12
395.05	3.83
395.414	4.11
395.779	3.92
396.143	4.21
396.508	4.22
396.872	4.26
397.236	3.94
397.601	4.3
397.965	3.8
398.329	4.36
398.694	3.89
399.058	4.12
399.422	4.09
399.786	4.1
400.15	3.85
400.514	4.15
400.878	4.09
401.242	4.37
401.605	3.94
401.969	4.07
402.333	3.95
402.697	4.29
403.06	4.19
403.424	4.05
403.787	4.24
404.151	4.06
404.514	4.23
404.878	4.23
405.241	4.09
405.604	4.09
405.968	4.12
406.331	4.15
406.694	4.07
407.057	4.7
407.42	4.02
407.783	4.13
408.146	4.13
408.509	3.98
408.872	4.08
409.235	4.25
409.598	4.29
409.961	4.38
410.323	4.15
410.686	4.1
411.049	4.25
411.411	4.23
411.774	4.18
412.136	4.34
412.499	4.24
412.861	4.01
413.223	4.3
413.586	4.04
413.948	4.45
414.31	4.56
414.672	4.2
415.035	4.56
415.397	4.26
415.759	4.13
416.121	4.36
416.483	4.3
416.845	4.17
417.206	4.47
417.568	4.22
417.93	4.27
418.292	4.12
418.653	4.3
419.015	4.39
419.377	4.34
419.738	4.21
420.1	4.24
420.461	4.18
420.822	4.3
421.184	4.21
421.545	4.19
421.906	4.25
422.267	4.09
422.629	4.17
422.99	4.15
423.351	4.22
423.712	4.23
424.073	4.22
424.434	4.19
424.795	4.13
425.155	4.24
425.516	4.32
425.877	4.23
426.238	4.19
426.598	4.37
426.959	4.19
427.32	4.34
427.68	4.41
428.041	4.27
428.401	4.32
428.761	4.11
429.122	4.07
429.482	4.11
429.842	4.45
430.202	4.28
430.563	4.27
430.923	4.27
431.283	4.36
431.643	4.31
432.003	4.39
432.363	4.31
432.722	4.32
433.082	4.45
433.442	4.42
433.802	4.32
434.161	4.35
434.521	4.4
434.881	4.57
435.24	4.39
435.6	4.35
435.959	4.26
436.319	4.24
436.678	4.38
437.037	4.46
437.396	4.36
437.756	4.32
438.115	4.44
438.474	4.47
438.833	4.43
439.192	4.46
439.551	4.48
439.91	4.47
440.269	4.55
440.628	4.5
440.987	4.33
441.345	4.45
441.704	4.4
442.063	4.34
442.421	4.41
442.78	4.38
443.138	4.31
443.497	4.38
443.855	4.41
444.214	4.49
444.572	4.42
444.93	4.46
445.288	4.41
445.647	4.5
446.005	4.44
446.363	4.49
446.721	4.27
447.079	4.4
447.437	4.35
447.795	4.43
448.153	4.4
448.51	4.38
448.868	4.49
449.226	4.44
449.584	4.44
449.941	4.48
450.299	4.46
450.656	4.52
451.014	4.45
451.371	4.56
451.729	4.47
452.086	4.31
452.443	4.46
452.801	4.52
453.158	4.53
453.515	4.46
453.872	4.53
454.229	4.49
454.586	4.63
454.943	4.45
455.3	4.74
455.657	4.42
456.014	4.43
456.371	4.61
456.727	4.44
457.084	4.56
457.441	4.65
457.797	4.69
458.154	4.58
458.51	4.6
458.867	4.46
459.223	4.8
459.58	4.56
459.936	4.4
460.292	4.54
460.648	4.46
461.005	4.51
461.361	4.38
461.717	4.53
462.073	4.55
462.429	4.51
462.785	4.66
463.141	4.72
463.496	4.51
463.852	4.73
464.208	4.64
464.564	4.52
464.919	4.55
465.275	4.55
465.631	4.49
465.986	4.61
466.342	4.73
466.697	4.55
467.052	4.6
467.408	4.61
467.763	4.55
468.118	4.68
468.473	4.86
468.829	4.49
469.184	4.73
469.539	4.61
469.894	4.58
470.249	4.5
470.603	4.75
470.958	4.87
471.313	4.64
471.668	4.68
472.023	4.76
472.377	4.63
472.732	4.61
473.086	4.51
473.441	4.79
473.795	4.79
474.15	4.7
474.504	4.67
474.859	4.75
475.213	4.54
475.567	4.7
475.921	4.75
476.275	4.7
476.63	4.92
476.984	4.59
477.338	4.94
477.692	4.84
478.045	4.71
478.399	4.73
478.753	4.72
479.107	4.61
479.461	4.79
479.814	4.68
480.168	4.82
480.521	4.66
480.875	4.76
481.228	4.93
481.582	4.72
481.935	4.72
482.289	4.56
482.642	4.79
482.995	4.74
483.348	4.73
483.701	4.71
484.055	4.65
484.408	4.64
484.761	4.51
485.114	4.52
485.466	4.46
485.819	4.51
486.172	4.61
486.525	4.63
486.878	4.62
487.23	4.71
487.583	4.65
487.936	4.7
488.288	4.67
488.641	4.63
488.993	4.56
489.345	4.57
489.698	4.66
490.05	4.64
490.402	4.72
490.754	4.78
491.107	4.78
491.459	4.83
491.811	4.79
492.163	4.87
492.515	4.74
492.866	4.59
493.218	4.63
493.57	4.74
493.922	4.74
494.274	4.81
494.625	4.79
494.977	4.79
495.328	4.86
495.68	4.94
496.031	4.93
496.383	4.86
496.734	4.85
497.086	4.75
497.437	5.01
497.788	4.83
498.139	4.9
498.49	4.96
498.842	4.93
499.193	4.9
499.544	5.03
499.894	4.95
500.245	5.02
500.596	5.15
500.947	4.79
501.298	4.91
501.648	4.99
501.999	5.11
502.35	4.98
502.7	5.04
503.051	5.16
503.401	4.99
503.752	4.81
504.102	4.98
504.452	4.96
504.803	4.88
505.153	5.03
505.503	5.03
505.853	5.04
506.203	5.1
506.553	4.97
506.903	5.03
507.253	5.07
507.603	5.06
507.953	5.09
508.303	5.06
508.652	4.99
509.002	5.07
509.352	5.06
509.701	5.09
510.051	5.16
510.4	5.18
510.75	5.07
511.099	5.03
511.449	5.18
511.798	5.21
512.147	5.12
512.496	5.25
512.846	5.1
513.195	5.08
513.544	5.08
513.893	5.01
514.242	5.16
514.591	5.13
514.939	5.18
515.288	5.2
515.637	5.29
515.986	5.09
516.334	5.28
516.683	5.22
517.032	5.15
517.38	5.23
517.729	5.19
518.077	5.29
518.426	5.27
518.774	5.32
519.122	5.2
519.47	5.25
519.819	5.25
520.167	5.18
520.515	5.18
520.863	5.22
521.211	5.28
521.559	5.32
521.907	5.26
522.255	5.3
522.602	5.32
522.95	5.34
523.298	5.21
523.645	5.28
523.993	5.39
524.341	5.36
524.688	5.35
525.036	5.44
525.383	5.54
525.73	5.35
526.078	5.4
526.425	5.36
526.772	5.2
527.119	5.35
527.466	5.35
527.814	5.3
528.161	5.43
528.508	5.42
528.854	5.28
529.201	5.29
529.548	5.19
529.895	5.23
530.242	5.18
530.588	5.27
530.935	5.29
531.282	5.37
531.628	5.34
531.975	5.49
532.321	5.4
532.667	5.52
533.014	5.5
533.36	5.53
533.706	5.53
534.052	5.36
534.399	5.41
534.745	5.33
535.091	5.46
535.437	5.57
535.783	5.59
536.129	5.63
536.474	5.65
536.82	5.59
537.166	5.7
537.512	5.55
537.857	5.57
538.203	5.51
538.549	5.66
538.894	5.66
539.239	5.75
539.585	5.78
539.93	5.82
540.276	5.73
540.621	5.79
540.966	5.69
541.311	5.8
541.656	5.58
542.001	5.75
542.346	5.73
542.691	5.57
543.036	5.63
543.381	5.64
543.726	5.67
544.071	5.78
544.415	5.79
544.76	5.73
545.105	5.8
545.449	5.77
545.794	5.9
546.138	5.91
546.483	5.9
546.827	5.84
547.171	5.91
547.516	6.02
547.86	5.88
548.204	5.86
548.548	5.96
548.892	5.99
549.236	6.12
549.58	6.05
549.924	6
550.268	6.27
550.612	6.14
550.956	6
551.3	6.19
551.643	6.01
551.987	6.11
552.33	6.06
552.674	6.14
553.017	6.19
553.361	6.31
553.704	6.18
554.048	6.33
554.391	6.3
554.734	6.23
555.077	6.11
555.42	6.27
555.764	6.28
556.107	6.25
556.45	6.2
556.793	6.58
557.135	6.5
557.478	6.58
557.821	6.31
558.164	6.64
558.507	6.23
558.849	6.23
559.192	6.44
559.534	6.17
559.877	6.57
560.219	6.66
560.562	6.57
560.904	6.47
561.246	6.75
561.589	6.51
561.931	6.76
562.273	6.54
562.615	6.56
562.957	6.65
563.299	6.6
563.641	6.7
563.983	6.49
564.325	6.59
564.667	6.7
565.008	6.67
565.35	6.88
565.692	6.91
566.033	6.84
566.375	6.63
566.716	6.66
567.058	6.69
567.399	6.98
567.741	6.99
568.082	6.79
568.423	6.79
568.764	6.88
569.105	6.84
569.447	6.79
569.788	6.86
570.129	6.91
570.47	6.95
570.811	7.07
571.151	6.88
571.492	7.16
571.833	7.08
572.174	6.89
572.514	6.97
572.855	7.14
573.195	6.94
573.536	7.01
573.876	7.06
574.217	7.02
574.557	7.23
574.898	6.89
575.238	7.13
575.578	7.37
575.918	7.19
576.258	7.2
576.598	7.31
576.938	7.25
577.278	7.11
577.618	7.3
577.958	7.16
578.298	7.47
578.638	7.24
578.977	7.49
579.317	7.56
579.657	7.58
579.996	7.49
580.336	7.26
580.675	7.57
581.014	7.71
581.354	7.53
581.693	7.31
582.032	7.33
582.372	7.54
582.711	7.33
583.05	8.01
583.389	7.67
583.728	7.7
584.067	7.55
584.406	7.76
584.745	7.77
585.083	8.11
585.422	7.66
585.761	7.7
586.1	7.96
586.438	7.86
586.777	7.94
587.115	7.67
587.454	7.87
587.792	7.92
588.13	8.03
588.469	8.01
588.807	8.06
589.145	7.91
589.483	8.08
589.821	8.12
590.159	7.95
590.497	7.84
590.835	8.15
591.173	8.25
591.511	8.27
591.849	8.23
592.187	8.21
592.524	8.06
592.862	8.25
593.2	8.28
593.537	8.16
593.875	8.18
594.212	8.3
594.55	8.29
594.887	8.47
595.224	8.35
595.561	8.46
595.899	8.18
596.236	8.42
596.573	8.29
596.91	8.31
597.247	8.29
597.584	8.52
597.921	8.45
598.258	8.51
598.594	8.28
598.931	8.58
599.268	8.35
599.604	8.48
599.941	8.68
600.277	8.65
600.614	8.67
600.95	8.64
601.287	8.8
601.623	8.78
601.959	8.7
602.296	8.85
602.632	8.8
602.968	8.77
603.304	8.82
603.64	8.77
603.976	8.46
604.312	8.76
604.648	9
604.984	8.95
605.319	8.99
605.655	8.84
605.991	9.13
606.326	8.71
606.662	8.85
606.998	9.12
607.333	9.02
607.668	9
608.004	9.22
608.339	9.03
608.674	8.83
609.01	9.1
609.345	9.03
609.68	9.19
610.015	9.15
610.35	9.51
610.685	9.29
611.02	9.31
611.355	9.38
611.689	9.18
612.024	9.65
612.359	9.58
612.694	9.25
613.028	9.55
613.363	9.53
613.697	9.59
614.032	9.49
614.366	9.6
614.7	9.85
615.035	9.58
615.369	9.83
615.703	10.01
616.037	9.65
616.371	9.69
616.705	9.85
617.039	10
617.373	9.91
617.707	9.66
618.041	10.02
618.375	9.71
618.709	9.84
619.042	9.73
619.376	9.83
619.71	9.95
620.043	10.08
620.377	9.89
620.71	10.05
621.043	9.78
621.377	9.82
621.71	10.22
622.043	10.24
622.376	10.08
622.709	10.02
623.043	10.01
623.376	10.27
623.709	10.62
624.041	10.06
624.374	9.95
624.707	10.06
625.04	10.34
625.373	10.55
625.705	10.63
626.038	10.15
626.37	10.37
626.703	10.43
627.035	10.5
627.368	10.39
627.7	10.29
628.032	10.37
628.365	10.36
628.697	10.44
629.029	10.64
629.361	10.59
629.693	10.82
630.025	10.56
630.357	10.58
630.689	10.86
631.021	10.38
631.353	10.68
631.684	10.97
632.016	10.63
632.348	10.92
632.679	10.86
633.011	10.9
633.342	10.74
633.674	10.74
634.005	10.79
634.336	10.93
634.668	10.44
634.999	11.11
635.33	10.87
635.661	11.32
635.992	11.27
636.323	11.23
636.654	11.15
636.985	11.24
637.316	11.34
637.647	11.04
637.977	11.41
638.308	11.36
638.639	11.13
638.969	11.23
639.3	11.28
639.63	10.95
639.961	11.05
640.291	11.75
640.622	11.3
640.952	11.39
641.282	11.2
641.612	11.18
641.943	11.74
642.273	11.51
642.603	11.48
642.933	11.67
643.263	11.85
643.592	11.32
643.922	11.81
644.252	11.94
644.582	11.97
644.911	11.46
645.241	11.56
645.571	12.07
645.9	11.97
646.23	11.7
646.559	11.73
646.888	11.7
647.218	11.82
647.547	12.05
647.876	12.03
648.205	11.98
648.534	11.78
648.863	12.12
649.192	11.79
649.521	11.98
649.85	12.5
650.179	11.96
650.508	12
650.837	12.35
651.165	12.31
651.494	12.12
651.822	12.5
652.151	12.36
652.479	12.61
652.808	11.75
653.136	12.03
653.465	12.84
653.793	12.95
654.121	12.49
654.449	12.3
654.777	12.19
655.105	12.65
655.433	12.92
655.761	12.77
656.089	12.73
656.417	12.45
656.745	13.09
657.073	13.25
657.4	13.14
657.728	12.43
658.056	12.6
658.383	12.49
658.711	12.07
659.038	12.51
659.365	12.74
659.693	12.83
660.02	12.59
660.347	13
660.674	12.64
661.001	12.55
661.329	12.52
661.656	13.11
661.982	13.17
662.309	12.86
662.636	12.81
662.963	13.37
663.29	12.8
663.616	13.16
663.943	13.62
664.27	13.76
664.596	13.23
664.923	13.46
665.249	13.34
665.576	12.38
665.902	13
666.228	12.96
666.554	12.92
666.881	13.17
667.207	13.45
667.533	13.7
667.859	12.89
668.185	13.83
668.511	12.84
668.837	12.85
669.162	13.52
669.488	13.12
669.814	14.68
670.139	14.28
670.465	13.85
670.791	13.86
671.116	13.74
671.442	13.85
671.767	13.54
672.092	14.54
672.418	13.69
672.743	13.26
673.068	13.36
673.393	13.81
673.718	13.99
674.043	14
674.368	14.16
674.693	13.64
675.018	13.76
675.343	13.95
675.667	13.69
675.992	13.13
676.317	13.84
676.641	13.79
676.966	13.96
677.29	13.79
677.615	14.83
677.939	14.21
678.264	13.79
678.588	14.49
678.912	13.94
679.236	14.3
679.56	14.05
679.885	14.69
680.209	14.07
680.532	14.66
680.856	14.74
681.18	14.1
681.504	14.13
681.828	13.98
682.152	14.31
682.475	14.37
682.799	14.71
683.122	14.27
683.446	14.81
683.769	14.24
684.093	14.99
684.416	14.64
684.739	14.77
685.062	14.82
685.386	14.94
685.709	14.57
686.032	14.58
686.355	14.95
686.678	14.41
