Data from 0075_chest_Reflection__4__379.txt Node

Date: Fri Dec 16 17:04:44 CST 2022
User: ToomeyLab
Spectrometer: FLMS14357
Trigger mode: 0
Integration Time (sec): 1.000000E-2
Scans to average: 100
Electric dark correction enabled: true
Nonlinearity correction enabled: false
Boxcar width: 0
XAxis mode: Wavelengths
Number of Pixels in Spectrum: 2048
>>>>>Begin Spectral Data<<<<<
189.047	30.41
189.435	30.41
189.823	30.41
190.211	-1.11
190.599	-36.64
190.987	2.77
191.375	58.56
191.763	85.02
192.151	36.25
192.538	33.15
192.926	59.23
193.314	-27.64
193.702	-32.24
194.089	362.64
194.477	9.13
194.864	369.36
195.252	-102.96
195.639	88.11
196.027	481.22
196.414	-1165.77
196.801	14.45
197.189	124.56
197.576	-3305.88
197.963	-7.19
198.351	82.63
198.738	-48.49
199.125	34.42
199.512	6.25
199.899	-17.79
200.286	43.79
200.673	13.88
201.06	33.79
201.447	45.77
201.833	-31.24
202.22	23.23
202.607	-68.45
202.994	46.06
203.38	14.87
203.767	-36.79
204.154	-72.55
204.54	36.55
204.927	-6.5
205.313	0.63
205.699	-2.04
206.086	-15.89
206.472	19.64
206.858	31.72
207.245	-1.68
207.631	3.92
208.017	13.24
208.403	12.93
208.789	-16.79
209.175	30.6
209.561	18.68
209.947	-59.2
210.333	3.64
210.719	-42.03
211.105	-9.31
211.491	30.17
211.876	-24.72
212.262	-7.02
212.648	-26.72
213.034	-12.98
213.419	0.89
213.805	20.83
214.19	6.2
214.576	-23.91
214.961	5
215.346	-16.49
215.732	8.14
216.117	-22.14
216.502	-5.42
216.888	-8.86
217.273	15.03
217.658	-15.77
218.043	-11.25
218.428	-0.64
218.813	-22.14
219.198	-23.42
219.583	25.38
219.968	-9.25
220.353	20.91
220.738	-9.03
221.122	-17.49
221.507	3.11
221.892	20.66
222.276	21.46
222.661	-11.73
223.046	3.53
223.43	-4.01
223.815	15.6
224.199	0.73
224.583	7.56
224.968	16.58
225.352	4.42
225.736	5.95
226.121	-3.56
226.505	12.11
226.889	8.83
227.273	6.96
227.657	5.86
228.041	5.66
228.425	5.16
228.809	3.77
229.193	6.11
229.577	5.56
229.961	5.26
230.344	5.56
230.728	4.46
231.112	5.86
231.495	4.69
231.879	5.59
232.263	3.62
232.646	4.88
233.03	3.18
233.413	4.74
233.797	5.98
234.18	5.52
234.563	3.11
234.946	3.1
235.33	6.29
235.713	5.05
236.096	5.84
236.479	5.73
236.862	5.58
237.245	5.63
237.628	5.56
238.011	5.05
238.394	5.99
238.777	3.12
239.16	4.03
239.543	5.14
239.925	4.74
240.308	4.03
240.691	5.59
241.073	5.98
241.456	4.77
241.838	4.68
242.221	4.63
242.603	5.05
242.986	5.6
243.368	5.49
243.75	4.62
244.133	5.07
244.515	5.21
244.897	5.29
245.279	5.05
245.661	4.45
246.043	5.85
246.425	4.18
246.807	4.73
247.189	5.22
247.571	4.98
247.953	5.04
248.335	5.15
248.717	5.03
249.098	5.43
249.48	4.62
249.862	5.06
250.243	4.86
250.625	5.25
251.006	5.87
251.388	6.11
251.769	3.99
252.151	5.48
252.532	5.4
252.913	5.22
253.295	5.28
253.676	4.69
254.057	4.32
254.438	4.58
254.819	4.3
255.2	4.72
255.581	5.24
255.962	4.32
256.343	5.71
256.724	4.05
257.105	5.05
257.486	4.34
257.867	3.54
258.247	4.84
258.628	4.86
259.009	5.19
259.389	5.18
259.77	4.86
260.15	5.32
260.531	4.8
260.911	4.72
261.292	4.78
261.672	4.77
262.052	4.51
262.432	4.4
262.813	4.62
263.193	4.74
263.573	4.43
263.953	4.39
264.333	4.57
264.713	4.51
265.093	3.39
265.473	4.73
265.853	4.32
266.233	4.06
266.612	4.57
266.992	4.2
267.372	4.11
267.752	4.81
268.131	4.66
268.511	5
268.89	4.84
269.27	4.79
269.649	4.79
270.029	4.92
270.408	4.4
270.787	4.6
271.167	4.53
271.546	4.54
271.925	4.59
272.304	4.44
272.683	4.4
273.062	4.6
273.441	4.61
273.82	4.86
274.199	4.8
274.578	4.63
274.957	4.5
275.336	4.48
275.715	4.77
276.093	5.04
276.472	4.94
276.851	4.37
277.229	5.01
277.608	4.2
277.986	4.58
278.365	4.67
278.743	4.8
279.122	3.91
279.5	3.86
279.878	3.94
280.257	3.87
280.635	4.5
281.013	4.31
281.391	4.37
281.769	4.01
282.147	4.74
282.525	4.29
282.903	4.35
283.281	4.13
283.659	4.82
284.037	4.15
284.415	4.62
284.792	4.59
285.17	4.25
285.548	4.33
285.925	4.3
286.303	4.41
286.68	4.61
287.058	4.09
287.435	4.07
287.813	4.66
288.19	4.58
288.567	4.18
288.945	4.38
289.322	3.98
289.699	4.02
290.076	4.92
290.453	4.42
290.83	4.26
291.207	4.14
291.584	4.18
291.961	4.43
292.338	4.43
292.715	4.29
293.092	4.47
293.469	4.38
293.845	4.19
294.222	3.88
294.599	4.44
294.975	4.5
295.352	4.04
295.728	4.49
296.105	4.24
296.481	4.86
296.858	4.76
297.234	4.41
297.61	4.23
297.986	4.18
298.363	4.13
298.739	4.12
299.115	4.07
299.491	4.22
299.867	4.12
300.243	3.97
300.619	3.88
300.995	4.36
301.371	4.47
301.746	4.35
302.122	4.18
302.498	4.46
302.874	4.57
303.249	4.15
303.625	4.4
304	4
304.376	4.02
304.751	3.79
305.127	4.15
305.502	4.7
305.878	4.05
306.253	3.58
306.628	4.43
307.003	4.3
307.378	3.69
307.754	3.91
308.129	3.78
308.504	4.02
308.879	4.09
309.254	4.79
309.629	4.09
310.003	4.47
310.378	4.71
310.753	4.37
311.128	4.27
311.502	3.66
311.877	4.26
312.252	4.04
312.626	4.07
313.001	4.19
313.375	3.86
313.75	4.08
314.124	4.17
314.498	4.11
314.873	4.34
315.247	4.25
315.621	4.22
315.995	4.11
316.369	4.33
316.743	4.68
317.117	4.72
317.491	4.42
317.865	3.84
318.239	5.02
318.613	4.48
318.987	4.25
319.361	4.47
319.734	4.45
320.108	4.24
320.482	4.24
320.855	4
321.229	4.75
321.602	4.34
321.976	3.86
322.349	3.63
322.723	3.52
323.096	3.93
323.469	3.92
323.843	4.23
324.216	3.77
324.589	4.45
324.962	4.38
325.335	3.97
325.708	4.22
326.081	4.72
326.454	4.02
326.827	3.94
327.2	4.32
327.573	3.97
327.945	3.99
328.318	4.53
328.691	4.07
329.063	3.78
329.436	4.1
329.809	4.02
330.181	4.36
330.553	4.04
330.926	4.09
331.298	3.77
331.671	4.35
332.043	4.14
332.415	4.51
332.787	4.6
333.159	4.42
333.532	4.16
333.904	4.19
334.276	3.93
334.648	3.98
335.02	3.93
335.391	4.61
335.763	4.21
336.135	4.69
336.507	4.26
336.879	4.33
337.25	4.38
337.622	4.11
337.993	4.27
338.365	4.32
338.736	4.04
339.108	4.16
339.479	4.12
339.851	4.29
340.222	4.41
340.593	4.25
340.964	4.14
341.336	3.87
341.707	4.28
342.078	4.01
342.449	4.82
342.82	4.49
343.191	4.16
343.562	4.19
343.933	4.28
344.303	4.55
344.674	4.55
345.045	4.78
345.416	4.33
345.786	4.06
346.157	4.35
346.527	4.01
346.898	4.29
347.268	4.09
347.639	4.2
348.009	4.8
348.38	4.44
348.75	4.43
349.12	4.55
349.49	4.14
349.861	4.46
350.231	4.32
350.601	4.45
350.971	4.59
351.341	4.28
351.711	4.21
352.081	4.26
352.45	4.48
352.82	4.03
353.19	4.1
353.56	3.88
353.929	4.42
354.299	4.48
354.669	4.41
355.038	4.19
355.408	4.59
355.777	4.43
356.147	4.56
356.516	4.81
356.885	4.27
357.254	4.37
357.624	4.25
357.993	4.1
358.362	4.59
358.731	4.29
359.1	4.27
359.469	4.58
359.838	4.22
360.207	4.27
360.576	4.34
360.945	4.14
361.314	4.48
361.682	4.13
362.051	4.36
362.42	4.4
362.788	4.38
363.157	4.37
363.525	4.32
363.894	4.5
364.262	4.39
364.631	4.9
364.999	4.22
365.367	4.68
365.735	4.27
366.104	4.22
366.472	4.5
366.84	4.6
367.208	4.19
367.576	4.35
367.944	4.54
368.312	4.23
368.68	4.57
369.048	4.43
369.416	4.16
369.783	4.46
370.151	4.19
370.519	4.15
370.886	4.43
371.254	4.33
371.621	4.22
371.989	4.67
372.356	4.26
372.724	4.59
373.091	4.41
373.458	4.71
373.826	4.46
374.193	4.85
374.56	4.06
374.927	4.53
375.294	4.24
375.661	4.75
376.028	4.4
376.395	4.43
376.762	4.85
377.129	4.82
377.496	4.44
377.863	4.49
378.229	4.24
378.596	4.52
378.963	4.63
379.329	4.49
379.696	4.67
380.062	4.56
380.429	4.35
380.795	4.28
381.161	4.62
381.528	4.1
381.894	4.79
382.26	4.45
382.626	4.44
382.993	4.27
383.359	4.28
383.725	4.48
384.091	4.46
384.457	4.48
384.823	4.59
385.188	4.96
385.554	4.47
385.92	4.87
386.286	4.49
386.651	4.48
387.017	4.6
387.383	4.63
387.748	4.4
388.114	4.58
388.479	4.67
388.845	4.49
389.21	4.74
389.575	4.4
389.94	4.65
390.306	4.59
390.671	4.49
391.036	4.91
391.401	4.85
391.766	4.61
392.131	4.56
392.496	4.7
392.861	4.58
393.226	4.75
393.591	4.65
393.956	4.87
394.32	4.6
394.685	4.8
395.05	4.59
395.414	4.73
395.779	4.57
396.143	4.72
396.508	4.75
396.872	4.56
397.236	4.43
397.601	4.87
397.965	4.4
398.329	4.78
398.694	4.31
399.058	4.73
399.422	4.5
399.786	4.6
400.15	4.67
400.514	4.68
400.878	4.59
401.242	4.84
401.605	4.4
401.969	4.66
402.333	4.59
402.697	4.97
403.06	4.85
403.424	4.55
403.787	4.96
404.151	4.72
404.514	4.68
404.878	4.86
405.241	4.84
405.604	4.83
405.968	4.7
406.331	4.76
406.694	4.76
407.057	5
407.42	4.77
407.783	4.65
408.146	4.69
408.509	4.55
408.872	4.71
409.235	4.95
409.598	4.93
409.961	4.96
410.323	4.66
410.686	4.49
411.049	4.54
411.411	4.76
411.774	4.53
412.136	4.75
412.499	4.74
412.861	4.64
413.223	4.85
413.586	4.55
413.948	4.95
414.31	4.94
414.672	4.62
415.035	4.91
415.397	5.07
415.759	4.77
416.121	4.94
416.483	4.86
416.845	4.76
417.206	4.96
417.568	4.77
417.93	4.58
418.292	4.67
418.653	4.93
419.015	4.89
419.377	4.78
419.738	4.76
420.1	4.8
420.461	4.63
420.822	4.85
421.184	4.82
421.545	4.78
421.906	4.7
422.267	4.6
422.629	4.78
422.99	4.76
423.351	4.65
423.712	4.73
424.073	4.8
424.434	4.69
424.795	4.69
425.155	4.79
425.516	4.61
425.877	4.81
426.238	4.6
426.598	4.76
426.959	4.68
427.32	4.78
427.68	4.7
428.041	4.78
428.401	4.7
428.761	4.78
429.122	4.73
429.482	4.59
429.842	4.85
430.202	4.86
430.563	4.8
430.923	4.83
431.283	4.92
431.643	4.74
432.003	5.01
432.363	4.91
432.722	4.84
433.082	4.89
433.442	4.92
433.802	4.88
434.161	4.86
434.521	4.96
434.881	5
435.24	4.78
435.6	4.86
435.959	4.88
436.319	4.76
436.678	4.91
437.037	4.9
437.396	4.82
437.756	4.91
438.115	4.91
438.474	4.79
438.833	4.98
439.192	5.11
439.551	5
439.91	4.95
440.269	5.1
440.628	4.86
440.987	4.78
441.345	4.85
441.704	4.87
442.063	4.94
442.421	4.91
442.78	4.91
443.138	4.82
443.497	4.9
443.855	4.9
444.214	5.03
444.572	5.01
444.93	4.97
445.288	5.01
445.647	5.1
446.005	4.89
446.363	4.9
446.721	4.9
447.079	4.85
447.437	4.91
447.795	4.78
448.153	4.86
448.51	4.86
448.868	4.99
449.226	4.92
449.584	4.92
449.941	5.02
450.299	5.03
450.656	5.06
451.014	5.02
451.371	5.05
451.729	5.08
452.086	5
452.443	4.99
452.801	5.12
453.158	4.96
453.515	4.98
453.872	5.07
454.229	4.9
454.586	5.04
454.943	4.97
455.3	5.12
455.657	4.98
456.014	5.05
456.371	4.97
456.727	5.01
457.084	4.87
457.441	4.98
457.797	4.97
458.154	5.08
458.51	4.97
458.867	4.96
459.223	5.1
459.58	4.92
459.936	4.88
460.292	4.98
460.648	4.97
461.005	4.93
461.361	4.92
461.717	5.03
462.073	4.98
462.429	5.01
462.785	5.04
463.141	5.14
463.496	4.92
463.852	5.15
464.208	5.13
464.564	4.87
464.919	5.03
465.275	5.09
465.631	5.04
465.986	5.02
466.342	5.06
466.697	5.17
467.052	5.05
467.408	5.05
467.763	5.07
468.118	5.08
468.473	5.25
468.829	5.08
469.184	5.18
469.539	4.9
469.894	5.1
470.249	5.13
470.603	5.11
470.958	5.17
471.313	5.16
471.668	5.2
472.023	5.37
472.377	5.13
472.732	5.16
473.086	5.09
473.441	5.14
473.795	5.39
474.15	5.14
474.504	5.21
474.859	5.29
475.213	5.08
475.567	5.08
475.921	5.15
476.275	5.15
476.63	5.22
476.984	5.14
477.338	5.53
477.692	5.23
478.045	5.03
478.399	5.23
478.753	5.06
479.107	5.09
479.461	5.28
479.814	5.09
480.168	5.1
480.521	5.13
480.875	5.31
481.228	5.27
481.582	5.11
481.935	5.12
482.289	5.17
482.642	5.11
482.995	5.07
483.348	5.1
483.701	5.06
484.055	5.03
484.408	5.02
484.761	4.93
485.114	4.88
485.466	4.87
485.819	4.91
486.172	4.96
486.525	4.97
486.878	5
487.23	5.05
487.583	5.04
487.936	5.09
488.288	5.04
488.641	5
488.993	4.95
489.345	4.94
489.698	5.06
490.05	4.97
490.402	5.1
490.754	5.14
491.107	5.16
491.459	5.23
491.811	5.15
492.163	5.24
492.515	5.16
492.866	5.02
493.218	5.02
493.57	5.12
493.922	5.06
494.274	5.14
494.625	5.17
494.977	5.22
495.328	5.3
495.68	5.44
496.031	5.38
496.383	5.3
496.734	5.35
497.086	5.14
497.437	5.44
497.788	5.3
498.139	5.3
498.49	5.29
498.842	5.3
499.193	5.39
499.544	5.38
499.894	5.29
500.245	5.37
500.596	5.37
500.947	5.33
501.298	5.29
501.648	5.38
501.999	5.47
502.35	5.38
502.7	5.41
503.051	5.49
503.401	5.38
503.752	5.37
504.102	5.42
504.452	5.38
504.803	5.36
505.153	5.41
505.503	5.38
505.853	5.36
506.203	5.45
506.553	5.39
506.903	5.47
507.253	5.58
507.603	5.48
507.953	5.53
508.303	5.38
508.652	5.55
509.002	5.52
509.352	5.43
509.701	5.52
510.051	5.53
510.4	5.38
510.75	5.46
511.099	5.39
511.449	5.48
511.798	5.55
512.147	5.54
512.496	5.51
512.846	5.45
513.195	5.44
513.544	5.54
513.893	5.39
514.242	5.53
514.591	5.58
514.939	5.51
515.288	5.62
515.637	5.53
515.986	5.51
516.334	5.63
516.683	5.55
517.032	5.63
517.38	5.66
517.729	5.6
518.077	5.54
518.426	5.45
518.774	5.51
519.122	5.51
519.47	5.57
519.819	5.59
520.167	5.51
520.515	5.47
520.863	5.43
521.211	5.51
521.559	5.64
521.907	5.58
522.255	5.66
522.602	5.6
522.95	5.64
523.298	5.6
523.645	5.61
523.993	5.8
524.341	5.71
524.688	5.68
525.036	5.65
525.383	5.86
525.73	5.72
526.078	5.67
526.425	5.69
526.772	5.63
527.119	5.64
527.466	5.69
527.814	5.54
528.161	5.62
528.508	5.7
528.854	5.52
529.201	5.56
529.548	5.5
529.895	5.45
530.242	5.48
530.588	5.51
530.935	5.46
531.282	5.54
531.628	5.55
531.975	5.62
532.321	5.66
532.667	5.79
533.014	5.69
533.36	5.77
533.706	5.71
534.052	5.68
534.399	5.63
534.745	5.64
535.091	5.69
535.437	5.67
535.783	5.8
536.129	5.74
536.474	5.8
536.82	5.85
537.166	5.94
537.512	5.88
537.857	5.8
538.203	5.77
538.549	5.86
538.894	5.83
539.239	5.95
539.585	5.92
539.93	6.01
540.276	5.93
540.621	6.01
540.966	5.95
541.311	6.04
541.656	5.89
542.001	5.92
542.346	5.89
542.691	5.84
543.036	5.8
543.381	5.85
543.726	5.91
544.071	5.88
544.415	5.91
544.76	5.94
545.105	6.04
545.449	6.04
545.794	5.97
546.138	6.05
546.483	6.06
546.827	6.05
547.171	5.98
547.516	6.26
547.86	6.22
548.204	6.01
548.548	6.2
548.892	6.16
549.236	6.2
549.58	6.27
549.924	6.26
550.268	6.35
550.612	6.38
550.956	6.21
551.3	6.4
551.643	6.39
551.987	6.24
552.33	6.49
552.674	6.45
553.017	6.38
553.361	6.35
553.704	6.4
554.048	6.55
554.391	6.37
554.734	6.32
555.077	6.49
555.42	6.41
555.764	6.41
556.107	6.42
556.45	6.42
556.793	6.58
557.135	6.78
557.478	6.61
557.821	6.54
558.164	6.59
558.507	6.39
558.849	6.49
559.192	6.71
559.534	6.66
559.877	6.73
560.219	6.76
560.562	6.79
560.904	6.74
561.246	6.68
561.589	6.65
561.931	6.81
562.273	6.57
562.615	6.72
562.957	6.81
563.299	6.85
563.641	6.88
563.983	6.79
564.325	6.63
564.667	6.84
565.008	6.81
565.35	6.99
565.692	7.02
566.033	6.94
566.375	6.91
566.716	6.96
567.058	7.04
567.399	6.98
567.741	6.95
568.082	6.92
568.423	6.88
568.764	6.87
569.105	7.14
569.447	7.05
569.788	7.1
570.129	7.09
570.47	7.07
570.811	7.22
571.151	7.12
571.492	7.41
571.833	7.13
572.174	7.01
572.514	7.01
572.855	7.21
573.195	7.17
573.536	7.12
573.876	7.3
574.217	7.38
574.557	7.36
574.898	7.28
575.238	7.16
575.578	7.47
575.918	7.11
576.258	7.34
576.598	7.4
576.938	7.61
577.278	7.31
577.618	7.41
577.958	7.44
578.298	7.48
578.638	7.45
578.977	7.47
579.317	7.59
579.657	7.66
579.996	7.68
580.336	7.58
580.675	7.77
581.014	7.62
581.354	7.83
581.693	7.68
582.032	7.7
582.372	7.67
582.711	7.64
583.05	8.11
583.389	8
583.728	7.8
584.067	7.94
584.406	8.2
584.745	7.93
585.083	8.18
585.422	7.88
585.761	8.04
586.1	8.18
586.438	7.81
586.777	7.8
587.115	8.16
587.454	8.26
587.792	8.02
588.13	8.37
588.469	8.24
588.807	8.3
589.145	8.38
589.483	8.18
589.821	8.35
590.159	8.18
590.497	8.06
590.835	8.03
591.173	8.37
591.511	8.42
591.849	8.12
592.187	8.33
592.524	8.36
592.862	8.25
593.2	8.63
593.537	8.32
593.875	8.44
594.212	8.65
594.55	8.43
594.887	8.78
595.224	8.43
595.561	8.71
595.899	8.48
596.236	8.66
596.573	8.43
596.91	8.71
597.247	8.62
597.584	8.64
597.921	8.6
598.258	8.79
598.594	8.51
598.931	8.59
599.268	8.6
599.604	8.8
599.941	8.85
600.277	8.81
600.614	9
600.95	8.84
601.287	8.82
601.623	9.04
601.959	8.78
602.296	9.22
602.632	9.35
602.968	9.1
603.304	9.07
603.64	9.2
603.976	9.06
604.312	9.06
604.648	9.2
604.984	9.29
605.319	9.18
605.655	9.16
605.991	9.27
606.326	9.1
606.662	9.14
606.998	9.34
607.333	9.28
607.668	9.11
608.004	9.19
608.339	9.43
608.674	9.1
609.01	9.41
609.345	9.54
609.68	9.46
610.015	9.48
610.35	9.51
610.685	9.55
611.02	9.74
611.355	9.75
611.689	9.36
612.024	9.74
612.359	9.85
612.694	9.81
613.028	10.13
613.363	9.83
613.697	9.89
614.032	9.75
614.366	9.89
614.7	10.06
615.035	9.54
615.369	9.91
615.703	10.31
616.037	9.95
616.371	9.99
616.705	10.17
617.039	10.04
617.373	10.11
617.707	9.95
618.041	10.1
618.375	10.07
618.709	10.19
619.042	10.29
619.376	10.3
619.71	10.19
620.043	10.11
620.377	10.48
620.71	10.62
621.043	10.25
621.377	10.49
621.71	10.31
622.043	10.55
622.376	10.42
622.709	10.56
623.043	10.66
623.376	10.52
623.709	10.62
624.041	10.62
624.374	10.72
624.707	10.79
625.04	10.85
625.373	10.55
625.705	10.73
626.038	10.9
626.37	10.36
626.703	10.74
627.035	10.79
627.368	11.11
627.7	11.03
628.032	10.84
628.365	10.8
628.697	10.8
629.029	11.2
629.361	10.85
629.693	11.31
630.025	11.12
630.357	11.21
630.689	11.15
631.021	11.11
631.353	11.48
631.684	11.66
632.016	11.03
632.348	11.23
632.679	11.3
633.011	11.34
633.342	11.39
633.674	11.38
634.005	11.21
634.336	11.47
634.668	11.13
634.999	11.52
635.33	11.25
635.661	11.4
635.992	11.56
636.323	11.4
636.654	11.44
636.985	11.66
637.316	11.58
637.647	11.72
637.977	11.53
638.308	11.58
638.639	11.76
638.969	11.75
639.3	11.97
639.63	11.74
639.961	11.97
640.291	12.37
640.622	12.02
640.952	12.09
641.282	11.54
641.612	11.62
641.943	12.28
642.273	12.31
642.603	12.37
642.933	12.37
643.263	12.49
643.592	12.06
643.922	12.34
644.252	12.75
644.582	11.82
644.911	12.22
645.241	12.26
645.571	11.94
645.9	12.83
646.23	11.64
646.559	12.44
646.888	11.79
647.218	12.53
647.547	12.69
647.876	12.72
648.205	12.53
648.534	12.4
648.863	12.84
649.192	12.48
649.521	12.61
649.85	12.87
650.179	12.12
650.508	12.84
650.837	12.65
651.165	12.54
651.494	13.08
651.822	12.65
652.151	13.23
652.479	13.19
652.808	12.4
653.136	12.83
653.465	13.22
653.793	13.21
654.121	12.94
654.449	13.24
654.777	13.15
655.105	13.49
655.433	13.12
655.761	13.29
656.089	13.33
656.417	13.11
656.745	13.7
657.073	13.57
657.4	13.51
657.728	13.62
658.056	13.67
658.383	13.86
658.711	13.22
659.038	13.45
659.365	13.49
659.693	13.64
660.02	13.03
660.347	13.79
660.674	13.53
661.001	13.21
661.329	13.7
661.656	13.43
661.982	13.8
662.309	13.73
662.636	14.23
662.963	14.26
663.29	13.49
663.616	13.97
663.943	14.08
664.27	14.62
664.596	13.68
664.923	14.44
665.249	14.41
665.576	13.58
665.902	13.77
666.228	14.17
666.554	13.32
666.881	13.98
667.207	14.38
667.533	14.73
667.859	14.09
668.185	14.19
668.511	14.42
668.837	14.14
669.162	14.74
669.488	13.83
669.814	14.7
670.139	15.15
670.465	14.55
670.791	14.84
671.116	14.16
671.442	14.46
671.767	14.3
672.092	14.63
672.418	15.39
672.743	14.58
673.068	13.94
673.393	14.7
673.718	14.58
674.043	15.14
674.368	15.16
674.693	14.85
675.018	14.82
675.343	15.1
675.667	14.72
675.992	14.39
676.317	14.95
676.641	15.57
676.966	15.5
677.29	15.09
677.615	15.92
677.939	14.99
678.264	15.15
678.588	15.79
678.912	15.64
679.236	15.76
679.56	14.98
679.885	15.69
680.209	14.98
680.532	15.32
680.856	15.52
681.18	15.65
681.504	15.18
681.828	15.48
682.152	15.47
682.475	15.56
682.799	15.47
683.122	15.56
683.446	15.15
683.769	15.64
684.093	15.71
684.416	15.49
684.739	15.99
685.062	15.31
685.386	15.88
685.709	15.5
686.032	15.68
686.355	15.78
686.678	15.76
687.001	15.01
687.324	15.49
687.646	15.37
