Data from 0075_crown_Reflection__2__382.txt Node

Date: Fri Dec 16 17:06:01 CST 2022
User: ToomeyLab
Spectrometer: FLMS14357
Trigger mode: 0
Integration Time (sec): 1.000000E-2
Scans to average: 100
Electric dark correction enabled: true
Nonlinearity correction enabled: false
Boxcar width: 0
XAxis mode: Wavelengths
Number of Pixels in Spectrum: 2048
>>>>>Begin Spectral Data<<<<<
189.047	62.48
189.435	62.48
189.823	62.48
190.211	37.34
190.599	-25.29
190.987	-60.15
191.375	17.02
191.763	293.48
192.151	59.02
192.538	142.13
192.926	-255.54
193.314	85.89
193.702	-257.06
194.089	1359.34
194.477	-2.65
194.864	100.33
195.252	-32.88
195.639	105.31
196.027	710.02
196.414	2494.59
196.801	38.2
197.189	195.26
197.576	4135.29
197.963	-30.49
198.351	-47.52
198.738	-27.31
199.125	21.55
199.512	-122.16
199.899	-61.3
200.286	-44.02
200.673	21.61
201.06	6.11
201.447	21.55
201.833	-12.94
202.22	-1.43
202.607	-23.78
202.994	9.51
203.38	-57.96
203.767	-65.34
204.154	-41.92
204.54	12.51
204.927	13.54
205.313	19.86
205.699	-21.67
206.086	-47.71
206.472	-17.23
206.858	-50.21
207.245	1.18
207.631	-41.61
208.017	-22.34
208.403	6.78
208.789	1.72
209.175	16.83
209.561	-4.23
209.947	-98.46
210.333	-36.07
210.719	-37.5
211.105	-34.48
211.491	-25.3
211.876	-7.23
212.262	-30.37
212.648	-36.2
213.034	-10.23
213.419	10.79
213.805	-26.3
214.19	-17.4
214.576	4.91
214.961	-48.31
215.346	-32.73
215.732	-44.76
216.117	-26.27
216.502	-28.89
216.888	-42.34
217.273	17.32
217.658	-32.59
218.043	9.89
218.428	-53.95
218.813	-18.69
219.198	-27.58
219.583	-19.75
219.968	-28.2
220.353	3.08
220.738	-7.04
221.122	-25.58
221.507	-19.6
221.892	3.66
222.276	-3.96
222.661	-30.53
223.046	-9.47
223.43	-9.38
223.815	-0.07
224.199	-13.41
224.583	-0.58
224.968	8.03
225.352	4.69
225.736	4.04
226.121	-0.81
226.505	3.52
226.889	8.17
227.273	8.82
227.657	3.03
228.041	1.29
228.425	2.34
228.809	4.45
229.193	2.56
229.577	3.91
229.961	5.68
230.344	5.37
230.728	5.31
231.112	6.34
231.495	5.26
231.879	5.19
232.263	4.22
232.646	3.13
233.03	3.12
233.413	4.27
233.797	4.71
234.18	2.01
234.563	4.84
234.946	4.78
235.33	3.53
235.713	4.99
236.096	4.5
236.479	6.8
236.862	4.5
237.245	5.91
237.628	3.96
238.011	4.35
238.394	7.21
238.777	5.9
239.16	1.41
239.543	1.07
239.925	6.86
240.308	4.09
240.691	4.04
241.073	4.86
241.456	4.23
241.838	3.7
242.221	4.54
242.603	4.34
242.986	5.07
243.368	5.1
243.75	4.74
244.133	4.67
244.515	5.04
244.897	4.87
245.279	4.14
245.661	4.46
246.043	3.75
246.425	4.39
246.807	3.37
247.189	4.39
247.571	4.83
247.953	4.92
248.335	5.03
248.717	4.9
249.098	4.87
249.48	4.3
249.862	4.87
250.243	4.49
250.625	4.45
251.006	4.47
251.388	4.9
251.769	3.47
252.151	4.09
252.532	4.52
252.913	4.85
253.295	4.39
253.676	4.89
254.057	3.75
254.438	3.9
254.819	4.08
255.2	4.07
255.581	3.72
255.962	4.65
256.343	4.45
256.724	3.88
257.105	3.85
257.486	4.91
257.867	3.83
258.247	4.11
258.628	4.56
259.009	4.77
259.389	4.43
259.77	4.35
260.15	4.54
260.531	4.42
260.911	4.36
261.292	4.4
261.672	4.18
262.052	4.56
262.432	4.02
262.813	4
263.193	3.79
263.573	4.15
263.953	3.63
264.333	3.94
264.713	3.74
265.093	2.88
265.473	4.69
265.853	3.67
266.233	4.26
266.612	4.38
266.992	3.28
267.372	3.99
267.752	3.47
268.131	4.11
268.511	4.32
268.89	4.11
269.27	4.34
269.649	4.44
270.029	4.48
270.408	3.79
270.787	4.21
271.167	3.85
271.546	3.42
271.925	3.46
272.304	3.55
272.683	3.56
273.062	4.43
273.441	4.05
273.82	4.2
274.199	4
274.578	3.85
274.957	3.72
275.336	3.79
275.715	4.46
276.093	4.05
276.472	3.87
276.851	3.87
277.229	3.96
277.608	3.73
277.986	4.43
278.365	3.41
278.743	3.95
279.122	3.81
279.5	3.39
279.878	2.69
280.257	3.89
280.635	3.58
281.013	4.56
281.391	4.1
281.769	3.48
282.147	3.99
282.525	3.44
282.903	3.82
283.281	4.12
283.659	4.06
284.037	3.86
284.415	3.54
284.792	3.8
285.17	3.09
285.548	3.36
285.925	3.58
286.303	3.96
286.68	3.65
287.058	3.73
287.435	3.62
287.813	3.71
288.19	4.51
288.567	3.62
288.945	4.09
289.322	3.28
289.699	3.45
290.076	4.05
290.453	3.85
290.83	3.6
291.207	3.53
291.584	3.71
291.961	3.84
292.338	3.92
292.715	3.57
293.092	3.46
293.469	3.79
293.845	3.83
294.222	4
294.599	4.17
294.975	3.62
295.352	3.89
295.728	3.9
296.105	3.58
296.481	4.11
296.858	3.78
297.234	3.74
297.61	3.35
297.986	3.71
298.363	3.4
298.739	3.74
299.115	3.57
299.491	3.79
299.867	3.96
300.243	3.51
300.619	3.4
300.995	3.75
301.371	3.61
301.746	3.73
302.122	3.72
302.498	3.4
302.874	3.99
303.249	3.97
303.625	3.5
304	3.81
304.376	3.34
304.751	3.47
305.127	3.82
305.502	3.71
305.878	3.31
306.253	3.11
306.628	4.26
307.003	3.56
307.378	3.43
307.754	4.05
308.129	3.28
308.504	3.29
308.879	3.65
309.254	3.42
309.629	3.42
310.003	3.62
310.378	3.88
310.753	3.94
311.128	3.57
311.502	3.3
311.877	3.9
312.252	3.67
312.626	3.42
313.001	3.82
313.375	3.45
313.75	3.66
314.124	4.15
314.498	3.38
314.873	3.49
315.247	3.28
315.621	3.9
315.995	3.18
316.369	3.67
316.743	3.61
317.117	3.65
317.491	3.81
317.865	2.73
318.239	3.78
318.613	3.25
318.987	3.69
319.361	3.65
319.734	3.7
320.108	3.63
320.482	3.99
320.855	3.63
321.229	3.79
321.602	3.56
321.976	3.69
322.349	3.09
322.723	2.71
323.096	2.85
323.469	3.05
323.843	3.85
324.216	3.99
324.589	3.74
324.962	3.92
325.335	4.01
325.708	3.42
326.081	3.96
326.454	3.9
326.827	3.77
327.2	3.97
327.573	3.74
327.945	3.63
328.318	3.66
328.691	3.76
329.063	3.78
329.436	3.8
329.809	3.8
330.181	3.35
330.553	4.15
330.926	3.79
331.298	4.09
331.671	3.57
332.043	3.76
332.415	3.6
332.787	4.26
333.159	3.85
333.532	3.87
333.904	3.65
334.276	3.84
334.648	3.38
335.02	3.69
335.391	3.88
335.763	3.69
336.135	3.96
336.507	3.91
336.879	3.54
337.25	3.55
337.622	3.95
337.993	3.73
338.365	3.81
338.736	4.42
339.108	3.89
339.479	3.57
339.851	4.43
340.222	3.87
340.593	3.57
340.964	3.51
341.336	3.18
341.707	3.68
342.078	3.6
342.449	4.53
342.82	3.83
343.191	3.46
343.562	4.13
343.933	3.96
344.303	4.03
344.674	3.53
345.045	3.94
345.416	3.63
345.786	3.79
346.157	3.89
346.527	3.83
346.898	4.01
347.268	3.72
347.639	3.83
348.009	4.44
348.38	3.65
348.75	4.09
349.12	4.13
349.49	3.71
349.861	4.04
350.231	4.12
350.601	4.2
350.971	3.66
351.341	4.34
351.711	3.73
352.081	4.09
352.45	3.73
352.82	4.33
353.19	4.02
353.56	4.07
353.929	3.96
354.299	3.58
354.669	3.98
355.038	3.95
355.408	4.52
355.777	3.76
356.147	3.96
356.516	4.56
356.885	4.08
357.254	4.47
357.624	4.28
357.993	4.19
358.362	4.05
358.731	4.4
359.1	4.2
359.469	4.19
359.838	4.2
360.207	4.02
360.576	4.34
360.945	4.11
361.314	4.26
361.682	3.74
362.051	4.16
362.42	4.54
362.788	4.14
363.157	4.15
363.525	4.22
363.894	4.07
364.262	4.13
364.631	5.05
364.999	4.04
365.367	4.5
365.735	3.84
366.104	3.82
366.472	4.4
366.84	4.07
367.208	3.91
367.576	4.35
367.944	4.47
368.312	4.01
368.68	4.57
369.048	4.57
369.416	4.01
369.783	4.38
370.151	4.37
370.519	4.3
370.886	4.29
371.254	4.61
371.621	3.89
371.989	4.09
372.356	4.12
372.724	4.49
373.091	4.22
373.458	4.15
373.826	4.28
374.193	4.56
374.56	4.27
374.927	4.31
375.294	4.68
375.661	4.38
376.028	4.21
376.395	4.15
376.762	4.63
377.129	4.57
377.496	4.11
377.863	4.52
378.229	4.14
378.596	4.37
378.963	4.53
379.329	4.33
379.696	4.49
380.062	4.47
380.429	4.59
380.795	4.06
381.161	4.68
381.528	3.93
381.894	4.39
382.26	4.25
382.626	4.28
382.993	4.03
383.359	4.2
383.725	4.53
384.091	4.65
384.457	4.39
384.823	4.27
385.188	4.72
385.554	4.3
385.92	4.56
386.286	4.75
386.651	4.57
387.017	4.42
387.383	4.48
387.748	4.38
388.114	4.4
388.479	4.39
388.845	4.62
389.21	4.52
389.575	4.68
389.94	4.33
390.306	4.51
390.671	4.36
391.036	4.77
391.401	4.7
391.766	4.56
392.131	4.52
392.496	4.43
392.861	4.24
393.226	4.55
393.591	4.47
393.956	4.68
394.32	4.41
394.685	4.53
395.05	4.19
395.414	4.57
395.779	4.66
396.143	4.64
396.508	4.77
396.872	4.61
397.236	4.46
397.601	4.58
397.965	4.38
398.329	4.85
398.694	4.33
399.058	4.6
399.422	4.58
399.786	4.54
400.15	4.38
400.514	4.56
400.878	4.66
401.242	4.67
401.605	4.58
401.969	4.56
402.333	4.62
402.697	4.72
403.06	4.57
403.424	4.66
403.787	4.7
404.151	4.6
404.514	4.57
404.878	4.49
405.241	4.67
405.604	4.82
405.968	4.7
406.331	4.57
406.694	4.66
407.057	4.79
407.42	4.71
407.783	4.43
408.146	4.63
408.509	4.67
408.872	4.55
409.235	4.95
409.598	4.6
409.961	4.68
410.323	4.71
410.686	4.53
411.049	4.65
411.411	4.56
411.774	4.57
412.136	4.7
412.499	4.75
412.861	4.33
413.223	4.93
413.586	4.38
413.948	4.82
414.31	4.95
414.672	4.55
415.035	4.78
415.397	4.92
415.759	4.56
416.121	4.9
416.483	4.7
416.845	4.74
417.206	4.72
417.568	4.68
417.93	4.57
418.292	4.67
418.653	4.67
419.015	4.67
419.377	4.77
419.738	4.61
420.1	4.65
420.461	4.67
420.822	4.74
421.184	4.57
421.545	4.64
421.906	4.74
422.267	4.56
422.629	4.63
422.99	4.57
423.351	4.61
423.712	4.66
424.073	4.81
424.434	4.55
424.795	4.63
425.155	4.6
425.516	4.57
425.877	4.67
426.238	4.58
426.598	4.63
426.959	4.52
427.32	4.68
427.68	4.62
428.041	4.74
428.401	4.68
428.761	4.56
429.122	4.62
429.482	4.42
429.842	4.66
430.202	4.71
430.563	4.73
430.923	4.7
431.283	4.81
431.643	4.7
432.003	4.75
432.363	4.85
432.722	4.49
433.082	4.64
433.442	4.69
433.802	4.81
434.161	4.63
434.521	4.59
434.881	4.68
435.24	4.57
435.6	4.63
435.959	4.64
436.319	4.64
436.678	4.6
437.037	4.7
437.396	4.61
437.756	4.59
438.115	4.69
438.474	4.7
438.833	4.73
439.192	4.73
439.551	4.61
439.91	4.62
440.269	4.75
440.628	4.61
440.987	4.5
441.345	4.54
441.704	4.72
442.063	4.58
442.421	4.65
442.78	4.6
443.138	4.57
443.497	4.57
443.855	4.62
444.214	4.65
444.572	4.63
444.93	4.72
445.288	4.67
445.647	4.7
446.005	4.46
446.363	4.63
446.721	4.59
447.079	4.67
447.437	4.6
447.795	4.57
448.153	4.56
448.51	4.53
448.868	4.67
449.226	4.6
449.584	4.6
449.941	4.73
450.299	4.57
450.656	4.67
451.014	4.58
451.371	4.52
451.729	4.54
452.086	4.66
452.443	4.56
452.801	4.67
453.158	4.65
453.515	4.59
453.872	4.79
454.229	4.64
454.586	4.69
454.943	4.67
455.3	4.73
455.657	4.66
456.014	4.75
456.371	4.66
456.727	4.65
457.084	4.56
457.441	4.63
457.797	4.83
458.154	4.72
458.51	4.51
458.867	4.53
459.223	4.66
459.58	4.52
459.936	4.52
460.292	4.65
460.648	4.48
461.005	4.5
461.361	4.46
461.717	4.54
462.073	4.68
462.429	4.7
462.785	4.74
463.141	4.66
463.496	4.75
463.852	4.59
464.208	4.7
464.564	4.51
464.919	4.56
465.275	4.61
465.631	4.64
465.986	4.56
466.342	4.8
466.697	4.59
467.052	4.69
467.408	4.38
467.763	4.54
468.118	4.59
468.473	4.79
468.829	4.61
469.184	4.69
469.539	4.53
469.894	4.62
470.249	4.55
470.603	4.61
470.958	4.59
471.313	4.61
471.668	4.58
472.023	4.86
472.377	4.56
472.732	4.78
473.086	4.44
473.441	4.67
473.795	4.75
474.15	4.42
474.504	4.64
474.859	4.56
475.213	4.54
475.567	4.52
475.921	4.74
476.275	4.75
476.63	4.52
476.984	4.4
477.338	4.77
477.692	4.72
478.045	4.6
478.399	4.69
478.753	4.44
479.107	4.49
479.461	4.74
479.814	4.53
480.168	4.55
480.521	4.52
480.875	4.85
481.228	4.63
481.582	4.31
481.935	4.61
482.289	4.51
482.642	4.59
482.995	4.55
483.348	4.55
483.701	4.52
484.055	4.45
484.408	4.41
484.761	4.27
485.114	4.23
485.466	4.25
485.819	4.26
486.172	4.37
486.525	4.42
486.878	4.43
487.23	4.49
487.583	4.37
487.936	4.42
488.288	4.37
488.641	4.3
488.993	4.3
489.345	4.31
489.698	4.36
490.05	4.34
490.402	4.45
490.754	4.47
491.107	4.42
491.459	4.5
491.811	4.49
492.163	4.47
492.515	4.4
492.866	4.24
493.218	4.27
493.57	4.37
493.922	4.42
494.274	4.49
494.625	4.49
494.977	4.47
495.328	4.45
495.68	4.53
496.031	4.58
496.383	4.44
496.734	4.55
497.086	4.39
497.437	4.57
497.788	4.41
498.139	4.44
498.49	4.44
498.842	4.38
499.193	4.52
499.544	4.59
499.894	4.48
500.245	4.4
500.596	4.45
500.947	4.42
501.298	4.52
501.648	4.47
501.999	4.65
502.35	4.54
502.7	4.58
503.051	4.55
503.401	4.52
503.752	4.32
504.102	4.41
504.452	4.47
504.803	4.33
505.153	4.52
505.503	4.42
505.853	4.39
506.203	4.48
506.553	4.44
506.903	4.42
507.253	4.58
507.603	4.33
507.953	4.41
508.303	4.46
508.652	4.41
509.002	4.49
509.352	4.41
509.701	4.39
510.051	4.43
510.4	4.42
510.75	4.41
511.099	4.46
511.449	4.41
511.798	4.51
512.147	4.4
512.496	4.5
512.846	4.39
513.195	4.43
513.544	4.37
513.893	4.37
514.242	4.53
514.591	4.42
514.939	4.4
515.288	4.41
515.637	4.56
515.986	4.37
516.334	4.41
516.683	4.36
517.032	4.36
517.38	4.48
517.729	4.44
518.077	4.53
518.426	4.41
518.774	4.32
519.122	4.29
519.47	4.36
519.819	4.29
520.167	4.28
520.515	4.26
520.863	4.28
521.211	4.39
521.559	4.4
521.907	4.32
522.255	4.39
522.602	4.47
522.95	4.4
523.298	4.38
523.645	4.43
523.993	4.45
524.341	4.31
524.688	4.35
525.036	4.45
525.383	4.39
525.73	4.34
526.078	4.33
526.425	4.33
526.772	4.14
527.119	4.19
527.466	4.31
527.814	4.21
528.161	4.28
528.508	4.32
528.854	4.2
529.201	4.2
529.548	4.11
529.895	4.06
530.242	4.04
530.588	4.11
530.935	4.17
531.282	4.25
531.628	4.2
531.975	4.26
532.321	4.28
532.667	4.33
533.014	4.25
533.36	4.29
533.706	4.23
534.052	4.19
534.399	4.11
534.745	4.08
535.091	4.13
535.437	4.2
535.783	4.26
536.129	4.26
536.474	4.36
536.82	4.19
537.166	4.26
537.512	4.29
537.857	4.11
538.203	4.21
538.549	4.3
538.894	4.24
539.239	4.34
539.585	4.27
539.93	4.3
540.276	4.24
540.621	4.19
540.966	4.21
541.311	4.29
541.656	4.21
542.001	4.22
542.346	4.14
542.691	4.05
543.036	4.07
543.381	4.11
543.726	4.16
544.071	4.18
544.415	4.13
544.76	4.08
545.105	4.21
545.449	4.19
545.794	4.23
546.138	4.31
546.483	4.14
546.827	4.21
547.171	4.18
547.516	4.26
547.86	4.2
548.204	4.16
548.548	4.2
548.892	4.27
549.236	4.28
549.58	4.14
549.924	4.21
550.268	4.45
550.612	4.3
550.956	4.06
551.3	4.24
551.643	4.18
551.987	4.15
552.33	4.17
552.674	4.16
553.017	4.24
553.361	4.24
553.704	4.21
554.048	4.12
554.391	4.18
554.734	4.22
555.077	4.25
555.42	4.26
555.764	4.19
556.107	4.21
556.45	4.21
556.793	4.2
557.135	4.31
557.478	4.28
557.821	4.02
558.164	4.17
558.507	4.27
558.849	4.07
559.192	4.33
559.534	4.02
559.877	4.25
560.219	4.32
560.562	4.27
560.904	4.19
561.246	4.33
561.589	3.98
561.931	4.34
562.273	4.19
562.615	4.27
562.957	4.16
563.299	4.23
563.641	4.38
563.983	4.12
564.325	4.05
564.667	4.16
565.008	4
565.35	4.39
565.692	4.26
566.033	4.13
566.375	4.1
566.716	4.14
567.058	4.28
567.399	4.18
567.741	4.13
568.082	3.99
568.423	4.16
568.764	4.12
569.105	4.27
569.447	4.1
569.788	4.25
570.129	4.09
570.47	4.24
570.811	4.17
571.151	4.23
571.492	4.23
571.833	4.11
572.174	4.15
572.514	4.01
572.855	4.06
573.195	4.05
573.536	4.23
573.876	4.11
574.217	4.29
574.557	4.22
574.898	4.06
575.238	3.95
575.578	4.21
575.918	4.08
576.258	3.97
576.598	3.99
576.938	4.2
577.278	4.01
577.618	4.13
577.958	4.06
578.298	4.17
578.638	4.13
578.977	4.11
579.317	4.23
579.657	4.13
579.996	4.17
580.336	4.08
580.675	4.01
581.014	4.08
581.354	4.27
581.693	4.21
582.032	3.99
582.372	4.2
582.711	4.08
583.05	4.43
583.389	4.23
583.728	4.15
584.067	3.98
584.406	4.34
584.745	3.8
585.083	4.32
585.422	4.26
585.761	4.27
586.1	4.11
586.438	4.1
586.777	4.08
587.115	4.06
587.454	4.14
587.792	4.09
588.13	4.21
588.469	4.27
588.807	4.3
589.145	4.04
589.483	4.14
589.821	4.16
590.159	3.97
590.497	3.68
590.835	4.12
591.173	4.1
591.511	4.3
591.849	4.12
592.187	4.01
592.524	3.82
592.862	4.13
593.2	3.92
593.537	4.06
593.875	4.13
594.212	4.03
594.55	4.05
594.887	4.15
595.224	3.86
595.561	4.23
595.899	4
596.236	4.21
596.573	3.96
596.91	4.22
597.247	3.83
597.584	4.17
597.921	4.07
598.258	4.21
598.594	3.94
598.931	3.88
599.268	4.13
599.604	4.12
599.941	4.07
600.277	4.06
600.614	4.09
600.95	4.17
601.287	4.03
601.623	4.23
601.959	3.95
602.296	4.07
602.632	4.05
602.968	4.15
603.304	3.73
603.64	3.92
603.976	3.91
604.312	4.2
604.648	4.09
604.984	4.02
605.319	3.93
605.655	4.08
605.991	3.96
606.326	3.96
606.662	3.95
606.998	4
607.333	4.04
607.668	4.06
608.004	3.86
608.339	4.08
608.674	4.2
609.01	4.02
609.345	4.2
609.68	3.81
610.015	3.98
610.35	4.01
610.685	3.96
611.02	4.13
611.355	4.3
611.689	4.04
612.024	4.24
612.359	4.08
612.694	4.28
613.028	4.33
613.363	3.99
613.697	3.94
614.032	4.26
614.366	3.84
614.7	4.13
615.035	3.88
615.369	4.16
615.703	4.19
616.037	4.01
616.371	4.03
616.705	4.11
617.039	4.07
617.373	3.97
617.707	3.81
618.041	4.31
618.375	3.63
618.709	3.96
619.042	4.25
619.376	3.8
619.71	3.47
620.043	4
620.377	4.18
620.71	4.38
621.043	3.85
621.377	3.94
621.71	4.1
622.043	3.91
622.376	3.98
622.709	4.32
623.043	3.86
623.376	4.22
623.709	4.42
624.041	4.29
624.374	3.7
624.707	3.98
625.04	4.27
625.373	3.65
625.705	4
626.038	3.95
626.37	3.88
626.703	3.89
627.035	4.18
627.368	3.98
627.7	4.05
628.032	3.98
628.365	3.75
628.697	4.05
629.029	4.02
629.361	3.99
629.693	4.09
630.025	3.94
630.357	3.81
630.689	4.28
631.021	4.05
631.353	3.97
631.684	4.02
632.016	3.76
632.348	4.09
632.679	3.44
633.011	4.1
633.342	3.89
633.674	3.76
634.005	4.11
634.336	3.78
634.668	3.74
634.999	3.92
635.33	3.98
635.661	3.92
635.992	3.83
636.323	4.04
636.654	4.1
636.985	3.94
637.316	3.85
637.647	4.01
637.977	3.82
638.308	3.89
638.639	3.61
638.969	3.86
639.3	3.98
639.63	3.99
639.961	3.75
640.291	4.65
640.622	4.2
640.952	3.8
641.282	3.42
641.612	3.55
641.943	4.32
642.273	4.05
642.603	4.19
642.933	4.22
643.263	4.19
643.592	4.16
643.922	4.47
644.252	3.93
644.582	3.91
644.911	3.76
645.241	3.66
645.571	3.8
645.9	4.42
646.23	4.01
646.559	4.28
646.888	3.58
647.218	4.1
647.547	4.49
647.876	4.45
648.205	3.77
648.534	3.73
648.863	3.85
649.192	3.5
649.521	3.44
649.85	4.3
650.179	3.55
650.508	3.9
650.837	4.17
651.165	3.79
651.494	3.84
651.822	3.76
652.151	4.46
652.479	4.45
652.808	4.07
653.136	4.1
653.465	4.27
653.793	4.06
654.121	4.2
654.449	3.86
654.777	4.11
655.105	4.16
655.433	4.34
655.761	3.53
656.089	4.5
656.417	3.58
656.745	4.58
657.073	4.2
657.4	3.95
657.728	3.89
658.056	3.45
658.383	4.47
658.711	4.04
659.038	4.03
659.365	4.45
659.693	3.76
660.02	4.01
660.347	4.17
660.674	3.58
661.001	3.52
661.329	3.99
661.656	4.02
661.982	4.26
662.309	4.38
662.636	3.82
662.963	4.21
663.29	4.22
663.616	4.02
663.943	4.11
664.27	4.05
664.596	4.11
664.923	4.23
665.249	3.39
665.576	4.15
665.902	3.81
666.228	3.2
666.554	3.73
666.881	4.14
667.207	4.49
667.533	3.98
667.859	3.79
668.185	3.65
668.511	3.86
668.837	3.29
669.162	3.92
669.488	3.56
669.814	4.75
670.139	4.47
670.465	4.29
670.791	4.09
671.116	3.95
671.442	4.15
671.767	4.2
672.092	4.01
672.418	3.98
672.743	4.29
673.068	3.15
673.393	4.19
673.718	3.95
674.043	3.64
674.368	4.68
674.693	4.1
675.018	4.09
675.343	3.65
675.667	3.88
675.992	3.65
676.317	4.07
676.641	4.3
676.966	4.14
677.29	4.16
677.615	4.2
677.939	4.32
678.264	3.76
678.588	4.4
678.912	3.92
679.236	3.83
679.56	3.47
679.885	4.6
680.209	3.71
680.532	3.89
680.856	4.72
681.18	4.13
681.504	3.36
681.828	3.66
682.152	4.21
682.475	4.02
682.799	4.02
683.122	3.94
683.446	3.72
683.769	4.41
684.093	4.42
684.416	3.89
684.739	4.2
685.062	4.22
685.386	4.03
685.709	4.06
686.032	3.55
686.355	3.93
686.678	3.92
687.001	2.89
687.324	3.21
687.646	3.25
687.969	4.12
688.292	4.58
688.614	4.5
688.937	3.68
689.26	3.7
689.582	3.84
689.904	4.17
690.227	3.86
690.549	4.12
690.871	4.3
691.194	4.27
691.516	4.3
691.838	4.27
