Data from 0075_crown_Reflection__1__381.txt Node

Date: Fri Dec 16 17:05:49 CST 2022
User: ToomeyLab
Spectrometer: FLMS14357
Trigger mode: 0
Integration Time (sec): 1.000000E-2
Scans to average: 100
Electric dark correction enabled: true
Nonlinearity correction enabled: false
Boxcar width: 0
XAxis mode: Wavelengths
Number of Pixels in Spectrum: 2048
>>>>>Begin Spectral Data<<<<<
189.047	145.67
189.435	145.67
189.823	145.67
190.211	82.98
190.599	170.76
190.987	160.87
191.375	24.78
191.763	137.62
192.151	-42.17
192.538	43.86
192.926	-157.12
193.314	53.37
193.702	-211.21
194.089	880.95
194.477	-75.1
194.864	-346.13
195.252	-171.23
195.639	94.91
196.027	989.45
196.414	-2988.29
196.801	-185.03
197.189	163.35
197.576	13582.35
197.963	-58.91
198.351	45.58
198.738	-11.64
199.125	4.79
199.512	-71.86
199.899	-81.23
200.286	-81.64
200.673	28.89
201.06	35.55
201.447	17.08
201.833	72.67
202.22	5.55
202.607	9.13
202.994	33.22
203.38	10.5
203.767	-50.67
204.154	-140.77
204.54	43.02
204.927	-1.88
205.313	11.31
205.699	-1.14
206.086	-13.32
206.472	-59.29
206.858	9.21
207.245	18.89
207.631	-23.02
208.017	23.52
208.403	-1.15
208.789	-24.69
209.175	47.8
209.561	-12.38
209.947	-84.37
210.333	-43.92
210.719	1.1
211.105	-56.37
211.491	42.68
211.876	-27.5
212.262	18.45
212.648	-59.6
213.034	-21.29
213.419	-10.9
213.805	-26.61
214.19	-25.72
214.576	-49.98
214.961	11.17
215.346	-66.49
215.732	-2.04
216.117	-25.19
216.502	3.38
216.888	-28.16
217.273	4.04
217.658	-28.67
218.043	-8.77
218.428	-12.59
218.813	-33.98
219.198	-26.5
219.583	-26.89
219.968	-1.03
220.353	-3.98
220.738	-8.66
221.122	-15.89
221.507	3.86
221.892	12.9
222.276	8.79
222.661	-3.34
223.046	4.14
223.43	-4.5
223.815	0.63
224.199	19.91
224.583	7.11
224.968	4.75
225.352	1.16
225.736	2.52
226.121	-8.21
226.505	2.07
226.889	11.79
227.273	9.15
227.657	2.67
228.041	7.07
228.425	8.61
228.809	10.28
229.193	5.74
229.577	8.83
229.961	8.5
230.344	8.47
230.728	7.81
231.112	7.55
231.495	7.51
231.879	9.43
232.263	6.51
232.646	8.03
233.03	6.2
233.413	4.76
233.797	8.86
234.18	3.74
234.563	7.81
234.946	7.14
235.33	8.92
235.713	7.36
236.096	7.42
236.479	8.08
236.862	9.37
237.245	9.25
237.628	7.37
238.011	7.06
238.394	8.62
238.777	6.01
239.16	4.35
239.543	6.28
239.925	9
240.308	7.39
240.691	8.44
241.073	8.29
241.456	6.81
241.838	6.38
242.221	7.91
242.603	8.14
242.986	8.65
243.368	7.38
243.75	8.08
244.133	8.19
244.515	8.02
244.897	7.56
245.279	7.73
245.661	8.04
246.043	7.79
246.425	7.47
246.807	7.71
247.189	7.15
247.571	8.12
247.953	7.82
248.335	7.9
248.717	7.76
249.098	7.57
249.48	7.42
249.862	7.35
250.243	7.61
250.625	7.86
251.006	7.76
251.388	7.49
251.769	7.08
252.151	7.92
252.532	7.23
252.913	8.12
253.295	7.04
253.676	7.39
254.057	7.27
254.438	7.05
254.819	7.69
255.2	7.87
255.581	7.69
255.962	7.26
256.343	7.74
256.724	6.29
257.105	7.22
257.486	5.8
257.867	5.6
258.247	7.07
258.628	7.38
259.009	7.25
259.389	7.37
259.77	8.02
260.15	7.49
260.531	7.21
260.911	7.28
261.292	7.21
261.672	6.99
262.052	7.05
262.432	6.56
262.813	7.13
263.193	6.28
263.573	6.8
263.953	6.57
264.333	7.5
264.713	7.2
265.093	6.49
265.473	7.44
265.853	6.61
266.233	6.53
266.612	7.17
266.992	6.77
267.372	6.42
267.752	6.57
268.131	6.86
268.511	6.99
268.89	6.74
269.27	6.61
269.649	6.76
270.029	6.7
270.408	6.11
270.787	6.55
271.167	7.18
271.546	5.95
271.925	6.75
272.304	6.63
272.683	6.64
273.062	6.76
273.441	6.79
273.82	7.04
274.199	6.64
274.578	6.59
274.957	6.98
275.336	6.67
275.715	6.96
276.093	6.7
276.472	6.97
276.851	6.57
277.229	6.53
277.608	6.13
277.986	6.23
278.365	6.42
278.743	6.63
279.122	5.92
279.5	5.81
279.878	5.85
280.257	5.91
280.635	5.59
281.013	6.54
281.391	6.11
281.769	6.17
282.147	6.83
282.525	6.27
282.903	6.37
283.281	6.12
283.659	6.51
284.037	6.14
284.415	6.35
284.792	6.71
285.17	5.76
285.548	5.91
285.925	5.8
286.303	6.07
286.68	6.33
287.058	5.89
287.435	6.09
287.813	6.56
288.19	6.22
288.567	5.97
288.945	6.11
289.322	5.74
289.699	5.89
290.076	6.21
290.453	5.83
290.83	6.33
291.207	5.83
291.584	5.59
291.961	6
292.338	5.95
292.715	5.89
293.092	5.56
293.469	5.96
293.845	6.17
294.222	6.17
294.599	6.58
294.975	5.76
295.352	5.33
295.728	6.21
296.105	5.85
296.481	6.38
296.858	5.61
297.234	5.78
297.61	6.07
297.986	5.59
298.363	5.44
298.739	5.79
299.115	5.27
299.491	5.97
299.867	5.76
300.243	5.62
300.619	5.36
300.995	5.78
301.371	5.66
301.746	5.51
302.122	5.87
302.498	5.89
302.874	6.11
303.249	5.63
303.625	5.47
304	5.44
304.376	5.52
304.751	5.48
305.127	5.81
305.502	5.69
305.878	5.48
306.253	5.11
306.628	5.52
307.003	5.48
307.378	5.76
307.754	5.13
308.129	4.9
308.504	5.69
308.879	5.46
309.254	5.74
309.629	5.05
310.003	5.73
310.378	5.29
310.753	5.57
311.128	5.37
311.502	5.07
311.877	5.39
312.252	5.32
312.626	5.31
313.001	5.44
313.375	5.16
313.75	5.2
314.124	5.58
314.498	5.38
314.873	5.51
315.247	5.31
315.621	5.48
315.995	5.33
316.369	5.72
316.743	5.39
317.117	5.41
317.491	5.37
317.865	4.53
318.239	5.02
318.613	4.85
318.987	5.48
319.361	5.14
319.734	5.07
320.108	5.61
320.482	5.24
320.855	5.6
321.229	5.78
321.602	5.61
321.976	4.77
322.349	4.7
322.723	4.93
323.096	4.6
323.469	4.8
323.843	4.64
324.216	4.47
324.589	5.4
324.962	5.31
325.335	4.92
325.708	5.09
326.081	5.55
326.454	4.96
326.827	5.54
327.2	5.63
327.573	5.46
327.945	5.39
328.318	5.27
328.691	5.34
329.063	4.99
329.436	5.13
329.809	4.86
330.181	5.22
330.553	5.29
330.926	5.32
331.298	4.59
331.671	4.57
332.043	4.99
332.415	5.38
332.787	5.62
333.159	4.92
333.532	5.29
333.904	5.27
334.276	5
334.648	5.53
335.02	4.83
335.391	5.19
335.763	5.2
336.135	5.5
336.507	5.23
336.879	5.26
337.25	5.1
337.622	5.33
337.993	5.2
338.365	5.42
338.736	5.27
339.108	4.88
339.479	5.46
339.851	5.34
340.222	5.59
340.593	5
340.964	4.91
341.336	5.06
341.707	5.38
342.078	4.95
342.449	5.65
342.82	5.04
343.191	4.81
343.562	5.09
343.933	5.29
344.303	5.63
344.674	4.99
345.045	5.72
345.416	4.9
345.786	5.17
346.157	5.31
346.527	5.11
346.898	5.15
347.268	5.21
347.639	4.94
348.009	5.51
348.38	5.38
348.75	5.27
349.12	5.4
349.49	5.07
349.861	5.52
350.231	5.3
350.601	5.37
350.971	5.02
351.341	5.62
351.711	5.02
352.081	5.03
352.45	6
352.82	5.26
353.19	5.04
353.56	5.69
353.929	5.75
354.299	4.86
354.669	5.24
355.038	5.45
355.408	5.83
355.777	5.32
356.147	5.68
356.516	5.58
356.885	5.37
357.254	5.73
357.624	5.87
357.993	5.23
358.362	5.56
358.731	5.46
359.1	5.56
359.469	5.61
359.838	5.18
360.207	5.69
360.576	5.28
360.945	5.56
361.314	5.83
361.682	5.12
362.051	5.58
362.42	5.87
362.788	5.66
363.157	5.42
363.525	5.41
363.894	5.38
364.262	5.41
364.631	6.21
364.999	5.37
365.367	5.88
365.735	5.46
366.104	5.58
366.472	5.72
366.84	5.98
367.208	5.21
367.576	5.73
367.944	5.85
368.312	5.45
368.68	5.8
369.048	5.57
369.416	5.66
369.783	5.43
370.151	5.75
370.519	5.86
370.886	5.77
371.254	5.53
371.621	5.62
371.989	5.8
372.356	5.66
372.724	5.71
373.091	5.88
373.458	5.79
373.826	5.74
374.193	5.99
374.56	5.74
374.927	5.18
375.294	5.83
375.661	5.85
376.028	5.7
376.395	5.56
376.762	5.91
377.129	5.87
377.496	6.22
377.863	5.92
378.229	5.69
378.596	5.67
378.963	5.82
379.329	5.64
379.696	6
380.062	6
380.429	5.98
380.795	6.1
381.161	6.1
381.528	5.88
381.894	5.98
382.26	5.81
382.626	5.7
382.993	5.98
383.359	5.88
383.725	5.61
384.091	6.21
384.457	6.04
384.823	5.93
385.188	6.28
385.554	5.95
385.92	6.23
386.286	6.21
386.651	6.07
387.017	5.98
387.383	6.23
387.748	5.86
388.114	6.13
388.479	6.12
388.845	6.03
389.21	6.18
389.575	6.16
389.94	5.82
390.306	6.17
390.671	5.89
391.036	6.19
391.401	6.38
391.766	6.13
392.131	6.1
392.496	5.88
392.861	5.9
393.226	6.17
393.591	6.28
393.956	6.12
394.32	6.12
394.685	6.28
395.05	5.91
395.414	6.06
395.779	6.06
396.143	6.27
396.508	6.35
396.872	6.29
397.236	6
397.601	6.11
397.965	6.11
398.329	6.35
398.694	6.31
399.058	6.34
399.422	6.42
399.786	6.15
400.15	6.23
400.514	6.31
400.878	6.04
401.242	6.57
401.605	6.19
401.969	6.29
402.333	6.06
402.697	6.49
403.06	6.42
403.424	6.19
403.787	6.49
404.151	6.19
404.514	6.4
404.878	6.71
405.241	6.42
405.604	6.39
405.968	6.48
406.331	6.27
406.694	6.47
407.057	6.73
407.42	6.38
407.783	6.2
408.146	6.46
408.509	6.19
408.872	6.3
409.235	6.4
409.598	6.5
409.961	6.45
410.323	6.44
410.686	6.42
411.049	6.42
411.411	6.54
411.774	6.55
412.136	6.4
412.499	6.4
412.861	6.23
413.223	6.65
413.586	6.38
413.948	6.61
414.31	6.64
414.672	6.6
415.035	6.72
415.397	6.64
415.759	6.46
416.121	6.62
416.483	6.68
416.845	6.48
417.206	6.78
417.568	6.58
417.93	6.38
418.292	6.45
418.653	6.5
419.015	6.53
419.377	6.62
419.738	6.33
420.1	6.43
420.461	6.32
420.822	6.53
421.184	6.51
421.545	6.39
421.906	6.5
422.267	6.32
422.629	6.43
422.99	6.51
423.351	6.53
423.712	6.53
424.073	6.61
424.434	6.56
424.795	6.47
425.155	6.6
425.516	6.49
425.877	6.56
426.238	6.53
426.598	6.56
426.959	6.5
427.32	6.56
427.68	6.56
428.041	6.71
428.401	6.57
428.761	6.52
429.122	6.54
429.482	6.57
429.842	6.66
430.202	6.68
430.563	6.75
430.923	6.68
431.283	6.81
431.643	6.67
432.003	6.67
432.363	6.74
432.722	6.8
433.082	6.7
433.442	6.63
433.802	6.48
434.161	6.71
434.521	6.77
434.881	6.73
435.24	6.58
435.6	6.71
435.959	6.71
436.319	6.66
436.678	6.61
437.037	6.79
437.396	6.74
437.756	6.59
438.115	6.63
438.474	6.69
438.833	6.79
439.192	6.79
439.551	6.91
439.91	6.75
440.269	6.83
440.628	6.8
440.987	6.61
441.345	6.72
441.704	6.81
442.063	6.67
442.421	6.82
442.78	6.68
443.138	6.68
443.497	6.62
443.855	6.8
444.214	6.78
444.572	6.8
444.93	6.77
445.288	6.8
445.647	6.88
446.005	6.68
446.363	6.85
446.721	6.75
447.079	6.8
447.437	6.79
447.795	6.72
448.153	6.76
448.51	6.73
448.868	6.83
449.226	6.72
449.584	6.75
449.941	6.87
450.299	6.86
450.656	6.83
451.014	6.86
451.371	6.88
451.729	6.79
452.086	6.63
452.443	6.78
452.801	6.98
453.158	6.88
453.515	6.78
453.872	7.03
454.229	6.9
454.586	6.8
454.943	6.85
455.3	6.98
455.657	6.77
456.014	6.83
456.371	6.97
456.727	7
457.084	6.8
457.441	6.78
457.797	7.1
458.154	7.07
458.51	6.74
458.867	6.76
459.223	6.99
459.58	6.87
459.936	6.85
460.292	7.01
460.648	6.85
461.005	6.8
461.361	6.87
461.717	6.85
462.073	6.84
462.429	6.88
462.785	6.92
463.141	6.84
463.496	6.95
463.852	7.07
464.208	7.14
464.564	6.8
464.919	6.97
465.275	7.09
465.631	6.88
465.986	6.85
466.342	7.02
466.697	7.01
467.052	6.99
467.408	6.95
467.763	6.93
468.118	7.17
468.473	7.26
468.829	7.08
469.184	7.06
469.539	6.76
469.894	6.99
470.249	6.95
470.603	7.02
470.958	7.03
471.313	6.92
471.668	7.11
472.023	7.18
472.377	7.04
472.732	7.03
473.086	6.95
473.441	7.09
473.795	7.22
474.15	6.96
474.504	7.15
474.859	7.08
475.213	6.91
475.567	6.88
475.921	7.25
476.275	7.13
476.63	7.03
476.984	7.12
477.338	7.3
477.692	7.18
478.045	7.11
478.399	7.16
478.753	6.94
479.107	7.11
479.461	7.2
479.814	7.1
480.168	7.07
480.521	7.05
480.875	7.23
481.228	7.15
481.582	7.09
481.935	7.1
482.289	7.05
482.642	7.06
482.995	7
483.348	6.99
483.701	7.13
484.055	7.02
484.408	7.01
484.761	6.93
485.114	6.8
485.466	6.8
485.819	6.73
486.172	6.7
486.525	6.76
486.878	6.77
487.23	6.78
487.583	6.91
487.936	7.01
488.288	6.99
488.641	6.95
488.993	6.86
489.345	6.82
489.698	6.84
490.05	6.85
490.402	6.87
490.754	6.9
491.107	6.89
491.459	6.97
491.811	7.1
492.163	7.09
492.515	7.04
492.866	6.92
493.218	6.92
493.57	6.93
493.922	6.9
494.274	6.93
494.625	6.97
494.977	7.04
495.328	7.1
495.68	7.3
496.031	7.2
496.383	7.03
496.734	7.15
497.086	7.06
497.437	7.17
497.788	7.23
498.139	7.24
498.49	7.21
498.842	7.13
499.193	6.97
499.544	7.2
499.894	7.13
500.245	7.19
500.596	7.2
500.947	7.23
501.298	7.11
501.648	7.26
501.999	7.41
502.35	7.3
502.7	7.25
503.051	7.35
503.401	7.25
503.752	7.17
504.102	7.11
504.452	7.2
504.803	7.07
505.153	7.32
505.503	7.18
505.853	7.09
506.203	7.28
506.553	7.21
506.903	7.16
507.253	7.27
507.603	7.05
507.953	7.25
508.303	7.28
508.652	7.23
509.002	7.32
509.352	7.32
509.701	7.24
510.051	7.3
510.4	7.19
510.75	7.1
511.099	7.13
511.449	7.2
511.798	7.32
512.147	7.17
512.496	7.25
512.846	7.17
513.195	7.28
513.544	7.2
513.893	7.14
514.242	7.27
514.591	7.19
514.939	7.27
515.288	7.28
515.637	7.32
515.986	7.24
516.334	7.28
516.683	7.29
517.032	7.05
517.38	7.25
517.729	7.23
518.077	7.33
518.426	7.19
518.774	7.24
519.122	7.24
519.47	7.17
519.819	7.18
520.167	7.18
520.515	7.15
520.863	7.08
521.211	7.04
521.559	7.2
521.907	7.15
522.255	7.23
522.602	7.22
522.95	7.28
523.298	7.26
523.645	7.2
523.993	7.3
524.341	7.18
524.688	7.19
525.036	7.22
525.383	7.39
525.73	7.27
526.078	7.21
526.425	7.28
526.772	7.17
527.119	7.15
527.466	7.18
527.814	7.14
528.161	7
528.508	7.15
528.854	7.05
529.201	7.14
529.548	7.05
529.895	7
530.242	6.97
530.588	6.94
530.935	6.83
531.282	6.89
531.628	6.99
531.975	7.04
532.321	6.98
532.667	7.07
533.014	7.14
533.36	7.18
533.706	7.17
534.052	7.04
534.399	7.06
534.745	7.07
535.091	7.05
535.437	7.09
535.783	6.98
536.129	7.01
536.474	7.1
536.82	7.1
537.166	7.08
537.512	7.2
537.857	7.2
538.203	7.17
538.549	7.16
538.894	7.08
539.239	7.08
539.585	7.12
539.93	7.19
540.276	7.07
540.621	7.15
540.966	7.21
541.311	7.31
541.656	7.16
542.001	7.19
542.346	7.21
542.691	7.08
543.036	7
543.381	6.99
543.726	7.03
544.071	6.97
544.415	6.97
544.76	7.01
545.105	6.97
545.449	6.95
545.794	7.1
546.138	7.1
546.483	7.12
546.827	7.16
547.171	7.1
547.516	7.15
547.86	7.17
548.204	7.1
548.548	7.17
548.892	7.16
549.236	7.12
549.58	7.06
549.924	7.15
550.268	7.28
550.612	7.17
550.956	6.96
551.3	7.27
551.643	7.06
551.987	7.15
552.33	7.2
552.674	7.39
553.017	7.24
553.361	7.18
553.704	7.1
554.048	7.32
554.391	7.13
554.734	7.18
555.077	7.15
555.42	7.14
555.764	7.15
556.107	7.16
556.45	7.05
556.793	7.22
557.135	7.28
557.478	7.32
557.821	7.07
558.164	7.22
558.507	7.04
558.849	7.08
559.192	7.21
559.534	7.03
559.877	7.19
560.219	7.41
560.562	7.24
560.904	7.08
561.246	7.35
561.589	7.12
561.931	7.29
562.273	7.1
562.615	7.25
562.957	7.14
563.299	7.1
563.641	7.21
563.983	7.17
564.325	6.97
564.667	7.08
565.008	6.84
565.35	7.2
565.692	7.2
566.033	7.05
566.375	7.02
566.716	7.17
567.058	7.17
567.399	7.02
567.741	7.12
568.082	7.11
568.423	7.06
568.764	7.18
569.105	7.15
569.447	7.02
569.788	7.12
570.129	7.08
570.47	7.19
570.811	7.13
571.151	7.04
571.492	7.24
571.833	7.12
572.174	6.89
572.514	7.11
572.855	7.17
573.195	7.12
573.536	7.12
573.876	6.95
574.217	7.18
574.557	7.15
574.898	6.99
575.238	7.17
575.578	7.15
575.918	7.04
576.258	7.03
576.598	6.91
576.938	7.14
577.278	6.98
577.618	6.82
577.958	7.03
578.298	6.95
578.638	6.96
578.977	7.12
579.317	7.14
579.657	7.12
579.996	6.85
580.336	6.97
580.675	7.02
581.014	7
581.354	6.96
581.693	6.82
582.032	6.93
582.372	7.14
582.711	7.11
583.05	7.34
583.389	7.21
583.728	6.95
584.067	6.94
584.406	7.11
584.745	7.06
585.083	7.03
585.422	6.99
585.761	6.86
586.1	7.04
586.438	6.84
586.777	6.86
587.115	7
587.454	6.99
587.792	6.72
588.13	7.19
588.469	7.09
588.807	7.17
589.145	7.04
589.483	6.84
589.821	6.94
590.159	6.9
590.497	6.8
590.835	7
591.173	6.95
591.511	6.95
591.849	6.92
592.187	6.99
592.524	6.84
592.862	6.71
593.2	7.04
593.537	6.88
593.875	6.96
594.212	6.87
594.55	6.97
594.887	7
595.224	6.89
595.561	7.02
595.899	6.86
596.236	7.18
596.573	6.71
596.91	6.96
597.247	6.81
597.584	6.95
597.921	6.91
598.258	6.87
598.594	6.7
598.931	6.78
599.268	6.75
599.604	6.83
599.941	6.65
600.277	6.67
600.614	6.72
600.95	7
601.287	6.89
601.623	6.77
601.959	6.81
602.296	7.08
602.632	6.98
602.968	6.79
603.304	6.87
603.64	6.63
603.976	6.78
604.312	6.78
604.648	7.04
604.984	6.67
605.319	6.82
605.655	6.93
605.991	6.86
606.326	6.73
606.662	6.55
606.998	6.64
607.333	6.68
607.668	6.91
608.004	6.81
608.339	6.9
608.674	6.51
609.01	6.66
609.345	7.05
609.68	6.45
610.015	6.7
610.35	6.84
610.685	6.77
611.02	6.94
611.355	6.86
611.689	6.49
612.024	6.75
612.359	6.87
612.694	6.82
613.028	6.81
613.363	6.56
613.697	6.94
614.032	6.66
614.366	6.58
614.7	6.92
615.035	6.43
615.369	6.93
615.703	6.94
616.037	6.86
616.371	6.86
616.705	6.73
617.039	6.8
617.373	6.58
617.707	6.58
618.041	6.79
618.375	6.44
618.709	6.83
619.042	6.98
619.376	6.48
619.71	6.65
620.043	6.53
620.377	6.54
620.71	6.64
621.043	6.45
621.377	6.2
621.71	6.79
622.043	6.96
622.376	6.46
622.709	6.74
623.043	6.65
623.376	6.67
623.709	6.9
624.041	6.29
624.374	6.43
624.707	6.66
625.04	6.82
625.373	6.75
625.705	6.85
626.038	6.73
626.37	6.74
626.703	6.64
627.035	6.71
627.368	7
627.7	6.59
628.032	6.63
628.365	6.56
628.697	6.52
629.029	6.91
629.361	6.27
629.693	7
630.025	6.48
630.357	6.51
630.689	6.98
631.021	6.73
631.353	6.8
631.684	6.7
632.016	6.36
632.348	6.72
632.679	6.34
633.011	6.52
633.342	6.77
633.674	6.68
634.005	6.7
634.336	6.75
634.668	6.47
634.999	6.84
635.33	6.5
635.661	6.8
635.992	6.56
636.323	6.46
636.654	6.8
636.985	6.4
637.316	6.76
637.647	6.61
637.977	6.7
638.308	6.2
638.639	6.68
638.969	6.42
639.3	6.57
639.63	6.18
639.961	6.83
640.291	6.4
640.622	6.71
640.952	6.72
641.282	6.42
641.612	6.04
641.943	6.5
642.273	6.55
642.603	6.72
642.933	6.33
643.263	6.55
643.592	6.8
643.922	6.96
644.252	6.89
644.582	6.55
644.911	6.19
645.241	6.44
645.571	6.3
645.9	6.85
646.23	6.15
646.559	6.67
646.888	6.66
647.218	6.53
647.547	6.65
647.876	6.89
648.205	6.56
648.534	5.97
648.863	6.74
649.192	6.34
649.521	6.27
649.85	6.81
650.179	6.12
650.508	6.37
650.837	7.07
651.165	6.32
651.494	6.49
651.822	6.74
652.151	6.99
652.479	7.01
652.808	6.4
653.136	6.4
653.465	6.54
653.793	6.98
654.121	6.24
654.449	6.76
654.777	6.94
655.105	7.27
655.433	6.75
655.761	6.07
656.089	6.43
656.417	6.54
656.745	6.64
657.073	6.67
657.4	6.58
657.728	6.34
658.056	6.04
658.383	6.82
658.711	5.93
659.038	6.74
659.365	6.5
659.693	6.52
660.02	6.37
660.347	7
660.674	6.53
661.001	6.15
661.329	6.55
661.656	6.34
661.982	6.65
662.309	6.49
662.636	6.53
662.963	6.75
663.29	6.39
663.616	6.98
663.943	7.19
664.27	6.65
664.596	5.97
664.923	6.56
665.249	6.62
665.576	6.63
665.902	6.47
666.228	6.7
666.554	6.25
666.881	6.65
667.207	6.74
667.533	6.74
667.859	6.35
668.185	6.58
668.511	6.42
668.837	6.2
669.162	5.87
669.488	6.47
669.814	7.52
670.139	6.66
670.465	6.83
670.791	6.7
671.116	6.54
671.442	6.82
671.767	5.92
672.092	6.86
672.418	6.54
672.743	6.28
673.068	6.53
673.393	6.07
673.718	6.23
674.043	6.6
674.368	6.6
674.693	6.2
675.018	6.35
675.343	6.92
675.667	6.25
675.992	6.38
676.317	6.24
676.641	6.77
676.966	6.82
677.29	6.13
677.615	7.03
677.939	6.52
678.264	5.88
678.588	6.6
678.912	6.32
679.236	6.46
679.56	6.36
679.885	6.73
680.209	6.05
680.532	6.41
680.856	6.63
681.18	6.67
681.504	6.54
681.828	6.21
682.152	6.55
682.475	6.89
682.799	6.6
683.122	6.48
683.446	6.46
683.769	6.38
684.093	6.66
684.416	6.66
684.739	6.57
685.062	6.31
685.386	6.52
685.709	6.79
686.032	6.21
686.355	6.33
686.678	6.34
687.001	6.08
687.324	6.87
687.646	6.57
687.969	5.93
688.292	6.91
688.614	6.95
688.937	6.65
689.26	6.07
689.582	6.33
689.904	6.53
690.227	6.72
690.549	6.67
690.871	7.47
691.194	6.45
691.516	6.45
691.838	6.5
692.16	6.59
692.482	6.39
692.804	5.79
693.126	6.29
