Data from 0075_chest_Reflection__1__376.txt Node

Date: Fri Dec 16 17:04:03 CST 2022
User: ToomeyLab
Spectrometer: FLMS14357
Trigger mode: 0
Integration Time (sec): 1.000000E-2
Scans to average: 100
Electric dark correction enabled: true
Nonlinearity correction enabled: false
Boxcar width: 0
XAxis mode: Wavelengths
Number of Pixels in Spectrum: 2048
>>>>>Begin Spectral Data<<<<<
189.047	84.62
189.435	84.62
189.823	84.62
190.211	16.61
190.599	46.97
190.987	224.18
191.375	17.87
191.763	44.72
192.151	-80.41
192.538	50.7
192.926	-177.02
193.314	66.74
193.702	-71.56
194.089	215.75
194.477	-53.01
194.864	-165.57
195.252	39.26
195.639	75.25
196.027	315.38
196.414	2107.21
196.801	-162.99
197.189	138.48
197.576	6664.71
197.963	-111.28
198.351	-12.9
198.738	-20.17
199.125	4.31
199.512	-9.67
199.899	-42.61
200.286	-53.93
200.673	14.16
201.06	8.34
201.447	34.83
201.833	-37.8
202.22	1.91
202.607	3.1
202.994	5.45
203.38	-41.47
203.767	-54.1
204.154	-44.79
204.54	11.69
204.927	2.11
205.313	31.96
205.699	-25.08
206.086	-0.53
206.472	-56.33
206.858	-3.06
207.245	-3.63
207.631	-80.47
208.017	-3.69
208.403	-12.57
208.789	-38.3
209.175	45.1
209.561	-7.2
209.947	-79.18
210.333	-24.49
210.719	-29.52
211.105	-45.38
211.491	-12.7
211.876	28.99
212.262	-6.4
212.648	-19.21
213.034	-25.89
213.419	4.75
213.805	-26.81
214.19	-14.03
214.576	-65.95
214.961	-27.87
215.346	-33.81
215.732	-49.09
216.117	-15.88
216.502	-6.38
216.888	-22.66
217.273	-24.58
217.658	-19.88
218.043	2.07
218.428	-10.4
218.813	-27.93
219.198	-56.07
219.583	-21.64
219.968	-9.89
220.353	6.37
220.738	-4.51
221.122	-24.48
221.507	-18.18
221.892	-6.77
222.276	-13.23
222.661	-10.07
223.046	-3.81
223.43	2.34
223.815	8.45
224.199	5.41
224.583	-1.28
224.968	-2.34
225.352	-19.28
225.736	0.7
226.121	-6.31
226.505	2.08
226.889	6.64
227.273	-1.52
227.657	-1.36
228.041	3.62
228.425	-1.05
228.809	3.27
229.193	-0.37
229.577	-0.16
229.961	1
230.344	1.94
230.728	2.22
231.112	1.96
231.495	1.34
231.879	1.06
232.263	0.76
232.646	1.04
233.03	-1.63
233.413	-0.2
233.797	3.3
234.18	-1.64
234.563	-0.07
234.946	0.38
235.33	-0.07
235.713	1.84
236.096	2.06
236.479	1.87
236.862	2.66
237.245	1.06
237.628	1.75
238.011	2.5
238.394	3.55
238.777	1.41
239.16	0.71
239.543	0.71
239.925	2.01
240.308	1.04
240.691	0.4
241.073	1.06
241.456	-0.05
241.838	1.93
242.221	1.72
242.603	1.87
242.986	2.59
243.368	2.13
243.75	2.03
244.133	2.56
244.515	2.13
244.897	2.02
245.279	1.41
245.661	0.63
246.043	2.41
246.425	1.54
246.807	2.27
247.189	1.74
247.571	2.06
247.953	2.41
248.335	2.6
248.717	2.43
249.098	2.56
249.48	2.19
249.862	2.38
250.243	2.45
250.625	2.55
251.006	2.91
251.388	3.06
251.769	2.9
252.151	1.14
252.532	1.92
252.913	2.09
253.295	2.2
253.676	2.37
254.057	1.97
254.438	1.56
254.819	1.69
255.2	1.66
255.581	1.36
255.962	1.91
256.343	2.59
256.724	2.2
257.105	2.07
257.486	2.42
257.867	0.2
258.247	2.1
258.628	3.36
259.009	2.25
259.389	2.54
259.77	2.15
260.15	2.9
260.531	2.32
260.911	2.41
261.292	2.52
261.672	2.51
262.052	2.13
262.432	1.91
262.813	2.16
263.193	1.82
263.573	2.19
263.953	1.73
264.333	1.84
264.713	2.19
265.093	2.29
265.473	2.63
265.853	2.23
266.233	1.58
266.612	2.47
266.992	1.53
267.372	2.21
267.752	1.42
268.131	2.18
268.511	1.96
268.89	2.2
269.27	2.16
269.649	2.55
270.029	2.54
270.408	1.88
270.787	2.4
271.167	2.33
271.546	1.43
271.925	2.1
272.304	2.34
272.683	1.62
273.062	2.26
273.441	2.4
273.82	2.47
274.199	2.04
274.578	2.05
274.957	2.06
275.336	1.83
275.715	2.7
276.093	2.8
276.472	1.69
276.851	2.04
277.229	2.44
277.608	1.66
277.986	2.37
278.365	1.64
278.743	2.16
279.122	1.67
279.5	1.94
279.878	1.65
280.257	2.74
280.635	1.9
281.013	2.46
281.391	1.98
281.769	2.41
282.147	2.14
282.525	2.23
282.903	2.04
283.281	2.29
283.659	2.35
284.037	2.16
284.415	2.16
284.792	2.59
285.17	2.09
285.548	2.31
285.925	2.45
286.303	1.84
286.68	2.68
287.058	2.22
287.435	2.12
287.813	2.53
288.19	2.54
288.567	2.11
288.945	2.45
289.322	2.05
289.699	2.13
290.076	2.87
290.453	2.11
290.83	2.5
291.207	2.38
291.584	1.92
291.961	2.59
292.338	2.38
292.715	2.69
293.092	2.65
293.469	2.79
293.845	3.05
294.222	2.69
294.599	3.19
294.975	2.58
295.352	2.28
295.728	3.24
296.105	2.65
296.481	3.4
296.858	3.22
297.234	3.29
297.61	2.84
297.986	2.96
298.363	2.65
298.739	3.11
299.115	2.69
299.491	3.01
299.867	2.94
300.243	3.04
300.619	2.78
300.995	3.17
301.371	3.65
301.746	3.36
302.122	2.83
302.498	2.89
302.874	3.51
303.249	3.11
303.625	3.3
304	2.8
304.376	3.17
304.751	3.16
305.127	3.19
305.502	3.39
305.878	2.83
306.253	3.18
306.628	3.56
307.003	3.72
307.378	3.44
307.754	4.24
308.129	2.99
308.504	3.22
308.879	3.25
309.254	3.68
309.629	3.51
310.003	4.19
310.378	3.8
310.753	3.85
311.128	3.35
311.502	3.3
311.877	3.72
312.252	3.4
312.626	3.51
313.001	3.41
313.375	3.48
313.75	3.51
314.124	3.99
314.498	3.87
314.873	3.86
315.247	3.73
315.621	4.36
315.995	3.7
316.369	3.6
316.743	3.92
317.117	3.77
317.491	4.45
317.865	3.08
318.239	4.23
318.613	3.98
318.987	3.49
319.361	3.87
319.734	3.98
320.108	3.99
320.482	3.63
320.855	3.65
321.229	4.54
321.602	4.02
321.976	3.51
322.349	3.27
322.723	3.52
323.096	3.68
323.469	3.54
323.843	3.81
324.216	3.32
324.589	4.08
324.962	3.84
325.335	3.94
325.708	4.45
326.081	4.29
326.454	4.12
326.827	3.85
327.2	4.35
327.573	4.08
327.945	4.08
328.318	3.98
328.691	4.37
329.063	3.96
329.436	3.91
329.809	4.13
330.181	4.23
330.553	4.63
330.926	4.5
331.298	4.69
331.671	4.32
332.043	4.1
332.415	4.14
332.787	4.94
333.159	4.44
333.532	4.55
333.904	4.69
334.276	4.02
334.648	4.41
335.02	4.52
335.391	4.71
335.763	4.66
336.135	4.55
336.507	4.42
336.879	4.57
337.25	4.29
337.622	3.86
337.993	4.41
338.365	4.24
338.736	4.94
339.108	4.16
339.479	4.91
339.851	4.42
340.222	4.7
340.593	4.66
340.964	4.63
341.336	4.53
341.707	4.6
342.078	4.02
342.449	4.44
342.82	4.32
343.191	4.31
343.562	4.53
343.933	4.57
344.303	4.58
344.674	4.96
345.045	5.19
345.416	4.52
345.786	4.35
346.157	4.86
346.527	4.46
346.898	4.48
347.268	4.15
347.639	4.41
348.009	5.21
348.38	4.9
348.75	4.79
349.12	4.74
349.49	4.37
349.861	5.07
350.231	4.86
350.601	4.66
350.971	4.9
351.341	5
351.711	4.6
352.081	4.8
352.45	4.96
352.82	5.27
353.19	4.76
353.56	4.63
353.929	4.66
354.299	4.63
354.669	4.97
355.038	5
355.408	5.38
355.777	4.67
356.147	5.23
356.516	4.96
356.885	4.87
357.254	4.87
357.624	5.11
357.993	4.98
358.362	5.36
358.731	4.85
359.1	5.07
359.469	4.86
359.838	4.7
360.207	4.99
360.576	5
360.945	4.76
361.314	5.07
361.682	4.62
362.051	4.9
362.42	5.33
362.788	4.9
363.157	4.73
363.525	5
363.894	4.8
364.262	5.08
364.631	5.77
364.999	5.03
365.367	5.29
365.735	4.85
366.104	5.32
366.472	5.37
366.84	5.19
367.208	4.93
367.576	5.14
367.944	5.51
368.312	4.8
368.68	4.98
369.048	5.32
369.416	4.74
369.783	4.96
370.151	5.46
370.519	5.03
370.886	5.45
371.254	4.99
371.621	5.19
371.989	5.27
372.356	5.4
372.724	4.91
373.091	5.06
373.458	5.24
373.826	5.14
374.193	5.73
374.56	5.02
374.927	5.08
375.294	5.5
375.661	5.4
376.028	5.42
376.395	5.19
376.762	5.61
377.129	5.41
377.496	5.48
377.863	5.43
378.229	5.11
378.596	5.26
378.963	5.3
379.329	5.47
379.696	5.58
380.062	5.52
380.429	5.58
380.795	5.18
381.161	5.26
381.528	5.17
381.894	5.42
382.26	5.32
382.626	5.25
382.993	5.36
383.359	5.54
383.725	5.68
384.091	5.02
384.457	5.6
384.823	5.72
385.188	5.72
385.554	5.72
385.92	5.91
386.286	5.55
386.651	5.39
387.017	5.67
387.383	5.66
387.748	5.69
388.114	5.63
388.479	5.85
388.845	5.46
389.21	5.71
389.575	5.8
389.94	5.68
390.306	5.78
390.671	5.54
391.036	5.87
391.401	6.22
391.766	5.62
392.131	5.65
392.496	5.91
392.861	5.35
393.226	5.53
393.591	5.76
393.956	5.63
394.32	5.68
394.685	5.84
395.05	5.46
395.414	5.87
395.779	5.68
396.143	5.71
396.508	5.87
396.872	6.17
397.236	5.57
397.601	5.89
397.965	5.65
398.329	6.03
398.694	5.46
399.058	5.96
399.422	6.04
399.786	5.77
400.15	5.78
400.514	5.83
400.878	5.85
401.242	6.07
401.605	6.18
401.969	6.06
402.333	5.97
402.697	6.23
403.06	6.4
403.424	5.94
403.787	6.2
404.151	5.93
404.514	5.96
404.878	6.11
405.241	5.92
405.604	5.76
405.968	6.16
406.331	6
406.694	5.94
407.057	6.16
407.42	5.94
407.783	5.74
408.146	6.08
408.509	5.85
408.872	5.75
409.235	6.19
409.598	6.15
409.961	6.03
410.323	5.95
410.686	6.09
411.049	5.89
411.411	6.14
411.774	6.1
412.136	6.06
412.499	6.02
412.861	6.07
413.223	6.22
413.586	5.93
413.948	6.08
414.31	6.16
414.672	5.86
415.035	6.24
415.397	6.13
415.759	6.18
416.121	6.37
416.483	6.35
416.845	6.1
417.206	6.23
417.568	6.06
417.93	6.2
418.292	6.01
418.653	6.13
419.015	6.02
419.377	6.14
419.738	6.02
420.1	6.17
420.461	6.03
420.822	6.23
421.184	6.09
421.545	6.14
421.906	6.15
422.267	6.02
422.629	6.16
422.99	6.16
423.351	6.13
423.712	6.28
424.073	6.38
424.434	6.25
424.795	6.27
425.155	6.3
425.516	6.22
425.877	6.21
426.238	6.09
426.598	6.3
426.959	6.33
427.32	6.38
427.68	6.38
428.041	6.4
428.401	6.28
428.761	6.53
429.122	6.34
429.482	6.32
429.842	6.51
430.202	6.34
430.563	6.69
430.923	6.47
431.283	6.65
431.643	6.45
432.003	6.72
432.363	6.71
432.722	6.47
433.082	6.57
433.442	6.7
433.802	6.56
434.161	6.52
434.521	6.55
434.881	6.67
435.24	6.66
435.6	6.63
435.959	6.67
436.319	6.55
436.678	6.75
437.037	6.66
437.396	6.75
437.756	6.77
438.115	6.79
438.474	6.79
438.833	6.85
439.192	6.77
439.551	6.8
439.91	6.86
440.269	6.92
440.628	6.91
440.987	6.72
441.345	6.77
441.704	6.84
442.063	6.68
442.421	6.83
442.78	6.82
443.138	6.79
443.497	6.83
443.855	6.83
444.214	6.95
444.572	6.9
444.93	6.95
445.288	6.97
445.647	6.97
446.005	6.93
446.363	7.01
446.721	6.76
447.079	7
447.437	6.84
447.795	6.92
448.153	6.74
448.51	6.93
448.868	6.96
449.226	7.08
449.584	7
449.941	7.12
450.299	7.05
450.656	7.18
451.014	7.07
451.371	7.13
451.729	7.25
452.086	7.24
452.443	7.1
452.801	7.19
453.158	7
453.515	7.12
453.872	7.19
454.229	7.11
454.586	7.18
454.943	7.24
455.3	7.44
455.657	7.17
456.014	7.29
456.371	7.33
456.727	7.21
457.084	7.37
457.441	7.4
457.797	7.22
458.154	7.22
458.51	7.32
458.867	7.34
459.223	7.44
459.58	7.34
459.936	7.08
460.292	7.32
460.648	7.3
461.005	7.09
461.361	7.26
461.717	7.33
462.073	7.44
462.429	7.29
462.785	7.43
463.141	7.48
463.496	7.57
463.852	7.78
464.208	7.54
464.564	7.45
464.919	7.49
465.275	7.5
465.631	7.53
465.986	7.63
466.342	7.42
466.697	7.57
467.052	7.53
467.408	7.61
467.763	7.53
468.118	7.6
468.473	7.79
468.829	7.69
469.184	7.75
469.539	7.61
469.894	7.8
470.249	7.68
470.603	7.76
470.958	7.75
471.313	7.62
471.668	7.69
472.023	7.92
472.377	7.69
472.732	7.73
473.086	7.69
473.441	7.89
473.795	7.85
474.15	7.75
474.504	7.83
474.859	7.81
475.213	7.94
475.567	7.93
475.921	8.04
476.275	7.97
476.63	8.03
476.984	7.83
477.338	8.13
477.692	7.93
478.045	7.9
478.399	8.05
478.753	7.85
479.107	8
479.461	7.96
479.814	8.05
480.168	7.97
480.521	7.9
480.875	8.24
481.228	8.02
481.582	7.99
481.935	8.07
482.289	8.04
482.642	7.87
482.995	8.02
483.348	7.95
483.701	7.95
484.055	7.93
484.408	7.79
484.761	7.64
485.114	7.52
485.466	7.6
485.819	7.72
486.172	7.86
486.525	7.91
486.878	8.02
487.23	8
487.583	7.98
487.936	7.98
488.288	7.9
488.641	7.87
488.993	7.85
489.345	7.82
489.698	7.96
490.05	8.02
490.402	8.15
490.754	8.24
491.107	8.29
491.459	8.3
491.811	8.37
492.163	8.3
492.515	8.06
492.866	7.99
493.218	8.02
493.57	8.11
493.922	8.22
494.274	8.4
494.625	8.4
494.977	8.4
495.328	8.64
495.68	8.63
496.031	8.42
496.383	8.46
496.734	8.6
497.086	8.43
497.437	8.57
497.788	8.55
498.139	8.5
498.49	8.57
498.842	8.68
499.193	8.7
499.544	8.72
499.894	8.85
500.245	8.66
500.596	8.72
500.947	8.75
501.298	8.68
501.648	8.74
501.999	9.09
502.35	9
502.7	8.96
503.051	8.99
503.401	8.87
503.752	8.81
504.102	8.96
504.452	8.9
504.803	8.78
505.153	9.01
505.503	8.93
505.853	8.98
506.203	9
506.553	9.04
506.903	9.05
507.253	9.13
507.603	8.96
507.953	9.21
508.303	9.15
508.652	9.01
509.002	9.22
509.352	9.08
509.701	9.1
510.051	9.18
510.4	9
510.75	9.16
511.099	9.1
511.449	9.04
511.798	9.28
512.147	9.2
512.496	9.34
512.846	9.22
513.195	9.21
513.544	9.3
513.893	9.16
514.242	9.38
514.591	9.39
514.939	9.43
515.288	9.49
515.637	9.44
515.986	9.36
516.334	9.45
516.683	9.41
517.032	9.39
517.38	9.55
517.729	9.55
518.077	9.59
518.426	9.52
518.774	9.45
519.122	9.36
519.47	9.38
519.819	9.36
520.167	9.38
520.515	9.43
520.863	9.53
521.211	9.54
521.559	9.51
521.907	9.65
522.255	9.73
522.602	9.73
522.95	9.74
523.298	9.74
523.645	9.8
523.993	9.86
524.341	9.7
524.688	9.65
525.036	9.9
525.383	9.94
525.73	9.9
526.078	9.79
526.425	9.84
526.772	9.55
527.119	9.68
527.466	9.78
527.814	9.79
528.161	9.87
528.508	9.91
528.854	9.86
529.201	9.67
529.548	9.59
529.895	9.46
530.242	9.57
530.588	9.69
530.935	9.68
531.282	9.9
531.628	9.91
531.975	10
532.321	9.98
532.667	10.04
533.014	10.08
533.36	10.18
533.706	10.12
534.052	9.94
534.399	9.92
534.745	9.9
535.091	10.01
535.437	10.15
535.783	10.31
536.129	10.28
536.474	10.41
536.82	10.44
537.166	10.49
537.512	10.43
537.857	10.31
538.203	10.26
538.549	10.48
538.894	10.45
539.239	10.68
539.585	10.6
539.93	10.72
540.276	10.77
540.621	10.63
540.966	10.75
541.311	10.81
541.656	10.59
542.001	10.66
542.346	10.47
542.691	10.27
543.036	10.43
543.381	10.53
543.726	10.61
544.071	10.8
544.415	10.78
544.76	10.75
545.105	10.84
545.449	10.78
545.794	10.96
546.138	11.17
546.483	11.04
546.827	11.03
547.171	11.06
547.516	11.3
547.86	11.14
548.204	11.02
548.548	11.07
548.892	11.25
549.236	11.36
549.58	11.23
549.924	11.4
550.268	11.41
550.612	11.52
550.956	11.46
551.3	11.52
551.643	11.55
551.987	11.44
552.33	11.61
552.674	11.77
553.017	11.82
553.361	11.64
553.704	11.49
554.048	11.66
554.391	11.77
554.734	11.52
555.077	11.75
555.42	11.75
555.764	11.77
556.107	12.06
556.45	11.91
556.793	11.97
557.135	12.14
557.478	12.13
557.821	12.16
558.164	12.01
558.507	12
558.849	12.13
559.192	12.19
559.534	12.05
559.877	12.06
560.219	12.27
560.562	12.25
560.904	12.45
561.246	12.1
561.589	12.29
561.931	12.57
562.273	12.23
562.615	12.51
562.957	12.42
563.299	12.46
563.641	12.79
563.983	12.48
564.325	12.48
564.667	12.57
565.008	12.5
565.35	12.78
565.692	12.88
566.033	12.62
566.375	12.53
566.716	12.74
567.058	12.8
567.399	12.77
567.741	12.77
568.082	12.57
568.423	12.69
568.764	12.85
569.105	13.02
569.447	12.78
569.788	13.05
570.129	13.07
570.47	13.07
570.811	13.05
571.151	12.95
571.492	13.06
571.833	13.08
572.174	12.9
572.514	13.01
572.855	13.32
573.195	12.91
573.536	13.44
573.876	13.04
574.217	13.35
574.557	13.5
574.898	13.14
575.238	13.41
575.578	13.52
575.918	13.43
576.258	13.5
576.598	13.53
576.938	13.64
577.278	13.46
577.618	13.54
577.958	13.68
578.298	13.75
578.638	13.67
578.977	13.95
579.317	13.84
579.657	13.82
579.996	13.68
580.336	13.88
580.675	14.05
581.014	13.87
581.354	14.23
581.693	14.25
582.032	13.9
582.372	14
582.711	14.2
583.05	14.44
583.389	14.26
583.728	14.14
584.067	14.56
584.406	14.43
584.745	14.23
585.083	14.82
585.422	14.38
585.761	14.44
586.1	14.42
586.438	14.46
586.777	14.81
587.115	14.59
587.454	14.48
587.792	14.38
588.13	14.89
588.469	14.66
588.807	14.6
589.145	14.75
589.483	14.42
589.821	14.82
590.159	14.79
590.497	14.79
590.835	14.86
591.173	14.94
591.511	14.88
591.849	14.92
592.187	14.97
592.524	15.11
592.862	15.05
593.2	15.09
593.537	15.13
593.875	15.08
594.212	15.1
594.55	15.43
594.887	15.34
595.224	15.12
595.561	15.23
595.899	15.3
596.236	15.15
596.573	15.33
596.91	15.33
597.247	15.24
597.584	15.39
597.921	15.63
598.258	15.38
598.594	15.21
598.931	15.3
599.268	15.46
599.604	15.73
599.941	15.58
600.277	15.68
600.614	15.72
600.95	15.99
601.287	15.72
601.623	15.94
601.959	15.83
602.296	16.12
602.632	16.21
602.968	15.9
603.304	15.86
603.64	16.03
603.976	15.99
604.312	15.93
604.648	16.42
604.984	15.89
605.319	16.14
605.655	16.16
605.991	16.18
606.326	16.01
606.662	16.15
606.998	16.22
607.333	16.24
607.668	16.33
608.004	16.51
608.339	16.34
608.674	16.21
609.01	16.6
609.345	16.69
609.68	16.41
610.015	16.52
610.35	16.46
610.685	16.4
611.02	16.56
611.355	16.63
611.689	16.29
612.024	16.82
612.359	16.78
612.694	16.81
613.028	17.16
613.363	16.83
613.697	17.08
614.032	17.27
614.366	16.71
614.7	17.18
615.035	17.16
615.369	17.06
615.703	17.64
616.037	17.3
616.371	16.95
616.705	17.44
617.039	17.59
617.373	17.48
617.707	17.65
618.041	17.6
618.375	17.18
618.709	17.61
619.042	17.51
619.376	17.58
619.71	17.65
620.043	17.38
620.377	17.52
620.71	17.47
621.043	17.21
621.377	17.68
621.71	17.81
622.043	17.63
622.376	17.59
622.709	17.93
623.043	17.9
623.376	18.31
623.709	18.22
624.041	17.97
624.374	18
624.707	17.9
625.04	18.55
625.373	17.93
625.705	18.37
626.038	18.05
626.37	18.02
626.703	17.84
627.035	18.22
627.368	18.41
627.7	18.2
628.032	18.12
628.365	18.08
628.697	18.09
629.029	18.44
629.361	17.87
629.693	18.59
630.025	18.42
630.357	18.27
630.689	18.86
631.021	18.71
631.353	18.77
631.684	18.73
632.016	18.65
632.348	18.65
632.679	18.98
633.011	18.99
633.342	18.61
633.674	19.16
634.005	18.58
634.336	19.06
634.668	18.78
634.999	18.97
635.33	18.78
635.661	18.81
635.992	18.69
636.323	19.13
636.654	18.88
636.985	19.04
637.316	18.95
637.647	18.99
637.977	19.23
638.308	18.99
638.639	19.16
638.969	19.28
639.3	19.45
639.63	18.59
639.961	18.94
640.291	19.27
640.622	19.28
640.952	19.17
641.282	19.08
641.612	19.1
641.943	19.57
642.273	19.67
642.603	19.61
642.933	19.85
643.263	19.85
643.592	19.9
643.922	20.2
644.252	19.83
644.582	19.65
644.911	19.89
645.241	19.8
645.571	20.24
645.9	20.35
646.23	19.64
646.559	19.95
646.888	19.47
647.218	19.79
647.547	20.23
647.876	20.3
648.205	19.5
648.534	20.05
648.863	19.89
649.192	19.66
649.521	19.83
649.85	20.2
650.179	19.86
650.508	20.4
650.837	20.36
651.165	20.31
651.494	20.45
651.822	20.53
652.151	20.62
652.479	20.87
652.808	20.28
653.136	20.24
653.465	20.74
653.793	20.99
654.121	20.26
654.449	20.84
654.777	20.38
655.105	20.82
655.433	21.14
655.761	20.42
656.089	20.85
656.417	20.35
656.745	20.95
657.073	21.04
657.4	20.82
657.728	20.56
658.056	20.85
658.383	20.46
658.711	20.59
659.038	20.95
659.365	20.78
659.693	21.07
660.02	20.76
660.347	21.16
660.674	20.92
661.001	20.69
661.329	20.96
661.656	21.18
661.982	20.87
662.309	21.26
662.636	21.39
662.963	21.24
663.29	21.13
663.616	21.23
663.943	21.43
664.27	21.45
664.596	21.15
664.923	21.82
665.249	21.79
665.576	21.57
665.902	21.43
666.228	21.57
666.554	21.32
666.881	22.17
667.207	20.92
667.533	21.73
667.859	21.58
668.185	21.89
668.511	21.58
668.837	21.52
669.162	21.86
669.488	21.69
669.814	22.83
670.139	22.05
670.465	22.08
670.791	22.35
671.116	21.48
671.442	21.95
671.767	21.34
672.092	21.92
672.418	21.87
672.743	21.84
673.068	21.59
673.393	22.12
673.718	22.11
674.043	22.21
674.368	22.67
674.693	22.25
675.018	22.19
675.343	22.4
675.667	22.32
675.992	21.96
676.317	21.96
676.641	22.55
676.966	22.31
677.29	22.58
677.615	22.13
677.939	22.56
678.264	22.22
678.588	22.64
678.912	22.74
679.236	22.58
679.56	22.08
679.885	23.04
680.209	21.77
680.532	22.22
680.856	22.46
681.18	22.65
681.504	22.11
681.828	22.17
682.152	22.56
