Data from 0075_forehead_Reflection__1__386.txt Node

Date: Fri Dec 16 17:07:08 CST 2022
User: ToomeyLab
Spectrometer: FLMS14357
Trigger mode: 0
Integration Time (sec): 1.000000E-2
Scans to average: 100
Electric dark correction enabled: true
Nonlinearity correction enabled: false
Boxcar width: 0
XAxis mode: Wavelengths
Number of Pixels in Spectrum: 2048
>>>>>Begin Spectral Data<<<<<
189.047	121.92
189.435	121.92
189.823	121.92
190.211	144.19
190.599	-2.02
190.987	238.02
191.375	65.16
191.763	176.41
192.151	153.86
192.538	4.37
192.926	-143.71
193.314	38.63
193.702	-82.82
194.089	1407.69
194.477	0.73
194.864	-13.67
195.252	71.64
195.639	76.31
196.027	425.94
196.414	-1343.24
196.801	176.1
197.189	101.92
197.576	-2429.41
197.963	-16.41
198.351	99.74
198.738	62.23
199.125	36.32
199.512	-10.48
199.899	-6.54
200.286	9.32
200.673	25.58
201.06	88.81
201.447	61.8
201.833	8.95
202.22	21.05
202.607	-6.34
202.994	41.38
203.38	3.54
203.767	13.65
204.154	-139.77
204.54	33.59
204.927	22
205.313	35.74
205.699	-0.57
206.086	30.27
206.472	0.23
206.858	40.79
207.245	41.23
207.631	40.87
208.017	28.14
208.403	53.52
208.789	26.19
209.175	79.46
209.561	22.71
209.947	21.47
210.333	6.94
210.719	24.47
211.105	17.02
211.491	20.28
211.876	-41.06
212.262	7.81
212.648	26.43
213.034	23.61
213.419	30.22
213.805	-17.43
214.19	16.96
214.576	27.61
214.961	14.42
215.346	-15.02
215.732	23.25
216.117	-9.83
216.502	-21.77
216.888	10.67
217.273	22.75
217.658	-7.91
218.043	3.03
218.428	2.77
218.813	-0.12
219.198	-6.92
219.583	0.98
219.968	19.22
220.353	26.63
220.738	2.05
221.122	5.51
221.507	21.29
221.892	12.26
222.276	6.02
222.661	17.72
223.046	2.47
223.43	0.22
223.815	20.55
224.199	3.72
224.583	3.32
224.968	8.61
225.352	0.99
225.736	15.14
226.121	-4.61
226.505	4.62
226.889	10.74
227.273	3.5
227.657	0.27
228.041	7.15
228.425	5.86
228.809	4.33
229.193	0.14
229.577	2.9
229.961	3.84
230.344	4.36
230.728	3.46
231.112	3.05
231.495	3.68
231.879	3.46
232.263	2.9
232.646	3.26
233.03	0.31
233.413	4.09
233.797	5.19
234.18	3.34
234.563	4.19
234.946	3.53
235.33	4.83
235.713	3.7
236.096	4.75
236.479	5.91
236.862	3.9
237.245	6.71
237.628	5.51
238.011	3.06
238.394	5.82
238.777	3.13
239.16	3.24
239.543	3.08
239.925	4.21
240.308	2.86
240.691	3.57
241.073	3.29
241.456	3.58
241.838	3.48
242.221	3.44
242.603	3.37
242.986	4.17
243.368	2.99
243.75	2.88
244.133	3.3
244.515	3.35
244.897	3.47
245.279	2.97
245.661	3.8
246.043	3.13
246.425	3.43
246.807	3.71
247.189	3.3
247.571	3.16
247.953	3.58
248.335	3.56
248.717	3.38
249.098	3.24
249.48	2.73
249.862	3.37
250.243	2.86
250.625	3.87
251.006	4.08
251.388	4.98
251.769	3.93
252.151	3.31
252.532	3.86
252.913	3.78
253.295	3.61
253.676	3.71
254.057	2.89
254.438	3.34
254.819	3.56
255.2	3.37
255.581	3.49
255.962	2.93
256.343	2.7
256.724	4.02
257.105	4.07
257.486	3.15
257.867	2.57
258.247	4.13
258.628	4.83
259.009	2.99
259.389	3.73
259.77	3.42
260.15	3.61
260.531	3.47
260.911	3.5
261.292	3.25
261.672	3.25
262.052	3.54
262.432	3.4
262.813	3.4
263.193	2.4
263.573	3.55
263.953	3.22
264.333	3.57
264.713	3.17
265.093	3.67
265.473	4.64
265.853	3.82
266.233	3.16
266.612	3.31
266.992	3.48
267.372	3.57
267.752	3.11
268.131	3.39
268.511	3.2
268.89	4.43
269.27	3.78
269.649	4.06
270.029	3.3
270.408	3.23
270.787	3.78
271.167	3.66
271.546	3.07
271.925	3.65
272.304	3.06
272.683	3
273.062	3.41
273.441	3.6
273.82	3.48
274.199	3.5
274.578	3.14
274.957	3.48
275.336	3.71
275.715	3.54
276.093	3.48
276.472	3.7
276.851	3.35
277.229	4.09
277.608	3.19
277.986	3.48
278.365	3.18
278.743	3.67
279.122	2.73
279.5	3.71
279.878	2.48
280.257	3.89
280.635	3.26
281.013	3.66
281.391	3.84
281.769	3.06
282.147	3.21
282.525	3.52
282.903	3.38
283.281	3.1
283.659	3.39
284.037	3.23
284.415	3.46
284.792	3.49
285.17	3.43
285.548	3.54
285.925	3.26
286.303	3.2
286.68	3.64
287.058	3.34
287.435	3.09
287.813	3.5
288.19	3.42
288.567	3.56
288.945	3.74
289.322	3.2
289.699	3.53
290.076	3.81
290.453	3.56
290.83	3.92
291.207	3.54
291.584	3.25
291.961	3.74
292.338	3.61
292.715	3.76
293.092	3.65
293.469	3.87
293.845	3.73
294.222	3.89
294.599	4.06
294.975	4.27
295.352	3.58
295.728	4.21
296.105	3.69
296.481	4.38
296.858	4.13
297.234	3.84
297.61	4.29
297.986	4.05
298.363	3.67
298.739	4.15
299.115	3.6
299.491	4.31
299.867	4.51
300.243	4.01
300.619	4.08
300.995	4.4
301.371	4.66
301.746	4.08
302.122	4.46
302.498	4.53
302.874	4.54
303.249	4.96
303.625	4.47
304	3.87
304.376	4.33
304.751	4.1
305.127	4.65
305.502	4.67
305.878	4.29
306.253	4.61
306.628	5
307.003	5.38
307.378	4.84
307.754	5.29
308.129	4.79
308.504	5.29
308.879	5.2
309.254	5.62
309.629	5.43
310.003	5.95
310.378	5.72
310.753	5.44
311.128	5.76
311.502	5.36
311.877	5.53
312.252	5.76
312.626	5.68
313.001	5.86
313.375	5.49
313.75	5.54
314.124	6.18
314.498	5.9
314.873	6.05
315.247	5.78
315.621	6.23
315.995	5.98
316.369	5.91
316.743	6.85
317.117	6.41
317.491	6.33
317.865	5.64
318.239	6.6
318.613	6.63
318.987	6.96
319.361	6.47
319.734	6.35
320.108	7.15
320.482	6.88
320.855	7.32
321.229	7.24
321.602	6.66
321.976	7.92
322.349	6.72
322.723	6.66
323.096	7.26
323.469	7.06
323.843	7.53
324.216	6.83
324.589	7.52
324.962	7.59
325.335	7.02
325.708	7.37
326.081	7.78
326.454	7.35
326.827	7.68
327.2	7.58
327.573	7.79
327.945	7.5
328.318	7.88
328.691	7.48
329.063	7.98
329.436	7.51
329.809	7.44
330.181	7.93
330.553	8.07
330.926	8.66
331.298	7.97
331.671	8.55
332.043	8.42
332.415	8.59
332.787	8.67
333.159	8.1
333.532	8.76
333.904	8.8
334.276	8.71
334.648	8.74
335.02	8.56
335.391	9.22
335.763	8.79
336.135	8.91
336.507	8.32
336.879	8.86
337.25	8.94
337.622	9.11
337.993	8.95
338.365	9.34
338.736	9.24
339.108	9.02
339.479	9.14
339.851	9.24
340.222	8.95
340.593	9.31
340.964	9.55
341.336	8.82
341.707	9.85
342.078	9.34
342.449	9.95
342.82	9.07
343.191	9.41
343.562	9.56
343.933	9.65
344.303	10.07
344.674	9.65
345.045	10.63
345.416	9.91
345.786	9.27
346.157	9.98
346.527	10.14
346.898	10.16
347.268	10.15
347.639	10.68
348.009	10.22
348.38	10.31
348.75	10.21
349.12	10.63
349.49	10.54
349.861	10.82
350.231	10.96
350.601	10.54
350.971	10.52
351.341	11.04
351.711	11.01
352.081	10.98
352.45	11.22
352.82	10.93
353.19	10.72
353.56	10.91
353.929	11.09
354.299	10.81
354.669	10.99
355.038	11.34
355.408	12.04
355.777	11.33
356.147	11.52
356.516	11.73
356.885	11.71
357.254	11.5
357.624	11.51
357.993	11.92
358.362	11.77
358.731	11.96
359.1	11.91
359.469	11.54
359.838	11.58
360.207	11.93
360.576	11.86
360.945	12.11
361.314	12.59
361.682	11.83
362.051	12.25
362.42	12.35
362.788	12.39
363.157	12.1
363.525	12.3
363.894	11.99
364.262	12.17
364.631	12.94
364.999	12.35
365.367	12.74
365.735	12.59
366.104	12.69
366.472	12.6
366.84	13.11
367.208	12.71
367.576	13.14
367.944	13.2
368.312	12.94
368.68	13.35
369.048	13.24
369.416	13.1
369.783	13.38
370.151	13.49
370.519	13.32
370.886	13.45
371.254	13.39
371.621	13.15
371.989	13.5
372.356	13.59
372.724	13.89
373.091	13.76
373.458	13.89
373.826	13.64
374.193	14.13
374.56	13.78
374.927	13.78
375.294	14.17
375.661	14.37
376.028	14.3
376.395	14.12
376.762	14.45
377.129	14.62
377.496	14.56
377.863	14.69
378.229	14.5
378.596	14.62
378.963	14.47
379.329	14.61
379.696	14.74
380.062	14.76
380.429	14.75
380.795	14.52
381.161	14.91
381.528	15.01
381.894	15.22
382.26	14.99
382.626	15.08
382.993	15
383.359	15.3
383.725	15.48
384.091	15.52
384.457	15.46
384.823	15.45
385.188	15.87
385.554	15.84
385.92	15.83
386.286	15.97
386.651	15.84
387.017	16.12
387.383	15.95
387.748	15.75
388.114	15.95
388.479	16.26
388.845	16.4
389.21	16.2
389.575	16.31
389.94	16.5
390.306	16.35
390.671	16.49
391.036	16.63
391.401	17.04
391.766	16.84
392.131	16.51
392.496	16.95
392.861	16.87
393.226	16.8
393.591	16.71
393.956	16.81
394.32	17.21
394.685	17.16
395.05	16.93
395.414	17.12
395.779	17.25
396.143	17.36
396.508	17.39
396.872	17.5
397.236	17.18
397.601	17.48
397.965	17.37
398.329	17.51
398.694	17.74
399.058	17.55
399.422	17.83
399.786	17.53
400.15	17.52
400.514	17.96
400.878	17.78
401.242	18.05
401.605	17.95
401.969	18.18
402.333	18.29
402.697	18.48
403.06	18.4
403.424	18.29
403.787	18.98
404.151	18.46
404.514	18.7
404.878	18.58
405.241	18.58
405.604	18.8
405.968	18.65
406.331	18.82
406.694	18.9
407.057	19.09
407.42	19.02
407.783	19.03
408.146	18.96
408.509	19.18
408.872	18.92
409.235	19.38
409.598	19.43
409.961	19.69
410.323	19.49
410.686	19.49
411.049	19.43
411.411	19.42
411.774	19.6
412.136	19.86
412.499	19.86
412.861	19.54
413.223	20.16
413.586	19.76
413.948	20.02
414.31	20.26
414.672	19.99
415.035	20.07
415.397	20.24
415.759	20.08
416.121	20.35
416.483	20.27
416.845	20.37
417.206	20.67
417.568	20.67
417.93	20.5
418.292	20.52
418.653	20.58
419.015	20.7
419.377	20.59
419.738	20.54
420.1	20.79
420.461	20.51
420.822	20.69
421.184	20.74
421.545	20.72
421.906	20.84
422.267	20.76
422.629	20.86
422.99	20.78
423.351	20.83
423.712	20.9
424.073	21.1
424.434	20.88
424.795	21.01
425.155	21.23
425.516	21.14
425.877	21.13
426.238	21.18
426.598	21.29
426.959	21.22
427.32	21.52
427.68	21.65
428.041	21.7
428.401	21.73
428.761	21.93
429.122	21.88
429.482	22.1
429.842	22.17
430.202	22.12
430.563	22.2
430.923	22.49
431.283	22.51
431.643	22.48
432.003	22.6
432.363	22.67
432.722	22.59
433.082	22.68
433.442	22.71
433.802	22.93
434.161	22.67
434.521	22.83
434.881	22.84
435.24	22.67
435.6	22.89
435.959	23.07
436.319	23.05
436.678	23.09
437.037	23.19
437.396	23.31
437.756	23.4
438.115	23.61
438.474	23.49
438.833	23.54
439.192	23.78
439.551	23.65
439.91	23.9
440.269	23.96
440.628	23.75
440.987	23.78
441.345	23.75
441.704	23.66
442.063	23.84
442.421	23.87
442.78	23.78
443.138	23.8
443.497	23.91
443.855	24.02
444.214	24.3
444.572	24.18
444.93	24.69
445.288	24.43
445.647	24.58
446.005	24.36
446.363	24.61
446.721	24.36
447.079	24.49
447.437	24.49
447.795	24.39
448.153	24.43
448.51	24.63
448.868	24.63
449.226	24.74
449.584	24.72
449.941	24.85
450.299	25.06
450.656	24.99
451.014	25.12
451.371	25.22
451.729	25.45
452.086	25.4
452.443	25.47
452.801	25.74
453.158	25.67
453.515	25.59
453.872	25.83
454.229	25.77
454.586	25.81
454.943	25.68
455.3	26.09
455.657	25.85
456.014	26.19
456.371	26.23
456.727	26.16
457.084	26.32
457.441	26.31
457.797	26.33
458.154	26.52
458.51	26.38
458.867	26.51
459.223	26.7
459.58	26.58
459.936	26.65
460.292	26.62
460.648	26.72
461.005	26.58
461.361	26.42
461.717	26.35
462.073	26.43
462.429	26.46
462.785	26.87
463.141	26.94
463.496	26.89
463.852	27.21
464.208	27.23
464.564	27.45
464.919	27.31
465.275	27.44
465.631	27.66
465.986	27.88
466.342	27.69
466.697	27.9
467.052	27.66
467.408	27.77
467.763	27.82
468.118	28.05
468.473	27.95
468.829	28.03
469.184	28.12
469.539	27.93
469.894	28.09
470.249	28.22
470.603	28.58
470.958	28.28
471.313	28.23
471.668	28.48
472.023	28.76
472.377	28.62
472.732	28.73
473.086	28.49
473.441	28.74
473.795	29.13
474.15	28.91
474.504	28.96
474.859	28.75
475.213	28.95
475.567	28.99
475.921	29.22
476.275	29.26
476.63	29.22
476.984	29.03
477.338	29.53
477.692	29.45
478.045	29.45
478.399	29.63
478.753	29.49
479.107	29.48
479.461	29.35
479.814	29.43
480.168	29.58
480.521	29.51
480.875	29.62
481.228	29.8
481.582	29.72
481.935	29.73
482.289	29.91
482.642	29.84
482.995	29.82
483.348	29.79
483.701	29.63
484.055	29.79
484.408	29.66
484.761	29.42
485.114	29.42
485.466	29.37
485.819	29.1
486.172	28.84
486.525	28.86
486.878	29.19
487.23	29.47
487.583	29.78
487.936	29.98
488.288	30.01
488.641	29.93
488.993	29.76
489.345	29.72
489.698	29.73
490.05	29.76
490.402	29.8
490.754	29.94
491.107	30.21
491.459	30.54
491.811	30.71
492.163	30.72
492.515	30.74
492.866	30.58
493.218	30.56
493.57	30.37
493.922	30.51
494.274	30.45
494.625	30.66
494.977	31.07
495.328	31.4
495.68	31.5
496.031	31.64
496.383	31.72
496.734	31.89
497.086	31.86
497.437	32
497.788	32.07
498.139	32
498.49	31.89
498.842	31.84
499.193	31.99
499.544	32.12
499.894	32.25
500.245	32.5
500.596	32.39
500.947	32.29
501.298	32.44
501.648	32.64
501.999	32.83
502.35	32.76
502.7	32.72
503.051	32.9
503.401	32.97
503.752	33.1
504.102	33.15
504.452	33.27
504.803	33.07
505.153	33.18
505.503	33
505.853	33.16
506.203	33.34
506.553	33.28
506.903	33.2
507.253	33.38
507.603	33.44
507.953	33.57
508.303	33.64
508.652	33.64
509.002	33.69
509.352	33.77
509.701	33.61
510.051	33.7
510.4	33.72
510.75	33.58
511.099	33.86
511.449	33.82
511.798	33.87
512.147	33.88
512.496	34.08
512.846	33.98
513.195	33.91
513.544	34.02
513.893	34.14
514.242	34.31
514.591	34.15
514.939	34.37
515.288	34.39
515.637	34.37
515.986	34.6
516.334	34.89
516.683	34.87
517.032	34.7
517.38	34.87
517.729	34.87
518.077	34.84
518.426	34.81
518.774	34.87
519.122	34.81
519.47	34.86
519.819	34.61
520.167	34.59
520.515	34.69
520.863	34.6
521.211	34.51
521.559	34.83
521.907	34.97
522.255	35.12
522.602	35.2
522.95	35.28
523.298	35.52
523.645	35.59
523.993	35.69
524.341	35.71
524.688	35.81
525.036	35.68
525.383	35.96
525.73	35.83
526.078	35.81
526.425	35.69
526.772	35.63
527.119	35.67
527.466	35.6
527.814	35.46
528.161	35.37
528.508	35.61
528.854	35.64
529.201	35.81
529.548	35.72
529.895	35.65
530.242	35.51
530.588	35.31
530.935	35.07
531.282	35.07
531.628	35.34
531.975	35.63
532.321	35.82
532.667	35.99
533.014	36.15
533.36	36.33
533.706	36.42
534.052	36.39
534.399	36.32
534.745	36.26
535.091	36.27
535.437	36.05
535.783	36.15
536.129	36.07
536.474	36.46
536.82	36.58
537.166	36.99
537.512	36.95
537.857	37.01
538.203	36.99
538.549	36.92
538.894	36.76
539.239	36.83
539.585	37.03
539.93	37.27
540.276	37.36
540.621	37.56
540.966	37.74
541.311	37.71
541.656	37.65
542.001	37.67
542.346	37.66
542.691	37.51
543.036	37.25
543.381	37.18
543.726	36.97
544.071	37.08
544.415	37.31
544.76	37.48
545.105	37.53
545.449	37.63
545.794	37.85
546.138	38.05
546.483	38.08
546.827	38.23
547.171	38.34
547.516	38.48
547.86	38.5
548.204	38.34
548.548	38.42
548.892	38.61
549.236	38.37
549.58	38.5
549.924	38.71
550.268	38.87
550.612	38.98
550.956	39.1
551.3	39.34
551.643	39.31
551.987	39.62
552.33	39.33
552.674	39.72
553.017	39.53
553.361	39.46
553.704	39.73
554.048	39.6
554.391	39.57
554.734	39.54
555.077	39.59
555.42	39.85
555.764	39.71
556.107	39.89
556.45	39.88
556.793	40.22
557.135	39.92
557.478	40.15
557.821	40.03
558.164	40.53
558.507	40.27
558.849	40.5
559.192	40.49
559.534	40.33
559.877	40.67
560.219	40.77
560.562	40.3
560.904	40.67
561.246	40.62
561.589	40.77
561.931	40.93
562.273	40.54
562.615	41
562.957	40.95
563.299	40.96
563.641	41.06
563.983	41.03
564.325	40.66
564.667	41
565.008	41.11
565.35	41.19
565.692	41.33
566.033	41.17
566.375	41.4
566.716	41.46
567.058	41.35
567.399	41.4
567.741	41.44
568.082	41.17
568.423	41.21
568.764	41.33
569.105	41.33
569.447	41.57
569.788	41.36
570.129	41.56
570.47	41.59
570.811	41.58
571.151	41.65
571.492	41.79
571.833	41.76
572.174	41.85
572.514	41.72
572.855	42.16
573.195	41.98
573.536	41.83
573.876	41.89
574.217	41.94
574.557	41.93
574.898	41.88
575.238	42.21
575.578	42.46
575.918	42.36
576.258	42.37
576.598	42.38
576.938	42.15
577.278	42.17
577.618	42.26
577.958	42.27
578.298	42.66
578.638	42.55
578.977	42.69
579.317	42.74
579.657	42.7
579.996	42.82
580.336	43.07
580.675	43.12
581.014	43.06
581.354	43.1
581.693	43.12
582.032	43.32
582.372	43.15
582.711	43.35
583.05	43.46
583.389	43.46
583.728	43.65
584.067	43.58
584.406	43.85
584.745	43.84
585.083	43.68
585.422	43.88
585.761	43.88
586.1	43.83
586.438	43.79
586.777	43.93
587.115	44.04
587.454	43.82
587.792	44.16
588.13	44.09
588.469	43.97
588.807	44.06
589.145	43.87
589.483	44.37
589.821	44.17
590.159	44.15
590.497	44.08
590.835	44.47
591.173	44.18
591.511	44.33
591.849	44.49
592.187	44.85
592.524	44.23
592.862	44.4
593.2	44.87
593.537	44.46
593.875	45.03
594.212	44.78
594.55	44.69
594.887	45
595.224	44.83
595.561	45.06
595.899	45.06
596.236	45.18
596.573	44.56
596.91	44.59
597.247	44.99
597.584	45.07
597.921	45.24
598.258	45.07
598.594	44.75
598.931	44.96
599.268	44.56
599.604	44.89
599.941	44.94
600.277	45.14
600.614	45.06
600.95	45.14
601.287	45.38
601.623	45.71
601.959	45.54
602.296	45.55
602.632	45.89
602.968	45.55
603.304	45.69
603.64	45.49
603.976	46.01
604.312	45.69
604.648	46.02
604.984	46.07
605.319	45.78
605.655	45.58
605.991	45.87
606.326	45.64
606.662	45.8
606.998	45.86
607.333	45.81
607.668	45.75
608.004	45.93
608.339	45.89
608.674	45.96
609.01	46.12
609.345	46.31
609.68	46.49
610.015	46.7
610.35	46.55
610.685	46.34
611.02	46.58
611.355	46.54
611.689	46.38
612.024	46.48
612.359	46.44
612.694	46.31
613.028	46.76
613.363	46.75
613.697	46.7
614.032	47.08
614.366	46.94
614.7	47.42
615.035	46.94
615.369	46.92
615.703	47.4
616.037	47.08
616.371	47.27
616.705	47.41
617.039	47.5
617.373	47.25
617.707	47.64
618.041	46.98
618.375	47.12
618.709	47.06
619.042	47.5
619.376	47.61
619.71	47.36
620.043	47.48
620.377	47.75
620.71	47.64
621.043	47.17
621.377	47.49
621.71	47.37
622.043	47.28
622.376	48.05
622.709	48.12
623.043	47.91
623.376	48.03
623.709	48.22
624.041	47.81
624.374	47.95
624.707	48.14
625.04	48.39
625.373	47.98
625.705	47.75
626.038	47.93
626.37	47.89
626.703	48.25
627.035	48.47
627.368	48.74
627.7	48.11
628.032	48.26
628.365	47.9
628.697	48.34
629.029	48.41
629.361	47.79
629.693	48.41
630.025	48.64
630.357	48.27
630.689	48.88
631.021	48.92
631.353	48.73
631.684	48.82
632.016	48.61
632.348	48.8
632.679	48.61
633.011	48.78
633.342	48.82
633.674	49.16
634.005	48.85
634.336	48.54
634.668	48.96
634.999	49.52
635.33	48.74
635.661	49.2
635.992	48.93
636.323	48.92
636.654	48.84
636.985	49.22
637.316	49.44
637.647	49.57
637.977	49.27
638.308	49.35
638.639	49.05
638.969	49.32
639.3	49.41
639.63	49.41
639.961	49.3
640.291	49.18
640.622	49.49
640.952	49.86
641.282	49.68
641.612	49.38
641.943	49.35
642.273	49.82
642.603	49.76
642.933	49.68
643.263	50.46
643.592	50.31
643.922	49.96
644.252	49.81
644.582	49.98
644.911	50.21
645.241	49.9
645.571	50.01
645.9	50.2
646.23	49.83
646.559	50.43
646.888	49.69
647.218	49.91
647.547	49.83
647.876	49.96
648.205	49.93
648.534	50.06
648.863	50.2
649.192	50.13
649.521	50.18
649.85	50.65
650.179	50.18
650.508	51.15
650.837	50.65
651.165	50.61
651.494	50.79
651.822	50.54
652.151	51.07
652.479	50.99
652.808	50.01
653.136	50.62
653.465	51.11
653.793	51.18
654.121	50.66
654.449	50.78
654.777	51.18
655.105	50.82
655.433	51.52
655.761	50.57
656.089	50.19
656.417	50.76
656.745	51.27
657.073	51.34
657.4	50.84
657.728	51.03
658.056	50.5
658.383	51.39
658.711	51.06
659.038	51.42
659.365	51.62
659.693	51.59
660.02	51.27
660.347	51.39
660.674	51.67
661.001	51.29
661.329	51.74
661.656	51.19
661.982	51.96
662.309	51.55
662.636	51.27
662.963	51.86
663.29	51.68
663.616	51.72
663.943	51.99
664.27	51.93
664.596	52.01
664.923	51.78
665.249	52.76
665.576	51.5
665.902	51.52
666.228	51.99
666.554	51.4
666.881	52.42
667.207	51.91
667.533	52.15
667.859	52.6
668.185	52.79
668.511	51.74
668.837	51.79
669.162	52.36
669.488	52.26
669.814	52.64
670.139	52.13
670.465	52.47
670.791	52.16
