Data from 0075_forehead_Reflection__3__388.txt Node

Date: Fri Dec 16 17:07:30 CST 2022
User: ToomeyLab
Spectrometer: FLMS14357
Trigger mode: 0
Integration Time (sec): 1.000000E-2
Scans to average: 100
Electric dark correction enabled: true
Nonlinearity correction enabled: false
Boxcar width: 0
XAxis mode: Wavelengths
Number of Pixels in Spectrum: 2048
>>>>>Begin Spectral Data<<<<<
189.047	219.79
189.435	219.79
189.823	219.79
190.211	75.96
190.599	-16.82
190.987	0.39
191.375	31.8
191.763	316.5
192.151	-112.4
192.538	48.65
192.926	103.01
193.314	120.92
193.702	-166.37
194.089	1404.03
194.477	-334.03
194.864	-317.79
195.252	24.49
195.639	58.01
196.027	224.51
196.414	-2934.23
196.801	54.13
197.189	188.11
197.576	15864.71
197.963	21.21
198.351	51.64
198.738	-3.9
199.125	37.03
199.512	49.9
199.899	-7.29
200.286	-35.96
200.673	33.66
201.06	20.71
201.447	62.34
201.833	29.09
202.22	30.73
202.607	23.69
202.994	9.89
203.38	-31.59
203.767	-58.34
204.154	-57.61
204.54	67.98
204.927	38.68
205.313	30.02
205.699	15.01
206.086	2.97
206.472	-19.07
206.858	22.78
207.245	-4.25
207.631	-16.99
208.017	31.01
208.403	-14.26
208.789	13.45
209.175	61.85
209.561	16.45
209.947	43.26
210.333	24.02
210.719	44
211.105	8.85
211.491	3.85
211.876	19.98
212.262	-18.63
212.648	-26.25
213.034	26.49
213.419	21.77
213.805	51.63
214.19	18.92
214.576	6.16
214.961	-2.56
215.346	4.32
215.732	11.41
216.117	22.79
216.502	9.11
216.888	5.29
217.273	33.14
217.658	-5.19
218.043	4.67
218.428	19.39
218.813	-10.93
219.198	-10.71
219.583	6.98
219.968	3.14
220.353	14.92
220.738	1.16
221.122	-21.97
221.507	-9
221.892	3.39
222.276	12.44
222.661	-0.99
223.046	8.45
223.43	0.81
223.815	11.41
224.199	19
224.583	7.1
224.968	3.98
225.352	1.67
225.736	9.47
226.121	-0.96
226.505	3.29
226.889	12.18
227.273	7.79
227.657	2.21
228.041	7.3
228.425	5.87
228.809	8.68
229.193	4.02
229.577	4.06
229.961	5.85
230.344	5.48
230.728	4.89
231.112	3.62
231.495	3.62
231.879	5.38
232.263	4.26
232.646	4.76
233.03	3.27
233.413	4.37
233.797	6.94
234.18	3.58
234.563	3.5
234.946	3.1
235.33	6.53
235.713	4.57
236.096	4.23
236.479	4.19
236.862	7.62
237.245	5.49
237.628	4.87
238.011	4.6
238.394	5.07
238.777	5.09
239.16	1.9
239.543	3.88
239.925	4.96
240.308	5.29
240.691	3.87
241.073	3.9
241.456	4.14
241.838	5.23
242.221	3.91
242.603	5.11
242.986	5.99
243.368	4.36
243.75	4.44
244.133	4.62
244.515	4.51
244.897	4.02
245.279	4.64
245.661	4.94
246.043	4.46
246.425	4.15
246.807	4.23
247.189	3.73
247.571	5.18
247.953	4.59
248.335	4.5
248.717	4.68
249.098	4.66
249.48	4.37
249.862	4.58
250.243	4.25
250.625	4.53
251.006	4.26
251.388	6.13
251.769	4.7
252.151	4.57
252.532	4.66
252.913	5
253.295	4.52
253.676	4.64
254.057	4.6
254.438	3.83
254.819	4.33
255.2	5.27
255.581	4.52
255.962	3.93
256.343	4.82
256.724	3.86
257.105	4.56
257.486	5.02
257.867	3.77
258.247	4.79
258.628	5.68
259.009	4.83
259.389	5.6
259.77	4.71
260.15	5.45
260.531	4.45
260.911	4.6
261.292	4.33
261.672	4.32
262.052	4.23
262.432	4.35
262.813	4.98
263.193	4.1
263.573	4.78
263.953	4.73
264.333	4.56
264.713	4.17
265.093	4.06
265.473	5.38
265.853	4.07
266.233	4.11
266.612	5.12
266.992	3.82
267.372	4.39
267.752	4.48
268.131	4.54
268.511	4.39
268.89	5.09
269.27	4.34
269.649	4.5
270.029	4.67
270.408	4.74
270.787	5.08
271.167	3.98
271.546	4.28
271.925	5.15
272.304	4.83
272.683	4
273.062	4.61
273.441	4.56
273.82	4.67
274.199	4.34
274.578	4.17
274.957	4.08
275.336	4.04
275.715	5.05
276.093	5.2
276.472	4.3
276.851	4.88
277.229	5.35
277.608	4.53
277.986	4.31
278.365	4.1
278.743	4.62
279.122	4.06
279.5	4.49
279.878	3.86
280.257	4.7
280.635	4.12
281.013	4.55
281.391	4.06
281.769	4.19
282.147	4.47
282.525	4.31
282.903	4.89
283.281	4.24
283.659	4.02
284.037	3.81
284.415	4.8
284.792	4.68
285.17	4.29
285.548	4.35
285.925	4.33
286.303	4.29
286.68	4.68
287.058	4.7
287.435	4.37
287.813	4.45
288.19	5.02
288.567	4.23
288.945	4.11
289.322	4.35
289.699	4.89
290.076	5.1
290.453	5.08
290.83	4.77
291.207	4.61
291.584	4.58
291.961	4.84
292.338	4.62
292.715	4.32
293.092	4.65
293.469	4.58
293.845	4.93
294.222	4.9
294.599	4.68
294.975	5.19
295.352	4.93
295.728	5.13
296.105	4.89
296.481	5.75
296.858	5.19
297.234	4.98
297.61	5
297.986	5.17
298.363	4.75
298.739	5.17
299.115	4.93
299.491	5.36
299.867	5.21
300.243	5.14
300.619	5.14
300.995	5.46
301.371	5.76
301.746	5.12
302.122	5.12
302.498	5.87
302.874	5.5
303.249	5.78
303.625	5.46
304	5.82
304.376	5.6
304.751	5.21
305.127	5.89
305.502	5.94
305.878	5.57
306.253	5.54
306.628	6.15
307.003	5.9
307.378	5.03
307.754	6.22
308.129	6.03
308.504	6.1
308.879	5.73
309.254	6.26
309.629	6.07
310.003	6.26
310.378	5.99
310.753	5.98
311.128	6.12
311.502	6.13
311.877	6.26
312.252	6.18
312.626	6.2
313.001	6.27
313.375	6.7
313.75	5.97
314.124	7.16
314.498	6.45
314.873	5.99
315.247	6.49
315.621	6.77
315.995	6.81
316.369	7.06
316.743	6.99
317.117	7.04
317.491	6.44
317.865	6.53
318.239	7.2
318.613	7.49
318.987	6.62
319.361	7.09
319.734	7.29
320.108	7.09
320.482	7.44
320.855	6.89
321.229	7.78
321.602	7.12
321.976	6.97
322.349	6.87
322.723	6.99
323.096	6.84
323.469	7.38
323.843	7.7
324.216	6.81
324.589	7.43
324.962	7.4
325.335	7.73
325.708	7.77
326.081	8.43
326.454	7.79
326.827	7.94
327.2	8.22
327.573	7.6
327.945	7.46
328.318	7.97
328.691	7.97
329.063	7.77
329.436	7.44
329.809	7.41
330.181	7.82
330.553	8.89
330.926	8.36
331.298	8.14
331.671	8.14
332.043	8.3
332.415	8.49
332.787	8.5
333.159	8.06
333.532	8.2
333.904	8.74
334.276	8.29
334.648	8.71
335.02	8.06
335.391	8.35
335.763	8.92
336.135	8.22
336.507	8.22
336.879	8.78
337.25	8.83
337.622	8.64
337.993	8.91
338.365	8.75
338.736	9
339.108	8.77
339.479	8.71
339.851	9.4
340.222	8.91
340.593	8.83
340.964	8.88
341.336	8.92
341.707	9.05
342.078	8.66
342.449	9.05
342.82	8.56
343.191	9.17
343.562	9.42
343.933	9.31
344.303	9.43
344.674	9.36
345.045	9.64
345.416	9
345.786	9.24
346.157	9.47
346.527	9.19
346.898	9.71
347.268	9.42
347.639	9.36
348.009	9.9
348.38	9.99
348.75	9.73
349.12	9.47
349.49	9.85
349.861	10.19
350.231	10.31
350.601	9.85
350.971	9.82
351.341	9.71
351.711	9.87
352.081	10.14
352.45	10.51
352.82	10.08
353.19	9.81
353.56	10.4
353.929	10.53
354.299	10.39
354.669	10.25
355.038	10.06
355.408	10.83
355.777	10.19
356.147	10.81
356.516	10.87
356.885	10.25
357.254	10.71
357.624	10.85
357.993	10.27
358.362	10.93
358.731	10.48
359.1	11.06
359.469	10.85
359.838	10.64
360.207	10.58
360.576	10.75
360.945	10.83
361.314	10.97
361.682	10.72
362.051	10.82
362.42	11.45
362.788	10.93
363.157	10.75
363.525	10.86
363.894	10.87
364.262	11.12
364.631	11.53
364.999	11.18
365.367	11.51
365.735	10.88
366.104	10.97
366.472	11.41
366.84	11.55
367.208	10.92
367.576	11.73
367.944	12.02
368.312	11.49
368.68	11.83
369.048	11.89
369.416	11.95
369.783	11.6
370.151	11.73
370.519	11.88
370.886	11.75
371.254	11.99
371.621	12.06
371.989	11.95
372.356	12.04
372.724	12.16
373.091	12.14
373.458	12.16
373.826	12.24
374.193	12.83
374.56	12.19
374.927	12.18
375.294	12.81
375.661	12.32
376.028	12.43
376.395	12.28
376.762	12.53
377.129	12.85
377.496	12.58
377.863	12.69
378.229	12.83
378.596	12.66
378.963	12.58
379.329	12.83
379.696	13
380.062	12.92
380.429	12.73
380.795	12.54
381.161	12.95
381.528	12.4
381.894	13.32
382.26	13
382.626	12.76
382.993	12.88
383.359	12.91
383.725	13.31
384.091	13.14
384.457	13.61
384.823	13.24
385.188	14.06
385.554	13.45
385.92	13.55
386.286	13.82
386.651	13.69
387.017	13.34
387.383	13.61
387.748	13.52
388.114	13.75
388.479	14.08
388.845	13.67
389.21	13.7
389.575	14.14
389.94	14.23
390.306	14.06
390.671	13.75
391.036	14.14
391.401	14.42
391.766	14.21
392.131	13.96
392.496	14.16
392.861	13.94
393.226	14.34
393.591	14.17
393.956	14.23
394.32	14.41
394.685	14.42
395.05	14.55
395.414	14.46
395.779	14.45
396.143	14.6
396.508	14.86
396.872	14.73
397.236	14.09
397.601	14.81
397.965	14.67
398.329	14.8
398.694	14.57
399.058	14.89
399.422	14.96
399.786	15.02
400.15	15.09
400.514	14.86
400.878	15.04
401.242	15.5
401.605	15.03
401.969	15.24
402.333	15.09
402.697	15.3
403.06	15.27
403.424	15.31
403.787	15.39
404.151	15.2
404.514	15.35
404.878	15.54
405.241	15.59
405.604	15.38
405.968	15.61
406.331	15.58
406.694	15.43
407.057	15.93
407.42	15.68
407.783	15.61
408.146	15.71
408.509	15.81
408.872	15.54
409.235	16.09
409.598	16.08
409.961	16.05
410.323	16.21
410.686	15.91
411.049	16.14
411.411	15.81
411.774	15.9
412.136	16.11
412.499	16.17
412.861	16.08
413.223	16.3
413.586	16.37
413.948	16.35
414.31	16.5
414.672	16.38
415.035	16.66
415.397	16.62
415.759	16.38
416.121	16.71
416.483	16.62
416.845	16.71
417.206	16.61
417.568	16.66
417.93	16.64
418.292	16.67
418.653	16.62
419.015	16.9
419.377	16.78
419.738	16.78
420.1	16.6
420.461	16.65
420.822	17.02
421.184	16.7
421.545	16.81
421.906	16.88
422.267	16.8
422.629	16.77
422.99	16.83
423.351	16.86
423.712	17.11
424.073	17.16
424.434	17.09
424.795	17.19
425.155	17.2
425.516	17.12
425.877	17.07
426.238	17.11
426.598	17.38
426.959	17.47
427.32	17.52
427.68	17.66
428.041	17.79
428.401	17.61
428.761	17.76
429.122	17.76
429.482	17.82
429.842	18.11
430.202	18.01
430.563	17.88
430.923	18.18
431.283	18.03
431.643	18.23
432.003	18.28
432.363	18.32
432.722	18.13
433.082	18.33
433.442	18.41
433.802	18.41
434.161	18.44
434.521	18.34
434.881	18.51
435.24	18.5
435.6	18.52
435.959	18.57
436.319	18.63
436.678	18.67
437.037	18.65
437.396	18.87
437.756	18.8
438.115	18.95
438.474	18.95
438.833	18.93
439.192	19.01
439.551	19.08
439.91	19.06
440.269	19.12
440.628	19.14
440.987	19.03
441.345	19.12
441.704	19.2
442.063	19.07
442.421	19.27
442.78	19.14
443.138	19.39
443.497	19.5
443.855	19.46
444.214	19.73
444.572	19.57
444.93	19.65
445.288	19.78
445.647	19.76
446.005	19.68
446.363	19.69
446.721	19.56
447.079	19.62
447.437	19.66
447.795	19.58
448.153	19.49
448.51	19.82
448.868	19.96
449.226	20.07
449.584	19.98
449.941	20.17
450.299	20.14
450.656	20.46
451.014	20.35
451.371	20.41
451.729	20.34
452.086	20.3
452.443	20.6
452.801	20.68
453.158	20.65
453.515	20.63
453.872	20.68
454.229	20.63
454.586	20.66
454.943	20.73
455.3	21.01
455.657	20.83
456.014	20.94
456.371	21.14
456.727	21.03
457.084	21.22
457.441	21.3
457.797	21
458.154	21.16
458.51	21.22
458.867	21.2
459.223	21.43
459.58	21.35
459.936	21.24
460.292	21.37
460.648	21.38
461.005	20.99
461.361	21.07
461.717	21.22
462.073	21.44
462.429	21.62
462.785	21.76
463.141	21.66
463.496	21.64
463.852	22.09
464.208	21.97
464.564	21.97
464.919	22
465.275	22.1
465.631	22.17
465.986	22.13
466.342	22.21
466.697	22.23
467.052	22.45
467.408	22.3
467.763	22.27
468.118	22.38
468.473	22.21
468.829	22.37
469.184	22.49
469.539	22.37
469.894	22.54
470.249	22.74
470.603	22.59
470.958	22.87
471.313	22.62
471.668	22.8
472.023	22.88
472.377	22.9
472.732	22.92
473.086	22.91
473.441	23.12
473.795	23.22
474.15	23.17
474.504	23.23
474.859	23.1
475.213	23.3
475.567	23.32
475.921	23.31
476.275	23.47
476.63	23.55
476.984	23.37
477.338	23.73
477.692	23.51
478.045	23.46
478.399	23.69
478.753	23.52
479.107	23.53
479.461	23.55
479.814	23.63
480.168	23.59
480.521	23.69
480.875	23.8
481.228	23.93
481.582	23.87
481.935	23.96
482.289	23.72
482.642	23.91
482.995	23.66
483.348	23.89
483.701	23.7
484.055	23.57
484.408	23.38
484.761	23.21
485.114	23.08
485.466	23.1
485.819	23.17
486.172	23.36
486.525	23.4
486.878	23.61
487.23	23.83
487.583	24
487.936	23.99
488.288	23.96
488.641	23.79
488.993	23.72
489.345	23.75
489.698	23.93
490.05	23.93
490.402	24.06
490.754	24.27
491.107	24.35
491.459	24.53
491.811	24.61
492.163	24.72
492.515	24.43
492.866	24.17
493.218	24.18
493.57	24.4
493.922	24.54
494.274	24.74
494.625	24.79
494.977	25.02
495.328	25.33
495.68	25.53
496.031	25.67
496.383	25.64
496.734	25.63
497.086	25.59
497.437	25.65
497.788	25.69
498.139	25.58
498.49	25.61
498.842	25.67
499.193	25.82
499.544	25.8
499.894	25.92
500.245	25.97
500.596	26.05
500.947	26.05
501.298	26.15
501.648	26.26
501.999	26.41
502.35	26.46
502.7	26.45
503.051	26.72
503.401	26.51
503.752	26.63
504.102	26.63
504.452	26.59
504.803	26.53
505.153	26.78
505.503	26.64
505.853	26.73
506.203	26.83
506.553	26.89
506.903	26.85
507.253	27.04
507.603	26.99
507.953	27.16
508.303	27.08
508.652	26.98
509.002	27.24
509.352	27.15
509.701	27.04
510.051	27.15
510.4	27.11
510.75	27.01
511.099	27.09
511.449	27.23
511.798	27.41
512.147	27.3
512.496	27.46
512.846	27.4
513.195	27.57
513.544	27.61
513.893	27.44
514.242	27.63
514.591	27.69
514.939	27.69
515.288	27.83
515.637	27.86
515.986	28.03
516.334	28
516.683	27.97
517.032	27.99
517.38	28.09
517.729	28.15
518.077	28.33
518.426	28.21
518.774	28.01
519.122	27.92
519.47	28.05
519.819	27.99
520.167	27.97
520.515	27.91
520.863	28.18
521.211	28.25
521.559	28.2
521.907	28.45
522.255	28.52
522.602	28.7
522.95	28.59
523.298	28.65
523.645	28.81
523.993	28.91
524.341	28.96
524.688	28.86
525.036	28.91
525.383	29.1
525.73	29.09
526.078	29.04
526.425	28.94
526.772	28.64
527.119	28.6
527.466	28.73
527.814	28.76
528.161	28.86
528.508	28.94
528.854	28.83
529.201	28.74
529.548	28.56
529.895	28.45
530.242	28.41
530.588	28.53
530.935	28.6
531.282	28.69
531.628	28.97
531.975	29.08
532.321	29.22
532.667	29.5
533.014	29.34
533.36	29.64
533.706	29.66
534.052	29.55
534.399	29.28
534.745	29.26
535.091	29.37
535.437	29.43
535.783	29.55
536.129	29.72
536.474	29.88
536.82	29.91
537.166	30.05
537.512	30
537.857	29.81
538.203	29.95
538.549	30.12
538.894	30.05
539.239	30.28
539.585	30.44
539.93	30.72
540.276	30.59
540.621	30.7
540.966	30.83
541.311	30.7
541.656	30.6
542.001	30.65
542.346	30.38
542.691	30.08
543.036	30.08
543.381	30.3
543.726	30.42
544.071	30.47
544.415	30.6
544.76	30.56
545.105	30.76
545.449	30.9
545.794	30.92
546.138	31.23
546.483	31.28
546.827	31.31
547.171	31.28
547.516	31.5
547.86	31.36
548.204	31.3
548.548	31.39
548.892	31.53
549.236	31.62
549.58	31.64
549.924	31.77
550.268	32.02
550.612	31.81
550.956	32.15
551.3	32.2
551.643	32.33
551.987	32.24
552.33	32.25
552.674	32.2
553.017	32.58
553.361	32.66
553.704	32.38
554.048	32.32
554.391	32.24
554.734	32.4
555.077	32.65
555.42	32.65
555.764	32.79
556.107	32.77
556.45	32.76
556.793	32.91
557.135	33.01
557.478	33.12
557.821	33.04
558.164	33.01
558.507	33.13
558.849	33.17
559.192	33.31
559.534	33.06
559.877	33.22
560.219	33.37
560.562	33.49
560.904	33.5
561.246	33.46
561.589	33.77
561.931	33.54
562.273	33.42
562.615	33.55
562.957	33.76
563.299	33.71
563.641	33.9
563.983	33.69
564.325	33.64
564.667	33.94
565.008	34.13
565.35	34.12
565.692	34.03
566.033	34.2
566.375	33.91
566.716	34.1
567.058	34
567.399	33.97
567.741	33.96
568.082	33.99
568.423	34.17
568.764	34.07
569.105	34.23
569.447	34.29
569.788	34.51
570.129	34.44
570.47	34.54
570.811	34.78
571.151	34.6
571.492	34.65
571.833	34.77
572.174	34.81
572.514	34.72
572.855	34.79
573.195	34.59
573.536	34.59
573.876	34.72
574.217	34.76
574.557	34.7
574.898	34.79
575.238	34.96
575.578	35.21
575.918	35.17
576.258	35.07
576.598	35.21
576.938	35.05
577.278	34.82
577.618	35.04
577.958	35.13
578.298	35.27
578.638	35.28
578.977	35.45
579.317	35.42
579.657	35.45
579.996	35.79
580.336	35.83
580.675	35.96
581.014	35.9
581.354	35.92
581.693	35.96
582.032	36.06
582.372	35.94
582.711	36.21
583.05	36.46
583.389	35.95
583.728	36.16
584.067	36.36
584.406	36.59
584.745	36.56
585.083	36.63
585.422	36.41
585.761	36.27
586.1	36.59
586.438	36.39
586.777	36.3
587.115	36.75
587.454	36.4
587.792	36.5
588.13	36.62
588.469	37.01
588.807	36.73
589.145	36.8
589.483	36.94
589.821	37.01
590.159	36.87
590.497	36.76
590.835	36.96
591.173	37.06
591.511	36.85
591.849	36.84
592.187	37.06
592.524	36.95
592.862	36.91
593.2	37.31
593.537	37.23
593.875	37.31
594.212	37.53
594.55	37.12
594.887	37.11
595.224	37.45
595.561	37.76
595.899	37.56
596.236	37.67
596.573	37.59
596.91	37.52
597.247	37.47
597.584	37.58
597.921	37.44
598.258	37.66
598.594	37.53
598.931	37.35
599.268	37.47
599.604	37.43
599.941	37.82
600.277	37.9
600.614	37.76
600.95	38
601.287	38.02
601.623	38.36
601.959	38.11
602.296	38.24
602.632	38.21
602.968	38.36
603.304	38.07
603.64	38.08
603.976	38.35
604.312	38.49
604.648	38.55
604.984	38.17
605.319	38.53
605.655	38.15
605.991	38.31
606.326	38.31
606.662	38.24
606.998	38.32
607.333	38.4
607.668	38.58
608.004	38.46
608.339	38.49
608.674	38.64
609.01	38.76
609.345	38.96
609.68	38.92
610.015	39.17
610.35	38.89
610.685	38.97
611.02	38.78
611.355	38.93
611.689	38.71
612.024	39.08
612.359	38.8
612.694	38.96
613.028	39.05
613.363	39.25
613.697	39.42
614.032	39.7
614.366	39.19
614.7	39.64
615.035	39.23
615.369	40.06
615.703	39.87
616.037	39.82
616.371	39.65
616.705	39.86
617.039	39.77
617.373	39.41
617.707	39.75
618.041	39.72
618.375	39.34
618.709	39.92
619.042	39.7
619.376	39.66
619.71	39.95
620.043	39.87
620.377	39.76
620.71	40.19
621.043	39.9
621.377	40.12
621.71	39.83
622.043	40.28
622.376	40.2
622.709	40.79
623.043	40.35
623.376	40.13
623.709	40.39
624.041	40.46
624.374	40.38
624.707	40.61
625.04	41.13
625.373	40.68
625.705	40.62
626.038	40.36
626.37	40.46
626.703	40.7
627.035	40.62
627.368	41.18
627.7	40.83
628.032	40.71
628.365	40.81
628.697	40.37
629.029	41.03
629.361	40.78
629.693	40.97
630.025	41.03
630.357	41.12
630.689	41.55
631.021	41.27
631.353	41.36
631.684	41.09
632.016	40.83
632.348	41.28
632.679	41.12
633.011	41.18
633.342	41.58
633.674	41.66
634.005	41.1
634.336	41.37
634.668	41.28
634.999	41.53
635.33	41.26
635.661	41.68
635.992	41.64
636.323	41.63
636.654	41.45
636.985	41.45
637.316	41.46
637.647	41.76
637.977	41.46
638.308	41.22
638.639	42.21
638.969	42.07
639.3	41.84
639.63	41.46
639.961	41.75
640.291	42.07
640.622	41.85
640.952	42.26
641.282	42.29
641.612	42.05
641.943	42.65
642.273	42.49
642.603	42.21
642.933	42.94
643.263	42.27
643.592	42.13
643.922	42.85
644.252	42.15
644.582	42.06
644.911	42.79
645.241	42.45
645.571	42.51
645.9	42.6
646.23	42.21
646.559	42.79
646.888	41.97
647.218	42.3
647.547	42.58
647.876	43.08
648.205	42.33
648.534	42.6
648.863	42.86
649.192	42.49
649.521	42.79
649.85	43.57
650.179	42.2
650.508	42.88
650.837	43.01
651.165	43.18
651.494	42.98
651.822	43.02
652.151	43.1
652.479	43.17
652.808	42.99
653.136	43.28
653.465	43.36
653.793	43.27
654.121	43.48
654.449	43.29
654.777	43.16
655.105	43.68
655.433	43.75
655.761	43.39
656.089	43.37
656.417	43.34
656.745	44.04
657.073	43.2
657.4	43.37
657.728	43.54
658.056	42.98
658.383	43.74
658.711	43.67
659.038	43.93
659.365	44.08
659.693	44.1
660.02	43.33
660.347	43.98
660.674	43.62
661.001	43.05
661.329	43.79
661.656	43.72
661.982	44.09
662.309	43.74
662.636	43.95
662.963	44.28
663.29	44
663.616	43.91
663.943	44.78
664.27	44.06
664.596	43.84
664.923	44.51
665.249	44.73
665.576	44.27
665.902	44.19
666.228	44.61
666.554	43.88
666.881	44.03
667.207	43.76
667.533	44.15
667.859	44.46
668.185	44.87
668.511	43.76
668.837	44.02
669.162	44.76
669.488	44.44
669.814	44.5
670.139	44.87
670.465	45.06
670.791	44.01
671.116	45.26
671.442	45.5
671.767	44.55
