Data from 0075_forehead_Reflection__2__387.txt Node

Date: Fri Dec 16 17:07:20 CST 2022
User: ToomeyLab
Spectrometer: FLMS14357
Trigger mode: 0
Integration Time (sec): 1.000000E-2
Scans to average: 100
Electric dark correction enabled: true
Nonlinearity correction enabled: false
Boxcar width: 0
XAxis mode: Wavelengths
Number of Pixels in Spectrum: 2048
>>>>>Begin Spectral Data<<<<<
189.047	154.91
189.435	154.91
189.823	154.91
190.211	59.53
190.599	30.23
190.987	220.25
191.375	-14.73
191.763	272.2
192.151	162.99
192.538	65.71
192.926	64.81
193.314	132.97
193.702	-78.3
194.089	-27.84
194.477	85.41
194.864	-237.89
195.252	-74.24
195.639	153.19
196.027	-252.59
196.414	-796.4
196.801	109.31
197.189	148.45
197.576	3317.65
197.963	-91.92
198.351	75.95
198.738	13.7
199.125	22.8
199.512	24.13
199.899	-60.15
200.286	-129.36
200.673	40.64
201.06	60.75
201.447	49.22
201.833	39.17
202.22	10.15
202.607	33.11
202.994	-15.07
203.38	-7.02
203.767	-76.64
204.154	-51.38
204.54	29.27
204.927	19.65
205.313	40.91
205.699	17.25
206.086	42.43
206.472	-8.71
206.858	20.02
207.245	2.97
207.631	33.2
208.017	30.64
208.403	26.26
208.789	18.34
209.175	66.43
209.561	-12.11
209.947	21.83
210.333	-12.71
210.719	0.22
211.105	-23.2
211.491	13.45
211.876	-9.24
212.262	-43.32
212.648	-28.75
213.034	11.24
213.419	27.76
213.805	-13.12
214.19	-7.57
214.576	-12.22
214.961	11.18
215.346	-10.76
215.732	-4.15
216.117	10.76
216.502	-10.05
216.888	-10.21
217.273	28.33
217.658	-7.31
218.043	0.44
218.428	16.63
218.813	-3.48
219.198	-42.52
219.583	-24.98
219.968	-5.88
220.353	12.14
220.738	-3.34
221.122	3.95
221.507	-21.67
221.892	10.07
222.276	31.07
222.661	5.53
223.046	1.08
223.43	-8.74
223.815	13.43
224.199	15.59
224.583	7.54
224.968	4.71
225.352	-5.15
225.736	4.96
226.121	0.9
226.505	10.92
226.889	3.51
227.273	7.32
227.657	5.35
228.041	6.01
228.425	6.6
228.809	3.34
229.193	2.88
229.577	5.16
229.961	6.29
230.344	5.88
230.728	5.2
231.112	4.59
231.495	5.14
231.879	7.22
232.263	3.66
232.646	5.55
233.03	4.39
233.413	5.18
233.797	7.54
234.18	4.66
234.563	2.91
234.946	6.52
235.33	5.13
235.713	6
236.096	4.47
236.479	6.3
236.862	5.83
237.245	6.24
237.628	6.53
238.011	5.26
238.394	7.14
238.777	5.02
239.16	5.36
239.543	5.43
239.925	6.37
240.308	5.88
240.691	5.67
241.073	6.12
241.456	4.73
241.838	5.76
242.221	5.48
242.603	6.47
242.986	6.65
243.368	5.6
243.75	5.94
244.133	5.98
244.515	5.59
244.897	5.79
245.279	5.78
245.661	5.62
246.043	7.43
246.425	5.15
246.807	5.8
247.189	6.01
247.571	6.18
247.953	6.26
248.335	6.38
248.717	6
249.098	6.39
249.48	5.76
249.862	6.57
250.243	6.3
250.625	6.4
251.006	6.53
251.388	6.23
251.769	6.87
252.151	6.57
252.532	6.14
252.913	6.18
253.295	6.22
253.676	6.76
254.057	6.07
254.438	6.41
254.819	6.3
255.2	5.59
255.581	5.48
255.962	5.58
256.343	6.18
256.724	6.31
257.105	5.96
257.486	6.06
257.867	5.43
258.247	5.8
258.628	6.4
259.009	6.35
259.389	7.01
259.77	6.64
260.15	7.02
260.531	6.14
260.911	6.14
261.292	6.08
261.672	5.82
262.052	5.91
262.432	5.42
262.813	6.22
263.193	5.6
263.573	5.72
263.953	5.88
264.333	6.32
264.713	5.67
265.093	5.53
265.473	6.1
265.853	5.94
266.233	7.14
266.612	6.6
266.992	5.69
267.372	6.4
267.752	5.74
268.131	5.87
268.511	6.09
268.89	6.2
269.27	6.23
269.649	6.05
270.029	5.37
270.408	6.04
270.787	5.6
271.167	5.61
271.546	5.35
271.925	6.33
272.304	6.06
272.683	5.72
273.062	6.12
273.441	6.06
273.82	6.41
274.199	5.95
274.578	5.69
274.957	6.18
275.336	5.24
275.715	5.56
276.093	6.04
276.472	6.43
276.851	6.08
277.229	6.53
277.608	5.86
277.986	5.99
278.365	5.24
278.743	6.22
279.122	5.61
279.5	5.34
279.878	5.35
280.257	5.97
280.635	5.62
281.013	6.31
281.391	5.81
281.769	5.82
282.147	6.07
282.525	6.18
282.903	6.17
283.281	5.8
283.659	5.98
284.037	5.92
284.415	6.1
284.792	6.11
285.17	5.36
285.548	6.54
285.925	5.82
286.303	5.74
286.68	5.5
287.058	6.03
287.435	5.7
287.813	6.14
288.19	6.42
288.567	5.48
288.945	6.23
289.322	5.85
289.699	5.93
290.076	6.45
290.453	5.72
290.83	6.36
291.207	6.13
291.584	6.07
291.961	6.59
292.338	6.61
292.715	6.51
293.092	6.65
293.469	6.81
293.845	6.27
294.222	6.58
294.599	7.38
294.975	6.97
295.352	6.85
295.728	7.05
296.105	6.54
296.481	7.44
296.858	7.25
297.234	7.34
297.61	7.2
297.986	7.19
298.363	7.12
298.739	7.07
299.115	6.9
299.491	6.83
299.867	7.1
300.243	7
300.619	7.16
300.995	7.14
301.371	7.95
301.746	7.42
302.122	7.84
302.498	7.27
302.874	7.52
303.249	7.69
303.625	7.24
304	7.02
304.376	7.99
304.751	8.12
305.127	7.94
305.502	7.64
305.878	7.14
306.253	8.12
306.628	7.48
307.003	8.13
307.378	7.73
307.754	8.2
308.129	7.52
308.504	7.85
308.879	8.42
309.254	8.49
309.629	8.5
310.003	8.67
310.378	8.21
310.753	8.66
311.128	8.66
311.502	8.36
311.877	8.38
312.252	8.43
312.626	8.24
313.001	8.44
313.375	8.35
313.75	8.39
314.124	8.66
314.498	8.83
314.873	9.09
315.247	8.58
315.621	9.21
315.995	8.93
316.369	8.89
316.743	9.19
317.117	9.17
317.491	8.91
317.865	9.23
318.239	9.35
318.613	9.14
318.987	9.14
319.361	9.41
319.734	9.03
320.108	9.24
320.482	9.14
320.855	9.17
321.229	9.66
321.602	9.26
321.976	9.27
322.349	9.65
322.723	9.29
323.096	9.5
323.469	9.32
323.843	9.55
324.216	8.89
324.589	9.86
324.962	9.63
325.335	9.69
325.708	10.03
326.081	9.64
326.454	10.15
326.827	9.96
327.2	10.52
327.573	9.9
327.945	10.03
328.318	10.09
328.691	9.57
329.063	10.27
329.436	10.18
329.809	9.98
330.181	10.34
330.553	10.21
330.926	10.34
331.298	10.24
331.671	10.62
332.043	10.75
332.415	10.81
332.787	11.28
333.159	10.69
333.532	11.06
333.904	10.95
334.276	10.52
334.648	10.83
335.02	10.54
335.391	11.03
335.763	10.54
336.135	10.83
336.507	10.97
336.879	11.05
337.25	10.8
337.622	10.95
337.993	11.02
338.365	11.22
338.736	11.15
339.108	10.96
339.479	10.92
339.851	11.35
340.222	11.67
340.593	11.09
340.964	11.29
341.336	10.74
341.707	11.21
342.078	11.05
342.449	11.54
342.82	11.53
343.191	10.95
343.562	11.76
343.933	11.11
344.303	11.65
344.674	11.87
345.045	12.09
345.416	11.77
345.786	11.42
346.157	11.77
346.527	11.43
346.898	11.53
347.268	11.84
347.639	11.75
348.009	12.23
348.38	11.93
348.75	11.6
349.12	12.08
349.49	11.61
349.861	12.19
350.231	12.38
350.601	12.14
350.971	11.89
351.341	11.75
351.711	12.12
352.081	12.38
352.45	12.4
352.82	12.44
353.19	12.43
353.56	12.5
353.929	12.51
354.299	12.51
354.669	12.27
355.038	12.21
355.408	12.69
355.777	12.26
356.147	13.17
356.516	12.83
356.885	12.72
357.254	13.03
357.624	12.84
357.993	12.65
358.362	13.18
358.731	13.14
359.1	13.12
359.469	12.91
359.838	12.86
360.207	12.79
360.576	13.32
360.945	13.19
361.314	13.39
361.682	13.23
362.051	13.06
362.42	13.64
362.788	13.22
363.157	13.13
363.525	13.28
363.894	12.97
364.262	13.45
364.631	14.02
364.999	13.18
365.367	13.68
365.735	13.26
366.104	13.48
366.472	13.88
366.84	14.02
367.208	13.76
367.576	13.97
367.944	14.28
368.312	13.8
368.68	13.93
369.048	14.16
369.416	13.81
369.783	14.17
370.151	14.12
370.519	13.83
370.886	14.18
371.254	14.3
371.621	14.57
371.989	14.27
372.356	14.52
372.724	14.12
373.091	14.47
373.458	14.57
373.826	14.11
374.193	14.92
374.56	14.51
374.927	14.77
375.294	14.76
375.661	14.93
376.028	14.81
376.395	14.9
376.762	15.02
377.129	15.09
377.496	15.02
377.863	15.35
378.229	15.08
378.596	15.23
378.963	15.25
379.329	15.12
379.696	15.09
380.062	15.46
380.429	15.31
380.795	15.14
381.161	15.39
381.528	15.06
381.894	15.39
382.26	15.3
382.626	15.44
382.993	15.33
383.359	15.2
383.725	15.87
384.091	15.78
384.457	15.54
384.823	16.17
385.188	16.07
385.554	15.77
385.92	15.91
386.286	16.06
386.651	15.97
387.017	15.96
387.383	15.93
387.748	15.89
388.114	16.04
388.479	16.35
388.845	16.36
389.21	16.49
389.575	15.95
389.94	16.41
390.306	16.39
390.671	16.19
391.036	16.48
391.401	16.69
391.766	16.25
392.131	16.55
392.496	16.57
392.861	16.45
393.226	16.37
393.591	16.51
393.956	16.65
394.32	16.87
394.685	17.15
395.05	16.52
395.414	16.99
395.779	17.11
396.143	16.78
396.508	17.12
396.872	17.11
397.236	16.78
397.601	17.08
397.965	16.87
398.329	17.1
398.694	17.2
399.058	17.36
399.422	17.41
399.786	17.41
400.15	17.57
400.514	17.27
400.878	17.2
401.242	17.3
401.605	17.4
401.969	17.68
402.333	17.59
402.697	17.87
403.06	17.62
403.424	17.52
403.787	17.7
404.151	17.75
404.514	17.9
404.878	18.02
405.241	18.02
405.604	18.05
405.968	17.95
406.331	17.97
406.694	17.91
407.057	18.31
407.42	18.1
407.783	17.83
408.146	18.12
408.509	17.97
408.872	18.21
409.235	18.56
409.598	18.31
409.961	18.62
410.323	18.27
410.686	18.56
411.049	18.24
411.411	18.45
411.774	18.25
412.136	18.69
412.499	18.74
412.861	18.34
413.223	18.95
413.586	18.63
413.948	18.87
414.31	19.05
414.672	19.01
415.035	18.77
415.397	19.1
415.759	18.8
416.121	18.83
416.483	18.94
416.845	18.98
417.206	19.22
417.568	19.14
417.93	18.95
418.292	19.02
418.653	19.28
419.015	19.04
419.377	19.15
419.738	19.07
420.1	19.14
420.461	19.14
420.822	19.21
421.184	19.24
421.545	19.16
421.906	19.19
422.267	19.24
422.629	19.22
422.99	19.16
423.351	19.45
423.712	19.39
424.073	19.54
424.434	19.48
424.795	19.48
425.155	19.64
425.516	19.36
425.877	19.56
426.238	19.5
426.598	19.79
426.959	19.63
427.32	20.08
427.68	19.95
428.041	20.05
428.401	20.17
428.761	20.31
429.122	20.3
429.482	20.33
429.842	20.53
430.202	20.45
430.563	20.41
430.923	20.63
431.283	20.8
431.643	20.65
432.003	20.73
432.363	20.73
432.722	20.89
433.082	20.98
433.442	21.03
433.802	20.93
434.161	20.88
434.521	21.05
434.881	21.01
435.24	21.11
435.6	21.01
435.959	21.11
436.319	21.14
436.678	21.24
437.037	21.25
437.396	21.58
437.756	21.34
438.115	21.63
438.474	21.63
438.833	21.5
439.192	21.63
439.551	21.65
439.91	21.85
440.269	21.78
440.628	21.73
440.987	21.65
441.345	21.58
441.704	21.77
442.063	21.77
442.421	21.84
442.78	21.79
443.138	21.91
443.497	21.97
443.855	22.15
444.214	22.3
444.572	22.18
444.93	22.46
445.288	22.45
445.647	22.53
446.005	22.23
446.363	22.54
446.721	22.28
447.079	22.28
447.437	22.39
447.795	22.26
448.153	22.31
448.51	22.32
448.868	22.54
449.226	22.59
449.584	22.82
449.941	22.84
450.299	22.93
450.656	23
451.014	22.9
451.371	23.02
451.729	23.29
452.086	23.08
452.443	23.18
452.801	23.45
453.158	23.43
453.515	23.26
453.872	23.46
454.229	23.44
454.586	23.65
454.943	23.49
455.3	23.89
455.657	23.51
456.014	23.79
456.371	23.78
456.727	23.67
457.084	23.97
457.441	24.02
457.797	24.11
458.154	24.15
458.51	23.92
458.867	24.09
459.223	24.23
459.58	24.08
459.936	24.17
460.292	24.07
460.648	24.18
461.005	23.94
461.361	23.87
461.717	23.98
462.073	24
462.429	24.3
462.785	24.48
463.141	24.53
463.496	24.57
463.852	24.84
464.208	24.77
464.564	24.99
464.919	24.9
465.275	25.01
465.631	25.16
465.986	25.17
466.342	25.36
466.697	25.29
467.052	25.39
467.408	25.08
467.763	25.14
468.118	25.32
468.473	25.36
468.829	25.45
469.184	25.34
469.539	25.18
469.894	25.59
470.249	25.58
470.603	25.66
470.958	25.82
471.313	25.78
471.668	25.82
472.023	25.94
472.377	26
472.732	25.9
473.086	25.78
473.441	26.03
473.795	26.08
474.15	26.15
474.504	26.16
474.859	26.4
475.213	26.19
475.567	26.23
475.921	26.4
476.275	26.38
476.63	26.29
476.984	26.39
477.338	26.62
477.692	26.52
478.045	26.38
478.399	26.78
478.753	26.71
479.107	26.5
479.461	26.74
479.814	26.67
480.168	26.81
480.521	26.79
480.875	26.92
481.228	26.88
481.582	26.96
481.935	26.81
482.289	26.75
482.642	26.79
482.995	26.88
483.348	26.83
483.701	26.74
484.055	26.63
484.408	26.5
484.761	26.25
485.114	26.23
485.466	26.18
485.819	26.17
486.172	26.37
486.525	26.44
486.878	26.68
487.23	26.73
487.583	27.03
487.936	27.02
488.288	26.82
488.641	26.77
488.993	26.8
489.345	26.76
489.698	26.87
490.05	26.91
490.402	27.13
490.754	27.3
491.107	27.52
491.459	27.71
491.811	27.8
492.163	27.83
492.515	27.65
492.866	27.38
493.218	27.38
493.57	27.45
493.922	27.65
494.274	27.86
494.625	28.01
494.977	28.23
495.328	28.5
495.68	28.79
496.031	28.84
496.383	28.71
496.734	28.74
497.086	28.65
497.437	29
497.788	28.88
498.139	28.88
498.49	28.86
498.842	28.77
499.193	28.98
499.544	29.08
499.894	29
500.245	29.13
500.596	29.37
500.947	29.23
501.298	29.39
501.648	29.43
501.999	29.72
502.35	29.71
502.7	29.84
503.051	30.04
503.401	29.79
503.752	29.65
504.102	29.75
504.452	29.92
504.803	29.88
505.153	30.11
505.503	29.83
505.853	29.84
506.203	30.15
506.553	30.11
506.903	30.16
507.253	30.35
507.603	30.23
507.953	30.35
508.303	30.44
508.652	30.48
509.002	30.72
509.352	30.41
509.701	30.46
510.051	30.5
510.4	30.41
510.75	30.46
511.099	30.69
511.449	30.55
511.798	30.75
512.147	30.68
512.496	30.9
512.846	30.86
513.195	30.7
513.544	30.91
513.893	30.91
514.242	30.95
514.591	31.03
514.939	31.23
515.288	31.21
515.637	31.3
515.986	31.31
516.334	31.4
516.683	31.54
517.032	31.5
517.38	31.5
517.729	31.63
518.077	31.8
518.426	31.56
518.774	31.64
519.122	31.47
519.47	31.38
519.819	31.34
520.167	31.4
520.515	31.3
520.863	31.51
521.211	31.64
521.559	31.71
521.907	31.81
522.255	31.91
522.602	32.07
522.95	32.11
523.298	32.11
523.645	32.51
523.993	32.38
524.341	32.39
524.688	32.62
525.036	32.55
525.383	32.58
525.73	32.67
526.078	32.45
526.425	32.44
526.772	32.18
527.119	32.15
527.466	32.18
527.814	32.27
528.161	32.28
528.508	32.43
528.854	32.38
529.201	32.23
529.548	32.24
529.895	32.05
530.242	32
530.588	32.03
530.935	32.05
531.282	32.26
531.628	32.51
531.975	32.62
532.321	32.73
532.667	33.05
533.014	33.04
533.36	33.3
533.706	33.22
534.052	32.89
534.399	32.85
534.745	32.77
535.091	32.86
535.437	32.96
535.783	33.17
536.129	33.21
536.474	33.52
536.82	33.54
537.166	33.62
537.512	33.63
537.857	33.56
538.203	33.55
538.549	33.54
538.894	33.8
539.239	33.86
539.585	33.99
539.93	34.26
540.276	34.4
540.621	34.35
540.966	34.45
541.311	34.52
541.656	34.62
542.001	34.11
542.346	34.14
542.691	33.98
543.036	33.84
543.381	33.9
543.726	34.18
544.071	34.33
544.415	34.42
544.76	34.29
545.105	34.49
545.449	34.75
545.794	34.83
546.138	35.01
546.483	35.12
546.827	35.09
547.171	35.08
547.516	35.42
547.86	35.26
548.204	35.15
548.548	35.19
548.892	35.38
549.236	35.46
549.58	35.48
549.924	35.63
550.268	35.79
550.612	35.8
550.956	35.97
551.3	36.28
551.643	36.26
551.987	36.08
552.33	36.23
552.674	36.33
553.017	36.41
553.361	36.63
553.704	36.33
554.048	36.35
554.391	36.38
554.734	36.35
555.077	36.57
555.42	36.56
555.764	36.51
556.107	36.75
556.45	36.68
556.793	37
557.135	37.02
557.478	36.99
557.821	37.06
558.164	37.15
558.507	37.25
558.849	37.18
559.192	37.21
559.534	37.1
559.877	37.37
560.219	37.63
560.562	37.31
560.904	37.65
561.246	37.32
561.589	37.46
561.931	37.86
562.273	37.74
562.615	37.75
562.957	37.72
563.299	37.85
563.641	37.91
563.983	37.71
564.325	37.71
564.667	38.02
565.008	37.91
565.35	38.27
565.692	37.99
566.033	38.32
566.375	38.11
566.716	38.16
567.058	38.27
567.399	38.24
567.741	38.13
568.082	38.27
568.423	38.14
568.764	38.2
569.105	38.54
569.447	38.62
569.788	38.43
570.129	38.43
570.47	38.92
570.811	38.76
571.151	38.58
571.492	39.05
571.833	38.78
572.174	38.73
572.514	38.78
572.855	39.19
573.195	38.84
573.536	38.94
573.876	38.79
574.217	39.06
574.557	38.95
574.898	38.96
575.238	39.27
575.578	39.53
575.918	39.32
576.258	39.31
576.598	39.39
576.938	39.26
577.278	39.33
577.618	39.48
577.958	39.56
578.298	39.78
578.638	39.8
578.977	39.95
579.317	39.67
579.657	39.7
579.996	39.88
580.336	40.33
580.675	40.07
581.014	40.14
581.354	40.52
581.693	40.16
582.032	40.54
582.372	40.2
582.711	40.66
583.05	40.88
583.389	40.53
583.728	40.43
584.067	40.94
584.406	40.81
584.745	40.55
585.083	40.94
585.422	41.28
585.761	40.92
586.1	40.9
586.438	40.93
586.777	40.94
587.115	41.43
587.454	40.83
587.792	41.17
588.13	41.16
588.469	41.46
588.807	41.39
589.145	40.99
589.483	41.5
589.821	41.36
590.159	41.26
590.497	41.36
590.835	41.58
591.173	41.59
591.511	41.39
591.849	41.25
592.187	41.58
592.524	41.35
592.862	41.64
593.2	41.98
593.537	41.77
593.875	41.96
594.212	42.18
594.55	41.9
594.887	42.08
595.224	41.96
595.561	42.18
595.899	42.09
596.236	42.21
596.573	42.14
596.91	41.93
597.247	42.26
597.584	42.24
597.921	42.29
598.258	42.04
598.594	41.94
598.931	42
599.268	42
599.604	42.01
599.941	42.23
600.277	42.54
600.614	42.56
600.95	42.62
601.287	42.64
601.623	42.73
601.959	42.65
602.296	42.97
602.632	42.75
602.968	42.93
603.304	42.91
603.64	42.65
603.976	43.26
604.312	43.23
604.648	43.25
604.984	43.03
605.319	42.87
605.655	42.7
605.991	43.05
606.326	42.92
606.662	42.99
606.998	43.11
607.333	43.13
607.668	43.43
608.004	43.59
608.339	43.25
608.674	43.39
609.01	43.57
609.345	43.73
609.68	43.45
610.015	43.62
610.35	43.81
610.685	43.58
611.02	43.62
611.355	43.8
611.689	43.72
612.024	43.67
612.359	43.92
612.694	43.73
613.028	44.38
613.363	44.05
613.697	44.57
614.032	44.47
614.366	44.14
614.7	44.46
615.035	44.4
615.369	44.56
615.703	44.58
616.037	44.99
616.371	44.55
616.705	44.6
617.039	44.84
617.373	44.28
617.707	44.76
618.041	44.89
618.375	44.9
618.709	45.11
619.042	44.89
619.376	45.14
619.71	44.94
620.043	45.37
620.377	44.89
620.71	45.01
621.043	44.8
621.377	45.23
621.71	45.33
622.043	45.09
622.376	45.53
622.709	45.38
623.043	45.12
623.376	45.53
623.709	45.52
624.041	45.37
624.374	45.55
624.707	45.41
625.04	46
625.373	45.93
625.705	45.53
626.038	45.79
626.37	45.49
626.703	46.29
627.035	45.97
627.368	46.1
627.7	45.93
628.032	45.62
628.365	45.8
628.697	45.54
629.029	45.99
629.361	45.66
629.693	45.86
630.025	46.44
630.357	46.28
630.689	46.42
631.021	46.4
631.353	46.48
631.684	46.29
632.016	46.15
632.348	46.41
632.679	46.28
633.011	46.73
633.342	46.43
633.674	46.56
634.005	46.63
634.336	46.21
634.668	46.64
634.999	46.85
635.33	46.45
635.661	46.83
635.992	46.76
636.323	47.22
636.654	46.93
636.985	46.85
637.316	46.64
637.647	47.1
637.977	47.23
638.308	46.74
638.639	46.87
638.969	47.36
639.3	47.38
639.63	47.01
639.961	47.29
640.291	47.14
640.622	47.47
640.952	46.92
641.282	47
641.612	47.35
641.943	47.32
642.273	47.43
642.603	47.56
642.933	47.8
643.263	47.74
643.592	47.42
643.922	47.59
644.252	47.21
644.582	47.5
644.911	47.58
645.241	47.72
645.571	47.7
645.9	47.43
646.23	47.38
646.559	47.73
646.888	47.48
647.218	47.63
647.547	47.84
647.876	48.33
648.205	47.41
648.534	47.98
648.863	48.1
649.192	47.77
649.521	47.79
649.85	48.44
650.179	47.9
650.508	48.05
650.837	47.94
651.165	48.42
651.494	48.01
651.822	48.33
652.151	48.78
652.479	48.78
652.808	47.93
653.136	48.42
653.465	48.39
653.793	48.57
654.121	48.43
654.449	48.17
654.777	48.97
655.105	48.84
655.433	48.63
655.761	48.87
656.089	49.09
656.417	48.62
656.745	49.42
657.073	48.77
657.4	49.23
657.728	49.03
658.056	48.67
658.383	49.37
658.711	48.83
659.038	48.91
659.365	49.65
659.693	49.43
660.02	48.35
660.347	49.07
660.674	49.04
661.001	48.67
661.329	49.12
661.656	49.34
661.982	49.62
662.309	49.71
662.636	48.87
662.963	49.55
663.29	49.71
663.616	49.31
663.943	50.18
664.27	49.45
664.596	49.15
664.923	49.2
665.249	50.02
665.576	49.49
665.902	49.6
666.228	49.78
666.554	49.55
666.881	49.84
667.207	49.79
667.533	50.34
667.859	50.39
668.185	50.03
668.511	49.46
668.837	49.63
669.162	50.33
669.488	50.44
