Data from 0075_chest_Reflection__3__378.txt Node

Date: Fri Dec 16 17:04:33 CST 2022
User: ToomeyLab
Spectrometer: FLMS14357
Trigger mode: 0
Integration Time (sec): 1.000000E-2
Scans to average: 100
Electric dark correction enabled: true
Nonlinearity correction enabled: false
Boxcar width: 0
XAxis mode: Wavelengths
Number of Pixels in Spectrum: 2048
>>>>>Begin Spectral Data<<<<<
189.047	25.99
189.435	25.99
189.823	25.99
190.211	134.77
190.599	-203.05
190.987	4.7
191.375	-50.88
191.763	249.97
192.151	175.44
192.538	18.62
192.926	-135.87
193.314	116.16
193.702	-149.3
194.089	1006.23
194.477	187.77
194.864	-112.52
195.252	-88.51
195.639	81.75
196.027	355.81
196.414	33.33
196.801	-174.76
197.189	179.8
197.576	-1064.71
197.963	-67.53
198.351	56.08
198.738	3.36
199.125	47.52
199.512	22.95
199.899	-29.57
200.286	-52.19
200.673	53.78
201.06	19.91
201.447	22.86
201.833	-6.34
202.22	21.9
202.607	-49.5
202.994	20.96
203.38	-38.95
203.767	-58.75
204.154	-34.1
204.54	4.07
204.927	2.38
205.313	10.52
205.699	8.14
206.086	-9.78
206.472	-22.1
206.858	6.92
207.245	7.48
207.631	-8.34
208.017	1.94
208.403	-31.92
208.789	0.19
209.175	48.5
209.561	1.11
209.947	-123.76
210.333	-12.21
210.719	-26.98
211.105	-34.71
211.491	-8.14
211.876	-1.31
212.262	-30.93
212.648	14.9
213.034	9.55
213.419	29.48
213.805	-21.56
214.19	34.63
214.576	-35.62
214.961	-30.97
215.346	-33.52
215.732	-1.3
216.117	-4.22
216.502	-37.71
216.888	-28.4
217.273	-9.25
217.658	-28.19
218.043	-19.67
218.428	4.59
218.813	-16.23
219.198	-26.34
219.583	-10.14
219.968	-7.93
220.353	5.42
220.738	-24.63
221.122	-17.63
221.507	4.11
221.892	9.46
222.276	20.82
222.661	7.72
223.046	3.79
223.43	-3.81
223.815	10.76
224.199	13.47
224.583	-0.5
224.968	-0.12
225.352	-4.4
225.736	4.22
226.121	-9.74
226.505	-1.44
226.889	7.56
227.273	5.4
227.657	2.01
228.041	3.49
228.425	5.8
228.809	3.42
229.193	1.8
229.577	1.92
229.961	3.56
230.344	3.96
230.728	3.1
231.112	3.7
231.495	3.1
231.879	2.83
232.263	1.73
232.646	2.91
233.03	1.26
233.413	0.78
233.797	6.66
234.18	2.87
234.563	2.21
234.946	4.29
235.33	3.61
235.713	2.34
236.096	3.14
236.479	3.9
236.862	4.18
237.245	3.22
237.628	4.3
238.011	3.51
238.394	4.24
238.777	4.35
239.16	0.29
239.543	2.66
239.925	3.57
240.308	3.67
240.691	2.69
241.073	4.7
241.456	3.35
241.838	3.39
242.221	4.15
242.603	3.51
242.986	4.08
243.368	3.92
243.75	3.33
244.133	3.72
244.515	3.49
244.897	4.09
245.279	3.37
245.661	2.93
246.043	3.83
246.425	3.54
246.807	3.32
247.189	3.67
247.571	3.85
247.953	3.8
248.335	4.28
248.717	3.89
249.098	4.03
249.48	2.99
249.862	3.76
250.243	3.96
250.625	3.24
251.006	4.38
251.388	4.29
251.769	3.91
252.151	4.62
252.532	3.36
252.913	3.82
253.295	3.52
253.676	3.74
254.057	3.35
254.438	3.49
254.819	4.33
255.2	3.46
255.581	3.14
255.962	4.1
256.343	3.48
256.724	2.69
257.105	3.61
257.486	3.09
257.867	2.56
258.247	4.89
258.628	4.41
259.009	3.6
259.389	4.29
259.77	3.81
260.15	4.36
260.531	3.75
260.911	3.79
261.292	3.6
261.672	3.59
262.052	3.57
262.432	3.54
262.813	3.47
263.193	3.58
263.573	3.47
263.953	3.72
264.333	3.07
264.713	3.17
265.093	2.78
265.473	4
265.853	2.85
266.233	2.66
266.612	3.54
266.992	3.48
267.372	3.71
267.752	2.99
268.131	3.63
268.511	3.05
268.89	4.23
269.27	3.76
269.649	3.86
270.029	3.3
270.408	3.49
270.787	3.08
271.167	3.61
271.546	2.69
271.925	3.34
272.304	3.65
272.683	3.42
273.062	3.58
273.441	3.83
273.82	3.38
274.199	3.72
274.578	3.11
274.957	3.37
275.336	3.49
275.715	3.74
276.093	3.93
276.472	3.07
276.851	3.68
277.229	4.1
277.608	3.47
277.986	3.29
278.365	2.95
278.743	3.5
279.122	2.9
279.5	3.07
279.878	2.75
280.257	3.45
280.635	3.59
281.013	3.51
281.391	3.43
281.769	3.28
282.147	3.82
282.525	3.57
282.903	3.59
283.281	3.21
283.659	2.99
284.037	3.26
284.415	3.57
284.792	3.26
285.17	3.15
285.548	3.29
285.925	3.03
286.303	3.39
286.68	3.47
287.058	3.53
287.435	3.27
287.813	3.29
288.19	3.47
288.567	2.49
288.945	3.23
289.322	3.19
289.699	3.01
290.076	3.7
290.453	3.47
290.83	3.85
291.207	3.61
291.584	3.27
291.961	3.48
292.338	3.52
292.715	3.5
293.092	3.44
293.469	3.82
293.845	3.6
294.222	3.07
294.599	4.17
294.975	3.52
295.352	3.19
295.728	4.16
296.105	3.54
296.481	3.77
296.858	3.74
297.234	3.53
297.61	3.43
297.986	3.38
298.363	3.3
298.739	3.49
299.115	3.39
299.491	3.22
299.867	3.35
300.243	3.22
300.619	3.38
300.995	3.18
301.371	3.79
301.746	3.4
302.122	3.44
302.498	3.91
302.874	3.48
303.249	3.55
303.625	3.3
304	3.2
304.376	3.21
304.751	4.12
305.127	3.79
305.502	3.59
305.878	3.51
306.253	3.24
306.628	3.65
307.003	3.34
307.378	2.91
307.754	3.77
308.129	3.13
308.504	3.68
308.879	3.63
309.254	3.41
309.629	3.53
310.003	4.22
310.378	3.45
310.753	3.87
311.128	3.54
311.502	3.13
311.877	3.86
312.252	3.53
312.626	3.47
313.001	3.73
313.375	3.59
313.75	3.3
314.124	3.98
314.498	3.34
314.873	3.77
315.247	3.81
315.621	3.77
315.995	3.49
316.369	3.43
316.743	3.75
317.117	3.61
317.491	3.43
317.865	2.95
318.239	4.03
318.613	3.35
318.987	4.02
319.361	3.44
319.734	3.64
320.108	3.42
320.482	3.07
320.855	3.55
321.229	3.83
321.602	3.57
321.976	3.36
322.349	2.83
322.723	3.33
323.096	3.52
323.469	2.77
323.843	3.34
324.216	3.35
324.589	3.73
324.962	3.65
325.335	3.84
325.708	3.82
326.081	4.32
326.454	4.05
326.827	3.34
327.2	3.86
327.573	3.71
327.945	3.51
328.318	3.53
328.691	3.89
329.063	3.83
329.436	3.39
329.809	2.78
330.181	3.83
330.553	3.77
330.926	3.37
331.298	3.37
331.671	3.45
332.043	3.2
332.415	3.93
332.787	3.68
333.159	3.31
333.532	3.08
333.904	3.49
334.276	3.79
334.648	3.88
335.02	3.51
335.391	3.83
335.763	3.6
336.135	4.16
336.507	3.74
336.879	3.8
337.25	3.79
337.622	3.93
337.993	3.81
338.365	3.73
338.736	3.55
339.108	3.32
339.479	3.49
339.851	4.11
340.222	3.76
340.593	3.9
340.964	3.42
341.336	3.06
341.707	3.34
342.078	3.4
342.449	4.22
342.82	3.6
343.191	3.39
343.562	3.76
343.933	3.82
344.303	4.05
344.674	3.63
345.045	4.05
345.416	3.78
345.786	3.29
346.157	3.9
346.527	3.52
346.898	3.71
347.268	3.84
347.639	3.89
348.009	4.29
348.38	3.67
348.75	3.79
349.12	3.65
349.49	3.74
349.861	4.01
350.231	3.91
350.601	3.53
350.971	3.76
351.341	3.69
351.711	3.83
352.081	3.87
352.45	3.7
352.82	3.83
353.19	3.68
353.56	3.76
353.929	4.07
354.299	3.35
354.669	3.72
355.038	3.7
355.408	4.13
355.777	4.06
356.147	3.93
356.516	4.03
356.885	3.79
357.254	3.65
357.624	3.86
357.993	3.75
358.362	3.8
358.731	3.84
359.1	3.73
359.469	3.81
359.838	3.75
360.207	3.61
360.576	3.81
360.945	4.05
361.314	4.07
361.682	3.5
362.051	3.79
362.42	4.24
362.788	4.07
363.157	3.72
363.525	3.98
363.894	3.62
364.262	3.83
364.631	4.34
364.999	3.71
365.367	4.27
365.735	3.8
366.104	3.67
366.472	4.26
366.84	3.94
367.208	3.67
367.576	3.71
367.944	4.08
368.312	3.53
368.68	3.89
369.048	4.1
369.416	4.05
369.783	4.06
370.151	3.98
370.519	3.66
370.886	3.89
371.254	3.67
371.621	3.56
371.989	3.98
372.356	3.6
372.724	4.07
373.091	3.8
373.458	3.61
373.826	3.81
374.193	4.12
374.56	3.83
374.927	3.88
375.294	4.29
375.661	3.86
376.028	4
376.395	4.05
376.762	4.08
377.129	4.18
377.496	3.83
377.863	4.05
378.229	3.88
378.596	3.82
378.963	3.91
379.329	3.75
379.696	3.81
380.062	4.16
380.429	4.19
380.795	3.81
381.161	3.8
381.528	3.91
381.894	4.19
382.26	3.88
382.626	3.59
382.993	3.8
383.359	4.08
383.725	4.12
384.091	3.94
384.457	4.14
384.823	3.95
385.188	4.05
385.554	4.09
385.92	4.32
386.286	4.18
386.651	3.94
387.017	4.43
387.383	4.07
387.748	4.12
388.114	4.24
388.479	4.2
388.845	4.46
389.21	4.1
389.575	4.28
389.94	4.34
390.306	3.9
390.671	4.09
391.036	4.04
391.401	4.52
391.766	4.25
392.131	4.07
392.496	4.08
392.861	3.94
393.226	4.08
393.591	4.27
393.956	4.21
394.32	4.14
394.685	4.38
395.05	3.94
395.414	4.23
395.779	3.99
396.143	4.07
396.508	4.37
396.872	4.33
397.236	4.18
397.601	4.25
397.965	4.02
398.329	4.15
398.694	4.02
399.058	4.18
399.422	4.18
399.786	4.37
400.15	4.23
400.514	4.22
400.878	4.02
401.242	4.14
401.605	4.1
401.969	4.41
402.333	4.08
402.697	4.54
403.06	4.36
403.424	4.32
403.787	4.43
404.151	4.07
404.514	4.25
404.878	4.44
405.241	4.44
405.604	4.37
405.968	4.03
406.331	4.34
406.694	4.12
407.057	4.5
407.42	4.22
407.783	4.09
408.146	4.38
408.509	4.15
408.872	4.16
409.235	4.53
409.598	4.27
409.961	4.41
410.323	4.3
410.686	4.04
411.049	4.15
411.411	4.45
411.774	4.31
412.136	4.46
412.499	4.28
412.861	4.17
413.223	4.25
413.586	4.32
413.948	4.29
414.31	4.47
414.672	4.38
415.035	4.59
415.397	4.34
415.759	4.17
416.121	4.56
416.483	4.41
416.845	4.31
417.206	4.4
417.568	4.56
417.93	4.3
418.292	4.49
418.653	4.35
419.015	4.4
419.377	4.33
419.738	4.08
420.1	4.46
420.461	4.27
420.822	4.41
421.184	4.27
421.545	4.22
421.906	4.33
422.267	4.16
422.629	4.25
422.99	4.31
423.351	4.23
423.712	4.3
424.073	4.41
424.434	4.32
424.795	4.16
425.155	4.38
425.516	4.21
425.877	4.37
426.238	4.23
426.598	4.46
426.959	4.41
427.32	4.41
427.68	4.42
428.041	4.39
428.401	4.33
428.761	4.28
429.122	4.47
429.482	4.27
429.842	4.54
430.202	4.37
430.563	4.41
430.923	4.41
431.283	4.54
431.643	4.41
432.003	4.46
432.363	4.45
432.722	4.33
433.082	4.38
433.442	4.6
433.802	4.58
434.161	4.51
434.521	4.6
434.881	4.52
435.24	4.37
435.6	4.42
435.959	4.38
436.319	4.43
436.678	4.53
437.037	4.4
437.396	4.57
437.756	4.44
438.115	4.59
438.474	4.53
438.833	4.57
439.192	4.61
439.551	4.56
439.91	4.54
440.269	4.66
440.628	4.57
440.987	4.47
441.345	4.46
441.704	4.52
442.063	4.54
442.421	4.54
442.78	4.44
443.138	4.54
443.497	4.53
443.855	4.62
444.214	4.6
444.572	4.52
444.93	4.71
445.288	4.56
445.647	4.54
446.005	4.47
446.363	4.6
446.721	4.43
447.079	4.54
447.437	4.49
447.795	4.53
448.153	4.46
448.51	4.48
448.868	4.66
449.226	4.5
449.584	4.52
449.941	4.6
450.299	4.65
450.656	4.59
451.014	4.59
451.371	4.52
451.729	4.62
452.086	4.62
452.443	4.75
452.801	4.68
453.158	4.66
453.515	4.66
453.872	4.83
454.229	4.62
454.586	4.7
454.943	4.51
455.3	4.74
455.657	4.6
456.014	4.72
456.371	4.75
456.727	4.68
457.084	4.62
457.441	4.69
457.797	4.7
458.154	4.85
458.51	4.63
458.867	4.65
459.223	4.89
459.58	4.61
459.936	4.69
460.292	4.65
460.648	4.61
461.005	4.48
461.361	4.67
461.717	4.66
462.073	4.68
462.429	4.74
462.785	4.79
463.141	4.69
463.496	4.73
463.852	4.82
464.208	4.89
464.564	4.73
464.919	4.74
465.275	4.7
465.631	4.87
465.986	4.79
466.342	4.68
466.697	4.89
467.052	4.81
467.408	4.71
467.763	4.57
468.118	4.75
468.473	4.97
468.829	4.76
469.184	4.83
469.539	4.7
469.894	4.92
470.249	4.83
470.603	4.86
470.958	4.91
471.313	4.75
471.668	4.9
472.023	5.03
472.377	4.81
472.732	4.9
473.086	4.82
473.441	5.01
473.795	5
474.15	4.71
474.504	4.88
474.859	4.98
475.213	4.79
475.567	4.96
475.921	4.93
476.275	5.05
476.63	4.78
476.984	4.86
477.338	5.11
477.692	4.94
478.045	4.85
478.399	5.02
478.753	4.8
479.107	4.74
479.461	4.89
479.814	4.91
480.168	4.93
480.521	4.82
480.875	5.01
481.228	4.93
481.582	4.96
481.935	4.96
482.289	4.88
482.642	5
482.995	4.98
483.348	4.85
483.701	4.87
484.055	4.89
484.408	4.86
484.761	4.7
485.114	4.66
485.466	4.64
485.819	4.7
486.172	4.79
486.525	4.83
486.878	4.84
487.23	4.88
487.583	4.85
487.936	4.92
488.288	4.89
488.641	4.83
488.993	4.79
489.345	4.81
489.698	4.89
490.05	4.87
490.402	4.93
490.754	4.96
491.107	4.99
491.459	5.05
491.811	4.99
492.163	5.01
492.515	4.99
492.866	4.85
493.218	4.84
493.57	4.9
493.922	4.91
494.274	5
494.625	5
494.977	5.11
495.328	5.19
495.68	5.22
496.031	5.15
496.383	5.06
496.734	5.19
497.086	5.12
497.437	5.2
497.788	5.14
498.139	5.19
498.49	5.16
498.842	5.15
499.193	5.1
499.544	5.22
499.894	5.18
500.245	5.27
500.596	5.29
500.947	5.22
501.298	5.25
501.648	5.21
501.999	5.36
502.35	5.34
502.7	5.34
503.051	5.36
503.401	5.32
503.752	5.27
504.102	5.32
504.452	5.3
504.803	5.28
505.153	5.42
505.503	5.29
505.853	5.24
506.203	5.4
506.553	5.27
506.903	5.4
507.253	5.38
507.603	5.31
507.953	5.43
508.303	5.45
508.652	5.4
509.002	5.39
509.352	5.41
509.701	5.38
510.051	5.39
510.4	5.48
510.75	5.42
511.099	5.41
511.449	5.34
511.798	5.49
512.147	5.46
512.496	5.43
512.846	5.42
513.195	5.39
513.544	5.42
513.893	5.42
514.242	5.55
514.591	5.52
514.939	5.46
515.288	5.53
515.637	5.51
515.986	5.57
516.334	5.6
516.683	5.66
517.032	5.34
517.38	5.5
517.729	5.67
518.077	5.55
518.426	5.41
518.774	5.5
519.122	5.61
519.47	5.46
519.819	5.54
520.167	5.54
520.515	5.49
520.863	5.56
521.211	5.54
521.559	5.61
521.907	5.65
522.255	5.76
522.602	5.79
522.95	5.67
523.298	5.63
523.645	5.63
523.993	5.93
524.341	5.68
524.688	5.73
525.036	5.83
525.383	5.83
525.73	5.71
526.078	5.78
526.425	5.73
526.772	5.53
527.119	5.59
527.466	5.67
527.814	5.68
528.161	5.84
528.508	5.75
528.854	5.6
529.201	5.63
529.548	5.69
529.895	5.62
530.242	5.57
530.588	5.64
530.935	5.67
531.282	5.73
531.628	5.78
531.975	5.82
532.321	5.87
532.667	5.9
533.014	5.86
533.36	6.04
533.706	5.9
534.052	5.87
534.399	5.81
534.745	5.76
535.091	5.8
535.437	5.85
535.783	5.92
536.129	5.93
536.474	6.01
536.82	6.08
537.166	6.07
537.512	6.09
537.857	6.1
538.203	6.04
538.549	6.1
538.894	6.08
539.239	6.18
539.585	6.29
539.93	6.23
540.276	6.16
540.621	6.21
540.966	6.22
541.311	6.24
541.656	6.17
542.001	6.27
542.346	6.22
542.691	6.11
543.036	6.1
543.381	6.13
543.726	6.16
544.071	6.24
544.415	6.24
544.76	6.24
545.105	6.32
545.449	6.25
545.794	6.31
546.138	6.52
546.483	6.34
546.827	6.49
547.171	6.53
547.516	6.53
547.86	6.34
548.204	6.48
548.548	6.65
548.892	6.62
549.236	6.59
549.58	6.65
549.924	6.58
550.268	6.64
550.612	6.7
550.956	6.68
551.3	6.72
551.643	6.69
551.987	6.71
552.33	6.7
552.674	6.81
553.017	6.85
553.361	6.73
553.704	6.78
554.048	6.84
554.391	6.85
554.734	6.76
555.077	6.97
555.42	6.84
555.764	6.85
556.107	6.96
556.45	6.92
556.793	7.1
557.135	7.14
557.478	7.25
557.821	6.94
558.164	7.25
558.507	6.96
558.849	7
559.192	7.15
559.534	6.98
559.877	7.27
560.219	7.35
560.562	7.21
560.904	7.08
561.246	7.29
561.589	7.35
561.931	7.42
562.273	7.27
562.615	7.31
562.957	7.43
563.299	7.38
563.641	7.51
563.983	7.32
564.325	7.3
564.667	7.3
565.008	7.37
565.35	7.68
565.692	7.65
566.033	7.55
566.375	7.41
566.716	7.67
567.058	7.63
567.399	7.52
567.741	7.54
568.082	7.57
568.423	7.47
568.764	7.68
569.105	7.68
569.447	7.7
569.788	7.79
570.129	7.7
570.47	7.9
570.811	7.84
571.151	7.6
571.492	7.92
571.833	7.88
572.174	7.87
572.514	7.74
572.855	7.8
573.195	7.94
573.536	7.99
573.876	7.87
574.217	7.87
574.557	8.07
574.898	7.92
575.238	7.97
575.578	8.14
575.918	8.05
576.258	8.08
576.598	8.11
576.938	8.25
577.278	8.09
577.618	8.33
577.958	8.19
578.298	8.29
578.638	8.22
578.977	8.3
579.317	8.43
579.657	8.45
579.996	8.29
580.336	8.42
580.675	8.38
581.014	8.45
581.354	8.65
581.693	8.36
582.032	8.33
582.372	8.71
582.711	8.61
583.05	8.61
583.389	8.61
583.728	8.66
584.067	8.69
584.406	8.84
584.745	8.61
585.083	8.92
585.422	8.86
585.761	9.01
586.1	8.76
586.438	8.78
586.777	9
587.115	9.01
587.454	9.29
587.792	9.06
588.13	9.28
588.469	9.11
588.807	9.21
589.145	9.24
589.483	8.85
589.821	9.25
590.159	9.32
590.497	8.91
590.835	9.2
591.173	9.27
591.511	9.37
591.849	9.22
592.187	9.17
592.524	9.33
592.862	9.39
593.2	9.38
593.537	9.2
593.875	9.48
594.212	9.37
594.55	9.43
594.887	9.29
595.224	9.41
595.561	9.61
595.899	9.65
596.236	9.88
596.573	9.43
596.91	9.77
597.247	9.78
597.584	9.67
597.921	9.76
598.258	9.75
598.594	9.64
598.931	9.66
599.268	9.57
599.604	9.87
599.941	9.84
600.277	9.93
600.614	9.94
600.95	9.83
601.287	9.91
601.623	10.12
601.959	9.96
602.296	10.2
602.632	10.25
602.968	10.21
603.304	9.91
603.64	9.7
603.976	10.37
604.312	10.27
604.648	10.21
604.984	10.31
605.319	10.27
605.655	10.15
605.991	10.2
606.326	10.17
606.662	10.11
606.998	10.37
607.333	10.28
607.668	10.32
608.004	10.39
608.339	10.59
608.674	10.45
609.01	10.52
609.345	11.01
609.68	10.54
610.015	10.61
610.35	10.65
610.685	10.62
611.02	10.86
611.355	10.67
611.689	10.4
612.024	10.72
612.359	10.78
612.694	10.92
613.028	11.36
613.363	11.05
613.697	10.83
614.032	10.89
614.366	11
614.7	11.15
615.035	10.79
615.369	11.02
615.703	11.3
616.037	11.2
616.371	11.28
616.705	11.16
617.039	11.33
617.373	11.06
617.707	11.22
618.041	11.58
618.375	11.18
618.709	11.54
619.042	11.22
619.376	11.45
619.71	11.39
620.043	11.23
620.377	11.48
620.71	11.64
621.043	10.98
621.377	11.58
621.71	11.73
622.043	12.13
622.376	11.42
622.709	11.5
623.043	11.63
623.376	12.02
623.709	12.03
624.041	11.64
624.374	11.7
624.707	11.58
625.04	12.29
625.373	11.56
625.705	11.97
626.038	11.94
626.37	11.72
626.703	12.15
627.035	12.17
627.368	12.18
627.7	12.19
628.032	12.17
628.365	12.21
628.697	12.12
629.029	12.59
629.361	12.07
629.693	12.45
630.025	12.39
630.357	12.34
630.689	12.77
631.021	12.51
631.353	12.67
631.684	12.62
632.016	12.02
632.348	12.84
632.679	12.35
633.011	12.48
633.342	12.83
633.674	12.42
634.005	12.98
634.336	12.63
634.668	12.78
634.999	12.88
635.33	12.66
635.661	12.73
635.992	12.65
636.323	12.93
636.654	12.76
636.985	12.79
637.316	12.82
637.647	12.87
637.977	12.95
638.308	12.73
638.639	12.92
638.969	13.05
639.3	13.5
639.63	12.99
639.961	13.43
640.291	13.53
640.622	13.65
640.952	13.29
641.282	12.92
641.612	13.33
641.943	13.46
642.273	13.25
642.603	13.45
642.933	13.3
643.263	13.96
643.592	13.58
643.922	13.93
644.252	13.71
644.582	13.22
644.911	13.33
645.241	13.49
645.571	13.9
645.9	14.01
646.23	12.93
646.559	13.68
646.888	13.13
647.218	13.62
647.547	13.9
647.876	14.48
648.205	13.24
648.534	13.99
648.863	14.06
649.192	13.7
649.521	13.94
649.85	14.15
650.179	13.95
650.508	14.2
650.837	14.09
651.165	14.16
651.494	14.27
651.822	14.2
652.151	14.36
652.479	14.65
652.808	14.06
653.136	14.15
653.465	14.63
653.793	14.99
654.121	14.27
654.449	14.05
654.777	14.62
655.105	14.81
655.433	14.6
655.761	14.5
656.089	14.58
656.417	14.05
656.745	15.2
657.073	14.9
657.4	14.81
657.728	14.52
658.056	14.54
658.383	15.32
658.711	14.66
659.038	15.43
659.365	14.95
659.693	14.59
660.02	14.46
660.347	14.84
660.674	14.62
661.001	14.64
661.329	14.73
661.656	15.17
661.982	15.19
662.309	15.14
662.636	15.15
662.963	15.32
663.29	15.08
663.616	15.33
663.943	15.69
664.27	15.26
664.596	15.17
664.923	15.24
665.249	15.55
665.576	15.12
665.902	15.38
666.228	15.39
666.554	15.39
666.881	15.58
667.207	15.56
667.533	16
667.859	15.9
668.185	16.07
668.511	15.33
668.837	15.21
669.162	15.81
669.488	15.59
669.814	16.41
670.139	16.22
670.465	16.07
670.791	15.81
671.116	15.87
671.442	15.95
671.767	16.01
672.092	15.58
672.418	16.01
672.743	15.85
673.068	15.52
673.393	15.84
673.718	15.93
674.043	16.33
674.368	16.41
674.693	16.23
675.018	16.11
675.343	16.38
675.667	16.02
675.992	15.59
676.317	16
676.641	15.98
676.966	16.16
677.29	16.02
677.615	16.25
677.939	16.54
678.264	16.48
678.588	16.97
678.912	16.97
679.236	16.23
679.56	16.57
679.885	16.37
680.209	16.39
680.532	16.85
680.856	16.65
681.18	16.61
681.504	16.83
681.828	16.41
682.152	16.76
682.475	16.75
682.799	17.04
683.122	16.42
683.446	17.08
683.769	16.6
684.093	16.75
684.416	16.82
684.739	16.96
685.062	17.28
685.386	16.88
685.709	17.09
686.032	17.24
686.355	16.9
