Data from 0178_forehead_Reflection__4__040.txt Node

Date: Mon Aug 28 18:57:05 CDT 2023
User: ToomeyLab
Spectrometer: FLMS14357
Trigger mode: 0
Integration Time (sec): 1.000000E-2
Scans to average: 100
Electric dark correction enabled: true
Nonlinearity correction enabled: false
Boxcar width: 0
XAxis mode: Wavelengths
Number of Pixels in Spectrum: 2048
>>>>>Begin Spectral Data<<<<<
189.047	-128.44
189.435	-128.44
189.823	-128.44
190.211	8186.05
190.599	-88.53
190.987	202.85
191.375	47.02
191.763	69.74
192.151	-14.36
192.538	95.14
192.926	160.07
193.314	-83.07
193.702	197.2
194.089	109.74
194.477	-1901.18
194.864	-137.83
195.252	110.49
195.639	1025.64
196.027	75.14
196.414	377.6
196.801	77.33
197.189	39.06
197.576	357.38
197.963	-96.31
198.351	24.53
198.738	45.16
199.125	42.81
199.512	63.07
199.899	59.7
200.286	49.66
200.673	17.6
201.06	34.75
201.447	28.26
201.833	37.04
202.22	28.33
202.607	56.07
202.994	62.18
203.38	52.79
203.767	11.63
204.154	9.84
204.54	-1.3
204.927	10.33
205.313	39.13
205.699	-18.61
206.086	51.7
206.472	7.33
206.858	42.56
207.245	9.11
207.631	43.25
208.017	21.07
208.403	55.16
208.789	18.37
209.175	13.92
209.561	18.04
209.947	14.05
210.333	8.82
210.719	5.24
211.105	51.1
211.491	2.42
211.876	35.49
212.262	86.95
212.648	39.57
213.034	-50.16
213.419	-11.31
213.805	37.2
214.19	48.37
214.576	10.52
214.961	41.22
215.346	-20.22
215.732	26.06
216.117	24.84
216.502	0.86
216.888	17.71
217.273	0.19
217.658	36.01
218.043	-3.56
218.428	-0.8
218.813	40.55
219.198	37.59
219.583	18.06
219.968	28.86
220.353	7.29
220.738	18.62
221.122	10.67
221.507	4.86
221.892	14.36
222.276	1.78
222.661	15.81
223.046	17.3
223.43	12.03
223.815	20.56
224.199	15.98
224.583	10.04
224.968	7.41
225.352	13.69
225.736	10.42
226.121	6.13
226.505	9.29
226.889	10.4
227.273	15.18
227.657	7.13
228.041	8.16
228.425	9.64
228.809	9.56
229.193	9.53
229.577	11.98
229.961	5.12
230.344	6.23
230.728	4.77
231.112	4.8
231.495	6.08
231.879	5.22
232.263	5.03
232.646	5.24
233.03	6.92
233.413	8.5
233.797	4.4
234.18	7.57
234.563	6.51
234.946	10.07
235.33	6.57
235.713	5.11
236.096	5.12
236.479	3.66
236.862	5.33
237.245	5.53
237.628	6.18
238.011	6.41
238.394	7.53
238.777	8.21
239.16	4.89
239.543	4.24
239.925	6.31
240.308	5.57
240.691	4.55
241.073	4.53
241.456	4.89
241.838	6.35
242.221	6.86
242.603	6.91
242.986	6.86
243.368	5.65
243.75	5.81
244.133	5.39
244.515	5.61
244.897	5.46
245.279	5.6
245.661	5.75
246.043	5.34
246.425	5.76
246.807	6.75
247.189	5.42
247.571	6.07
247.953	5.54
248.335	5.48
248.717	5.38
249.098	5.16
249.48	5.38
249.862	5.62
250.243	5.51
250.625	6.27
251.006	6.17
251.388	5.49
251.769	6.22
252.151	5.46
252.532	5.2
252.913	8.04
253.295	5.24
253.676	5.46
254.057	5.6
254.438	5.32
254.819	5.46
255.2	6.01
255.581	6.27
255.962	5.9
256.343	7.24
256.724	5.17
257.105	5.3
257.486	6.42
257.867	4.29
258.247	5.7
258.628	6.68
259.009	5.36
259.389	5.22
259.77	5.99
260.15	5.89
260.531	5.43
260.911	5.69
261.292	5.66
261.672	5.64
262.052	5.14
262.432	5.22
262.813	5.61
263.193	5.39
263.573	5.68
263.953	5.45
264.333	5.67
264.713	5.5
265.093	6.29
265.473	6.64
265.853	4.53
266.233	5.38
266.612	6.1
266.992	5.53
267.372	5.54
267.752	6.4
268.131	6.17
268.511	4.89
268.89	5.52
269.27	5.23
269.649	5.64
270.029	5.85
270.408	5.99
270.787	5.98
271.167	5.37
271.546	5.27
271.925	5.26
272.304	5.22
272.683	5.13
273.062	5.03
273.441	5.29
273.82	5.34
274.199	4.79
274.578	5.17
274.957	5.67
275.336	5.83
275.715	5.7
276.093	5.24
276.472	5.17
276.851	5.11
277.229	6.03
277.608	5
277.986	5.46
278.365	5.97
278.743	5.38
279.122	4.71
279.5	4.89
279.878	5.72
280.257	5.09
280.635	5.66
281.013	5.45
281.391	5.89
281.769	5.53
282.147	5.08
282.525	5.55
282.903	5.38
283.281	5.14
283.659	5.98
284.037	5.52
284.415	5.41
284.792	5.31
285.17	5.34
285.548	5.56
285.925	5.81
286.303	5.62
286.68	5.95
287.058	5.54
287.435	5.19
287.813	5.1
288.19	5.27
288.567	5.47
288.945	5.57
289.322	5.66
289.699	5.51
290.076	6
290.453	5.72
290.83	5.33
291.207	5.47
291.584	6.07
291.961	6.1
292.338	5.87
292.715	5.58
293.092	6.36
293.469	6.3
293.845	5.81
294.222	5.86
294.599	6.02
294.975	6.1
295.352	6.33
295.728	6.17
296.105	6.52
296.481	6.42
296.858	6.46
297.234	6.8
297.61	6.65
297.986	6.47
298.363	6.66
298.739	6.42
299.115	6.38
299.491	6.67
299.867	6.89
300.243	6.71
300.619	6.65
300.995	6.77
301.371	6.6
301.746	7.01
302.122	6.77
302.498	6.76
302.874	7.24
303.249	6.98
303.625	7.45
304	7.26
304.376	7.12
304.751	6.68
305.127	7.57
305.502	7.81
305.878	7.33
306.253	7.35
306.628	7.5
307.003	7.48
307.378	7.72
307.754	7.61
308.129	7.74
308.504	8.08
308.879	8.25
309.254	8.29
309.629	8.15
310.003	8.03
310.378	7.94
310.753	8.25
311.128	8.45
311.502	8.56
311.877	8.33
312.252	8.59
312.626	8.56
313.001	8.66
313.375	8.66
313.75	8.67
314.124	8.44
314.498	8.78
314.873	9.36
315.247	9.48
315.621	8.81
315.995	9.95
316.369	9.89
316.743	8.81
317.117	9.52
317.491	8.62
317.865	10.14
318.239	9.57
318.613	9.58
318.987	9.55
319.361	10.03
319.734	9.84
320.108	10.13
320.482	10.11
320.855	10.02
321.229	10.28
321.602	10.14
321.976	10
322.349	10.72
322.723	10.48
323.096	10.93
323.469	10.99
323.843	10.2
324.216	11.06
324.589	10.88
324.962	10.38
325.335	11.25
325.708	10.8
326.081	10.96
326.454	11.26
326.827	11.23
327.2	11.05
327.573	10.84
327.945	11.77
328.318	11.65
328.691	10.96
329.063	10.89
329.436	10.97
329.809	11.68
330.181	11.27
330.553	11.28
330.926	12.19
331.298	11.95
331.671	12.03
332.043	11.88
332.415	12.51
332.787	11.49
333.159	11.96
333.532	12.34
333.904	11.98
334.276	11.52
334.648	12.13
335.02	12.94
335.391	12.25
335.763	12.38
336.135	12.56
336.507	12.1
336.879	11.66
337.25	13.04
337.622	12.37
337.993	13.02
338.365	13.25
338.736	13.22
339.108	12.05
339.479	12.41
339.851	12.9
340.222	13.14
340.593	13.03
340.964	13.2
341.336	12.63
341.707	13.03
342.078	12.89
342.449	13.6
342.82	13.43
343.191	13.28
343.562	13.73
343.933	13.47
344.303	13.38
344.674	13.4
345.045	14.04
345.416	14.15
345.786	13.99
346.157	13.86
346.527	13.34
346.898	13.93
347.268	13.89
347.639	13.61
348.009	14.05
348.38	14.23
348.75	14.11
349.12	14.43
349.49	14.16
349.861	13.62
350.231	14.32
350.601	14.37
350.971	14.51
351.341	14.83
351.711	14.21
352.081	14.79
352.45	14.9
352.82	14.78
353.19	14.84
353.56	14.65
353.929	14.95
354.299	14.52
354.669	14.54
355.038	15
355.408	15.11
355.777	15.07
356.147	15.47
356.516	15.45
356.885	15.51
357.254	15.2
357.624	15.35
357.993	15.14
358.362	15.29
358.731	15.47
359.1	15.78
359.469	15.72
359.838	15.41
360.207	15.61
360.576	16.19
360.945	15.85
361.314	15.99
361.682	15.95
362.051	15.94
362.42	15.71
362.788	15.97
363.157	16.27
363.525	16.02
363.894	16.27
364.262	16.17
364.631	16.03
364.999	16.26
365.367	16.58
365.735	16.33
366.104	16.26
366.472	16.37
366.84	16.45
367.208	16.69
367.576	16.59
367.944	16.86
368.312	16.85
368.68	16.86
369.048	17.01
369.416	17.13
369.783	16.91
370.151	17.32
370.519	17.03
370.886	17.04
371.254	17.53
371.621	17.29
371.989	17.4
372.356	17.05
372.724	17.73
373.091	17.73
373.458	17.7
373.826	17.6
374.193	17.61
374.56	17.88
374.927	17.8
375.294	17.86
375.661	18.36
376.028	18.1
376.395	18
376.762	18.5
377.129	18.12
377.496	18.14
377.863	18.38
378.229	17.93
378.596	18.73
378.963	18.88
379.329	18.24
379.696	18.62
380.062	18.59
380.429	18.61
380.795	18.64
381.161	18.99
381.528	19.16
381.894	19.23
382.26	19.05
382.626	18.79
382.993	19.16
383.359	19.48
383.725	19.42
384.091	19.48
384.457	19.17
384.823	19.39
385.188	19.46
385.554	19.48
385.92	19.19
386.286	19.66
386.651	19.78
387.017	19.7
387.383	19.6
387.748	19.55
388.114	19.8
388.479	19.87
388.845	19.86
389.21	20.03
389.575	20.04
389.94	20.16
390.306	20.12
390.671	20.1
391.036	20.33
391.401	20.62
391.766	20.22
392.131	20.33
392.496	20.46
392.861	20.49
393.226	20.52
393.591	20.2
393.956	20.69
394.32	20.51
394.685	20.6
395.05	21.03
395.414	20.79
395.779	20.61
396.143	21.02
396.508	20.83
396.872	21.16
397.236	20.91
397.601	21.15
397.965	21.34
398.329	21.26
398.694	21.38
399.058	21.45
399.422	21.25
399.786	21.37
400.15	21.42
400.514	21.61
400.878	21.63
401.242	21.64
401.605	21.82
401.969	21.73
402.333	21.56
402.697	21.73
403.06	22.03
403.424	22.03
403.787	21.68
404.151	21.76
404.514	21.96
404.878	22.22
405.241	22.53
405.604	22.37
405.968	22.12
406.331	22.42
406.694	22.47
407.057	22.29
407.42	22.33
407.783	22.31
408.146	22.52
408.509	22.57
408.872	22.71
409.235	22.94
409.598	22.94
409.961	22.95
410.323	23.13
410.686	23.11
411.049	23.22
411.411	22.88
411.774	23.26
412.136	23.01
412.499	23.09
412.861	23.21
413.223	22.95
413.586	23.22
413.948	23.36
414.31	23.37
414.672	23.48
415.035	23.33
415.397	23.63
415.759	23.94
416.121	24.02
416.483	23.63
416.845	23.68
417.206	23.99
417.568	23.77
417.93	23.87
418.292	23.93
418.653	23.97
419.015	23.84
419.377	23.86
419.738	23.98
420.1	23.97
420.461	23.77
420.822	23.86
421.184	23.92
421.545	23.87
421.906	23.99
422.267	23.92
422.629	23.81
422.99	23.82
423.351	23.84
423.712	23.68
424.073	24.11
424.434	24.22
424.795	24.33
425.155	24.28
425.516	24.46
425.877	24.21
426.238	24.21
426.598	24.14
426.959	24.39
427.32	24.39
427.68	24.73
428.041	24.79
428.401	24.73
428.761	25.29
429.122	25.07
429.482	25.39
429.842	25.48
430.202	25.53
430.563	25.71
430.923	25.66
431.283	25.7
431.643	25.54
432.003	25.61
432.363	25.83
432.722	25.79
433.082	25.84
433.442	25.85
433.802	25.82
434.161	25.9
434.521	25.84
434.881	25.78
435.24	25.87
435.6	25.99
435.959	25.79
436.319	26.02
436.678	26.2
437.037	26.38
437.396	26.51
437.756	26.48
438.115	26.53
438.474	26.75
438.833	26.55
439.192	26.74
439.551	26.69
439.91	26.84
440.269	26.67
440.628	26.62
440.987	26.86
441.345	26.5
441.704	26.65
442.063	26.42
442.421	26.63
442.78	26.67
443.138	26.61
443.497	26.83
443.855	26.91
444.214	27.33
444.572	27.43
444.93	27.46
445.288	27.22
445.647	27.52
446.005	27.4
446.363	27.59
446.721	27.55
447.079	27.26
447.437	27.19
447.795	27.05
448.153	27.15
448.51	26.91
448.868	27.12
449.226	27.27
449.584	27.42
449.941	27.62
450.299	27.74
450.656	27.78
451.014	28.15
451.371	28.02
451.729	28.03
452.086	28.2
452.443	28.35
452.801	28.69
453.158	28.54
453.515	28.67
453.872	28.51
454.229	28.6
454.586	28.63
454.943	28.17
455.3	28.54
455.657	28.64
456.014	28.85
456.371	28.78
456.727	28.81
457.084	28.88
457.441	29.04
457.797	29.08
458.154	29.14
458.51	29.23
458.867	29.39
459.223	29.47
459.58	29.19
459.936	29.39
460.292	29.44
460.648	29.24
461.005	29.21
461.361	29.14
461.717	28.8
462.073	28.81
462.429	28.69
462.785	29.07
463.141	29.41
463.496	29.68
463.852	29.73
464.208	29.91
464.564	29.9
464.919	29.9
465.275	30.26
465.631	30.04
465.986	30.41
466.342	30.43
466.697	30.16
467.052	30.24
467.408	30.02
467.763	30.29
468.118	30.36
468.473	30.63
468.829	30.22
469.184	30.27
469.539	30.41
469.894	30.39
470.249	30.6
470.603	30.4
470.958	30.78
471.313	30.75
471.668	30.81
472.023	31.04
472.377	31
472.732	30.99
473.086	31.08
473.441	31.29
473.795	31.13
474.15	31.32
474.504	31.44
474.859	31.53
475.213	31.49
475.567	31.45
475.921	31.61
476.275	31.62
476.63	31.66
476.984	31.74
477.338	31.86
477.692	31.75
478.045	31.8
478.399	31.77
478.753	31.71
479.107	31.82
479.461	31.8
479.814	31.74
480.168	31.89
480.521	31.88
480.875	32.13
481.228	31.87
481.582	32.16
481.935	32.07
482.289	32.21
482.642	32.31
482.995	32.4
483.348	32.24
483.701	32.08
484.055	31.92
484.408	31.93
484.761	31.9
485.114	31.83
485.466	31.57
485.819	31.16
486.172	30.95
486.525	31.09
486.878	31.22
487.23	31.48
487.583	32.01
487.936	32.14
488.288	32.18
488.641	32.4
488.993	32.16
489.345	31.87
489.698	31.79
490.05	31.68
490.402	31.75
490.754	32.1
491.107	32.2
491.459	32.62
491.811	32.92
492.163	33.22
492.515	33.32
492.866	33.24
493.218	33.03
493.57	32.51
493.922	32.24
494.274	32.41
494.625	32.64
494.977	33.05
495.328	33.43
495.68	33.72
496.031	34
496.383	34.04
496.734	34.04
497.086	34.32
497.437	34.26
497.788	34.2
498.139	34.35
498.49	34.24
498.842	34.17
499.193	33.96
499.544	33.85
499.894	34.1
500.245	34.14
500.596	34.29
500.947	34.3
501.298	34.44
501.648	34.3
501.999	34.68
502.35	34.8
502.7	34.87
503.051	35.1
503.401	34.97
503.752	35.02
504.102	35.32
504.452	35.07
504.803	35.25
505.153	35.31
505.503	35.16
505.853	35.34
506.203	35.35
506.553	35.44
506.903	35.44
507.253	35.61
507.603	35.49
507.953	35.75
508.303	35.69
508.652	35.7
509.002	35.91
509.352	35.76
509.701	35.75
510.051	35.83
510.4	35.74
510.75	35.56
511.099	35.55
511.449	35.6
511.798	35.72
512.147	35.82
512.496	35.97
512.846	36.11
513.195	36.22
513.544	36.28
513.893	36.23
514.242	36.24
514.591	36.31
514.939	36.11
515.288	36.32
515.637	36.55
515.986	36.57
516.334	36.7
516.683	36.86
517.032	37
517.38	36.97
517.729	36.98
518.077	37.05
518.426	37.07
518.774	37.1
519.122	36.95
519.47	36.94
519.819	36.88
520.167	36.86
520.515	36.6
520.863	36.27
521.211	36.63
521.559	36.65
521.907	36.81
522.255	36.92
522.602	37.24
522.95	37.57
523.298	37.62
523.645	37.57
523.993	37.8
524.341	37.87
524.688	38.12
525.036	38.05
525.383	37.96
525.73	38.25
526.078	38.22
526.425	38.05
526.772	38.12
527.119	38.07
527.466	37.73
527.814	37.38
528.161	37.53
528.508	37.72
528.854	37.87
529.201	37.97
529.548	38.1
529.895	38.14
530.242	37.64
530.588	37.12
530.935	37.02
531.282	37.11
531.628	37.24
531.975	37.52
532.321	37.86
532.667	38.01
533.014	38.42
533.36	38.52
533.706	38.51
534.052	38.77
534.399	38.68
534.745	38.79
535.091	38.34
535.437	37.89
535.783	37.97
536.129	38.14
536.474	38.35
536.82	38.7
537.166	38.88
537.512	39.41
537.857	39.59
538.203	39.35
538.549	39.1
538.894	38.82
539.239	38.98
539.585	39.08
539.93	39.23
540.276	39.5
540.621	39.94
540.966	39.99
541.311	40.21
541.656	40.41
542.001	39.99
542.346	40.29
542.691	40.06
543.036	39.72
543.381	38.92
543.726	38.75
544.071	39.1
544.415	39.24
544.76	39.49
545.105	39.81
545.449	39.9
545.794	39.93
546.138	40.11
546.483	40.38
546.827	40.57
547.171	40.74
547.516	40.68
547.86	40.71
548.204	40.8
548.548	40.73
548.892	40.49
549.236	40.36
549.58	40.62
549.924	40.96
550.268	41.13
550.612	41.29
550.956	41.29
551.3	41.56
551.643	41.87
551.987	41.64
552.33	41.81
552.674	41.72
553.017	42.06
553.361	42.15
553.704	41.83
554.048	42.1
554.391	41.8
554.734	41.91
555.077	41.68
555.42	41.74
555.764	41.92
556.107	42.26
556.45	42.18
556.793	42.44
557.135	42.61
557.478	42.64
557.821	42.68
558.164	42.7
558.507	43.02
558.849	42.96
559.192	43.02
559.534	42.54
559.877	43.21
560.219	43.23
560.562	43.21
560.904	43.19
561.246	43.16
561.589	43.23
561.931	43.11
562.273	43.02
562.615	43.26
562.957	43.2
563.299	43.19
563.641	43.15
563.983	43.35
564.325	43.65
564.667	43.65
565.008	43.82
565.35	43.81
565.692	44.1
566.033	43.84
566.375	43.65
566.716	43.6
567.058	43.81
567.399	43.68
567.741	44.05
568.082	43.6
568.423	43.51
568.764	43.43
569.105	43.73
569.447	43.81
569.788	44.04
570.129	44.27
570.47	44.56
570.811	44.57
571.151	44.35
571.492	44.28
571.833	44.5
572.174	44.6
572.514	44.88
572.855	44.73
573.195	44.52
573.536	44.43
573.876	44.3
574.217	44.28
574.557	44.16
574.898	44.64
575.238	44.79
575.578	45.07
575.918	44.91
576.258	44.88
576.598	44.67
576.938	44.72
577.278	44.93
577.618	45.21
577.958	45.12
578.298	45.33
578.638	45.42
578.977	45.45
579.317	45.46
579.657	45.59
579.996	45.57
580.336	45.73
580.675	46
581.014	46.35
581.354	46.14
581.693	46.26
582.032	46.11
582.372	46.27
582.711	46.05
583.05	46.37
583.389	46.41
583.728	46.21
584.067	46.37
584.406	46.44
584.745	46.41
585.083	46.56
585.422	46.72
585.761	46.57
586.1	46.68
586.438	46.79
586.777	46.9
587.115	46.85
587.454	46.98
587.792	47.04
588.13	46.85
588.469	46.93
588.807	47.09
589.145	47.25
589.483	47.03
589.821	47.24
590.159	47.23
590.497	47.26
590.835	47.26
591.173	46.99
591.511	47.05
591.849	47.38
592.187	47.05
592.524	47.22
592.862	47.38
593.2	47.12
593.537	47.41
593.875	47.72
594.212	47.69
594.55	48.16
594.887	47.97
595.224	47.88
595.561	47.96
595.899	47.72
596.236	47.93
596.573	48
596.91	48.05
597.247	48.13
597.584	48.24
597.921	48.38
598.258	48.17
598.594	47.95
598.931	48.15
599.268	47.55
599.604	47.49
599.941	47.92
600.277	47.75
600.614	48.31
600.95	48.51
601.287	48.56
601.623	49
601.959	48.78
602.296	48.59
602.632	49
602.968	49.05
603.304	49.03
603.64	49.12
603.976	48.87
604.312	49.42
604.648	48.76
604.984	48.8
605.319	48.89
605.655	48.93
605.991	48.93
606.326	48.8
606.662	48.51
606.998	48.61
607.333	48.44
607.668	48.98
608.004	48.94
608.339	49.32
608.674	49.75
609.01	49.8
609.345	49.6
609.68	49.95
610.015	50.07
610.35	49.73
610.685	49.94
611.02	49.96
611.355	49.63
611.689	49.13
612.024	49.45
612.359	49.36
612.694	49.72
613.028	49.85
613.363	49.8
613.697	50
614.032	50.21
614.366	50.13
614.7	50.84
615.035	50.06
615.369	50.45
615.703	50.48
616.037	50.82
616.371	50.92
616.705	50.7
617.039	50.79
617.373	51
617.707	50.79
618.041	50.77
618.375	51.07
618.709	50.67
619.042	51.13
619.376	51.48
619.71	51.31
620.043	51.5
620.377	51.34
620.71	51.15
621.043	51.75
621.377	51.32
621.71	51.28
622.043	51.29
622.376	51.32
622.709	51.3
623.043	51.15
623.376	51.42
623.709	51.29
624.041	51.83
624.374	51.75
624.707	51.55
625.04	51.85
625.373	51.83
625.705	52.21
626.038	51.92
626.37	52.31
626.703	51.96
627.035	51.98
627.368	52.19
627.7	52.04
628.032	52.18
628.365	52.15
628.697	52.1
629.029	51.88
629.361	52.05
629.693	52.09
630.025	51.95
630.357	51.91
630.689	52.18
631.021	52.45
631.353	52.36
631.684	52.16
632.016	52.55
632.348	52.89
632.679	52.54
633.011	52.98
633.342	52.66
633.674	52.46
634.005	52.83
634.336	52.75
634.668	53.11
634.999	53.08
635.33	53.32
635.661	53.29
635.992	52.64
636.323	52.96
636.654	52.74
636.985	53.2
637.316	52.89
637.647	53.15
637.977	53.02
638.308	53.42
638.639	53.25
638.969	53.55
639.3	53.64
639.63	53.92
639.961	53.64
640.291	53.7
640.622	53.91
640.952	53.82
641.282	53.89
641.612	53.77
641.943	54.26
642.273	54.34
642.603	53.71
642.933	54
643.263	54.32
643.592	53.94
643.922	54.11
644.252	54.19
644.582	54.2
644.911	54.92
645.241	54.38
645.571	55.01
645.9	54.37
646.23	54
646.559	54.73
646.888	54.23
647.218	54.48
647.547	54.43
647.876	55.01
648.205	54.48
648.534	55.23
648.863	54.85
649.192	54.74
649.521	54.88
649.85	54.74
650.179	55.27
650.508	55.08
650.837	54.95
651.165	55.1
651.494	53.88
651.822	54.8
652.151	54.95
652.479	55.24
652.808	55.48
653.136	54.98
653.465	55.08
653.793	55.49
654.121	55.82
654.449	56.13
654.777	55.06
655.105	55.49
655.433	55.22
655.761	55.29
656.089	55.37
656.417	55.21
656.745	55.78
657.073	55.29
657.4	55.86
657.728	55.86
658.056	55.89
658.383	55.54
658.711	56.19
659.038	55.94
659.365	56.49
659.693	55.84
660.02	55.43
660.347	56.26
660.674	55.96
661.001	55.97
661.329	56.01
661.656	56.04
661.982	55.64
662.309	55.81
662.636	56.08
662.963	56.79
663.29	56.14
663.616	56.33
663.943	56.66
664.27	56.55
664.596	56.06
664.923	56.96
665.249	56.48
665.576	56.84
665.902	56.8
666.228	56.33
666.554	56.08
666.881	55.97
667.207	56.26
667.533	56.99
667.859	56.48
668.185	57.09
668.511	57.62
668.837	56.71
669.162	56.53
669.488	57.07
