Data from 0178_chest_Reflection__4__035.txt Node

Date: Mon Aug 28 18:55:02 CDT 2023
User: ToomeyLab
Spectrometer: FLMS14357
Trigger mode: 0
Integration Time (sec): 1.000000E-2
Scans to average: 100
Electric dark correction enabled: true
Nonlinearity correction enabled: false
Boxcar width: 0
XAxis mode: Wavelengths
Number of Pixels in Spectrum: 2048
>>>>>Begin Spectral Data<<<<<
189.047	46.5
189.435	46.5
189.823	46.5
190.211	-3523.26
190.599	22.07
190.987	121.47
191.375	37.14
191.763	113.71
192.151	48.59
192.538	102.91
192.926	11.45
193.314	799.32
193.702	106.88
194.089	24.16
194.477	1481.18
194.864	255.76
195.252	134.58
195.639	-3942.74
196.027	107.67
196.414	203.51
196.801	47.39
197.189	-3.85
197.576	51.99
197.963	38.47
198.351	4.3
198.738	49.61
199.125	12.84
199.512	16.46
199.899	40.38
200.286	111.97
200.673	9.5
201.06	-4.47
201.447	-36.41
201.833	-45.52
202.22	12.73
202.607	40.31
202.994	42.41
203.38	6.76
203.767	31.2
204.154	10.43
204.54	-42.72
204.927	-38.02
205.313	29.06
205.699	-13.81
206.086	18.83
206.472	25.76
206.858	-4
207.245	-3.44
207.631	27.98
208.017	10.4
208.403	-3.39
208.789	32.04
209.175	-79.63
209.561	33.32
209.947	-8.49
210.333	7.58
210.719	14.67
211.105	50.97
211.491	30.4
211.876	11.37
212.262	5.76
212.648	3.27
213.034	-0.63
213.419	-14.91
213.805	33.76
214.19	-8.99
214.576	16.71
214.961	-30.67
215.346	-25.13
215.732	18.82
216.117	-10.77
216.502	3.51
216.888	-68.84
217.273	-4.94
217.658	19.62
218.043	16.14
218.428	5.29
218.813	-13.4
219.198	19.17
219.583	-11.09
219.968	10.85
220.353	-16.72
220.738	9.29
221.122	16.92
221.507	-0.31
221.892	2.7
222.276	-4.34
222.661	-4.17
223.046	7.66
223.43	16.21
223.815	7.7
224.199	20.79
224.583	2.57
224.968	10.23
225.352	10.68
225.736	15.39
226.121	7.58
226.505	2.03
226.889	3.31
227.273	8.33
227.657	6.02
228.041	7.23
228.425	3.31
228.809	4.51
229.193	3.03
229.577	6.28
229.961	1.94
230.344	4.97
230.728	5.23
231.112	5.12
231.495	5.13
231.879	4.45
232.263	4.39
232.646	3.17
233.03	6.58
233.413	7.21
233.797	4.9
234.18	5.8
234.563	2.67
234.946	5.4
235.33	4.75
235.713	2.58
236.096	4.87
236.479	4.96
236.862	6.53
237.245	3.34
237.628	5.71
238.011	7.43
238.394	6.87
238.777	6.72
239.16	4.77
239.543	2.82
239.925	6
240.308	3.51
240.691	3.58
241.073	4.25
241.456	5.13
241.838	3.93
242.221	6.05
242.603	5.92
242.986	6.61
243.368	5.43
243.75	4.56
244.133	5.62
244.515	4.98
244.897	5.72
245.279	5.86
245.661	5.3
246.043	6.11
246.425	4.86
246.807	5.83
247.189	5.14
247.571	5.44
247.953	6.23
248.335	5.45
248.717	5.12
249.098	5.4
249.48	5.42
249.862	5.2
250.243	5.48
250.625	5.93
251.006	5.08
251.388	5.83
251.769	5.32
252.151	5.07
252.532	4.25
252.913	5.79
253.295	4.16
253.676	5.44
254.057	5.3
254.438	4.75
254.819	4.95
255.2	5.62
255.581	4.88
255.962	5.42
256.343	6.56
256.724	3.85
257.105	4.85
257.486	5.6
257.867	5.57
258.247	4.59
258.628	5.21
259.009	4.43
259.389	4.03
259.77	5.21
260.15	4.69
260.531	4.87
260.911	5.07
261.292	5.13
261.672	4.93
262.052	4.81
262.432	4.89
262.813	4.99
263.193	4.45
263.573	4.83
263.953	4.84
264.333	5.02
264.713	4.94
265.093	5.43
265.473	5
265.853	4.54
266.233	4.42
266.612	5.2
266.992	5.02
267.372	4.45
267.752	5.45
268.131	5.49
268.511	4.82
268.89	5.04
269.27	4.32
269.649	4.69
270.029	5.74
270.408	5.22
270.787	5.03
271.167	4.83
271.546	4.35
271.925	4.56
272.304	4.82
272.683	4.77
273.062	3.89
273.441	4.95
273.82	4.46
274.199	4.24
274.578	4.87
274.957	4.78
275.336	5.17
275.715	5.05
276.093	4.01
276.472	4.64
276.851	5
277.229	4.98
277.608	5.13
277.986	4.66
278.365	4.98
278.743	4.6
279.122	4.67
279.5	4.53
279.878	4.31
280.257	4.38
280.635	4.81
281.013	4.01
281.391	4.42
281.769	4.51
282.147	4.75
282.525	4.78
282.903	5.05
283.281	4.67
283.659	5.09
284.037	4.98
284.415	4.84
284.792	4.7
285.17	4.42
285.548	4.25
285.925	5.14
286.303	5.08
286.68	4.72
287.058	4.62
287.435	4.08
287.813	4.89
288.19	4.91
288.567	4.92
288.945	4.43
289.322	4.72
289.699	5.01
290.076	4.65
290.453	4.9
290.83	3.81
291.207	4.79
291.584	4.79
291.961	5.04
292.338	4.71
292.715	4.76
293.092	4.74
293.469	5.2
293.845	4.76
294.222	4.83
294.599	5.5
294.975	5.58
295.352	4.82
295.728	5.45
296.105	5.22
296.481	5.09
296.858	5.45
297.234	5.24
297.61	5.3
297.986	5.12
298.363	5.59
298.739	5.46
299.115	5.12
299.491	5.68
299.867	5.28
300.243	5.72
300.619	5.5
300.995	5.54
301.371	5.48
301.746	5.34
302.122	5.13
302.498	5.31
302.874	5.62
303.249	5.49
303.625	6.06
304	5.4
304.376	5.43
304.751	5.04
305.127	5.45
305.502	5.57
305.878	5.51
306.253	5.57
306.628	5.81
307.003	5.53
307.378	5.87
307.754	6.09
308.129	5.28
308.504	6.54
308.879	5.12
309.254	6.23
309.629	5.41
310.003	5.97
310.378	5.75
310.753	5.74
311.128	6.17
311.502	5.91
311.877	5.77
312.252	5.7
312.626	5.63
313.001	5.99
313.375	5.73
313.75	5.58
314.124	5.52
314.498	5.61
314.873	6.42
315.247	6.66
315.621	5.74
315.995	6.54
316.369	5.72
316.743	5.95
317.117	6.15
317.491	5.73
317.865	5.74
318.239	5.82
318.613	6.17
318.987	6.33
319.361	6.2
319.734	5.87
320.108	6.37
320.482	6.16
320.855	6.03
321.229	5.9
321.602	5.88
321.976	5.9
322.349	5.95
322.723	5.66
323.096	6.37
323.469	6.32
323.843	5.85
324.216	6.41
324.589	6.25
324.962	6.33
325.335	5.96
325.708	5.94
326.081	6.03
326.454	5.96
326.827	6.22
327.2	5.96
327.573	5.98
327.945	6.35
328.318	6.39
328.691	5.78
329.063	6.09
329.436	5.58
329.809	7.08
330.181	5.58
330.553	6.04
330.926	6.34
331.298	5.86
331.671	6.32
332.043	5.82
332.415	7.04
332.787	5.64
333.159	6.17
333.532	6.49
333.904	6.26
334.276	5.87
334.648	6.1
335.02	6.19
335.391	6.58
335.763	5.93
336.135	6.32
336.507	6.03
336.879	5.79
337.25	6.61
337.622	5.94
337.993	6.47
338.365	6.48
338.736	6.62
339.108	5.75
339.479	5.82
339.851	6.37
340.222	6.33
340.593	5.96
340.964	6.24
341.336	6.06
341.707	6.02
342.078	5.5
342.449	6.29
342.82	6.24
343.191	6.33
343.562	6.16
343.933	6.02
344.303	6.29
344.674	6.81
345.045	6.15
345.416	6.31
345.786	6.38
346.157	6.43
346.527	5.98
346.898	6.02
347.268	6.09
347.639	6.05
348.009	6.01
348.38	6.44
348.75	6.25
349.12	6.43
349.49	6.16
349.861	5.83
350.231	5.97
350.601	6
350.971	6.25
351.341	6.11
351.711	6.22
352.081	6.35
352.45	6.34
352.82	6.24
353.19	6.47
353.56	6.63
353.929	6.38
354.299	6.31
354.669	6.02
355.038	6.13
355.408	6.58
355.777	6.13
356.147	6.28
356.516	6.7
356.885	6.24
357.254	5.89
357.624	6.2
357.993	6.63
358.362	6.15
358.731	6.23
359.1	5.98
359.469	6.58
359.838	5.9
360.207	6.01
360.576	6.44
360.945	6.27
361.314	6.12
361.682	5.86
362.051	6.33
362.42	6.43
362.788	6.1
363.157	6.25
363.525	5.97
363.894	6.16
364.262	6.47
364.631	6.07
364.999	6.23
365.367	6.45
365.735	6.12
366.104	6.18
366.472	5.96
366.84	6.29
367.208	6.25
367.576	5.77
367.944	6.5
368.312	6.79
368.68	6.26
369.048	6.24
369.416	6.29
369.783	6.17
370.151	6.21
370.519	6.4
370.886	6.22
371.254	6.09
371.621	5.91
371.989	6.34
372.356	6.18
372.724	6.58
373.091	6.16
373.458	6.18
373.826	6.12
374.193	6.11
374.56	6.6
374.927	6.16
375.294	6.27
375.661	6.53
376.028	6.22
376.395	6.17
376.762	6.68
377.129	6.27
377.496	6.32
377.863	6.6
378.229	5.85
378.596	6.59
378.963	6.57
379.329	6.32
379.696	6.14
380.062	6.08
380.429	6.13
380.795	6.07
381.161	6.29
381.528	6.79
381.894	6.45
382.26	6.47
382.626	6.61
382.993	6.62
383.359	6.37
383.725	6.4
384.091	6.55
384.457	6.23
384.823	6.19
385.188	6.43
385.554	6.1
385.92	6.14
386.286	6.46
386.651	6.28
387.017	6.57
387.383	6.5
387.748	6.42
388.114	6.25
388.479	6.02
388.845	6.26
389.21	6.29
389.575	6.63
389.94	6.49
390.306	6.73
390.671	6.45
391.036	6.33
391.401	6.58
391.766	6.52
392.131	6.41
392.496	6.23
392.861	6.26
393.226	6.67
393.591	6.1
393.956	6.6
394.32	6.39
394.685	6.45
395.05	6.36
395.414	6.37
395.779	6.36
396.143	6.48
396.508	6.31
396.872	6.6
397.236	6.47
397.601	6.49
397.965	6.38
398.329	6.3
398.694	6.43
399.058	6.26
399.422	6.67
399.786	6.62
400.15	6.62
400.514	6.48
400.878	6.53
401.242	6.46
401.605	6.48
401.969	6.28
402.333	6.36
402.697	6.49
403.06	6.38
403.424	6.66
403.787	6.4
404.151	6.16
404.514	6.43
404.878	6.36
405.241	6.53
405.604	6.57
405.968	6.28
406.331	6.92
406.694	6.6
407.057	6.59
407.42	6.43
407.783	6.55
408.146	6.46
408.509	6.66
408.872	6.46
409.235	6.52
409.598	6.53
409.961	6.22
410.323	6.78
410.686	6.46
411.049	6.56
411.411	6.66
411.774	6.3
412.136	6.46
412.499	6.42
412.861	6.75
413.223	6.49
413.586	6.33
413.948	6.62
414.31	6.71
414.672	6.51
415.035	6.66
415.397	6.47
415.759	6.57
416.121	6.55
416.483	6.52
416.845	6.82
417.206	6.51
417.568	6.71
417.93	6.45
418.292	6.54
418.653	6.29
419.015	6.5
419.377	6.36
419.738	6.68
420.1	6.6
420.461	6.41
420.822	6.45
421.184	6.46
421.545	6.55
421.906	6.47
422.267	6.63
422.629	6.47
422.99	6.37
423.351	6.46
423.712	6.33
424.073	6.4
424.434	6.56
424.795	6.47
425.155	6.5
425.516	6.52
425.877	6.43
426.238	6.4
426.598	6.45
426.959	6.46
427.32	6.47
427.68	6.57
428.041	6.5
428.401	6.52
428.761	6.56
429.122	6.45
429.482	6.61
429.842	6.74
430.202	6.54
430.563	6.74
430.923	6.67
431.283	6.45
431.643	6.7
432.003	6.56
432.363	6.72
432.722	6.73
433.082	6.69
433.442	6.75
433.802	6.61
434.161	6.59
434.521	6.51
434.881	6.59
435.24	6.58
435.6	6.71
435.959	6.64
436.319	6.66
436.678	6.5
437.037	6.76
437.396	6.81
437.756	6.57
438.115	6.72
438.474	6.68
438.833	6.71
439.192	6.79
439.551	6.51
439.91	6.91
440.269	6.69
440.628	6.68
440.987	6.62
441.345	6.59
441.704	6.64
442.063	6.54
442.421	6.58
442.78	6.63
443.138	6.63
443.497	6.59
443.855	6.62
444.214	6.74
444.572	6.73
444.93	6.88
445.288	6.85
445.647	6.8
446.005	6.85
446.363	6.64
446.721	6.86
447.079	6.68
447.437	6.64
447.795	6.58
448.153	6.61
448.51	6.65
448.868	6.68
449.226	6.54
449.584	6.62
449.941	6.65
450.299	6.77
450.656	6.78
451.014	6.68
451.371	6.71
451.729	6.58
452.086	6.87
452.443	6.87
452.801	6.84
453.158	6.97
453.515	6.9
453.872	6.67
454.229	6.9
454.586	6.94
454.943	6.77
455.3	6.77
455.657	6.84
456.014	6.9
456.371	6.73
456.727	6.73
457.084	6.84
457.441	6.9
457.797	6.78
458.154	6.92
458.51	6.88
458.867	6.88
459.223	7.01
459.58	6.84
459.936	6.89
460.292	6.85
460.648	6.87
461.005	6.69
461.361	6.75
461.717	6.79
462.073	6.72
462.429	6.63
462.785	6.75
463.141	6.78
463.496	6.86
463.852	6.88
464.208	6.98
464.564	7.03
464.919	6.85
465.275	6.91
465.631	7.05
465.986	7.05
466.342	6.98
466.697	6.78
467.052	6.88
467.408	6.82
467.763	6.94
468.118	7.03
468.473	6.99
468.829	6.91
469.184	6.81
469.539	7.05
469.894	6.87
470.249	6.92
470.603	6.97
470.958	6.98
471.313	7.13
471.668	6.93
472.023	7.03
472.377	6.95
472.732	7.01
473.086	7.01
473.441	6.98
473.795	7.12
474.15	7.1
474.504	6.88
474.859	7.01
475.213	7.09
475.567	7
475.921	7.28
476.275	7.08
476.63	7.14
476.984	7.16
477.338	6.96
477.692	6.99
478.045	7.17
478.399	7.15
478.753	6.91
479.107	7.12
479.461	7.06
479.814	7.15
480.168	7.06
480.521	7.02
480.875	7.04
481.228	6.96
481.582	7.08
481.935	7.04
482.289	7.04
482.642	7.15
482.995	7.09
483.348	7.14
483.701	6.97
484.055	7.02
484.408	7.01
484.761	6.97
485.114	6.91
485.466	6.79
485.819	6.61
486.172	6.58
486.525	6.6
486.878	6.64
487.23	6.73
487.583	6.82
487.936	6.97
488.288	7
488.641	6.9
488.993	6.89
489.345	6.84
489.698	6.78
490.05	6.74
490.402	6.74
490.754	6.83
491.107	6.84
491.459	7.01
491.811	6.97
492.163	7.07
492.515	7.11
492.866	7.12
493.218	7.02
493.57	7
493.922	6.83
494.274	6.87
494.625	6.89
494.977	6.99
495.328	7.12
495.68	7.15
496.031	7.22
496.383	7.13
496.734	7.24
497.086	7.38
497.437	7.37
497.788	7.34
498.139	7.31
498.49	7.21
498.842	7.29
499.193	7.12
499.544	7.15
499.894	7.11
500.245	7.21
500.596	7.23
500.947	7.24
501.298	7.39
501.648	7.31
501.999	7.28
502.35	7.25
502.7	7.26
503.051	7.48
503.401	7.44
503.752	7.4
504.102	7.27
504.452	7.45
504.803	7.52
505.153	7.39
505.503	7.34
505.853	7.33
506.203	7.47
506.553	7.42
506.903	7.57
507.253	7.48
507.603	7.36
507.953	7.55
508.303	7.61
508.652	7.55
509.002	7.54
509.352	7.27
509.701	7.41
510.051	7.5
510.4	7.45
510.75	7.43
511.099	7.51
511.449	7.47
511.798	7.44
512.147	7.48
512.496	7.6
512.846	7.54
513.195	7.46
513.544	7.62
513.893	7.52
514.242	7.58
514.591	7.6
514.939	7.39
515.288	7.59
515.637	7.59
515.986	7.47
516.334	7.65
516.683	7.63
517.032	7.71
517.38	7.77
517.729	7.64
518.077	7.66
518.426	7.66
518.774	7.7
519.122	7.73
519.47	7.66
519.819	7.65
520.167	7.6
520.515	7.64
520.863	7.48
521.211	7.51
521.559	7.66
521.907	7.6
522.255	7.54
522.602	7.57
522.95	7.7
523.298	7.84
523.645	7.73
523.993	7.71
524.341	7.81
524.688	7.85
525.036	7.84
525.383	7.77
525.73	7.95
526.078	8.03
526.425	7.93
526.772	7.9
527.119	7.87
527.466	7.71
527.814	7.64
528.161	7.7
528.508	7.63
528.854	7.76
529.201	7.72
529.548	7.72
529.895	7.78
530.242	7.66
530.588	7.52
530.935	7.45
531.282	7.49
531.628	7.52
531.975	7.61
532.321	7.66
532.667	7.73
533.014	7.84
533.36	7.89
533.706	7.83
534.052	7.86
534.399	7.9
534.745	8.04
535.091	7.84
535.437	7.74
535.783	7.83
536.129	7.84
536.474	7.85
536.82	7.93
537.166	8.04
537.512	7.98
537.857	8.16
538.203	8.08
538.549	8.01
538.894	8.02
539.239	7.92
539.585	7.97
539.93	8.1
540.276	8.16
540.621	8.26
540.966	8.33
541.311	8.34
541.656	8.33
542.001	8.33
542.346	8.29
542.691	8.23
543.036	8.18
543.381	8.04
543.726	7.89
544.071	8.04
544.415	7.97
544.76	8.12
545.105	8.17
545.449	8.24
545.794	8.27
546.138	8.38
546.483	8.16
546.827	8.43
547.171	8.51
547.516	8.46
547.86	8.42
548.204	8.46
548.548	8.48
548.892	8.39
549.236	8.27
549.58	8.41
549.924	8.4
550.268	8.46
550.612	8.58
550.956	8.69
551.3	8.69
551.643	8.84
551.987	8.6
552.33	8.93
552.674	8.7
553.017	8.8
553.361	8.99
553.704	8.79
554.048	8.99
554.391	8.72
554.734	8.91
555.077	8.78
555.42	8.9
555.764	8.77
556.107	8.9
556.45	8.8
556.793	8.75
557.135	8.89
557.478	9.09
557.821	9.18
558.164	9.17
558.507	8.9
558.849	9.14
559.192	9.04
559.534	9.03
559.877	9.11
560.219	9.26
560.562	9.13
560.904	9.32
561.246	9.15
561.589	9.23
561.931	9.21
562.273	9.07
562.615	9.14
562.957	9.37
563.299	9.3
563.641	9.22
563.983	9.33
564.325	9.31
564.667	9.33
565.008	9.21
565.35	9.61
565.692	9.53
566.033	9.44
566.375	9.36
566.716	9.4
567.058	9.29
567.399	9.35
567.741	9.47
568.082	9.29
568.423	9.38
568.764	9.47
569.105	9.55
569.447	9.43
569.788	9.65
570.129	9.64
570.47	9.67
570.811	9.73
571.151	9.49
571.492	9.62
571.833	9.45
572.174	9.73
572.514	9.61
572.855	9.57
573.195	9.84
573.536	9.74
573.876	9.59
574.217	9.67
574.557	9.74
574.898	9.86
575.238	9.73
575.578	9.75
575.918	9.9
576.258	9.91
576.598	9.93
576.938	9.77
577.278	9.91
577.618	9.98
577.958	9.86
578.298	10
578.638	9.98
578.977	10.3
579.317	10.06
579.657	9.97
579.996	10.18
580.336	10.03
580.675	10.43
581.014	10.32
581.354	10.39
581.693	10.35
582.032	10.5
582.372	10.39
582.711	10.52
583.05	10.25
583.389	10.41
583.728	10.51
584.067	10.63
584.406	10.33
584.745	10.52
585.083	10.69
585.422	10.58
585.761	10.7
586.1	10.92
586.438	10.72
586.777	10.56
587.115	10.69
587.454	10.91
587.792	10.72
588.13	10.77
588.469	10.69
588.807	10.85
589.145	10.81
589.483	10.74
589.821	10.84
590.159	10.99
590.497	11.06
590.835	10.99
591.173	10.9
591.511	10.58
591.849	11.09
592.187	11.04
592.524	11.17
592.862	11.07
593.2	10.57
593.537	11.13
593.875	11.24
594.212	11.24
594.55	11.37
594.887	10.97
595.224	11.28
595.561	11
595.899	11.08
596.236	11.35
596.573	11.45
596.91	11.3
597.247	11.41
597.584	11.43
597.921	11.3
598.258	11.43
598.594	11.39
598.931	11.38
599.268	11.29
599.604	11.49
599.941	11.54
600.277	11.21
600.614	11.47
600.95	11.52
601.287	11.72
601.623	11.81
601.959	11.53
602.296	11.58
602.632	11.84
602.968	12.03
603.304	11.71
603.64	11.87
603.976	11.51
604.312	11.85
604.648	11.6
604.984	11.95
605.319	11.85
605.655	12.01
605.991	12.15
606.326	11.96
606.662	11.94
606.998	11.73
607.333	11.83
607.668	11.91
608.004	11.93
608.339	11.84
608.674	11.98
609.01	12.22
609.345	12.44
609.68	12.17
610.015	12.28
610.35	12.36
610.685	12.37
611.02	12.17
611.355	12.45
611.689	12.11
612.024	12.31
612.359	12.42
612.694	12.27
613.028	12.28
613.363	12.21
613.697	12.34
614.032	12.51
614.366	12.34
614.7	12.79
615.035	12.48
615.369	12.61
615.703	12.99
616.037	12.64
616.371	12.53
616.705	12.73
617.039	12.56
617.373	12.51
617.707	12.57
618.041	12.85
618.375	13.03
618.709	13.32
619.042	12.97
619.376	12.93
619.71	12.84
620.043	12.91
620.377	13.25
620.71	13.04
621.043	12.93
621.377	13.35
621.71	13.02
622.043	12.87
622.376	13.28
622.709	13.3
623.043	13.48
623.376	13.44
623.709	13.53
624.041	13.58
624.374	13.32
624.707	12.66
625.04	13.41
625.373	13.4
625.705	13.27
626.038	13.3
626.37	13.6
626.703	13.91
627.035	13.54
627.368	14.04
627.7	13.54
628.032	13.57
628.365	13.56
628.697	13.58
629.029	13.6
629.361	13.84
629.693	13.71
630.025	13.6
630.357	13.51
630.689	13.97
631.021	14.1
631.353	13.98
631.684	13.9
632.016	14.07
632.348	13.76
632.679	14.04
633.011	13.95
633.342	13.74
633.674	14.3
634.005	14.03
634.336	13.92
634.668	14.4
634.999	14.38
635.33	14.29
635.661	14.5
635.992	14.26
636.323	14.51
636.654	13.93
636.985	14.2
637.316	14.41
637.647	14.45
637.977	14.23
638.308	14.44
638.639	14.62
638.969	14.85
639.3	14.31
639.63	14.39
639.961	14.7
640.291	14.62
640.622	14.71
640.952	14.11
641.282	14.48
641.612	14.38
641.943	14.55
642.273	15.17
642.603	14.53
642.933	14.61
643.263	15.28
643.592	14.8
643.922	14.99
644.252	14.94
644.582	14.7
644.911	15.25
645.241	15.24
645.571	15.07
645.9	15.13
646.23	15.12
646.559	15.34
646.888	15.22
647.218	14.83
647.547	14.93
647.876	15.64
648.205	15.49
648.534	15.21
648.863	15.09
649.192	15.37
649.521	15.36
649.85	15.53
650.179	15.1
650.508	15.44
650.837	15.13
651.165	15.55
651.494	15.25
651.822	15.33
652.151	15.6
652.479	16.11
652.808	15.46
653.136	15.37
653.465	15.18
653.793	15.77
654.121	16.18
654.449	15.98
654.777	15.52
655.105	15.76
655.433	15.95
655.761	15.54
656.089	15.98
656.417	15.71
656.745	15.85
657.073	15.54
657.4	16.07
657.728	16.02
658.056	16.31
658.383	16.16
658.711	16.26
659.038	16.56
659.365	16.17
659.693	16.05
660.02	15.59
660.347	16.56
660.674	16.06
661.001	16.8
661.329	15.93
661.656	16.11
661.982	16.12
662.309	16.39
662.636	16.19
662.963	16.44
663.29	16.61
663.616	16.36
663.943	16.05
664.27	16.55
664.596	16.64
664.923	16.97
665.249	16.52
665.576	16.42
665.902	16.29
666.228	16.58
666.554	16.76
666.881	17.05
667.207	16.52
667.533	16.96
667.859	16.25
668.185	16.56
668.511	17.23
668.837	16.57
669.162	16.99
669.488	16.74
669.814	16.88
670.139	16.63
670.465	17.5
670.791	17.33
671.116	17.51
671.442	16.83
671.767	16.86
672.092	17.38
672.418	17.33
672.743	17.25
673.068	16.93
673.393	17.37
673.718	16.6
674.043	16.91
674.368	17.4
674.693	17.53
675.018	18.02
675.343	17.38
675.667	17.79
675.992	17.14
676.317	17.3
676.641	17.81
676.966	17.42
677.29	17.86
677.615	17.97
677.939	17.65
678.264	16.86
678.588	17.91
678.912	17.99
679.236	17.04
679.56	17.69
679.885	17.51
680.209	17.54
680.532	17.93
680.856	17.75
681.18	17.82
681.504	17.65
681.828	17.98
682.152	17.84
682.475	17.92
682.799	17.86
683.122	17.98
683.446	17.78
683.769	18.36
684.093	18.3
684.416	18.12
684.739	17.7
685.062	18.36
