Data from 0178_chest_Reflection__0__031.txt Node

Date: Mon Aug 28 18:54:15 CDT 2023
User: ToomeyLab
Spectrometer: FLMS14357
Trigger mode: 0
Integration Time (sec): 1.000000E-2
Scans to average: 100
Electric dark correction enabled: true
Nonlinearity correction enabled: false
Boxcar width: 0
XAxis mode: Wavelengths
Number of Pixels in Spectrum: 2048
>>>>>Begin Spectral Data<<<<<
189.047	44.4
189.435	44.4
189.823	44.4
190.211	-5190.7
190.599	509.26
190.987	346.7
191.375	-33.74
191.763	66.28
192.151	-225.03
192.538	122.74
192.926	135.02
193.314	120.99
193.702	270.09
194.089	111.14
194.477	-1665.88
194.864	280.33
195.252	116.23
195.639	841.03
196.027	72.15
196.414	555.04
196.801	-62.02
197.189	86.38
197.576	-543.26
197.963	31.29
198.351	27.71
198.738	62.34
199.125	10.98
199.512	67.21
199.899	-13.3
200.286	-121.09
200.673	9.17
201.06	-1.95
201.447	-19.05
201.833	2.45
202.22	39.22
202.607	-0.33
202.994	57.81
203.38	-51.97
203.767	-24.8
204.154	8.66
204.54	-49.25
204.927	-24.23
205.313	30.92
205.699	2.11
206.086	21.25
206.472	-3.17
206.858	-59.35
207.245	15.9
207.631	56.18
208.017	12.37
208.403	24.91
208.789	-26.55
209.175	14.88
209.561	16.21
209.947	16.1
210.333	16.86
210.719	44.32
211.105	33.28
211.491	-18.74
211.876	16.08
212.262	33.46
212.648	33.55
213.034	-28.89
213.419	-8.74
213.805	10.52
214.19	6.78
214.576	20.42
214.961	-27.45
215.346	-44.99
215.732	10.02
216.117	3.44
216.502	-7.88
216.888	-0.55
217.273	16.12
217.658	7.17
218.043	-10.93
218.428	8.64
218.813	7.03
219.198	-2.5
219.583	17.25
219.968	13.23
220.353	5.4
220.738	31.9
221.122	0.31
221.507	-26.02
221.892	-1.23
222.276	-1.18
222.661	7.23
223.046	6.97
223.43	11.35
223.815	-3.99
224.199	7.72
224.583	17.12
224.968	10.96
225.352	3.23
225.736	7.77
226.121	4.86
226.505	-2.83
226.889	4.18
227.273	15
227.657	7.52
228.041	8.01
228.425	6.89
228.809	6.15
229.193	3.32
229.577	5.55
229.961	3.59
230.344	6.59
230.728	4.64
231.112	4.72
231.495	5.25
231.879	4.05
232.263	4.22
232.646	3.06
233.03	5.23
233.413	7.41
233.797	5.22
234.18	4.06
234.563	7.02
234.946	8.53
235.33	3.2
235.713	4.69
236.096	7.25
236.479	6.58
236.862	5.8
237.245	5.32
237.628	5.69
238.011	5.8
238.394	7.27
238.777	7.61
239.16	4.29
239.543	3.81
239.925	5.52
240.308	4.89
240.691	4.36
241.073	2.54
241.456	5.1
241.838	4.92
242.221	4.86
242.603	5.39
242.986	5.91
243.368	4.68
243.75	4.99
244.133	4.55
244.515	4.98
244.897	5.06
245.279	5.13
245.661	4.83
246.043	4.95
246.425	3.84
246.807	5.81
247.189	4.1
247.571	5.32
247.953	5.07
248.335	5.01
248.717	4.99
249.098	4.76
249.48	4.81
249.862	4.83
250.243	4.84
250.625	5.36
251.006	5
251.388	4.86
251.769	4.67
252.151	5.3
252.532	4.82
252.913	5.85
253.295	3.82
253.676	4.51
254.057	4.51
254.438	4.45
254.819	4.12
255.2	5.19
255.581	5.02
255.962	3.81
256.343	5.43
256.724	4.28
257.105	4.39
257.486	5.37
257.867	3.98
258.247	4.54
258.628	4.84
259.009	3.49
259.389	3.43
259.77	3.7
260.15	3.61
260.531	4.08
260.911	4.46
261.292	4.46
261.672	4.38
262.052	4.2
262.432	4.45
262.813	4.35
263.193	4.34
263.573	4.59
263.953	4.5
264.333	3.86
264.713	3.84
265.093	4.88
265.473	4.57
265.853	4.51
266.233	3.91
266.612	4.78
266.992	4.63
267.372	4.28
267.752	4.39
268.131	4.24
268.511	4.2
268.89	4.85
269.27	3.68
269.649	4.56
270.029	5.09
270.408	4.66
270.787	4.85
271.167	4.78
271.546	3.91
271.925	4.65
272.304	4.61
272.683	4.55
273.062	4.37
273.441	4.73
273.82	4.2
274.199	3.68
274.578	3.94
274.957	4.78
275.336	4.83
275.715	4.56
276.093	3.64
276.472	4.77
276.851	4.02
277.229	4.78
277.608	4.99
277.986	4.27
278.365	4.32
278.743	4.27
279.122	4.29
279.5	3.58
279.878	3.62
280.257	4.65
280.635	4.67
281.013	4.3
281.391	3.94
281.769	4.03
282.147	4.5
282.525	4.8
282.903	4.45
283.281	4.36
283.659	4.92
284.037	4.36
284.415	3.72
284.792	4.79
285.17	3.75
285.548	4.08
285.925	4.37
286.303	3.69
286.68	4.44
287.058	3.96
287.435	3.94
287.813	4.21
288.19	4.55
288.567	4.43
288.945	3.95
289.322	4.36
289.699	4.27
290.076	5.04
290.453	4.24
290.83	3.82
291.207	4.11
291.584	4.39
291.961	5.01
292.338	4.2
292.715	4.01
293.092	4.41
293.469	4.27
293.845	3.77
294.222	4.25
294.599	4.39
294.975	4.52
295.352	3.89
295.728	4.53
296.105	4.65
296.481	4.51
296.858	4.67
297.234	4.85
297.61	4.43
297.986	3.89
298.363	4.51
298.739	4.39
299.115	4.29
299.491	4.64
299.867	4.2
300.243	4.58
300.619	4.62
300.995	4.48
301.371	4.15
301.746	4.27
302.122	4.2
302.498	4.54
302.874	4.47
303.249	4.48
303.625	4.66
304	4.06
304.376	4.1
304.751	3.94
305.127	4.04
305.502	5.03
305.878	4.67
306.253	4.08
306.628	4.19
307.003	4.56
307.378	4.66
307.754	4.76
308.129	4.34
308.504	5.1
308.879	4.68
309.254	4.6
309.629	4.18
310.003	4.82
310.378	4.18
310.753	4.87
311.128	4.43
311.502	4.9
311.877	4.58
312.252	4.59
312.626	4.48
313.001	4.53
313.375	4.54
313.75	4.52
314.124	4.1
314.498	4.43
314.873	4.78
315.247	4.56
315.621	4.54
315.995	4.71
316.369	4.73
316.743	4.02
317.117	4.62
317.491	4.1
317.865	4.65
318.239	4.26
318.613	4.54
318.987	4.34
319.361	4.52
319.734	4.34
320.108	4.31
320.482	5.23
320.855	4.1
321.229	4.17
321.602	4.39
321.976	4.12
322.349	5.37
322.723	4.81
323.096	4.94
323.469	4.66
323.843	4.59
324.216	5.03
324.589	4.88
324.962	4.87
325.335	4.52
325.708	4.76
326.081	4.49
326.454	4.96
326.827	4.43
327.2	4.18
327.573	4.22
327.945	4.78
328.318	5.2
328.691	4.03
329.063	3.77
329.436	4.58
329.809	4.93
330.181	4.25
330.553	4.16
330.926	4.92
331.298	4.4
331.671	4.45
332.043	4.78
332.415	5.6
332.787	4.2
333.159	4.75
333.532	5.01
333.904	4.74
334.276	4.21
334.648	4.64
335.02	4.83
335.391	4.78
335.763	4.35
336.135	5.03
336.507	4.5
336.879	4.16
337.25	4.82
337.622	4.14
337.993	4.84
338.365	4.62
338.736	4.83
339.108	4.07
339.479	3.91
339.851	4.89
340.222	5
340.593	4.59
340.964	5.36
341.336	4.37
341.707	4.62
342.078	4.18
342.449	4.72
342.82	4.51
343.191	4.83
343.562	4.41
343.933	4.23
344.303	4.27
344.674	4.25
345.045	4.44
345.416	4.48
345.786	4.9
346.157	4.44
346.527	4.16
346.898	4.39
347.268	4.44
347.639	4.22
348.009	4.55
348.38	4.6
348.75	4.24
349.12	4.6
349.49	4.37
349.861	4.13
350.231	4.32
350.601	4.62
350.971	4.87
351.341	4.93
351.711	4.51
352.081	4.68
352.45	4.21
352.82	4.77
353.19	5.1
353.56	4.55
353.929	4.37
354.299	4.29
354.669	5.12
355.038	4.76
355.408	5.05
355.777	4.41
356.147	4.59
356.516	4.6
356.885	4.6
357.254	4.6
357.624	4.39
357.993	4.84
358.362	4.62
358.731	4.84
359.1	4.72
359.469	4.8
359.838	4.46
360.207	4.49
360.576	4.64
360.945	4.4
361.314	4.64
361.682	4.39
362.051	4.78
362.42	4.56
362.788	4.8
363.157	4.72
363.525	4.44
363.894	4.39
364.262	4.58
364.631	4.42
364.999	4.67
365.367	4.65
365.735	4.84
366.104	4.43
366.472	4.89
366.84	4.74
367.208	4.5
367.576	4.63
367.944	4.72
368.312	4.72
368.68	4.54
369.048	4.73
369.416	4.7
369.783	4.54
370.151	4.65
370.519	4.97
370.886	4.7
371.254	4.2
371.621	4.44
371.989	4.91
372.356	4.62
372.724	5.06
373.091	4.5
373.458	4.66
373.826	4.71
374.193	4.7
374.56	4.78
374.927	4.47
375.294	4.94
375.661	4.83
376.028	4.58
376.395	4.5
376.762	4.89
377.129	4.44
377.496	4.55
377.863	4.87
378.229	4.62
378.596	4.88
378.963	4.84
379.329	4.86
379.696	4.8
380.062	4.63
380.429	4.3
380.795	4.77
381.161	4.7
381.528	4.92
381.894	4.79
382.26	4.84
382.626	4.88
382.993	4.8
383.359	4.88
383.725	4.87
384.091	4.55
384.457	4.68
384.823	5.04
385.188	4.73
385.554	4.5
385.92	4.68
386.286	4.94
386.651	4.7
387.017	4.8
387.383	4.61
387.748	4.86
388.114	4.64
388.479	4.58
388.845	4.56
389.21	4.74
389.575	4.89
389.94	4.88
390.306	4.96
390.671	4.69
391.036	4.57
391.401	4.83
391.766	4.94
392.131	4.99
392.496	4.52
392.861	4.61
393.226	4.67
393.591	4.73
393.956	4.79
394.32	4.64
394.685	4.94
395.05	4.96
395.414	4.97
395.779	4.74
396.143	4.72
396.508	4.52
396.872	4.92
397.236	4.7
397.601	4.74
397.965	5.08
398.329	5.01
398.694	5.06
399.058	4.71
399.422	4.92
399.786	5.06
400.15	4.93
400.514	4.61
400.878	4.8
401.242	4.76
401.605	4.8
401.969	4.77
402.333	4.79
402.697	4.75
403.06	5.15
403.424	4.84
403.787	4.78
404.151	4.54
404.514	4.78
404.878	4.82
405.241	4.87
405.604	4.82
405.968	4.66
406.331	4.99
406.694	4.83
407.057	4.8
407.42	4.82
407.783	4.78
408.146	4.76
408.509	4.92
408.872	4.72
409.235	5.05
409.598	4.88
409.961	4.78
410.323	4.98
410.686	5.07
411.049	5.28
411.411	5.01
411.774	4.98
412.136	4.67
412.499	4.91
412.861	5.01
413.223	4.64
413.586	4.82
413.948	4.85
414.31	4.78
414.672	4.81
415.035	5.04
415.397	4.8
415.759	4.8
416.121	4.89
416.483	4.87
416.845	4.8
417.206	4.95
417.568	5.14
417.93	4.77
418.292	4.77
418.653	4.79
419.015	4.84
419.377	4.64
419.738	4.99
420.1	4.73
420.461	4.9
420.822	4.83
421.184	4.8
421.545	4.78
421.906	4.87
422.267	4.91
422.629	4.64
422.99	4.79
423.351	4.8
423.712	4.7
424.073	4.72
424.434	4.88
424.795	4.86
425.155	4.87
425.516	4.79
425.877	4.88
426.238	4.74
426.598	4.77
426.959	4.74
427.32	4.73
427.68	4.82
428.041	4.82
428.401	4.9
428.761	4.87
429.122	4.8
429.482	5.07
429.842	5.01
430.202	4.84
430.563	4.86
430.923	5.12
431.283	4.72
431.643	4.81
432.003	4.77
432.363	5
432.722	4.87
433.082	4.96
433.442	5
433.802	5.06
434.161	5.16
434.521	4.95
434.881	4.87
435.24	5.01
435.6	4.94
435.959	5.07
436.319	5.04
436.678	4.77
437.037	5.04
437.396	5
437.756	4.83
438.115	5.17
438.474	5.12
438.833	4.97
439.192	5.12
439.551	4.88
439.91	5.17
440.269	5.05
440.628	4.91
440.987	4.98
441.345	4.89
441.704	4.97
442.063	4.93
442.421	4.98
442.78	5.05
443.138	4.84
443.497	4.9
443.855	4.87
444.214	5.1
444.572	5.04
444.93	5.07
445.288	4.92
445.647	5.19
446.005	5.16
446.363	5.08
446.721	5.01
447.079	5.09
447.437	4.91
447.795	4.74
448.153	4.96
448.51	4.98
448.868	4.94
449.226	4.8
449.584	4.96
449.941	4.93
450.299	4.99
450.656	4.95
451.014	4.95
451.371	5.01
451.729	5
452.086	5
452.443	5.04
452.801	5.21
453.158	5.06
453.515	5.18
453.872	5.04
454.229	5.23
454.586	5.09
454.943	5.05
455.3	5.09
455.657	5.09
456.014	5
456.371	5.09
456.727	5.22
457.084	5.07
457.441	5.28
457.797	5.01
458.154	5.15
458.51	5.33
458.867	5.26
459.223	5.24
459.58	4.97
459.936	5.14
460.292	5.22
460.648	4.92
461.005	5.09
461.361	5.02
461.717	5
462.073	5.06
462.429	4.86
462.785	5.05
463.141	5
463.496	5.2
463.852	5.11
464.208	5.14
464.564	5.2
464.919	5.16
465.275	5.34
465.631	5.15
465.986	5.25
466.342	5.27
466.697	4.95
467.052	5.13
467.408	5.22
467.763	5.09
468.118	5.19
468.473	5.18
468.829	5.29
469.184	5.1
469.539	5.19
469.894	5.09
470.249	5.17
470.603	5.02
470.958	5.18
471.313	5.18
471.668	5.12
472.023	5.16
472.377	5.19
472.732	5.31
473.086	5.24
473.441	5.18
473.795	5.32
474.15	5.41
474.504	5.29
474.859	5.28
475.213	5.22
475.567	5.26
475.921	5.36
476.275	5.22
476.63	5.28
476.984	5.3
477.338	5.28
477.692	5.15
478.045	5.35
478.399	5.22
478.753	5.12
479.107	5.15
479.461	5.28
479.814	5.35
480.168	5.33
480.521	5.25
480.875	5.21
481.228	5.32
481.582	5.26
481.935	5.28
482.289	5.2
482.642	5.43
482.995	5.22
483.348	5.2
483.701	5.3
484.055	5.24
484.408	5.19
484.761	5.21
485.114	5.09
485.466	5.08
485.819	4.99
486.172	4.9
486.525	4.94
486.878	5
487.23	5.05
487.583	5.09
487.936	5.13
488.288	5.24
488.641	5.18
488.993	5.21
489.345	5.1
489.698	5.11
490.05	5.05
490.402	5.07
490.754	5.09
491.107	5.09
491.459	5.11
491.811	5.16
492.163	5.22
492.515	5.27
492.866	5.3
493.218	5.18
493.57	5.19
493.922	5.07
494.274	5.16
494.625	5.18
494.977	5.23
495.328	5.41
495.68	5.37
496.031	5.4
496.383	5.26
496.734	5.47
497.086	5.53
497.437	5.56
497.788	5.45
498.139	5.48
498.49	5.32
498.842	5.34
499.193	5.27
499.544	5.33
499.894	5.35
500.245	5.38
500.596	5.5
500.947	5.51
501.298	5.42
501.648	5.48
501.999	5.64
502.35	5.36
502.7	5.48
503.051	5.56
503.401	5.64
503.752	5.47
504.102	5.46
504.452	5.47
504.803	5.52
505.153	5.53
505.503	5.56
505.853	5.51
506.203	5.56
506.553	5.47
506.903	5.69
507.253	5.56
507.603	5.53
507.953	5.58
508.303	5.62
508.652	5.62
509.002	5.73
509.352	5.53
509.701	5.49
510.051	5.61
510.4	5.56
510.75	5.62
511.099	5.61
511.449	5.6
511.798	5.61
512.147	5.65
512.496	5.68
512.846	5.56
513.195	5.64
513.544	5.72
513.893	5.74
514.242	5.65
514.591	5.76
514.939	5.57
515.288	5.59
515.637	5.69
515.986	5.72
516.334	5.73
516.683	5.66
517.032	5.78
517.38	5.88
517.729	5.78
518.077	5.75
518.426	5.69
518.774	5.86
519.122	5.85
519.47	5.68
519.819	5.76
520.167	5.77
520.515	5.8
520.863	5.63
521.211	5.66
521.559	5.69
521.907	5.69
522.255	5.68
522.602	5.68
522.95	5.77
523.298	5.89
523.645	5.82
523.993	5.8
524.341	5.89
524.688	5.92
525.036	5.9
525.383	6.02
525.73	5.91
526.078	6.17
526.425	5.96
526.772	6.02
527.119	5.88
527.466	5.83
527.814	5.8
528.161	5.81
528.508	5.87
528.854	5.88
529.201	5.9
529.548	5.83
529.895	5.92
530.242	5.82
530.588	5.69
530.935	5.69
531.282	5.73
531.628	5.68
531.975	5.76
532.321	5.79
532.667	5.84
533.014	6.03
533.36	5.97
533.706	6.01
534.052	6
534.399	5.98
534.745	6.1
535.091	6
535.437	5.95
535.783	5.93
536.129	5.95
536.474	5.99
536.82	6.04
537.166	6.05
537.512	6.19
537.857	6.23
538.203	6.19
538.549	6.03
538.894	6.03
539.239	5.99
539.585	6.09
539.93	6.19
540.276	6.28
540.621	6.13
540.966	6.22
541.311	6.22
541.656	6.45
542.001	6.31
542.346	6.38
542.691	6.27
543.036	6.27
543.381	6.12
543.726	6.05
544.071	6.14
544.415	6.11
544.76	6.16
545.105	6.21
545.449	6.21
545.794	6.37
546.138	6.34
546.483	6.4
546.827	6.49
547.171	6.37
547.516	6.38
547.86	6.43
548.204	6.49
548.548	6.54
548.892	6.42
549.236	6.45
549.58	6.56
549.924	6.46
550.268	6.57
550.612	6.54
550.956	6.6
551.3	6.71
551.643	6.86
551.987	6.68
552.33	6.72
552.674	6.82
553.017	6.75
553.361	6.78
553.704	6.79
554.048	6.93
554.391	6.86
554.734	6.92
555.077	6.75
555.42	6.85
555.764	6.99
556.107	6.86
556.45	6.94
556.793	6.88
557.135	6.86
557.478	6.73
557.821	6.96
558.164	7.26
558.507	6.85
558.849	7.3
559.192	7.09
559.534	7.05
559.877	7.27
560.219	7.31
560.562	7.09
560.904	7.15
561.246	7.18
561.589	7.16
561.931	7.36
562.273	7.03
562.615	7.19
562.957	7.33
563.299	7.58
563.641	7.16
563.983	7.25
564.325	7.37
564.667	7.34
565.008	7.3
565.35	7.56
565.692	7.38
566.033	7.39
566.375	7.18
566.716	7.26
567.058	7.71
567.399	7.36
567.741	7.5
568.082	7.36
568.423	7.4
568.764	7.41
569.105	7.55
569.447	7.62
569.788	7.56
570.129	7.5
570.47	7.51
570.811	7.57
571.151	7.52
571.492	7.67
571.833	7.73
572.174	7.74
572.514	7.69
572.855	7.77
573.195	7.78
573.536	7.85
573.876	7.8
574.217	7.79
574.557	7.94
574.898	7.98
575.238	7.86
575.578	7.91
575.918	7.98
576.258	7.92
576.598	7.9
576.938	7.84
577.278	7.98
577.618	8.15
577.958	7.96
578.298	8.17
578.638	8.09
578.977	8.1
579.317	7.96
579.657	8.09
579.996	8.01
580.336	8.15
580.675	8.14
581.014	8.48
581.354	8.34
581.693	8.4
582.032	8.41
582.372	8.66
582.711	8.47
583.05	8.32
583.389	8.42
583.728	8.68
584.067	8.52
584.406	8.51
584.745	8.62
585.083	8.56
585.422	8.58
585.761	8.7
586.1	8.84
586.438	8.45
586.777	8.66
587.115	8.74
587.454	9
587.792	8.93
588.13	8.72
588.469	8.96
588.807	8.97
589.145	8.97
589.483	8.97
589.821	8.82
590.159	9.18
590.497	9
590.835	9.07
591.173	8.87
591.511	8.87
591.849	9.06
592.187	9.25
592.524	9.13
592.862	9.01
593.2	9.08
593.537	9.24
593.875	9.49
594.212	9.41
594.55	9.47
594.887	9.37
595.224	9.26
595.561	9.27
595.899	9.27
596.236	9.56
596.573	9.61
596.91	9.32
597.247	9.53
597.584	9.56
597.921	9.53
598.258	9.66
598.594	9.63
598.931	9.53
599.268	9.6
599.604	9.38
599.941	9.64
600.277	9.7
600.614	9.73
600.95	9.72
601.287	9.66
601.623	10.06
601.959	10.08
602.296	9.83
602.632	10.08
602.968	10
603.304	9.86
603.64	9.77
603.976	10.08
604.312	9.89
604.648	10.25
604.984	10.12
605.319	10.27
605.655	10.12
605.991	10.28
606.326	10.32
606.662	10.1
606.998	10.05
607.333	10.1
607.668	10.32
608.004	10.15
608.339	10.25
608.674	10.33
609.01	10.61
609.345	10.48
609.68	10.46
610.015	10.52
610.35	10.61
610.685	10.72
611.02	10.6
611.355	11.03
611.689	10.35
612.024	10.71
612.359	10.74
612.694	10.83
613.028	10.71
613.363	10.49
613.697	10.59
614.032	11.02
614.366	10.84
614.7	11.02
615.035	10.78
615.369	10.69
615.703	11.4
616.037	11.15
616.371	10.77
616.705	11.34
617.039	11.08
617.373	11.26
617.707	11.12
618.041	11.1
618.375	11.2
618.709	11.46
619.042	11.58
619.376	11.66
619.71	11.18
620.043	11.67
620.377	11.71
620.71	11.56
621.043	11.57
621.377	11.73
621.71	11.72
622.043	11.14
622.376	11.73
622.709	11.52
623.043	11.69
623.376	11.7
623.709	11.9
624.041	12.07
624.374	11.92
624.707	11.85
625.04	11.85
625.373	11.77
625.705	12.29
626.038	12.35
626.37	11.94
626.703	12.16
627.035	12.27
627.368	12.71
627.7	12.2
628.032	12.4
628.365	12.22
628.697	12.35
629.029	12.6
629.361	12.44
629.693	12.31
630.025	12.39
630.357	12.2
630.689	12.53
631.021	12.47
631.353	12.63
631.684	12.58
632.016	12.68
632.348	12.27
632.679	12.52
633.011	12.66
633.342	12.43
633.674	12.69
634.005	12.6
634.336	12.44
634.668	13.24
634.999	13
635.33	13.15
635.661	13.09
635.992	12.94
636.323	13.07
636.654	12.89
636.985	12.95
637.316	13.21
637.647	13.45
637.977	13
638.308	13.58
638.639	12.93
638.969	13.73
639.3	13.29
639.63	13.41
639.961	13.38
640.291	13.45
640.622	13.44
640.952	13.22
641.282	13.4
641.612	13.43
641.943	13.75
642.273	14.18
642.603	13.56
642.933	13.27
643.263	14.08
643.592	13.63
643.922	13.94
644.252	13.25
644.582	13.97
644.911	13.89
645.241	13.85
645.571	13.87
645.9	13.87
646.23	14
646.559	13.93
646.888	14.28
647.218	13.56
647.547	14.24
647.876	14.64
648.205	14.29
648.534	14.78
648.863	14.36
649.192	14.79
649.521	14.65
649.85	14.5
650.179	14.71
650.508	14.64
650.837	14.63
651.165	14.56
651.494	14.32
651.822	14.41
652.151	14.69
652.479	15.29
652.808	14.51
653.136	14.3
653.465	15.05
653.793	14.98
654.121	15.07
654.449	14.95
654.777	14.71
655.105	14.65
655.433	15.26
655.761	15.04
656.089	15.22
656.417	14.68
656.745	15.43
657.073	14.97
657.4	15.2
657.728	15.75
658.056	15.39
658.383	15.04
658.711	15.93
659.038	15.89
659.365	15.16
659.693	15.54
660.02	15.56
660.347	15.99
660.674	15.41
661.001	15.71
661.329	15.56
661.656	15.63
661.982	15.66
662.309	15.7
662.636	16.06
662.963	15.96
663.29	15.91
663.616	15.8
663.943	16.57
664.27	16.53
664.596	15.82
664.923	16.35
665.249	16.43
665.576	15.89
665.902	15.62
666.228	15.75
666.554	16.2
666.881	16.39
667.207	15.93
667.533	16.64
667.859	16.03
668.185	16.64
668.511	16.56
668.837	15.8
669.162	16.47
669.488	15.97
669.814	16.77
670.139	16.62
670.465	17.14
670.791	16.8
671.116	17.17
671.442	16.42
671.767	16.3
672.092	17.19
672.418	16.71
672.743	17.41
673.068	16.72
673.393	17.47
673.718	16.66
674.043	17.03
674.368	16.83
674.693	17.74
675.018	17.79
675.343	16.93
675.667	18.07
675.992	17.35
676.317	17.21
676.641	17.5
676.966	17.18
677.29	17.15
677.615	17.66
677.939	18.16
678.264	16.44
678.588	17.57
678.912	18.13
679.236	17.53
679.56	17.51
679.885	18.27
680.209	17.72
680.532	18.21
680.856	17.89
681.18	18.28
681.504	17.56
681.828	18.13
682.152	17.85
682.475	18.49
682.799	18.36
683.122	17.97
683.446	17.99
683.769	18.66
684.093	18.48
684.416	17.98
684.739	17.64
685.062	18.53
685.386	18.29
685.709	18.51
686.032	17.82
686.355	17.9
686.678	19.13
687.001	18
687.324	19.17
687.646	18.71
