Data from 0178_chest_Reflection__1__032.txt Node

Date: Mon Aug 28 18:54:26 CDT 2023
User: ToomeyLab
Spectrometer: FLMS14357
Trigger mode: 0
Integration Time (sec): 1.000000E-2
Scans to average: 100
Electric dark correction enabled: true
Nonlinearity correction enabled: false
Boxcar width: 0
XAxis mode: Wavelengths
Number of Pixels in Spectrum: 2048
>>>>>Begin Spectral Data<<<<<
189.047	43.09
189.435	43.09
189.823	43.09
190.211	451.16
190.599	321.37
190.987	-41.66
191.375	43.16
191.763	124.48
192.151	88.92
192.538	-8.07
192.926	68.16
193.314	-602.71
193.702	16.86
194.089	86.16
194.477	-2618.82
194.864	-247.5
195.252	61.14
195.639	695.73
196.027	74.21
196.414	214.04
196.801	-59.1
197.189	29.11
197.576	-289.35
197.963	-2.27
198.351	45.22
198.738	78.91
199.125	45.86
199.512	19.11
199.899	7.11
200.286	-12.86
200.673	13.56
201.06	-6.32
201.447	-58.32
201.833	-18.64
202.22	20.66
202.607	-22.55
202.994	-0.97
203.38	104.85
203.767	23.78
204.154	7.57
204.54	-9.13
204.927	3.78
205.313	22.43
205.699	-31.3
206.086	44.33
206.472	32.55
206.858	1.29
207.245	22.16
207.631	40.98
208.017	18.87
208.403	11.23
208.789	-10.53
209.175	-33.29
209.561	13.07
209.947	-16.18
210.333	16.79
210.719	5.32
211.105	31.92
211.491	-3.36
211.876	62.71
212.262	39.12
212.648	46.57
213.034	19.43
213.419	-12.02
213.805	11.95
214.19	7.95
214.576	30.7
214.961	6.16
215.346	9.84
215.732	35.01
216.117	-30.16
216.502	14.99
216.888	-57.9
217.273	8.84
217.658	26.86
218.043	31.62
218.428	-11.09
218.813	6.28
219.198	28.03
219.583	16.36
219.968	39.6
220.353	18.62
220.738	32.23
221.122	7.87
221.507	4.19
221.892	34.76
222.276	-1.47
222.661	-5.2
223.046	13.48
223.43	11.6
223.815	8.1
224.199	17.66
224.583	13.69
224.968	11.35
225.352	13.65
225.736	11.64
226.121	11.18
226.505	8.06
226.889	7.19
227.273	11.95
227.657	11.54
228.041	13
228.425	9.04
228.809	5.82
229.193	4.72
229.577	6.31
229.961	6.94
230.344	6.6
230.728	6.12
231.112	5.93
231.495	6.09
231.879	5.87
232.263	7
232.646	4.85
233.03	6.7
233.413	9.36
233.797	6.24
234.18	4.17
234.563	4.9
234.946	9.94
235.33	8.36
235.713	6.62
236.096	7.64
236.479	6.11
236.862	7.79
237.245	7.14
237.628	6.02
238.011	7.77
238.394	8.64
238.777	7.88
239.16	6.02
239.543	5.09
239.925	8.65
240.308	4.41
240.691	6.55
241.073	5.75
241.456	6.05
241.838	5.62
242.221	7.22
242.603	7.15
242.986	6.9
243.368	6.43
243.75	5.91
244.133	6.01
244.515	5.89
244.897	6.13
245.279	5.89
245.661	5.11
246.043	6.19
246.425	5.69
246.807	6.42
247.189	5.2
247.571	6.16
247.953	5.75
248.335	5.63
248.717	5.6
249.098	5.54
249.48	5.61
249.862	5.24
250.243	5.35
250.625	6.05
251.006	5.67
251.388	5.87
251.769	6.76
252.151	5.96
252.532	5.9
252.913	5.95
253.295	5.03
253.676	5.62
254.057	5.68
254.438	5.01
254.819	5.14
255.2	5.55
255.581	6.67
255.962	6.48
256.343	6.71
256.724	4.82
257.105	5.51
257.486	6.23
257.867	5.36
258.247	4.99
258.628	6.38
259.009	4.76
259.389	4.73
259.77	5.47
260.15	5.08
260.531	5.27
260.911	5.69
261.292	5.53
261.672	5.19
262.052	5.09
262.432	5.09
262.813	5.26
263.193	5.05
263.573	4.73
263.953	5.46
264.333	5.24
264.713	4.84
265.093	6.16
265.473	5.9
265.853	4.68
266.233	4.86
266.612	5.38
266.992	5.07
267.372	5.21
267.752	5.97
268.131	5.35
268.511	4.7
268.89	4.99
269.27	4.56
269.649	5
270.029	5.52
270.408	5.13
270.787	4.89
271.167	5.32
271.546	4.95
271.925	5.14
272.304	5.07
272.683	5.1
273.062	5.23
273.441	4.91
273.82	4.56
274.199	4.55
274.578	4.84
274.957	5.09
275.336	5.17
275.715	5.68
276.093	4.99
276.472	4.36
276.851	4.95
277.229	5.24
277.608	5.06
277.986	5.08
278.365	4.72
278.743	5.05
279.122	4.79
279.5	4.99
279.878	4.63
280.257	4.8
280.635	4.96
281.013	5.38
281.391	4.69
281.769	4.3
282.147	4.82
282.525	5.01
282.903	5.03
283.281	4.95
283.659	5.56
284.037	4.93
284.415	4.41
284.792	5.15
285.17	4.62
285.548	4.71
285.925	4.96
286.303	4.92
286.68	4.76
287.058	4.7
287.435	4.42
287.813	4.51
288.19	4.99
288.567	4.58
288.945	4.93
289.322	4.58
289.699	5.29
290.076	4.82
290.453	4.82
290.83	4.14
291.207	4.6
291.584	4.47
291.961	4.86
292.338	4.6
292.715	4.33
293.092	5.06
293.469	4.21
293.845	5.16
294.222	4.96
294.599	4.98
294.975	5.46
295.352	4.53
295.728	5.11
296.105	4.71
296.481	4.97
296.858	5.19
297.234	4.56
297.61	4.47
297.986	4.89
298.363	5.07
298.739	4.98
299.115	4.48
299.491	4.88
299.867	4.43
300.243	5.18
300.619	4.46
300.995	4.8
301.371	4.78
301.746	5.4
302.122	4.63
302.498	4.89
302.874	4.94
303.249	4.91
303.625	5.08
304	4.77
304.376	5.06
304.751	4.43
305.127	4.58
305.502	5.13
305.878	4.63
306.253	4.62
306.628	5.25
307.003	4.74
307.378	4.69
307.754	5.51
308.129	4.47
308.504	5.02
308.879	4.44
309.254	4.74
309.629	4.66
310.003	4.73
310.378	4.32
310.753	4.97
311.128	4.74
311.502	4.8
311.877	4.68
312.252	5.11
312.626	4.79
313.001	4.92
313.375	4.87
313.75	4.98
314.124	4.75
314.498	5.15
314.873	5.06
315.247	5.4
315.621	4.82
315.995	5.08
316.369	5.08
316.743	4.44
317.117	4.93
317.491	4.35
317.865	4.61
318.239	4.77
318.613	4.68
318.987	5.11
319.361	5.16
319.734	5.14
320.108	4.33
320.482	5.02
320.855	4.94
321.229	4.4
321.602	5.06
321.976	4.59
322.349	4.85
322.723	4.9
323.096	5.09
323.469	4.26
323.843	4.83
324.216	4.95
324.589	4.7
324.962	5.59
325.335	4.98
325.708	4.69
326.081	4.42
326.454	5.53
326.827	5.26
327.2	4.87
327.573	4.71
327.945	5.21
328.318	5.19
328.691	4.48
329.063	4.59
329.436	4.57
329.809	4.72
330.181	4.76
330.553	4.42
330.926	4.93
331.298	5.1
331.671	4.81
332.043	4.89
332.415	5.43
332.787	5.01
333.159	4.67
333.532	5.49
333.904	5.09
334.276	4.85
334.648	4.72
335.02	5.19
335.391	4.75
335.763	4.86
336.135	5.54
336.507	4.68
336.879	4.42
337.25	5.3
337.622	4.01
337.993	5.33
338.365	4.79
338.736	5.29
339.108	4.01
339.479	4.48
339.851	5.12
340.222	4.92
340.593	5.15
340.964	5.2
341.336	4.75
341.707	4.88
342.078	4.16
342.449	4.89
342.82	5.02
343.191	4.96
343.562	4.45
343.933	4.65
344.303	4.85
344.674	5.02
345.045	5.05
345.416	4.73
345.786	5
346.157	4.56
346.527	4.65
346.898	4.88
347.268	5.13
347.639	4.5
348.009	4.6
348.38	5.03
348.75	5.12
349.12	5.21
349.49	4.75
349.861	4.46
350.231	4.76
350.601	5.23
350.971	5.08
351.341	4.76
351.711	4.92
352.081	4.52
352.45	4.93
352.82	4.88
353.19	5.19
353.56	4.79
353.929	4.5
354.299	4.53
354.669	5.13
355.038	4.92
355.408	4.99
355.777	4.67
356.147	4.94
356.516	5.21
356.885	5.14
357.254	4.95
357.624	4.75
357.993	5.27
358.362	4.95
358.731	4.99
359.1	4.96
359.469	5.08
359.838	4.74
360.207	4.9
360.576	5.12
360.945	5.02
361.314	4.58
361.682	4.86
362.051	5.04
362.42	4.73
362.788	5.25
363.157	4.91
363.525	4.74
363.894	4.71
364.262	5.02
364.631	4.72
364.999	4.88
365.367	4.99
365.735	4.74
366.104	5.11
366.472	5.13
366.84	4.93
367.208	4.65
367.576	4.57
367.944	5.16
368.312	5.03
368.68	5.11
369.048	5
369.416	4.7
369.783	4.93
370.151	4.99
370.519	5.08
370.886	4.84
371.254	4.99
371.621	4.85
371.989	5.41
372.356	5.19
372.724	5.37
373.091	4.98
373.458	4.71
373.826	5.2
374.193	5.04
374.56	5.14
374.927	4.77
375.294	5.38
375.661	5.02
376.028	4.73
376.395	4.61
376.762	5.25
377.129	5.06
377.496	5.13
377.863	5.13
378.229	5.02
378.596	5.2
378.963	5.09
379.329	5.29
379.696	5.13
380.062	4.82
380.429	4.68
380.795	5.09
381.161	5.04
381.528	5.28
381.894	4.73
382.26	5.13
382.626	5.19
382.993	4.94
383.359	5.21
383.725	5.4
384.091	4.89
384.457	4.95
384.823	5.01
385.188	5.16
385.554	4.86
385.92	5.2
386.286	5.32
386.651	4.82
387.017	5.21
387.383	5.15
387.748	5.18
388.114	4.95
388.479	4.97
388.845	5.24
389.21	4.94
389.575	5.37
389.94	5.09
390.306	5.16
390.671	4.9
391.036	5.17
391.401	5.28
391.766	5.34
392.131	5.13
392.496	4.99
392.861	5.2
393.226	5.3
393.591	4.97
393.956	5.11
394.32	5.02
394.685	5.25
395.05	5.26
395.414	5.18
395.779	5.24
396.143	4.83
396.508	5.01
396.872	5.31
397.236	5.15
397.601	4.98
397.965	5.16
398.329	5.27
398.694	5.29
399.058	5.11
399.422	5.06
399.786	5.13
400.15	5.37
400.514	5.09
400.878	5.04
401.242	5.07
401.605	5.24
401.969	5.03
402.333	5.28
402.697	5.04
403.06	5.3
403.424	5.18
403.787	5
404.151	4.98
404.514	5.11
404.878	5
405.241	5.46
405.604	5.07
405.968	5.04
406.331	5.3
406.694	5.2
407.057	5.23
407.42	5.17
407.783	5.07
408.146	5.08
408.509	5.25
408.872	5.32
409.235	5.22
409.598	5.18
409.961	5.19
410.323	5.15
410.686	5.33
411.049	5.42
411.411	5.2
411.774	5.33
412.136	5.19
412.499	5.26
412.861	5.24
413.223	5.22
413.586	4.98
413.948	5.24
414.31	5.43
414.672	5.15
415.035	5.1
415.397	5.16
415.759	5.34
416.121	5.35
416.483	5.07
416.845	5.16
417.206	5.48
417.568	5.21
417.93	5.09
418.292	5.45
418.653	4.94
419.015	5.1
419.377	4.86
419.738	5.26
420.1	5.12
420.461	5.26
420.822	5.28
421.184	5.1
421.545	5.07
421.906	5.09
422.267	5.23
422.629	5.05
422.99	5.11
423.351	5.08
423.712	5
424.073	5.05
424.434	5.23
424.795	5.02
425.155	5.22
425.516	5.11
425.877	5.05
426.238	4.92
426.598	5.03
426.959	5.06
427.32	5.07
427.68	5.18
428.041	5.09
428.401	5.23
428.761	5.13
429.122	5.23
429.482	5.21
429.842	5.29
430.202	5.25
430.563	5.37
430.923	5.34
431.283	5.2
431.643	5.21
432.003	5.28
432.363	5.29
432.722	5.14
433.082	5.24
433.442	5.41
433.802	5.32
434.161	5.17
434.521	5.29
434.881	5.08
435.24	5.22
435.6	5.12
435.959	5.26
436.319	5.26
436.678	5.25
437.037	5.19
437.396	5.44
437.756	5.33
438.115	5.32
438.474	5.37
438.833	5.39
439.192	5.41
439.551	5.21
439.91	5.44
440.269	5.28
440.628	5.2
440.987	5.22
441.345	5.23
441.704	5.29
442.063	5.17
442.421	5.26
442.78	5.34
443.138	5.28
443.497	5.22
443.855	5.3
444.214	5.33
444.572	5.25
444.93	5.38
445.288	5.19
445.647	5.31
446.005	5.44
446.363	5.32
446.721	5.36
447.079	5.26
447.437	5.18
447.795	5.22
448.153	5.25
448.51	5.16
448.868	5.33
449.226	5.21
449.584	5.18
449.941	5.19
450.299	5.36
450.656	5.26
451.014	5.23
451.371	5.18
451.729	5.16
452.086	5.29
452.443	5.49
452.801	5.42
453.158	5.26
453.515	5.35
453.872	5.29
454.229	5.35
454.586	5.5
454.943	5.28
455.3	5.34
455.657	5.38
456.014	5.42
456.371	5.34
456.727	5.35
457.084	5.42
457.441	5.51
457.797	5.33
458.154	5.58
458.51	5.52
458.867	5.31
459.223	5.53
459.58	5.31
459.936	5.49
460.292	5.48
460.648	5.35
461.005	5.36
461.361	5.31
461.717	5.31
462.073	5.32
462.429	5.27
462.785	5.28
463.141	5.39
463.496	5.35
463.852	5.38
464.208	5.46
464.564	5.44
464.919	5.54
465.275	5.58
465.631	5.4
465.986	5.43
466.342	5.56
466.697	5.38
467.052	5.36
467.408	5.3
467.763	5.44
468.118	5.36
468.473	5.52
468.829	5.53
469.184	5.31
469.539	5.43
469.894	5.35
470.249	5.44
470.603	5.48
470.958	5.44
471.313	5.47
471.668	5.37
472.023	5.5
472.377	5.48
472.732	5.44
473.086	5.45
473.441	5.53
473.795	5.51
474.15	5.37
474.504	5.63
474.859	5.64
475.213	5.39
475.567	5.43
475.921	5.64
476.275	5.47
476.63	5.64
476.984	5.34
477.338	5.64
477.692	5.38
478.045	5.57
478.399	5.48
478.753	5.45
479.107	5.45
479.461	5.5
479.814	5.63
480.168	5.48
480.521	5.37
480.875	5.43
481.228	5.48
481.582	5.51
481.935	5.5
482.289	5.58
482.642	5.53
482.995	5.62
483.348	5.41
483.701	5.42
484.055	5.49
484.408	5.47
484.761	5.37
485.114	5.34
485.466	5.24
485.819	5.15
486.172	5.09
486.525	5.13
486.878	5.14
487.23	5.22
487.583	5.32
487.936	5.36
488.288	5.4
488.641	5.52
488.993	5.34
489.345	5.33
489.698	5.27
490.05	5.27
490.402	5.19
490.754	5.31
491.107	5.4
491.459	5.35
491.811	5.42
492.163	5.56
492.515	5.57
492.866	5.49
493.218	5.46
493.57	5.4
493.922	5.22
494.274	5.29
494.625	5.31
494.977	5.51
495.328	5.55
495.68	5.48
496.031	5.6
496.383	5.57
496.734	5.54
497.086	5.65
497.437	5.82
497.788	5.62
498.139	5.59
498.49	5.55
498.842	5.67
499.193	5.52
499.544	5.58
499.894	5.47
500.245	5.53
500.596	5.49
500.947	5.64
501.298	5.79
501.648	5.65
501.999	5.62
502.35	5.64
502.7	5.77
503.051	5.73
503.401	5.68
503.752	5.64
504.102	5.6
504.452	5.66
504.803	5.92
505.153	5.63
505.503	5.71
505.853	5.62
506.203	5.81
506.553	5.72
506.903	5.79
507.253	5.68
507.603	5.61
507.953	5.74
508.303	5.91
508.652	5.73
509.002	5.88
509.352	5.66
509.701	5.66
510.051	5.64
510.4	5.64
510.75	5.63
511.099	5.72
511.449	5.77
511.798	5.76
512.147	5.78
512.496	5.69
512.846	5.77
513.195	5.85
513.544	5.84
513.893	5.72
514.242	5.94
514.591	5.82
514.939	5.65
515.288	5.84
515.637	5.79
515.986	5.88
516.334	5.8
516.683	5.85
517.032	5.85
517.38	5.96
517.729	6.09
518.077	5.95
518.426	5.87
518.774	5.83
519.122	5.94
519.47	5.87
519.819	5.92
520.167	5.85
520.515	5.8
520.863	5.6
521.211	5.77
521.559	5.84
521.907	5.82
522.255	5.77
522.602	5.94
522.95	5.91
523.298	5.95
523.645	6
523.993	5.83
524.341	6.08
524.688	6.09
525.036	6.09
525.383	6.04
525.73	5.98
526.078	6.18
526.425	6.07
526.772	6
527.119	6.05
527.466	5.87
527.814	5.9
528.161	5.89
528.508	5.88
528.854	5.97
529.201	6.02
529.548	6.01
529.895	5.94
530.242	5.84
530.588	5.79
530.935	5.67
531.282	5.7
531.628	5.78
531.975	5.81
532.321	5.87
532.667	5.88
533.014	5.97
533.36	6.04
533.706	6.07
534.052	6.01
534.399	6.05
534.745	6.08
535.091	6
535.437	5.88
535.783	5.94
536.129	5.96
536.474	5.99
536.82	6.1
537.166	6.18
537.512	6.15
537.857	6.22
538.203	6.18
538.549	6.19
538.894	6.08
539.239	6.14
539.585	6.14
539.93	6.19
540.276	6.26
540.621	6.3
540.966	6.27
541.311	6.47
541.656	6.42
542.001	6.37
542.346	6.31
542.691	6.28
543.036	6.21
543.381	6.11
543.726	6.05
544.071	6.12
544.415	6.21
544.76	6.26
545.105	6.22
545.449	6.23
545.794	6.36
546.138	6.37
546.483	6.44
546.827	6.42
547.171	6.43
547.516	6.46
547.86	6.49
548.204	6.66
548.548	6.53
548.892	6.38
549.236	6.41
549.58	6.49
549.924	6.48
550.268	6.72
550.612	6.72
550.956	6.71
551.3	6.74
551.643	6.83
551.987	6.72
552.33	6.87
552.674	6.77
553.017	6.74
553.361	6.79
553.704	6.88
554.048	6.82
554.391	6.81
554.734	6.82
555.077	6.92
555.42	6.85
555.764	6.97
556.107	6.79
556.45	6.93
556.793	6.89
557.135	7.04
557.478	6.83
557.821	6.99
558.164	7.23
558.507	7.01
558.849	7.13
559.192	7.03
559.534	6.92
559.877	7.14
560.219	7.26
560.562	7.14
560.904	6.98
561.246	6.9
561.589	7.06
561.931	7.31
562.273	7.02
562.615	7.13
562.957	7.35
563.299	7.36
563.641	7.16
563.983	7.23
564.325	7.3
564.667	7.04
565.008	7.28
565.35	7.45
565.692	7.57
566.033	7.52
566.375	7.41
566.716	7.36
567.058	7.4
567.399	7.38
567.741	7.5
568.082	7.23
568.423	7.44
568.764	7.38
569.105	7.69
569.447	7.45
569.788	7.49
570.129	7.49
570.47	7.44
570.811	7.69
571.151	7.34
571.492	7.4
571.833	7.59
572.174	7.76
572.514	7.68
572.855	7.54
573.195	7.65
573.536	7.88
573.876	7.57
574.217	7.74
574.557	7.71
574.898	7.86
575.238	7.85
575.578	7.94
575.918	7.9
576.258	7.98
576.598	7.91
576.938	7.97
577.278	7.88
577.618	8.01
577.958	7.97
578.298	8.14
578.638	7.94
578.977	8.09
579.317	8.03
579.657	8.2
579.996	8.3
580.336	8.13
580.675	8.13
581.014	8.47
581.354	8.18
581.693	8.34
582.032	8.38
582.372	8.41
582.711	8.48
583.05	8.25
583.389	8.41
583.728	8.49
584.067	8.56
584.406	8.63
584.745	8.55
585.083	8.43
585.422	8.49
585.761	8.59
586.1	8.99
586.438	8.58
586.777	8.62
587.115	8.96
587.454	8.67
587.792	9.05
588.13	8.84
588.469	8.79
588.807	8.86
589.145	9.01
589.483	9.06
589.821	8.88
590.159	8.79
590.497	8.87
590.835	9.23
591.173	9.08
591.511	8.92
591.849	8.86
592.187	9.2
592.524	9.24
592.862	8.94
593.2	8.9
593.537	9.05
593.875	9.37
594.212	9.31
594.55	9.26
594.887	9.3
595.224	9.31
595.561	9.39
595.899	9.35
596.236	9.57
596.573	9.33
596.91	9.45
597.247	9.5
597.584	9.55
597.921	9.49
598.258	9.33
598.594	9.54
598.931	9.21
599.268	9.48
599.604	9.43
599.941	9.49
600.277	9.47
600.614	9.77
600.95	9.82
601.287	9.69
601.623	9.73
601.959	9.87
602.296	9.72
602.632	9.82
602.968	9.92
603.304	10.06
603.64	9.95
603.976	10.2
604.312	10.11
604.648	9.89
604.984	10.05
605.319	10.08
605.655	10.12
605.991	10.08
606.326	10
606.662	10.2
606.998	10.02
607.333	9.93
607.668	10.01
608.004	10.14
608.339	10.32
608.674	10.28
609.01	10.44
609.345	10.56
609.68	10.39
610.015	10.46
610.35	10.62
610.685	10.52
611.02	10.5
611.355	10.77
611.689	10.38
612.024	10.51
612.359	10.62
612.694	10.7
613.028	10.42
613.363	10.49
613.697	10.69
614.032	10.68
614.366	10.71
614.7	10.99
615.035	10.9
615.369	11.02
615.703	10.8
616.037	10.53
616.371	10.83
616.705	11.09
617.039	11.21
617.373	11.25
617.707	10.77
618.041	11.36
618.375	11.23
618.709	11.48
619.042	11.4
619.376	11.28
619.71	11.03
620.043	11.47
620.377	11.48
620.71	11.21
621.043	11.3
621.377	11.39
621.71	11.97
622.043	11.44
622.376	11.58
622.709	11.54
623.043	11.57
623.376	11.73
623.709	11.97
624.041	12.11
624.374	11.6
624.707	11.46
625.04	11.54
625.373	11.99
625.705	12.26
626.038	11.8
626.37	12.23
626.703	12.04
627.035	12.38
627.368	12.45
627.7	12.34
628.032	12.04
628.365	12
628.697	11.96
629.029	12.13
629.361	12.18
629.693	12.16
630.025	12.06
630.357	11.84
630.689	12.6
631.021	12.5
631.353	12.35
631.684	12.61
632.016	12.52
632.348	12.7
632.679	12.42
633.011	12.42
633.342	12.37
633.674	12.69
634.005	12.69
634.336	12.76
634.668	13.13
634.999	12.66
635.33	13.04
635.661	12.99
635.992	12.84
636.323	12.97
636.654	13.07
636.985	12.93
637.316	12.95
637.647	13.32
637.977	13.08
638.308	13.41
638.639	12.89
638.969	13.15
639.3	13.29
639.63	12.98
639.961	13.51
640.291	13.01
640.622	13.92
640.952	13.44
641.282	13.33
641.612	13.61
641.943	13.34
642.273	14
642.603	13.73
642.933	12.81
643.263	14.18
643.592	13.65
643.922	13.83
644.252	13.95
644.582	13.79
644.911	13.91
645.241	13.93
645.571	13.96
645.9	13.95
646.23	13.61
646.559	14.02
646.888	14.17
647.218	13.71
647.547	14.11
647.876	14.31
648.205	14.61
648.534	14.56
648.863	14.38
649.192	14.41
649.521	14.36
649.85	14.17
650.179	14.4
650.508	14.18
650.837	14.13
651.165	14.33
651.494	14.39
651.822	13.98
652.151	14.91
652.479	15
652.808	14.81
653.136	14.62
653.465	14.88
653.793	15.06
654.121	14.96
654.449	14.86
654.777	14.8
655.105	14.64
655.433	15.12
655.761	15.17
656.089	14.77
656.417	14.23
656.745	15.06
657.073	15.05
657.4	15.31
657.728	15.4
658.056	15.46
658.383	15.31
658.711	15.34
659.038	15.4
659.365	15.37
659.693	15.36
660.02	15.58
660.347	15.88
660.674	15.2
661.001	15.8
661.329	15.25
661.656	15.26
661.982	15.66
662.309	15.54
662.636	15.79
662.963	15.86
663.29	16.16
663.616	15.58
663.943	15.94
664.27	15.88
664.596	16.15
664.923	15.99
665.249	16.53
665.576	15.79
665.902	16.24
666.228	16.57
666.554	16.27
666.881	15.91
667.207	15.83
667.533	16.45
667.859	15.79
668.185	15.77
668.511	16.64
668.837	15.89
669.162	16.72
669.488	15.96
669.814	16.74
670.139	16.33
670.465	17.18
670.791	16.73
671.116	16.86
671.442	16.67
671.767	15.91
672.092	16.86
672.418	16.66
672.743	16.95
673.068	17.09
673.393	17.04
673.718	16.51
674.043	16.88
674.368	17.68
674.693	17.37
675.018	17.46
675.343	17.06
675.667	17.43
675.992	17.16
676.317	16.5
676.641	17.51
676.966	17.33
677.29	16.71
677.615	17.3
677.939	17.59
678.264	17.34
678.588	17.74
678.912	17.28
679.236	17.1
679.56	17.24
679.885	18.14
680.209	17.36
680.532	18.09
680.856	17.53
681.18	17.81
681.504	17.33
681.828	17.82
682.152	18.44
682.475	18.51
682.799	18.53
683.122	17.71
683.446	17.85
683.769	17.94
684.093	18.39
684.416	18.18
684.739	18
685.062	18.67
685.386	18.14
685.709	18.29
686.032	17.89
686.355	18.51
686.678	18
