Data from 0178_chest_Reflection__3__034.txt Node

Date: Mon Aug 28 18:54:52 CDT 2023
User: ToomeyLab
Spectrometer: FLMS14357
Trigger mode: 0
Integration Time (sec): 1.000000E-2
Scans to average: 100
Electric dark correction enabled: true
Nonlinearity correction enabled: false
Boxcar width: 0
XAxis mode: Wavelengths
Number of Pixels in Spectrum: 2048
>>>>>Begin Spectral Data<<<<<
189.047	-117.59
189.435	-117.59
189.823	-117.59
190.211	5334.88
190.599	-155.97
190.987	-120.83
191.375	-62.97
191.763	119.44
192.151	-100.04
192.538	67.61
192.926	335.39
193.314	618.96
193.702	14.9
194.089	34.99
194.477	3117.65
194.864	97.56
195.252	143.48
195.639	856.41
196.027	161.25
196.414	405.53
196.801	17.32
197.189	80.81
197.576	-286.78
197.963	-17.48
198.351	-16.42
198.738	-17.55
199.125	-0.17
199.512	-2.69
199.899	12.46
200.286	-154.82
200.673	-2.37
201.06	19.94
201.447	-115.41
201.833	-46.32
202.22	0.56
202.607	-15.64
202.994	13.47
203.38	-19.65
203.767	19.01
204.154	-49.97
204.54	-21.03
204.927	-18.74
205.313	10.99
205.699	-40.73
206.086	20.9
206.472	19.68
206.858	24.49
207.245	-1.87
207.631	13.53
208.017	9.8
208.403	24.68
208.789	-8.7
209.175	-33.47
209.561	-4.37
209.947	-37.47
210.333	-5.73
210.719	10.64
211.105	37.92
211.491	7.45
211.876	-0.41
212.262	-41.43
212.648	22.02
213.034	-26.01
213.419	1.01
213.805	-16.36
214.19	8.75
214.576	30.96
214.961	11.13
215.346	-26.8
215.732	2.92
216.117	-43.7
216.502	-26.61
216.888	-81.03
217.273	-33.04
217.658	-6.1
218.043	3.83
218.428	2.8
218.813	-6.24
219.198	18.23
219.583	-17.63
219.968	28.84
220.353	-24.38
220.738	16.92
221.122	-11.95
221.507	8
221.892	-4.01
222.276	-8.61
222.661	-14.49
223.046	4.19
223.43	-4.63
223.815	1.55
224.199	3.64
224.583	2.42
224.968	2.62
225.352	8.68
225.736	-1.54
226.121	0.24
226.505	-3.77
226.889	1.89
227.273	-0.06
227.657	11.65
228.041	5.72
228.425	2.23
228.809	4.18
229.193	4.08
229.577	7.83
229.961	3.69
230.344	5.9
230.728	4.28
231.112	4.25
231.495	4.22
231.879	4.24
232.263	4.58
232.646	2.8
233.03	2.8
233.413	5.16
233.797	3.24
234.18	4.81
234.563	4.09
234.946	6.21
235.33	2.18
235.713	2.22
236.096	5.73
236.479	4.28
236.862	4.05
237.245	3.69
237.628	3.83
238.011	5.41
238.394	4.66
238.777	5.96
239.16	3.05
239.543	3.49
239.925	3.89
240.308	2.89
240.691	3.39
241.073	4.13
241.456	4.79
241.838	3.18
242.221	5.84
242.603	4.57
242.986	5.43
243.368	4.01
243.75	4.89
244.133	4.76
244.515	4.27
244.897	5.02
245.279	5.09
245.661	4.12
246.043	4.4
246.425	4.71
246.807	5.59
247.189	3.55
247.571	4.69
247.953	4.55
248.335	4.87
248.717	4.45
249.098	4.36
249.48	4.46
249.862	4.47
250.243	4.38
250.625	4.8
251.006	4.83
251.388	4.88
251.769	4.65
252.151	3.28
252.532	3.23
252.913	4.24
253.295	3.15
253.676	4.06
254.057	3.8
254.438	3.88
254.819	3.64
255.2	4.45
255.581	4.18
255.962	3.09
256.343	5.04
256.724	3.57
257.105	2.38
257.486	3.98
257.867	3.3
258.247	4.1
258.628	4.82
259.009	3.37
259.389	4.04
259.77	4.28
260.15	3.08
260.531	4.14
260.911	3.87
261.292	4.09
261.672	4.14
262.052	4.1
262.432	4.03
262.813	4.22
263.193	4.02
263.573	3.96
263.953	4.45
264.333	4
264.713	3.92
265.093	4.72
265.473	4.58
265.853	3.17
266.233	4.14
266.612	4.34
266.992	2.77
267.372	4.45
267.752	4.42
268.131	4.31
268.511	3.47
268.89	4.26
269.27	3.82
269.649	3.84
270.029	4.28
270.408	4.13
270.787	4.21
271.167	4.21
271.546	3.7
271.925	4.23
272.304	3.18
272.683	3.77
273.062	4.02
273.441	4.14
273.82	3.85
274.199	3.7
274.578	3.58
274.957	4.15
275.336	3.83
275.715	4.18
276.093	3.69
276.472	2.98
276.851	3.99
277.229	4.34
277.608	3.85
277.986	3.63
278.365	4.12
278.743	3.92
279.122	3.75
279.5	3.7
279.878	4.19
280.257	3.57
280.635	3.73
281.013	3.72
281.391	3.78
281.769	3.39
282.147	3.62
282.525	3.73
282.903	3.56
283.281	3.83
283.659	4.36
284.037	4.06
284.415	4.14
284.792	4.22
285.17	3.61
285.548	3.61
285.925	4.44
286.303	3.53
286.68	4.23
287.058	3.85
287.435	3.81
287.813	3.71
288.19	3.95
288.567	4.28
288.945	3.55
289.322	3.91
289.699	3.87
290.076	4.51
290.453	3.77
290.83	3.36
291.207	3.85
291.584	4.05
291.961	4.37
292.338	4.29
292.715	3.7
293.092	3.89
293.469	3.81
293.845	4.08
294.222	3.66
294.599	4.05
294.975	3.77
295.352	3.11
295.728	3.99
296.105	4.05
296.481	4.32
296.858	4.2
297.234	3.94
297.61	4.22
297.986	3.96
298.363	4.08
298.739	4.16
299.115	3.74
299.491	4.42
299.867	4.36
300.243	3.95
300.619	3.72
300.995	4.34
301.371	4.13
301.746	4.38
302.122	4.34
302.498	4.11
302.874	4.05
303.249	4.48
303.625	4.25
304	4.2
304.376	4.1
304.751	4.01
305.127	4.81
305.502	4.51
305.878	4.03
306.253	3.87
306.628	4.21
307.003	4.32
307.378	4.46
307.754	4.23
308.129	3.71
308.504	4.81
308.879	4.33
309.254	4.41
309.629	4.32
310.003	3.82
310.378	3.76
310.753	4.28
311.128	4.47
311.502	4.62
311.877	3.85
312.252	4.45
312.626	4.13
313.001	4.3
313.375	4.61
313.75	4.12
314.124	4.21
314.498	4.04
314.873	4.38
315.247	4.32
315.621	4.05
315.995	4.68
316.369	4.7
316.743	3.88
317.117	4.03
317.491	4.28
317.865	4.35
318.239	4.04
318.613	4.31
318.987	4.41
319.361	4.71
319.734	3.94
320.108	4.31
320.482	4.03
320.855	3.94
321.229	4.37
321.602	4.28
321.976	3.67
322.349	5.04
322.723	3.81
323.096	4.61
323.469	4.36
323.843	3.8
324.216	4.59
324.589	4.93
324.962	4.4
325.335	4.79
325.708	3.91
326.081	3.9
326.454	4.55
326.827	4.17
327.2	4.1
327.573	4.45
327.945	4.7
328.318	4.4
328.691	4.09
329.063	3.75
329.436	3.87
329.809	4.62
330.181	3.98
330.553	4.25
330.926	4.11
331.298	4.04
331.671	3.57
332.043	4.55
332.415	4.97
332.787	3.87
333.159	4.4
333.532	4.79
333.904	4.41
334.276	4.01
334.648	4.32
335.02	4.5
335.391	4.32
335.763	3.65
336.135	4.83
336.507	4.13
336.879	3.56
337.25	4.2
337.622	4.25
337.993	4.71
338.365	4.44
338.736	4.44
339.108	3.29
339.479	3.91
339.851	4.34
340.222	4.67
340.593	4.07
340.964	4.3
341.336	4.16
341.707	3.81
342.078	3.86
342.449	4.36
342.82	4.74
343.191	4.57
343.562	4.01
343.933	3.93
344.303	4.17
344.674	4.66
345.045	4.01
345.416	4.08
345.786	4.75
346.157	4.34
346.527	4.05
346.898	4.36
347.268	4.27
347.639	3.8
348.009	4.02
348.38	4.36
348.75	4.02
349.12	4.53
349.49	4.59
349.861	3.86
350.231	3.98
350.601	4.14
350.971	4.46
351.341	4.43
351.711	4.03
352.081	4.11
352.45	4.44
352.82	4.27
353.19	4.61
353.56	4.16
353.929	4.46
354.299	3.83
354.669	4.27
355.038	4.32
355.408	4.44
355.777	4.24
356.147	4.54
356.516	4.91
356.885	4.75
357.254	4.31
357.624	4.24
357.993	4.62
358.362	4.2
358.731	4.61
359.1	4.42
359.469	4.6
359.838	4.16
360.207	4.17
360.576	4.31
360.945	4.43
361.314	4.13
361.682	3.95
362.051	4.5
362.42	4.16
362.788	4.25
363.157	4.48
363.525	4.25
363.894	4.38
364.262	4.45
364.631	4.3
364.999	4.03
365.367	4.51
365.735	4.23
366.104	4.23
366.472	4.08
366.84	4.28
367.208	4.37
367.576	4.33
367.944	4.47
368.312	4.82
368.68	4.3
369.048	4.51
369.416	4.17
369.783	4.02
370.151	4.44
370.519	4.3
370.886	4.25
371.254	4.45
371.621	4.37
371.989	4.29
372.356	4.32
372.724	4.64
373.091	4.49
373.458	4.3
373.826	4.7
374.193	4.47
374.56	4.28
374.927	4.12
375.294	4.36
375.661	4.46
376.028	4.46
376.395	3.95
376.762	4.4
377.129	4.29
377.496	4.41
377.863	4.44
378.229	4.43
378.596	4.7
378.963	4.67
379.329	4.53
379.696	4.32
380.062	4.27
380.429	4.38
380.795	4.75
381.161	4.55
381.528	4.54
381.894	4.3
382.26	4.43
382.626	4.59
382.993	4.67
383.359	4.56
383.725	4.83
384.091	4.5
384.457	4.4
384.823	4.5
385.188	4.65
385.554	4.38
385.92	4.51
386.286	4.85
386.651	4.49
387.017	4.91
387.383	4.42
387.748	4.31
388.114	4.44
388.479	4.2
388.845	4.4
389.21	4.14
389.575	4.8
389.94	4.44
390.306	4.4
390.671	4.73
391.036	4.33
391.401	4.51
391.766	4.72
392.131	4.44
392.496	4.36
392.861	4.61
393.226	4.83
393.591	4.33
393.956	4.33
394.32	4.5
394.685	4.59
395.05	4.71
395.414	4.59
395.779	4.54
396.143	4.52
396.508	4.4
396.872	4.61
397.236	4.52
397.601	4.53
397.965	4.7
398.329	4.59
398.694	4.61
399.058	4.57
399.422	4.68
399.786	4.57
400.15	4.86
400.514	4.68
400.878	4.56
401.242	4.54
401.605	4.55
401.969	4.51
402.333	4.6
402.697	4.61
403.06	4.7
403.424	4.8
403.787	4.6
404.151	4.55
404.514	4.55
404.878	4.56
405.241	4.89
405.604	4.71
405.968	4.48
406.331	4.67
406.694	4.46
407.057	4.62
407.42	4.53
407.783	4.59
408.146	4.57
408.509	4.65
408.872	4.58
409.235	4.68
409.598	4.6
409.961	4.38
410.323	4.68
410.686	4.69
411.049	4.92
411.411	4.7
411.774	4.7
412.136	4.51
412.499	4.72
412.861	4.5
413.223	4.53
413.586	4.46
413.948	4.78
414.31	4.9
414.672	4.56
415.035	4.55
415.397	4.46
415.759	4.76
416.121	4.79
416.483	4.45
416.845	4.78
417.206	4.75
417.568	4.61
417.93	4.38
418.292	4.66
418.653	4.53
419.015	4.65
419.377	4.59
419.738	4.84
420.1	4.64
420.461	4.71
420.822	4.72
421.184	4.69
421.545	4.6
421.906	4.73
422.267	4.76
422.629	4.58
422.99	4.58
423.351	4.68
423.712	4.62
424.073	4.64
424.434	4.6
424.795	4.66
425.155	4.71
425.516	4.63
425.877	4.68
426.238	4.49
426.598	4.59
426.959	4.57
427.32	4.59
427.68	4.65
428.041	4.63
428.401	4.71
428.761	4.63
429.122	4.68
429.482	4.82
429.842	4.87
430.202	4.79
430.563	4.75
430.923	4.83
431.283	4.67
431.643	4.66
432.003	4.88
432.363	4.95
432.722	4.75
433.082	4.7
433.442	4.92
433.802	4.87
434.161	4.73
434.521	4.76
434.881	4.62
435.24	4.74
435.6	4.77
435.959	4.78
436.319	4.7
436.678	4.64
437.037	4.72
437.396	4.95
437.756	4.66
438.115	4.81
438.474	4.85
438.833	4.72
439.192	4.91
439.551	4.72
439.91	4.86
440.269	4.94
440.628	4.73
440.987	4.85
441.345	4.8
441.704	4.73
442.063	4.74
442.421	4.71
442.78	4.8
443.138	4.72
443.497	4.68
443.855	4.69
444.214	4.89
444.572	4.73
444.93	4.82
445.288	4.75
445.647	4.88
446.005	4.92
446.363	4.98
446.721	4.89
447.079	4.78
447.437	4.79
447.795	4.7
448.153	4.88
448.51	4.75
448.868	4.81
449.226	4.72
449.584	4.66
449.941	4.8
450.299	4.77
450.656	4.83
451.014	4.77
451.371	4.86
451.729	4.7
452.086	4.83
452.443	5.05
452.801	4.89
453.158	5.04
453.515	4.82
453.872	4.91
454.229	4.99
454.586	5.02
454.943	4.88
455.3	4.86
455.657	4.89
456.014	4.83
456.371	4.73
456.727	5.03
457.084	4.92
457.441	4.92
457.797	4.81
458.154	4.97
458.51	5.12
458.867	4.91
459.223	5.1
459.58	4.91
459.936	5.05
460.292	5
460.648	5.02
461.005	4.86
461.361	4.92
461.717	4.78
462.073	4.81
462.429	4.73
462.785	4.88
463.141	4.86
463.496	5.03
463.852	4.92
464.208	4.89
464.564	4.96
464.919	5.08
465.275	5.21
465.631	4.97
465.986	5.07
466.342	5.1
466.697	4.86
467.052	4.98
467.408	4.83
467.763	4.99
468.118	4.79
468.473	4.95
468.829	5.08
469.184	4.9
469.539	5.01
469.894	4.96
470.249	4.97
470.603	4.92
470.958	5.05
471.313	4.98
471.668	4.83
472.023	5.05
472.377	5
472.732	5.03
473.086	5.06
473.441	5.04
473.795	5.08
474.15	5.05
474.504	5.11
474.859	5.03
475.213	5.02
475.567	5.03
475.921	5.29
476.275	5.04
476.63	5.12
476.984	5.13
477.338	5.11
477.692	5.13
478.045	5.02
478.399	5.1
478.753	4.96
479.107	5.03
479.461	4.98
479.814	5.27
480.168	5.12
480.521	5.2
480.875	4.96
481.228	5.06
481.582	5.17
481.935	4.97
482.289	5.1
482.642	5.11
482.995	5.16
483.348	5.19
483.701	5.1
484.055	5
484.408	4.95
484.761	5.01
485.114	4.9
485.466	4.9
485.819	4.83
486.172	4.76
486.525	4.77
486.878	4.8
487.23	4.89
487.583	4.95
487.936	5.03
488.288	5
488.641	5.01
488.993	4.99
489.345	4.95
489.698	4.92
490.05	4.84
490.402	4.85
490.754	4.94
491.107	4.91
491.459	4.99
491.811	5.05
492.163	5.06
492.515	5.16
492.866	5.18
493.218	5.12
493.57	5.01
493.922	4.91
494.274	4.92
494.625	5
494.977	5.09
495.328	5.19
495.68	5.11
496.031	5.17
496.383	5.1
496.734	5.18
497.086	5.33
497.437	5.3
497.788	5.27
498.139	5.31
498.49	5.2
498.842	5.29
499.193	5.17
499.544	5.18
499.894	5.18
500.245	5.1
500.596	5.24
500.947	5.28
501.298	5.28
501.648	5.24
501.999	5.31
502.35	5.28
502.7	5.24
503.051	5.42
503.401	5.33
503.752	5.18
504.102	5.24
504.452	5.32
504.803	5.41
505.153	5.31
505.503	5.27
505.853	5.29
506.203	5.3
506.553	5.3
506.903	5.4
507.253	5.48
507.603	5.29
507.953	5.38
508.303	5.49
508.652	5.38
509.002	5.62
509.352	5.4
509.701	5.29
510.051	5.42
510.4	5.42
510.75	5.37
511.099	5.4
511.449	5.37
511.798	5.32
512.147	5.44
512.496	5.31
512.846	5.45
513.195	5.58
513.544	5.42
513.893	5.35
514.242	5.48
514.591	5.52
514.939	5.36
515.288	5.43
515.637	5.47
515.986	5.4
516.334	5.59
516.683	5.54
517.032	5.59
517.38	5.48
517.729	5.59
518.077	5.56
518.426	5.56
518.774	5.61
519.122	5.6
519.47	5.51
519.819	5.43
520.167	5.52
520.515	5.53
520.863	5.45
521.211	5.51
521.559	5.54
521.907	5.58
522.255	5.49
522.602	5.52
522.95	5.75
523.298	5.8
523.645	5.66
523.993	5.57
524.341	5.8
524.688	5.83
525.036	5.7
525.383	5.69
525.73	5.79
526.078	5.92
526.425	5.81
526.772	5.76
527.119	5.7
527.466	5.66
527.814	5.63
528.161	5.58
528.508	5.65
528.854	5.6
529.201	5.68
529.548	5.68
529.895	5.77
530.242	5.65
530.588	5.53
530.935	5.47
531.282	5.51
531.628	5.53
531.975	5.62
532.321	5.62
532.667	5.69
533.014	5.76
533.36	5.79
533.706	5.8
534.052	5.83
534.399	5.83
534.745	5.86
535.091	5.81
535.437	5.75
535.783	5.75
536.129	5.78
536.474	5.82
536.82	5.84
537.166	5.95
537.512	5.97
537.857	6.06
538.203	5.98
538.549	5.94
538.894	5.86
539.239	5.84
539.585	5.97
539.93	5.97
540.276	5.93
540.621	6.04
540.966	6.15
541.311	6.1
541.656	6.16
542.001	6.26
542.346	6.18
542.691	6.19
543.036	6.04
543.381	6
543.726	5.96
544.071	6.02
544.415	5.99
544.76	6
545.105	6.07
545.449	6.04
545.794	6.21
546.138	6.23
546.483	6.26
546.827	6.27
547.171	6.24
547.516	6.24
547.86	6.41
548.204	6.47
548.548	6.26
548.892	6.23
549.236	6.21
549.58	6.36
549.924	6.32
550.268	6.47
550.612	6.34
550.956	6.59
551.3	6.49
551.643	6.74
551.987	6.51
552.33	6.74
552.674	6.55
553.017	6.68
553.361	6.69
553.704	6.57
554.048	6.69
554.391	6.59
554.734	6.77
555.077	6.77
555.42	6.68
555.764	6.62
556.107	6.71
556.45	6.74
556.793	6.8
557.135	6.76
557.478	6.75
557.821	6.81
558.164	6.89
558.507	6.77
558.849	6.99
559.192	6.95
559.534	7.07
559.877	7.03
560.219	7
560.562	6.98
560.904	7.08
561.246	6.98
561.589	6.97
561.931	7.15
562.273	6.95
562.615	6.96
562.957	7.17
563.299	7.24
563.641	6.91
563.983	7.22
564.325	7.13
564.667	7.01
565.008	7.06
565.35	7.38
565.692	7.25
566.033	7.33
566.375	7.3
566.716	7.24
567.058	7.26
567.399	7.21
567.741	7.31
568.082	7.32
568.423	7.31
568.764	7.29
569.105	7.48
569.447	7.43
569.788	7.35
570.129	7.4
570.47	7.43
570.811	7.63
571.151	7.39
571.492	7.47
571.833	7.5
572.174	7.73
572.514	7.6
572.855	7.5
573.195	7.66
573.536	7.79
573.876	7.51
574.217	7.58
574.557	7.72
574.898	7.79
575.238	7.58
575.578	7.54
575.918	7.78
576.258	7.86
576.598	7.71
576.938	7.74
577.278	7.82
577.618	7.91
577.958	7.91
578.298	7.92
578.638	7.99
578.977	8.08
579.317	7.82
579.657	7.89
579.996	8.09
580.336	8
580.675	8.04
581.014	8.16
581.354	8.37
581.693	8.1
582.032	8.23
582.372	8.28
582.711	8.36
583.05	8.2
583.389	8.28
583.728	8.29
584.067	8.6
584.406	8.36
584.745	8.31
585.083	8.37
585.422	8.42
585.761	8.41
586.1	8.53
586.438	8.55
586.777	8.45
587.115	8.53
587.454	8.65
587.792	8.86
588.13	8.76
588.469	8.61
588.807	8.58
589.145	8.75
589.483	8.71
589.821	8.87
590.159	8.92
590.497	8.82
590.835	8.87
591.173	8.61
591.511	8.74
591.849	9.01
592.187	8.76
592.524	9
592.862	9.02
593.2	8.79
593.537	8.93
593.875	9.36
594.212	9.32
594.55	9.18
594.887	8.95
595.224	9.25
595.561	9.1
595.899	8.96
596.236	9.52
596.573	9.36
596.91	9.17
597.247	9.5
597.584	9.31
597.921	9.22
598.258	9.45
598.594	9.28
598.931	9.27
599.268	9.41
599.604	9.27
599.941	9.47
600.277	9.31
600.614	9.67
600.95	9.63
601.287	9.67
601.623	9.74
601.959	9.63
602.296	9.72
602.632	9.72
602.968	9.69
603.304	9.84
603.64	9.82
603.976	9.78
604.312	9.56
604.648	9.86
604.984	9.76
605.319	10.06
605.655	9.95
605.991	10.19
606.326	9.95
606.662	9.86
606.998	9.88
607.333	9.82
607.668	10.08
608.004	10.08
608.339	10.12
608.674	10
609.01	10.21
609.345	10.23
609.68	10.07
610.015	10.45
610.35	10.2
610.685	10.19
611.02	10.33
611.355	10.42
611.689	10.09
612.024	10.38
612.359	10.52
612.694	10.51
613.028	10.49
613.363	10.37
613.697	10.49
614.032	10.54
614.366	10.48
614.7	10.47
615.035	10.6
615.369	10.84
615.703	10.56
616.037	10.71
616.371	10.55
616.705	11.05
617.039	10.98
617.373	10.86
617.707	10.57
618.041	10.92
618.375	10.96
618.709	11.34
619.042	11.15
619.376	11.09
619.71	10.8
620.043	11.22
620.377	11.87
620.71	10.95
621.043	11.46
621.377	11.57
621.71	11.4
622.043	10.8
622.376	11.51
622.709	11.13
623.043	11.49
623.376	11.63
623.709	11.59
624.041	11.52
624.374	11.52
624.707	11.52
625.04	11.46
625.373	11.38
625.705	11.82
626.038	11.41
626.37	11.88
626.703	11.67
627.035	11.67
627.368	12.18
627.7	12.01
628.032	11.7
628.365	11.54
628.697	11.85
629.029	11.76
629.361	11.84
629.693	11.87
630.025	11.76
630.357	11.87
630.689	11.84
631.021	12.13
631.353	11.82
631.684	12.35
632.016	12.02
632.348	12.26
632.679	12.26
633.011	12.05
633.342	12.09
633.674	12.57
634.005	12.22
634.336	12.01
634.668	12.67
634.999	12.53
635.33	12.67
635.661	12.76
635.992	12.45
636.323	12.74
636.654	12.59
636.985	12.42
637.316	12.54
637.647	12.56
637.977	12.35
638.308	13.01
638.639	12.3
638.969	12.62
639.3	12.86
639.63	12.73
639.961	12.91
640.291	13.27
640.622	13.13
640.952	12.57
641.282	13.26
641.612	13.09
641.943	13.18
642.273	13.47
642.603	13.01
642.933	12.92
643.263	13.44
643.592	12.78
643.922	13.32
644.252	13.13
644.582	13.12
644.911	13.44
645.241	13.69
645.571	13.5
645.9	13.44
646.23	13.33
646.559	13.69
646.888	14.07
647.218	13.48
647.547	13.44
647.876	13.37
648.205	13.64
648.534	13.88
648.863	13.38
649.192	13.96
649.521	13.81
649.85	14.02
650.179	13.59
650.508	13.96
650.837	13.42
651.165	13.75
651.494	13.69
651.822	14.06
652.151	13.77
652.479	14.58
652.808	14.01
653.136	13.76
653.465	14.26
653.793	14.68
654.121	14.63
654.449	14.41
654.777	14.1
655.105	13.57
655.433	14.29
655.761	13.88
656.089	14.64
656.417	13.96
656.745	14.49
657.073	13.82
657.4	14.25
657.728	14.73
658.056	14.63
658.383	14.78
658.711	14.73
659.038	14.18
659.365	14.77
659.693	14.61
660.02	14.7
660.347	15.35
660.674	14.74
661.001	14.93
661.329	14.7
661.656	14.91
661.982	14.66
662.309	14.91
662.636	14.63
662.963	14.77
663.29	15.08
663.616	14.92
663.943	15.18
664.27	15.07
664.596	15.14
664.923	15.25
665.249	15.19
665.576	15.17
665.902	15.34
666.228	15.1
666.554	15.09
666.881	14.98
667.207	14.81
667.533	15.62
667.859	14.8
668.185	15.44
668.511	15.76
668.837	15.43
669.162	15.5
669.488	15.29
669.814	16.05
670.139	15.69
670.465	16.19
670.791	15.47
671.116	15.32
671.442	15.28
671.767	14.85
672.092	15.97
672.418	15.88
672.743	16.09
673.068	15.37
673.393	15.84
673.718	15.32
674.043	15.75
674.368	16.14
674.693	16
675.018	16.41
675.343	15.91
675.667	16.41
675.992	16.01
676.317	15.78
676.641	16.79
676.966	15.89
677.29	15.98
677.615	16.53
677.939	16.37
678.264	15.8
678.588	15.68
678.912	16.95
679.236	16.45
679.56	16.48
679.885	16.98
680.209	15.93
680.532	16.58
680.856	16.69
681.18	16.65
681.504	15.92
681.828	16.4
682.152	16.69
682.475	16.82
682.799	17.26
683.122	16.81
683.446	16.53
683.769	17.46
684.093	17.28
684.416	17.28
684.739	16.61
685.062	16.53
685.386	16.83
685.709	17.08
686.032	16.73
686.355	16.63
686.678	17
687.001	16.9
