Data from 0178_forehead_Reflection__0__036.txt Node

Date: Mon Aug 28 18:56:19 CDT 2023
User: ToomeyLab
Spectrometer: FLMS14357
Trigger mode: 0
Integration Time (sec): 1.000000E-2
Scans to average: 100
Electric dark correction enabled: true
Nonlinearity correction enabled: false
Boxcar width: 0
XAxis mode: Wavelengths
Number of Pixels in Spectrum: 2048
>>>>>Begin Spectral Data<<<<<
189.047	-32.24
189.435	-32.24
189.823	-32.24
190.211	-7469.77
190.599	16.54
190.987	-263.39
191.375	-56.49
191.763	115.8
192.151	-206.19
192.538	166.82
192.926	187.19
193.314	-107.45
193.702	92.4
194.089	46.96
194.477	-795.29
194.864	-46.1
195.252	115.48
195.639	338.46
196.027	77.45
196.414	290.66
196.801	-73.05
197.189	8.64
197.576	-393.84
197.963	0.33
198.351	15.58
198.738	79.47
199.125	23.03
199.512	69.39
199.899	-13.68
200.286	-177.79
200.673	11.29
201.06	31.23
201.447	-54.82
201.833	-32.38
202.22	2.4
202.607	-5.67
202.994	42.54
203.38	67.82
203.767	68.82
204.154	18.94
204.54	-2.21
204.927	3.46
205.313	26.31
205.699	14.51
206.086	41.01
206.472	26.19
206.858	9.14
207.245	18.29
207.631	48.04
208.017	18.26
208.403	30.02
208.789	3.56
209.175	11.1
209.561	45.62
209.947	24.09
210.333	-13.69
210.719	32.83
211.105	33.67
211.491	23.38
211.876	45.38
212.262	36.31
212.648	52.43
213.034	69.19
213.419	20.34
213.805	28.35
214.19	1.36
214.576	7.44
214.961	37.65
215.346	-7.97
215.732	9.77
216.117	4.67
216.502	14.6
216.888	-9.05
217.273	11.71
217.658	40.56
218.043	-25.45
218.428	36.58
218.813	9.15
219.198	48.73
219.583	12.28
219.968	21.86
220.353	0.62
220.738	29.95
221.122	24.8
221.507	5.68
221.892	15.54
222.276	19.7
222.661	8.71
223.046	17.28
223.43	8.71
223.815	16.72
224.199	17.95
224.583	13.51
224.968	22.91
225.352	4.8
225.736	16.61
226.121	-1.18
226.505	6.76
226.889	5.37
227.273	14.54
227.657	7.76
228.041	7.16
228.425	9.09
228.809	13.61
229.193	8.35
229.577	7.99
229.961	5.13
230.344	6.19
230.728	5.8
231.112	5.42
231.495	5.54
231.879	5.54
232.263	5.18
232.646	5.24
233.03	4.77
233.413	8.83
233.797	5.16
234.18	4.89
234.563	4.79
234.946	10.13
235.33	2.75
235.713	2.55
236.096	6.35
236.479	6.7
236.862	6.85
237.245	5.68
237.628	6.62
238.011	7.59
238.394	5.22
238.777	6.52
239.16	6.09
239.543	4.49
239.925	7.32
240.308	5
240.691	5.59
241.073	4.9
241.456	5.94
241.838	6.03
242.221	7.73
242.603	6.59
242.986	6.01
243.368	6.14
243.75	5.62
244.133	5.25
244.515	5.21
244.897	5.48
245.279	5.44
245.661	5.95
246.043	6.27
246.425	6.43
246.807	5.86
247.189	4.9
247.571	5.24
247.953	6.03
248.335	5
248.717	5.09
249.098	5.32
249.48	5.52
249.862	5.14
250.243	5.15
250.625	5.85
251.006	5.45
251.388	5.16
251.769	6.02
252.151	5.36
252.532	6.37
252.913	5.63
253.295	4.97
253.676	5.92
254.057	5.54
254.438	5.4
254.819	5.48
255.2	5.82
255.581	5.75
255.962	6.92
256.343	7.29
256.724	5.41
257.105	5.91
257.486	5.59
257.867	6.04
258.247	6.52
258.628	7.11
259.009	4.63
259.389	5.12
259.77	5.84
260.15	5.13
260.531	4.64
260.911	5.06
261.292	5.34
261.672	5.12
262.052	5.1
262.432	5.1
262.813	5.41
263.193	5.36
263.573	5.19
263.953	5.86
264.333	6.04
264.713	5.61
265.093	5.32
265.473	5.5
265.853	6.01
266.233	4.32
266.612	6.61
266.992	5.35
267.372	5.93
267.752	6.05
268.131	5.88
268.511	4.91
268.89	5.67
269.27	5.3
269.649	5.34
270.029	5.92
270.408	6.17
270.787	5.41
271.167	5.43
271.546	5.21
271.925	5.37
272.304	5.62
272.683	5.48
273.062	5.14
273.441	5.3
273.82	4.71
274.199	4.98
274.578	5.28
274.957	5.58
275.336	5.68
275.715	5.56
276.093	4.82
276.472	4.21
276.851	4.98
277.229	5.3
277.608	5.24
277.986	5.12
278.365	5.6
278.743	5.01
279.122	5.12
279.5	4.93
279.878	5.07
280.257	5.42
280.635	4.84
281.013	5.86
281.391	5.46
281.769	5.27
282.147	5.26
282.525	5.51
282.903	5.25
283.281	5.57
283.659	5.39
284.037	5.41
284.415	5.23
284.792	5.41
285.17	5.49
285.548	4.87
285.925	5.45
286.303	5.45
286.68	5.67
287.058	5.58
287.435	5.18
287.813	5.15
288.19	5.6
288.567	5.48
288.945	5.05
289.322	5.32
289.699	5.73
290.076	5.6
290.453	5.63
290.83	5.29
291.207	5.66
291.584	5.74
291.961	5.97
292.338	5.43
292.715	5.51
293.092	5.71
293.469	5.96
293.845	5.69
294.222	5.96
294.599	5.89
294.975	6
295.352	5.58
295.728	5.75
296.105	6.08
296.481	5.85
296.858	6.48
297.234	6.35
297.61	6.15
297.986	5.93
298.363	6.82
298.739	5.93
299.115	6.1
299.491	6.57
299.867	6.32
300.243	6.75
300.619	6.6
300.995	6.83
301.371	6.38
301.746	6.69
302.122	6.46
302.498	6.65
302.874	7.19
303.249	7.35
303.625	6.89
304	7.44
304.376	7
304.751	6.77
305.127	7.27
305.502	7.69
305.878	7.22
306.253	7.48
306.628	7.44
307.003	7.43
307.378	7.75
307.754	8.24
308.129	7.62
308.504	8.41
308.879	7.85
309.254	8.26
309.629	7.19
310.003	8.32
310.378	7.79
310.753	8.48
311.128	8.35
311.502	8.55
311.877	8.29
312.252	8.43
312.626	8.27
313.001	8.26
313.375	8.84
313.75	8.65
314.124	8.73
314.498	9.01
314.873	9.27
315.247	9.46
315.621	8.54
315.995	9.34
316.369	9.62
316.743	9.08
317.117	9.14
317.491	9.21
317.865	9.63
318.239	9.97
318.613	9.87
318.987	9.54
319.361	9.63
319.734	9.97
320.108	10.53
320.482	10.22
320.855	9.6
321.229	10.52
321.602	10.33
321.976	9.6
322.349	10.58
322.723	10.59
323.096	10.84
323.469	10.99
323.843	10.94
324.216	10.22
324.589	10.93
324.962	10.71
325.335	11.49
325.708	10.62
326.081	10.85
326.454	11.43
326.827	11.03
327.2	10.69
327.573	11.36
327.945	11.55
328.318	11.81
328.691	10.67
329.063	11.54
329.436	11.13
329.809	11.77
330.181	11.16
330.553	11.61
330.926	11.93
331.298	11.67
331.671	11.51
332.043	11.59
332.415	12.32
332.787	12.05
333.159	11.7
333.532	12.61
333.904	12.82
334.276	12.14
334.648	12.64
335.02	12.6
335.391	12.41
335.763	12.2
336.135	12.47
336.507	12.29
336.879	11.85
337.25	12.33
337.622	12.78
337.993	13.45
338.365	12.51
338.736	12.82
339.108	12.25
339.479	12.82
339.851	13.49
340.222	13.17
340.593	12.92
340.964	13.1
341.336	13.27
341.707	13.32
342.078	12.87
342.449	13.37
342.82	13.82
343.191	13.38
343.562	13.54
343.933	13.95
344.303	13.74
344.674	14.05
345.045	13.95
345.416	14.52
345.786	14.38
346.157	14.14
346.527	13.93
346.898	14.08
347.268	13.82
347.639	13.97
348.009	14.3
348.38	14.27
348.75	14.4
349.12	14.6
349.49	14.57
349.861	14.28
350.231	14.32
350.601	15.11
350.971	14.89
351.341	14.8
351.711	14.8
352.081	14.67
352.45	15.02
352.82	15.1
353.19	15.59
353.56	14.65
353.929	15.23
354.299	15.18
354.669	15.45
355.038	15.81
355.408	15.32
355.777	15.62
356.147	15.45
356.516	15.83
356.885	15.67
357.254	15.79
357.624	15.23
357.993	16.19
358.362	15.49
358.731	15.89
359.1	16.58
359.469	16.19
359.838	15.79
360.207	15.95
360.576	16.42
360.945	16.23
361.314	16.24
361.682	16.34
362.051	16.68
362.42	16.37
362.788	16.41
363.157	16.8
363.525	16.31
363.894	16.54
364.262	16.75
364.631	16.5
364.999	16.74
365.367	17.06
365.735	17.27
366.104	16.73
366.472	17.03
366.84	17.05
367.208	17.41
367.576	17.25
367.944	17.21
368.312	17.55
368.68	17.74
369.048	17.52
369.416	17.44
369.783	17.35
370.151	17.91
370.519	17.74
370.886	18.06
371.254	17.79
371.621	18.05
371.989	18.4
372.356	18.25
372.724	18.54
373.091	18.32
373.458	18.31
373.826	18.34
374.193	18.33
374.56	18.17
374.927	18.41
375.294	18.9
375.661	19.01
376.028	18.47
376.395	18.44
376.762	19.14
377.129	18.96
377.496	18.67
377.863	18.99
378.229	19.14
378.596	19.39
378.963	19.37
379.329	19.2
379.696	19.27
380.062	19.42
380.429	19.15
380.795	19.73
381.161	19.45
381.528	20.03
381.894	19.95
382.26	19.74
382.626	20.03
382.993	20.16
383.359	20.17
383.725	20.39
384.091	20.1
384.457	20.15
384.823	20.37
385.188	20.44
385.554	20.41
385.92	20.34
386.286	20.34
386.651	20.49
387.017	20.62
387.383	20.63
387.748	20.39
388.114	20.73
388.479	20.41
388.845	20.67
389.21	20.87
389.575	20.86
389.94	20.99
390.306	21.19
390.671	20.97
391.036	21.17
391.401	21.16
391.766	21.41
392.131	21.58
392.496	21.44
392.861	21.71
393.226	21.58
393.591	21.25
393.956	21.56
394.32	21.75
394.685	21.79
395.05	21.99
395.414	21.96
395.779	21.94
396.143	21.97
396.508	21.98
396.872	22.1
397.236	22.04
397.601	22.03
397.965	22.44
398.329	22.38
398.694	22.31
399.058	22.62
399.422	22.57
399.786	22.66
400.15	22.9
400.514	22.7
400.878	22.8
401.242	22.76
401.605	22.74
401.969	22.48
402.333	23.08
402.697	22.93
403.06	23.03
403.424	23.4
403.787	23.09
404.151	22.96
404.514	23.23
404.878	23.33
405.241	23.62
405.604	23.55
405.968	23.18
406.331	23.97
406.694	23.4
407.057	23.55
407.42	23.55
407.783	23.65
408.146	23.59
408.509	24.02
408.872	23.91
409.235	23.81
409.598	23.99
409.961	24.16
410.323	24.3
410.686	24.28
411.049	24.43
411.411	24.49
411.774	24.34
412.136	24.05
412.499	24.39
412.861	24.55
413.223	24.77
413.586	24.61
413.948	24.81
414.31	25
414.672	24.84
415.035	24.83
415.397	25.04
415.759	24.92
416.121	25.39
416.483	25.1
416.845	25.31
417.206	25.22
417.568	24.94
417.93	25.02
418.292	25.28
418.653	25.3
419.015	25.34
419.377	25.2
419.738	25.38
420.1	25.31
420.461	25.37
420.822	25.34
421.184	25.22
421.545	25.44
421.906	25.36
422.267	25.43
422.629	25.39
422.99	25.26
423.351	25.2
423.712	25.27
424.073	25.4
424.434	25.76
424.795	25.8
425.155	25.83
425.516	25.83
425.877	25.82
426.238	25.68
426.598	25.66
426.959	25.88
427.32	25.96
427.68	26.13
428.041	26.42
428.401	26.57
428.761	26.76
429.122	26.95
429.482	26.88
429.842	27.13
430.202	26.97
430.563	27.08
430.923	27.35
431.283	27.25
431.643	27.3
432.003	27.41
432.363	27.53
432.722	27.63
433.082	27.3
433.442	27.67
433.802	27.65
434.161	27.61
434.521	27.58
434.881	27.47
435.24	27.4
435.6	27.48
435.959	27.45
436.319	27.65
436.678	27.82
437.037	27.95
437.396	28.34
437.756	28.3
438.115	28.33
438.474	28.42
438.833	28.24
439.192	28.56
439.551	28.58
439.91	28.48
440.269	28.53
440.628	28.45
440.987	28.29
441.345	28.22
441.704	28.32
442.063	28.24
442.421	28.21
442.78	28.43
443.138	28.47
443.497	28.62
443.855	28.66
444.214	28.94
444.572	28.96
444.93	29.25
445.288	29.02
445.647	29.28
446.005	29.15
446.363	29.2
446.721	29.27
447.079	29.17
447.437	29.23
447.795	28.98
448.153	28.79
448.51	28.77
448.868	29.07
449.226	29.06
449.584	29.11
449.941	29.42
450.299	29.62
450.656	29.79
451.014	29.84
451.371	30.13
451.729	30.13
452.086	30.2
452.443	30.33
452.801	30.51
453.158	30.42
453.515	30.56
453.872	30.38
454.229	30.67
454.586	30.56
454.943	30.43
455.3	30.46
455.657	30.39
456.014	30.73
456.371	30.89
456.727	30.65
457.084	30.92
457.441	30.82
457.797	31.02
458.154	31.01
458.51	31.25
458.867	31.09
459.223	31.22
459.58	31.22
459.936	31.4
460.292	31.44
460.648	31.28
461.005	31.01
461.361	31.17
461.717	30.97
462.073	30.81
462.429	30.69
462.785	30.97
463.141	31.29
463.496	31.43
463.852	31.56
464.208	31.84
464.564	32.1
464.919	31.89
465.275	32.25
465.631	32.19
465.986	32.49
466.342	32.49
466.697	32.35
467.052	32.27
467.408	32.36
467.763	32.56
468.118	32.46
468.473	32.39
468.829	32.55
469.184	32.46
469.539	32.57
469.894	32.44
470.249	32.59
470.603	32.79
470.958	32.58
471.313	32.92
471.668	32.92
472.023	32.99
472.377	33.1
472.732	33.14
473.086	33.11
473.441	33.01
473.795	33.29
474.15	33.23
474.504	33.63
474.859	33.44
475.213	33.67
475.567	33.32
475.921	33.68
476.275	33.48
476.63	33.65
476.984	33.87
477.338	33.83
477.692	33.7
478.045	34.05
478.399	34.03
478.753	33.8
479.107	33.9
479.461	33.89
479.814	33.98
480.168	34.08
480.521	33.97
480.875	34.03
481.228	34.08
481.582	34.14
481.935	34.24
482.289	34.38
482.642	34.64
482.995	34.55
483.348	34.43
483.701	34.2
484.055	34.31
484.408	34.04
484.761	34.13
485.114	34.13
485.466	33.76
485.819	33.43
486.172	33.27
486.525	33.3
486.878	33.34
487.23	33.54
487.583	33.92
487.936	34.25
488.288	34.38
488.641	34.47
488.993	34.35
489.345	34.14
489.698	34.01
490.05	33.96
490.402	34.03
490.754	34.23
491.107	34.39
491.459	34.63
491.811	34.82
492.163	35.33
492.515	35.47
492.866	35.45
493.218	35.3
493.57	34.76
493.922	34.45
494.274	34.63
494.625	34.82
494.977	35.09
495.328	35.41
495.68	35.78
496.031	36.06
496.383	36.13
496.734	36.31
497.086	36.37
497.437	36.44
497.788	36.69
498.139	36.55
498.49	36.52
498.842	36.46
499.193	36.3
499.544	36.12
499.894	36.21
500.245	36.58
500.596	36.52
500.947	36.57
501.298	36.68
501.648	36.78
501.999	36.85
502.35	36.97
502.7	37.08
503.051	37.23
503.401	37.44
503.752	37.18
504.102	37.37
504.452	37.37
504.803	37.55
505.153	37.48
505.503	37.54
505.853	37.68
506.203	37.72
506.553	37.54
506.903	37.73
507.253	37.84
507.603	37.62
507.953	37.97
508.303	38.01
508.652	38.16
509.002	38.2
509.352	37.98
509.701	37.98
510.051	38.02
510.4	37.92
510.75	37.86
511.099	37.84
511.449	37.83
511.798	38.03
512.147	38.13
512.496	38.24
512.846	38.35
513.195	38.48
513.544	38.61
513.893	38.53
514.242	38.57
514.591	38.57
514.939	38.57
515.288	38.76
515.637	38.93
515.986	38.8
516.334	38.83
516.683	39.22
517.032	39.22
517.38	39.31
517.729	39.26
518.077	39.36
518.426	39.39
518.774	39.62
519.122	39.43
519.47	39.46
519.819	39.35
520.167	39.14
520.515	38.86
520.863	38.87
521.211	38.93
521.559	38.98
521.907	39.09
522.255	39.2
522.602	39.42
522.95	39.79
523.298	39.87
523.645	39.85
523.993	40.02
524.341	40.34
524.688	40.49
525.036	40.16
525.383	40.38
525.73	40.49
526.078	40.46
526.425	40.53
526.772	40.35
527.119	40.42
527.466	40.18
527.814	39.75
528.161	39.91
528.508	40.11
528.854	40.1
529.201	40.41
529.548	40.4
529.895	40.47
530.242	40.06
530.588	39.56
530.935	39.5
531.282	39.57
531.628	39.65
531.975	39.63
532.321	39.86
532.667	40.16
533.014	40.56
533.36	40.77
533.706	40.94
534.052	40.9
534.399	41.04
534.745	41.07
535.091	40.78
535.437	40.38
535.783	40.47
536.129	40.48
536.474	40.79
536.82	41.05
537.166	41.43
537.512	41.33
537.857	41.77
538.203	41.55
538.549	41.46
538.894	41.28
539.239	41.29
539.585	41.56
539.93	41.55
540.276	41.76
540.621	42.01
540.966	42.12
541.311	42.63
541.656	42.55
542.001	42.46
542.346	42.63
542.691	42.34
543.036	42.04
543.381	41.45
543.726	41.17
544.071	41.26
544.415	41.51
544.76	41.8
545.105	42.03
545.449	42.1
545.794	42.15
546.138	42.38
546.483	42.57
546.827	42.67
547.171	42.9
547.516	43.09
547.86	42.86
548.204	42.91
548.548	43.07
548.892	42.84
549.236	42.77
549.58	43.16
549.924	43.09
550.268	43.51
550.612	43.74
550.956	43.81
551.3	43.77
551.643	44.18
551.987	43.96
552.33	44.01
552.674	44.16
553.017	44.32
553.361	44.19
553.704	44.31
554.048	44.41
554.391	44.01
554.734	44.26
555.077	44.07
555.42	44.12
555.764	44.31
556.107	44.55
556.45	44.7
556.793	44.72
557.135	44.69
557.478	45
557.821	45.09
558.164	45
558.507	44.99
558.849	45.32
559.192	45.14
559.534	45.06
559.877	45.25
560.219	45.48
560.562	45.48
560.904	45.14
561.246	45.31
561.589	45.66
561.931	45.22
562.273	45.41
562.615	45.65
562.957	45.61
563.299	45.63
563.641	45.23
563.983	45.75
564.325	45.66
564.667	45.7
565.008	45.8
565.35	45.9
565.692	46.25
566.033	46.01
566.375	46.22
566.716	45.99
567.058	46.41
567.399	46.22
567.741	46.19
568.082	46.18
568.423	45.69
568.764	45.76
569.105	45.78
569.447	46.13
569.788	45.93
570.129	46.18
570.47	46.48
570.811	46.43
571.151	46.49
571.492	46.44
571.833	46.52
572.174	46.65
572.514	46.77
572.855	46.69
573.195	46.71
573.536	46.65
573.876	46.67
574.217	46.65
574.557	46.57
574.898	46.86
575.238	46.7
575.578	46.93
575.918	46.86
576.258	47.11
576.598	47.18
576.938	47.03
577.278	47.29
577.618	47.16
577.958	47.01
578.298	47.48
578.638	47.43
578.977	47.48
579.317	47.61
579.657	47.49
579.996	47.77
580.336	47.72
580.675	47.97
581.014	48.18
581.354	48.15
581.693	48.37
582.032	48.51
582.372	48.66
582.711	48.42
583.05	48.26
583.389	48.72
583.728	48.28
584.067	48.55
584.406	48.37
584.745	48.51
585.083	48.65
585.422	48.8
585.761	48.7
586.1	48.68
586.438	48.87
586.777	49
587.115	48.63
587.454	48.92
587.792	49.24
588.13	49.24
588.469	49.16
588.807	49.04
589.145	49.08
589.483	49.33
589.821	49.09
590.159	48.79
590.497	49.2
590.835	49.31
591.173	49.22
591.511	49.16
591.849	49.38
592.187	49.21
592.524	49.51
592.862	49.35
593.2	49.25
593.537	49.37
593.875	49.88
594.212	49.92
594.55	49.82
594.887	49.82
595.224	50.06
595.561	49.92
595.899	49.63
596.236	49.84
596.573	49.99
596.91	50.27
597.247	50.05
597.584	50.16
597.921	50.03
598.258	50.23
598.594	50.1
598.931	50.18
599.268	49.81
599.604	49.73
599.941	49.81
600.277	49.26
600.614	50.12
600.95	50.35
601.287	50.47
601.623	50.82
601.959	51.05
602.296	50.7
602.632	50.74
602.968	50.87
603.304	50.84
603.64	50.78
603.976	51.07
604.312	50.94
604.648	50.78
604.984	50.68
605.319	51.1
605.655	50.96
605.991	50.9
606.326	51.07
606.662	50.76
606.998	50.32
607.333	50.46
607.668	50.74
608.004	50.89
608.339	51.03
608.674	51.45
609.01	51.45
609.345	51.88
609.68	51.41
610.015	51.6
610.35	51.64
610.685	51.65
611.02	51.89
611.355	51.69
611.689	51.03
612.024	51.53
612.359	51.61
612.694	51.76
613.028	51.71
613.363	51.75
613.697	51.97
614.032	52.17
614.366	51.98
614.7	52.55
615.035	52
615.369	52.62
615.703	52.37
616.037	52.26
616.371	52.11
616.705	52.89
617.039	52.7
617.373	52.9
617.707	52.9
618.041	52.81
618.375	52.84
618.709	52.65
619.042	53.5
619.376	53.05
619.71	52.8
620.043	53.2
620.377	53.07
620.71	52.92
621.043	53.37
621.377	53.06
621.71	52.79
622.043	52.88
622.376	53.52
622.709	53.55
623.043	53.25
623.376	53.19
623.709	53.21
624.041	53.63
624.374	52.91
624.707	53.52
625.04	53.96
625.373	53.33
625.705	53.59
626.038	53.74
626.37	54.04
626.703	53.49
627.035	53.97
627.368	53.69
627.7	53.82
628.032	54.18
628.365	54.05
628.697	53.82
629.029	53.8
629.361	54.02
629.693	53.68
630.025	53.81
630.357	53.93
630.689	53.79
631.021	54.12
631.353	54.38
631.684	53.92
632.016	54.24
632.348	54.31
632.679	54.41
633.011	54.32
633.342	54.54
633.674	54.37
634.005	54.63
634.336	54.5
634.668	54.88
634.999	54.71
635.33	54.36
635.661	54.68
635.992	54.36
636.323	54.91
636.654	54.64
636.985	54.76
637.316	54.83
637.647	54.96
637.977	54.78
638.308	54.93
638.639	55.23
638.969	55.11
639.3	55.13
639.63	54.94
639.961	55.13
640.291	55.2
640.622	55.69
640.952	55.64
641.282	55.21
641.612	56.05
641.943	55.69
642.273	56.37
642.603	56.07
642.933	54.97
643.263	56.05
643.592	55.66
643.922	55.71
644.252	55.67
644.582	55.81
644.911	56.72
645.241	55.68
645.571	56.01
645.9	56.4
646.23	55.77
646.559	56.27
646.888	56.46
647.218	56
647.547	55.82
647.876	57.1
648.205	55.86
648.534	56.8
648.863	56.63
649.192	56.49
649.521	56.56
649.85	56.75
650.179	56.39
650.508	56.66
650.837	55.68
651.165	56.58
651.494	56.73
651.822	56.68
652.151	56.57
652.479	56.42
652.808	56.95
653.136	56.68
653.465	57.05
653.793	57.52
654.121	57.44
654.449	56.73
654.777	56.79
655.105	57.08
655.433	56.87
655.761	56.79
656.089	57.21
656.417	57.07
656.745	56.97
657.073	57.29
657.4	57.12
657.728	57.41
658.056	57.48
658.383	57.43
658.711	57.51
659.038	56.99
659.365	57.79
659.693	57.92
660.02	57.48
660.347	58.01
660.674	57.75
661.001	58.02
661.329	57.61
661.656	57.23
661.982	57.17
662.309	57.65
662.636	57.75
662.963	58.19
663.29	57.85
663.616	57.9
663.943	58.01
664.27	58.29
664.596	58
664.923	58.1
665.249	57.82
665.576	58.69
665.902	58.17
666.228	57.71
666.554	57.77
666.881	57.87
667.207	57.73
667.533	58.82
667.859	57.95
668.185	58.15
668.511	58.78
668.837	58.22
669.162	58.39
