Data from 0178_forehead_Reflection__3__039.txt Node

Date: Mon Aug 28 18:56:53 CDT 2023
User: ToomeyLab
Spectrometer: FLMS14357
Trigger mode: 0
Integration Time (sec): 1.000000E-2
Scans to average: 100
Electric dark correction enabled: true
Nonlinearity correction enabled: false
Boxcar width: 0
XAxis mode: Wavelengths
Number of Pixels in Spectrum: 2048
>>>>>Begin Spectral Data<<<<<
189.047	-60.58
189.435	-60.58
189.823	-60.58
190.211	7655.81
190.599	20.73
190.987	470.38
191.375	-62.8
191.763	80.78
192.151	36.07
192.538	130.56
192.926	290.04
193.314	-513.77
193.702	-1.06
194.089	86.41
194.477	192.94
194.864	59.14
195.252	-50.04
195.639	-242.74
196.027	161.37
196.414	502.76
196.801	103.67
197.189	133.08
197.576	122.72
197.963	21.41
198.351	-4.32
198.738	47.96
199.125	20.02
199.512	6.67
199.899	-23.96
200.286	-14.21
200.673	29.42
201.06	-11.64
201.447	-57.47
201.833	-22.09
202.22	27.88
202.607	-14.77
202.994	22.15
203.38	59.68
203.767	45.66
204.154	13.46
204.54	-22.24
204.927	-4.52
205.313	47.32
205.699	29.76
206.086	30.66
206.472	41.34
206.858	-8.77
207.245	40.59
207.631	25.58
208.017	13.24
208.403	23.82
208.789	36.5
209.175	62.91
209.561	16.49
209.947	55.11
210.333	15.02
210.719	23.33
211.105	50.93
211.491	-6.31
211.876	52.74
212.262	83.64
212.648	25.07
213.034	-14.83
213.419	0.72
213.805	13.21
214.19	4.37
214.576	7.01
214.961	9.02
215.346	0.03
215.732	25.89
216.117	-51.34
216.502	28.22
216.888	-46.14
217.273	19.94
217.658	57.71
218.043	-5.47
218.428	12.61
218.813	-1.38
219.198	53.91
219.583	12.47
219.968	33.02
220.353	17.45
220.738	20
221.122	-2.56
221.507	2.08
221.892	0.95
222.276	4.66
222.661	-2.43
223.046	9.57
223.43	11.71
223.815	18.57
224.199	20.81
224.583	11.12
224.968	11.98
225.352	10.17
225.736	6.1
226.121	4.32
226.505	6.45
226.889	2.31
227.273	11.84
227.657	3.76
228.041	6.78
228.425	4.21
228.809	1.51
229.193	8.15
229.577	7.82
229.961	5.61
230.344	5.27
230.728	4.64
231.112	4.56
231.495	5.33
231.879	5.06
232.263	5.32
232.646	5.21
233.03	7.08
233.413	8
233.797	5.03
234.18	4.66
234.563	5.26
234.946	10.51
235.33	5.29
235.713	3.63
236.096	6.49
236.479	4.95
236.862	6.53
237.245	5.15
237.628	5.41
238.011	8.95
238.394	6.31
238.777	7.64
239.16	5.52
239.543	5.88
239.925	6.57
240.308	4.31
240.691	4.61
241.073	3.57
241.456	5.57
241.838	4.62
242.221	6
242.603	6.19
242.986	5.08
243.368	5.48
243.75	5.15
244.133	4.74
244.515	4.61
244.897	5.82
245.279	5.61
245.661	4.87
246.043	6.12
246.425	5.51
246.807	5.67
247.189	4.42
247.571	5.23
247.953	5.26
248.335	5.37
248.717	5.32
249.098	5.05
249.48	5.02
249.862	5.17
250.243	5.21
250.625	5.45
251.006	5.7
251.388	4.62
251.769	6.42
252.151	5
252.532	5.44
252.913	6.96
253.295	4.41
253.676	5.25
254.057	5.48
254.438	5.28
254.819	4.63
255.2	5.62
255.581	5.58
255.962	7.29
256.343	7.59
256.724	4.98
257.105	5.57
257.486	5.72
257.867	5.19
258.247	5.55
258.628	6.07
259.009	5.1
259.389	5.5
259.77	5.57
260.15	5.23
260.531	4.8
260.911	5.71
261.292	5.28
261.672	5.05
262.052	4.65
262.432	4.95
262.813	5.21
263.193	5.1
263.573	5.2
263.953	5.52
264.333	5.02
264.713	4.59
265.093	5.24
265.473	5.69
265.853	4.49
266.233	4.18
266.612	5.35
266.992	5.44
267.372	4.52
267.752	5.05
268.131	4.92
268.511	4.34
268.89	5.66
269.27	4.89
269.649	4.87
270.029	4.94
270.408	5.41
270.787	4.92
271.167	5.13
271.546	4.93
271.925	5.39
272.304	5.16
272.683	4.8
273.062	5.07
273.441	4.65
273.82	4.94
274.199	4.96
274.578	4.96
274.957	5.04
275.336	5.08
275.715	4.84
276.093	4.43
276.472	4.93
276.851	4.39
277.229	5.11
277.608	5.14
277.986	5.42
278.365	5.42
278.743	5.05
279.122	5.24
279.5	4.46
279.878	4.12
280.257	5.02
280.635	5.22
281.013	5.42
281.391	4.8
281.769	5.03
282.147	5.11
282.525	5.34
282.903	5
283.281	4.66
283.659	5.57
284.037	5.22
284.415	4.7
284.792	5.16
285.17	4.42
285.548	4.56
285.925	5.52
286.303	5.06
286.68	4.98
287.058	5.07
287.435	5.07
287.813	4.69
288.19	5.36
288.567	4.79
288.945	5.42
289.322	4.87
289.699	4.97
290.076	5.42
290.453	4.98
290.83	4.7
291.207	4.88
291.584	4.87
291.961	5.48
292.338	4.94
292.715	5.17
293.092	5.33
293.469	5.38
293.845	5.36
294.222	5.41
294.599	5.21
294.975	5.28
295.352	5.28
295.728	5.49
296.105	5.27
296.481	5.59
296.858	6.04
297.234	5.99
297.61	5.78
297.986	5.37
298.363	5.9
298.739	5.5
299.115	5.45
299.491	5.82
299.867	5.54
300.243	5.79
300.619	5.9
300.995	6.28
301.371	5.34
301.746	6.07
302.122	5.54
302.498	5.99
302.874	6.3
303.249	6.15
303.625	6.61
304	5.86
304.376	5.9
304.751	5.77
305.127	5.91
305.502	6.09
305.878	6.15
306.253	6.06
306.628	6.47
307.003	6.19
307.378	6.19
307.754	6.66
308.129	6.52
308.504	6.69
308.879	6.82
309.254	6.97
309.629	6.9
310.003	6.71
310.378	6.57
310.753	6.72
311.128	6.96
311.502	7.02
311.877	6.61
312.252	7.2
312.626	7.07
313.001	6.93
313.375	6.92
313.75	6.81
314.124	7.03
314.498	7.09
314.873	7.5
315.247	7.23
315.621	7.06
315.995	7.44
316.369	7.61
316.743	6.77
317.117	7.5
317.491	7.12
317.865	7.72
318.239	7.51
318.613	7.48
318.987	7.31
319.361	7.8
319.734	7.5
320.108	8.34
320.482	7.89
320.855	8.1
321.229	7.43
321.602	7.82
321.976	7.41
322.349	8.32
322.723	8.28
323.096	8.08
323.469	7.67
323.843	8.14
324.216	8.4
324.589	8.21
324.962	8.6
325.335	8.6
325.708	8.08
326.081	8.61
326.454	8.47
326.827	8.64
327.2	8.17
327.573	8.56
327.945	8.68
328.318	8.98
328.691	8.52
329.063	8.19
329.436	8.15
329.809	9.19
330.181	8.54
330.553	8.95
330.926	9.12
331.298	9.07
331.671	8.33
332.043	8.75
332.415	9.57
332.787	8.96
333.159	8.55
333.532	9.42
333.904	9.47
334.276	8.86
334.648	8.93
335.02	9.55
335.391	9.62
335.763	9.26
336.135	9.48
336.507	9.35
336.879	8.97
337.25	9.66
337.622	9.42
337.993	9.31
338.365	9.09
338.736	9.2
339.108	9.03
339.479	8.48
339.851	9.8
340.222	10
340.593	9.49
340.964	10.55
341.336	9.65
341.707	9.23
342.078	9.4
342.449	9.85
342.82	9.76
343.191	9.2
343.562	9.57
343.933	9.71
344.303	9.86
344.674	10.23
345.045	9.85
345.416	10.21
345.786	10.13
346.157	10.11
346.527	9.71
346.898	9.63
347.268	9.87
347.639	9.67
348.009	10.07
348.38	10.56
348.75	10.1
349.12	10.54
349.49	10.23
349.861	9.84
350.231	10.35
350.601	11
350.971	11.02
351.341	10.74
351.711	10.85
352.081	10.66
352.45	10.54
352.82	10.77
353.19	11.1
353.56	10.94
353.929	10.9
354.299	10.64
354.669	10.97
355.038	10.98
355.408	11.14
355.777	10.79
356.147	10.77
356.516	11.15
356.885	11.11
357.254	10.78
357.624	11.24
357.993	11
358.362	10.85
358.731	11.33
359.1	11.57
359.469	11.4
359.838	10.83
360.207	11.35
360.576	11.48
360.945	11.56
361.314	11.39
361.682	10.96
362.051	11.22
362.42	11.47
362.788	11.4
363.157	11.58
363.525	11.54
363.894	11.64
364.262	11.73
364.631	11.69
364.999	11.49
365.367	11.66
365.735	11.71
366.104	11.63
366.472	11.57
366.84	11.89
367.208	11.67
367.576	12.18
367.944	12.16
368.312	12.12
368.68	11.71
369.048	12.07
369.416	12.23
369.783	12.04
370.151	12.32
370.519	12.04
370.886	12.31
371.254	12.31
371.621	12.26
371.989	12.44
372.356	12.04
372.724	12.79
373.091	12.55
373.458	12.73
373.826	12.91
374.193	12.6
374.56	12.8
374.927	12.47
375.294	12.62
375.661	12.68
376.028	12.84
376.395	12.59
376.762	13.15
377.129	12.71
377.496	13.13
377.863	13.16
378.229	13.07
378.596	13.31
378.963	13.12
379.329	13.38
379.696	13.44
380.062	13.01
380.429	13.17
380.795	13.31
381.161	13.16
381.528	13.59
381.894	13.67
382.26	13.55
382.626	13.55
382.993	13.54
383.359	13.42
383.725	14.02
384.091	13.63
384.457	13.58
384.823	13.4
385.188	13.86
385.554	13.35
385.92	13.56
386.286	13.99
386.651	13.95
387.017	14.19
387.383	13.85
387.748	13.9
388.114	13.69
388.479	13.75
388.845	13.88
389.21	13.96
389.575	14.11
389.94	14.17
390.306	14.18
390.671	14.13
391.036	14.29
391.401	14.32
391.766	14.62
392.131	14.58
392.496	14.4
392.861	14.47
393.226	14.73
393.591	14.39
393.956	14.47
394.32	14.66
394.685	14.72
395.05	14.56
395.414	14.52
395.779	14.5
396.143	14.74
396.508	14.6
396.872	14.68
397.236	14.69
397.601	14.6
397.965	14.92
398.329	15.39
398.694	14.92
399.058	15.04
399.422	14.88
399.786	15.35
400.15	15.1
400.514	15.2
400.878	15.39
401.242	15.27
401.605	15.34
401.969	15.37
402.333	15.58
402.697	15.21
403.06	15.3
403.424	15.55
403.787	15.23
404.151	15.21
404.514	15.4
404.878	15.54
405.241	15.79
405.604	15.76
405.968	15.54
406.331	15.76
406.694	15.46
407.057	15.74
407.42	15.57
407.783	15.78
408.146	15.66
408.509	15.8
408.872	15.76
409.235	15.78
409.598	15.85
409.961	15.83
410.323	15.94
410.686	16.23
411.049	16.35
411.411	16.02
411.774	16.04
412.136	16.1
412.499	15.95
412.861	16.4
413.223	16.15
413.586	16.38
413.948	16.27
414.31	16.29
414.672	16.65
415.035	16.56
415.397	16.57
415.759	16.56
416.121	16.39
416.483	16.62
416.845	16.85
417.206	16.75
417.568	16.76
417.93	16.55
418.292	16.62
418.653	16.69
419.015	16.62
419.377	16.47
419.738	16.77
420.1	16.74
420.461	16.9
420.822	16.84
421.184	16.74
421.545	16.74
421.906	16.88
422.267	16.75
422.629	16.78
422.99	16.68
423.351	16.79
423.712	16.76
424.073	16.79
424.434	16.93
424.795	17.06
425.155	17.09
425.516	17
425.877	17.15
426.238	17.03
426.598	17.06
426.959	16.97
427.32	17.03
427.68	17.24
428.041	17.26
428.401	17.35
428.761	17.49
429.122	17.51
429.482	17.62
429.842	17.69
430.202	17.76
430.563	18
430.923	17.87
431.283	17.84
431.643	17.94
432.003	18.01
432.363	17.94
432.722	18.16
433.082	17.91
433.442	18.12
433.802	18.12
434.161	18.25
434.521	18.31
434.881	18
435.24	18.08
435.6	18.18
435.959	18.14
436.319	18.29
436.678	18.34
437.037	18.44
437.396	18.39
437.756	18.61
438.115	18.84
438.474	18.76
438.833	18.6
439.192	18.78
439.551	18.67
439.91	18.64
440.269	18.6
440.628	18.71
440.987	18.76
441.345	18.6
441.704	18.68
442.063	18.66
442.421	18.56
442.78	18.86
443.138	18.83
443.497	18.75
443.855	18.9
444.214	19.09
444.572	19.05
444.93	19.26
445.288	19.09
445.647	19.23
446.005	19.38
446.363	19.35
446.721	19.12
447.079	19.35
447.437	19.11
447.795	19.09
448.153	19.06
448.51	18.95
448.868	19.08
449.226	19
449.584	19.22
449.941	19.29
450.299	19.49
450.656	19.5
451.014	19.61
451.371	19.46
451.729	19.68
452.086	19.87
452.443	20.08
452.801	20.06
453.158	19.96
453.515	20.06
453.872	19.96
454.229	20.21
454.586	20.08
454.943	20.11
455.3	20.02
455.657	20.06
456.014	20.05
456.371	20.3
456.727	20.15
457.084	20.31
457.441	20.45
457.797	20.3
458.154	20.43
458.51	20.82
458.867	20.52
459.223	20.52
459.58	20.59
459.936	20.76
460.292	20.74
460.648	20.59
461.005	20.53
461.361	20.47
461.717	20.33
462.073	20.38
462.429	20.27
462.785	20.3
463.141	20.59
463.496	20.66
463.852	20.85
464.208	20.96
464.564	21.1
464.919	20.86
465.275	21.38
465.631	21.23
465.986	21.59
466.342	21.3
466.697	21.39
467.052	21.26
467.408	21.14
467.763	21.5
468.118	21.42
468.473	21.26
468.829	21.53
469.184	21.34
469.539	21.34
469.894	21.41
470.249	21.48
470.603	21.53
470.958	21.67
471.313	21.54
471.668	21.58
472.023	21.56
472.377	21.77
472.732	21.87
473.086	21.74
473.441	22.06
473.795	22.04
474.15	21.96
474.504	22.15
474.859	22.1
475.213	22.11
475.567	21.99
475.921	22.22
476.275	22.2
476.63	22.21
476.984	22.12
477.338	22.51
477.692	22.44
478.045	22.43
478.399	22.45
478.753	22.47
479.107	22.42
479.461	22.65
479.814	22.54
480.168	22.63
480.521	22.43
480.875	22.5
481.228	22.53
481.582	22.6
481.935	22.56
482.289	22.84
482.642	22.67
482.995	22.75
483.348	22.7
483.701	22.68
484.055	22.58
484.408	22.59
484.761	22.55
485.114	22.49
485.466	22.21
485.819	22.06
486.172	21.88
486.525	21.88
486.878	21.89
487.23	22.01
487.583	22.22
487.936	22.46
488.288	22.7
488.641	22.68
488.993	22.74
489.345	22.51
489.698	22.54
490.05	22.47
490.402	22.47
490.754	22.55
491.107	22.63
491.459	22.82
491.811	23.01
492.163	23.22
492.515	23.42
492.866	23.57
493.218	23.29
493.57	23.07
493.922	22.92
494.274	22.95
494.625	22.9
494.977	23.16
495.328	23.46
495.68	23.52
496.031	23.83
496.383	23.95
496.734	24.03
497.086	24.23
497.437	24.38
497.788	24.21
498.139	24.25
498.49	24.29
498.842	24.22
499.193	24.11
499.544	24.11
499.894	24.14
500.245	24.25
500.596	24.24
500.947	24.24
501.298	24.37
501.648	24.57
501.999	24.54
502.35	24.58
502.7	24.58
503.051	24.98
503.401	24.75
503.752	24.83
504.102	24.98
504.452	24.97
504.803	25.13
505.153	25.09
505.503	24.94
505.853	25.08
506.203	25.17
506.553	25.03
506.903	25.17
507.253	25.41
507.603	25.1
507.953	25.25
508.303	25.44
508.652	25.39
509.002	25.55
509.352	25.42
509.701	25.43
510.051	25.54
510.4	25.4
510.75	25.45
511.099	25.35
511.449	25.33
511.798	25.47
512.147	25.56
512.496	25.59
512.846	25.57
513.195	25.64
513.544	25.73
513.893	25.8
514.242	25.88
514.591	25.83
514.939	25.67
515.288	25.85
515.637	25.97
515.986	26.1
516.334	26.15
516.683	26.07
517.032	26.24
517.38	26.41
517.729	26.34
518.077	26.51
518.426	26.2
518.774	26.65
519.122	26.46
519.47	26.41
519.819	26.48
520.167	26.37
520.515	26.33
520.863	26.01
521.211	26.21
521.559	26.09
521.907	26.15
522.255	26.2
522.602	26.5
522.95	26.9
523.298	26.83
523.645	26.85
523.993	26.85
524.341	27.19
524.688	27.31
525.036	27.07
525.383	27.22
525.73	27.28
526.078	27.35
526.425	27.29
526.772	27.34
527.119	27.25
527.466	27.02
527.814	26.86
528.161	27
528.508	26.96
528.854	26.91
529.201	27.17
529.548	27.08
529.895	27.14
530.242	27.05
530.588	26.75
530.935	26.56
531.282	26.5
531.628	26.57
531.975	26.64
532.321	26.77
532.667	26.9
533.014	27.35
533.36	27.47
533.706	27.52
534.052	27.63
534.399	27.67
534.745	27.85
535.091	27.57
535.437	27.37
535.783	27.38
536.129	27.32
536.474	27.47
536.82	27.66
537.166	27.83
537.512	27.99
537.857	28.28
538.203	28.37
538.549	28.18
538.894	28.01
539.239	28.03
539.585	27.99
539.93	28.26
540.276	28.26
540.621	28.71
540.966	28.65
541.311	28.88
541.656	28.88
542.001	28.97
542.346	29.03
542.691	28.84
543.036	28.66
543.381	28.24
543.726	28.02
544.071	28.12
544.415	28.08
544.76	28.33
545.105	28.47
545.449	28.38
545.794	28.7
546.138	28.83
546.483	28.99
546.827	28.99
547.171	29.34
547.516	29.24
547.86	29.21
548.204	29.55
548.548	29.39
548.892	29.35
549.236	29.27
549.58	29.37
549.924	29.53
550.268	29.76
550.612	29.9
550.956	29.96
551.3	30.04
551.643	30.32
551.987	30.24
552.33	30.41
552.674	30.46
553.017	30.52
553.361	30.5
553.704	30.49
554.048	30.4
554.391	30.47
554.734	30.45
555.077	30.41
555.42	30.37
555.764	30.4
556.107	30.52
556.45	30.58
556.793	30.58
557.135	30.67
557.478	30.79
557.821	31.07
558.164	31.06
558.507	30.9
558.849	31.19
559.192	31.17
559.534	30.86
559.877	31.24
560.219	31.48
560.562	31.52
560.904	31.42
561.246	31.42
561.589	31.53
561.931	31.55
562.273	31.49
562.615	31.47
562.957	31.52
563.299	31.74
563.641	31.37
563.983	31.64
564.325	31.61
564.667	31.64
565.008	31.72
565.35	31.86
565.692	31.97
566.033	31.97
566.375	32.04
566.716	32.11
567.058	32.27
567.399	32.11
567.741	32.09
568.082	31.91
568.423	31.75
568.764	32
569.105	31.74
569.447	31.93
569.788	31.98
570.129	32.19
570.47	32.46
570.811	32.55
571.151	32.29
571.492	32.41
571.833	32.45
572.174	32.72
572.514	32.8
572.855	32.71
573.195	32.73
573.536	32.74
573.876	32.7
574.217	32.67
574.557	32.52
574.898	32.69
575.238	32.6
575.578	32.77
575.918	32.76
576.258	32.84
576.598	32.81
576.938	32.92
577.278	32.97
577.618	33
577.958	33.03
578.298	33.22
578.638	33.1
578.977	33.2
579.317	33.12
579.657	33.32
579.996	33.56
580.336	33.37
580.675	33.52
581.014	33.81
581.354	33.72
581.693	33.77
582.032	33.91
582.372	33.84
582.711	34.26
583.05	34.15
583.389	34.09
583.728	34.11
584.067	33.99
584.406	34.39
584.745	33.81
585.083	34.03
585.422	34.31
585.761	34.46
586.1	34.33
586.438	34.12
586.777	34.4
587.115	34.43
587.454	34.29
587.792	34.49
588.13	34.95
588.469	34.72
588.807	34.69
589.145	34.82
589.483	34.81
589.821	34.7
590.159	35.14
590.497	34.91
590.835	34.86
591.173	34.62
591.511	34.85
591.849	34.75
592.187	34.86
592.524	34.84
592.862	34.94
593.2	34.68
593.537	35.09
593.875	35.27
594.212	35.38
594.55	35.28
594.887	34.91
595.224	35.66
595.561	35.35
595.899	35.32
596.236	35.57
596.573	35.79
596.91	35.8
597.247	35.67
597.584	35.5
597.921	35.76
598.258	35.77
598.594	35.77
598.931	35.46
599.268	35.52
599.604	35.47
599.941	35.47
600.277	35.45
600.614	35.47
600.95	35.9
601.287	35.95
601.623	36
601.959	36.22
602.296	36.14
602.632	36.33
602.968	36.66
603.304	36.47
603.64	36.2
603.976	36.19
604.312	36.63
604.648	36.28
604.984	36.23
605.319	36.41
605.655	36.42
605.991	36.31
606.326	36.55
606.662	36.34
606.998	36.05
607.333	36.16
607.668	36.19
608.004	36.26
608.339	36.39
608.674	36.64
609.01	36.74
609.345	36.67
609.68	36.83
610.015	36.97
610.35	36.94
610.685	36.91
611.02	37.23
611.355	37.23
611.689	36.91
612.024	37.05
612.359	36.89
612.694	36.67
613.028	36.92
613.363	36.85
613.697	37.22
614.032	37.34
614.366	37.35
614.7	37.67
615.035	37.71
615.369	37.38
615.703	37.37
616.037	37.83
616.371	37.63
616.705	37.65
617.039	37.62
617.373	37.79
617.707	37.71
618.041	37.66
618.375	37.79
618.709	37.83
619.042	38.23
619.376	38.26
619.71	37.92
620.043	38.32
620.377	38.45
620.71	37.87
621.043	38.19
621.377	38.28
621.71	38.38
622.043	38.05
622.376	38.38
622.709	38
623.043	38.69
623.376	38.34
623.709	38.32
624.041	38.89
624.374	38.4
624.707	38.37
625.04	38.44
625.373	38.58
625.705	39.21
626.038	38.57
626.37	38.66
626.703	38.83
627.035	39.06
627.368	39
627.7	39.17
628.032	39.23
628.365	39
628.697	39.18
629.029	39.1
629.361	39.04
629.693	39.24
630.025	38.81
630.357	38.67
630.689	38.9
631.021	39.36
631.353	39.53
631.684	39.49
632.016	39.12
632.348	39.78
632.679	39.06
633.011	39.34
633.342	39.47
633.674	39.56
634.005	39.41
634.336	39.23
634.668	39.67
634.999	39.49
635.33	39.71
635.661	39.68
635.992	39.62
636.323	40.02
636.654	39.48
636.985	39.93
637.316	39.96
637.647	40.16
637.977	40
638.308	39.9
638.639	40.07
638.969	39.92
639.3	40.27
639.63	40.01
639.961	40.18
640.291	40.05
640.622	40.69
640.952	40.26
641.282	40.35
641.612	40.54
641.943	40.35
642.273	40.71
642.603	40.37
642.933	40.51
643.263	40.95
643.592	40.53
643.922	40.81
644.252	40.92
644.582	40.87
644.911	41.44
645.241	40.78
645.571	40.8
645.9	41.48
646.23	41
646.559	40.99
646.888	41.14
647.218	41.07
647.547	40.89
647.876	41.36
648.205	41.27
648.534	41.36
648.863	41.33
649.192	41.24
649.521	40.69
649.85	41.01
650.179	41.4
650.508	41.74
650.837	41.01
651.165	41.31
651.494	40.94
651.822	41.29
652.151	41.14
652.479	41.44
652.808	41.73
653.136	41.87
653.465	41.64
653.793	42.07
654.121	41.96
654.449	41.98
654.777	41.6
655.105	41.87
655.433	41.67
655.761	41.28
656.089	42.12
656.417	42.15
656.745	42.5
657.073	41.62
657.4	42.14
657.728	42.17
658.056	42.37
658.383	42.23
658.711	42.82
659.038	42.57
659.365	42.19
659.693	42.48
660.02	42.69
660.347	43.24
660.674	42.61
661.001	42.57
661.329	42.07
661.656	42.79
661.982	42.64
662.309	42.76
662.636	42.46
662.963	42.66
663.29	43.48
663.616	42.84
663.943	42.74
664.27	43.02
664.596	42.64
664.923	42.75
665.249	42.55
665.576	43.35
665.902	43.07
666.228	42.58
666.554	43.39
666.881	43.25
667.207	42.93
667.533	43.28
667.859	43.16
668.185	43.45
668.511	43.6
668.837	42.65
669.162	43.89
669.488	43.4
669.814	43.44
670.139	43.66
670.465	43.93
670.791	43.54
671.116	43.79
