Data from 0178_crown_Reflection__4__045.txt Node

Date: Mon Aug 28 18:58:46 CDT 2023
User: ToomeyLab
Spectrometer: FLMS14357
Trigger mode: 0
Integration Time (sec): 1.000000E-2
Scans to average: 100
Electric dark correction enabled: true
Nonlinearity correction enabled: false
Boxcar width: 0
XAxis mode: Wavelengths
Number of Pixels in Spectrum: 2048
>>>>>Begin Spectral Data<<<<<
189.047	104.64
189.435	104.64
189.823	104.64
190.211	3923.26
190.599	61.09
190.987	-189.26
191.375	101.63
191.763	111.05
192.151	162.63
192.538	190.64
192.926	173.87
193.314	99.1
193.702	95.92
194.089	29.81
194.477	-2511.76
194.864	15.72
195.252	71.21
195.639	1375.21
196.027	100.77
196.414	231.14
196.801	68.73
197.189	-65.38
197.576	-383.18
197.963	0.25
198.351	14.09
198.738	51.75
199.125	-1.16
199.512	16.91
199.899	-14.37
200.286	66.85
200.673	4.49
201.06	15.77
201.447	-56.88
201.833	-27.91
202.22	30.59
202.607	-26.78
202.994	50.65
203.38	29.83
203.767	10.82
204.154	-6.61
204.54	3.26
204.927	6.47
205.313	38.7
205.699	-21.03
206.086	20.53
206.472	25.74
206.858	-21.65
207.245	9.34
207.631	29.25
208.017	0.16
208.403	13.1
208.789	8.46
209.175	-20.29
209.561	3.76
209.947	1.69
210.333	1.64
210.719	12.69
211.105	18.57
211.491	8.71
211.876	41.19
212.262	-70.44
212.648	12.12
213.034	13.27
213.419	3.01
213.805	-1.17
214.19	-0.76
214.576	23.01
214.961	-10.66
215.346	-32.18
215.732	23.15
216.117	16.47
216.502	-15.43
216.888	-46.72
217.273	5.54
217.658	22.9
218.043	11.75
218.428	-5.53
218.813	6.25
219.198	-8.2
219.583	26.94
219.968	14.08
220.353	-2.35
220.738	6.1
221.122	-6.17
221.507	-29.1
221.892	-6.08
222.276	12.76
222.661	-5.83
223.046	7.83
223.43	6.09
223.815	8
224.199	5.53
224.583	-4.28
224.968	13.69
225.352	8.04
225.736	0.76
226.121	-8.6
226.505	5.39
226.889	12.45
227.273	1.99
227.657	3.74
228.041	4.16
228.425	2.72
228.809	6.62
229.193	9.59
229.577	5.15
229.961	3.62
230.344	6.01
230.728	5.48
231.112	5.48
231.495	5.02
231.879	4.78
232.263	5.51
232.646	4.82
233.03	5.97
233.413	6.61
233.797	4.12
234.18	5.98
234.563	3.08
234.946	7.63
235.33	6.61
235.713	2.64
236.096	4.98
236.479	6.47
236.862	6.13
237.245	4.38
237.628	6.07
238.011	8.03
238.394	7.16
238.777	7.77
239.16	2.77
239.543	1.05
239.925	6.18
240.308	5.43
240.691	4.08
241.073	4.39
241.456	4.89
241.838	4.06
242.221	6.6
242.603	5.81
242.986	4.75
243.368	4.96
243.75	4.51
244.133	4.65
244.515	4.72
244.897	5.4
245.279	5.71
245.661	4.63
246.043	6.2
246.425	5.04
246.807	5.14
247.189	4.18
247.571	4.93
247.953	4.9
248.335	4.65
248.717	4.86
249.098	4.93
249.48	4.82
249.862	4.72
250.243	4.55
250.625	4.84
251.006	4.65
251.388	4.83
251.769	5.4
252.151	3.86
252.532	4.62
252.913	4.56
253.295	3.64
253.676	4.24
254.057	5.09
254.438	4.37
254.819	4.19
255.2	5.35
255.581	4.22
255.962	5.09
256.343	5.42
256.724	4.42
257.105	4.72
257.486	4.82
257.867	4.3
258.247	4.98
258.628	4.92
259.009	4.53
259.389	3.29
259.77	3.73
260.15	4.73
260.531	4.26
260.911	4.31
261.292	4.35
261.672	4.29
262.052	4.3
262.432	4.15
262.813	4.52
263.193	4.34
263.573	4.34
263.953	4.34
264.333	4.55
264.713	4.23
265.093	3.94
265.473	4.4
265.853	3.62
266.233	3.77
266.612	3.93
266.992	3.95
267.372	3.58
267.752	4.42
268.131	4.41
268.511	3.31
268.89	4.53
269.27	3.95
269.649	4.28
270.029	4.79
270.408	4.68
270.787	4.45
271.167	3.77
271.546	3.58
271.925	4.52
272.304	4.32
272.683	4.24
273.062	3.79
273.441	4.19
273.82	4.12
274.199	3.38
274.578	3.93
274.957	4.25
275.336	4.58
275.715	3.92
276.093	3.24
276.472	4.22
276.851	3.81
277.229	4.02
277.608	4.52
277.986	3.56
278.365	4.05
278.743	4.13
279.122	3.49
279.5	3.52
279.878	3.37
280.257	3.82
280.635	3.66
281.013	3.72
281.391	3.82
281.769	3.56
282.147	3.9
282.525	4.14
282.903	4.46
283.281	3.78
283.659	4.09
284.037	4.54
284.415	3.8
284.792	3.88
285.17	3.95
285.548	3.84
285.925	3.91
286.303	3.81
286.68	3.94
287.058	4.08
287.435	3.45
287.813	3.34
288.19	4.32
288.567	3.92
288.945	3.64
289.322	3.69
289.699	4.25
290.076	4.14
290.453	3.68
290.83	3.2
291.207	3.52
291.584	3.56
291.961	3.83
292.338	3.79
292.715	3.5
293.092	3.67
293.469	3.59
293.845	3.43
294.222	3.33
294.599	3.88
294.975	3.97
295.352	3.04
295.728	3.71
296.105	3.89
296.481	3.97
296.858	3.94
297.234	3.5
297.61	3.89
297.986	3.51
298.363	3.76
298.739	3.45
299.115	3.46
299.491	3.43
299.867	3.66
300.243	3.63
300.619	3.62
300.995	3.82
301.371	3.51
301.746	3.95
302.122	3.6
302.498	3.62
302.874	3.76
303.249	3.32
303.625	3.49
304	3.46
304.376	3.55
304.751	3.22
305.127	3.63
305.502	3.74
305.878	3.08
306.253	3
306.628	3.46
307.003	3.14
307.378	3.56
307.754	3.58
308.129	3.36
308.504	4.02
308.879	3.71
309.254	3.55
309.629	3.38
310.003	3.35
310.378	2.99
310.753	4.04
311.128	3.96
311.502	3.86
311.877	3.39
312.252	3.56
312.626	3.67
313.001	3.62
313.375	3.63
313.75	3.5
314.124	3.25
314.498	3.58
314.873	3.38
315.247	3.56
315.621	3.38
315.995	3.62
316.369	3.57
316.743	2.76
317.117	3.47
317.491	2.57
317.865	2.62
318.239	3.28
318.613	3.51
318.987	3.48
319.361	3.47
319.734	2.94
320.108	3.56
320.482	3.44
320.855	2.77
321.229	3.05
321.602	3.26
321.976	3.26
322.349	3.4
322.723	3.07
323.096	3.97
323.469	2.8
323.843	2.79
324.216	3.23
324.589	3.61
324.962	3.53
325.335	3.77
325.708	3.2
326.081	3.04
326.454	4.04
326.827	3.4
327.2	3.27
327.573	3.6
327.945	3.41
328.318	3.76
328.691	3.18
329.063	3.24
329.436	2.83
329.809	3.3
330.181	3.33
330.553	2.79
330.926	3.58
331.298	3.24
331.671	3.08
332.043	3.1
332.415	4.32
332.787	2.94
333.159	3.69
333.532	3.64
333.904	3.18
334.276	3.2
334.648	3.5
335.02	3.34
335.391	3.39
335.763	3.46
336.135	3.91
336.507	3.73
336.879	3.2
337.25	3.34
337.622	3.14
337.993	3.38
338.365	2.95
338.736	3.47
339.108	2.8
339.479	2.67
339.851	3.25
340.222	3.63
340.593	3.34
340.964	3.26
341.336	3.31
341.707	3.2
342.078	3.01
342.449	3.27
342.82	3.45
343.191	3.05
343.562	3.07
343.933	3.32
344.303	3.02
344.674	3.12
345.045	3.34
345.416	3.39
345.786	3.47
346.157	3.61
346.527	2.91
346.898	3.32
347.268	3.14
347.639	3.12
348.009	3.12
348.38	3.5
348.75	3.24
349.12	3.11
349.49	3.25
349.861	3.27
350.231	2.98
350.601	3.57
350.971	3.55
351.341	3.4
351.711	3.29
352.081	3.48
352.45	3.29
352.82	3.29
353.19	3.75
353.56	3.41
353.929	3.54
354.299	3.37
354.669	3.4
355.038	3.28
355.408	3.32
355.777	3.43
356.147	3.46
356.516	3.51
356.885	3.32
357.254	3.19
357.624	3.31
357.993	3.51
358.362	3.21
358.731	3.57
359.1	3.69
359.469	3.31
359.838	3.26
360.207	3.22
360.576	3.54
360.945	3.67
361.314	3.25
361.682	3.2
362.051	3.52
362.42	3.26
362.788	3.49
363.157	3.48
363.525	3.54
363.894	3.51
364.262	3.48
364.631	3.24
364.999	3.45
365.367	3.52
365.735	3.48
366.104	3.14
366.472	3.17
366.84	3.44
367.208	3.41
367.576	3.26
367.944	3.59
368.312	3.64
368.68	3.6
369.048	3.61
369.416	3.47
369.783	3.19
370.151	3.39
370.519	3.56
370.886	3.32
371.254	3.39
371.621	3.49
371.989	3.43
372.356	3.36
372.724	3.86
373.091	3.61
373.458	3.42
373.826	3.51
374.193	3.51
374.56	3.76
374.927	3.32
375.294	3.47
375.661	3.8
376.028	3.47
376.395	3.2
376.762	3.67
377.129	3.26
377.496	3.25
377.863	3.38
378.229	3.35
378.596	3.56
378.963	3.69
379.329	3.62
379.696	3.49
380.062	3.37
380.429	3.43
380.795	3.41
381.161	3.59
381.528	4.13
381.894	3.43
382.26	3.75
382.626	3.6
382.993	3.72
383.359	3.66
383.725	3.93
384.091	3.41
384.457	3.35
384.823	3.58
385.188	3.83
385.554	3.43
385.92	3.55
386.286	3.89
386.651	3.66
387.017	3.65
387.383	3.63
387.748	3.4
388.114	3.5
388.479	3.53
388.845	3.72
389.21	3.44
389.575	3.75
389.94	3.7
390.306	3.65
390.671	3.87
391.036	3.58
391.401	3.63
391.766	4.06
392.131	3.73
392.496	3.52
392.861	3.59
393.226	3.48
393.591	3.5
393.956	3.57
394.32	3.36
394.685	3.55
395.05	3.77
395.414	3.65
395.779	3.45
396.143	3.69
396.508	3.54
396.872	3.9
397.236	3.69
397.601	3.73
397.965	3.91
398.329	3.61
398.694	3.64
399.058	3.57
399.422	3.71
399.786	3.75
400.15	4.03
400.514	3.9
400.878	3.54
401.242	3.69
401.605	3.83
401.969	3.71
402.333	3.74
402.697	3.74
403.06	3.75
403.424	3.83
403.787	3.59
404.151	3.47
404.514	3.87
404.878	3.65
405.241	4.05
405.604	3.93
405.968	3.64
406.331	3.87
406.694	3.75
407.057	3.91
407.42	3.66
407.783	3.7
408.146	3.54
408.509	3.93
408.872	3.59
409.235	3.76
409.598	3.74
409.961	3.8
410.323	3.99
410.686	3.65
411.049	4.16
411.411	3.8
411.774	3.66
412.136	3.85
412.499	3.84
412.861	3.79
413.223	3.81
413.586	3.82
413.948	3.87
414.31	3.9
414.672	3.69
415.035	3.99
415.397	3.55
415.759	3.92
416.121	3.84
416.483	3.56
416.845	3.9
417.206	4.04
417.568	3.84
417.93	3.56
418.292	3.77
418.653	3.66
419.015	3.78
419.377	3.56
419.738	3.98
420.1	3.73
420.461	3.74
420.822	3.81
421.184	3.72
421.545	3.72
421.906	3.69
422.267	3.82
422.629	3.73
422.99	3.72
423.351	3.7
423.712	3.64
424.073	3.72
424.434	3.89
424.795	3.74
425.155	3.75
425.516	3.72
425.877	3.71
426.238	3.64
426.598	3.75
426.959	3.73
427.32	3.72
427.68	3.86
428.041	3.68
428.401	3.8
428.761	3.76
429.122	3.84
429.482	3.74
429.842	3.79
430.202	3.88
430.563	3.87
430.923	3.9
431.283	3.79
431.643	3.77
432.003	3.78
432.363	3.98
432.722	3.98
433.082	3.77
433.442	4.12
433.802	3.74
434.161	3.82
434.521	3.62
434.881	3.87
435.24	3.91
435.6	3.74
435.959	3.84
436.319	3.85
436.678	3.81
437.037	3.95
437.396	3.85
437.756	3.74
438.115	3.98
438.474	3.97
438.833	3.83
439.192	3.84
439.551	3.8
439.91	3.92
440.269	3.75
440.628	3.74
440.987	3.84
441.345	3.75
441.704	3.82
442.063	3.8
442.421	3.82
442.78	3.92
443.138	3.84
443.497	3.8
443.855	3.94
444.214	3.93
444.572	3.89
444.93	3.86
445.288	3.79
445.647	3.78
446.005	3.89
446.363	3.8
446.721	3.9
447.079	3.83
447.437	3.74
447.795	3.79
448.153	3.88
448.51	3.87
448.868	3.79
449.226	3.64
449.584	3.77
449.941	3.81
450.299	3.87
450.656	3.86
451.014	3.87
451.371	3.82
451.729	3.61
452.086	3.78
452.443	3.96
452.801	3.97
453.158	3.92
453.515	4.07
453.872	3.84
454.229	3.92
454.586	4.04
454.943	3.83
455.3	3.99
455.657	3.81
456.014	3.92
456.371	4.01
456.727	3.93
457.084	3.86
457.441	4.15
457.797	4.03
458.154	3.99
458.51	4.03
458.867	3.79
459.223	3.94
459.58	3.84
459.936	3.9
460.292	4.02
460.648	3.9
461.005	3.88
461.361	3.91
461.717	3.78
462.073	3.82
462.429	3.78
462.785	3.82
463.141	3.9
463.496	3.98
463.852	3.87
464.208	3.84
464.564	3.95
464.919	3.86
465.275	4.13
465.631	4.01
465.986	4.18
466.342	4.03
466.697	3.74
467.052	3.83
467.408	3.91
467.763	3.86
468.118	3.7
468.473	3.8
468.829	3.97
469.184	3.87
469.539	3.89
469.894	3.82
470.249	3.87
470.603	3.83
470.958	3.86
471.313	4.02
471.668	3.89
472.023	3.95
472.377	3.91
472.732	4.09
473.086	3.95
473.441	3.9
473.795	4
474.15	4
474.504	3.82
474.859	3.97
475.213	3.94
475.567	3.86
475.921	4.16
476.275	3.87
476.63	4.02
476.984	3.93
477.338	3.95
477.692	4.01
478.045	3.98
478.399	4.03
478.753	3.84
479.107	3.86
479.461	3.91
479.814	4.06
480.168	4
480.521	3.92
480.875	3.91
481.228	3.89
481.582	3.87
481.935	3.85
482.289	4
482.642	4
482.995	4.06
483.348	3.91
483.701	3.88
484.055	3.85
484.408	3.83
484.761	3.88
485.114	3.86
485.466	3.7
485.819	3.66
486.172	3.62
486.525	3.63
486.878	3.67
487.23	3.74
487.583	3.81
487.936	3.88
488.288	3.88
488.641	3.82
488.993	3.8
489.345	3.77
489.698	3.75
490.05	3.72
490.402	3.72
490.754	3.77
491.107	3.79
491.459	3.8
491.811	3.88
492.163	3.89
492.515	3.91
492.866	3.93
493.218	3.82
493.57	3.82
493.922	3.68
494.274	3.74
494.625	3.74
494.977	3.87
495.328	3.92
495.68	3.96
496.031	4.04
496.383	3.94
496.734	3.83
497.086	4.1
497.437	4.09
497.788	3.9
498.139	3.88
498.49	3.9
498.842	3.87
499.193	3.84
499.544	3.91
499.894	3.84
500.245	3.95
500.596	3.87
500.947	3.91
501.298	4.07
501.648	3.78
501.999	4.01
502.35	3.9
502.7	3.95
503.051	4.06
503.401	4.02
503.752	4.04
504.102	3.95
504.452	3.8
504.803	3.96
505.153	3.92
505.503	3.86
505.853	3.93
506.203	3.98
506.553	3.81
506.903	3.96
507.253	4.02
507.603	3.98
507.953	4.07
508.303	4.05
508.652	3.86
509.002	4.13
509.352	3.94
509.701	3.95
510.051	3.92
510.4	3.9
510.75	4.04
511.099	3.88
511.449	3.81
511.798	3.87
512.147	3.98
512.496	4
512.846	3.85
513.195	4.04
513.544	3.99
513.893	3.85
514.242	4
514.591	3.97
514.939	3.85
515.288	3.96
515.637	4.07
515.986	3.9
516.334	4.02
516.683	3.99
517.032	3.87
517.38	4
517.729	4.01
518.077	3.96
518.426	3.87
518.774	3.87
519.122	3.94
519.47	3.94
519.819	3.84
520.167	3.83
520.515	3.91
520.863	3.76
521.211	3.86
521.559	3.88
521.907	3.84
522.255	3.94
522.602	3.95
522.95	3.97
523.298	4.01
523.645	4.08
523.993	3.95
524.341	3.98
524.688	3.95
525.036	4.01
525.383	4.15
525.73	4.1
526.078	4.12
526.425	4.04
526.772	4.04
527.119	4.04
527.466	3.93
527.814	3.88
528.161	3.86
528.508	3.87
528.854	3.93
529.201	3.99
529.548	3.9
529.895	3.89
530.242	3.77
530.588	3.74
530.935	3.68
531.282	3.68
531.628	3.73
531.975	3.76
532.321	3.81
532.667	3.82
533.014	3.91
533.36	3.96
533.706	3.96
534.052	3.81
534.399	3.85
534.745	3.97
535.091	3.86
535.437	3.79
535.783	3.87
536.129	3.84
536.474	3.84
536.82	3.85
537.166	3.97
537.512	3.88
537.857	3.92
538.203	3.91
538.549	3.9
538.894	3.86
539.239	3.79
539.585	3.89
539.93	3.9
540.276	3.96
540.621	3.9
540.966	4.08
541.311	4.08
541.656	4.09
542.001	4.03
542.346	4
542.691	3.88
543.036	3.91
543.381	3.81
543.726	3.72
544.071	3.81
544.415	3.86
544.76	3.85
545.105	3.92
545.449	3.88
545.794	3.91
546.138	3.97
546.483	3.89
546.827	3.89
547.171	3.92
547.516	3.92
547.86	3.93
548.204	4.08
548.548	3.93
548.892	3.87
549.236	3.9
549.58	3.77
549.924	3.99
550.268	4.06
550.612	4.05
550.956	4.07
551.3	3.96
551.643	4.06
551.987	3.94
552.33	4.07
552.674	3.98
553.017	3.95
553.361	4.02
553.704	3.98
554.048	4.06
554.391	4.06
554.734	4.04
555.077	3.93
555.42	3.94
555.764	4.12
556.107	4.02
556.45	4.11
556.793	4.09
557.135	4.23
557.478	3.99
557.821	4.11
558.164	4.13
558.507	4.05
558.849	4.29
559.192	4.06
559.534	3.82
559.877	4.1
560.219	4.29
560.562	4.13
560.904	4.05
561.246	3.92
561.589	4
561.931	3.99
562.273	3.9
562.615	4.03
562.957	4.12
563.299	4.18
563.641	4.04
563.983	4.03
564.325	4.09
564.667	4.03
565.008	3.94
565.35	4.18
565.692	4.23
566.033	3.89
566.375	4.08
566.716	3.99
567.058	4.05
567.399	3.9
567.741	3.98
568.082	3.96
568.423	3.96
568.764	3.87
569.105	4.08
569.447	3.96
569.788	4.04
570.129	3.92
570.47	4.01
570.811	4.34
571.151	3.8
571.492	4
571.833	4.07
572.174	4.08
572.514	4.08
572.855	3.95
573.195	4.18
573.536	4.16
573.876	3.78
574.217	3.9
574.557	4.03
574.898	4.1
575.238	3.89
575.578	3.92
575.918	3.98
576.258	4.17
576.598	4.11
576.938	3.9
577.278	3.98
577.618	3.87
577.958	4.08
578.298	4.15
578.638	4.11
578.977	4.11
579.317	3.98
579.657	3.93
579.996	4.07
580.336	3.75
580.675	4.01
581.014	4.13
581.354	4.08
581.693	4.06
582.032	4.16
582.372	4.06
582.711	4.44
583.05	3.92
583.389	4.01
583.728	3.99
584.067	4.24
584.406	3.99
584.745	3.95
585.083	4.19
585.422	3.95
585.761	4.03
586.1	4.21
586.438	3.92
586.777	3.91
587.115	4.07
587.454	3.98
587.792	4.11
588.13	4.05
588.469	3.86
588.807	4.15
589.145	4.23
589.483	4
589.821	3.88
590.159	4.34
590.497	4.13
590.835	4.38
591.173	3.73
591.511	3.91
591.849	4
592.187	3.92
592.524	4.2
592.862	3.99
593.2	3.93
593.537	3.91
593.875	4.22
594.212	4.26
594.55	4.13
594.887	3.96
595.224	3.91
595.561	3.86
595.899	3.79
596.236	4.26
596.573	4.13
596.91	4.04
597.247	4.27
597.584	4.18
597.921	4.01
598.258	3.93
598.594	3.98
598.931	3.82
599.268	4.06
599.604	3.96
599.941	4.02
600.277	3.84
600.614	4
600.95	4.21
601.287	4.05
601.623	4.11
601.959	4.09
602.296	3.84
602.632	4
602.968	4.18
603.304	3.97
603.64	3.94
603.976	4.27
604.312	3.92
604.648	4
604.984	3.94
605.319	4.01
605.655	4.04
605.991	3.99
606.326	4.06
606.662	3.95
606.998	3.9
607.333	3.97
607.668	3.9
608.004	3.9
608.339	4.06
608.674	3.7
609.01	4.21
609.345	4.21
609.68	3.83
610.015	4.31
610.35	4.22
610.685	4.26
611.02	4.12
611.355	4.21
611.689	3.69
612.024	4.03
612.359	4.14
612.694	4.16
613.028	3.89
613.363	3.97
613.697	3.83
614.032	4
614.366	4
614.7	4.27
615.035	3.9
615.369	4.08
615.703	3.87
616.037	3.9
616.371	4.02
616.705	4.06
617.039	3.84
617.373	3.79
617.707	4.02
618.041	4.17
618.375	3.9
618.709	4.44
619.042	4.08
619.376	3.92
619.71	4.01
620.043	3.94
620.377	3.98
620.71	3.79
621.043	4.16
621.377	4.22
621.71	4.14
622.043	3.66
622.376	4
622.709	3.99
623.043	4.14
623.376	4.18
623.709	4.16
624.041	4.24
624.374	3.9
624.707	3.81
625.04	3.63
625.373	3.75
625.705	4.17
626.038	4.08
626.37	4.14
626.703	4.5
627.035	4.36
627.368	4.11
627.7	4.32
628.032	4.41
628.365	4.03
628.697	4.34
629.029	3.99
629.361	4.1
629.693	4.21
630.025	4.1
630.357	4.12
630.689	4.08
631.021	4.05
631.353	4.04
631.684	3.97
632.016	3.66
632.348	4.08
632.679	4.23
633.011	3.89
633.342	4.09
633.674	3.91
634.005	3.95
634.336	4.08
634.668	4.52
634.999	4.25
635.33	4.09
635.661	4.18
635.992	4.03
636.323	4.39
636.654	4.08
636.985	3.94
637.316	4.36
637.647	3.83
637.977	3.95
638.308	4.06
638.639	4.07
638.969	4.58
639.3	3.98
639.63	3.85
639.961	4.3
640.291	4.03
640.622	4.19
640.952	3.63
641.282	4
641.612	4.21
641.943	4.08
642.273	4.43
642.603	3.63
642.933	3.45
643.263	4.59
643.592	3.83
643.922	3.93
644.252	3.95
644.582	4.02
644.911	4.26
645.241	4.17
645.571	3.99
645.9	3.75
646.23	3.94
646.559	3.82
646.888	4.24
647.218	3.63
647.547	3.92
647.876	4.21
648.205	4.02
648.534	4.72
648.863	3.83
649.192	4.12
649.521	3.89
649.85	4.33
650.179	4.45
650.508	3.85
650.837	3.73
651.165	3.76
651.494	4.19
651.822	3.92
652.151	3.76
652.479	4.5
652.808	3.93
653.136	3.9
653.465	3.61
653.793	4.36
654.121	4.2
654.449	3.84
654.777	3.93
655.105	3.9
655.433	3.73
655.761	3.31
656.089	3.73
656.417	3.64
656.745	4.63
657.073	3.73
657.4	4.27
657.728	4.36
658.056	4.1
658.383	3.99
658.711	4.23
659.038	4.35
659.365	4.06
659.693	4.08
660.02	4.01
660.347	4.22
660.674	3.85
661.001	4.06
661.329	4.05
661.656	3.93
661.982	4.21
662.309	4.27
662.636	3.89
662.963	4.27
663.29	4.31
663.616	3.91
663.943	4.04
664.27	4.03
664.596	4.3
664.923	4.41
665.249	4.37
665.576	4.24
665.902	3.78
666.228	3.92
666.554	4.04
666.881	3.71
667.207	3.78
667.533	4
667.859	3.53
668.185	3.7
668.511	4.39
668.837	3.53
669.162	4.31
669.488	3.77
669.814	4.58
670.139	3.88
670.465	4.05
670.791	4.67
671.116	3.96
671.442	4.21
671.767	3.83
672.092	4.24
672.418	4.35
672.743	4.41
673.068	3.76
673.393	4.16
673.718	3.64
674.043	4.1
674.368	3.87
674.693	4.38
675.018	4.56
675.343	3.98
675.667	4.29
675.992	4.76
676.317	4.17
676.641	4.43
676.966	4.2
677.29	3.75
677.615	4.8
677.939	4.3
678.264	4.33
678.588	4.48
678.912	4.44
679.236	3.7
679.56	3.53
679.885	3.84
680.209	4.11
680.532	4.19
680.856	3.8
681.18	3.62
681.504	3.44
681.828	4.41
682.152	4.02
682.475	4.12
682.799	4.06
683.122	3.89
683.446	3.52
683.769	4.74
684.093	4.65
684.416	4.35
684.739	3.48
685.062	4.6
685.386	3.73
685.709	4.43
686.032	3.62
686.355	4.41
686.678	4.79
687.001	3.72
687.324	3.68
687.646	4.22
687.969	4.42
688.292	4.53
688.614	4.45
688.937	4.88
689.26	4.47
689.582	3.81
689.904	4.66
690.227	4.72
690.549	3.91
690.871	4.09
691.194	3.98
691.516	4.32
691.838	4.26
692.16	4.22
692.482	4.45
692.804	4.43
693.126	3.4
693.448	3.69
