Data from 0178_crown_Reflection__0__041.txt Node

Date: Mon Aug 28 18:58:04 CDT 2023
User: ToomeyLab
Spectrometer: FLMS14357
Trigger mode: 0
Integration Time (sec): 1.000000E-2
Scans to average: 100
Electric dark correction enabled: true
Nonlinearity correction enabled: false
Boxcar width: 0
XAxis mode: Wavelengths
Number of Pixels in Spectrum: 2048
>>>>>Begin Spectral Data<<<<<
189.047	-81.5
189.435	-81.5
189.823	-81.5
190.211	-20.93
190.599	271.69
190.987	261.97
191.375	58.1
191.763	104.13
192.151	37.73
192.538	139.42
192.926	192.57
193.314	-301.81
193.702	105.6
194.089	63.05
194.477	-1438.82
194.864	-263.68
195.252	-31.21
195.639	1156.41
196.027	48.44
196.414	-42.49
196.801	68.21
197.189	78.34
197.576	504.11
197.963	-113.37
198.351	-10.98
198.738	2.27
199.125	9.88
199.512	-59.16
199.899	-28
200.286	15.65
200.673	16.03
201.06	-33.87
201.447	-100.54
201.833	1.09
202.22	-1.03
202.607	-29.8
202.994	34.5
203.38	-46.77
203.767	-40.97
204.154	-18.5
204.54	-48.23
204.927	-21.03
205.313	0.57
205.699	-4.92
206.086	24.2
206.472	-14.3
206.858	-30.65
207.245	-17.39
207.631	13.42
208.017	1.25
208.403	14.41
208.789	19.77
209.175	-41.98
209.561	27.07
209.947	-13.48
210.333	14.45
210.719	7.73
211.105	37.73
211.491	-34.64
211.876	26.18
212.262	-59.03
212.648	20.98
213.034	-26.79
213.419	-27.71
213.805	15.15
214.19	-7.19
214.576	21.29
214.961	-30.24
215.346	-41.65
215.732	26.48
216.117	-45.51
216.502	0.82
216.888	-53.05
217.273	-19
217.658	15.04
218.043	-2.18
218.428	-14.04
218.813	-10.44
219.198	-14.02
219.583	2.19
219.968	1.46
220.353	12.04
220.738	19.64
221.122	2.27
221.507	7.43
221.892	-1.23
222.276	-14.34
222.661	-7.11
223.046	-19.03
223.43	5.39
223.815	8.3
224.199	8.56
224.583	-0.34
224.968	0.27
225.352	6.58
225.736	8.88
226.121	-6.14
226.505	1.57
226.889	7.63
227.273	-0.55
227.657	2.57
228.041	3.03
228.425	1.79
228.809	2.08
229.193	3.37
229.577	7.66
229.961	1.42
230.344	3.64
230.728	3.95
231.112	2.72
231.495	3.18
231.879	3.19
232.263	2.64
232.646	3.51
233.03	5.52
233.413	6.33
233.797	4.17
234.18	3.42
234.563	5.46
234.946	5.93
235.33	2.76
235.713	1.4
236.096	6.01
236.479	2.98
236.862	4.09
237.245	3.71
237.628	5.37
238.011	4.24
238.394	4.7
238.777	4.14
239.16	1.93
239.543	1.04
239.925	6.08
240.308	2.74
240.691	2.89
241.073	2.49
241.456	2.43
241.838	2.33
242.221	5.89
242.603	3.3
242.986	4.16
243.368	3.95
243.75	3.07
244.133	2.63
244.515	2.92
244.897	3.14
245.279	3.67
245.661	2.5
246.043	3.07
246.425	2.31
246.807	3.56
247.189	3.41
247.571	3.31
247.953	3.65
248.335	3.5
248.717	2.81
249.098	2.91
249.48	3.29
249.862	3.22
250.243	2.7
250.625	3.56
251.006	3.28
251.388	3.01
251.769	3.39
252.151	1.32
252.532	2.1
252.913	2.92
253.295	2.27
253.676	3.33
254.057	3.04
254.438	2.48
254.819	2.42
255.2	3.18
255.581	2.58
255.962	3.08
256.343	4.25
256.724	1.39
257.105	2.55
257.486	3.34
257.867	2.46
258.247	2.98
258.628	4.16
259.009	2.22
259.389	2.4
259.77	2.4
260.15	2.34
260.531	2.06
260.911	2.65
261.292	2.83
261.672	2.86
262.052	2.69
262.432	2.74
262.813	2.89
263.193	2.6
263.573	2.96
263.953	3.53
264.333	3.12
264.713	2.35
265.093	2.95
265.473	3.38
265.853	2.99
266.233	2.09
266.612	3.28
266.992	2.06
267.372	1.95
267.752	2.56
268.131	2.51
268.511	2.41
268.89	2.74
269.27	2.33
269.649	2.23
270.029	2.75
270.408	2.98
270.787	3.08
271.167	2.47
271.546	3.04
271.925	2.95
272.304	2.5
272.683	2.78
273.062	2.56
273.441	2.68
273.82	2.64
274.199	2.55
274.578	2.75
274.957	3.13
275.336	2.89
275.715	3.27
276.093	1.92
276.472	2.51
276.851	2.74
277.229	3
277.608	2.75
277.986	2.71
278.365	2.14
278.743	2.88
279.122	2.25
279.5	2.21
279.878	2
280.257	2.12
280.635	2.73
281.013	3.03
281.391	2.16
281.769	2.1
282.147	2.82
282.525	2.69
282.903	2.59
283.281	2.05
283.659	3.27
284.037	2.63
284.415	2.68
284.792	2.79
285.17	2.05
285.548	2.21
285.925	2.38
286.303	2.28
286.68	2.69
287.058	2.71
287.435	2.51
287.813	2.3
288.19	2.99
288.567	2.92
288.945	2.53
289.322	2.49
289.699	2.65
290.076	2.59
290.453	2.31
290.83	2.06
291.207	2.27
291.584	2.35
291.961	2.49
292.338	2.05
292.715	2.35
293.092	2.67
293.469	2.65
293.845	2.42
294.222	2.12
294.599	2.44
294.975	2.47
295.352	2.66
295.728	2.52
296.105	2.79
296.481	2.33
296.858	2.76
297.234	2.5
297.61	2.63
297.986	2.35
298.363	2.38
298.739	2.3
299.115	2.35
299.491	2.83
299.867	2.53
300.243	2.77
300.619	2.24
300.995	2.88
301.371	2.34
301.746	2.45
302.122	2.46
302.498	2.13
302.874	2.34
303.249	2.49
303.625	1.95
304	2.36
304.376	2.5
304.751	2.18
305.127	2.33
305.502	2.42
305.878	2.29
306.253	1.64
306.628	2.25
307.003	2.79
307.378	2.05
307.754	2.61
308.129	2.36
308.504	2.87
308.879	2.39
309.254	2.29
309.629	1.97
310.003	2.36
310.378	1.89
310.753	2.4
311.128	2.45
311.502	2.6
311.877	2.45
312.252	2.12
312.626	2.18
313.001	2.18
313.375	2.95
313.75	2.42
314.124	2.37
314.498	2.43
314.873	2.74
315.247	2.55
315.621	2.08
315.995	2.88
316.369	2.65
316.743	1.8
317.117	2.37
317.491	2.23
317.865	1.73
318.239	1.93
318.613	2.26
318.987	2.12
319.361	2.08
319.734	2.67
320.108	2.15
320.482	2.2
320.855	2.12
321.229	2.24
321.602	2.73
321.976	1.65
322.349	2.08
322.723	2.58
323.096	2.54
323.469	1.92
323.843	1.93
324.216	2.51
324.589	1.95
324.962	2.57
325.335	2.64
325.708	2.2
326.081	2.3
326.454	2.72
326.827	2.47
327.2	2.66
327.573	2.28
327.945	2.42
328.318	2.09
328.691	1.76
329.063	1.95
329.436	2.31
329.809	2.57
330.181	1.92
330.553	1.85
330.926	2.34
331.298	2.37
331.671	2.64
332.043	2.25
332.415	3.21
332.787	1.55
333.159	2.57
333.532	2.55
333.904	2.21
334.276	2.03
334.648	2.22
335.02	2.53
335.391	2.63
335.763	2.5
336.135	2.69
336.507	2.18
336.879	2
337.25	2.66
337.622	2.01
337.993	2.11
338.365	2.42
338.736	2.98
339.108	2.33
339.479	2.2
339.851	2.51
340.222	2.76
340.593	2.03
340.964	2.37
341.336	2.1
341.707	2.22
342.078	2.18
342.449	2.43
342.82	2.54
343.191	2.19
343.562	2.4
343.933	2.02
344.303	2.06
344.674	2.28
345.045	2.73
345.416	2.48
345.786	2.36
346.157	2.39
346.527	2.01
346.898	1.95
347.268	2.25
347.639	1.56
348.009	2.22
348.38	2.17
348.75	2.55
349.12	2.48
349.49	2.08
349.861	2.19
350.231	2.15
350.601	2.24
350.971	2.16
351.341	2.41
351.711	2.11
352.081	2.9
352.45	2.43
352.82	2.11
353.19	2.9
353.56	2.55
353.929	2.52
354.299	2.08
354.669	2.68
355.038	2.7
355.408	2.66
355.777	2.12
356.147	2.19
356.516	2.75
356.885	2.29
357.254	2.07
357.624	2.59
357.993	2.65
358.362	2.22
358.731	2.57
359.1	2.41
359.469	2.56
359.838	2.14
360.207	2.25
360.576	2.24
360.945	2.55
361.314	2.25
361.682	1.87
362.051	2.64
362.42	2.28
362.788	2.32
363.157	2.46
363.525	2.46
363.894	2.4
364.262	2.47
364.631	2.21
364.999	2.41
365.367	2.8
365.735	2.4
366.104	2.28
366.472	2.31
366.84	2.39
367.208	2.49
367.576	2.1
367.944	2.75
368.312	2.5
368.68	2.71
369.048	2.31
369.416	2.53
369.783	2.1
370.151	2.3
370.519	2.04
370.886	2.22
371.254	2.22
371.621	2.26
371.989	2.48
372.356	2.37
372.724	2.88
373.091	2.66
373.458	2.39
373.826	2.63
374.193	2.39
374.56	2.84
374.927	2.25
375.294	2.83
375.661	2.46
376.028	2.23
376.395	2.43
376.762	2.77
377.129	2.58
377.496	2.46
377.863	2.53
378.229	2.4
378.596	2.82
378.963	2.64
379.329	2.6
379.696	2.34
380.062	2.38
380.429	2.51
380.795	2.54
381.161	2.5
381.528	2.71
381.894	2.32
382.26	2.67
382.626	2.62
382.993	2.74
383.359	2.56
383.725	2.94
384.091	2.63
384.457	2.42
384.823	2.51
385.188	2.33
385.554	2.51
385.92	2.36
386.286	2.57
386.651	2.71
387.017	2.56
387.383	2.9
387.748	2.55
388.114	2.33
388.479	2.35
388.845	2.54
389.21	2.25
389.575	2.62
389.94	2.55
390.306	2.59
390.671	2.41
391.036	2.36
391.401	2.73
391.766	2.61
392.131	2.78
392.496	2.56
392.861	2.32
393.226	2.7
393.591	2.3
393.956	2.49
394.32	2.46
394.685	2.71
395.05	2.71
395.414	2.5
395.779	2.45
396.143	2.49
396.508	2.23
396.872	2.73
397.236	2.65
397.601	2.46
397.965	2.58
398.329	2.55
398.694	2.4
399.058	2.26
399.422	2.74
399.786	2.68
400.15	2.81
400.514	2.69
400.878	2.63
401.242	2.53
401.605	2.75
401.969	2.46
402.333	2.55
402.697	2.54
403.06	2.55
403.424	3.01
403.787	2.6
404.151	2.29
404.514	2.55
404.878	2.64
405.241	2.81
405.604	2.77
405.968	2.36
406.331	2.5
406.694	2.55
407.057	2.69
407.42	2.51
407.783	2.57
408.146	2.5
408.509	2.62
408.872	2.52
409.235	2.65
409.598	2.71
409.961	2.52
410.323	2.85
410.686	2.48
411.049	2.76
411.411	2.83
411.774	2.66
412.136	2.39
412.499	2.57
412.861	2.64
413.223	2.76
413.586	2.45
413.948	2.78
414.31	2.8
414.672	2.5
415.035	2.61
415.397	2.48
415.759	2.6
416.121	2.94
416.483	2.33
416.845	2.81
417.206	2.69
417.568	2.58
417.93	2.44
418.292	2.6
418.653	2.49
419.015	2.56
419.377	2.26
419.738	2.63
420.1	2.56
420.461	2.53
420.822	2.58
421.184	2.57
421.545	2.64
421.906	2.58
422.267	2.5
422.629	2.5
422.99	2.5
423.351	2.59
423.712	2.48
424.073	2.58
424.434	2.69
424.795	2.59
425.155	2.56
425.516	2.6
425.877	2.54
426.238	2.4
426.598	2.44
426.959	2.52
427.32	2.6
427.68	2.55
428.041	2.54
428.401	2.61
428.761	2.59
429.122	2.52
429.482	2.73
429.842	2.74
430.202	2.52
430.563	2.66
430.923	2.84
431.283	2.49
431.643	2.43
432.003	2.59
432.363	2.78
432.722	2.66
433.082	2.65
433.442	2.59
433.802	2.61
434.161	2.58
434.521	2.44
434.881	2.62
435.24	2.5
435.6	2.64
435.959	2.55
436.319	2.56
436.678	2.67
437.037	2.65
437.396	2.67
437.756	2.54
438.115	2.69
438.474	2.85
438.833	2.59
439.192	2.58
439.551	2.67
439.91	2.71
440.269	2.53
440.628	2.68
440.987	2.51
441.345	2.55
441.704	2.57
442.063	2.52
442.421	2.57
442.78	2.7
443.138	2.6
443.497	2.6
443.855	2.65
444.214	2.68
444.572	2.77
444.93	2.68
445.288	2.45
445.647	2.69
446.005	2.73
446.363	2.66
446.721	2.64
447.079	2.64
447.437	2.62
447.795	2.56
448.153	2.57
448.51	2.52
448.868	2.57
449.226	2.56
449.584	2.53
449.941	2.64
450.299	2.67
450.656	2.65
451.014	2.56
451.371	2.63
451.729	2.55
452.086	2.65
452.443	2.75
452.801	2.81
453.158	2.73
453.515	2.55
453.872	2.56
454.229	2.68
454.586	2.73
454.943	2.62
455.3	2.67
455.657	2.73
456.014	2.71
456.371	2.61
456.727	2.68
457.084	2.58
457.441	2.76
457.797	2.63
458.154	2.9
458.51	2.88
458.867	2.64
459.223	2.61
459.58	2.55
459.936	2.61
460.292	2.6
460.648	2.63
461.005	2.54
461.361	2.46
461.717	2.44
462.073	2.58
462.429	2.47
462.785	2.55
463.141	2.68
463.496	2.77
463.852	2.58
464.208	2.65
464.564	2.68
464.919	2.75
465.275	2.71
465.631	2.54
465.986	2.72
466.342	2.74
466.697	2.53
467.052	2.56
467.408	2.68
467.763	2.71
468.118	2.58
468.473	2.66
468.829	2.67
469.184	2.55
469.539	2.6
469.894	2.62
470.249	2.57
470.603	2.61
470.958	2.77
471.313	2.64
471.668	2.58
472.023	2.62
472.377	2.59
472.732	2.7
473.086	2.64
473.441	2.63
473.795	2.75
474.15	2.76
474.504	2.79
474.859	2.66
475.213	2.57
475.567	2.57
475.921	2.81
476.275	2.77
476.63	2.82
476.984	2.81
477.338	2.77
477.692	2.43
478.045	2.77
478.399	2.55
478.753	2.5
479.107	2.67
479.461	2.63
479.814	2.88
480.168	2.66
480.521	2.69
480.875	2.68
481.228	2.58
481.582	2.58
481.935	2.68
482.289	2.78
482.642	2.72
482.995	2.71
483.348	2.55
483.701	2.67
484.055	2.5
484.408	2.5
484.761	2.53
485.114	2.5
485.466	2.42
485.819	2.29
486.172	2.27
486.525	2.34
486.878	2.46
487.23	2.6
487.583	2.67
487.936	2.71
488.288	2.75
488.641	2.58
488.993	2.54
489.345	2.44
489.698	2.43
490.05	2.36
490.402	2.45
490.754	2.53
491.107	2.64
491.459	2.59
491.811	2.63
492.163	2.69
492.515	2.69
492.866	2.61
493.218	2.42
493.57	2.43
493.922	2.32
494.274	2.46
494.625	2.49
494.977	2.71
495.328	2.81
495.68	2.75
496.031	2.75
496.383	2.66
496.734	2.64
497.086	2.74
497.437	2.78
497.788	2.53
498.139	2.65
498.49	2.56
498.842	2.51
499.193	2.5
499.544	2.57
499.894	2.59
500.245	2.57
500.596	2.57
500.947	2.59
501.298	2.68
501.648	2.57
501.999	2.68
502.35	2.61
502.7	2.66
503.051	2.73
503.401	2.59
503.752	2.64
504.102	2.66
504.452	2.56
504.803	2.61
505.153	2.54
505.503	2.64
505.853	2.53
506.203	2.57
506.553	2.49
506.903	2.69
507.253	2.7
507.603	2.6
507.953	2.77
508.303	2.62
508.652	2.62
509.002	2.74
509.352	2.65
509.701	2.56
510.051	2.54
510.4	2.48
510.75	2.63
511.099	2.64
511.449	2.55
511.798	2.57
512.147	2.56
512.496	2.65
512.846	2.57
513.195	2.69
513.544	2.57
513.893	2.6
514.242	2.63
514.591	2.67
514.939	2.44
515.288	2.65
515.637	2.6
515.986	2.63
516.334	2.59
516.683	2.66
517.032	2.62
517.38	2.66
517.729	2.65
518.077	2.67
518.426	2.63
518.774	2.68
519.122	2.54
519.47	2.58
519.819	2.43
520.167	2.51
520.515	2.5
520.863	2.44
521.211	2.48
521.559	2.6
521.907	2.62
522.255	2.48
522.602	2.63
522.95	2.69
523.298	2.59
523.645	2.72
523.993	2.61
524.341	2.68
524.688	2.75
525.036	2.71
525.383	2.66
525.73	2.62
526.078	2.8
526.425	2.59
526.772	2.58
527.119	2.62
527.466	2.5
527.814	2.45
528.161	2.44
528.508	2.54
528.854	2.57
529.201	2.61
529.548	2.59
529.895	2.53
530.242	2.47
530.588	2.33
530.935	2.28
531.282	2.36
531.628	2.43
531.975	2.56
532.321	2.68
532.667	2.65
533.014	2.73
533.36	2.67
533.706	2.66
534.052	2.52
534.399	2.53
534.745	2.58
535.091	2.45
535.437	2.43
535.783	2.41
536.129	2.52
536.474	2.55
536.82	2.7
537.166	2.69
537.512	2.63
537.857	2.66
538.203	2.55
538.549	2.52
538.894	2.56
539.239	2.46
539.585	2.56
539.93	2.63
540.276	2.72
540.621	2.78
540.966	2.62
541.311	2.85
541.656	2.7
542.001	2.68
542.346	2.57
542.691	2.47
543.036	2.44
543.381	2.42
543.726	2.35
544.071	2.49
544.415	2.52
544.76	2.61
545.105	2.61
545.449	2.55
545.794	2.62
546.138	2.63
546.483	2.61
546.827	2.63
547.171	2.65
547.516	2.55
547.86	2.59
548.204	2.66
548.548	2.55
548.892	2.47
549.236	2.44
549.58	2.48
549.924	2.55
550.268	2.68
550.612	2.7
550.956	2.72
551.3	2.74
551.643	2.76
551.987	2.58
552.33	2.7
552.674	2.76
553.017	2.63
553.361	2.71
553.704	2.57
554.048	2.68
554.391	2.65
554.734	2.57
555.077	2.61
555.42	2.62
555.764	2.65
556.107	2.55
556.45	2.62
556.793	2.66
557.135	2.73
557.478	2.61
557.821	2.73
558.164	2.93
558.507	2.65
558.849	2.58
559.192	2.56
559.534	2.67
559.877	2.8
560.219	2.73
560.562	2.63
560.904	2.72
561.246	2.62
561.589	2.56
561.931	2.66
562.273	2.58
562.615	2.63
562.957	2.86
563.299	2.6
563.641	2.59
563.983	2.73
564.325	2.68
564.667	2.58
565.008	2.37
565.35	2.84
565.692	2.83
566.033	2.52
566.375	2.56
566.716	2.49
567.058	2.53
567.399	2.5
567.741	2.62
568.082	2.46
568.423	2.51
568.764	2.55
569.105	2.75
569.447	2.6
569.788	2.57
570.129	2.68
570.47	2.65
570.811	2.63
571.151	2.47
571.492	2.59
571.833	2.61
572.174	2.66
572.514	2.59
572.855	2.46
573.195	2.55
573.536	2.68
573.876	2.49
574.217	2.58
574.557	2.61
574.898	2.55
575.238	2.66
575.578	2.54
575.918	2.6
576.258	2.79
576.598	2.63
576.938	2.47
577.278	2.61
577.618	2.57
577.958	2.61
578.298	2.76
578.638	2.77
578.977	2.93
579.317	2.48
579.657	2.61
579.996	2.7
580.336	2.61
580.675	2.66
581.014	2.91
581.354	2.76
581.693	2.65
582.032	2.66
582.372	2.72
582.711	2.98
583.05	2.54
583.389	2.59
583.728	2.69
584.067	2.8
584.406	2.61
584.745	2.58
585.083	2.6
585.422	2.56
585.761	2.65
586.1	2.86
586.438	2.55
586.777	2.4
587.115	2.79
587.454	2.6
587.792	2.72
588.13	2.75
588.469	2.74
588.807	2.69
589.145	2.71
589.483	2.39
589.821	2.49
590.159	2.86
590.497	2.66
590.835	2.56
591.173	2.52
591.511	2.46
591.849	2.47
592.187	2.66
592.524	2.81
592.862	2.68
593.2	2.57
593.537	2.64
593.875	2.57
594.212	2.65
594.55	2.66
594.887	2.42
595.224	2.61
595.561	2.63
595.899	2.37
596.236	2.71
596.573	2.81
596.91	2.48
597.247	2.62
597.584	2.54
597.921	2.71
598.258	2.7
598.594	2.66
598.931	2.39
599.268	2.63
599.604	2.54
599.941	2.65
600.277	2.68
600.614	2.94
600.95	2.68
601.287	2.63
601.623	3.02
601.959	2.67
602.296	2.6
602.632	2.74
602.968	2.63
603.304	2.81
603.64	2.7
603.976	2.81
604.312	2.51
604.648	2.59
604.984	2.43
605.319	2.73
605.655	2.65
605.991	2.59
606.326	2.65
606.662	2.63
606.998	2.56
607.333	2.54
607.668	2.58
608.004	2.71
608.339	2.72
608.674	2.61
609.01	2.7
609.345	2.65
609.68	2.74
610.015	2.69
610.35	2.78
610.685	2.79
611.02	2.33
611.355	2.68
611.689	2.4
612.024	2.59
612.359	2.65
612.694	2.63
613.028	2.56
613.363	2.54
613.697	2.22
614.032	2.7
614.366	2.76
614.7	2.65
615.035	2.57
615.369	2.62
615.703	2.63
616.037	2.56
616.371	2.29
616.705	2.61
617.039	2.42
617.373	2.52
617.707	2.49
618.041	2.63
618.375	2.63
618.709	2.51
619.042	2.81
619.376	2.83
619.71	2.33
620.043	2.91
620.377	2.56
620.71	2.6
621.043	2.65
621.377	2.85
621.71	2.63
622.043	2.58
622.376	2.95
622.709	2.64
623.043	2.88
623.376	2.89
623.709	2.82
624.041	2.67
624.374	2.63
624.707	2.51
625.04	2.12
625.373	2.69
625.705	3
626.038	2.84
626.37	2.8
626.703	2.63
627.035	2.7
627.368	2.89
627.7	2.6
628.032	2.61
628.365	2.19
628.697	2.7
629.029	2.62
629.361	2.68
629.693	3
630.025	2.55
630.357	2.37
630.689	2.76
631.021	2.8
631.353	2.55
631.684	2.96
632.016	2.56
632.348	2.57
632.679	2.76
633.011	2.46
633.342	2.32
633.674	2.95
634.005	2.7
634.336	2.46
634.668	2.53
634.999	2.74
635.33	2.66
635.661	2.89
635.992	2.41
636.323	2.74
636.654	2.57
636.985	2.59
637.316	2.74
637.647	2.53
637.977	2.52
638.308	2.77
638.639	2.6
638.969	3.11
639.3	2.44
639.63	2.55
639.961	2.48
640.291	2.51
640.622	2.74
640.952	2.32
641.282	2.54
641.612	2.24
641.943	2.42
642.273	3.16
642.603	2.55
642.933	2.23
643.263	3.12
643.592	2.62
643.922	3.06
644.252	2.27
644.582	2.94
644.911	3.01
645.241	2.77
645.571	2.35
645.9	2.64
646.23	2.52
646.559	3.12
646.888	2.56
647.218	2.32
647.547	2.69
647.876	3.04
648.205	2.93
648.534	3.06
648.863	2.41
649.192	2.81
649.521	2.68
649.85	2.76
650.179	3.1
650.508	2.91
650.837	2.62
651.165	2.88
651.494	2.68
651.822	2.58
652.151	2.67
652.479	3.27
652.808	2.48
653.136	2.38
653.465	3.01
653.793	2.89
654.121	3.38
654.449	2.6
654.777	2.42
655.105	2.57
655.433	2.63
655.761	2.2
656.089	2.7
656.417	2.43
656.745	3.06
657.073	2.52
657.4	2.36
657.728	2.99
658.056	3.25
658.383	2.4
658.711	2.75
659.038	2.72
659.365	2.9
659.693	2.75
660.02	2.64
660.347	3.14
660.674	2.33
661.001	2.78
661.329	2.57
661.656	2.53
661.982	2.67
662.309	2.79
662.636	2.69
662.963	3.17
663.29	3.19
663.616	2.51
663.943	2.81
664.27	2.93
664.596	2.61
664.923	2.84
665.249	3.01
665.576	2.57
665.902	2.57
666.228	3.03
666.554	2.84
666.881	3.24
667.207	2.58
667.533	2.73
667.859	1.88
668.185	2.73
668.511	3.07
668.837	2.02
669.162	3.01
669.488	2.48
669.814	2.83
670.139	2.62
670.465	3.29
670.791	2.43
671.116	2.55
671.442	2.59
671.767	1.88
672.092	2.94
672.418	2.67
672.743	2.94
673.068	2.58
673.393	2.98
673.718	2.51
674.043	2.46
674.368	2.99
674.693	3.12
675.018	3.03
675.343	2.43
675.667	3.01
675.992	2.67
676.317	2.42
676.641	2.58
676.966	3
677.29	1.9
677.615	3.72
677.939	2.9
678.264	1.96
678.588	2.25
678.912	2.44
679.236	2.3
679.56	2.64
679.885	3.04
680.209	2.65
680.532	3.13
680.856	2.92
681.18	2.98
681.504	2.79
681.828	2.42
682.152	3.26
682.475	2.77
682.799	2.65
683.122	2.54
683.446	2.48
683.769	3.05
684.093	3.04
684.416	3.44
684.739	2.21
685.062	2.97
685.386	2.25
685.709	3.64
686.032	2.55
686.355	2.42
686.678	3
687.001	3.11
687.324	2.82
687.646	2.75
687.969	2.74
688.292	2.91
688.614	3.05
688.937	2.93
689.26	2.83
689.582	2.08
689.904	2.8
690.227	3.1
690.549	2.71
690.871	3.12
691.194	2.91
691.516	2.54
691.838	2.62
692.16	2.77
