Data from 0178_crown_Reflection__2__043.txt Node

Date: Mon Aug 28 18:58:25 CDT 2023
User: ToomeyLab
Spectrometer: FLMS14357
Trigger mode: 0
Integration Time (sec): 1.000000E-2
Scans to average: 100
Electric dark correction enabled: true
Nonlinearity correction enabled: false
Boxcar width: 0
XAxis mode: Wavelengths
Number of Pixels in Spectrum: 2048
>>>>>Begin Spectral Data<<<<<
189.047	-128.19
189.435	-128.19
189.823	-128.19
190.211	-2139.53
190.599	225.98
190.987	334.28
191.375	-33.74
191.763	56.06
192.151	155.41
192.538	211.89
192.926	331.74
193.314	70.43
193.702	106.16
194.089	59.87
194.477	-3868.24
194.864	41.91
195.252	-1.91
195.639	-239.32
196.027	63.46
196.414	57.95
196.801	105.09
197.189	44.32
197.576	-463.16
197.963	23.74
198.351	-25.17
198.738	3.44
199.125	13.92
199.512	15.71
199.899	8.76
200.286	-49.41
200.673	15.3
201.06	6.64
201.447	3.41
201.833	-90.04
202.22	10.88
202.607	-15.66
202.994	34.5
203.38	3.89
203.767	1.73
204.154	7.23
204.54	-56.2
204.927	38.96
205.313	39.82
205.699	-1.64
206.086	13.78
206.472	-10.64
206.858	61.22
207.245	-19.58
207.631	-6.64
208.017	3.13
208.403	12.93
208.789	2.2
209.175	-15.02
209.561	49.42
209.947	5.78
210.333	-31.25
210.719	-1.45
211.105	2.73
211.491	-13.32
211.876	18.48
212.262	22.05
212.648	10.36
213.034	15.54
213.419	-33.98
213.805	11.31
214.19	-6.92
214.576	13.63
214.961	18.47
215.346	-12.35
215.732	19.63
216.117	-47.69
216.502	4.73
216.888	-74.73
217.273	0.82
217.658	26.19
218.043	-19.68
218.428	10.86
218.813	0.39
219.198	15.07
219.583	14.87
219.968	20.68
220.353	-25.13
220.738	14.11
221.122	-8.75
221.507	-8.74
221.892	5.35
222.276	-4.23
222.661	-1.62
223.046	-3.22
223.43	-1
223.815	5.82
224.199	9.14
224.583	-0.45
224.968	11.49
225.352	11.96
225.736	6.51
226.121	13.45
226.505	-2.22
226.889	7.13
227.273	2.07
227.657	8.85
228.041	6.96
228.425	5.03
228.809	8.35
229.193	7.6
229.577	8.59
229.961	4.87
230.344	7.89
230.728	7.49
231.112	6.55
231.495	8.16
231.879	7.45
232.263	7.02
232.646	5.29
233.03	8.26
233.413	9.82
233.797	7.23
234.18	7.08
234.563	5.69
234.946	12.13
235.33	5.98
235.713	3.24
236.096	9.01
236.479	6.39
236.862	8.95
237.245	6.08
237.628	6.74
238.011	7.88
238.394	8.06
238.777	7.25
239.16	6.07
239.543	5.88
239.925	8.6
240.308	6.75
240.691	8.65
241.073	4.62
241.456	6.33
241.838	6.41
242.221	8.29
242.603	8.13
242.986	9.3
243.368	7.68
243.75	6.13
244.133	6.96
244.515	7.01
244.897	7.3
245.279	7.14
245.661	6.24
246.043	6.72
246.425	6.92
246.807	7.91
247.189	6.07
247.571	6.44
247.953	6.49
248.335	6.63
248.717	6.71
249.098	6.37
249.48	6.6
249.862	6.66
250.243	6.09
250.625	6.76
251.006	6.25
251.388	6.7
251.769	6.82
252.151	7.07
252.532	4.96
252.913	6.91
253.295	5.71
253.676	5.67
254.057	6.39
254.438	5.99
254.819	6.19
255.2	6.95
255.581	6.46
255.962	5.53
256.343	7.76
256.724	6.64
257.105	4.62
257.486	5.94
257.867	5.49
258.247	5.69
258.628	7.14
259.009	5.25
259.389	5.42
259.77	6.32
260.15	6.02
260.531	5.3
260.911	6.4
261.292	6.22
261.672	6.04
262.052	5.85
262.432	6.08
262.813	6.27
263.193	6.2
263.573	5.23
263.953	5.95
264.333	6.08
264.713	5.27
265.093	6.43
265.473	6.08
265.853	5.02
266.233	6.01
266.612	5.64
266.992	5.04
267.372	5.44
267.752	5.66
268.131	6.27
268.511	5.72
268.89	5.94
269.27	5.49
269.649	5.66
270.029	6.42
270.408	5.76
270.787	5.66
271.167	5.45
271.546	5.51
271.925	5.77
272.304	5.7
272.683	5.51
273.062	5.42
273.441	5.57
273.82	5.61
274.199	5.57
274.578	5.59
274.957	5.55
275.336	6.28
275.715	6.17
276.093	5.18
276.472	4.93
276.851	4.79
277.229	5.58
277.608	5.3
277.986	5.25
278.365	6.13
278.743	5.38
279.122	5.45
279.5	5.11
279.878	5.23
280.257	5.56
280.635	5.45
281.013	4.94
281.391	5.33
281.769	5.24
282.147	5.3
282.525	5.38
282.903	5.8
283.281	5.47
283.659	5.59
284.037	5.71
284.415	5.22
284.792	5.31
285.17	4.89
285.548	5.14
285.925	5.91
286.303	5.25
286.68	5.55
287.058	5.67
287.435	5.26
287.813	5.29
288.19	5.51
288.567	5.17
288.945	5.09
289.322	4.72
289.699	5.8
290.076	5.3
290.453	4.98
290.83	4.75
291.207	4.86
291.584	5.23
291.961	5.07
292.338	4.95
292.715	4.54
293.092	5.31
293.469	4.96
293.845	4.89
294.222	5.15
294.599	4.97
294.975	4.88
295.352	4.82
295.728	5.04
296.105	5.16
296.481	5.16
296.858	5.31
297.234	5.13
297.61	4.71
297.986	5.18
298.363	5.06
298.739	5.01
299.115	4.79
299.491	4.93
299.867	4.94
300.243	5.1
300.619	4.93
300.995	5.16
301.371	4.58
301.746	5.35
302.122	4.8
302.498	4.87
302.874	5.2
303.249	5.09
303.625	5.22
304	4.61
304.376	4.87
304.751	4.35
305.127	4.73
305.502	4.74
305.878	4.52
306.253	4.55
306.628	4.8
307.003	4.59
307.378	4.94
307.754	4.94
308.129	4.18
308.504	5.18
308.879	4.94
309.254	4.63
309.629	4.56
310.003	4.73
310.378	4.68
310.753	4.45
311.128	5.02
311.502	4.76
311.877	4.55
312.252	4.82
312.626	5
313.001	4.68
313.375	4.6
313.75	4.69
314.124	4.88
314.498	4.66
314.873	4.92
315.247	4.71
315.621	4.37
315.995	4.97
316.369	4.88
316.743	4.65
317.117	5.12
317.491	4.45
317.865	4.1
318.239	5
318.613	4.69
318.987	4.67
319.361	4.94
319.734	4.41
320.108	4.29
320.482	4.8
320.855	4.08
321.229	4.1
321.602	4.49
321.976	4.06
322.349	4.83
322.723	4.18
323.096	4.68
323.469	4.07
323.843	4.31
324.216	4.88
324.589	4.41
324.962	4.32
325.335	4.33
325.708	4.91
326.081	4.17
326.454	5.06
326.827	4.84
327.2	4.03
327.573	4.57
327.945	4.97
328.318	5.06
328.691	4.62
329.063	4.01
329.436	4.08
329.809	4.82
330.181	4.52
330.553	4.2
330.926	4.66
331.298	4.62
331.671	4.56
332.043	4.58
332.415	4.76
332.787	3.83
333.159	4.14
333.532	4.94
333.904	4.17
334.276	4.1
334.648	4.48
335.02	4.84
335.391	4.61
335.763	4.02
336.135	4.67
336.507	4.32
336.879	3.99
337.25	4.82
337.622	4.26
337.993	4.47
338.365	4.21
338.736	4.34
339.108	3.99
339.479	3.69
339.851	4.32
340.222	4.6
340.593	4.39
340.964	4.23
341.336	4.32
341.707	3.9
342.078	3.96
342.449	4.42
342.82	4.33
343.191	4.55
343.562	4.11
343.933	4.02
344.303	4.26
344.674	4.78
345.045	4.68
345.416	4.74
345.786	4.63
346.157	4.49
346.527	4.48
346.898	4.21
347.268	4.08
347.639	4.1
348.009	3.93
348.38	4.54
348.75	4.38
349.12	4.66
349.49	4.17
349.861	3.56
350.231	4.1
350.601	4.7
350.971	4.71
351.341	4.26
351.711	4.45
352.081	4.7
352.45	4.44
352.82	4.42
353.19	4.99
353.56	4.4
353.929	4.33
354.299	4.22
354.669	4.38
355.038	4.93
355.408	4.81
355.777	4.36
356.147	4.3
356.516	5.06
356.885	4.58
357.254	4.31
357.624	4.48
357.993	4.87
358.362	4.25
358.731	4.72
359.1	4.67
359.469	4.49
359.838	4.24
360.207	4.61
360.576	4.74
360.945	4.68
361.314	4.44
361.682	4.57
362.051	4.74
362.42	4.33
362.788	4.35
363.157	4.73
363.525	4.51
363.894	4.62
364.262	4.66
364.631	4.44
364.999	4.74
365.367	4.86
365.735	4.62
366.104	4.24
366.472	4.49
366.84	4.81
367.208	4.65
367.576	4.15
367.944	4.55
368.312	4.82
368.68	4.54
369.048	4.77
369.416	4.64
369.783	4.63
370.151	4.81
370.519	4.46
370.886	4.32
371.254	4.69
371.621	4.51
371.989	4.38
372.356	4.66
372.724	5.23
373.091	4.67
373.458	4.47
373.826	4.59
374.193	4.76
374.56	4.81
374.927	4.62
375.294	4.61
375.661	4.84
376.028	4.44
376.395	4.22
376.762	4.95
377.129	4.73
377.496	4.34
377.863	4.92
378.229	4.68
378.596	4.97
378.963	5.13
379.329	5.02
379.696	4.74
380.062	4.51
380.429	4.34
380.795	4.8
381.161	4.65
381.528	4.95
381.894	4.8
382.26	4.9
382.626	5.05
382.993	4.76
383.359	4.96
383.725	5.11
384.091	4.78
384.457	4.81
384.823	4.87
385.188	4.82
385.554	4.57
385.92	4.71
386.286	4.91
386.651	4.79
387.017	5.2
387.383	4.86
387.748	4.83
388.114	4.78
388.479	4.82
388.845	4.95
389.21	4.74
389.575	5.11
389.94	4.82
390.306	4.8
390.671	4.73
391.036	4.51
391.401	5.16
391.766	4.84
392.131	4.76
392.496	4.81
392.861	5.04
393.226	5.08
393.591	4.72
393.956	4.97
394.32	4.78
394.685	4.77
395.05	5
395.414	5.03
395.779	4.72
396.143	5.01
396.508	4.79
396.872	5.07
397.236	4.82
397.601	4.69
397.965	4.92
398.329	5.04
398.694	4.91
399.058	4.94
399.422	5.02
399.786	5.1
400.15	5.05
400.514	4.87
400.878	4.92
401.242	4.74
401.605	4.94
401.969	4.85
402.333	4.9
402.697	4.86
403.06	4.99
403.424	5
403.787	4.9
404.151	4.83
404.514	5.06
404.878	4.95
405.241	5.15
405.604	5.05
405.968	4.69
406.331	5.05
406.694	4.93
407.057	4.94
407.42	5.04
407.783	5.11
408.146	4.82
408.509	5.18
408.872	4.95
409.235	5.04
409.598	4.98
409.961	5.05
410.323	5.3
410.686	5.07
411.049	5.26
411.411	5.02
411.774	5.2
412.136	4.88
412.499	5.08
412.861	4.99
413.223	5.05
413.586	4.97
413.948	5.14
414.31	5.21
414.672	4.85
415.035	4.99
415.397	5.17
415.759	5.16
416.121	5.17
416.483	4.95
416.845	5.16
417.206	5.31
417.568	4.99
417.93	5.03
418.292	5.22
418.653	5.08
419.015	5.14
419.377	4.74
419.738	5.26
420.1	5.01
420.461	5.12
420.822	5.07
421.184	5.06
421.545	5.02
421.906	4.99
422.267	5.03
422.629	4.94
422.99	5.01
423.351	5
423.712	4.89
424.073	5.01
424.434	5.06
424.795	4.99
425.155	5.13
425.516	5
425.877	4.96
426.238	4.98
426.598	4.92
426.959	4.98
427.32	5.08
427.68	5.04
428.041	5.08
428.401	5.02
428.761	4.93
429.122	5.03
429.482	5.18
429.842	5.39
430.202	5.07
430.563	5.24
430.923	5.18
431.283	4.93
431.643	5.13
432.003	5.24
432.363	5.19
432.722	5.26
433.082	5.09
433.442	5.15
433.802	5.09
434.161	5.15
434.521	5.18
434.881	5.02
435.24	5.09
435.6	5.13
435.959	5.07
436.319	5.09
436.678	5.12
437.037	5.01
437.396	5.25
437.756	5.18
438.115	5.21
438.474	5.3
438.833	5.19
439.192	5.16
439.551	5.09
439.91	5.36
440.269	5.22
440.628	5.15
440.987	5.16
441.345	5.06
441.704	5.16
442.063	5.01
442.421	5.09
442.78	5.13
443.138	5.1
443.497	5.14
443.855	5.24
444.214	5.24
444.572	5.18
444.93	5.26
445.288	5.1
445.647	5.25
446.005	5.4
446.363	5.27
446.721	5.1
447.079	5.15
447.437	5.04
447.795	5.05
448.153	5.11
448.51	5
448.868	5.19
449.226	5.07
449.584	5
449.941	5.08
450.299	5.14
450.656	5.06
451.014	5.17
451.371	5.17
451.729	5.07
452.086	5.19
452.443	5.33
452.801	5.28
453.158	5.22
453.515	5.32
453.872	4.98
454.229	5.25
454.586	5.36
454.943	5.09
455.3	5.25
455.657	5.31
456.014	5.3
456.371	5.2
456.727	5.02
457.084	5.22
457.441	5.35
457.797	5.07
458.154	5.36
458.51	5.54
458.867	5.2
459.223	5.16
459.58	5.08
459.936	5.19
460.292	5.13
460.648	5.18
461.005	5.09
461.361	5.16
461.717	5.09
462.073	5.07
462.429	5.07
462.785	5.17
463.141	5.19
463.496	5.35
463.852	5.27
464.208	5.15
464.564	5.34
464.919	5.28
465.275	5.58
465.631	5.19
465.986	5.47
466.342	5.3
466.697	5.1
467.052	5.19
467.408	5.26
467.763	5.18
468.118	5.15
468.473	5.18
468.829	5.31
469.184	5.05
469.539	5.29
469.894	5.13
470.249	5.11
470.603	5.23
470.958	5.22
471.313	5.29
471.668	5.23
472.023	5.29
472.377	5.22
472.732	5.4
473.086	5.13
473.441	5.33
473.795	5.17
474.15	5.28
474.504	5.13
474.859	5.2
475.213	5.2
475.567	5.29
475.921	5.35
476.275	5.29
476.63	5.31
476.984	5.32
477.338	5.24
477.692	5.29
478.045	5.28
478.399	5.34
478.753	5.17
479.107	5.21
479.461	5.18
479.814	5.2
480.168	5.33
480.521	5.22
480.875	5.28
481.228	5.21
481.582	5.31
481.935	5.22
482.289	5.23
482.642	5.29
482.995	5.27
483.348	5.15
483.701	5.27
484.055	5.15
484.408	5.13
484.761	5.12
485.114	5.07
485.466	4.99
485.819	4.83
486.172	4.74
486.525	4.84
486.878	4.93
487.23	5.07
487.583	5.11
487.936	5.17
488.288	5.18
488.641	5.06
488.993	4.99
489.345	4.98
489.698	4.94
490.05	4.92
490.402	4.9
490.754	4.99
491.107	5.07
491.459	5.09
491.811	5.19
492.163	5.2
492.515	5.29
492.866	5.17
493.218	5.02
493.57	4.99
493.922	4.89
494.274	4.95
494.625	4.98
494.977	5.14
495.328	5.23
495.68	5.25
496.031	5.24
496.383	5.11
496.734	5.22
497.086	5.19
497.437	5.3
497.788	5.29
498.139	5.27
498.49	5.09
498.842	5.22
499.193	5.09
499.544	5.21
499.894	5.18
500.245	5.17
500.596	5.19
500.947	5.2
501.298	5.3
501.648	5.15
501.999	5.26
502.35	5.17
502.7	5.19
503.051	5.27
503.401	5.27
503.752	5.11
504.102	5.28
504.452	5.16
504.803	5.21
505.153	5.22
505.503	5.14
505.853	5.17
506.203	5.21
506.553	5.14
506.903	5.32
507.253	5.35
507.603	5.22
507.953	5.26
508.303	5.23
508.652	5.33
509.002	5.38
509.352	5.11
509.701	5.07
510.051	5.14
510.4	5.16
510.75	5.16
511.099	5.18
511.449	5.13
511.798	5.18
512.147	5.19
512.496	5.31
512.846	5.14
513.195	5.29
513.544	5.2
513.893	5.18
514.242	5.2
514.591	5.19
514.939	5.15
515.288	5.23
515.637	5.21
515.986	5.18
516.334	5.25
516.683	5.21
517.032	5.17
517.38	5.29
517.729	5.36
518.077	5.25
518.426	5.13
518.774	5.2
519.122	5.23
519.47	5.13
519.819	5.1
520.167	5.18
520.515	5.08
520.863	4.98
521.211	5.12
521.559	5.05
521.907	5.12
522.255	5.06
522.602	5.13
522.95	5.3
523.298	5.27
523.645	5.2
523.993	5.21
524.341	5.3
524.688	5.33
525.036	5.25
525.383	5.28
525.73	5.16
526.078	5.28
526.425	5.22
526.772	5.25
527.119	5.2
527.466	5.07
527.814	5.12
528.161	5.02
528.508	5.08
528.854	5.2
529.201	5.22
529.548	5.16
529.895	5.19
530.242	4.97
530.588	4.88
530.935	4.83
531.282	4.88
531.628	4.95
531.975	5.01
532.321	5.07
532.667	5.09
533.014	5.17
533.36	5.12
533.706	5.19
534.052	5.19
534.399	5.15
534.745	5.22
535.091	5.06
535.437	4.93
535.783	5.06
536.129	5.04
536.474	5.06
536.82	5.18
537.166	5.17
537.512	5.22
537.857	5.29
538.203	5.23
538.549	5.09
538.894	5.09
539.239	5.01
539.585	5.15
539.93	5.13
540.276	5.15
540.621	5.22
540.966	5.18
541.311	5.27
541.656	5.21
542.001	5.17
542.346	5.24
542.691	5.16
543.036	5.07
543.381	4.97
543.726	4.88
544.071	4.94
544.415	5.02
544.76	5.06
545.105	5.1
545.449	5.03
545.794	5.1
546.138	5.09
546.483	5.12
546.827	5.15
547.171	5.19
547.516	5.11
547.86	5.23
548.204	5.25
548.548	5.14
548.892	5.06
549.236	5.08
549.58	5.09
549.924	5.08
550.268	5.22
550.612	5.08
550.956	5.37
551.3	5.2
551.643	5.32
551.987	5.16
552.33	5.18
552.674	5.07
553.017	5.27
553.361	5.31
553.704	5.29
554.048	5.28
554.391	5.27
554.734	5.18
555.077	5.19
555.42	5.13
555.764	5.22
556.107	5.13
556.45	5.19
556.793	5.12
557.135	5.25
557.478	5.26
557.821	5.34
558.164	5.27
558.507	5.14
558.849	5.45
559.192	5.21
559.534	5.05
559.877	5.29
560.219	5.36
560.562	5.25
560.904	5.27
561.246	5.14
561.589	5.18
561.931	5.17
562.273	5.16
562.615	5.07
562.957	5.28
563.299	5.22
563.641	4.97
563.983	5.04
564.325	5.15
564.667	5.12
565.008	5
565.35	5.21
565.692	5.37
566.033	5.07
566.375	4.94
566.716	5.18
567.058	5.29
567.399	5.18
567.741	5.15
568.082	4.93
568.423	5.14
568.764	5.06
569.105	5.23
569.447	5.17
569.788	5.24
570.129	5.21
570.47	5.16
570.811	5.17
571.151	5.1
571.492	5.13
571.833	5.16
572.174	5.28
572.514	5.27
572.855	5.04
573.195	5.14
573.536	5.38
573.876	5
574.217	5.14
574.557	5.13
574.898	5.22
575.238	5.2
575.578	5.26
575.918	5.17
576.258	5.26
576.598	5.11
576.938	5.06
577.278	5.05
577.618	5.1
577.958	5.15
578.298	5.38
578.638	5.08
578.977	5.19
579.317	5.1
579.657	5.14
579.996	5.24
580.336	5.01
580.675	5.2
581.014	5.25
581.354	5.25
581.693	5.25
582.032	5.24
582.372	5.31
582.711	5.43
583.05	5.02
583.389	5.19
583.728	5.38
584.067	5.42
584.406	5.02
584.745	5.14
585.083	5.28
585.422	5.06
585.761	5.19
586.1	5.42
586.438	5.09
586.777	5
587.115	5.29
587.454	5.24
587.792	5.17
588.13	5.3
588.469	5.28
588.807	5.02
589.145	5.25
589.483	5.26
589.821	5.02
590.159	5.28
590.497	5.22
590.835	5.1
591.173	5.13
591.511	4.99
591.849	5
592.187	5.27
592.524	5.08
592.862	5.09
593.2	4.95
593.537	5.15
593.875	5.44
594.212	5.12
594.55	5.25
594.887	5.05
595.224	5.37
595.561	5.08
595.899	5.01
596.236	5.22
596.573	5.35
596.91	5.18
597.247	5.13
597.584	5.16
597.921	4.87
598.258	5.1
598.594	5.01
598.931	4.87
599.268	5.11
599.604	5.03
599.941	5.17
600.277	5.09
600.614	5.3
600.95	5.05
601.287	5.14
601.623	5.41
601.959	5.33
602.296	5.26
602.632	5.14
602.968	5.09
603.304	5.33
603.64	5.39
603.976	4.97
604.312	5.21
604.648	5.06
604.984	5.09
605.319	5.27
605.655	5.24
605.991	5.22
606.326	5.18
606.662	5.13
606.998	4.97
607.333	4.97
607.668	5.15
608.004	5.04
608.339	5.26
608.674	4.99
609.01	5.27
609.345	5.3
609.68	5.13
610.015	5.35
610.35	5.43
610.685	5.11
611.02	4.99
611.355	5.26
611.689	5.19
612.024	5.17
612.359	5.1
612.694	5.06
613.028	5.08
613.363	4.99
613.697	5.02
614.032	5.08
614.366	4.76
614.7	5.14
615.035	4.99
615.369	5.02
615.703	5.03
616.037	4.81
616.371	4.78
616.705	5.1
617.039	5.03
617.373	5.11
617.707	4.97
618.041	4.96
618.375	4.91
618.709	5.16
619.042	5.3
619.376	5.18
619.71	5.03
620.043	5.31
620.377	5.27
620.71	4.87
621.043	5.23
621.377	4.92
621.71	5.15
622.043	4.97
622.376	5.16
622.709	4.92
623.043	4.84
623.376	5.35
623.709	5.04
624.041	5.13
624.374	5.02
624.707	4.7
625.04	4.48
625.373	5.37
625.705	5.32
626.038	4.98
626.37	5.21
626.703	5.33
627.035	4.77
627.368	5.14
627.7	5.3
628.032	4.88
628.365	4.81
628.697	5.29
629.029	5.35
629.361	5.15
629.693	5.17
630.025	4.84
630.357	4.76
630.689	5.1
631.021	4.92
631.353	5.13
631.684	5.53
632.016	4.89
632.348	5.08
632.679	5.22
633.011	5.13
633.342	5.02
633.674	5.11
634.005	4.92
634.336	4.7
634.668	4.87
634.999	4.89
635.33	5.15
635.661	5.22
635.992	5.07
636.323	5.25
636.654	4.95
636.985	5.1
637.316	5.09
637.647	5.08
637.977	4.97
638.308	5.15
638.639	5.11
638.969	5.55
639.3	4.86
639.63	5.13
639.961	5.23
640.291	4.77
640.622	4.96
640.952	4.6
641.282	4.96
641.612	5.01
641.943	4.95
642.273	5.56
642.603	5.47
642.933	4.72
643.263	5.52
643.592	4.95
643.922	5.3
644.252	4.75
644.582	5.06
644.911	5.15
645.241	5.64
645.571	5.01
645.9	4.7
646.23	5.02
646.559	4.58
646.888	5.77
647.218	4.81
647.547	5.09
647.876	4.96
648.205	5.32
648.534	5.37
648.863	4.96
649.192	5.23
649.521	5.36
649.85	5.16
650.179	5.24
650.508	5.4
650.837	5.02
651.165	5.19
651.494	5.03
651.822	4.81
652.151	5.23
652.479	5.4
652.808	4.98
653.136	4.62
653.465	4.99
653.793	4.97
654.121	5.19
654.449	5.11
654.777	4.86
655.105	5.37
655.433	4.85
655.761	4.49
656.089	4.79
656.417	4.96
656.745	5.06
657.073	4.73
657.4	4.83
657.728	4.94
658.056	5.47
658.383	5.09
658.711	5.38
659.038	4.93
659.365	4.97
659.693	4.88
660.02	5.12
660.347	5.14
660.674	4.68
661.001	5.08
661.329	4.92
661.656	4.93
661.982	5.05
662.309	5.03
662.636	5.14
662.963	5.08
663.29	5.09
663.616	4.88
663.943	4.91
664.27	5.76
664.596	5.19
664.923	5.42
665.249	4.72
665.576	4.85
665.902	5.17
666.228	5
666.554	4.65
666.881	5.03
667.207	4.6
667.533	5.19
667.859	4.38
668.185	4.64
668.511	5.22
668.837	4.52
669.162	4.89
669.488	4.66
669.814	5.36
670.139	4.84
670.465	5.52
670.791	4.78
671.116	4.86
671.442	4.97
671.767	4.36
672.092	5.05
672.418	5.22
672.743	4.9
673.068	4.51
673.393	4.98
673.718	4.21
674.043	5.06
674.368	5.1
674.693	4.92
675.018	4.98
675.343	5.08
675.667	5.53
675.992	4.81
676.317	5.13
676.641	5.06
676.966	5.04
677.29	4.47
677.615	5.85
677.939	4.47
678.264	5.32
678.588	5.03
678.912	5.93
679.236	4.36
679.56	4.74
679.885	4.44
680.209	4.8
680.532	5.24
680.856	4.82
681.18	5.39
681.504	4.82
681.828	5.15
682.152	5.29
682.475	5.31
682.799	5.08
683.122	5.08
683.446	4.97
683.769	5.5
684.093	5.5
684.416	5.38
684.739	4.81
685.062	5.37
685.386	4.26
685.709	5.47
686.032	4.77
686.355	4.98
686.678	5.62
687.001	4.31
687.324	4.59
687.646	4.76
687.969	4.93
688.292	5.51
688.614	5.24
688.937	4.99
689.26	5.59
689.582	4.5
689.904	5.06
690.227	5.75
690.549	4.77
690.871	5.42
691.194	5.36
691.516	5.15
691.838	5.37
692.16	4.94
