Data from 0178_forehead_Reflection__1__037.txt Node

Date: Mon Aug 28 18:56:29 CDT 2023
User: ToomeyLab
Spectrometer: FLMS14357
Trigger mode: 0
Integration Time (sec): 1.000000E-2
Scans to average: 100
Electric dark correction enabled: true
Nonlinearity correction enabled: false
Boxcar width: 0
XAxis mode: Wavelengths
Number of Pixels in Spectrum: 2048
>>>>>Begin Spectral Data<<<<<
189.047	28.47
189.435	28.47
189.823	28.47
190.211	10948.84
190.599	278.39
190.987	249.94
191.375	4.9
191.763	92.35
192.151	-299.51
192.538	104.28
192.926	-91.82
193.314	488.49
193.702	181.32
194.089	94.22
194.477	2423.53
194.864	376.72
195.252	59.81
195.639	2731.62
196.027	125.97
196.414	232.11
196.801	188
197.189	14.65
197.576	-551.99
197.963	105.96
198.351	23.76
198.738	117.95
199.125	-9.72
199.512	49.55
199.899	10.11
200.286	86.91
200.673	29.7
201.06	54.44
201.447	3.97
201.833	31.7
202.22	17.6
202.607	28.79
202.994	52.82
203.38	53.2
203.767	22.49
204.154	31.45
204.54	2.86
204.927	2.85
205.313	57.66
205.699	30.15
206.086	65.51
206.472	7.44
206.858	-19.92
207.245	27.32
207.631	43.23
208.017	8.62
208.403	22.31
208.789	9.15
209.175	-10.59
209.561	31.41
209.947	33.29
210.333	20.76
210.719	39.38
211.105	27.93
211.491	-21.7
211.876	54.18
212.262	72.69
212.648	37.8
213.034	-18.74
213.419	15.03
213.805	7.57
214.19	7.65
214.576	48.38
214.961	-36.69
215.346	-8.35
215.732	28.16
216.117	-9.07
216.502	13.26
216.888	-29.77
217.273	15.85
217.658	29.83
218.043	5.36
218.428	-6.67
218.813	-8.41
219.198	1.6
219.583	3.21
219.968	16.81
220.353	-8.88
220.738	30.41
221.122	24.31
221.507	34.27
221.892	3.91
222.276	5.96
222.661	16.65
223.046	7.9
223.43	15.46
223.815	11.75
224.199	13.09
224.583	4.94
224.968	20.52
225.352	15.85
225.736	12.51
226.121	8.19
226.505	6.05
226.889	9.73
227.273	10.29
227.657	10.85
228.041	7.52
228.425	7.97
228.809	4.67
229.193	7.81
229.577	8.64
229.961	3.46
230.344	5.46
230.728	3.84
231.112	3.72
231.495	5.17
231.879	2.73
232.263	4.85
232.646	3.54
233.03	5.62
233.413	6.92
233.797	4.35
234.18	4.68
234.563	2.04
234.946	7.8
235.33	4.65
235.713	3.46
236.096	6.06
236.479	3.95
236.862	5.8
237.245	4.43
237.628	2.99
238.011	6.77
238.394	5.95
238.777	7.4
239.16	4.28
239.543	3.13
239.925	7.14
240.308	3.23
240.691	4.21
241.073	3.08
241.456	5.03
241.838	5.63
242.221	6.32
242.603	5
242.986	4.21
243.368	4.05
243.75	3.83
244.133	4.06
244.515	3.85
244.897	4.42
245.279	4.61
245.661	3.64
246.043	4.93
246.425	3.61
246.807	5.97
247.189	5.06
247.571	4.12
247.953	4.64
248.335	4.05
248.717	3.8
249.098	3.99
249.48	3.93
249.862	4.02
250.243	4.22
250.625	4.81
251.006	4.46
251.388	4.89
251.769	5.06
252.151	4.73
252.532	3.93
252.913	6.37
253.295	3.65
253.676	4.56
254.057	3.85
254.438	3.97
254.819	4.48
255.2	4.53
255.581	4.34
255.962	5.4
256.343	6.5
256.724	4.75
257.105	3.98
257.486	5.47
257.867	4.17
258.247	4.85
258.628	5.75
259.009	4.61
259.389	4.14
259.77	4.83
260.15	3.97
260.531	4.4
260.911	4.33
261.292	4.45
261.672	3.76
262.052	3.89
262.432	3.98
262.813	4.48
263.193	4.59
263.573	4.29
263.953	4.5
264.333	3.62
264.713	4
265.093	5
265.473	3.99
265.853	3.45
266.233	3.75
266.612	5.33
266.992	4.49
267.372	4.24
267.752	4.59
268.131	4.67
268.511	3.98
268.89	4.27
269.27	3.87
269.649	4.27
270.029	4.81
270.408	4.49
270.787	4.02
271.167	4.09
271.546	4.16
271.925	4.15
272.304	4.27
272.683	4.44
273.062	4.04
273.441	4.4
273.82	3.79
274.199	3.79
274.578	4.23
274.957	4.46
275.336	4.02
275.715	4.2
276.093	3.83
276.472	4.02
276.851	4.45
277.229	4.89
277.608	4.14
277.986	3.84
278.365	3.73
278.743	4.16
279.122	3.79
279.5	4.11
279.878	4.06
280.257	3.94
280.635	4.38
281.013	4.09
281.391	4.53
281.769	4.52
282.147	4.3
282.525	4.55
282.903	4.23
283.281	3.43
283.659	4.59
284.037	4.55
284.415	4.04
284.792	4.13
285.17	4.26
285.548	3.83
285.925	4.54
286.303	4.11
286.68	4.27
287.058	4.12
287.435	3.99
287.813	4.01
288.19	4.54
288.567	4.06
288.945	4.52
289.322	4.6
289.699	4.52
290.076	4.57
290.453	4.45
290.83	3.84
291.207	4.69
291.584	4.66
291.961	4.83
292.338	4.39
292.715	4.18
293.092	4.63
293.469	4.63
293.845	4.3
294.222	4.18
294.599	4.64
294.975	5
295.352	4.88
295.728	4.63
296.105	4.86
296.481	4.93
296.858	5.64
297.234	5.56
297.61	5.31
297.986	4.84
298.363	5.08
298.739	5.27
299.115	4.68
299.491	5.31
299.867	5.09
300.243	5.54
300.619	5.41
300.995	5.96
301.371	5.68
301.746	6.01
302.122	5.37
302.498	5.6
302.874	5.89
303.249	6.09
303.625	6.26
304	5.56
304.376	5.76
304.751	5.25
305.127	6.05
305.502	6.47
305.878	6.32
306.253	5.8
306.628	6.16
307.003	6.1
307.378	6.35
307.754	6.77
308.129	6.27
308.504	6.54
308.879	6.82
309.254	6.42
309.629	6.7
310.003	6.35
310.378	6.47
310.753	7.11
311.128	6.87
311.502	7.22
311.877	6.75
312.252	7.22
312.626	7.51
313.001	7.16
313.375	7.53
313.75	7.13
314.124	7.41
314.498	7.72
314.873	7.5
315.247	7.9
315.621	7.28
315.995	8.19
316.369	8.26
316.743	7.67
317.117	8.08
317.491	7.96
317.865	8.06
318.239	8.24
318.613	8.41
318.987	8.67
319.361	8.47
319.734	8.76
320.108	8.38
320.482	8.74
320.855	8.86
321.229	8.85
321.602	9.01
321.976	8.72
322.349	9.13
322.723	8.7
323.096	9.7
323.469	9.28
323.843	8.77
324.216	9.41
324.589	9.47
324.962	10.28
325.335	9.99
325.708	9.58
326.081	9.24
326.454	10.17
326.827	10.17
327.2	9.7
327.573	10.03
327.945	10.32
328.318	10.67
328.691	9.83
329.063	9.71
329.436	9.6
329.809	10.49
330.181	10.21
330.553	10.07
330.926	10.21
331.298	11.34
331.671	10.47
332.043	10.75
332.415	11.53
332.787	10.88
333.159	10.76
333.532	11.23
333.904	10.65
334.276	10.31
334.648	10.44
335.02	10.81
335.391	10.6
335.763	11.11
336.135	11.47
336.507	11.23
336.879	11.06
337.25	11.5
337.622	11.04
337.993	11.82
338.365	11.82
338.736	11.98
339.108	11.22
339.479	11.64
339.851	11.88
340.222	11.98
340.593	11.8
340.964	12.12
341.336	11.72
341.707	12.01
342.078	11.7
342.449	12.08
342.82	11.75
343.191	11.94
343.562	12.11
343.933	12.03
344.303	12.14
344.674	12.87
345.045	12.76
345.416	12.49
345.786	12.93
346.157	12.75
346.527	12.59
346.898	12.79
347.268	12.43
347.639	12.91
348.009	12.86
348.38	13.49
348.75	12.94
349.12	13.67
349.49	13.24
349.861	12.66
350.231	12.95
350.601	13.94
350.971	14.05
351.341	13.7
351.711	13.38
352.081	13.83
352.45	13.98
352.82	13.57
353.19	13.72
353.56	13.85
353.929	13.85
354.299	13.63
354.669	14.37
355.038	14.3
355.408	14.19
355.777	13.98
356.147	14.02
356.516	14.4
356.885	14.37
357.254	14.17
357.624	14.24
357.993	14.46
358.362	14.22
358.731	14.76
359.1	14.56
359.469	14.76
359.838	14.23
360.207	14.39
360.576	15.17
360.945	14.52
361.314	14.61
361.682	14.8
362.051	15.45
362.42	15.21
362.788	14.82
363.157	14.84
363.525	14.93
363.894	15.28
364.262	15.26
364.631	15.21
364.999	15.56
365.367	15.64
365.735	15.89
366.104	15.47
366.472	15.95
366.84	16.01
367.208	15.97
367.576	16.02
367.944	15.77
368.312	16.24
368.68	16.19
369.048	16.1
369.416	16.43
369.783	16.14
370.151	16.72
370.519	16.4
370.886	16.48
371.254	16.6
371.621	16.79
371.989	16.54
372.356	17.02
372.724	17.15
373.091	16.65
373.458	16.94
373.826	16.66
374.193	16.92
374.56	17.02
374.927	16.95
375.294	17.42
375.661	17.71
376.028	17.09
376.395	17.13
376.762	17.62
377.129	17.64
377.496	17.73
377.863	17.68
378.229	17.67
378.596	17.87
378.963	17.85
379.329	17.96
379.696	17.67
380.062	17.87
380.429	17.94
380.795	18.16
381.161	18.09
381.528	18.34
381.894	18.05
382.26	18.12
382.626	18.44
382.993	18.58
383.359	18.48
383.725	18.66
384.091	18.82
384.457	18.68
384.823	18.66
385.188	18.77
385.554	18.5
385.92	18.81
386.286	18.87
386.651	18.86
387.017	19.23
387.383	19.09
387.748	19.17
388.114	18.98
388.479	19.16
388.845	19.32
389.21	19.59
389.575	19.57
389.94	19.5
390.306	19.77
390.671	19.83
391.036	19.64
391.401	19.94
391.766	20.02
392.131	20.05
392.496	19.87
392.861	20.18
393.226	20.13
393.591	19.75
393.956	19.94
394.32	20.13
394.685	20.15
395.05	20.35
395.414	20.26
395.779	20.44
396.143	20.4
396.508	20.49
396.872	20.54
397.236	20.63
397.601	20.77
397.965	20.88
398.329	21.04
398.694	21.12
399.058	21.17
399.422	20.85
399.786	21.19
400.15	21.6
400.514	21.17
400.878	21.41
401.242	21.37
401.605	21.37
401.969	21.29
402.333	21.55
402.697	21.65
403.06	21.85
403.424	21.97
403.787	21.74
404.151	21.6
404.514	21.71
404.878	22.16
405.241	22.06
405.604	22.05
405.968	21.62
406.331	22.07
406.694	21.94
407.057	22.29
407.42	22.09
407.783	22.25
408.146	22.22
408.509	22.53
408.872	22.65
409.235	22.64
409.598	22.44
409.961	22.72
410.323	22.72
410.686	22.82
411.049	22.98
411.411	23.17
411.774	22.9
412.136	22.75
412.499	22.97
412.861	23.18
413.223	23.1
413.586	23.12
413.948	23.26
414.31	23.47
414.672	23.5
415.035	23.68
415.397	23.41
415.759	23.83
416.121	23.84
416.483	23.59
416.845	23.94
417.206	23.82
417.568	23.55
417.93	23.55
418.292	23.75
418.653	23.65
419.015	23.75
419.377	23.47
419.738	23.92
420.1	23.59
420.461	23.62
420.822	23.67
421.184	23.73
421.545	23.83
421.906	23.96
422.267	23.88
422.629	23.78
422.99	23.75
423.351	23.74
423.712	23.77
424.073	24.02
424.434	24.34
424.795	24.46
425.155	24.45
425.516	24.4
425.877	24.34
426.238	24.12
426.598	24.13
426.959	24.47
427.32	24.59
427.68	24.82
428.041	25
428.401	25.15
428.761	25.31
429.122	25.36
429.482	25.65
429.842	25.69
430.202	25.65
430.563	25.97
430.923	25.94
431.283	26.01
431.643	25.66
432.003	25.67
432.363	26
432.722	25.93
433.082	26.09
433.442	26.03
433.802	25.99
434.161	26.18
434.521	25.91
434.881	25.82
435.24	25.84
435.6	26
435.959	25.96
436.319	26.26
436.678	26.39
437.037	26.58
437.396	26.77
437.756	26.59
438.115	26.92
438.474	26.84
438.833	26.84
439.192	26.98
439.551	26.8
439.91	27.1
440.269	26.86
440.628	27
440.987	26.84
441.345	26.86
441.704	26.72
442.063	26.86
442.421	26.8
442.78	26.83
443.138	26.97
443.497	26.99
443.855	27.19
444.214	27.63
444.572	27.69
444.93	27.92
445.288	27.78
445.647	27.69
446.005	27.79
446.363	27.74
446.721	27.77
447.079	27.65
447.437	27.54
447.795	27.33
448.153	27.34
448.51	27.28
448.868	27.53
449.226	27.63
449.584	27.69
449.941	28.07
450.299	28.2
450.656	28.4
451.014	28.48
451.371	28.39
451.729	28.7
452.086	28.63
452.443	28.95
452.801	29.09
453.158	29.03
453.515	29.09
453.872	29.03
454.229	29.07
454.586	29.03
454.943	28.78
455.3	29.07
455.657	29.15
456.014	29.44
456.371	29.22
456.727	29.34
457.084	29.4
457.441	29.56
457.797	29.56
458.154	29.69
458.51	30.08
458.867	29.76
459.223	29.73
459.58	29.84
459.936	29.79
460.292	29.92
460.648	29.76
461.005	29.48
461.361	29.41
461.717	29.2
462.073	29.04
462.429	29.18
462.785	29.66
463.141	30
463.496	30.44
463.852	30.43
464.208	30.67
464.564	30.56
464.919	30.72
465.275	31.08
465.631	30.75
465.986	31.26
466.342	31.1
466.697	30.94
467.052	30.82
467.408	30.76
467.763	30.95
468.118	31.01
468.473	31.24
468.829	31.02
469.184	31.01
469.539	31.03
469.894	31.06
470.249	31.28
470.603	31.34
470.958	31.57
471.313	31.62
471.668	31.51
472.023	31.67
472.377	31.52
472.732	31.7
473.086	31.77
473.441	31.78
473.795	31.98
474.15	32.17
474.504	32.15
474.859	32.17
475.213	31.91
475.567	32.16
475.921	32.38
476.275	32.21
476.63	32.65
476.984	32.47
477.338	32.69
477.692	32.49
478.045	32.65
478.399	32.49
478.753	32.44
479.107	32.41
479.461	32.69
479.814	32.85
480.168	32.9
480.521	32.58
480.875	32.71
481.228	32.79
481.582	32.84
481.935	32.99
482.289	33.05
482.642	33.04
482.995	33.2
483.348	32.98
483.701	32.87
484.055	32.97
484.408	32.83
484.761	32.62
485.114	32.6
485.466	32.02
485.819	31.56
486.172	31.42
486.525	31.76
486.878	32.25
487.23	32.73
487.583	33.24
487.936	33.58
488.288	33.42
488.641	33.2
488.993	32.9
489.345	32.56
489.698	32.46
490.05	32.49
490.402	32.69
490.754	32.98
491.107	33.39
491.459	33.82
491.811	34
492.163	34.3
492.515	34.4
492.866	34.16
493.218	33.83
493.57	33.16
493.922	32.77
494.274	33.16
494.625	33.67
494.977	34.31
495.328	34.87
495.68	35.02
496.031	35.16
496.383	35.23
496.734	35.27
497.086	35.47
497.437	35.43
497.788	35.5
498.139	35.35
498.49	35.1
498.842	34.94
499.193	34.76
499.544	34.98
499.894	35.31
500.245	35.36
500.596	35.5
500.947	35.48
501.298	35.61
501.648	35.76
501.999	36.03
502.35	35.82
502.7	36.19
503.051	36.31
503.401	36.22
503.752	36.27
504.102	36.52
504.452	36.37
504.803	36.44
505.153	36.45
505.503	36.43
505.853	36.32
506.203	36.52
506.553	36.52
506.903	36.55
507.253	36.74
507.603	36.61
507.953	36.96
508.303	36.92
508.652	37.15
509.002	37.02
509.352	36.99
509.701	36.8
510.051	36.84
510.4	36.8
510.75	36.87
511.099	36.88
511.449	36.8
511.798	36.83
512.147	37.07
512.496	37.22
512.846	37.44
513.195	37.39
513.544	37.44
513.893	37.36
514.242	37.53
514.591	37.41
514.939	37.48
515.288	37.58
515.637	37.96
515.986	37.79
516.334	38.02
516.683	37.96
517.032	38.11
517.38	38.34
517.729	38.34
518.077	38.34
518.426	38.23
518.774	38.48
519.122	38.23
519.47	38.2
519.819	38.11
520.167	37.92
520.515	37.75
520.863	37.6
521.211	37.91
521.559	37.9
521.907	38.22
522.255	38.33
522.602	38.7
522.95	38.9
523.298	38.99
523.645	39.31
523.993	39.13
524.341	39.27
524.688	39.5
525.036	39.14
525.383	39.21
525.73	39.39
526.078	39.41
526.425	39.41
526.772	39.25
527.119	39.21
527.466	38.7
527.814	38.52
528.161	38.62
528.508	38.85
528.854	39.09
529.201	39.37
529.548	39.43
529.895	39.21
530.242	38.68
530.588	37.97
530.935	37.87
531.282	38.16
531.628	38.6
531.975	38.87
532.321	39.58
532.667	39.67
533.014	40.02
533.36	40.07
533.706	39.94
534.052	40.06
534.399	39.91
534.745	39.86
535.091	39.45
535.437	38.97
535.783	39.11
536.129	39.43
536.474	39.9
536.82	40.51
537.166	40.8
537.512	40.82
537.857	40.85
538.203	40.59
538.549	40.13
538.894	39.94
539.239	40.16
539.585	40.47
539.93	40.79
540.276	41.01
540.621	41.47
540.966	41.6
541.311	41.76
541.656	41.74
542.001	41.42
542.346	41.57
542.691	41.09
543.036	40.82
543.381	39.84
543.726	39.75
544.071	40.16
544.415	40.72
544.76	41.19
545.105	41.35
545.449	41.34
545.794	41.45
546.138	41.69
546.483	41.82
546.827	42.09
547.171	42.43
547.516	42.12
547.86	42.12
548.204	42
548.548	41.96
548.892	41.77
549.236	41.7
549.58	42.17
549.924	42.38
550.268	42.7
550.612	42.91
550.956	43.31
551.3	43.2
551.643	43.54
551.987	43.32
552.33	43.62
552.674	43.29
553.017	43.57
553.361	43.5
553.704	43.47
554.048	43.54
554.391	43.21
554.734	43.49
555.077	42.93
555.42	43.23
555.764	43.4
556.107	43.87
556.45	43.75
556.793	43.98
557.135	43.92
557.478	44.1
557.821	44.1
558.164	44.18
558.507	44.16
558.849	44.37
559.192	44.23
559.534	44.22
559.877	44.65
560.219	44.53
560.562	44.64
560.904	44.47
561.246	44.71
561.589	44.73
561.931	44.89
562.273	44.48
562.615	44.7
562.957	44.96
563.299	44.8
563.641	44.65
563.983	44.9
564.325	45
564.667	45.05
565.008	45.05
565.35	45.05
565.692	45.28
566.033	45.19
566.375	45.1
566.716	45.33
567.058	45.47
567.399	45.13
567.741	45.25
568.082	44.99
568.423	44.79
568.764	44.98
569.105	45.01
569.447	45.42
569.788	45.5
570.129	45.67
570.47	45.88
570.811	46.06
571.151	45.71
571.492	45.41
571.833	45.64
572.174	46.02
572.514	46.04
572.855	46.02
573.195	45.81
573.536	45.79
573.876	45.81
574.217	45.55
574.557	45.72
574.898	46.07
575.238	46.23
575.578	46.22
575.918	46.37
576.258	46.23
576.598	46.38
576.938	46.24
577.278	46.37
577.618	46.33
577.958	46.33
578.298	46.83
578.638	46.82
578.977	47.03
579.317	46.89
579.657	47
579.996	47.11
580.336	47.16
580.675	47.29
581.014	47.77
581.354	47.55
581.693	47.75
582.032	47.55
582.372	47.94
582.711	47.97
583.05	47.5
583.389	47.91
583.728	47.75
584.067	47.96
584.406	47.86
584.745	47.73
585.083	47.84
585.422	47.89
585.761	48.01
586.1	48.02
586.438	48.13
586.777	48.28
587.115	47.94
587.454	48.44
587.792	48.6
588.13	48.42
588.469	48.7
588.807	48.52
589.145	48.57
589.483	48.39
589.821	48.55
590.159	48.46
590.497	48.45
590.835	48.37
591.173	48.23
591.511	48.56
591.849	48.52
592.187	48.71
592.524	48.61
592.862	48.78
593.2	48.59
593.537	49.04
593.875	48.93
594.212	49.46
594.55	49.38
594.887	49.13
595.224	49.5
595.561	49.35
595.899	49.12
596.236	49.23
596.573	49.11
596.91	48.96
597.247	49.45
597.584	49.32
597.921	49.4
598.258	49.65
598.594	49.33
598.931	49.2
599.268	49.02
599.604	48.89
599.941	49.29
600.277	49.09
600.614	49.87
600.95	50.15
601.287	49.76
601.623	50.46
601.959	50.02
602.296	50.28
602.632	50.28
602.968	50.68
603.304	50.47
603.64	50.12
603.976	50.15
604.312	50.38
604.648	50.18
604.984	50.15
605.319	50.11
605.655	49.91
605.991	50.13
606.326	50.21
606.662	49.74
606.998	49.56
607.333	49.59
607.668	50.27
608.004	50.32
608.339	50.67
608.674	50.66
609.01	51.04
609.345	51.14
609.68	51.02
610.015	51.32
610.35	51.27
610.685	51.48
611.02	50.86
611.355	50.82
611.689	50.17
612.024	50.53
612.359	50.87
612.694	50.98
613.028	50.95
613.363	51.23
613.697	51.56
614.032	51.66
614.366	51.72
614.7	51.75
615.035	51.75
615.369	51.66
615.703	52.05
616.037	51.82
616.371	51.89
616.705	51.82
617.039	52.09
617.373	52.05
617.707	51.88
618.041	52.1
618.375	52.1
618.709	51.8
619.042	52.15
619.376	52.52
619.71	52.23
620.043	52.45
620.377	52.9
620.71	52.35
621.043	52.99
621.377	52.03
621.71	52.87
622.043	52.86
622.376	52.83
622.709	52.88
623.043	52.79
623.376	52.8
623.709	52.64
624.041	52.86
624.374	53.04
624.707	52.8
625.04	52.96
625.373	53.3
625.705	52.94
626.038	52.96
626.37	53.58
626.703	52.74
627.035	53.27
627.368	53.22
627.7	53.58
628.032	53.62
628.365	53.51
628.697	53.31
629.029	52.89
629.361	53.17
629.693	52.55
630.025	52.88
630.357	52.98
630.689	53.83
631.021	53.94
631.353	53.82
631.684	53.41
632.016	53.81
632.348	53.96
632.679	53.79
633.011	53.82
633.342	53.7
633.674	53.96
634.005	54.14
634.336	53.94
634.668	54.53
634.999	54.33
635.33	54.38
635.661	54.25
635.992	53.56
636.323	54.12
636.654	54.15
636.985	53.66
637.316	54.05
637.647	54.63
637.977	54.52
638.308	54.57
638.639	54.3
638.969	54.42
639.3	54.7
639.63	54.74
639.961	55.17
640.291	54.59
640.622	55.16
640.952	54.47
641.282	54.68
641.612	54.97
641.943	54.57
642.273	55.54
642.603	54.65
642.933	54.57
643.263	55.55
643.592	54.81
643.922	55.59
644.252	55.15
644.582	55.2
644.911	55.98
645.241	55.86
645.571	55.67
645.9	56.17
646.23	55.5
646.559	55.55
646.888	55.74
647.218	55.36
647.547	55.39
647.876	56.11
648.205	55.19
648.534	56.38
648.863	55.44
649.192	55.64
649.521	55.4
649.85	56.07
650.179	55.97
650.508	56.04
650.837	55.81
651.165	56.05
651.494	56.06
651.822	55.82
652.151	55.83
652.479	55.62
652.808	56.48
653.136	55.96
653.465	56.12
653.793	56.73
654.121	56.91
654.449	56.58
654.777	56.18
655.105	56.26
655.433	56.35
655.761	56.54
656.089	56.72
656.417	56.47
656.745	56.56
657.073	56
657.4	56.9
657.728	56.88
658.056	56.73
658.383	56.95
658.711	57.32
659.038	56.93
659.365	56.81
659.693	56.83
660.02	56.6
660.347	57.16
660.674	56.94
661.001	56.72
661.329	56.49
661.656	56.64
661.982	56.29
662.309	57.32
662.636	57.3
662.963	57.35
663.29	58.02
663.616	57.31
663.943	56.81
664.27	57.63
664.596	57.19
664.923	57.5
665.249	57.7
665.576	57.74
665.902	56.87
666.228	56.98
666.554	57.41
666.881	57.2
667.207	57.18
667.533	57.59
667.859	57.49
668.185	57.63
668.511	57.95
668.837	57.62
669.162	57.77
669.488	57.89
669.814	57.91
670.139	57.8
