Data from 0178_crown_Reflection__1__042.txt Node

Date: Mon Aug 28 18:58:14 CDT 2023
User: ToomeyLab
Spectrometer: FLMS14357
Trigger mode: 0
Integration Time (sec): 1.000000E-2
Scans to average: 100
Electric dark correction enabled: true
Nonlinearity correction enabled: false
Boxcar width: 0
XAxis mode: Wavelengths
Number of Pixels in Spectrum: 2048
>>>>>Begin Spectral Data<<<<<
189.047	31.23
189.435	31.23
189.823	31.23
190.211	-7265.12
190.599	-34.25
190.987	327.55
191.375	-41.9
191.763	82.89
192.151	138.72
192.538	154.51
192.926	481.53
193.314	2.71
193.702	15.88
194.089	1.9
194.477	-1745.88
194.864	-153.2
195.252	70.65
195.639	1494.02
196.027	72.47
196.414	256.61
196.801	120.27
197.189	51.96
197.576	274.71
197.963	62.69
198.351	-31.75
198.738	80.75
199.125	-19.47
199.512	-23.09
199.899	48.72
200.286	-40.32
200.673	-5.07
201.06	-35.66
201.447	-64.03
201.833	-50.9
202.22	-23.8
202.607	10.91
202.994	17.01
203.38	-61.22
203.767	-35.39
204.154	4.74
204.54	-64.77
204.927	-63.61
205.313	1.91
205.699	-22.8
206.086	7.5
206.472	-32.53
206.858	-13.27
207.245	-22.67
207.631	18.9
208.017	-19.55
208.403	6.26
208.789	-11.15
209.175	-36.46
209.561	-28.22
209.947	10.35
210.333	-13.87
210.719	15.19
211.105	16.96
211.491	-13.81
211.876	11.51
212.262	-36.92
212.648	14.25
213.034	21.03
213.419	-7.81
213.805	-4.08
214.19	-21.49
214.576	-5.91
214.961	-32.94
215.346	-38.24
215.732	22.57
216.117	-28.07
216.502	-12.97
216.888	-80.77
217.273	-0.17
217.658	21.91
218.043	-12.28
218.428	-6.45
218.813	-6.62
219.198	-10.79
219.583	2.17
219.968	20.66
220.353	-3.67
220.738	8.42
221.122	16.75
221.507	-11.94
221.892	1.61
222.276	-10.73
222.661	-6.33
223.046	4.23
223.43	0.62
223.815	5.28
224.199	3.44
224.583	-2.61
224.968	-1.02
225.352	9.17
225.736	3.43
226.121	6.14
226.505	1.37
226.889	2.44
227.273	5.78
227.657	-1.73
228.041	-0.74
228.425	2.74
228.809	3.39
229.193	-0.89
229.577	3.29
229.961	0.05
230.344	2.86
230.728	1.69
231.112	1.62
231.495	2.68
231.879	1.85
232.263	2.79
232.646	0.53
233.03	3.99
233.413	4.61
233.797	2.14
234.18	2.18
234.563	-0.94
234.946	5.12
235.33	0.62
235.713	-0.07
236.096	2.46
236.479	0.78
236.862	2.27
237.245	1.15
237.628	2.47
238.011	2.3
238.394	3.68
238.777	3.61
239.16	1.27
239.543	-0.04
239.925	5.05
240.308	1.35
240.691	1.62
241.073	3
241.456	1.01
241.838	0.46
242.221	4.27
242.603	2.43
242.986	3.58
243.368	1.94
243.75	1.55
244.133	1.42
244.515	1.91
244.897	2.38
245.279	2.32
245.661	1.68
246.043	2.18
246.425	1.65
246.807	2.98
247.189	1.57
247.571	2.11
247.953	1.96
248.335	2.01
248.717	1.61
249.098	1.81
249.48	2.03
249.862	2.22
250.243	1.54
250.625	2.54
251.006	1.8
251.388	1.78
251.769	1.78
252.151	1.13
252.532	2.06
252.913	2.43
253.295	1.23
253.676	1.85
254.057	2.03
254.438	1.94
254.819	1.98
255.2	2.74
255.581	2.94
255.962	1.77
256.343	1.81
256.724	0.35
257.105	1.42
257.486	1.73
257.867	2.44
258.247	1.52
258.628	2.47
259.009	0.61
259.389	1.53
259.77	1.72
260.15	1.8
260.531	2.15
260.911	1.63
261.292	2.05
261.672	2.03
262.052	1.74
262.432	1.72
262.813	2.16
263.193	1.42
263.573	1.62
263.953	2.02
264.333	1.85
264.713	2.17
265.093	2.22
265.473	1.91
265.853	2.1
266.233	1.55
266.612	2.8
266.992	1.95
267.372	1.35
267.752	2.72
268.131	1.97
268.511	1.56
268.89	1.62
269.27	1.23
269.649	1.62
270.029	1.8
270.408	1.65
270.787	2.44
271.167	2.29
271.546	1.97
271.925	1.66
272.304	1.53
272.683	2.32
273.062	1.59
273.441	2.04
273.82	1.75
274.199	1.08
274.578	1.54
274.957	1.73
275.336	2.36
275.715	2.32
276.093	1.66
276.472	1.27
276.851	1.17
277.229	2.13
277.608	1.68
277.986	1.81
278.365	1.45
278.743	1.2
279.122	1.48
279.5	1.57
279.878	1.18
280.257	1.92
280.635	1.85
281.013	1.87
281.391	1.67
281.769	1.63
282.147	1.45
282.525	2.13
282.903	1.88
283.281	2.03
283.659	2.35
284.037	2.34
284.415	1.63
284.792	1.75
285.17	1.68
285.548	1.2
285.925	2.11
286.303	2.1
286.68	2.32
287.058	1.59
287.435	1.5
287.813	1.45
288.19	1.74
288.567	1.95
288.945	1.23
289.322	1.49
289.699	1.62
290.076	2.12
290.453	1.76
290.83	0.87
291.207	1.77
291.584	1.72
291.961	2.14
292.338	1.51
292.715	1.49
293.092	1.74
293.469	1.83
293.845	1.54
294.222	2.11
294.599	1.53
294.975	1.85
295.352	1.24
295.728	1.61
296.105	1.6
296.481	1.84
296.858	1.73
297.234	2.09
297.61	2.16
297.986	1.58
298.363	2.12
298.739	1.6
299.115	1.46
299.491	1.67
299.867	1.52
300.243	1.82
300.619	1.73
300.995	1.95
301.371	1.46
301.746	1.88
302.122	1.41
302.498	2.05
302.874	2.04
303.249	2
303.625	1.98
304	1.63
304.376	1.56
304.751	1.55
305.127	2.28
305.502	1.68
305.878	1.35
306.253	1.77
306.628	1.97
307.003	2.04
307.378	1.86
307.754	1.82
308.129	1.52
308.504	2.4
308.879	2.08
309.254	2.21
309.629	1.47
310.003	1.67
310.378	1.41
310.753	1.08
311.128	1.77
311.502	1.73
311.877	1.74
312.252	2.02
312.626	1.57
313.001	1.97
313.375	1.77
313.75	1.64
314.124	1.96
314.498	1.64
314.873	2.21
315.247	1.55
315.621	1.19
315.995	2.3
316.369	1.91
316.743	0.91
317.117	1.33
317.491	1.18
317.865	1.61
318.239	1.57
318.613	1.61
318.987	1.82
319.361	1.56
319.734	2.2
320.108	1.56
320.482	2.3
320.855	1.8
321.229	2.08
321.602	1.39
321.976	1.47
322.349	1.59
322.723	1.95
323.096	1.8
323.469	1.54
323.843	1.46
324.216	1.66
324.589	2.09
324.962	2.01
325.335	2.05
325.708	2
326.081	0.94
326.454	1.93
326.827	2.22
327.2	1.79
327.573	1.37
327.945	2.11
328.318	1.87
328.691	1.5
329.063	0.9
329.436	1.34
329.809	1.93
330.181	1.63
330.553	1.71
330.926	1.85
331.298	2
331.671	1.83
332.043	1.73
332.415	2.27
332.787	1.17
333.159	1.44
333.532	2.44
333.904	1.69
334.276	1.5
334.648	1.74
335.02	2.07
335.391	1.65
335.763	1.3
336.135	2.01
336.507	1.94
336.879	1.01
337.25	2.29
337.622	1.76
337.993	1.82
338.365	1.56
338.736	2.11
339.108	1.21
339.479	1.79
339.851	2.21
340.222	2.19
340.593	1.38
340.964	1.93
341.336	1.76
341.707	1.24
342.078	1.53
342.449	1.85
342.82	1.62
343.191	1.63
343.562	1.46
343.933	1.64
344.303	1.68
344.674	1.79
345.045	1.35
345.416	1.83
345.786	1.89
346.157	1.91
346.527	1.4
346.898	1.63
347.268	1.58
347.639	1.32
348.009	1.76
348.38	1.79
348.75	1.75
349.12	1.82
349.49	1.63
349.861	1.4
350.231	0.94
350.601	1.94
350.971	1.92
351.341	1.74
351.711	1.96
352.081	1.64
352.45	1.74
352.82	1.73
353.19	2.38
353.56	1.7
353.929	1.76
354.299	1.5
354.669	1.88
355.038	2.02
355.408	1.76
355.777	1.56
356.147	1.65
356.516	1.93
356.885	1.78
357.254	1.76
357.624	1.67
357.993	1.96
358.362	1.47
358.731	1.98
359.1	2.01
359.469	1.64
359.838	1.65
360.207	1.74
360.576	1.87
360.945	1.76
361.314	1.28
361.682	1.52
362.051	2.01
362.42	1.85
362.788	1.85
363.157	1.87
363.525	1.85
363.894	1.93
364.262	1.7
364.631	1.69
364.999	2.16
365.367	2.03
365.735	1.61
366.104	1.42
366.472	1.78
366.84	1.71
367.208	1.65
367.576	1.59
367.944	1.85
368.312	2.03
368.68	1.67
369.048	1.54
369.416	1.57
369.783	1.54
370.151	1.91
370.519	2.18
370.886	1.55
371.254	1.53
371.621	1.67
371.989	1.39
372.356	1.85
372.724	2.02
373.091	1.87
373.458	1.59
373.826	1.7
374.193	1.62
374.56	1.97
374.927	1.43
375.294	1.64
375.661	1.75
376.028	1.61
376.395	1.57
376.762	2.12
377.129	1.98
377.496	1.76
377.863	1.78
378.229	1.66
378.596	2.12
378.963	2.11
379.329	1.93
379.696	1.9
380.062	1.84
380.429	1.74
380.795	1.89
381.161	1.81
381.528	2.11
381.894	2.03
382.26	1.97
382.626	1.98
382.993	1.77
383.359	2.06
383.725	2.03
384.091	1.81
384.457	1.6
384.823	1.86
385.188	2.01
385.554	1.88
385.92	1.73
386.286	2.05
386.651	1.87
387.017	2.07
387.383	2.07
387.748	1.72
388.114	1.87
388.479	1.64
388.845	1.8
389.21	1.7
389.575	1.88
389.94	1.89
390.306	1.68
390.671	1.88
391.036	1.71
391.401	2.05
391.766	1.95
392.131	1.84
392.496	1.69
392.861	1.9
393.226	2.02
393.591	1.54
393.956	2
394.32	1.72
394.685	1.82
395.05	1.96
395.414	1.72
395.779	1.94
396.143	1.84
396.508	1.67
396.872	2.07
397.236	1.63
397.601	1.42
397.965	1.93
398.329	1.98
398.694	1.81
399.058	1.87
399.422	2.16
399.786	1.96
400.15	2.09
400.514	2.15
400.878	1.85
401.242	1.96
401.605	1.92
401.969	1.77
402.333	2.22
402.697	1.85
403.06	2.05
403.424	1.99
403.787	1.77
404.151	1.9
404.514	1.7
404.878	2.01
405.241	2.2
405.604	2.02
405.968	1.77
406.331	2.14
406.694	1.98
407.057	1.93
407.42	1.87
407.783	1.83
408.146	1.86
408.509	2.01
408.872	1.66
409.235	1.84
409.598	1.95
409.961	1.79
410.323	2.19
410.686	2.03
411.049	2.28
411.411	1.91
411.774	2.02
412.136	1.91
412.499	1.94
412.861	1.82
413.223	1.89
413.586	1.79
413.948	1.97
414.31	2.06
414.672	1.94
415.035	1.96
415.397	1.72
415.759	1.91
416.121	2
416.483	1.78
416.845	1.94
417.206	2.21
417.568	2.11
417.93	1.84
418.292	2.05
418.653	1.84
419.015	1.89
419.377	1.69
419.738	2.07
420.1	1.88
420.461	1.85
420.822	1.91
421.184	1.97
421.545	1.96
421.906	1.98
422.267	1.92
422.629	1.87
422.99	1.94
423.351	1.95
423.712	1.88
424.073	1.92
424.434	2.02
424.795	1.97
425.155	1.88
425.516	1.96
425.877	1.88
426.238	1.76
426.598	1.89
426.959	1.93
427.32	1.94
427.68	1.91
428.041	1.92
428.401	2.01
428.761	1.92
429.122	1.87
429.482	2.12
429.842	2.14
430.202	1.99
430.563	2.04
430.923	2.12
431.283	1.83
431.643	1.87
432.003	1.91
432.363	2.03
432.722	1.97
433.082	1.8
433.442	1.89
433.802	2.07
434.161	2.02
434.521	1.92
434.881	1.85
435.24	2
435.6	2.09
435.959	1.98
436.319	2.06
436.678	1.88
437.037	1.97
437.396	2.09
437.756	1.91
438.115	2.06
438.474	2.28
438.833	1.87
439.192	2.09
439.551	2.06
439.91	1.97
440.269	2.06
440.628	1.99
440.987	2.01
441.345	1.84
441.704	1.98
442.063	1.93
442.421	2
442.78	2.1
443.138	1.96
443.497	1.9
443.855	2.05
444.214	2.11
444.572	1.94
444.93	2.06
445.288	2.04
445.647	1.94
446.005	2.14
446.363	2.13
446.721	2.06
447.079	2.02
447.437	1.95
447.795	1.88
448.153	2.04
448.51	1.92
448.868	2.03
449.226	1.94
449.584	2.01
449.941	2.03
450.299	2.14
450.656	2.01
451.014	1.99
451.371	1.99
451.729	1.82
452.086	2.04
452.443	2.22
452.801	2.15
453.158	2.24
453.515	2.06
453.872	1.94
454.229	2.08
454.586	2.05
454.943	2.03
455.3	2.03
455.657	2.1
456.014	2.19
456.371	2.05
456.727	2.03
457.084	1.98
457.441	2.02
457.797	2.06
458.154	2.05
458.51	2.12
458.867	2.14
459.223	2.09
459.58	1.92
459.936	2.01
460.292	2.08
460.648	1.97
461.005	1.98
461.361	2
461.717	2.08
462.073	1.96
462.429	1.88
462.785	1.99
463.141	2.02
463.496	2.21
463.852	2.14
464.208	2.08
464.564	2.07
464.919	2.19
465.275	2.23
465.631	2.09
465.986	2.17
466.342	2.07
466.697	2.01
467.052	1.89
467.408	2.03
467.763	2.11
468.118	2.09
468.473	1.97
468.829	2.1
469.184	2.04
469.539	2.05
469.894	1.98
470.249	2.07
470.603	2.18
470.958	2.13
471.313	2.16
471.668	2.02
472.023	2.11
472.377	2.01
472.732	2.1
473.086	2.07
473.441	2.1
473.795	2.13
474.15	2.13
474.504	2.06
474.859	2.13
475.213	2.1
475.567	2.11
475.921	2.16
476.275	2.14
476.63	2.24
476.984	2.32
477.338	2.01
477.692	2.12
478.045	2.14
478.399	2.07
478.753	1.97
479.107	2.07
479.461	2.01
479.814	2.21
480.168	2.14
480.521	2.14
480.875	2.17
481.228	2.06
481.582	2.11
481.935	2.13
482.289	2.12
482.642	2.1
482.995	2.21
483.348	2.07
483.701	2.11
484.055	2.01
484.408	2.01
484.761	2.02
485.114	2
485.466	1.94
485.819	1.87
486.172	1.84
486.525	1.9
486.878	1.97
487.23	2.06
487.583	2.19
487.936	2.27
488.288	2.22
488.641	2.15
488.993	2.1
489.345	2
489.698	2
490.05	1.94
490.402	2.01
490.754	2.04
491.107	2.12
491.459	2.12
491.811	2.21
492.163	2.22
492.515	2.15
492.866	2.14
493.218	2.02
493.57	1.98
493.922	1.92
494.274	2.04
494.625	2.14
494.977	2.19
495.328	2.34
495.68	2.32
496.031	2.3
496.383	2.15
496.734	2.17
497.086	2.38
497.437	2.36
497.788	2.23
498.139	2.07
498.49	2.04
498.842	2.08
499.193	2.07
499.544	2.1
499.894	2.17
500.245	2.11
500.596	2.08
500.947	2.25
501.298	2.2
501.648	2.27
501.999	2.21
502.35	2.14
502.7	2.31
503.051	2.28
503.401	2.23
503.752	2.19
504.102	2.17
504.452	2.11
504.803	2.2
505.153	2.05
505.503	2.05
505.853	2.2
506.203	2.19
506.553	2.14
506.903	2.16
507.253	2.33
507.603	2.17
507.953	2.33
508.303	2.21
508.652	2.13
509.002	2.25
509.352	2.14
509.701	2.06
510.051	2.25
510.4	2.25
510.75	2.21
511.099	2.16
511.449	2.14
511.798	2.13
512.147	2.18
512.496	2.27
512.846	2.06
513.195	2.16
513.544	2.23
513.893	2.2
514.242	2.19
514.591	2.31
514.939	2.07
515.288	2.22
515.637	2.33
515.986	2.2
516.334	2.33
516.683	2.25
517.032	2.24
517.38	2.37
517.729	2.28
518.077	2.25
518.426	2.22
518.774	2.24
519.122	2.22
519.47	2.19
519.819	2.16
520.167	2.08
520.515	2.2
520.863	2.03
521.211	2.1
521.559	2.19
521.907	2.23
522.255	2.23
522.602	2.24
522.95	2.4
523.298	2.26
523.645	2.3
523.993	2.13
524.341	2.37
524.688	2.3
525.036	2.17
525.383	2.34
525.73	2.36
526.078	2.37
526.425	2.22
526.772	2.25
527.119	2.22
527.466	2.05
527.814	2.15
528.161	2.1
528.508	2.16
528.854	2.2
529.201	2.25
529.548	2.22
529.895	2.23
530.242	2.1
530.588	1.99
530.935	1.99
531.282	2.08
531.628	2.11
531.975	2.22
532.321	2.3
532.667	2.24
533.014	2.37
533.36	2.29
533.706	2.36
534.052	2.24
534.399	2.25
534.745	2.24
535.091	2.19
535.437	2.18
535.783	2.12
536.129	2.2
536.474	2.24
536.82	2.35
537.166	2.4
537.512	2.38
537.857	2.45
538.203	2.28
538.549	2.15
538.894	2.15
539.239	2.13
539.585	2.27
539.93	2.34
540.276	2.3
540.621	2.47
540.966	2.32
541.311	2.52
541.656	2.41
542.001	2.25
542.346	2.23
542.691	2.16
543.036	2.18
543.381	2.12
543.726	2.11
544.071	2.17
544.415	2.28
544.76	2.27
545.105	2.32
545.449	2.29
545.794	2.36
546.138	2.36
546.483	2.3
546.827	2.38
547.171	2.36
547.516	2.31
547.86	2.37
548.204	2.31
548.548	2.29
548.892	2.26
549.236	2.28
549.58	2.27
549.924	2.27
550.268	2.48
550.612	2.3
550.956	2.44
551.3	2.39
551.643	2.54
551.987	2.29
552.33	2.39
552.674	2.47
553.017	2.31
553.361	2.34
553.704	2.33
554.048	2.33
554.391	2.33
554.734	2.43
555.077	2.28
555.42	2.29
555.764	2.44
556.107	2.34
556.45	2.49
556.793	2.39
557.135	2.45
557.478	2.53
557.821	2.49
558.164	2.52
558.507	2.35
558.849	2.44
559.192	2.31
559.534	2.38
559.877	2.46
560.219	2.62
560.562	2.37
560.904	2.46
561.246	2.32
561.589	2.36
561.931	2.56
562.273	2.2
562.615	2.48
562.957	2.46
563.299	2.42
563.641	2.34
563.983	2.34
564.325	2.51
564.667	2.46
565.008	2.2
565.35	2.6
565.692	2.64
566.033	2.37
566.375	2.48
566.716	2.43
567.058	2.49
567.399	2.34
567.741	2.47
568.082	2.42
568.423	2.26
568.764	2.42
569.105	2.52
569.447	2.41
569.788	2.46
570.129	2.38
570.47	2.49
570.811	2.61
571.151	2.29
571.492	2.38
571.833	2.45
572.174	2.48
572.514	2.34
572.855	2.41
573.195	2.41
573.536	2.56
573.876	2.36
574.217	2.43
574.557	2.5
574.898	2.58
575.238	2.46
575.578	2.39
575.918	2.42
576.258	2.47
576.598	2.55
576.938	2.33
577.278	2.43
577.618	2.43
577.958	2.38
578.298	2.5
578.638	2.44
578.977	2.4
579.317	2.39
579.657	2.51
579.996	2.61
580.336	2.48
580.675	2.43
581.014	2.65
581.354	2.49
581.693	2.43
582.032	2.69
582.372	2.45
582.711	2.6
583.05	2.31
583.389	2.73
583.728	2.69
584.067	2.61
584.406	2.23
584.745	2.44
585.083	2.43
585.422	2.35
585.761	2.56
586.1	2.7
586.438	2.35
586.777	2.42
587.115	2.66
587.454	2.71
587.792	2.36
588.13	2.55
588.469	2.69
588.807	2.46
589.145	2.2
589.483	2.47
589.821	2.6
590.159	2.7
590.497	2.46
590.835	2.67
591.173	2.59
591.511	2.58
591.849	2.56
592.187	2.6
592.524	2.7
592.862	2.7
593.2	2.41
593.537	2.51
593.875	2.67
594.212	2.73
594.55	2.61
594.887	2.48
595.224	2.47
595.561	2.4
595.899	2.22
596.236	2.72
596.573	2.58
596.91	2.49
597.247	2.37
597.584	2.54
597.921	2.5
598.258	2.43
598.594	2.57
598.931	2.53
599.268	2.67
599.604	2.47
599.941	2.68
600.277	2.56
600.614	2.85
600.95	2.81
601.287	2.64
601.623	2.76
601.959	2.77
602.296	2.59
602.632	2.68
602.968	2.74
603.304	2.79
603.64	2.58
603.976	2.62
604.312	2.59
604.648	2.46
604.984	2.66
605.319	2.63
605.655	2.73
605.991	2.69
606.326	2.51
606.662	2.46
606.998	2.57
607.333	2.53
607.668	2.55
608.004	2.6
608.339	2.82
608.674	2.38
609.01	2.72
609.345	2.63
609.68	2.54
610.015	2.61
610.35	2.8
610.685	2.73
611.02	2.65
611.355	2.79
611.689	2.66
612.024	2.76
612.359	2.7
612.694	2.68
613.028	2.61
613.363	2.45
613.697	2.85
614.032	2.85
614.366	2.65
614.7	2.81
615.035	2.39
615.369	2.68
615.703	2.46
616.037	2.47
616.371	2.25
616.705	2.57
617.039	2.56
617.373	2.77
617.707	2.69
618.041	2.65
618.375	2.68
618.709	2.72
619.042	2.79
619.376	2.75
619.71	2.32
620.043	2.45
620.377	2.93
620.71	2.61
621.043	2.54
621.377	2.83
621.71	2.92
622.043	2.1
622.376	2.76
622.709	2.51
623.043	2.54
623.376	2.62
623.709	2.71
624.041	2.82
624.374	2.55
624.707	2.33
625.04	2.47
625.373	2.7
625.705	2.93
626.038	2.7
626.37	2.73
626.703	3.02
627.035	2.69
627.368	2.97
627.7	2.47
628.032	2.88
628.365	2.54
628.697	2.49
629.029	2.7
629.361	2.67
629.693	2.64
630.025	2.73
630.357	2.56
630.689	2.85
631.021	2.93
631.353	2.62
631.684	2.85
632.016	2.36
632.348	2.77
632.679	2.69
633.011	2.82
633.342	2.88
633.674	2.78
634.005	2.72
634.336	2.68
634.668	2.47
634.999	2.74
635.33	2.76
635.661	2.84
635.992	2.62
636.323	3.05
636.654	2.89
636.985	2.79
637.316	3.14
637.647	3.03
637.977	2.8
638.308	2.91
638.639	2.75
638.969	3.04
639.3	2.91
639.63	2.61
639.961	3.01
640.291	2.46
640.622	3.02
640.952	2.3
641.282	2.58
641.612	2.71
641.943	2.92
642.273	3.27
642.603	2.48
642.933	2.43
643.263	3.17
643.592	2.66
643.922	2.96
644.252	2.46
644.582	2.64
644.911	2.96
645.241	3.07
645.571	2.85
645.9	2.57
646.23	2.83
646.559	2.71
646.888	2.6
647.218	2.8
647.547	2.71
647.876	3.49
648.205	2.59
648.534	3.27
648.863	2.6
649.192	3.19
649.521	2.85
649.85	2.73
650.179	3.52
650.508	2.88
650.837	2.86
651.165	2.68
651.494	2.89
651.822	2.62
652.151	2.21
652.479	2.93
652.808	2.73
653.136	2.48
653.465	2.66
653.793	3.03
654.121	3
654.449	3.09
654.777	2.76
655.105	2.86
655.433	2.82
655.761	2.86
656.089	3.26
656.417	2.94
656.745	3.21
657.073	2.5
657.4	2.93
657.728	2.9
658.056	3
658.383	2.63
658.711	3.01
659.038	2.7
659.365	2.82
659.693	2.95
660.02	2.72
660.347	3.15
660.674	2.82
661.001	3.48
661.329	2.83
661.656	3.04
661.982	3.02
662.309	3.21
662.636	2.88
662.963	3.21
663.29	3.17
663.616	2.7
663.943	3.44
664.27	2.79
664.596	2.74
664.923	3.57
665.249	3.07
665.576	3.17
665.902	2.98
666.228	2.76
666.554	2.91
666.881	2.69
667.207	2.86
667.533	3.23
667.859	2.29
668.185	3
668.511	3.11
668.837	2.33
669.162	3
669.488	2.79
669.814	3.31
670.139	2.67
670.465	3.4
670.791	2.89
671.116	2.77
671.442	2.82
671.767	2.69
672.092	3.43
672.418	2.81
672.743	2.82
673.068	2.91
673.393	3.03
673.718	2.06
674.043	3
674.368	2.98
674.693	2.68
675.018	3.41
675.343	3.03
675.667	3.46
675.992	3.25
676.317	2.7
676.641	3.17
676.966	3.26
677.29	2.48
677.615	3.41
677.939	3.64
678.264	2.72
678.588	3.28
678.912	3.07
679.236	2.36
679.56	2.42
679.885	3.03
680.209	2.6
680.532	3.34
680.856	2.74
681.18	2.95
681.504	2.58
681.828	2.89
682.152	3.12
682.475	3.25
682.799	3.17
683.122	3.16
683.446	2.65
683.769	3.43
684.093	3.05
684.416	3.21
684.739	3.33
685.062	3.45
685.386	2.48
685.709	3.54
686.032	2.48
686.355	2.88
686.678	2.99
687.001	1.89
687.324	3.33
687.646	2.92
687.969	3.26
688.292	3.07
688.614	4.11
688.937	2.98
689.26	2.93
689.582	2.94
689.904	3.25
690.227	3.51
690.549	2.94
690.871	3.47
691.194	3.45
691.516	2.42
691.838	3.49
692.16	3.84
