Data from 0178_chest_Reflection__2__033.txt Node

Date: Mon Aug 28 18:54:40 CDT 2023
User: ToomeyLab
Spectrometer: FLMS14357
Trigger mode: 0
Integration Time (sec): 1.000000E-2
Scans to average: 100
Electric dark correction enabled: true
Nonlinearity correction enabled: false
Boxcar width: 0
XAxis mode: Wavelengths
Number of Pixels in Spectrum: 2048
>>>>>Begin Spectral Data<<<<<
189.047	56.1
189.435	56.1
189.823	56.1
190.211	-5648.84
190.599	55.74
190.987	-559.25
191.375	81.5
191.763	64.68
192.151	-10.18
192.538	183.49
192.926	1.64
193.314	867.49
193.702	217.66
194.089	112.22
194.477	4363.53
194.864	184.75
195.252	35.19
195.639	681.2
196.027	109.87
196.414	68.33
196.801	125.17
197.189	71.21
197.576	-69.45
197.963	50.96
198.351	-70.72
198.738	88.71
199.125	-22.59
199.512	0.19
199.899	2.77
200.286	-78.43
200.673	4.99
201.06	13.53
201.447	-105.27
201.833	-32.96
202.22	-7.81
202.607	-40.64
202.994	38.72
203.38	5.38
203.767	-21.29
204.154	-9.45
204.54	-8.71
204.927	-11.57
205.313	16.66
205.699	-7.69
206.086	36.36
206.472	23.09
206.858	-18.6
207.245	22.24
207.631	10.5
208.017	16.48
208.403	18.45
208.789	21.14
209.175	-40.33
209.561	13.7
209.947	21.11
210.333	4.57
210.719	36.02
211.105	25.81
211.491	-31.61
211.876	41.77
212.262	-46.62
212.648	0.19
213.034	-16.25
213.419	4.07
213.805	32.2
214.19	-16.66
214.576	-5.47
214.961	34.27
215.346	-3.1
215.732	9.13
216.117	7.82
216.502	-15.6
216.888	0.76
217.273	-8.87
217.658	-11.6
218.043	6.18
218.428	9.64
218.813	11.08
219.198	-8.75
219.583	4.21
219.968	22.9
220.353	-21.78
220.738	9.37
221.122	5.15
221.507	-13.28
221.892	-4.27
222.276	-2.24
222.661	4.63
223.046	1.92
223.43	13.42
223.815	1.52
224.199	14.08
224.583	9.24
224.968	3
225.352	6.48
225.736	4.63
226.121	6.84
226.505	1.03
226.889	5.1
227.273	16.23
227.657	2.01
228.041	0.1
228.425	6.11
228.809	2.75
229.193	3.89
229.577	4.63
229.961	4.46
230.344	3.62
230.728	2.84
231.112	2.99
231.495	3.66
231.879	2.41
232.263	3.26
232.646	1.5
233.03	3.97
233.413	4.9
233.797	1.82
234.18	0.83
234.563	1.71
234.946	4.24
235.33	3.25
235.713	1.13
236.096	2.66
236.479	3.55
236.862	5.83
237.245	2.5
237.628	4.04
238.011	5.81
238.394	4.33
238.777	5.07
239.16	2.25
239.543	1.78
239.925	5.29
240.308	3.13
240.691	2.04
241.073	2.97
241.456	2.07
241.838	3.21
242.221	4.8
242.603	4.43
242.986	4.56
243.368	3.54
243.75	3.03
244.133	3.14
244.515	3.12
244.897	3.51
245.279	3.36
245.661	2.58
246.043	3.74
246.425	2.68
246.807	4.69
247.189	3.57
247.571	3.94
247.953	2.95
248.335	3.32
248.717	3.19
249.098	3.43
249.48	3.36
249.862	3.33
250.243	3.47
250.625	4.12
251.006	3.4
251.388	4
251.769	3.46
252.151	3.51
252.532	2.17
252.913	3.98
253.295	2.36
253.676	3.97
254.057	3.48
254.438	3.7
254.819	3.13
255.2	3.63
255.581	3.64
255.962	3.79
256.343	4.4
256.724	2.32
257.105	3.11
257.486	3.49
257.867	2.93
258.247	3.51
258.628	3.61
259.009	2.39
259.389	3
259.77	3.69
260.15	3.05
260.531	2.85
260.911	3.85
261.292	3.31
261.672	3.08
262.052	3.16
262.432	3.21
262.813	3.62
263.193	3.29
263.573	3.07
263.953	3.17
264.333	2.98
264.713	3.09
265.093	3.38
265.473	2.86
265.853	2.98
266.233	2.74
266.612	3.38
266.992	3.16
267.372	3.1
267.752	3.63
268.131	3.84
268.511	2.5
268.89	3.6
269.27	3.38
269.649	3.36
270.029	3.4
270.408	3.01
270.787	3.59
271.167	3.26
271.546	2.67
271.925	3.07
272.304	3.01
272.683	2.83
273.062	2.6
273.441	3.11
273.82	3.05
274.199	2.44
274.578	3.08
274.957	3.4
275.336	3.58
275.715	3.88
276.093	3.36
276.472	2.28
276.851	2.85
277.229	3.09
277.608	2.69
277.986	2.7
278.365	3.28
278.743	3.32
279.122	3.26
279.5	2.77
279.878	2.27
280.257	2.9
280.635	3.12
281.013	3.04
281.391	3.09
281.769	2.89
282.147	3.23
282.525	2.98
282.903	3.42
283.281	3.03
283.659	3.33
284.037	3.25
284.415	2.89
284.792	3.25
285.17	3.03
285.548	2.8
285.925	3.05
286.303	3.15
286.68	3.11
287.058	2.92
287.435	3.05
287.813	3.23
288.19	3.19
288.567	3.61
288.945	3.39
289.322	3.03
289.699	3.6
290.076	3.13
290.453	3.11
290.83	2.64
291.207	2.98
291.584	3.51
291.961	3.7
292.338	3.42
292.715	3.19
293.092	3.49
293.469	3.23
293.845	3.37
294.222	3.44
294.599	3.06
294.975	3.72
295.352	2.88
295.728	3.26
296.105	3.33
296.481	3.43
296.858	3.85
297.234	3.97
297.61	4.04
297.986	3.69
298.363	4.03
298.739	3.68
299.115	3.31
299.491	3.76
299.867	3.82
300.243	3.75
300.619	3.56
300.995	3.98
301.371	3.62
301.746	3.78
302.122	3.35
302.498	3.84
302.874	3.62
303.249	3.53
303.625	4.05
304	3.68
304.376	3.95
304.751	3.25
305.127	3.83
305.502	4.14
305.878	3.7
306.253	3.39
306.628	4
307.003	3.85
307.378	3.8
307.754	3.88
308.129	3.71
308.504	4.42
308.879	4.11
309.254	4.09
309.629	4.1
310.003	3.75
310.378	3.5
310.753	3.99
311.128	4.06
311.502	4.21
311.877	3.78
312.252	3.85
312.626	3.99
313.001	4.06
313.375	4.01
313.75	4.14
314.124	3.85
314.498	4.13
314.873	4.58
315.247	4.26
315.621	3.74
315.995	4.23
316.369	4.19
316.743	4.29
317.117	4.09
317.491	3.85
317.865	3.57
318.239	3.69
318.613	4.65
318.987	4.12
319.361	4.44
319.734	4.33
320.108	4
320.482	3.62
320.855	3.66
321.229	4.11
321.602	3.85
321.976	3.44
322.349	3.78
322.723	4.17
323.096	3.9
323.469	3.54
323.843	3.4
324.216	4.23
324.589	4.48
324.962	3.61
325.335	4.04
325.708	4.14
326.081	4.4
326.454	4.18
326.827	4.45
327.2	3.41
327.573	4.29
327.945	4.64
328.318	4.81
328.691	4.04
329.063	3.69
329.436	3.74
329.809	4.61
330.181	3.64
330.553	3.75
330.926	4.87
331.298	4.26
331.671	3.98
332.043	4.13
332.415	5.04
332.787	3.86
333.159	4.43
333.532	4.61
333.904	4.18
334.276	4.1
334.648	4.26
335.02	4.58
335.391	4.33
335.763	3.86
336.135	4.65
336.507	4.23
336.879	3.6
337.25	4.68
337.622	4.4
337.993	4.79
338.365	4.07
338.736	4.63
339.108	4.17
339.479	3.83
339.851	4.16
340.222	4.15
340.593	4.08
340.964	4.74
341.336	4.05
341.707	3.77
342.078	3.69
342.449	4.25
342.82	4.43
343.191	4.32
343.562	4.01
343.933	4.1
344.303	4.15
344.674	4.34
345.045	4.43
345.416	4.31
345.786	4.23
346.157	4.83
346.527	4.02
346.898	4.48
347.268	4.05
347.639	3.66
348.009	3.99
348.38	4.75
348.75	4.08
349.12	4.6
349.49	3.85
349.861	3.97
350.231	4.31
350.601	4.77
350.971	4.82
351.341	4.25
351.711	4.67
352.081	4.18
352.45	4.37
352.82	4.29
353.19	4.7
353.56	4.72
353.929	4.7
354.299	4
354.669	4.79
355.038	4.32
355.408	4.26
355.777	4.22
356.147	4.56
356.516	4.73
356.885	4.46
357.254	4.39
357.624	4.34
357.993	4.64
358.362	4.08
358.731	4.41
359.1	4.8
359.469	4.57
359.838	4.21
360.207	4.48
360.576	4.53
360.945	4.37
361.314	4.19
361.682	4.21
362.051	4.44
362.42	4.09
362.788	4.33
363.157	4.45
363.525	4.28
363.894	4.45
364.262	4.46
364.631	4.18
364.999	4.53
365.367	4.59
365.735	4.58
366.104	4.42
366.472	4.27
366.84	4.5
367.208	4.54
367.576	4.01
367.944	4.47
368.312	4.75
368.68	4.36
369.048	4.64
369.416	4.34
369.783	4.53
370.151	4.63
370.519	4.85
370.886	4.56
371.254	4.44
371.621	4.43
371.989	4.47
372.356	4.45
372.724	4.87
373.091	4.27
373.458	4.42
373.826	4.89
374.193	4.51
374.56	4.69
374.927	4.4
375.294	4.71
375.661	4.71
376.028	4.09
376.395	4.13
376.762	4.74
377.129	4.33
377.496	4.42
377.863	4.55
378.229	4.22
378.596	4.63
378.963	4.55
379.329	4.57
379.696	4.49
380.062	4.43
380.429	4.58
380.795	4.51
381.161	4.68
381.528	4.82
381.894	4.7
382.26	4.7
382.626	4.67
382.993	4.55
383.359	4.68
383.725	4.77
384.091	4.42
384.457	4.42
384.823	4.32
385.188	4.51
385.554	4.58
385.92	4.7
386.286	4.93
386.651	4.66
387.017	4.75
387.383	4.81
387.748	4.65
388.114	4.65
388.479	4.34
388.845	4.6
389.21	4.56
389.575	4.79
389.94	4.55
390.306	4.83
390.671	4.68
391.036	4.73
391.401	5.1
391.766	4.92
392.131	4.77
392.496	4.56
392.861	4.68
393.226	4.66
393.591	4.58
393.956	4.7
394.32	4.49
394.685	4.63
395.05	4.77
395.414	4.61
395.779	4.92
396.143	4.63
396.508	4.78
396.872	4.77
397.236	4.74
397.601	4.44
397.965	4.66
398.329	4.83
398.694	5.03
399.058	4.89
399.422	4.65
399.786	4.81
400.15	4.79
400.514	4.63
400.878	4.57
401.242	4.59
401.605	4.74
401.969	4.73
402.333	4.7
402.697	4.7
403.06	4.79
403.424	4.84
403.787	4.8
404.151	4.56
404.514	4.93
404.878	4.76
405.241	4.93
405.604	4.84
405.968	4.75
406.331	4.89
406.694	4.82
407.057	4.98
407.42	4.76
407.783	4.64
408.146	4.63
408.509	4.81
408.872	4.83
409.235	4.82
409.598	4.96
409.961	4.82
410.323	5.05
410.686	4.97
411.049	5
411.411	4.89
411.774	5.06
412.136	4.75
412.499	5.06
412.861	5.02
413.223	4.82
413.586	4.81
413.948	4.92
414.31	5.1
414.672	4.86
415.035	4.93
415.397	4.71
415.759	4.94
416.121	5.26
416.483	4.99
416.845	5.1
417.206	5.24
417.568	5.03
417.93	4.88
418.292	5.22
418.653	4.85
419.015	4.9
419.377	4.84
419.738	4.89
420.1	4.87
420.461	5
420.822	5.04
421.184	4.96
421.545	4.92
421.906	5.03
422.267	4.94
422.629	4.95
422.99	4.99
423.351	5.01
423.712	4.89
424.073	4.98
424.434	5.02
424.795	4.97
425.155	4.97
425.516	4.91
425.877	4.89
426.238	4.91
426.598	4.94
426.959	4.95
427.32	5.02
427.68	5.03
428.041	4.93
428.401	5.08
428.761	5.12
429.122	5.07
429.482	5.05
429.842	5.13
430.202	5.16
430.563	5.22
430.923	5.27
431.283	5.03
431.643	5.14
432.003	5.04
432.363	5.19
432.722	5.11
433.082	5.2
433.442	5.28
433.802	5.13
434.161	5.21
434.521	5.06
434.881	5.1
435.24	5.17
435.6	5.22
435.959	5.09
436.319	5.18
436.678	5.09
437.037	5.16
437.396	5.34
437.756	5.15
438.115	5.29
438.474	5.32
438.833	5.17
439.192	5.42
439.551	5.27
439.91	5.32
440.269	5.2
440.628	5.15
440.987	5.24
441.345	5.17
441.704	5.23
442.063	5.22
442.421	5.21
442.78	5.28
443.138	5.17
443.497	5.16
443.855	5.17
444.214	5.31
444.572	5.19
444.93	5.38
445.288	5.27
445.647	5.35
446.005	5.53
446.363	5.36
446.721	5.4
447.079	5.29
447.437	5.08
447.795	5.2
448.153	5.31
448.51	5.23
448.868	5.27
449.226	5.16
449.584	5.24
449.941	5.33
450.299	5.27
450.656	5.21
451.014	5.3
451.371	5.46
451.729	5.3
452.086	5.4
452.443	5.56
452.801	5.57
453.158	5.6
453.515	5.5
453.872	5.35
454.229	5.56
454.586	5.58
454.943	5.45
455.3	5.53
455.657	5.39
456.014	5.43
456.371	5.36
456.727	5.41
457.084	5.52
457.441	5.56
457.797	5.49
458.154	5.58
458.51	5.66
458.867	5.48
459.223	5.52
459.58	5.39
459.936	5.56
460.292	5.51
460.648	5.55
461.005	5.43
461.361	5.45
461.717	5.4
462.073	5.44
462.429	5.32
462.785	5.4
463.141	5.4
463.496	5.39
463.852	5.45
464.208	5.64
464.564	5.45
464.919	5.52
465.275	5.65
465.631	5.55
465.986	5.6
466.342	5.72
466.697	5.49
467.052	5.57
467.408	5.58
467.763	5.53
468.118	5.52
468.473	5.55
468.829	5.48
469.184	5.59
469.539	5.62
469.894	5.41
470.249	5.7
470.603	5.65
470.958	5.5
471.313	5.78
471.668	5.41
472.023	5.66
472.377	5.61
472.732	5.68
473.086	5.72
473.441	5.55
473.795	5.69
474.15	5.69
474.504	5.8
474.859	5.64
475.213	5.72
475.567	5.72
475.921	5.74
476.275	5.75
476.63	5.91
476.984	5.69
477.338	5.87
477.692	5.74
478.045	5.63
478.399	5.74
478.753	5.71
479.107	5.74
479.461	5.77
479.814	5.85
480.168	5.79
480.521	5.75
480.875	5.78
481.228	5.63
481.582	5.77
481.935	5.84
482.289	5.85
482.642	5.85
482.995	5.92
483.348	5.77
483.701	5.79
484.055	5.66
484.408	5.71
484.761	5.75
485.114	5.67
485.466	5.62
485.819	5.54
486.172	5.49
486.525	5.51
486.878	5.52
487.23	5.56
487.583	5.6
487.936	5.72
488.288	5.74
488.641	5.79
488.993	5.73
489.345	5.72
489.698	5.75
490.05	5.65
490.402	5.63
490.754	5.69
491.107	5.69
491.459	5.76
491.811	5.74
492.163	5.89
492.515	5.97
492.866	6.02
493.218	5.87
493.57	5.86
493.922	5.77
494.274	5.71
494.625	5.71
494.977	5.83
495.328	5.93
495.68	6
496.031	5.98
496.383	5.91
496.734	5.9
497.086	6.15
497.437	6.12
497.788	6.05
498.139	6.09
498.49	6.01
498.842	6.09
499.193	5.96
499.544	6.02
499.894	6.07
500.245	6.04
500.596	6.06
500.947	6.17
501.298	6.19
501.648	6.11
501.999	6.09
502.35	6.14
502.7	6.2
503.051	6.19
503.401	6.23
503.752	6.18
504.102	6.19
504.452	6.11
504.803	6.29
505.153	6.25
505.503	6.09
505.853	6.19
506.203	6.14
506.553	6.22
506.903	6.28
507.253	6.35
507.603	6.16
507.953	6.37
508.303	6.29
508.652	6.33
509.002	6.41
509.352	6.26
509.701	6.26
510.051	6.34
510.4	6.25
510.75	6.24
511.099	6.36
511.449	6.22
511.798	6.33
512.147	6.29
512.496	6.35
512.846	6.3
513.195	6.36
513.544	6.36
513.893	6.34
514.242	6.46
514.591	6.37
514.939	6.3
515.288	6.5
515.637	6.43
515.986	6.39
516.334	6.57
516.683	6.51
517.032	6.48
517.38	6.61
517.729	6.6
518.077	6.54
518.426	6.6
518.774	6.54
519.122	6.63
519.47	6.53
519.819	6.47
520.167	6.51
520.515	6.51
520.863	6.42
521.211	6.45
521.559	6.51
521.907	6.55
522.255	6.48
522.602	6.62
522.95	6.8
523.298	6.78
523.645	6.71
523.993	6.75
524.341	6.74
524.688	6.64
525.036	6.67
525.383	6.81
525.73	6.81
526.078	6.91
526.425	6.8
526.772	6.83
527.119	6.76
527.466	6.74
527.814	6.74
528.161	6.73
528.508	6.74
528.854	6.72
529.201	6.86
529.548	6.79
529.895	6.78
530.242	6.77
530.588	6.61
530.935	6.58
531.282	6.58
531.628	6.57
531.975	6.59
532.321	6.66
532.667	6.65
533.014	6.88
533.36	6.86
533.706	6.91
534.052	6.88
534.399	6.94
534.745	7.06
535.091	6.89
535.437	6.91
535.783	6.87
536.129	6.87
536.474	6.87
536.82	7.01
537.166	7.02
537.512	6.98
537.857	7.25
538.203	7.06
538.549	7.09
538.894	7.07
539.239	7.01
539.585	7.08
539.93	6.97
540.276	7.1
540.621	7.19
540.966	7.24
541.311	7.46
541.656	7.37
542.001	7.31
542.346	7.34
542.691	7.31
543.036	7.27
543.381	7.17
543.726	7.06
544.071	7.17
544.415	7.2
544.76	7.26
545.105	7.3
545.449	7.26
545.794	7.35
546.138	7.4
546.483	7.4
546.827	7.46
547.171	7.33
547.516	7.47
547.86	7.55
548.204	7.7
548.548	7.54
548.892	7.4
549.236	7.45
549.58	7.51
549.924	7.43
550.268	7.65
550.612	7.68
550.956	7.71
551.3	7.85
551.643	7.88
551.987	7.68
552.33	7.8
552.674	7.85
553.017	7.97
553.361	8
553.704	7.79
554.048	7.86
554.391	7.99
554.734	7.93
555.077	7.85
555.42	7.85
555.764	7.95
556.107	7.82
556.45	7.94
556.793	7.92
557.135	8.08
557.478	7.98
557.821	8.09
558.164	8.22
558.507	8.05
558.849	8.31
559.192	8.06
559.534	8.03
559.877	8.35
560.219	8.39
560.562	8.21
560.904	8.24
561.246	8.32
561.589	8.27
561.931	8.33
562.273	8.11
562.615	8.33
562.957	8.26
563.299	8.49
563.641	8.24
563.983	8.52
564.325	8.41
564.667	8.31
565.008	8.21
565.35	8.67
565.692	8.58
566.033	8.55
566.375	8.48
566.716	8.45
567.058	8.58
567.399	8.48
567.741	8.64
568.082	8.4
568.423	8.53
568.764	8.53
569.105	8.66
569.447	8.69
569.788	8.65
570.129	8.63
570.47	8.69
570.811	8.65
571.151	8.58
571.492	8.64
571.833	8.65
572.174	9.06
572.514	8.71
572.855	8.61
573.195	8.9
573.536	9.01
573.876	8.92
574.217	8.93
574.557	9.01
574.898	9.1
575.238	8.93
575.578	8.97
575.918	9.01
576.258	9.08
576.598	8.94
576.938	9.02
577.278	9.14
577.618	9.08
577.958	9.2
578.298	9.43
578.638	9.22
578.977	9.12
579.317	9.28
579.657	9.29
579.996	9.16
580.336	9.32
580.675	9.44
581.014	9.54
581.354	9.42
581.693	9.41
582.032	9.49
582.372	9.59
582.711	9.59
583.05	9.55
583.389	9.51
583.728	9.66
584.067	9.62
584.406	9.51
584.745	9.57
585.083	9.51
585.422	9.51
585.761	9.81
586.1	9.69
586.438	9.66
586.777	9.72
587.115	9.91
587.454	9.89
587.792	9.81
588.13	9.96
588.469	9.94
588.807	9.91
589.145	10.13
589.483	9.85
589.821	9.9
590.159	10.09
590.497	10.18
590.835	10.17
591.173	9.96
591.511	10.22
591.849	9.8
592.187	9.99
592.524	10.02
592.862	10.33
593.2	9.98
593.537	9.98
593.875	10.45
594.212	10.14
594.55	10.41
594.887	10.31
595.224	10.28
595.561	10.05
595.899	10.24
596.236	10.45
596.573	10.51
596.91	10.48
597.247	10.51
597.584	10.54
597.921	10.53
598.258	10.47
598.594	10.49
598.931	10.7
599.268	10.5
599.604	10.51
599.941	10.6
600.277	10.55
600.614	10.65
600.95	10.67
601.287	10.76
601.623	10.88
601.959	10.99
602.296	10.81
602.632	10.83
602.968	11.01
603.304	10.98
603.64	10.82
603.976	11.08
604.312	11.06
604.648	10.71
604.984	11.04
605.319	11.12
605.655	11.13
605.991	11.23
606.326	11
606.662	10.98
606.998	10.87
607.333	10.98
607.668	11.1
608.004	11.12
608.339	11.06
608.674	11.21
609.01	11.39
609.345	11.37
609.68	11.32
610.015	11.64
610.35	11.65
610.685	11.27
611.02	11.41
611.355	11.41
611.689	11.14
612.024	11.6
612.359	11.67
612.694	11.52
613.028	11.41
613.363	11.25
613.697	11.49
614.032	11.74
614.366	11.83
614.7	11.89
615.035	11.41
615.369	11.76
615.703	11.63
616.037	11.77
616.371	11.15
616.705	11.61
617.039	11.98
617.373	11.7
617.707	11.91
618.041	11.73
618.375	11.88
618.709	11.78
619.042	12.16
619.376	12.14
619.71	11.93
620.043	12.17
620.377	12.33
620.71	12.12
621.043	12.2
621.377	12.67
621.71	12.54
622.043	11.95
622.376	12.39
622.709	12.13
623.043	12.45
623.376	12.39
623.709	12.44
624.041	12.59
624.374	12.1
624.707	12.38
625.04	12.37
625.373	12.83
625.705	12.54
626.038	12.56
626.37	12.69
626.703	12.36
627.035	12.42
627.368	12.48
627.7	12.77
628.032	12.69
628.365	12.45
628.697	12.89
629.029	12.81
629.361	12.8
629.693	12.74
630.025	12.91
630.357	12.63
630.689	12.58
631.021	12.89
631.353	12.84
631.684	13.12
632.016	13.02
632.348	12.73
632.679	12.87
633.011	13
633.342	13.05
633.674	13.46
634.005	13.21
634.336	13.04
634.668	13.38
634.999	13.3
635.33	13.28
635.661	13.44
635.992	13.24
636.323	13.73
636.654	13.19
636.985	13.28
637.316	13.37
637.647	13.54
637.977	13.06
638.308	13.65
638.639	13.4
638.969	13.79
639.3	13.43
639.63	13.18
639.961	13.7
640.291	13.48
640.622	13.64
640.952	13.29
641.282	13.63
641.612	13.86
641.943	13.95
642.273	14.16
642.603	13.84
642.933	13.48
643.263	14.37
643.592	13.81
643.922	14.26
644.252	13.73
644.582	14.16
644.911	14.08
645.241	14.4
645.571	14.11
645.9	13.92
646.23	14.26
646.559	13.95
646.888	13.86
647.218	13.81
647.547	14.36
647.876	14.55
648.205	14.21
648.534	14.74
648.863	14.33
649.192	14.36
649.521	14.69
649.85	14.51
650.179	14.15
650.508	14.22
650.837	13.89
651.165	14.31
651.494	14.71
651.822	14.34
652.151	14.46
652.479	15.11
652.808	14.88
653.136	14.67
653.465	15.1
653.793	14.68
654.121	15.38
654.449	15.2
654.777	15.06
655.105	14.14
655.433	14.47
655.761	14.75
656.089	14.99
656.417	14.35
656.745	15.02
657.073	14.83
657.4	15.18
657.728	15.12
658.056	15.34
658.383	15.29
658.711	15.47
659.038	15.47
659.365	15.26
659.693	14.99
660.02	15.19
660.347	15.67
660.674	15.36
661.001	15.95
661.329	15.32
661.656	15.41
661.982	15.3
662.309	15.34
662.636	15.35
662.963	15.54
663.29	15.72
663.616	15.36
663.943	15.84
664.27	15.48
664.596	15.61
664.923	16.13
665.249	15.88
665.576	15.75
665.902	15.74
666.228	15.33
666.554	15.45
666.881	15.49
667.207	15.46
667.533	15.34
667.859	15.94
668.185	15.72
668.511	16.07
668.837	15.08
669.162	16.38
669.488	16.05
669.814	16.02
670.139	16.33
670.465	16.7
670.791	16.34
671.116	15.97
671.442	16.35
671.767	15.72
672.092	16.36
672.418	16.15
672.743	16.44
673.068	15.8
673.393	16.31
673.718	15.86
674.043	16.38
674.368	16.29
674.693	16.42
675.018	16.89
675.343	16.79
675.667	16.28
675.992	16.49
676.317	16
676.641	16.74
676.966	16.97
677.29	16.43
677.615	16.85
677.939	16.66
678.264	16.31
678.588	16.97
678.912	17.44
679.236	15.92
679.56	16.42
679.885	17.18
680.209	16.49
680.532	17.09
680.856	16.8
681.18	16.56
681.504	16.06
681.828	16.81
682.152	17.36
682.475	17.07
682.799	17.32
683.122	17.2
683.446	17
683.769	17.4
684.093	16.89
684.416	17.71
684.739	17.1
685.062	17.9
685.386	17.56
685.709	17.36
686.032	16.88
686.355	16.91
