Data from 0008_forehead_Reflection__0__357.txt Node

Date: Thu Dec 15 19:25:02 CST 2022
User: ToomeyLab
Spectrometer: FLMS14357
Trigger mode: 0
Integration Time (sec): 1.000000E-2
Scans to average: 100
Electric dark correction enabled: true
Nonlinearity correction enabled: false
Boxcar width: 0
XAxis mode: Wavelengths
Number of Pixels in Spectrum: 2048
>>>>>Begin Spectral Data<<<<<
189.047	-652.88
189.435	-652.88
189.823	-652.88
190.211	-223.77
190.599	33.08
190.987	82.67
191.375	-14.17
191.763	567.05
192.151	148.91
192.538	56.6
192.926	-602.92
193.314	2865.18
193.702	-63.57
194.089	102.95
194.477	4.43
194.864	96.89
195.252	552.76
195.639	201.58
196.027	42.12
196.414	26.47
196.801	309.63
197.189	238.61
197.576	120.42
197.963	113.15
198.351	17.52
198.738	-66.52
199.125	-82.19
199.512	16.56
199.899	-74.66
200.286	-99.23
200.673	15.08
201.06	-21.51
201.447	-25.51
201.833	7.6
202.22	31.37
202.607	-122.92
202.994	-2.58
203.38	-9.92
203.767	1.73
204.154	-12.86
204.54	-2.85
204.927	45.45
205.313	27.31
205.699	-21.68
206.086	15.68
206.472	15.27
206.858	10.22
207.245	-10.88
207.631	-74.96
208.017	36.18
208.403	-77.14
208.789	28.35
209.175	2.83
209.561	-92.44
209.947	11.11
210.333	-9.83
210.719	50.44
211.105	16.67
211.491	10.67
211.876	-52.9
212.262	-0.11
212.648	5.28
213.034	-14.72
213.419	-20.61
213.805	-26.87
214.19	-20.73
214.576	-30.13
214.961	-4.4
215.346	-26.58
215.732	-4.21
216.117	7.68
216.502	-3.34
216.888	7.71
217.273	34.68
217.658	-12.29
218.043	-24.17
218.428	-41.35
218.813	7.2
219.198	-78.95
219.583	-0.56
219.968	-4.45
220.353	-29.59
220.738	9.36
221.122	-17.84
221.507	-13.44
221.892	-40.09
222.276	-50.75
222.661	-27.74
223.046	-27.19
223.43	11.96
223.815	16.49
224.199	-10.83
224.583	-5.52
224.968	-16.97
225.352	-13.45
225.736	14.7
226.121	4.48
226.505	-12.83
226.889	-5.09
227.273	-7.31
227.657	3.21
228.041	1.16
228.425	-2.64
228.809	1.07
229.193	1.23
229.577	-0.6
229.961	1.49
230.344	1.83
230.728	1.87
231.112	2.35
231.495	-0.33
231.879	0.76
232.263	2.32
232.646	1.16
233.03	2.93
233.413	-0.94
233.797	1.45
234.18	0.91
234.563	2.43
234.946	0.72
235.33	1.24
235.713	-0.41
236.096	1.8
236.479	2.56
236.862	-0.21
237.245	2.1
237.628	2.2
238.011	1.01
238.394	0.31
238.777	0.95
239.16	2.42
239.543	3.12
239.925	0.4
240.308	-0.13
240.691	1.28
241.073	0.69
241.456	1.02
241.838	1.07
242.221	1.17
242.603	2.22
242.986	1.56
243.368	1.36
243.75	1.88
244.133	2.45
244.515	1.41
244.897	1.57
245.279	1.14
245.661	1.94
246.043	1.76
246.425	1.5
246.807	1.39
247.189	0.91
247.571	0.94
247.953	1.29
248.335	1.6
248.717	1.6
249.098	1.8
249.48	1.6
249.862	1.76
250.243	1.56
250.625	1.76
251.006	2.01
251.388	1.36
251.769	1.93
252.151	2.25
252.532	0.89
252.913	1.22
253.295	1.51
253.676	1.79
254.057	1.87
254.438	1.46
254.819	2.13
255.2	2.68
255.581	2.21
255.962	2.3
256.343	1.1
256.724	2.71
257.105	1
257.486	0.79
257.867	1.81
258.247	1.92
258.628	1.8
259.009	0.97
259.389	0.4
259.77	1.29
260.15	2.47
260.531	1.89
260.911	1.47
261.292	1.73
261.672	1.67
262.052	1.53
262.432	1.21
262.813	1.4
263.193	1.57
263.573	1.18
263.953	1.32
264.333	1.7
264.713	1.66
265.093	1.04
265.473	7.57
265.853	1.7
266.233	1.19
266.612	1.23
266.992	1.2
267.372	1.54
267.752	1.69
268.131	1.43
268.511	1.83
268.89	2.23
269.27	1.05
269.649	1.14
270.029	2.33
270.408	1.62
270.787	1.6
271.167	1.49
271.546	2.02
271.925	1.38
272.304	1.21
272.683	1.56
273.062	1.25
273.441	1.19
273.82	1.54
274.199	1.41
274.578	1.93
274.957	1.23
275.336	1.49
275.715	1.69
276.093	1.07
276.472	1.1
276.851	1.72
277.229	2.14
277.608	0.73
277.986	2.16
278.365	2.03
278.743	1.45
279.122	1.58
279.5	1.49
279.878	0.84
280.257	0.92
280.635	1.54
281.013	0.44
281.391	1.29
281.769	2.42
282.147	1.42
282.525	1.32
282.903	1.45
283.281	1.64
283.659	1.95
284.037	1.24
284.415	1.49
284.792	1.53
285.17	1.18
285.548	1.25
285.925	1.44
286.303	1.95
286.68	1.44
287.058	1.76
287.435	1.49
287.813	2.07
288.19	1.29
288.567	1.35
288.945	1.24
289.322	1.57
289.699	1.78
290.076	1.25
290.453	1.61
290.83	1.45
291.207	1.54
291.584	2.06
291.961	1.69
292.338	1.4
292.715	1.56
293.092	2.23
293.469	1.74
293.845	1.54
294.222	2.37
294.599	1.15
294.975	0.97
295.352	2.05
295.728	1.73
296.105	1.86
296.481	1.62
296.858	1.96
297.234	1.32
297.61	1.72
297.986	2.23
298.363	1.81
298.739	1.83
299.115	1.65
299.491	2.1
299.867	1.48
300.243	2.02
300.619	1.46
300.995	1.76
301.371	1.76
301.746	1.89
302.122	1.04
302.498	1.69
302.874	1.84
303.249	1.6
303.625	1.64
304	2.02
304.376	2.07
304.751	2.08
305.127	1.6
305.502	1.96
305.878	2
306.253	1.95
306.628	2.05
307.003	2.15
307.378	1.83
307.754	1.72
308.129	1.52
308.504	1.57
308.879	1.47
309.254	2.2
309.629	1.81
310.003	2.06
310.378	2.3
310.753	2.13
311.128	1.8
311.502	1.59
311.877	2.04
312.252	1.73
312.626	2.32
313.001	2.03
313.375	2.29
313.75	1.89
314.124	2.23
314.498	2.21
314.873	1.77
315.247	2
315.621	2.05
315.995	2.03
316.369	1.3
316.743	1.87
317.117	2.15
317.491	2.35
317.865	1.69
318.239	2.78
318.613	2.15
318.987	1.89
319.361	2.54
319.734	2.09
320.108	2.49
320.482	2.35
320.855	1.96
321.229	2.42
321.602	2.26
321.976	1.84
322.349	3.15
322.723	2.23
323.096	2.73
323.469	2.02
323.843	1.75
324.216	2.05
324.589	2.44
324.962	2.09
325.335	2.32
325.708	2.28
326.081	2.02
326.454	2.37
326.827	2.34
327.2	2.31
327.573	2.98
327.945	2.11
328.318	2.24
328.691	2.3
329.063	2.25
329.436	1.87
329.809	3.03
330.181	3.07
330.553	3.08
330.926	3.24
331.298	2.42
331.671	2.69
332.043	1.89
332.415	2.71
332.787	2.85
333.159	2.57
333.532	2.52
333.904	2.67
334.276	2.7
334.648	2.3
335.02	2.51
335.391	2.32
335.763	2.76
336.135	2.76
336.507	2.42
336.879	2.51
337.25	2.49
337.622	3.07
337.993	2.57
338.365	2.69
338.736	2.95
339.108	2.87
339.479	2.79
339.851	2.67
340.222	3.08
340.593	2.79
340.964	2.63
341.336	2.65
341.707	2.67
342.078	2.49
342.449	2.83
342.82	2.51
343.191	2.75
343.562	2.91
343.933	2.6
344.303	2.87
344.674	2.66
345.045	3.08
345.416	3.26
345.786	2.47
346.157	2.8
346.527	2.99
346.898	2.69
347.268	3.04
347.639	2.69
348.009	2.91
348.38	2.62
348.75	3.27
349.12	3.09
349.49	3.18
349.861	3.12
350.231	2.8
350.601	3.32
350.971	2.82
351.341	3.15
351.711	3.11
352.081	3.02
352.45	2.77
352.82	2.4
353.19	3.13
353.56	3.09
353.929	3.18
354.299	3.27
354.669	3.52
355.038	3.62
355.408	3.4
355.777	3.29
356.147	3.02
356.516	2.9
356.885	3.3
357.254	3.12
357.624	2.89
357.993	3.13
358.362	3.34
358.731	3.23
359.1	3.35
359.469	3.47
359.838	3.29
360.207	3.43
360.576	3.53
360.945	3.51
361.314	3.24
361.682	2.98
362.051	3.31
362.42	3.21
362.788	3.6
363.157	3.21
363.525	3.36
363.894	3.26
364.262	3.51
364.631	3.66
364.999	3.38
365.367	3.31
365.735	3.38
366.104	3.35
366.472	3.85
366.84	3.72
367.208	3.59
367.576	3.53
367.944	3.55
368.312	3.51
368.68	3.8
369.048	3.46
369.416	3.22
369.783	3.43
370.151	3.98
370.519	3.98
370.886	3.58
371.254	3.84
371.621	4.01
371.989	3.77
372.356	3.96
372.724	3.69
373.091	3.52
373.458	3.72
373.826	3.65
374.193	3.83
374.56	3.8
374.927	3.81
375.294	4.11
375.661	4.07
376.028	3.82
376.395	3.85
376.762	3.73
377.129	3.53
377.496	3.99
377.863	3.91
378.229	4.36
378.596	3.99
378.963	4.16
379.329	4.09
379.696	3.69
380.062	3.97
380.429	3.86
380.795	4.12
381.161	3.66
381.528	4
381.894	4.02
382.26	4.22
382.626	4
382.993	4.46
383.359	4.14
383.725	3.87
384.091	4.25
384.457	4.11
384.823	4.35
385.188	4.25
385.554	4.43
385.92	4.11
386.286	4.36
386.651	4.11
387.017	4.33
387.383	4.23
387.748	4.44
388.114	4.21
388.479	4.27
388.845	4.19
389.21	4.7
389.575	4.63
389.94	4.5
390.306	4.71
390.671	4.74
391.036	4.32
391.401	4.57
391.766	4.53
392.131	4.58
392.496	4.41
392.861	4.5
393.226	4.58
393.591	4.59
393.956	4.79
394.32	4.72
394.685	4.48
395.05	4.59
395.414	4.83
395.779	4.84
396.143	4.52
396.508	4.65
396.872	4.6
397.236	4.95
397.601	4.82
397.965	4.76
398.329	4.86
398.694	4.64
399.058	4.85
399.422	4.82
399.786	4.57
400.15	4.92
400.514	5.11
400.878	4.73
401.242	5.08
401.605	4.82
401.969	4.87
402.333	4.75
402.697	5.22
403.06	4.77
403.424	4.95
403.787	4.94
404.151	4.97
404.514	5.02
404.878	4.86
405.241	4.9
405.604	4.91
405.968	5.18
406.331	5.04
406.694	5.04
407.057	4.85
407.42	5.07
407.783	5.14
408.146	5.1
408.509	5.21
408.872	5.38
409.235	5.49
409.598	5.36
409.961	5.35
410.323	5.13
410.686	5.13
411.049	4.98
411.411	5.31
411.774	5.37
412.136	5.29
412.499	5.46
412.861	5.08
413.223	5.11
413.586	5.45
413.948	5.45
414.31	5.58
414.672	5.46
415.035	5.77
415.397	5.35
415.759	5.14
416.121	5.68
416.483	5.34
416.845	5.46
417.206	5.35
417.568	5.62
417.93	5.64
418.292	5.45
418.653	5.47
419.015	5.5
419.377	5.36
419.738	5.53
420.1	5.47
420.461	5.47
420.822	5.59
421.184	5.5
421.545	5.58
421.906	5.56
422.267	5.52
422.629	5.54
422.99	5.49
423.351	5.49
423.712	5.62
424.073	5.64
424.434	5.7
424.795	5.57
425.155	5.58
425.516	5.62
425.877	5.7
426.238	5.7
426.598	5.7
426.959	5.78
427.32	5.76
427.68	5.76
428.041	5.95
428.401	5.88
428.761	6.01
429.122	5.96
429.482	6.01
429.842	5.92
430.202	6.28
430.563	6.01
430.923	6.17
431.283	6.16
431.643	6.26
432.003	6.1
432.363	6.18
432.722	6.17
433.082	6.09
433.442	6.27
433.802	6.16
434.161	6.25
434.521	6.17
434.881	6.31
435.24	6.18
435.6	6.3
435.959	6.28
436.319	6.3
436.678	6.44
437.037	6.37
437.396	6.33
437.756	6.35
438.115	6.35
438.474	6.53
438.833	6.5
439.192	6.45
439.551	6.37
439.91	6.58
440.269	6.4
440.628	6.46
440.987	6.47
441.345	6.45
441.704	6.41
442.063	6.49
442.421	6.52
442.78	6.51
443.138	6.5
443.497	6.46
443.855	6.7
444.214	6.47
444.572	6.83
444.93	6.67
445.288	6.71
445.647	6.63
446.005	6.63
446.363	6.69
446.721	6.72
447.079	6.65
447.437	6.67
447.795	6.71
448.153	6.67
448.51	6.74
448.868	6.75
449.226	6.83
449.584	6.83
449.941	6.8
450.299	6.78
450.656	6.92
451.014	6.95
451.371	7.04
451.729	7.07
452.086	6.98
452.443	7.06
452.801	7.16
453.158	7.22
453.515	7.18
453.872	7.13
454.229	6.98
454.586	7.01
454.943	7.16
455.3	7.34
455.657	7.32
456.014	7.29
456.371	7.38
456.727	7.42
457.084	7.44
457.441	7.34
457.797	7.23
458.154	7.56
458.51	7.47
458.867	7.48
459.223	7.32
459.58	7.5
459.936	7.21
460.292	7.43
460.648	7.32
461.005	7.36
461.361	7.4
461.717	7.21
462.073	7.44
462.429	7.55
462.785	7.78
463.141	7.58
463.496	7.7
463.852	7.74
464.208	7.76
464.564	7.79
464.919	7.83
465.275	7.74
465.631	8.12
465.986	8.07
466.342	7.66
466.697	7.86
467.052	7.95
467.408	8.01
467.763	7.99
468.118	7.97
468.473	7.96
468.829	7.91
469.184	8.05
469.539	7.97
469.894	8.14
470.249	8.12
470.603	8.19
470.958	8.16
471.313	8.16
471.668	8.15
472.023	8.25
472.377	8.22
472.732	8.38
473.086	8.29
473.441	8.24
473.795	8.5
474.15	8.38
474.504	8.24
474.859	8.14
475.213	8.52
475.567	8.32
475.921	8.63
476.275	8.52
476.63	8.62
476.984	8.29
477.338	8.62
477.692	8.64
478.045	8.48
478.399	8.46
478.753	8.41
479.107	8.5
479.461	8.53
479.814	8.58
480.168	8.56
480.521	8.61
480.875	8.61
481.228	8.69
481.582	8.57
481.935	8.78
482.289	8.66
482.642	8.69
482.995	8.64
483.348	8.58
483.701	8.62
484.055	8.55
484.408	8.35
484.761	8.23
485.114	8.07
485.466	7.95
485.819	8.02
486.172	8.14
486.525	8.32
486.878	8.4
487.23	8.56
487.583	8.6
487.936	8.57
488.288	8.5
488.641	8.4
488.993	8.45
489.345	8.36
489.698	8.35
490.05	8.52
490.402	8.62
490.754	8.7
491.107	8.76
491.459	8.89
491.811	8.92
492.163	8.88
492.515	8.78
492.866	8.62
493.218	8.62
493.57	8.73
493.922	8.83
494.274	9.01
494.625	9.15
494.977	9.12
495.328	9.32
495.68	9.43
496.031	9.42
496.383	9.47
496.734	9.52
497.086	9.5
497.437	9.54
497.788	9.56
498.139	9.4
498.49	9.31
498.842	9.46
499.193	9.52
499.544	9.58
499.894	9.54
500.245	9.65
500.596	9.66
500.947	9.61
501.298	9.69
501.648	9.84
501.999	9.82
502.35	9.86
502.7	9.99
503.051	9.72
503.401	10.09
503.752	10.06
504.102	10.08
504.452	9.88
504.803	9.91
505.153	9.96
505.503	9.88
505.853	10.01
506.203	10.02
506.553	9.99
506.903	10.12
507.253	10.06
507.603	10.3
507.953	10.07
508.303	10.27
508.652	10.05
509.002	10.18
509.352	10.06
509.701	10.08
510.051	10.14
510.4	10.29
510.75	10.17
511.099	10.1
511.449	10.2
511.798	10.26
512.147	10.26
512.496	10.23
512.846	10.21
513.195	10.43
513.544	10.36
513.893	10.34
514.242	10.28
514.591	10.38
514.939	10.5
515.288	10.49
515.637	10.43
515.986	10.54
516.334	10.59
516.683	10.57
517.032	10.68
517.38	10.53
517.729	10.76
518.077	10.56
518.426	10.7
518.774	10.66
519.122	10.59
519.47	10.41
519.819	10.38
520.167	10.31
520.515	10.44
520.863	10.46
521.211	10.49
521.559	10.55
521.907	10.72
522.255	10.81
522.602	10.89
522.95	10.78
523.298	10.92
523.645	11.01
523.993	10.86
524.341	10.96
524.688	10.92
525.036	10.97
525.383	10.94
525.73	10.87
526.078	11.08
526.425	10.93
526.772	10.81
527.119	10.72
527.466	10.72
527.814	10.67
528.161	10.79
528.508	10.97
528.854	10.75
529.201	10.69
529.548	10.56
529.895	10.31
530.242	10.25
530.588	10.29
530.935	10.58
531.282	10.52
531.628	10.72
531.975	10.81
532.321	10.94
532.667	11.05
533.014	11.15
533.36	11.16
533.706	11.21
534.052	11.1
534.399	10.95
534.745	10.77
535.091	10.77
535.437	10.89
535.783	11
536.129	11.12
536.474	11.37
536.82	11.43
537.166	11.35
537.512	11.45
537.857	11.32
538.203	11.22
538.549	11.17
538.894	11.34
539.239	11.45
539.585	11.54
539.93	11.57
540.276	11.75
540.621	11.76
540.966	11.74
541.311	11.69
541.656	11.59
542.001	11.41
542.346	11.36
542.691	11.19
543.036	11.16
543.381	11.18
543.726	11.36
544.071	11.51
544.415	11.5
544.76	11.45
545.105	11.54
545.449	11.63
545.794	11.81
546.138	11.9
546.483	11.94
546.827	11.92
547.171	12.01
547.516	12.04
547.86	11.95
548.204	11.84
548.548	11.96
548.892	12.01
549.236	12.02
549.58	12.19
549.924	12.38
550.268	12.47
550.612	12.57
550.956	12.51
551.3	12.7
551.643	12.5
551.987	12.66
552.33	12.91
552.674	12.52
553.017	12.63
553.361	12.64
553.704	12.62
554.048	12.47
554.391	12.55
554.734	12.38
555.077	12.56
555.42	12.63
555.764	12.78
556.107	12.91
556.45	12.91
556.793	13.08
557.135	12.96
557.478	12.93
557.821	13
558.164	12.96
558.507	13.05
558.849	13.1
559.192	12.87
559.534	13.06
559.877	13.15
560.219	13.16
560.562	13.12
560.904	13.5
561.246	12.96
561.589	13.34
561.931	13.46
562.273	13.12
562.615	13.06
562.957	13.06
563.299	13.27
563.641	13.37
563.983	13.17
564.325	13.25
564.667	13.24
565.008	13.23
565.35	13.34
565.692	13.27
566.033	13.49
566.375	13.26
566.716	13.2
567.058	13.36
567.399	13.24
567.741	13.34
568.082	13.2
568.423	13.16
568.764	13.29
569.105	13.3
569.447	13.47
569.788	13.36
570.129	13.28
570.47	13.45
570.811	13.35
571.151	13.45
571.492	13.61
571.833	13.46
572.174	13.44
572.514	13.49
572.855	13.59
573.195	13.51
573.536	13.48
573.876	13.45
574.217	13.32
574.557	13.52
574.898	13.7
575.238	13.77
575.578	13.75
575.918	13.72
576.258	13.93
576.598	13.7
576.938	13.67
577.278	13.83
577.618	13.63
577.958	13.95
578.298	14.06
578.638	13.9
578.977	13.65
579.317	14.11
579.657	13.87
579.996	14.23
580.336	14.24
580.675	14.2
581.014	14.4
581.354	13.99
581.693	14.38
582.032	14.4
582.372	14.41
582.711	14.35
583.05	14.38
583.389	14.35
583.728	14.4
584.067	14.34
584.406	14.48
584.745	14.2
585.083	14.36
585.422	14.57
585.761	14.67
586.1	14.4
586.438	14.37
586.777	14.54
587.115	14.63
587.454	14.36
587.792	14.6
588.13	14.46
588.469	14.7
588.807	14.74
589.145	14.77
589.483	14.43
589.821	14.75
590.159	14.85
590.497	14.73
590.835	14.69
591.173	14.9
591.511	14.77
591.849	14.99
592.187	14.7
592.524	14.79
592.862	14.48
593.2	14.72
593.537	14.78
593.875	14.93
594.212	14.88
594.55	14.94
594.887	14.97
595.224	14.93
595.561	14.58
595.899	14.94
596.236	14.83
596.573	14.84
596.91	14.95
597.247	15.19
597.584	14.88
597.921	14.78
598.258	14.79
598.594	14.59
598.931	14.66
599.268	14.82
599.604	14.98
599.941	15.06
600.277	14.95
600.614	15.08
600.95	15.08
601.287	14.89
601.623	14.97
601.959	15.48
602.296	15.38
602.632	15.39
602.968	15.52
603.304	15.26
603.64	15.47
603.976	15.11
604.312	14.88
604.648	15.43
604.984	15.13
605.319	15.12
605.655	15.17
605.991	15.08
606.326	14.99
606.662	14.98
606.998	15.18
607.333	15.39
607.668	15.34
608.004	15.19
608.339	15.39
608.674	15.44
609.01	15.67
609.345	15.51
609.68	15.52
610.015	15.72
610.35	15.48
610.685	15.52
611.02	15.2
611.355	15.28
611.689	15.52
612.024	15.73
612.359	15.72
612.694	15.73
613.028	15.9
613.363	15.76
613.697	16.15
614.032	15.83
614.366	16.13
614.7	16.02
615.035	16.12
615.369	16.18
615.703	16.2
616.037	16.29
616.371	15.95
616.705	15.94
617.039	16.12
617.373	16.02
617.707	16.06
618.041	15.93
618.375	15.88
618.709	16.12
619.042	16.22
619.376	16.18
619.71	15.87
620.043	16.3
620.377	16.42
620.71	16.48
621.043	16.44
621.377	16.66
621.71	16.34
622.043	16.55
622.376	16.65
622.709	16.77
623.043	16.4
623.376	16.28
623.709	16.47
624.041	16.5
624.374	16.37
624.707	16.38
625.04	16.32
625.373	16.84
625.705	16.8
626.038	16.4
626.37	16.39
626.703	16.44
627.035	16.55
627.368	16.96
627.7	16.77
628.032	16.49
628.365	16.51
628.697	16.64
629.029	16.35
629.361	16.93
629.693	16.62
630.025	16.8
630.357	16.96
630.689	16.76
631.021	16.88
631.353	16.93
631.684	16.76
632.016	16.72
632.348	16.6
632.679	16.95
633.011	16.68
633.342	17
633.674	16.67
634.005	16.89
634.336	17.35
634.668	16.91
634.999	16.86
635.33	16.9
635.661	17.21
635.992	17.16
636.323	17.28
636.654	17.04
636.985	16.83
637.316	16.76
637.647	17.52
637.977	17.29
638.308	17.35
638.639	17.17
638.969	17.08
639.3	17.19
639.63	17.33
639.961	17.57
640.291	17.12
640.622	17.35
640.952	17.56
641.282	17.27
641.612	17.08
641.943	17.3
642.273	17.4
642.603	17.85
642.933	17.94
643.263	17.7
643.592	17.7
643.922	18.21
644.252	17.48
644.582	18.09
644.911	17.72
645.241	17.28
645.571	17.7
645.9	18.25
646.23	17.9
646.559	18.02
646.888	18.03
647.218	17.58
647.547	17.68
647.876	18.12
648.205	17.72
648.534	17.86
648.863	17.75
649.192	18.03
649.521	18.08
649.85	17.96
650.179	17.8
650.508	17.56
650.837	18.21
651.165	18.06
651.494	17.68
651.822	18.4
652.151	18.08
652.479	18.28
652.808	18.51
653.136	17.79
653.465	17.89
653.793	18.14
654.121	17.71
654.449	17.73
654.777	17.6
655.105	17.53
655.433	18.09
655.761	17.87
656.089	18.22
656.417	18.38
656.745	18.34
657.073	18.52
657.4	18.06
657.728	17.88
658.056	18.2
658.383	17.7
658.711	17.82
659.038	18.19
659.365	18.47
659.693	18.41
660.02	18.21
660.347	18.04
660.674	18.1
661.001	17.86
661.329	18.18
661.656	17.83
661.982	18.25
662.309	18.29
662.636	18.22
662.963	18.25
663.29	18.91
663.616	18.17
663.943	18.44
664.27	18.65
664.596	18.31
664.923	18.81
665.249	18.69
665.576	18.63
665.902	18.56
666.228	18.68
666.554	19.4
666.881	18.11
667.207	18.79
667.533	18.61
667.859	18.66
668.185	18.59
668.511	18.83
668.837	18.37
669.162	19.17
669.488	17.99
669.814	18.68
670.139	18.63
670.465	19.18
670.791	18.27
671.116	18.44
671.442	18.65
671.767	18.97
672.092	18.9
672.418	19.18
672.743	18.55
673.068	18.52
673.393	18.57
673.718	18.54
674.043	18.74
674.368	18.92
674.693	19
675.018	19.61
675.343	19.15
675.667	19.31
675.992	18.63
676.317	18.88
676.641	19.61
676.966	19.09
677.29	18.34
677.615	18.87
677.939	19.68
678.264	19.04
678.588	19.52
678.912	19.04
679.236	19.03
679.56	18.8
