Data from 0008_crown_Reflection__3__355.txt Node

Date: Thu Dec 15 19:24:20 CST 2022
User: ToomeyLab
Spectrometer: FLMS14357
Trigger mode: 0
Integration Time (sec): 1.000000E-2
Scans to average: 100
Electric dark correction enabled: true
Nonlinearity correction enabled: false
Boxcar width: 0
XAxis mode: Wavelengths
Number of Pixels in Spectrum: 2048
>>>>>Begin Spectral Data<<<<<
189.047	962.98
189.435	962.98
189.823	962.98
190.211	-355.27
190.599	9.07
190.987	3.47
191.375	-10.51
191.763	1070.27
192.151	28.02
192.538	63.03
192.926	-1046.04
193.314	701.34
193.702	53.47
194.089	124.71
194.477	-12.93
194.864	79.56
195.252	63.28
195.639	61.95
196.027	168.25
196.414	117.17
196.801	104.31
197.189	283.1
197.576	-264.45
197.963	18.42
198.351	-7.94
198.738	-63.83
199.125	-53.28
199.512	5.66
199.899	-56.39
200.286	-55.22
200.673	33.88
201.06	9.14
201.447	52.85
201.833	-25.33
202.22	-29.17
202.607	-65.19
202.994	-5.31
203.38	8.78
203.767	-27.38
204.154	-14.67
204.54	3.79
204.927	-13.45
205.313	28.12
205.699	-17.85
206.086	19.73
206.472	15.7
206.858	42.5
207.245	-18.38
207.631	-9.56
208.017	61.1
208.403	-70.49
208.789	-8.25
209.175	-63.29
209.561	-65.41
209.947	-16.65
210.333	6.56
210.719	14.8
211.105	16.84
211.491	12.64
211.876	-18.54
212.262	-1.38
212.648	-15.92
213.034	-11.81
213.419	38.55
213.805	-10.12
214.19	-36.55
214.576	-15.7
214.961	6.13
215.346	-29.45
215.732	-14.59
216.117	-26.43
216.502	-34.53
216.888	2.34
217.273	-12.2
217.658	-32.18
218.043	-48.07
218.428	-2.09
218.813	1.79
219.198	-80.53
219.583	4.59
219.968	-17.32
220.353	-16.67
220.738	-0.69
221.122	-15.86
221.507	0.4
221.892	-58.01
222.276	-46.78
222.661	3.67
223.046	-10.58
223.43	11.96
223.815	4.55
224.199	-0.84
224.583	0.89
224.968	6.86
225.352	-11.73
225.736	12.75
226.121	7.05
226.505	-12.13
226.889	5.48
227.273	2.48
227.657	8.03
228.041	6.26
228.425	3.22
228.809	4.3
229.193	7.04
229.577	5.93
229.961	5.61
230.344	7.47
230.728	8.8
231.112	8.41
231.495	4.02
231.879	5.71
232.263	7.06
232.646	6.61
233.03	8.52
233.413	6.92
233.797	6.34
234.18	7.4
234.563	8.22
234.946	5.02
235.33	6.44
235.713	7.76
236.096	6.75
236.479	5.85
236.862	6.43
237.245	5.33
237.628	6.32
238.011	5.19
238.394	7.76
238.777	6.72
239.16	6.36
239.543	8.09
239.925	5.84
240.308	6.07
240.691	7.47
241.073	5.66
241.456	7.55
241.838	6.78
242.221	5.63
242.603	6.69
242.986	6.43
243.368	6.71
243.75	6.81
244.133	7.14
244.515	7.31
244.897	6.6
245.279	6.68
245.661	6.2
246.043	6.8
246.425	6.36
246.807	6.21
247.189	6.16
247.571	6.29
247.953	6.37
248.335	6.76
248.717	6.88
249.098	6.85
249.48	6.53
249.862	7.09
250.243	6.91
250.625	6.94
251.006	7.35
251.388	6.52
251.769	7.02
252.151	6.66
252.532	6.31
252.913	6.35
253.295	6.19
253.676	6.35
254.057	6.59
254.438	6.36
254.819	6.56
255.2	6.23
255.581	6.68
255.962	6.83
256.343	5.55
256.724	6.75
257.105	5.05
257.486	4.77
257.867	5.45
258.247	6.93
258.628	6.54
259.009	5.21
259.389	5.84
259.77	6.14
260.15	6.39
260.531	6.22
260.911	6.22
261.292	6.19
261.672	6.25
262.052	6.36
262.432	5.91
262.813	6.09
263.193	6.11
263.573	5.86
263.953	6.19
264.333	6.22
264.713	6.33
265.093	5.28
265.473	5.52
265.853	6.33
266.233	5.71
266.612	5
266.992	5.98
267.372	5.76
267.752	6.65
268.131	6.1
268.511	5.99
268.89	6.18
269.27	5.62
269.649	6.03
270.029	5.67
270.408	5.49
270.787	6.1
271.167	6.43
271.546	5.93
271.925	5.89
272.304	5.65
272.683	5.86
273.062	5.72
273.441	5.6
273.82	5.64
274.199	5.86
274.578	6.03
274.957	5.7
275.336	5.54
275.715	6.25
276.093	5.18
276.472	5.53
276.851	5.63
277.229	5.25
277.608	5.08
277.986	5.41
278.365	6.1
278.743	5.89
279.122	4.78
279.5	5.59
279.878	5.71
280.257	5.06
280.635	5.45
281.013	5.31
281.391	5.68
281.769	5.55
282.147	5.48
282.525	5.02
282.903	5.61
283.281	6.22
283.659	5.59
284.037	5.47
284.415	5.04
284.792	5.29
285.17	5.4
285.548	5.11
285.925	5.24
286.303	6.23
286.68	5.72
287.058	5.76
287.435	5.2
287.813	5.35
288.19	5.27
288.567	4.93
288.945	5.14
289.322	5.6
289.699	5.46
290.076	5.1
290.453	4.94
290.83	5.39
291.207	5.38
291.584	5.73
291.961	5.5
292.338	5.07
292.715	5.19
293.092	5.6
293.469	5.48
293.845	5.22
294.222	5.79
294.599	4.86
294.975	5.11
295.352	5.31
295.728	5.28
296.105	4.85
296.481	5.24
296.858	5.45
297.234	4.6
297.61	5.19
297.986	5.55
298.363	5.17
298.739	5.49
299.115	5.31
299.491	5.31
299.867	5.31
300.243	4.34
300.619	5.32
300.995	5.25
301.371	5.54
301.746	5.59
302.122	4.66
302.498	4.53
302.874	5.41
303.249	4.3
303.625	4.3
304	4.72
304.376	5.14
304.751	4.93
305.127	4.87
305.502	5.05
305.878	4.88
306.253	4.85
306.628	4.94
307.003	4.32
307.378	4.61
307.754	5.06
308.129	4.36
308.504	5.56
308.879	4.56
309.254	5.38
309.629	5.1
310.003	4.86
310.378	5.15
310.753	5.18
311.128	4.89
311.502	4.73
311.877	4.79
312.252	5.29
312.626	5
313.001	4.78
313.375	4.82
313.75	4.88
314.124	4.99
314.498	5.16
314.873	4.52
315.247	4.74
315.621	4.68
315.995	4.64
316.369	4.54
316.743	4.38
317.117	4.43
317.491	5.18
317.865	4.09
318.239	5.48
318.613	4.33
318.987	4.11
319.361	4.83
319.734	4.32
320.108	4.36
320.482	4.68
320.855	4.59
321.229	4.43
321.602	4.75
321.976	3.6
322.349	4.97
322.723	4.74
323.096	4.94
323.469	4.51
323.843	4.19
324.216	4.87
324.589	4.52
324.962	4.4
325.335	4.38
325.708	4.43
326.081	4.35
326.454	4.6
326.827	4.59
327.2	4.52
327.573	4.84
327.945	4.19
328.318	4.08
328.691	4.69
329.063	4.55
329.436	4.03
329.809	4.4
330.181	5.15
330.553	4.85
330.926	4.39
331.298	4.54
331.671	4.52
332.043	4.04
332.415	4.82
332.787	4.72
333.159	4.01
333.532	4.49
333.904	4.94
334.276	4.48
334.648	4.72
335.02	4.49
335.391	4.43
335.763	4.37
336.135	4.65
336.507	4.28
336.879	4.22
337.25	4.31
337.622	4.78
337.993	4.41
338.365	4.45
338.736	4.38
339.108	4.48
339.479	4.38
339.851	4.28
340.222	4.88
340.593	4.49
340.964	4.62
341.336	4.47
341.707	4.42
342.078	4.33
342.449	4.53
342.82	4.49
343.191	4.69
343.562	4.46
343.933	4.49
344.303	4.88
344.674	4.46
345.045	4.21
345.416	4.85
345.786	4.63
346.157	4.62
346.527	4.45
346.898	4.38
347.268	4.58
347.639	4.58
348.009	4.54
348.38	4.16
348.75	4.57
349.12	4.48
349.49	4.8
349.861	4.83
350.231	4.41
350.601	4.29
350.971	4.36
351.341	4.52
351.711	4.47
352.081	4.13
352.45	3.78
352.82	3.81
353.19	4.36
353.56	4.6
353.929	4.57
354.299	4.65
354.669	4.83
355.038	4.8
355.408	4.68
355.777	4.74
356.147	4.64
356.516	4.44
356.885	4.26
357.254	4.7
357.624	4.07
357.993	4.51
358.362	4.56
358.731	4.92
359.1	4.72
359.469	4.78
359.838	4.52
360.207	4.58
360.576	4.93
360.945	4.66
361.314	4.33
361.682	4.39
362.051	4.7
362.42	4.58
362.788	4.72
363.157	4.54
363.525	4.79
363.894	4.36
364.262	4.73
364.631	4.66
364.999	4.34
365.367	4.63
365.735	4.46
366.104	4.59
366.472	4.8
366.84	4.61
367.208	4.79
367.576	4.53
367.944	4.83
368.312	4.43
368.68	4.85
369.048	4.77
369.416	4.62
369.783	4.28
370.151	4.87
370.519	4.82
370.886	4.79
371.254	4.77
371.621	4.85
371.989	4.83
372.356	5
372.724	4.71
373.091	4.32
373.458	4.39
373.826	4.93
374.193	4.59
374.56	4.78
374.927	4.8
375.294	4.81
375.661	4.62
376.028	4.65
376.395	5.06
376.762	4.52
377.129	4.52
377.496	4.58
377.863	4.76
378.229	4.85
378.596	4.7
378.963	4.99
379.329	4.84
379.696	4.63
380.062	4.6
380.429	4.78
380.795	4.86
381.161	4.36
381.528	4.3
381.894	4.75
382.26	4.87
382.626	4.78
382.993	4.97
383.359	4.62
383.725	4.57
384.091	4.94
384.457	4.63
384.823	4.83
385.188	4.64
385.554	4.89
385.92	4.63
386.286	4.78
386.651	4.96
387.017	5.08
387.383	4.78
387.748	4.69
388.114	4.94
388.479	4.73
388.845	4.77
389.21	5.3
389.575	5.24
389.94	5.08
390.306	5
390.671	4.87
391.036	4.72
391.401	4.9
391.766	4.83
392.131	5.19
392.496	4.94
392.861	4.8
393.226	4.93
393.591	4.98
393.956	4.91
394.32	4.99
394.685	4.87
395.05	5.11
395.414	5.22
395.779	5.04
396.143	4.82
396.508	4.92
396.872	4.95
397.236	5.13
397.601	5.15
397.965	5.02
398.329	4.84
398.694	4.89
399.058	4.73
399.422	4.83
399.786	4.96
400.15	5
400.514	4.94
400.878	5.07
401.242	4.98
401.605	4.86
401.969	5.02
402.333	4.87
402.697	5.18
403.06	5.24
403.424	5.25
403.787	4.88
404.151	5.03
404.514	4.93
404.878	4.88
405.241	5.07
405.604	5.1
405.968	5.15
406.331	5.16
406.694	5.14
407.057	4.95
407.42	5.04
407.783	5.28
408.146	4.89
408.509	5.17
408.872	5.11
409.235	5.27
409.598	5.06
409.961	5.33
410.323	5.1
410.686	4.95
411.049	5.28
411.411	5.09
411.774	5.15
412.136	5.11
412.499	5.13
412.861	4.82
413.223	4.99
413.586	5.19
413.948	5.28
414.31	5.1
414.672	5.12
415.035	5.47
415.397	5.12
415.759	4.85
416.121	5.14
416.483	5.01
416.845	5.12
417.206	5.13
417.568	5.11
417.93	5.08
418.292	5.09
418.653	5.05
419.015	5.26
419.377	5.16
419.738	5.2
420.1	5.07
420.461	5.05
420.822	5.21
421.184	5.04
421.545	5.17
421.906	5.15
422.267	5.12
422.629	5.14
422.99	5.1
423.351	5.08
423.712	5.14
424.073	5.16
424.434	5.19
424.795	5.1
425.155	5.14
425.516	5.04
425.877	5.24
426.238	5.15
426.598	5.17
426.959	5.25
427.32	5.17
427.68	5.16
428.041	5.24
428.401	5.17
428.761	5.38
429.122	5.18
429.482	5.26
429.842	5.26
430.202	5.27
430.563	5.25
430.923	5.19
431.283	5.43
431.643	5.43
432.003	5.33
432.363	5.45
432.722	5.29
433.082	5.19
433.442	5.49
433.802	5.17
434.161	5.3
434.521	5.22
434.881	5.36
435.24	5.3
435.6	5.32
435.959	5.31
436.319	5.26
436.678	5.52
437.037	5.23
437.396	5.43
437.756	5.22
438.115	5.32
438.474	5.37
438.833	5.51
439.192	5.32
439.551	5.27
439.91	5.33
440.269	5.35
440.628	5.17
440.987	5.38
441.345	5.35
441.704	5.32
442.063	5.3
442.421	5.24
442.78	5.35
443.138	5.38
443.497	5.29
443.855	5.42
444.214	5.38
444.572	5.41
444.93	5.36
445.288	5.4
445.647	5.3
446.005	5.44
446.363	5.37
446.721	5.41
447.079	5.3
447.437	5.39
447.795	5.28
448.153	5.4
448.51	5.4
448.868	5.36
449.226	5.41
449.584	5.25
449.941	5.43
450.299	5.38
450.656	5.4
451.014	5.42
451.371	5.54
451.729	5.54
452.086	5.39
452.443	5.45
452.801	5.49
453.158	5.7
453.515	5.44
453.872	5.41
454.229	5.33
454.586	5.39
454.943	5.45
455.3	5.53
455.657	5.37
456.014	5.54
456.371	5.54
456.727	5.57
457.084	5.64
457.441	5.55
457.797	5.57
458.154	5.47
458.51	5.43
458.867	5.4
459.223	5.38
459.58	5.53
459.936	5.48
460.292	5.57
460.648	5.38
461.005	5.44
461.361	5.43
461.717	5.5
462.073	5.57
462.429	5.58
462.785	5.62
463.141	5.45
463.496	5.54
463.852	5.56
464.208	5.46
464.564	5.45
464.919	5.65
465.275	5.57
465.631	5.78
465.986	5.52
466.342	5.46
466.697	5.51
467.052	5.66
467.408	5.7
467.763	5.45
468.118	5.4
468.473	5.51
468.829	5.46
469.184	5.61
469.539	5.45
469.894	5.59
470.249	5.61
470.603	5.68
470.958	5.66
471.313	5.72
471.668	5.65
472.023	5.64
472.377	5.7
472.732	5.69
473.086	5.42
473.441	5.63
473.795	5.82
474.15	5.59
474.504	5.66
474.859	5.58
475.213	5.73
475.567	5.56
475.921	5.68
476.275	5.66
476.63	5.86
476.984	5.52
477.338	5.82
477.692	5.67
478.045	5.73
478.399	5.71
478.753	5.69
479.107	5.77
479.461	5.62
479.814	5.69
480.168	5.69
480.521	5.64
480.875	5.74
481.228	5.75
481.582	5.64
481.935	5.84
482.289	5.69
482.642	5.85
482.995	5.61
483.348	5.7
483.701	5.68
484.055	5.67
484.408	5.64
484.761	5.47
485.114	5.43
485.466	5.44
485.819	5.45
486.172	5.47
486.525	5.48
486.878	5.52
487.23	5.53
487.583	5.62
487.936	5.55
488.288	5.62
488.641	5.57
488.993	5.52
489.345	5.48
489.698	5.47
490.05	5.48
490.402	5.53
490.754	5.6
491.107	5.61
491.459	5.68
491.811	5.63
492.163	5.65
492.515	5.59
492.866	5.58
493.218	5.61
493.57	5.67
493.922	5.59
494.274	5.67
494.625	5.75
494.977	5.72
495.328	5.83
495.68	5.75
496.031	5.81
496.383	5.75
496.734	5.87
497.086	5.83
497.437	5.86
497.788	5.86
498.139	5.79
498.49	5.81
498.842	5.81
499.193	5.68
499.544	5.91
499.894	5.86
500.245	5.99
500.596	5.83
500.947	5.74
501.298	5.89
501.648	5.93
501.999	5.85
502.35	5.72
502.7	6.14
503.051	5.78
503.401	6
503.752	5.82
504.102	5.81
504.452	5.8
504.803	5.76
505.153	6.03
505.503	5.86
505.853	6.09
506.203	5.94
506.553	5.92
506.903	6.04
507.253	5.94
507.603	5.89
507.953	5.82
508.303	5.99
508.652	5.82
509.002	5.97
509.352	6.05
509.701	5.88
510.051	5.98
510.4	5.97
510.75	5.89
511.099	5.83
511.449	5.86
511.798	5.89
512.147	5.8
512.496	5.94
512.846	5.92
513.195	5.95
513.544	6.04
513.893	5.93
514.242	5.95
514.591	5.96
514.939	6.05
515.288	6.09
515.637	5.94
515.986	6.02
516.334	6.02
516.683	5.88
517.032	5.99
517.38	5.97
517.729	5.93
518.077	6.02
518.426	6.16
518.774	5.98
519.122	6.05
519.47	5.96
519.819	5.97
520.167	5.98
520.515	6.02
520.863	5.98
521.211	5.92
521.559	5.94
521.907	5.93
522.255	5.99
522.602	6.05
522.95	6.04
523.298	6.14
523.645	6.04
523.993	6.1
524.341	5.96
524.688	5.99
525.036	6.04
525.383	6.15
525.73	6.02
526.078	6.14
526.425	6.1
526.772	6.11
527.119	6.06
527.466	6.06
527.814	5.98
528.161	6.06
528.508	6.1
528.854	5.94
529.201	5.96
529.548	5.91
529.895	5.87
530.242	5.85
530.588	5.86
530.935	5.9
531.282	5.81
531.628	5.92
531.975	5.87
532.321	6.02
532.667	6.08
533.014	6.05
533.36	6.08
533.706	6.1
534.052	6.02
534.399	6.06
534.745	6.02
535.091	5.99
535.437	6.06
535.783	5.99
536.129	6.01
536.474	6.16
536.82	6.16
537.166	6.1
537.512	6.12
537.857	6.18
538.203	6.09
538.549	6.09
538.894	6.16
539.239	6.12
539.585	6.08
539.93	6.21
540.276	6.14
540.621	6.29
540.966	6.25
541.311	6.23
541.656	6.17
542.001	6.18
542.346	6.13
542.691	6.01
543.036	6.1
543.381	5.95
543.726	6.14
544.071	6.12
544.415	6.04
544.76	6.16
545.105	6.15
545.449	6.13
545.794	6.16
546.138	6.17
546.483	6.25
546.827	6.27
547.171	6.18
547.516	6.23
547.86	6.27
548.204	6.29
548.548	6.21
548.892	6.3
549.236	6.19
549.58	6.24
549.924	6.29
550.268	6.39
550.612	6.3
550.956	6.34
551.3	6.45
551.643	6.24
551.987	6.37
552.33	6.48
552.674	6.39
553.017	6.52
553.361	6.5
553.704	6.4
554.048	6.38
554.391	6.44
554.734	6.36
555.077	6.32
555.42	6.36
555.764	6.42
556.107	6.45
556.45	6.48
556.793	6.44
557.135	6.35
557.478	6.32
557.821	6.33
558.164	6.41
558.507	6.17
558.849	6.54
559.192	6.47
559.534	6.35
559.877	6.35
560.219	6.49
560.562	6.33
560.904	6.59
561.246	6.27
561.589	6.53
561.931	6.41
562.273	6.43
562.615	6.51
562.957	6.4
563.299	6.52
563.641	6.65
563.983	6.28
564.325	6.54
564.667	6.62
565.008	6.41
565.35	6.33
565.692	6.46
566.033	6.44
566.375	6.44
566.716	6.31
567.058	6.54
567.399	6.57
567.741	6.57
568.082	6.5
568.423	6.43
568.764	6.4
569.105	6.48
569.447	6.27
569.788	6.51
570.129	6.62
570.47	6.5
570.811	6.46
571.151	6.4
571.492	6.5
571.833	6.46
572.174	6.59
572.514	6.49
572.855	6.66
573.195	6.51
573.536	6.61
573.876	6.5
574.217	6.51
574.557	6.45
574.898	6.6
575.238	6.65
575.578	6.57
575.918	6.6
576.258	6.74
576.598	6.53
576.938	6.43
577.278	6.56
577.618	6.4
577.958	6.58
578.298	6.52
578.638	6.49
578.977	6.51
579.317	6.54
579.657	6.65
579.996	6.64
580.336	6.74
580.675	6.55
581.014	6.56
581.354	6.62
581.693	6.6
582.032	6.72
582.372	6.58
582.711	6.62
583.05	6.77
583.389	6.78
583.728	6.58
584.067	6.53
584.406	6.64
584.745	6.58
585.083	6.49
585.422	6.84
585.761	6.8
586.1	6.87
586.438	6.51
586.777	6.68
587.115	6.83
587.454	6.51
587.792	6.63
588.13	6.59
588.469	6.37
588.807	6.83
589.145	6.66
589.483	6.39
589.821	6.56
590.159	6.67
590.497	6.83
590.835	6.74
591.173	6.93
591.511	6.96
591.849	6.61
592.187	6.69
592.524	6.9
592.862	6.32
593.2	6.72
593.537	6.65
593.875	6.96
594.212	6.76
594.55	6.68
594.887	6.73
595.224	7
595.561	6.68
595.899	6.95
596.236	6.91
596.573	6.53
596.91	6.6
597.247	6.87
597.584	6.86
597.921	6.91
598.258	6.78
598.594	6.73
598.931	6.68
599.268	6.69
599.604	6.85
599.941	6.65
600.277	6.65
600.614	6.84
600.95	6.66
601.287	6.41
601.623	6.4
601.959	6.89
602.296	6.88
602.632	6.82
602.968	6.73
603.304	6.85
603.64	6.9
603.976	6.62
604.312	6.61
604.648	6.86
604.984	6.9
605.319	6.87
605.655	6.75
605.991	6.69
606.326	6.79
606.662	6.61
606.998	7.04
607.333	6.72
607.668	6.7
608.004	6.78
608.339	6.6
608.674	6.9
609.01	6.97
609.345	6.85
609.68	6.73
610.015	6.94
610.35	6.94
610.685	6.63
611.02	6.62
611.355	6.81
611.689	6.94
612.024	6.78
612.359	6.77
612.694	7.05
613.028	6.76
613.363	6.86
613.697	7
614.032	6.73
614.366	6.68
614.7	6.95
615.035	6.98
615.369	6.9
615.703	7.31
616.037	6.75
616.371	6.92
616.705	6.95
617.039	7.07
617.373	6.84
617.707	6.96
618.041	6.63
618.375	6.12
618.709	7.1
619.042	7.18
619.376	6.95
619.71	6.82
620.043	7.27
620.377	6.96
620.71	6.7
621.043	7.01
621.377	7.01
621.71	7.09
622.043	6.71
622.376	6.97
622.709	7.2
623.043	6.75
623.376	6.61
623.709	7.22
624.041	6.89
624.374	7.25
624.707	6.81
625.04	6.75
625.373	7.16
625.705	6.99
626.038	7.13
626.37	6.92
626.703	7.13
627.035	6.87
627.368	7.35
627.7	7.08
628.032	6.97
628.365	7.11
628.697	7.21
629.029	7.11
629.361	7.19
629.693	7.09
630.025	7.01
630.357	7.17
630.689	7.17
631.021	7.3
631.353	7.3
631.684	7
632.016	6.85
632.348	6.88
632.679	7.06
633.011	6.92
633.342	7.27
633.674	6.83
634.005	7.1
634.336	7.3
634.668	7.03
634.999	7.17
635.33	6.94
635.661	7.07
635.992	7.24
636.323	7.12
636.654	7.12
636.985	6.82
637.316	6.91
637.647	7.34
637.977	6.92
638.308	7.23
638.639	7.03
638.969	6.85
639.3	7.05
639.63	6.96
639.961	7.24
640.291	6.92
640.622	7.29
640.952	7.38
641.282	6.98
641.612	6.82
641.943	7.14
642.273	7.28
642.603	7.33
642.933	7.45
643.263	7.45
643.592	7.54
643.922	7.23
644.252	7.17
644.582	7.3
644.911	7.41
645.241	7.42
645.571	7.16
645.9	7.3
646.23	7.27
646.559	6.98
646.888	7.58
647.218	7.28
647.547	7.16
647.876	6.84
648.205	7.19
648.534	7.56
648.863	7.35
649.192	7.32
649.521	7.22
649.85	7.39
650.179	7.76
650.508	6.61
650.837	7.5
651.165	7.28
651.494	6.95
651.822	7.84
652.151	7.24
652.479	7.77
652.808	7.09
653.136	7.06
653.465	7.3
653.793	7.12
654.121	7.08
654.449	7.1
654.777	7.15
655.105	6.85
655.433	7.65
655.761	7.74
656.089	7.26
656.417	7.82
656.745	8.02
657.073	7.46
657.4	7.18
657.728	7.21
658.056	7.32
658.383	7.11
658.711	7.5
659.038	7.88
659.365	7.63
659.693	7.43
660.02	7.31
660.347	7.09
660.674	7.22
661.001	7.42
661.329	7.49
661.656	7
661.982	7.23
662.309	7.28
662.636	7.18
662.963	7.4
663.29	7.24
663.616	7.24
663.943	7.13
664.27	7.45
664.596	7.31
664.923	7.55
665.249	7.61
665.576	7.21
665.902	7.04
666.228	7.96
666.554	7.76
666.881	7.13
667.207	7.48
667.533	7.25
667.859	6.84
668.185	7.46
668.511	7.85
668.837	7.4
669.162	7.62
669.488	6.97
669.814	7.59
670.139	6.63
670.465	8.03
670.791	7.07
671.116	7.57
671.442	6.98
671.767	6.94
672.092	7.48
672.418	7.67
672.743	6.97
673.068	7.34
673.393	7.31
673.718	6.97
674.043	7.58
674.368	7.88
674.693	7.61
675.018	7.31
675.343	7.75
675.667	7.62
675.992	7.48
676.317	6.59
676.641	7.03
676.966	7.76
677.29	7.51
677.615	7.33
677.939	7.83
678.264	6.94
678.588	7.75
678.912	7.84
679.236	8.14
679.56	7.17
679.885	7.64
680.209	7.77
680.532	7.87
680.856	7.59
681.18	8.26
681.504	7.7
681.828	7.46
682.152	7.32
682.475	7.89
682.799	7.68
683.122	7.65
683.446	7.13
683.769	7.99
684.093	7.91
684.416	7.49
684.739	7.32
685.062	7.68
685.386	7.98
685.709	7.77
686.032	7.41
686.355	7.1
686.678	7.84
687.001	7.52
687.324	7.66
687.646	7.97
687.969	7.35
688.292	7.63
688.614	8.38
688.937	7.86
689.26	7.67
689.582	7.76
689.904	7.7
690.227	7.88
690.549	7.82
690.871	6.92
691.194	7.65
691.516	8.37
691.838	8
692.16	7.6
