Data from 0008_chest_Reflection__2__349.txt Node

Date: Thu Dec 15 19:22:25 CST 2022
User: ToomeyLab
Spectrometer: FLMS14357
Trigger mode: 0
Integration Time (sec): 1.000000E-2
Scans to average: 100
Electric dark correction enabled: true
Nonlinearity correction enabled: false
Boxcar width: 0
XAxis mode: Wavelengths
Number of Pixels in Spectrum: 2048
>>>>>Begin Spectral Data<<<<<
189.047	200.48
189.435	200.48
189.823	200.48
190.211	-386.4
190.599	-0.01
190.987	-17.84
191.375	-196.34
191.763	818.37
192.151	72.13
192.538	37.63
192.926	-763.13
193.314	1657.59
193.702	98.55
194.089	-40.51
194.477	73.33
194.864	82.66
195.252	305.71
195.639	72.71
196.027	11.64
196.414	-13
196.801	241.98
197.189	477.08
197.576	152.62
197.963	222.55
198.351	2.92
198.738	-34.88
199.125	-166.09
199.512	-20.08
199.899	-79.04
200.286	-141.59
200.673	16.04
201.06	-76.71
201.447	-51.62
201.833	-23.87
202.22	-18.62
202.607	-152.74
202.994	8.51
203.38	-17.89
203.767	-47.86
204.154	-0.01
204.54	3.7
204.927	-46.49
205.313	9.88
205.699	24.57
206.086	14.55
206.472	-1.73
206.858	-39.94
207.245	-10.39
207.631	-97.65
208.017	22.13
208.403	-90.9
208.789	-42.36
209.175	-39.39
209.561	-110.26
209.947	-1.31
210.333	-56.67
210.719	-23.71
211.105	8.47
211.491	-41.35
211.876	-38.11
212.262	12.52
212.648	-26.37
213.034	-59.35
213.419	-18.34
213.805	-66.86
214.19	-68.53
214.576	-51.71
214.961	7.11
215.346	-23.18
215.732	-10.87
216.117	-7.7
216.502	-42.46
216.888	1.59
217.273	-30.5
217.658	-40.13
218.043	-10.58
218.428	-5.75
218.813	-1.96
219.198	-84.44
219.583	-53.35
219.968	-8.54
220.353	-37.65
220.738	-18.75
221.122	-33.01
221.507	-22.79
221.892	-66.63
222.276	-48.84
222.661	-10.92
223.046	-18.46
223.43	10.57
223.815	-10.18
224.199	-9.58
224.583	-18.34
224.968	-6.64
225.352	-15.85
225.736	1.72
226.121	-16.14
226.505	-10.96
226.889	1.35
227.273	-13.17
227.657	6.16
228.041	0.92
228.425	-0.78
228.809	-0.25
229.193	1.7
229.577	0.02
229.961	1.77
230.344	2.69
230.728	3.41
231.112	2.92
231.495	-0.22
231.879	0.32
232.263	2.34
232.646	-0.49
233.03	2.85
233.413	-1.09
233.797	-1.07
234.18	-2.25
234.563	2.04
234.946	-0.1
235.33	0.36
235.713	1.07
236.096	3.84
236.479	2.08
236.862	0.34
237.245	0.97
237.628	0.55
238.011	1.64
238.394	1.39
238.777	-0.73
239.16	2.1
239.543	3.59
239.925	1.76
240.308	2.18
240.691	0.76
241.073	0.98
241.456	1.08
241.838	1.7
242.221	1.62
242.603	2.97
242.986	2
243.368	2.19
243.75	2.54
244.133	2.56
244.515	2.38
244.897	2.11
245.279	1.68
245.661	1.91
246.043	1.29
246.425	1.77
246.807	2.23
247.189	2.21
247.571	1.67
247.953	1.85
248.335	2.39
248.717	2.52
249.098	2.5
249.48	2.12
249.862	2.45
250.243	2.48
250.625	2.78
251.006	3.03
251.388	2.27
251.769	1.23
252.151	1.63
252.532	1.78
252.913	2.08
253.295	1.74
253.676	2.36
254.057	1.98
254.438	1.58
254.819	1.92
255.2	1.71
255.581	1.45
255.962	2.5
256.343	1.87
256.724	1.38
257.105	1.81
257.486	1.09
257.867	0.16
258.247	1.17
258.628	2.87
259.009	1.3
259.389	1.71
259.77	1.61
260.15	2.37
260.531	2
260.911	2.22
261.292	2.14
261.672	2.33
262.052	2.54
262.432	2.12
262.813	1.84
263.193	2.2
263.573	2.49
263.953	1.34
264.333	1.81
264.713	2.17
265.093	2.26
265.473	1.25
265.853	1.76
266.233	2.82
266.612	0.98
266.992	2.19
267.372	2.04
267.752	3.04
268.131	2.2
268.511	2.31
268.89	2.55
269.27	1.78
269.649	1.58
270.029	1.62
270.408	1.83
270.787	1.99
271.167	2.4
271.546	2.61
271.925	2.22
272.304	1.88
272.683	1.91
273.062	1.95
273.441	1.81
273.82	1.71
274.199	1.81
274.578	2.15
274.957	1.78
275.336	1.92
275.715	2.15
276.093	0.96
276.472	1.32
276.851	1.96
277.229	1.9
277.608	1.21
277.986	2.04
278.365	2.7
278.743	1.91
279.122	1.89
279.5	1.8
279.878	1.02
280.257	1.98
280.635	1.97
281.013	1.39
281.391	1.63
281.769	2.57
282.147	1.52
282.525	1.95
282.903	1.57
283.281	2.3
283.659	2.34
284.037	2.06
284.415	1.52
284.792	2.08
285.17	1.74
285.548	1.81
285.925	1.87
286.303	2.54
286.68	1.94
287.058	2.36
287.435	2.12
287.813	2.19
288.19	1.9
288.567	1.88
288.945	1.36
289.322	2.02
289.699	2.08
290.076	1.93
290.453	1.55
290.83	1.99
291.207	2.01
291.584	2.42
291.961	2.12
292.338	2.23
292.715	1.99
293.092	2.49
293.469	1.93
293.845	1.71
294.222	2.34
294.599	1.8
294.975	1.6
295.352	2.07
295.728	2.05
296.105	2.2
296.481	2.11
296.858	2.51
297.234	1.63
297.61	2.18
297.986	2.7
298.363	2.42
298.739	2.19
299.115	2.22
299.491	2.62
299.867	2.16
300.243	1.99
300.619	1.81
300.995	2.16
301.371	2.27
301.746	2.33
302.122	1.5
302.498	1.79
302.874	1.95
303.249	2.12
303.625	1.76
304	2.55
304.376	2.61
304.751	2.12
305.127	2.16
305.502	2.47
305.878	2.02
306.253	2
306.628	2.29
307.003	2.28
307.378	2.02
307.754	2.16
308.129	1.99
308.504	2.34
308.879	2.07
309.254	2.37
309.629	2.23
310.003	2
310.378	2.34
310.753	2.36
311.128	1.91
311.502	1.89
311.877	1.92
312.252	2.61
312.626	2.55
313.001	2.27
313.375	2.54
313.75	2.53
314.124	2.6
314.498	2.88
314.873	1.56
315.247	1.92
315.621	2.17
315.995	2
316.369	1.64
316.743	2.28
317.117	2.72
317.491	2.65
317.865	2.17
318.239	2.94
318.613	2
318.987	1.76
319.361	2.61
319.734	1.92
320.108	2.16
320.482	2.35
320.855	2.35
321.229	2.15
321.602	2.06
321.976	1.5
322.349	2.68
322.723	2.06
323.096	1.84
323.469	1.61
323.843	1.79
324.216	2.29
324.589	2.45
324.962	2.14
325.335	2.08
325.708	2.26
326.081	2.6
326.454	2.72
326.827	2.61
327.2	2.11
327.573	2.57
327.945	2
328.318	1.96
328.691	2.43
329.063	2.14
329.436	1.6
329.809	2.57
330.181	2.88
330.553	2.49
330.926	2.82
331.298	1.94
331.671	2.14
332.043	2.3
332.415	2.41
332.787	2.23
333.159	2.28
333.532	2.07
333.904	2.27
334.276	2.26
334.648	2.12
335.02	2.55
335.391	2.18
335.763	2.37
336.135	2.43
336.507	2.29
336.879	2.49
337.25	2.21
337.622	2.49
337.993	1.83
338.365	2.65
338.736	2.3
339.108	2.7
339.479	2.58
339.851	2.34
340.222	2.6
340.593	2.06
340.964	2.15
341.336	2.17
341.707	2.24
342.078	2.14
342.449	2.61
342.82	2.69
343.191	2.52
343.562	2.56
343.933	2.07
344.303	2.67
344.674	2.85
345.045	2.5
345.416	3.08
345.786	2.45
346.157	2.6
346.527	2.12
346.898	1.75
347.268	2.23
347.639	2.19
348.009	2.49
348.38	2.04
348.75	2.93
349.12	2.84
349.49	2.44
349.861	2.68
350.231	2.29
350.601	2.13
350.971	2.59
351.341	2.56
351.711	2.25
352.081	2.25
352.45	2.53
352.82	1.78
353.19	2.18
353.56	2.5
353.929	2.45
354.299	2.54
354.669	2.35
355.038	2.72
355.408	2.57
355.777	2.79
356.147	2.3
356.516	2.36
356.885	2.28
357.254	2.65
357.624	2.27
357.993	2.52
358.362	2.46
358.731	3.01
359.1	2.59
359.469	2.53
359.838	2.7
360.207	2.49
360.576	2.78
360.945	2.72
361.314	2.32
361.682	2.38
362.051	2.62
362.42	2.47
362.788	2.78
363.157	2.38
363.525	2.68
363.894	2.52
364.262	2.72
364.631	2.78
364.999	2.44
365.367	2.61
365.735	2.42
366.104	2.37
366.472	2.6
366.84	2.66
367.208	2.78
367.576	2.31
367.944	2.57
368.312	2.4
368.68	2.88
369.048	2.65
369.416	2.49
369.783	2.62
370.151	2.64
370.519	3.06
370.886	2.73
371.254	2.9
371.621	2.9
371.989	2.86
372.356	2.59
372.724	2.56
373.091	2.25
373.458	2.42
373.826	2.89
374.193	2.67
374.56	2.86
374.927	2.45
375.294	2.88
375.661	2.69
376.028	2.5
376.395	2.56
376.762	2.28
377.129	2.69
377.496	2.77
377.863	2.76
378.229	3.16
378.596	2.83
378.963	2.82
379.329	2.95
379.696	2.62
380.062	2.79
380.429	2.54
380.795	2.75
381.161	2.66
381.528	2.56
381.894	2.63
382.26	2.89
382.626	2.9
382.993	2.96
383.359	2.54
383.725	2.64
384.091	2.93
384.457	2.38
384.823	2.61
385.188	2.82
385.554	2.94
385.92	2.55
386.286	2.83
386.651	2.77
387.017	3.16
387.383	2.83
387.748	2.78
388.114	2.74
388.479	2.81
388.845	2.58
389.21	3
389.575	3
389.94	3
390.306	3.08
390.671	3.02
391.036	2.75
391.401	2.85
391.766	2.91
392.131	3.01
392.496	2.92
392.861	2.81
393.226	2.65
393.591	2.94
393.956	2.99
394.32	3.16
394.685	2.97
395.05	3.2
395.414	3.06
395.779	3.15
396.143	2.75
396.508	2.86
396.872	2.95
397.236	3.3
397.601	3.02
397.965	2.93
398.329	2.88
398.694	2.7
399.058	2.93
399.422	2.87
399.786	2.67
400.15	2.91
400.514	2.87
400.878	2.8
401.242	3.03
401.605	2.71
401.969	2.9
402.333	2.76
402.697	3.28
403.06	3.08
403.424	3.07
403.787	2.98
404.151	3.07
404.514	2.82
404.878	2.83
405.241	3.18
405.604	3.06
405.968	3.14
406.331	3.18
406.694	2.99
407.057	3.14
407.42	2.91
407.783	3.16
408.146	2.88
408.509	2.99
408.872	3.2
409.235	3.14
409.598	3.01
409.961	3.17
410.323	2.78
410.686	2.79
411.049	3.17
411.411	2.92
411.774	3
412.136	3.1
412.499	3.17
412.861	2.85
413.223	3.04
413.586	3.09
413.948	3.29
414.31	3.22
414.672	3.11
415.035	3.1
415.397	3.17
415.759	2.97
416.121	3.3
416.483	2.92
416.845	3.14
417.206	3.02
417.568	2.97
417.93	3.08
418.292	2.99
418.653	2.97
419.015	3.05
419.377	2.94
419.738	3.25
420.1	3.21
420.461	3.09
420.822	3.19
421.184	3.19
421.545	3.19
421.906	3.05
422.267	3.12
422.629	3.1
422.99	3.01
423.351	3.1
423.712	3.1
424.073	3.21
424.434	3.3
424.795	3.04
425.155	3.13
425.516	3.11
425.877	3.19
426.238	3.16
426.598	3.15
426.959	3.24
427.32	3.22
427.68	3.23
428.041	3.15
428.401	3.15
428.761	3.23
429.122	3.24
429.482	3.2
429.842	3.09
430.202	3.2
430.563	3.1
430.923	3.1
431.283	3.33
431.643	3.36
432.003	3.34
432.363	3.39
432.722	3.3
433.082	3.14
433.442	3.31
433.802	3.24
434.161	3.11
434.521	3.42
434.881	3.36
435.24	3.25
435.6	3.43
435.959	3.35
436.319	3.26
436.678	3.41
437.037	3.25
437.396	3.26
437.756	3.2
438.115	3.31
438.474	3.29
438.833	3.45
439.192	3.21
439.551	3.18
439.91	3.31
440.269	3.2
440.628	3.32
440.987	3.33
441.345	3.34
441.704	3.25
442.063	3.24
442.421	3.32
442.78	3.26
443.138	3.28
443.497	3.23
443.855	3.32
444.214	3.23
444.572	3.38
444.93	3.34
445.288	3.28
445.647	3.23
446.005	3.38
446.363	3.25
446.721	3.31
447.079	3.24
447.437	3.32
447.795	3.3
448.153	3.3
448.51	3.32
448.868	3.33
449.226	3.43
449.584	3.3
449.941	3.45
450.299	3.28
450.656	3.33
451.014	3.41
451.371	3.48
451.729	3.38
452.086	3.33
452.443	3.54
452.801	3.33
453.158	3.49
453.515	3.28
453.872	3.42
454.229	3.25
454.586	3.34
454.943	3.54
455.3	3.56
455.657	3.41
456.014	3.43
456.371	3.55
456.727	3.59
457.084	3.55
457.441	3.53
457.797	3.41
458.154	3.5
458.51	3.37
458.867	3.48
459.223	3.38
459.58	3.4
459.936	3.43
460.292	3.32
460.648	3.38
461.005	3.41
461.361	3.35
461.717	3.38
462.073	3.54
462.429	3.56
462.785	3.47
463.141	3.42
463.496	3.52
463.852	3.57
464.208	3.46
464.564	3.42
464.919	3.41
465.275	3.5
465.631	3.61
465.986	3.58
466.342	3.27
466.697	3.47
467.052	3.65
467.408	3.64
467.763	3.42
468.118	3.34
468.473	3.62
468.829	3.37
469.184	3.65
469.539	3.44
469.894	3.6
470.249	3.55
470.603	3.71
470.958	3.57
471.313	3.57
471.668	3.61
472.023	3.62
472.377	3.54
472.732	3.6
473.086	3.56
473.441	3.79
473.795	3.89
474.15	3.69
474.504	3.56
474.859	3.56
475.213	3.78
475.567	3.54
475.921	3.71
476.275	3.67
476.63	3.68
476.984	3.5
477.338	3.7
477.692	3.44
478.045	3.72
478.399	3.75
478.753	3.6
479.107	3.65
479.461	3.69
479.814	3.67
480.168	3.54
480.521	3.73
480.875	3.65
481.228	3.62
481.582	3.66
481.935	3.82
482.289	3.81
482.642	3.79
482.995	3.7
483.348	3.63
483.701	3.69
484.055	3.6
484.408	3.6
484.761	3.54
485.114	3.49
485.466	3.46
485.819	3.45
486.172	3.49
486.525	3.53
486.878	3.65
487.23	3.61
487.583	3.61
487.936	3.58
488.288	3.62
488.641	3.59
488.993	3.51
489.345	3.54
489.698	3.57
490.05	3.59
490.402	3.61
490.754	3.67
491.107	3.65
491.459	3.71
491.811	3.66
492.163	3.68
492.515	3.64
492.866	3.67
493.218	3.6
493.57	3.67
493.922	3.64
494.274	3.79
494.625	3.84
494.977	3.77
495.328	3.86
495.68	3.83
496.031	3.75
496.383	3.85
496.734	3.83
497.086	3.91
497.437	3.98
497.788	3.89
498.139	3.78
498.49	3.96
498.842	3.86
499.193	3.85
499.544	3.94
499.894	3.86
500.245	3.91
500.596	3.91
500.947	3.88
501.298	3.92
501.648	3.89
501.999	4.09
502.35	3.9
502.7	4.03
503.051	3.93
503.401	3.95
503.752	3.99
504.102	3.92
504.452	3.94
504.803	3.97
505.153	3.92
505.503	4.03
505.853	3.95
506.203	4.1
506.553	3.93
506.903	3.97
507.253	4.01
507.603	4.09
507.953	4.06
508.303	4.09
508.652	3.98
509.002	4.17
509.352	4
509.701	3.89
510.051	4.12
510.4	4.15
510.75	4.07
511.099	3.95
511.449	4.12
511.798	4.08
512.147	4.11
512.496	4.15
512.846	4.06
513.195	4.06
513.544	4.18
513.893	4.15
514.242	4.15
514.591	4.06
514.939	4.22
515.288	4.27
515.637	4.22
515.986	4.19
516.334	4.2
516.683	4.15
517.032	4.17
517.38	4.18
517.729	4.23
518.077	4.22
518.426	4.27
518.774	4.21
519.122	4.25
519.47	4.15
519.819	4.22
520.167	4.15
520.515	4.18
520.863	4.18
521.211	4.24
521.559	4.19
521.907	4.32
522.255	4.26
522.602	4.3
522.95	4.29
523.298	4.42
523.645	4.33
523.993	4.27
524.341	4.26
524.688	4.34
525.036	4.24
525.383	4.42
525.73	4.21
526.078	4.29
526.425	4.25
526.772	4.4
527.119	4.33
527.466	4.41
527.814	4.43
528.161	4.38
528.508	4.53
528.854	4.39
529.201	4.31
529.548	4.26
529.895	4.21
530.242	4.24
530.588	4.26
530.935	4.33
531.282	4.32
531.628	4.38
531.975	4.37
532.321	4.47
532.667	4.49
533.014	4.48
533.36	4.52
533.706	4.45
534.052	4.52
534.399	4.5
534.745	4.44
535.091	4.42
535.437	4.44
535.783	4.51
536.129	4.54
536.474	4.59
536.82	4.64
537.166	4.58
537.512	4.6
537.857	4.57
538.203	4.58
538.549	4.55
538.894	4.65
539.239	4.7
539.585	4.81
539.93	4.69
540.276	4.8
540.621	4.72
540.966	4.68
541.311	4.79
541.656	4.7
542.001	4.75
542.346	4.64
542.691	4.6
543.036	4.61
543.381	4.6
543.726	4.7
544.071	4.71
544.415	4.81
544.76	4.78
545.105	4.78
545.449	4.77
545.794	4.84
546.138	4.93
546.483	4.95
546.827	4.89
547.171	5
547.516	4.94
547.86	5
548.204	5.01
548.548	4.91
548.892	4.99
549.236	5.05
549.58	5.19
549.924	5.17
550.268	5.28
550.612	5.32
550.956	5.25
551.3	5.33
551.643	5.03
551.987	5.31
552.33	5.43
552.674	5.19
553.017	5.3
553.361	5.31
553.704	5.23
554.048	5.27
554.391	5.37
554.734	5.23
555.077	5.31
555.42	5.34
555.764	5.29
556.107	5.48
556.45	5.48
556.793	5.52
557.135	5.47
557.478	5.33
557.821	5.57
558.164	5.55
558.507	5.47
558.849	5.51
559.192	5.34
559.534	5.37
559.877	5.53
560.219	5.53
560.562	5.48
560.904	5.69
561.246	5.51
561.589	5.81
561.931	5.66
562.273	5.51
562.615	5.65
562.957	5.66
563.299	5.65
563.641	5.83
563.983	5.78
564.325	5.86
564.667	5.8
565.008	5.66
565.35	5.5
565.692	5.74
566.033	5.7
566.375	5.89
566.716	5.83
567.058	5.8
567.399	5.81
567.741	5.78
568.082	5.79
568.423	5.82
568.764	5.99
569.105	6.2
569.447	5.94
569.788	5.95
570.129	6
570.47	6.03
570.811	6.03
571.151	6.04
571.492	5.96
571.833	6.05
572.174	6.14
572.514	6.08
572.855	6.06
573.195	6.08
573.536	6.16
573.876	6.14
574.217	6.11
574.557	6.02
574.898	6.18
575.238	6.41
575.578	6.33
575.918	6.32
576.258	6.4
576.598	6.17
576.938	6.2
577.278	6.38
577.618	6.35
577.958	6.34
578.298	6.31
578.638	6.51
578.977	6.61
579.317	6.53
579.657	6.54
579.996	6.76
580.336	6.77
580.675	6.62
581.014	6.75
581.354	6.39
581.693	6.78
582.032	7.05
582.372	6.8
582.711	6.99
583.05	6.65
583.389	6.92
583.728	6.89
584.067	6.62
584.406	6.93
584.745	6.86
585.083	6.83
585.422	7.2
585.761	7.09
586.1	7
586.438	6.8
586.777	6.79
587.115	7.07
587.454	6.92
587.792	7.25
588.13	7.2
588.469	7.13
588.807	7.25
589.145	7.06
589.483	7.09
589.821	7.09
590.159	7.35
590.497	7.52
590.835	7.2
591.173	7.49
591.511	7.3
591.849	7.25
592.187	7.36
592.524	7.52
592.862	7.34
593.2	7.44
593.537	7.51
593.875	7.54
594.212	7.52
594.55	7.63
594.887	7.51
595.224	7.97
595.561	7.55
595.899	7.63
596.236	7.39
596.573	7.6
596.91	7.83
597.247	7.68
597.584	7.96
597.921	7.52
598.258	8.04
598.594	7.87
598.931	7.64
599.268	7.61
599.604	7.9
599.941	7.95
600.277	7.78
600.614	7.86
600.95	7.89
601.287	7.91
601.623	7.53
601.959	8.32
602.296	8.19
602.632	8
602.968	7.95
603.304	8.17
603.64	8.27
603.976	7.98
604.312	8.17
604.648	8.26
604.984	8.28
605.319	8.32
605.655	8.24
605.991	8.28
606.326	8.3
606.662	8.07
606.998	8.38
607.333	8.48
607.668	8.41
608.004	8.41
608.339	8.32
608.674	8.45
609.01	8.79
609.345	8.49
609.68	8.49
610.015	8.86
610.35	8.89
610.685	8.69
611.02	8.75
611.355	8.85
611.689	8.71
612.024	8.91
612.359	8.81
612.694	9
613.028	8.73
613.363	8.84
613.697	8.72
614.032	9.01
614.366	8.91
614.7	9.08
615.035	8.8
615.369	9.14
615.703	9.26
616.037	9.17
616.371	9.14
616.705	8.98
617.039	9.43
617.373	9.07
617.707	9.54
618.041	8.76
618.375	8.87
618.709	9.37
619.042	9.59
619.376	9.12
619.71	9.33
620.043	9.62
620.377	9.25
620.71	9.34
621.043	9.71
621.377	9.45
621.71	9.79
622.043	9.61
622.376	9.62
622.709	9.96
623.043	9.68
623.376	9.46
623.709	10.12
624.041	9.73
624.374	9.83
624.707	9.77
625.04	9.89
625.373	9.97
625.705	10.12
626.038	10.27
626.37	9.75
626.703	9.82
627.035	10.19
627.368	10.22
627.7	10.21
628.032	10.14
628.365	10.34
628.697	10.46
629.029	10.26
629.361	10.38
629.693	10.35
630.025	10.27
630.357	10.38
630.689	10.5
631.021	10.77
631.353	10.7
631.684	10.22
632.016	10.06
632.348	10.7
632.679	10.67
633.011	10.71
633.342	10.77
633.674	10.82
634.005	10.45
634.336	11.12
634.668	10.69
634.999	10.48
635.33	11.12
635.661	10.72
635.992	11.01
636.323	11.45
636.654	11.09
636.985	10.91
637.316	10.98
637.647	10.98
637.977	11.11
638.308	11.21
638.639	11.1
638.969	11.02
639.3	10.83
639.63	10.98
639.961	11.46
640.291	10.82
640.622	11.65
640.952	11.51
641.282	11.43
641.612	11.44
641.943	11.08
642.273	11.17
642.603	11.24
642.933	11.39
643.263	11.86
643.592	11.63
643.922	12.09
644.252	11.77
644.582	11.72
644.911	11.76
645.241	11.77
645.571	11.59
645.9	11.86
646.23	11.99
646.559	11.43
646.888	12.21
647.218	12
647.547	11.91
647.876	11.78
648.205	11.65
648.534	12.71
648.863	12.21
649.192	12.13
649.521	12.39
649.85	12.37
650.179	12.3
650.508	12.39
650.837	12.35
651.165	12.58
651.494	12.26
651.822	12.75
652.151	12.1
652.479	12.52
652.808	12.65
653.136	12.42
653.465	12.05
653.793	12.63
654.121	12.44
654.449	12.39
654.777	12.44
655.105	12.55
655.433	13.15
655.761	12.56
656.089	12.67
656.417	12.97
656.745	13.04
657.073	12.76
657.4	12.77
657.728	12.95
658.056	13.5
658.383	13.01
658.711	13.09
659.038	13.15
659.365	13.39
659.693	13.31
660.02	13.14
660.347	13.39
660.674	13.31
661.001	13.16
661.329	13.28
661.656	12.92
661.982	13.03
662.309	13.56
662.636	13.21
662.963	12.93
663.29	14.15
663.616	13.34
663.943	13.94
664.27	13.78
664.596	13.45
664.923	14.03
665.249	13.54
665.576	13.66
665.902	13.16
666.228	13.91
666.554	14.53
666.881	13.34
667.207	13.88
667.533	13.5
667.859	13.67
668.185	13.66
668.511	14.06
668.837	14.11
669.162	14.23
669.488	13.69
669.814	14.42
670.139	13.65
670.465	14.44
670.791	14.07
671.116	14.54
671.442	13.85
671.767	14.3
672.092	14.3
672.418	14.84
672.743	14.27
673.068	14.39
673.393	14.06
673.718	14
674.043	14.61
674.368	14.1
674.693	14.58
675.018	14.8
675.343	14.88
675.667	14.33
675.992	14.65
676.317	14.69
676.641	14.44
676.966	14.86
677.29	14.75
677.615	14.91
677.939	15.02
678.264	14.28
678.588	15.33
678.912	14.63
679.236	15.35
679.56	14.7
679.885	15.48
680.209	15.1
680.532	15.88
680.856	15.49
681.18	15.92
681.504	15.12
681.828	15.25
682.152	15.38
682.475	15.86
682.799	15.28
683.122	15.65
683.446	15.31
683.769	15.5
684.093	15.24
684.416	15.26
684.739	15.35
685.062	15.67
685.386	15.92
685.709	15.56
686.032	16.09
686.355	15.82
686.678	16.21
687.001	16.85
687.324	15.97
687.646	16.02
