Data from 0008_crown_Reflection__2__354.txt Node

Date: Thu Dec 15 19:24:11 CST 2022
User: ToomeyLab
Spectrometer: FLMS14357
Trigger mode: 0
Integration Time (sec): 1.000000E-2
Scans to average: 100
Electric dark correction enabled: true
Nonlinearity correction enabled: false
Boxcar width: 0
XAxis mode: Wavelengths
Number of Pixels in Spectrum: 2048
>>>>>Begin Spectral Data<<<<<
189.047	782.21
189.435	782.21
189.823	782.21
190.211	259.44
190.599	-17.49
190.987	159.27
191.375	29.12
191.763	556.63
192.151	66.68
192.538	56.18
192.926	-1344.38
193.314	954.91
193.702	-32.55
194.089	178.01
194.477	94.84
194.864	115.45
195.252	407.03
195.639	112.44
196.027	22.96
196.414	-47.96
196.801	204.98
197.189	273.84
197.576	-82.76
197.963	91.46
198.351	4.3
198.738	-68.56
199.125	-78.46
199.512	16.32
199.899	-59.19
200.286	-29.09
200.673	43.5
201.06	-26.9
201.447	1.57
201.833	12.27
202.22	4.19
202.607	-10.73
202.994	-16.81
203.38	-27.47
203.767	18.42
204.154	10.78
204.54	26.29
204.927	25.05
205.313	4.45
205.699	25.85
206.086	11.99
206.472	22.53
206.858	3.7
207.245	-32.21
207.631	-176.5
208.017	5.32
208.403	-81.49
208.789	39.32
209.175	-29.76
209.561	-54.65
209.947	-29.15
210.333	25.52
210.719	34.6
211.105	18.28
211.491	-2.29
211.876	-21.1
212.262	-4.44
212.648	14.72
213.034	-31.61
213.419	2.78
213.805	-70.39
214.19	-28.51
214.576	-1.33
214.961	48.05
215.346	-17.95
215.732	-15.76
216.117	28.76
216.502	-4.26
216.888	0.03
217.273	7.15
217.658	-31.1
218.043	-21.37
218.428	-29.01
218.813	18.87
219.198	-30.3
219.583	-24.44
219.968	-22.58
220.353	-65
220.738	-6.64
221.122	-0.63
221.507	-18.47
221.892	-88.75
222.276	-37.05
222.661	-8.68
223.046	-16.44
223.43	14.52
223.815	0.01
224.199	-3.87
224.583	1.31
224.968	-0.41
225.352	-10.47
225.736	2.22
226.121	6.94
226.505	-4.13
226.889	1.8
227.273	-8.9
227.657	1.74
228.041	7.57
228.425	0.87
228.809	1.3
229.193	4.33
229.577	5.62
229.961	4.02
230.344	4.9
230.728	6.7
231.112	5.77
231.495	2.43
231.879	3.97
232.263	5.24
232.646	3.76
233.03	5.04
233.413	5.06
233.797	3.18
234.18	3.28
234.563	4.96
234.946	3.27
235.33	5.91
235.713	5.45
236.096	6.19
236.479	5.02
236.862	3.37
237.245	1.78
237.628	4.55
238.011	4.96
238.394	1.58
238.777	4.95
239.16	2.54
239.543	5.68
239.925	5.28
240.308	2.53
240.691	3.88
241.073	4.87
241.456	4.76
241.838	4.05
242.221	3.3
242.603	4.46
242.986	4.73
243.368	4.46
243.75	4.45
244.133	4.91
244.515	4.39
244.897	4.2
245.279	4.69
245.661	4.31
246.043	4.08
246.425	4.18
246.807	3.74
247.189	3.94
247.571	4.39
247.953	4.25
248.335	4.28
248.717	4.57
249.098	4.48
249.48	4.29
249.862	4.28
250.243	4.82
250.625	4.78
251.006	5.25
251.388	3.5
251.769	3.03
252.151	3.51
252.532	4.45
252.913	4.3
253.295	3.92
253.676	4.26
254.057	4
254.438	4.73
254.819	4.26
255.2	3.94
255.581	5.4
255.962	4.34
256.343	4.33
256.724	4.23
257.105	4.41
257.486	4.15
257.867	3.53
258.247	3.54
258.628	3.88
259.009	3.91
259.389	3.74
259.77	3.18
260.15	4.51
260.531	4.5
260.911	4.29
261.292	4.12
261.672	4.23
262.052	4.18
262.432	4.17
262.813	4.21
263.193	4.36
263.573	4.31
263.953	3.91
264.333	3.91
264.713	4.24
265.093	3.78
265.473	3.49
265.853	4.47
266.233	3.61
266.612	3.11
266.992	3.06
267.372	3.94
267.752	4.51
268.131	4.04
268.511	4.36
268.89	4.7
269.27	3.81
269.649	3.75
270.029	4.08
270.408	3.86
270.787	3.73
271.167	4.26
271.546	4.68
271.925	4.12
272.304	4.04
272.683	3.72
273.062	3.99
273.441	4.11
273.82	3.87
274.199	3.68
274.578	3.81
274.957	3.82
275.336	3.96
275.715	4.43
276.093	3.57
276.472	3.81
276.851	3.69
277.229	3.88
277.608	3.15
277.986	3.93
278.365	4.58
278.743	4.42
279.122	3.86
279.5	4.06
279.878	3.66
280.257	2.95
280.635	4.24
281.013	3.13
281.391	3.48
281.769	4.41
282.147	3.23
282.525	3.37
282.903	3.49
283.281	4.07
283.659	3.94
284.037	3.77
284.415	3.59
284.792	3.6
285.17	3.58
285.548	3.8
285.925	3.53
286.303	4.07
286.68	3.7
287.058	3.79
287.435	3.65
287.813	3.55
288.19	3.76
288.567	3.65
288.945	3.34
289.322	4.01
289.699	3.75
290.076	3.64
290.453	3.52
290.83	3.71
291.207	3.66
291.584	3.6
291.961	3.87
292.338	3.52
292.715	3.29
293.092	3.77
293.469	3.68
293.845	3.49
294.222	3.83
294.599	3.05
294.975	3.02
295.352	3.31
295.728	3.73
296.105	3.41
296.481	4.01
296.858	3.58
297.234	3.08
297.61	3.77
297.986	4.04
298.363	3.72
298.739	3.62
299.115	3.59
299.491	3.58
299.867	3.37
300.243	3.1
300.619	3.13
300.995	3.23
301.371	3.36
301.746	3.71
302.122	3.04
302.498	3.24
302.874	3.39
303.249	3.23
303.625	2.84
304	3.52
304.376	3.28
304.751	3.07
305.127	3.59
305.502	3.37
305.878	3.39
306.253	3.17
306.628	3.03
307.003	3.26
307.378	3.13
307.754	3.27
308.129	3.34
308.504	3.11
308.879	3.35
309.254	3.72
309.629	3.59
310.003	3.15
310.378	3.51
310.753	3.47
311.128	3.2
311.502	3.21
311.877	3.44
312.252	3.29
312.626	3.57
313.001	3.44
313.375	3.57
313.75	3.38
314.124	3.6
314.498	3.3
314.873	2.87
315.247	3.05
315.621	2.87
315.995	3.25
316.369	2.68
316.743	2.9
317.117	2.66
317.491	3.43
317.865	2.78
318.239	3.78
318.613	2.94
318.987	2.89
319.361	3.17
319.734	3.2
320.108	3.37
320.482	3.41
320.855	2.87
321.229	3.3
321.602	3.3
321.976	2.33
322.349	3.42
322.723	3.54
323.096	3.42
323.469	3
323.843	2.51
324.216	3.42
324.589	3.56
324.962	2.95
325.335	2.98
325.708	3.45
326.081	3.62
326.454	3.29
326.827	3.18
327.2	2.95
327.573	3.59
327.945	2.92
328.318	3.33
328.691	3.12
329.063	3.11
329.436	2.84
329.809	3.51
330.181	3.77
330.553	2.88
330.926	3.72
331.298	3.09
331.671	3.3
332.043	3.24
332.415	3.16
332.787	2.91
333.159	2.96
333.532	3.11
333.904	3.23
334.276	3.44
334.648	3.24
335.02	2.7
335.391	3.07
335.763	3.56
336.135	3.51
336.507	2.86
336.879	3.13
337.25	2.6
337.622	3.05
337.993	3.3
338.365	3.19
338.736	3.15
339.108	3.16
339.479	3.33
339.851	3.12
340.222	3.46
340.593	2.99
340.964	2.98
341.336	3.03
341.707	2.77
342.078	3.19
342.449	3.3
342.82	3.56
343.191	3.45
343.562	3.18
343.933	2.92
344.303	3.09
344.674	3.05
345.045	3.22
345.416	3.32
345.786	3.2
346.157	3.18
346.527	3
346.898	3
347.268	3.15
347.639	3.16
348.009	3.11
348.38	2.93
348.75	3.41
349.12	3.64
349.49	3.3
349.861	3.23
350.231	3.12
350.601	2.99
350.971	2.91
351.341	3.02
351.711	3.22
352.081	2.84
352.45	3.08
352.82	2.89
353.19	3.06
353.56	2.79
353.929	3.29
354.299	3.28
354.669	3.53
355.038	3.45
355.408	3.05
355.777	3.56
356.147	3.07
356.516	3.06
356.885	3.25
357.254	2.92
357.624	2.94
357.993	3.3
358.362	3.28
358.731	3.6
359.1	3.18
359.469	3.36
359.838	3.21
360.207	3.03
360.576	3.33
360.945	3.56
361.314	3.15
361.682	2.68
362.051	3.11
362.42	3.16
362.788	3.24
363.157	3.05
363.525	3.2
363.894	2.96
364.262	3.2
364.631	3.54
364.999	3.09
365.367	3.05
365.735	2.98
366.104	3.22
366.472	3.01
366.84	3.23
367.208	3.49
367.576	3.41
367.944	3.14
368.312	3.45
368.68	4
369.048	3.09
369.416	3.03
369.783	3.25
370.151	3.63
370.519	3.5
370.886	3.51
371.254	3.34
371.621	3.59
371.989	3.43
372.356	3.41
372.724	3.13
373.091	3.14
373.458	3.13
373.826	3.44
374.193	3.55
374.56	3.43
374.927	2.95
375.294	3.49
375.661	3.57
376.028	3.45
376.395	3.42
376.762	3.13
377.129	3.26
377.496	3.56
377.863	3.32
378.229	3.56
378.596	3.42
378.963	3.44
379.329	3.42
379.696	3.08
380.062	3.39
380.429	2.96
380.795	3.47
381.161	3.01
381.528	3.02
381.894	3.08
382.26	3.27
382.626	3.47
382.993	3.63
383.359	3.36
383.725	3.11
384.091	3.28
384.457	3.38
384.823	3.57
385.188	3.29
385.554	3.4
385.92	3.27
386.286	3.49
386.651	3.45
387.017	3.69
387.383	3.49
387.748	3.61
388.114	3.48
388.479	3.27
388.845	3.13
389.21	3.69
389.575	3.67
389.94	4.03
390.306	3.6
390.671	3.61
391.036	3.28
391.401	3.51
391.766	3.36
392.131	3.71
392.496	3.62
392.861	3.45
393.226	3.57
393.591	3.36
393.956	3.47
394.32	3.65
394.685	3.52
395.05	3.5
395.414	3.51
395.779	3.79
396.143	3.43
396.508	3.44
396.872	3.34
397.236	3.76
397.601	3.51
397.965	3.42
398.329	3.55
398.694	3.54
399.058	3.41
399.422	3.56
399.786	3.76
400.15	3.54
400.514	3.51
400.878	3.51
401.242	3.74
401.605	3.67
401.969	3.52
402.333	3.31
402.697	3.53
403.06	3.56
403.424	3.67
403.787	3.81
404.151	3.54
404.514	3.57
404.878	3.5
405.241	3.39
405.604	3.56
405.968	3.72
406.331	3.68
406.694	3.58
407.057	3.45
407.42	3.52
407.783	3.7
408.146	3.63
408.509	3.75
408.872	3.83
409.235	3.85
409.598	3.63
409.961	3.87
410.323	3.58
410.686	3.52
411.049	3.79
411.411	3.8
411.774	3.45
412.136	3.5
412.499	3.7
412.861	3.37
413.223	3.56
413.586	3.83
413.948	3.54
414.31	3.7
414.672	3.54
415.035	3.85
415.397	3.54
415.759	3.5
416.121	3.69
416.483	3.68
416.845	3.7
417.206	3.55
417.568	3.58
417.93	3.7
418.292	3.41
418.653	3.51
419.015	3.61
419.377	3.61
419.738	3.83
420.1	3.67
420.461	3.43
420.822	3.57
421.184	3.62
421.545	3.54
421.906	3.76
422.267	3.66
422.629	3.52
422.99	3.6
423.351	3.54
423.712	3.62
424.073	3.63
424.434	3.76
424.795	3.56
425.155	3.58
425.516	3.51
425.877	3.66
426.238	3.65
426.598	3.7
426.959	3.65
427.32	3.64
427.68	3.75
428.041	3.75
428.401	3.62
428.761	3.61
429.122	3.87
429.482	3.65
429.842	3.74
430.202	3.74
430.563	3.74
430.923	3.74
431.283	3.7
431.643	3.77
432.003	3.78
432.363	3.65
432.722	3.76
433.082	3.68
433.442	3.77
433.802	3.78
434.161	3.73
434.521	3.82
434.881	3.71
435.24	3.6
435.6	3.7
435.959	3.78
436.319	3.78
436.678	3.79
437.037	3.78
437.396	3.79
437.756	3.58
438.115	3.72
438.474	3.78
438.833	3.76
439.192	3.79
439.551	3.63
439.91	3.72
440.269	3.72
440.628	3.73
440.987	3.77
441.345	3.75
441.704	3.76
442.063	3.67
442.421	3.7
442.78	3.75
443.138	3.86
443.497	3.77
443.855	3.86
444.214	3.57
444.572	3.92
444.93	3.81
445.288	3.75
445.647	3.7
446.005	3.71
446.363	3.66
446.721	3.7
447.079	3.71
447.437	3.75
447.795	3.81
448.153	3.76
448.51	3.83
448.868	3.69
449.226	3.72
449.584	3.72
449.941	3.84
450.299	3.77
450.656	3.75
451.014	3.91
451.371	3.96
451.729	3.85
452.086	3.92
452.443	3.95
452.801	3.77
453.158	3.99
453.515	3.79
453.872	3.78
454.229	3.69
454.586	3.76
454.943	3.82
455.3	3.88
455.657	3.8
456.014	3.92
456.371	3.89
456.727	3.9
457.084	3.98
457.441	3.91
457.797	3.78
458.154	3.91
458.51	3.71
458.867	3.97
459.223	3.66
459.58	3.91
459.936	3.86
460.292	3.76
460.648	3.8
461.005	3.76
461.361	3.79
461.717	3.81
462.073	3.83
462.429	3.97
462.785	3.9
463.141	3.81
463.496	3.95
463.852	4.1
464.208	3.88
464.564	3.82
464.919	4.01
465.275	3.93
465.631	4.03
465.986	4.01
466.342	3.84
466.697	3.9
467.052	3.99
467.408	3.95
467.763	4.01
468.118	3.66
468.473	4
468.829	3.72
469.184	3.97
469.539	3.88
469.894	4.01
470.249	3.99
470.603	3.95
470.958	3.91
471.313	4.02
471.668	4.05
472.023	4.05
472.377	3.88
472.732	4.02
473.086	3.83
473.441	4.1
473.795	4.15
474.15	3.93
474.504	4.02
474.859	3.8
475.213	4.02
475.567	3.86
475.921	3.95
476.275	4.1
476.63	4.09
476.984	3.93
477.338	4.15
477.692	3.95
478.045	3.97
478.399	4.03
478.753	3.96
479.107	4.03
479.461	3.96
479.814	3.98
480.168	3.86
480.521	3.93
480.875	4.03
481.228	4.01
481.582	3.97
481.935	4.16
482.289	4.12
482.642	4
482.995	4
483.348	3.83
483.701	3.97
484.055	3.93
484.408	3.85
484.761	3.82
485.114	3.72
485.466	3.68
485.819	3.69
486.172	3.77
486.525	3.85
486.878	3.88
487.23	3.9
487.583	3.93
487.936	3.92
488.288	3.85
488.641	3.81
488.993	3.75
489.345	3.79
489.698	3.78
490.05	3.76
490.402	3.84
490.754	3.88
491.107	3.92
491.459	3.96
491.811	3.97
492.163	3.93
492.515	3.9
492.866	3.81
493.218	3.83
493.57	3.89
493.922	3.89
494.274	4.01
494.625	4.06
494.977	4.08
495.328	4.02
495.68	4.03
496.031	4.02
496.383	4.05
496.734	3.96
497.086	4.08
497.437	4.15
497.788	4.11
498.139	4.08
498.49	4.09
498.842	4.1
499.193	4.05
499.544	4.07
499.894	4
500.245	4.14
500.596	4.08
500.947	4.09
501.298	4.06
501.648	4.2
501.999	4.16
502.35	4.03
502.7	4.31
503.051	4.13
503.401	4.16
503.752	4.07
504.102	4.07
504.452	4.05
504.803	4.08
505.153	4.2
505.503	4.08
505.853	4.14
506.203	4.1
506.553	4.13
506.903	4.11
507.253	4.08
507.603	4.27
507.953	4.2
508.303	4.07
508.652	4
509.002	4.18
509.352	4.13
509.701	4.08
510.051	4.21
510.4	4.21
510.75	4.13
511.099	3.96
511.449	4.15
511.798	4.04
512.147	4.24
512.496	4.16
512.846	4.18
513.195	4.04
513.544	4.2
513.893	4.13
514.242	4.1
514.591	4.11
514.939	4.17
515.288	4.21
515.637	4.31
515.986	4.26
516.334	4.13
516.683	4.2
517.032	4.04
517.38	4.06
517.729	4.26
518.077	4.16
518.426	4.22
518.774	4.11
519.122	4.15
519.47	4.08
519.819	4.17
520.167	4.06
520.515	4.08
520.863	4.07
521.211	4.1
521.559	4
521.907	4.19
522.255	4.13
522.602	4.15
522.95	4.28
523.298	4.21
523.645	4.33
523.993	4.11
524.341	4.19
524.688	4.23
525.036	4.25
525.383	4.18
525.73	4.18
526.078	4.28
526.425	4.09
526.772	4.18
527.119	4.12
527.466	4.19
527.814	4.11
528.161	4.17
528.508	4.13
528.854	4.13
529.201	4.05
529.548	4.08
529.895	4
530.242	3.98
530.588	3.97
530.935	4.02
531.282	3.99
531.628	4.11
531.975	4.1
532.321	4.14
532.667	4.12
533.014	4.16
533.36	4.2
533.706	4.2
534.052	4.24
534.399	4.15
534.745	4.05
535.091	3.99
535.437	4.15
535.783	4.17
536.129	4.17
536.474	4.27
536.82	4.32
537.166	4.19
537.512	4.22
537.857	4.16
538.203	4.13
538.549	4.11
538.894	4.16
539.239	4.27
539.585	4.36
539.93	4.26
540.276	4.24
540.621	4.41
540.966	4.33
541.311	4.39
541.656	4.21
542.001	4.1
542.346	4.1
542.691	4.04
543.036	4.07
543.381	4.1
543.726	4.19
544.071	4.22
544.415	4.2
544.76	4.17
545.105	4.16
545.449	4.29
545.794	4.24
546.138	4.17
546.483	4.21
546.827	4.18
547.171	4.3
547.516	4.35
547.86	4.38
548.204	4.34
548.548	4.23
548.892	4.29
549.236	4.24
549.58	4.4
549.924	4.51
550.268	4.33
550.612	4.37
550.956	4.51
551.3	4.51
551.643	4.33
551.987	4.56
552.33	4.64
552.674	4.31
553.017	4.44
553.361	4.47
553.704	4.39
554.048	4.23
554.391	4.28
554.734	4.2
555.077	4.4
555.42	4.34
555.764	4.26
556.107	4.43
556.45	4.52
556.793	4.36
557.135	4.36
557.478	4.38
557.821	4.37
558.164	4.56
558.507	4.45
558.849	4.51
559.192	4.44
559.534	4.38
559.877	4.47
560.219	4.56
560.562	4.31
560.904	4.56
561.246	4.38
561.589	4.76
561.931	4.51
562.273	4.4
562.615	4.48
562.957	4.21
563.299	4.41
563.641	4.5
563.983	4.28
564.325	4.39
564.667	4.38
565.008	4.41
565.35	4.39
565.692	4.53
566.033	4.54
566.375	4.67
566.716	4.35
567.058	4.49
567.399	4.39
567.741	4.46
568.082	4.52
568.423	4.35
568.764	4.4
569.105	4.57
569.447	4.55
569.788	4.46
570.129	4.46
570.47	4.43
570.811	4.44
571.151	4.32
571.492	4.46
571.833	4.48
572.174	4.54
572.514	4.41
572.855	4.6
573.195	4.5
573.536	4.58
573.876	4.36
574.217	4.36
574.557	4.39
574.898	4.45
575.238	4.45
575.578	4.55
575.918	4.57
576.258	4.59
576.598	4.33
576.938	4.49
577.278	4.42
577.618	4.55
577.958	4.48
578.298	4.59
578.638	4.48
578.977	4.62
579.317	4.64
579.657	4.43
579.996	4.62
580.336	4.68
580.675	4.52
581.014	4.64
581.354	4.4
581.693	4.74
582.032	4.78
582.372	4.63
582.711	4.69
583.05	4.61
583.389	4.63
583.728	4.64
584.067	4.53
584.406	4.64
584.745	4.6
585.083	4.52
585.422	4.59
585.761	4.95
586.1	4.73
586.438	4.51
586.777	4.8
587.115	4.5
587.454	4.5
587.792	4.6
588.13	4.46
588.469	4.62
588.807	4.86
589.145	4.67
589.483	4.58
589.821	4.49
590.159	4.68
590.497	4.45
590.835	4.74
591.173	4.82
591.511	4.65
591.849	4.7
592.187	4.54
592.524	4.83
592.862	4.58
593.2	4.51
593.537	4.59
593.875	4.4
594.212	4.73
594.55	4.64
594.887	4.68
595.224	4.91
595.561	4.54
595.899	4.75
596.236	4.59
596.573	4.63
596.91	4.5
597.247	4.58
597.584	4.64
597.921	4.6
598.258	4.64
598.594	4.58
598.931	4.34
599.268	4.46
599.604	4.55
599.941	4.64
600.277	4.64
600.614	4.6
600.95	4.5
601.287	4.51
601.623	4.3
601.959	5.06
602.296	4.47
602.632	4.61
602.968	4.64
603.304	4.72
603.64	4.48
603.976	4.44
604.312	4.61
604.648	4.67
604.984	4.71
605.319	4.67
605.655	4.56
605.991	4.48
606.326	4.7
606.662	4.43
606.998	4.82
607.333	4.67
607.668	4.58
608.004	4.64
608.339	4.6
608.674	4.88
609.01	5.1
609.345	4.57
609.68	4.43
610.015	4.9
610.35	4.55
610.685	4.32
611.02	4.49
611.355	4.61
611.689	4.66
612.024	4.84
612.359	4.83
612.694	4.93
613.028	4.59
613.363	4.69
613.697	4.79
614.032	4.69
614.366	4.66
614.7	4.81
615.035	4.9
615.369	5.07
615.703	4.67
616.037	4.78
616.371	4.37
616.705	4.78
617.039	4.89
617.373	4.64
617.707	4.92
618.041	4.66
618.375	4.27
618.709	5.06
619.042	4.67
619.376	4.71
619.71	4.82
620.043	5.17
620.377	4.72
620.71	4.61
621.043	5.08
621.377	5.08
621.71	4.94
622.043	4.99
622.376	4.74
622.709	4.94
623.043	4.63
623.376	4.52
623.709	4.76
624.041	4.6
624.374	4.95
624.707	4.99
625.04	4.78
625.373	4.82
625.705	5.03
626.038	4.79
626.37	4.7
626.703	4.47
627.035	4.85
627.368	5.24
627.7	4.9
628.032	4.83
628.365	4.88
628.697	5.24
629.029	4.83
629.361	4.9
629.693	4.76
630.025	4.76
630.357	4.85
630.689	4.91
631.021	4.84
631.353	4.84
631.684	4.61
632.016	4.52
632.348	4.45
632.679	5.16
633.011	4.67
633.342	4.93
633.674	4.65
634.005	4.78
634.336	5.29
634.668	4.67
634.999	5.11
635.33	4.62
635.661	4.9
635.992	4.93
636.323	4.88
636.654	4.94
636.985	4.87
637.316	4.81
637.647	4.77
637.977	4.94
638.308	4.96
638.639	4.72
638.969	4.76
639.3	5.21
639.63	4.72
639.961	4.87
640.291	5.01
640.622	5.19
640.952	5.27
641.282	4.52
641.612	4.85
641.943	4.76
642.273	5.04
642.603	5.31
642.933	5.29
643.263	4.97
643.592	5.04
643.922	5.16
644.252	5.18
644.582	5.43
644.911	4.81
645.241	4.99
645.571	5.21
645.9	5.04
646.23	5.05
646.559	4.51
646.888	5.52
647.218	5.41
647.547	4.7
647.876	4.7
648.205	4.7
648.534	4.95
648.863	5.04
649.192	5.08
649.521	5.31
649.85	5.05
650.179	5.46
650.508	4.89
650.837	5.51
651.165	5.29
651.494	5.14
651.822	5.14
652.151	4.74
652.479	5.08
652.808	4.79
653.136	4.59
653.465	4.95
653.793	5.19
654.121	5
654.449	4.99
654.777	4.6
655.105	4.7
655.433	5.42
655.761	4.6
656.089	5.01
656.417	5.38
656.745	5.1
657.073	5.13
657.4	4.98
657.728	4.6
658.056	4.91
658.383	5.26
658.711	5.01
659.038	5.75
659.365	5.46
659.693	5.23
660.02	5.15
660.347	4.86
660.674	4.77
661.001	5.12
661.329	4.76
661.656	4.54
661.982	5.03
662.309	4.86
662.636	4.83
662.963	5.08
663.29	5.09
663.616	5.28
663.943	5.33
664.27	5.21
664.596	4.82
664.923	5.07
665.249	5.4
665.576	5.06
665.902	4.51
666.228	5.18
666.554	5.77
666.881	5.16
667.207	5.19
667.533	4.82
667.859	4.81
668.185	5.06
668.511	5.27
668.837	5.27
669.162	5.22
669.488	4.57
669.814	4.98
670.139	4.7
670.465	5.21
670.791	4.52
671.116	5.19
671.442	4.62
671.767	4.98
672.092	4.63
672.418	5.22
672.743	5.22
673.068	4.6
673.393	5.3
673.718	4.71
674.043	4.78
674.368	4.71
674.693	5.55
675.018	5.28
675.343	4.81
675.667	5.12
675.992	5.02
676.317	4.2
676.641	5.12
676.966	5.28
677.29	4.67
677.615	4.62
677.939	5.42
678.264	4.93
678.588	4.62
678.912	5.27
679.236	5.41
679.56	4.73
679.885	5.11
680.209	5.36
680.532	5.56
680.856	5.76
681.18	5.22
681.504	5
681.828	4.8
682.152	5.49
682.475	5.13
682.799	4.99
683.122	5.12
683.446	4.7
683.769	5.34
684.093	5.67
684.416	5.01
684.739	5.27
685.062	5.47
685.386	5.33
685.709	4.94
686.032	5.29
686.355	4.85
686.678	5.67
687.001	5.14
687.324	5.67
687.646	5.43
687.969	5.52
688.292	5.12
688.614	5.59
688.937	5.6
689.26	5.35
689.582	5.3
689.904	5.38
690.227	5.71
690.549	4.88
690.871	5.67
691.194	5.34
691.516	5.32
691.838	5.71
692.16	4.85
692.482	5.24
692.804	5.62
