Data from 0008_crown_Reflection__4__356.txt Node

Date: Thu Dec 15 19:24:29 CST 2022
User: ToomeyLab
Spectrometer: FLMS14357
Trigger mode: 0
Integration Time (sec): 1.000000E-2
Scans to average: 100
Electric dark correction enabled: true
Nonlinearity correction enabled: false
Boxcar width: 0
XAxis mode: Wavelengths
Number of Pixels in Spectrum: 2048
>>>>>Begin Spectral Data<<<<<
189.047	-1704.33
189.435	-1704.33
189.823	-1704.33
190.211	-273.41
190.599	42.57
190.987	48.04
191.375	78.94
191.763	98.3
192.151	114.79
192.538	27.82
192.926	-785.21
193.314	1681.7
193.702	88.42
194.089	44.75
194.477	197.17
194.864	53.51
195.252	-97.54
195.639	110.57
196.027	72.06
196.414	159.61
196.801	126.27
197.189	271.44
197.576	-20.93
197.963	143.68
198.351	-21
198.738	-32.82
199.125	-103.01
199.512	19.37
199.899	-110.35
200.286	-31.46
200.673	42.67
201.06	-9.95
201.447	-42.92
201.833	10.86
202.22	-23.77
202.607	-63.35
202.994	-17.45
203.38	-64.85
203.767	-5.16
204.154	-0.8
204.54	2.89
204.927	15.7
205.313	10.65
205.699	26.2
206.086	19.71
206.472	-3.81
206.858	-12.58
207.245	-22.28
207.631	-78.79
208.017	7.18
208.403	6.79
208.789	14.98
209.175	-57.14
209.561	-141.89
209.947	-15.67
210.333	-53.94
210.719	14.92
211.105	21.71
211.491	-30.25
211.876	-15.15
212.262	-11.4
212.648	31.19
213.034	-20.72
213.419	4.71
213.805	-0.08
214.19	-70.71
214.576	-19.37
214.961	5.84
215.346	-44.82
215.732	5.87
216.117	-23
216.502	-65.58
216.888	-5.03
217.273	7.71
217.658	-8.16
218.043	-57.89
218.428	-45.06
218.813	-8.07
219.198	-17.05
219.583	-56.58
219.968	-2.49
220.353	-74.7
220.738	2.47
221.122	-15.67
221.507	-29.32
221.892	-57.66
222.276	-43.6
222.661	-31.01
223.046	-9.99
223.43	2.32
223.815	-19.36
224.199	-8.9
224.583	-7.64
224.968	-10.45
225.352	-24.2
225.736	1.32
226.121	-2.55
226.505	-11.3
226.889	-3.25
227.273	-5.42
227.657	3.45
228.041	2.65
228.425	-3.66
228.809	1.32
229.193	-2.08
229.577	1.81
229.961	2.03
230.344	3.6
230.728	4.4
231.112	4.2
231.495	2.44
231.879	2.32
232.263	2.47
232.646	2.05
233.03	4
233.413	4.07
233.797	-0.6
234.18	3.89
234.563	1.29
234.946	-0.61
235.33	2.99
235.713	2.61
236.096	4.41
236.479	3.57
236.862	1.68
237.245	1.06
237.628	3.21
238.011	3.18
238.394	2
238.777	1.93
239.16	3.03
239.543	5.48
239.925	0.95
240.308	-1.61
240.691	2.6
241.073	2.14
241.456	1.93
241.838	2.88
242.221	3.15
242.603	3.73
242.986	3.23
243.368	3.06
243.75	3.48
244.133	3.46
244.515	2.44
244.897	2.96
245.279	2.84
245.661	2.87
246.043	3.49
246.425	2.98
246.807	3.16
247.189	2.51
247.571	2.94
247.953	3.03
248.335	3
248.717	3.21
249.098	3.2
249.48	3.29
249.862	3.17
250.243	3.42
250.625	3.11
251.006	3.93
251.388	2.94
251.769	2.55
252.151	2.75
252.532	2.2
252.913	2.9
253.295	3.31
253.676	3.04
254.057	3.13
254.438	2.49
254.819	2.59
255.2	3.42
255.581	2.96
255.962	2.91
256.343	4.47
256.724	2.62
257.105	1.65
257.486	1.24
257.867	2.49
258.247	3.33
258.628	3.59
259.009	2.57
259.389	1.94
259.77	2.59
260.15	3.86
260.531	3.27
260.911	3.27
261.292	3.02
261.672	3.11
262.052	3.15
262.432	2.74
262.813	2.91
263.193	2.38
263.573	3.2
263.953	2.67
264.333	2.87
264.713	3.19
265.093	2.54
265.473	2.45
265.853	2.33
266.233	2.91
266.612	3.16
266.992	3
267.372	2.86
267.752	3.41
268.131	3.24
268.511	3.06
268.89	2.92
269.27	2.14
269.649	2.4
270.029	2.83
270.408	2.5
270.787	2.92
271.167	3.14
271.546	3.54
271.925	2.62
272.304	3.02
272.683	2.45
273.062	2.84
273.441	2.54
273.82	2.86
274.199	2.72
274.578	3.34
274.957	3.11
275.336	3.11
275.715	3.4
276.093	2.06
276.472	2.58
276.851	2.92
277.229	2.76
277.608	2.62
277.986	3.32
278.365	3.12
278.743	2.93
279.122	2.4
279.5	3.27
279.878	2.74
280.257	2.78
280.635	2.84
281.013	2.68
281.391	2.25
281.769	2.96
282.147	2.54
282.525	2.43
282.903	2.59
283.281	3.13
283.659	3.1
284.037	2.22
284.415	2.92
284.792	2.49
285.17	2.43
285.548	2.76
285.925	2.79
286.303	3.2
286.68	3.01
287.058	2.91
287.435	2.72
287.813	2.94
288.19	2.6
288.567	2.85
288.945	2.58
289.322	2.73
289.699	3.41
290.076	2.71
290.453	2.35
290.83	2.8
291.207	2.63
291.584	2.56
291.961	2.39
292.338	2.41
292.715	2.94
293.092	3.46
293.469	2.74
293.845	2.69
294.222	3.32
294.599	2.49
294.975	1.99
295.352	2.57
295.728	2.64
296.105	2.83
296.481	3
296.858	2.72
297.234	2.31
297.61	2.99
297.986	3.06
298.363	2.67
298.739	2.91
299.115	2.73
299.491	3.06
299.867	2.76
300.243	2.45
300.619	2.35
300.995	2.93
301.371	3.23
301.746	3.3
302.122	2.23
302.498	2.81
302.874	2.99
303.249	2.83
303.625	2.33
304	3.07
304.376	3.18
304.751	2.65
305.127	2.64
305.502	2.58
305.878	2.65
306.253	2.36
306.628	3.16
307.003	2.6
307.378	2.32
307.754	2.98
308.129	2.68
308.504	3.23
308.879	2.74
309.254	3.07
309.629	2.75
310.003	2.78
310.378	3.15
310.753	2.77
311.128	2.41
311.502	2.83
311.877	2.87
312.252	2.56
312.626	2.9
313.001	3.08
313.375	2.95
313.75	2.93
314.124	3.28
314.498	2.93
314.873	2.1
315.247	2.92
315.621	2.69
315.995	2.67
316.369	2.26
316.743	2.6
317.117	2.13
317.491	2.79
317.865	1.98
318.239	2.81
318.613	2.63
318.987	2.3
319.361	2.62
319.734	2.62
320.108	2.44
320.482	3.36
320.855	2.59
321.229	2.06
321.602	2.78
321.976	2.35
322.349	3.12
322.723	2.36
323.096	2.29
323.469	2.34
323.843	2.27
324.216	2.9
324.589	2.73
324.962	2.03
325.335	2.63
325.708	2.62
326.081	2.64
326.454	3.06
326.827	2.87
327.2	2.35
327.573	3.08
327.945	2.76
328.318	2.77
328.691	2.37
329.063	2.71
329.436	2.06
329.809	3.2
330.181	2.93
330.553	2.61
330.926	3.44
331.298	2.59
331.671	2.92
332.043	2.59
332.415	2.56
332.787	2.73
333.159	2.38
333.532	2.73
333.904	2.91
334.276	2.71
334.648	2.45
335.02	2.7
335.391	2.71
335.763	2.72
336.135	2.82
336.507	2.4
336.879	2.65
337.25	2.53
337.622	2.71
337.993	2.6
338.365	2.13
338.736	3
339.108	2.82
339.479	2.81
339.851	2.84
340.222	3.01
340.593	2.48
340.964	2.65
341.336	2.06
341.707	2.48
342.078	2.36
342.449	2.51
342.82	3.02
343.191	2.72
343.562	2.85
343.933	2.45
344.303	2.96
344.674	2.71
345.045	2.19
345.416	3.29
345.786	3.04
346.157	2.79
346.527	2.54
346.898	2.67
347.268	2.96
347.639	2.73
348.009	2.98
348.38	2.57
348.75	2.94
349.12	2.73
349.49	2.77
349.861	2.88
350.231	3.1
350.601	2.69
350.971	2.66
351.341	3.02
351.711	2.97
352.081	2.2
352.45	2.56
352.82	2.24
353.19	2.39
353.56	3.09
353.929	2.81
354.299	2.87
354.669	2.86
355.038	3.02
355.408	2.75
355.777	3.1
356.147	3.13
356.516	2.81
356.885	2.95
357.254	2.37
357.624	2.34
357.993	3.31
358.362	3.01
358.731	3.01
359.1	2.8
359.469	2.93
359.838	2.84
360.207	2.6
360.576	2.88
360.945	3.12
361.314	3.03
361.682	2.81
362.051	2.99
362.42	2.84
362.788	2.93
363.157	2.78
363.525	3.02
363.894	2.87
364.262	3.03
364.631	3.15
364.999	2.85
365.367	2.82
365.735	2.7
366.104	3.02
366.472	2.72
366.84	2.94
367.208	2.97
367.576	2.9
367.944	2.76
368.312	2.78
368.68	2.84
369.048	2.81
369.416	2.74
369.783	2.83
370.151	3.18
370.519	3.21
370.886	2.63
371.254	3.44
371.621	3.11
371.989	3.12
372.356	2.74
372.724	2.97
373.091	3.04
373.458	2.82
373.826	3.11
374.193	3.02
374.56	3.02
374.927	2.96
375.294	3.12
375.661	3.07
376.028	2.58
376.395	3.13
376.762	2.78
377.129	3.06
377.496	2.96
377.863	3
378.229	3.12
378.596	3.04
378.963	3.05
379.329	2.95
379.696	2.96
380.062	2.82
380.429	2.85
380.795	3.02
381.161	2.47
381.528	2.79
381.894	3.03
382.26	3.16
382.626	3.37
382.993	3.47
383.359	2.86
383.725	2.7
384.091	3.29
384.457	3.15
384.823	3.12
385.188	3.17
385.554	3.06
385.92	2.87
386.286	3.04
386.651	3.03
387.017	3.12
387.383	3.09
387.748	3.17
388.114	3.15
388.479	2.91
388.845	2.84
389.21	3.39
389.575	3.49
389.94	3.29
390.306	3.2
390.671	3.17
391.036	3.05
391.401	3.01
391.766	2.89
392.131	3.32
392.496	3.31
392.861	3.15
393.226	2.99
393.591	3
393.956	3.08
394.32	3.32
394.685	3.09
395.05	3.15
395.414	3.29
395.779	3.43
396.143	3.11
396.508	3.16
396.872	3.11
397.236	3.17
397.601	3.41
397.965	3.1
398.329	3.07
398.694	2.95
399.058	3.3
399.422	3.15
399.786	3.11
400.15	3.04
400.514	3.36
400.878	3.26
401.242	3.33
401.605	3.28
401.969	3.13
402.333	3.1
402.697	3.5
403.06	3.14
403.424	3.18
403.787	3.33
404.151	3.51
404.514	3.2
404.878	3.13
405.241	3.09
405.604	3.12
405.968	3.28
406.331	3.24
406.694	3.16
407.057	3.07
407.42	3.21
407.783	3.43
408.146	3.22
408.509	3.15
408.872	3.17
409.235	3.22
409.598	3.16
409.961	3.25
410.323	3.14
410.686	3.13
411.049	3.15
411.411	3.18
411.774	3.3
412.136	3.2
412.499	3.41
412.861	2.94
413.223	3.05
413.586	3.34
413.948	3.28
414.31	3.25
414.672	3.28
415.035	3.38
415.397	3.2
415.759	2.96
416.121	3.31
416.483	3.29
416.845	3.35
417.206	3.31
417.568	3.18
417.93	3.37
418.292	3.05
418.653	3.17
419.015	3.3
419.377	3.2
419.738	3.38
420.1	3.24
420.461	3.01
420.822	3.3
421.184	3.27
421.545	3.34
421.906	3.34
422.267	3.16
422.629	3.18
422.99	3.23
423.351	3.14
423.712	3.24
424.073	3.37
424.434	3.44
424.795	3.21
425.155	3.17
425.516	3.19
425.877	3.23
426.238	3.14
426.598	3.26
426.959	3.24
427.32	3.22
427.68	3.26
428.041	3.29
428.401	3.21
428.761	3.31
429.122	3.29
429.482	3.47
429.842	3.32
430.202	3.23
430.563	3.43
430.923	3.28
431.283	3.34
431.643	3.47
432.003	3.43
432.363	3.46
432.722	3.41
433.082	3.36
433.442	3.42
433.802	3.31
434.161	3.29
434.521	3.37
434.881	3.38
435.24	3.34
435.6	3.37
435.959	3.35
436.319	3.49
436.678	3.41
437.037	3.26
437.396	3.37
437.756	3.26
438.115	3.47
438.474	3.43
438.833	3.29
439.192	3.25
439.551	3.16
439.91	3.22
440.269	3.33
440.628	3.3
440.987	3.38
441.345	3.42
441.704	3.29
442.063	3.33
442.421	3.34
442.78	3.37
443.138	3.36
443.497	3.33
443.855	3.4
444.214	3.29
444.572	3.53
444.93	3.37
445.288	3.37
445.647	3.28
446.005	3.27
446.363	3.28
446.721	3.33
447.079	3.36
447.437	3.32
447.795	3.37
448.153	3.26
448.51	3.38
448.868	3.36
449.226	3.36
449.584	3.35
449.941	3.32
450.299	3.29
450.656	3.33
451.014	3.56
451.371	3.42
451.729	3.4
452.086	3.33
452.443	3.57
452.801	3.35
453.158	3.56
453.515	3.48
453.872	3.47
454.229	3.37
454.586	3.3
454.943	3.52
455.3	3.41
455.657	3.37
456.014	3.54
456.371	3.41
456.727	3.51
457.084	3.54
457.441	3.56
457.797	3.46
458.154	3.49
458.51	3.38
458.867	3.43
459.223	3.49
459.58	3.42
459.936	3.47
460.292	3.41
460.648	3.3
461.005	3.4
461.361	3.43
461.717	3.42
462.073	3.47
462.429	3.42
462.785	3.64
463.141	3.48
463.496	3.61
463.852	3.52
464.208	3.51
464.564	3.29
464.919	3.44
465.275	3.46
465.631	3.75
465.986	3.61
466.342	3.41
466.697	3.5
467.052	3.58
467.408	3.59
467.763	3.5
468.118	3.37
468.473	3.38
468.829	3.4
469.184	3.49
469.539	3.52
469.894	3.58
470.249	3.51
470.603	3.5
470.958	3.55
471.313	3.56
471.668	3.51
472.023	3.58
472.377	3.47
472.732	3.65
473.086	3.45
473.441	3.58
473.795	3.71
474.15	3.49
474.504	3.49
474.859	3.29
475.213	3.77
475.567	3.44
475.921	3.7
476.275	3.72
476.63	3.51
476.984	3.46
477.338	3.6
477.692	3.44
478.045	3.66
478.399	3.64
478.753	3.48
479.107	3.61
479.461	3.63
479.814	3.54
480.168	3.54
480.521	3.64
480.875	3.71
481.228	3.6
481.582	3.59
481.935	3.67
482.289	3.57
482.642	3.65
482.995	3.49
483.348	3.41
483.701	3.51
484.055	3.46
484.408	3.53
484.761	3.4
485.114	3.32
485.466	3.28
485.819	3.3
486.172	3.37
486.525	3.42
486.878	3.46
487.23	3.46
487.583	3.53
487.936	3.47
488.288	3.42
488.641	3.4
488.993	3.37
489.345	3.37
489.698	3.41
490.05	3.41
490.402	3.45
490.754	3.43
491.107	3.52
491.459	3.53
491.811	3.54
492.163	3.5
492.515	3.42
492.866	3.42
493.218	3.42
493.57	3.47
493.922	3.49
494.274	3.58
494.625	3.66
494.977	3.57
495.328	3.65
495.68	3.5
496.031	3.69
496.383	3.74
496.734	3.52
497.086	3.66
497.437	3.68
497.788	3.75
498.139	3.59
498.49	3.63
498.842	3.66
499.193	3.51
499.544	3.57
499.894	3.63
500.245	3.75
500.596	3.65
500.947	3.66
501.298	3.65
501.648	3.68
501.999	3.81
502.35	3.55
502.7	3.78
503.051	3.57
503.401	3.73
503.752	3.67
504.102	3.66
504.452	3.57
504.803	3.55
505.153	3.82
505.503	3.61
505.853	3.68
506.203	3.8
506.553	3.65
506.903	3.65
507.253	3.63
507.603	3.81
507.953	3.57
508.303	3.77
508.652	3.58
509.002	3.8
509.352	3.73
509.701	3.63
510.051	3.73
510.4	3.72
510.75	3.63
511.099	3.62
511.449	3.74
511.798	3.74
512.147	3.64
512.496	3.7
512.846	3.71
513.195	3.64
513.544	3.77
513.893	3.76
514.242	3.69
514.591	3.56
514.939	3.7
515.288	3.78
515.637	3.6
515.986	3.67
516.334	3.78
516.683	3.73
517.032	3.67
517.38	3.72
517.729	3.74
518.077	3.69
518.426	3.71
518.774	3.68
519.122	3.72
519.47	3.69
519.819	3.7
520.167	3.66
520.515	3.61
520.863	3.61
521.211	3.64
521.559	3.64
521.907	3.71
522.255	3.64
522.602	3.72
522.95	3.66
523.298	3.71
523.645	3.71
523.993	3.7
524.341	3.66
524.688	3.71
525.036	3.69
525.383	3.81
525.73	3.67
526.078	3.79
526.425	3.67
526.772	3.7
527.119	3.67
527.466	3.75
527.814	3.73
528.161	3.77
528.508	3.81
528.854	3.67
529.201	3.68
529.548	3.65
529.895	3.55
530.242	3.49
530.588	3.51
530.935	3.59
531.282	3.57
531.628	3.66
531.975	3.65
532.321	3.69
532.667	3.7
533.014	3.69
533.36	3.74
533.706	3.79
534.052	3.77
534.399	3.68
534.745	3.6
535.091	3.58
535.437	3.62
535.783	3.68
536.129	3.63
536.474	3.73
536.82	3.81
537.166	3.73
537.512	3.72
537.857	3.82
538.203	3.71
538.549	3.71
538.894	3.69
539.239	3.79
539.585	3.82
539.93	3.87
540.276	3.81
540.621	3.92
540.966	3.86
541.311	3.84
541.656	3.86
542.001	3.69
542.346	3.61
542.691	3.62
543.036	3.63
543.381	3.64
543.726	3.74
544.071	3.71
544.415	3.72
544.76	3.73
545.105	3.7
545.449	3.7
545.794	3.75
546.138	3.66
546.483	3.78
546.827	3.64
547.171	3.84
547.516	3.8
547.86	3.8
548.204	3.84
548.548	3.76
548.892	3.73
549.236	3.76
549.58	3.82
549.924	3.92
550.268	3.9
550.612	3.9
550.956	3.92
551.3	3.95
551.643	3.87
551.987	3.96
552.33	4.13
552.674	3.85
553.017	3.93
553.361	4.04
553.704	4.03
554.048	3.69
554.391	4.02
554.734	3.79
555.077	3.79
555.42	3.85
555.764	3.83
556.107	3.93
556.45	4.06
556.793	4.16
557.135	3.88
557.478	3.88
557.821	4.01
558.164	4
558.507	3.81
558.849	4.11
559.192	3.86
559.534	3.9
559.877	3.95
560.219	4.03
560.562	3.94
560.904	4.1
561.246	3.83
561.589	4.19
561.931	3.88
562.273	3.87
562.615	4
562.957	3.79
563.299	3.89
563.641	3.95
563.983	3.84
564.325	4.01
564.667	4.06
565.008	3.78
565.35	3.91
565.692	3.85
566.033	3.95
566.375	3.78
566.716	3.92
567.058	3.86
567.399	4.11
567.741	4
568.082	3.99
568.423	3.93
568.764	3.9
569.105	3.87
569.447	3.92
569.788	3.95
570.129	4.06
570.47	3.88
570.811	4.06
571.151	3.99
571.492	3.93
571.833	3.81
572.174	3.94
572.514	3.99
572.855	4.09
573.195	3.94
573.536	3.98
573.876	3.99
574.217	3.88
574.557	3.79
574.898	3.85
575.238	4.08
575.578	4.06
575.918	4.03
576.258	4.21
576.598	3.85
576.938	4.02
577.278	4
577.618	3.88
577.958	4.04
578.298	4.05
578.638	3.85
578.977	3.98
579.317	4.01
579.657	3.91
579.996	4.17
580.336	4.14
580.675	4.13
581.014	4.07
581.354	3.92
581.693	4.37
582.032	4.27
582.372	4.03
582.711	4.23
583.05	4.06
583.389	4.04
583.728	4.17
584.067	3.9
584.406	4.23
584.745	3.8
585.083	4
585.422	4.11
585.761	3.97
586.1	4.03
586.438	3.96
586.777	4.1
587.115	4.06
587.454	3.79
587.792	4.04
588.13	4.05
588.469	3.9
588.807	4.13
589.145	4.23
589.483	3.97
589.821	4.18
590.159	4.18
590.497	4.1
590.835	4.11
591.173	4.23
591.511	4.27
591.849	4.22
592.187	4.13
592.524	4.3
592.862	3.99
593.2	4.07
593.537	4.1
593.875	4.04
594.212	3.98
594.55	4.06
594.887	4.09
595.224	4.18
595.561	4.18
595.899	4.1
596.236	4.3
596.573	3.95
596.91	4.17
597.247	4.29
597.584	4.18
597.921	4.07
598.258	4.26
598.594	4.12
598.931	4.06
599.268	3.88
599.604	4.21
599.941	4.19
600.277	4.12
600.614	4.15
600.95	4.02
601.287	3.95
601.623	3.83
601.959	4.31
602.296	4.23
602.632	4.16
602.968	4.13
603.304	4.09
603.64	4.16
603.976	4.1
604.312	4.05
604.648	4.15
604.984	4.06
605.319	4.16
605.655	4.1
605.991	4.07
606.326	4.09
606.662	3.95
606.998	4.28
607.333	4.25
607.668	4
608.004	3.88
608.339	4.1
608.674	4.25
609.01	4.57
609.345	4.12
609.68	3.94
610.015	4.06
610.35	4.14
610.685	4.05
611.02	4.06
611.355	4.1
611.689	4.09
612.024	4.2
612.359	4.14
612.694	4.48
613.028	3.9
613.363	4.08
613.697	4.16
614.032	4.16
614.366	3.98
614.7	4.08
615.035	4.22
615.369	4.32
615.703	4.1
616.037	4.11
616.371	3.96
616.705	4.16
617.039	4.39
617.373	4.35
617.707	4.18
618.041	3.96
618.375	3.94
618.709	4.11
619.042	4.31
619.376	4.1
619.71	4.26
620.043	4.34
620.377	4.44
620.71	4.05
621.043	4.3
621.377	4.35
621.71	4.65
622.043	4.13
622.376	4.03
622.709	4.73
623.043	4.2
623.376	4.04
623.709	4.55
624.041	4.14
624.374	4.06
624.707	4.2
625.04	4.29
625.373	4.34
625.705	4.33
626.038	4.32
626.37	3.99
626.703	4.17
627.035	4.06
627.368	4.47
627.7	4.3
628.032	4.39
628.365	4.38
628.697	4.28
629.029	4.29
629.361	4.56
629.693	4.57
630.025	4.39
630.357	4.36
630.689	4.24
631.021	4.36
631.353	4.34
631.684	4.12
632.016	3.83
632.348	4.12
632.679	4.53
633.011	4.18
633.342	4.17
633.674	4.11
634.005	4.27
634.336	4.26
634.668	4.29
634.999	4.29
635.33	4.46
635.661	4.34
635.992	4.35
636.323	3.96
636.654	4.23
636.985	4.16
637.316	4.35
637.647	4.42
637.977	4.01
638.308	4.5
638.639	4.05
638.969	3.94
639.3	4.3
639.63	4.67
639.961	4.9
640.291	4.38
640.622	4.62
640.952	4.66
641.282	4.27
641.612	4.45
641.943	3.67
642.273	4.34
642.603	4.84
642.933	4.6
643.263	4.38
643.592	4.71
643.922	4.58
644.252	4.15
644.582	4.64
644.911	4.31
645.241	4.35
645.571	4.37
645.9	3.98
646.23	4.76
646.559	4.06
646.888	4.79
647.218	4.39
647.547	4.05
647.876	4.64
648.205	4.15
648.534	4.46
648.863	4.08
649.192	4.52
649.521	4.1
649.85	4.55
650.179	4.41
650.508	4.53
650.837	4.63
651.165	4.31
651.494	4.21
651.822	4.54
652.151	4.43
652.479	4.53
652.808	4.17
653.136	4.37
653.465	4.27
653.793	4.42
654.121	4.27
654.449	3.7
654.777	4.24
655.105	4.38
655.433	4.48
655.761	4.12
656.089	4.19
656.417	4.87
656.745	4.85
657.073	3.87
657.4	4.1
657.728	4.16
658.056	4.62
658.383	4.53
658.711	4.35
659.038	4.83
659.365	4.89
659.693	4.45
660.02	4.16
660.347	4.36
660.674	4.16
661.001	4.03
661.329	4.17
661.656	4.16
661.982	4.17
662.309	4.6
662.636	4.03
662.963	4.39
663.29	4.44
663.616	4.27
663.943	4.39
664.27	4.75
664.596	4.01
664.923	4.66
665.249	4.52
665.576	4.26
665.902	4.71
666.228	4.52
666.554	4.74
666.881	4.11
667.207	4.5
667.533	4.11
667.859	4.19
668.185	4.53
668.511	4.8
668.837	4.12
669.162	4.75
669.488	4.42
669.814	4.3
670.139	4.23
670.465	4.79
670.791	4.32
671.116	4.27
671.442	4.16
671.767	4.09
672.092	4.69
672.418	4.52
672.743	4.54
673.068	4.07
673.393	4.84
673.718	3.78
674.043	4.4
674.368	4.53
674.693	4.3
675.018	5.12
675.343	4.72
675.667	4.44
675.992	3.98
676.317	4.11
676.641	4.66
676.966	4.39
677.29	4.59
677.615	4.39
677.939	4.73
678.264	4.26
678.588	4.33
678.912	4.49
679.236	4.31
679.56	4.15
679.885	4.81
680.209	5.11
680.532	4.7
680.856	4.54
681.18	4.67
681.504	4.5
681.828	4.08
682.152	4.57
682.475	4.79
682.799	4.21
683.122	4.68
683.446	4.1
683.769	4.87
684.093	4.64
684.416	5.03
684.739	3.91
685.062	4.44
685.386	4.57
685.709	5.26
686.032	4.36
686.355	4.49
686.678	5.16
687.001	4.52
687.324	3.87
687.646	4.35
687.969	4.24
688.292	4.27
688.614	4.56
688.937	4.83
689.26	4.95
689.582	4.3
689.904	4.65
690.227	5.45
690.549	5.02
690.871	4.3
691.194	4.23
691.516	3.85
691.838	4.55
692.16	3.93
