Data from 0008_forehead_Reflection__1__358.txt Node

Date: Thu Dec 15 19:25:12 CST 2022
User: ToomeyLab
Spectrometer: FLMS14357
Trigger mode: 0
Integration Time (sec): 1.000000E-2
Scans to average: 100
Electric dark correction enabled: true
Nonlinearity correction enabled: false
Boxcar width: 0
XAxis mode: Wavelengths
Number of Pixels in Spectrum: 2048
>>>>>Begin Spectral Data<<<<<
189.047	1330.29
189.435	1330.29
189.823	1330.29
190.211	-448.9
190.599	-13.1
190.987	-37.71
191.375	-147.36
191.763	-106.25
192.151	145.89
192.538	76.95
192.926	-493.54
193.314	2370.98
193.702	-98.55
194.089	-207.61
194.477	-23.64
194.864	80.19
195.252	420.25
195.639	117.88
196.027	206.48
196.414	37.08
196.801	172.89
197.189	244.4
197.576	-174.94
197.963	140.8
198.351	13.77
198.738	20.56
199.125	-170.33
199.512	28.89
199.899	-36.08
200.286	-82.28
200.673	48.36
201.06	-40.16
201.447	-13.05
201.833	5.87
202.22	-40.21
202.607	-41.06
202.994	-2.72
203.38	18.3
203.767	57.24
204.154	27.12
204.54	31.38
204.927	24.67
205.313	18.26
205.699	34.88
206.086	17.68
206.472	44.89
206.858	64.42
207.245	4.84
207.631	16.29
208.017	30.03
208.403	-47.1
208.789	22.41
209.175	-2.37
209.561	-48.96
209.947	1.31
210.333	-22.25
210.719	24.63
211.105	23.85
211.491	4.77
211.876	-6.37
212.262	8.45
212.648	13.19
213.034	-4.1
213.419	-0.71
213.805	-39.27
214.19	-44.75
214.576	-23.29
214.961	-17.9
215.346	-53.46
215.732	-15.55
216.117	-8.58
216.502	-12.76
216.888	-0.75
217.273	-9.58
217.658	-8.85
218.043	-43.2
218.428	0.24
218.813	11.12
219.198	-59.74
219.583	-2.41
219.968	25.62
220.353	-42.5
220.738	-14.1
221.122	-0.87
221.507	-3.18
221.892	-16.62
222.276	-46.06
222.661	-17.84
223.046	-4.05
223.43	12.63
223.815	-3.9
224.199	-13.92
224.583	0.14
224.968	11.8
225.352	-2.32
225.736	7.6
226.121	-2.87
226.505	-1.9
226.889	0.03
227.273	0.1
227.657	5.62
228.041	4.45
228.425	-0.84
228.809	1.73
229.193	5.06
229.577	3.05
229.961	4
230.344	3.81
230.728	4.4
231.112	3.51
231.495	2.2
231.879	3.96
232.263	3.9
232.646	2.82
233.03	4.95
233.413	5.65
233.797	0.56
234.18	2.43
234.563	3.53
234.946	3.08
235.33	2.19
235.713	4.43
236.096	4.21
236.479	4.78
236.862	2.01
237.245	2.81
237.628	3.83
238.011	2.93
238.394	0.76
238.777	4.04
239.16	6.62
239.543	4.79
239.925	3.15
240.308	2.18
240.691	2.06
241.073	3.71
241.456	4.14
241.838	3.42
242.221	2.93
242.603	3.91
242.986	3.57
243.368	4.32
243.75	3.83
244.133	3.92
244.515	3.6
244.897	3.16
245.279	2.96
245.661	2.76
246.043	3.83
246.425	3.39
246.807	2.77
247.189	2.43
247.571	3.7
247.953	3.32
248.335	3.53
248.717	3.59
249.098	3.67
249.48	3.26
249.862	3.5
250.243	3.6
250.625	3.35
251.006	3.28
251.388	3.54
251.769	2.7
252.151	3.14
252.532	3.09
252.913	3.25
253.295	3.57
253.676	3.7
254.057	3.36
254.438	3.65
254.819	3.4
255.2	3.46
255.581	4.43
255.962	4.19
256.343	4.03
256.724	2.94
257.105	2.05
257.486	2.23
257.867	2.78
258.247	3.82
258.628	3.66
259.009	3.09
259.389	2.87
259.77	3.11
260.15	3.6
260.531	3.44
260.911	3.64
261.292	3.5
261.672	3.38
262.052	3.65
262.432	3.14
262.813	3.87
263.193	3.77
263.573	3.23
263.953	2.95
264.333	3.33
264.713	3.93
265.093	3.91
265.473	7.5
265.853	3.17
266.233	2.39
266.612	3.54
266.992	3.46
267.372	3.62
267.752	3.98
268.131	3.25
268.511	3.53
268.89	3.49
269.27	2.85
269.649	3.23
270.029	2.85
270.408	2.76
270.787	3.47
271.167	3.64
271.546	3.82
271.925	3.21
272.304	3.08
272.683	3.25
273.062	3.14
273.441	2.98
273.82	2.91
274.199	3.37
274.578	3.59
274.957	3.27
275.336	3.32
275.715	3.33
276.093	3.23
276.472	2.82
276.851	3.23
277.229	3.45
277.608	3.16
277.986	3.04
278.365	3.65
278.743	3.34
279.122	2.34
279.5	3.01
279.878	3.06
280.257	3.19
280.635	3.5
281.013	2.3
281.391	3.24
281.769	3.49
282.147	3.26
282.525	3.57
282.903	2.73
283.281	3.53
283.659	3.56
284.037	3.34
284.415	3.52
284.792	3.8
285.17	2.75
285.548	3.31
285.925	3.37
286.303	3.49
286.68	3.03
287.058	3.41
287.435	3.02
287.813	3.45
288.19	2.98
288.567	3.57
288.945	2.98
289.322	3.18
289.699	3.59
290.076	3.23
290.453	3.04
290.83	3.46
291.207	2.78
291.584	3.47
291.961	3.44
292.338	3.24
292.715	2.88
293.092	3.63
293.469	3.08
293.845	3.63
294.222	3.47
294.599	3.16
294.975	3.14
295.352	3.24
295.728	3.55
296.105	3.21
296.481	3.36
296.858	3.59
297.234	3.07
297.61	3.45
297.986	3.43
298.363	3.77
298.739	3.87
299.115	3.51
299.491	3.82
299.867	3.66
300.243	3.68
300.619	3.39
300.995	4.04
301.371	3.8
301.746	3.67
302.122	3.2
302.498	3.54
302.874	3.76
303.249	3.53
303.625	3.22
304	3.52
304.376	4.19
304.751	3.9
305.127	3.2
305.502	3.71
305.878	3.85
306.253	3.07
306.628	3.93
307.003	3.62
307.378	3.44
307.754	3.58
308.129	3.68
308.504	3.66
308.879	4.08
309.254	4.21
309.629	3.79
310.003	3.59
310.378	3.97
310.753	4.16
311.128	3.78
311.502	4.16
311.877	3.94
312.252	3.99
312.626	4.28
313.001	4.19
313.375	4.14
313.75	3.99
314.124	4.19
314.498	4.48
314.873	3.79
315.247	4.03
315.621	4.31
315.995	3.91
316.369	3.8
316.743	3.99
317.117	3.96
317.491	4.08
317.865	3.35
318.239	4.61
318.613	4.03
318.987	4.06
319.361	4.5
319.734	3.84
320.108	4.21
320.482	4.33
320.855	4.11
321.229	4.82
321.602	3.97
321.976	4.21
322.349	4.68
322.723	4.67
323.096	4.19
323.469	4.03
323.843	4.07
324.216	3.82
324.589	4.46
324.962	4.07
325.335	4.22
325.708	4.15
326.081	3.95
326.454	4.78
326.827	4.6
327.2	4.4
327.573	4.88
327.945	4.1
328.318	4.58
328.691	4.46
329.063	4.84
329.436	4.01
329.809	4.9
330.181	5.48
330.553	5.25
330.926	5.04
331.298	4.37
331.671	4.63
332.043	4.53
332.415	4.84
332.787	4.85
333.159	4.48
333.532	5.15
333.904	4.84
334.276	4.55
334.648	4.92
335.02	4.48
335.391	4.56
335.763	4.86
336.135	4.76
336.507	4.31
336.879	4.74
337.25	4.77
337.622	5.05
337.993	4.66
338.365	5.16
338.736	4.82
339.108	5.03
339.479	4.82
339.851	5.11
340.222	5.37
340.593	5.12
340.964	4.91
341.336	5.07
341.707	5.21
342.078	4.85
342.449	5.2
342.82	5.59
343.191	5.26
343.562	5.17
343.933	5.01
344.303	5.3
344.674	4.79
345.045	4.94
345.416	5.25
345.786	5.32
346.157	5.3
346.527	4.68
346.898	5.03
347.268	5.38
347.639	5.36
348.009	5.42
348.38	4.81
348.75	5.41
349.12	5.54
349.49	5.5
349.861	5.19
350.231	5.37
350.601	5.58
350.971	5.26
351.341	5.85
351.711	5.32
352.081	5.07
352.45	5.47
352.82	5.15
353.19	5.8
353.56	5.71
353.929	5.72
354.299	5.75
354.669	5.67
355.038	6.26
355.408	5.63
355.777	5.52
356.147	5.73
356.516	5.67
356.885	6.04
357.254	5.44
357.624	5.43
357.993	5.68
358.362	6.15
358.731	6.1
359.1	5.83
359.469	6
359.838	5.82
360.207	6.03
360.576	5.85
360.945	6.02
361.314	5.82
361.682	5.88
362.051	6
362.42	6.07
362.788	6.1
363.157	5.69
363.525	6.13
363.894	5.66
364.262	6.13
364.631	6.11
364.999	6.11
365.367	5.95
365.735	5.92
366.104	6.02
366.472	6.42
366.84	6.21
367.208	6.73
367.576	6
367.944	6.55
368.312	6.4
368.68	6.55
369.048	6.15
369.416	6.17
369.783	5.96
370.151	6.47
370.519	6.99
370.886	6.51
371.254	6.67
371.621	6.91
371.989	6.72
372.356	6.53
372.724	6.68
373.091	6.81
373.458	6.37
373.826	6.68
374.193	6.68
374.56	6.75
374.927	6.71
375.294	6.72
375.661	6.61
376.028	6.86
376.395	6.65
376.762	6.78
377.129	6.65
377.496	7.07
377.863	7.05
378.229	6.93
378.596	7.19
378.963	7.07
379.329	6.99
379.696	6.72
380.062	7.08
380.429	6.97
380.795	7.13
381.161	6.55
381.528	6.49
381.894	7.24
382.26	7.29
382.626	7.2
382.993	7.51
383.359	7.39
383.725	7.25
384.091	7.18
384.457	7.13
384.823	7.53
385.188	7.51
385.554	7.38
385.92	7.27
386.286	7.44
386.651	7.3
387.017	7.65
387.383	7.36
387.748	7.76
388.114	7.56
388.479	7.52
388.845	7.48
389.21	7.69
389.575	7.86
389.94	7.81
390.306	7.62
390.671	7.8
391.036	7.54
391.401	7.74
391.766	7.7
392.131	8.08
392.496	7.93
392.861	7.81
393.226	7.68
393.591	7.84
393.956	8.08
394.32	8
394.685	7.95
395.05	7.82
395.414	8.15
395.779	8.07
396.143	7.88
396.508	8.02
396.872	8.12
397.236	8.34
397.601	8.48
397.965	8.17
398.329	8.19
398.694	7.97
399.058	8.26
399.422	8.34
399.786	8.3
400.15	8.35
400.514	8.07
400.878	8.14
401.242	8.59
401.605	8.52
401.969	8.48
402.333	8.33
402.697	8.71
403.06	8.6
403.424	8.74
403.787	8.83
404.151	8.8
404.514	8.53
404.878	8.47
405.241	8.62
405.604	8.61
405.968	8.72
406.331	8.87
406.694	8.68
407.057	8.62
407.42	8.74
407.783	8.9
408.146	8.89
408.509	8.78
408.872	9.07
409.235	9.07
409.598	8.83
409.961	9.1
410.323	8.9
410.686	9.33
411.049	9.23
411.411	8.97
411.774	8.86
412.136	9.12
412.499	9.1
412.861	8.69
413.223	9.2
413.586	9.18
413.948	9.38
414.31	9.28
414.672	9.38
415.035	9.35
415.397	9.21
415.759	9.27
416.121	9.44
416.483	9.44
416.845	9.42
417.206	9.52
417.568	9.31
417.93	9.66
418.292	9.22
418.653	9.21
419.015	9.48
419.377	9.53
419.738	9.68
420.1	9.49
420.461	9.42
420.822	9.53
421.184	9.56
421.545	9.48
421.906	9.55
422.267	9.55
422.629	9.57
422.99	9.48
423.351	9.6
423.712	9.59
424.073	9.92
424.434	9.84
424.795	9.64
425.155	9.64
425.516	9.83
425.877	9.69
426.238	9.88
426.598	9.92
426.959	9.97
427.32	9.88
427.68	9.98
428.041	10.09
428.401	10.06
428.761	10.26
429.122	10.26
429.482	10.26
429.842	10.03
430.202	10.48
430.563	10.36
430.923	10.48
431.283	10.5
431.643	10.51
432.003	10.52
432.363	10.71
432.722	10.58
433.082	10.53
433.442	10.51
433.802	10.67
434.161	10.67
434.521	10.68
434.881	10.75
435.24	10.53
435.6	10.69
435.959	10.7
436.319	10.77
436.678	10.88
437.037	10.78
437.396	10.94
437.756	10.8
438.115	11.02
438.474	11.05
438.833	11.02
439.192	10.88
439.551	10.92
439.91	11.08
440.269	11.15
440.628	11.02
440.987	11.07
441.345	11.06
441.704	11
442.063	10.98
442.421	11.1
442.78	11.16
443.138	11.14
443.497	11.17
443.855	11.32
444.214	11.25
444.572	11.47
444.93	11.31
445.288	11.32
445.647	11.33
446.005	11.43
446.363	11.42
446.721	11.43
447.079	11.38
447.437	11.41
447.795	11.41
448.153	11.43
448.51	11.4
448.868	11.49
449.226	11.59
449.584	11.53
449.941	11.76
450.299	11.57
450.656	11.79
451.014	12.01
451.371	11.94
451.729	11.9
452.086	11.91
452.443	12.12
452.801	12.11
453.158	12.26
453.515	12.1
453.872	12.12
454.229	11.96
454.586	12
454.943	12.23
455.3	12.13
455.657	12.24
456.014	12.23
456.371	12.41
456.727	12.59
457.084	12.62
457.441	12.71
457.797	12.53
458.154	12.41
458.51	12.47
458.867	12.71
459.223	12.51
459.58	12.55
459.936	12.64
460.292	12.55
460.648	12.54
461.005	12.56
461.361	12.46
461.717	12.55
462.073	12.6
462.429	12.74
462.785	12.85
463.141	12.85
463.496	12.99
463.852	13.03
464.208	13.05
464.564	13.12
464.919	13.06
465.275	13.13
465.631	13.25
465.986	13.24
466.342	13.25
466.697	13.09
467.052	13.24
467.408	13.46
467.763	13.24
468.118	13.18
468.473	13.41
468.829	13.33
469.184	13.6
469.539	13.49
469.894	13.47
470.249	13.74
470.603	13.79
470.958	13.84
471.313	13.93
471.668	13.52
472.023	13.82
472.377	13.67
472.732	14.02
473.086	13.9
473.441	13.87
473.795	13.98
474.15	14.04
474.504	14.02
474.859	13.8
475.213	14.06
475.567	13.93
475.921	14.02
476.275	14.15
476.63	14.33
476.984	14.22
477.338	14.41
477.692	14.25
478.045	14.32
478.399	14.38
478.753	14.29
479.107	14.41
479.461	14.4
479.814	14.35
480.168	14.37
480.521	14.4
480.875	14.51
481.228	14.53
481.582	14.72
481.935	14.84
482.289	14.6
482.642	14.63
482.995	14.68
483.348	14.52
483.701	14.66
484.055	14.53
484.408	14.3
484.761	14.18
485.114	13.96
485.466	13.93
485.819	13.99
486.172	14.04
486.525	14.06
486.878	14.25
487.23	14.32
487.583	14.59
487.936	14.52
488.288	14.49
488.641	14.51
488.993	14.47
489.345	14.38
489.698	14.45
490.05	14.51
490.402	14.59
490.754	14.78
491.107	14.79
491.459	15.1
491.811	15.18
492.163	15.23
492.515	15.08
492.866	14.96
493.218	14.85
493.57	14.97
493.922	14.99
494.274	15.14
494.625	15.35
494.977	15.53
495.328	15.71
495.68	15.79
496.031	15.74
496.383	15.99
496.734	16
497.086	16.23
497.437	16.15
497.788	16.09
498.139	15.89
498.49	15.97
498.842	16.1
499.193	15.93
499.544	16.13
499.894	16.04
500.245	16.23
500.596	16.36
500.947	16.38
501.298	16.5
501.648	16.57
501.999	16.58
502.35	16.74
502.7	16.83
503.051	16.74
503.401	16.76
503.752	16.71
504.102	16.71
504.452	16.73
504.803	16.91
505.153	16.98
505.503	16.98
505.853	16.95
506.203	16.97
506.553	16.99
506.903	17
507.253	17.12
507.603	17.11
507.953	17.22
508.303	17.37
508.652	17.23
509.002	17.38
509.352	17.3
509.701	17.08
510.051	17.26
510.4	17.33
510.75	17.34
511.099	17.15
511.449	17.38
511.798	17.31
512.147	17.54
512.496	17.51
512.846	17.46
513.195	17.54
513.544	17.6
513.893	17.59
514.242	17.59
514.591	17.58
514.939	17.82
515.288	17.79
515.637	17.87
515.986	17.98
516.334	18.1
516.683	18.12
517.032	18.06
517.38	18.04
517.729	18.2
518.077	18.14
518.426	18.26
518.774	18.22
519.122	18.13
519.47	17.99
519.819	18.06
520.167	17.88
520.515	17.92
520.863	18
521.211	18.04
521.559	18.04
521.907	18.2
522.255	18.33
522.602	18.41
522.95	18.59
523.298	18.57
523.645	18.72
523.993	18.66
524.341	18.73
524.688	18.76
525.036	18.73
525.383	18.87
525.73	18.66
526.078	18.84
526.425	18.75
526.772	18.69
527.119	18.55
527.466	18.55
527.814	18.53
528.161	18.68
528.508	18.68
528.854	18.65
529.201	18.63
529.548	18.45
529.895	18.28
530.242	18.34
530.588	18.34
530.935	18.38
531.282	18.3
531.628	18.49
531.975	18.67
532.321	18.84
532.667	19.02
533.014	19.06
533.36	19.22
533.706	19.31
534.052	19.24
534.399	19.16
534.745	18.94
535.091	19.01
535.437	19.14
535.783	18.99
536.129	19.34
536.474	19.45
536.82	19.59
537.166	19.68
537.512	19.73
537.857	19.72
538.203	19.63
538.549	19.59
538.894	19.77
539.239	19.79
539.585	20.03
539.93	20.14
540.276	20.29
540.621	20.27
540.966	20.41
541.311	20.35
541.656	20.31
542.001	20.13
542.346	20.02
542.691	19.83
543.036	19.79
543.381	19.77
543.726	19.85
544.071	19.96
544.415	19.97
544.76	20.22
545.105	20.28
545.449	20.4
545.794	20.52
546.138	20.56
546.483	20.68
546.827	20.78
547.171	20.82
547.516	20.77
547.86	20.92
548.204	20.79
548.548	20.91
548.892	20.96
549.236	20.93
549.58	21.27
549.924	21.17
550.268	21.37
550.612	21.49
550.956	21.75
551.3	21.79
551.643	21.72
551.987	21.87
552.33	21.91
552.674	21.89
553.017	21.9
553.361	21.96
553.704	22.01
554.048	21.88
554.391	22.05
554.734	21.75
555.077	22.02
555.42	22.08
555.764	21.96
556.107	22.19
556.45	22.41
556.793	22.37
557.135	22.59
557.478	22.58
557.821	22.48
558.164	22.48
558.507	22.56
558.849	22.66
559.192	22.74
559.534	22.54
559.877	22.62
560.219	22.83
560.562	23.02
560.904	23.07
561.246	22.87
561.589	23.05
561.931	22.89
562.273	22.96
562.615	23.01
562.957	22.76
563.299	23.13
563.641	23.22
563.983	22.96
564.325	23.38
564.667	23.3
565.008	23.19
565.35	23.37
565.692	23.27
566.033	23.62
566.375	23.38
566.716	23.41
567.058	23.46
567.399	23.4
567.741	23.31
568.082	23.28
568.423	23.41
568.764	23.42
569.105	23.48
569.447	23.45
569.788	23.53
570.129	23.69
570.47	23.83
570.811	23.88
571.151	23.91
571.492	23.86
571.833	23.6
572.174	23.9
572.514	24.03
572.855	24.05
573.195	23.99
573.536	23.94
573.876	24.01
574.217	23.99
574.557	24.05
574.898	24.12
575.238	24.2
575.578	24.13
575.918	24.35
576.258	24.39
576.598	24.27
576.938	24.27
577.278	24.48
577.618	24.58
577.958	24.74
578.298	24.44
578.638	24.59
578.977	24.69
579.317	24.78
579.657	24.76
579.996	25.14
580.336	25.04
580.675	25.07
581.014	25.15
581.354	25.02
581.693	25.32
582.032	25.55
582.372	25.34
582.711	25.34
583.05	25.24
583.389	25.46
583.728	25.6
584.067	25.38
584.406	25.8
584.745	25.35
585.083	25.41
585.422	25.62
585.761	25.78
586.1	25.72
586.438	25.59
586.777	26.14
587.115	25.74
587.454	25.77
587.792	26.06
588.13	25.86
588.469	25.9
588.807	25.97
589.145	25.96
589.483	25.76
589.821	25.92
590.159	26.22
590.497	26.03
590.835	26.13
591.173	26.14
591.511	26.46
591.849	26.31
592.187	26.46
592.524	26.8
592.862	26.29
593.2	26.42
593.537	26.38
593.875	26.7
594.212	26.43
594.55	26.72
594.887	26.89
595.224	26.81
595.561	26.6
595.899	26.7
596.236	26.75
596.573	26.67
596.91	26.85
597.247	26.85
597.584	26.58
597.921	26.85
598.258	26.66
598.594	26.68
598.931	26.84
599.268	26.69
599.604	27.02
599.941	26.94
600.277	26.73
600.614	26.89
600.95	27.25
601.287	27.22
601.623	26.92
601.959	27.4
602.296	27.5
602.632	27.6
602.968	27.24
603.304	27.23
603.64	27.56
603.976	27.5
604.312	27.59
604.648	27.58
604.984	27.55
605.319	27.51
605.655	27.39
605.991	27.77
606.326	27.39
606.662	27.46
606.998	27.62
607.333	27.68
607.668	27.58
608.004	27.48
608.339	27.87
608.674	28.04
609.01	28.05
609.345	28.17
609.68	28.05
610.015	28.3
610.35	28.61
610.685	28.11
611.02	28.05
611.355	28.17
611.689	28.4
612.024	28.41
612.359	28.33
612.694	28.4
613.028	28.61
613.363	28.37
613.697	28.54
614.032	28.49
614.366	28.64
614.7	28.91
615.035	28.34
615.369	28.94
615.703	29
616.037	28.98
616.371	28.6
616.705	28.94
617.039	29.18
617.373	29.08
617.707	29.1
618.041	29.22
618.375	28.96
618.709	29.04
619.042	29.42
619.376	29.2
619.71	29.42
620.043	29.61
620.377	29.39
620.71	29.41
621.043	29.69
621.377	29.41
621.71	29.92
622.043	29.8
622.376	29.81
622.709	29.94
623.043	30.31
623.376	29.51
623.709	29.93
624.041	29.84
624.374	29.56
624.707	29.73
625.04	30.16
625.373	30.04
625.705	30.61
626.038	30.06
626.37	29.92
626.703	30.2
627.035	30.16
627.368	30.4
627.7	30.33
628.032	30.42
628.365	30.41
628.697	30.46
629.029	30.44
629.361	30.35
629.693	30.2
630.025	30.19
630.357	30.56
630.689	30.65
631.021	30.4
631.353	30.79
631.684	30.5
632.016	30.67
632.348	30.84
632.679	30.71
633.011	30.87
633.342	30.88
633.674	31.14
634.005	30.44
634.336	31.13
634.668	30.87
634.999	30.92
635.33	31.04
635.661	31
635.992	30.89
636.323	31.25
636.654	30.94
636.985	30.93
637.316	31.5
637.647	31.27
637.977	31.21
638.308	31.76
638.639	31.51
638.969	31.38
639.3	31.32
639.63	31.76
639.961	31.78
640.291	31.32
640.622	31.9
640.952	31.7
641.282	31.46
641.612	31.93
641.943	31.9
642.273	32.03
642.603	31.82
642.933	32.29
643.263	32.02
643.592	31.92
643.922	32.34
644.252	32.17
644.582	32.03
644.911	32.11
645.241	31.99
645.571	31.78
645.9	32.41
646.23	32.35
646.559	31.99
646.888	32.39
647.218	32.61
647.547	32.42
647.876	32.77
648.205	32.23
648.534	32.67
648.863	32.56
649.192	32.88
649.521	32.69
649.85	33.03
650.179	32.87
650.508	32.68
650.837	32.83
651.165	32.9
651.494	32.66
651.822	33.11
652.151	32.94
652.479	33.21
652.808	32.64
653.136	32.61
653.465	32.72
653.793	33.15
654.121	32.54
654.449	33.02
654.777	32.53
655.105	33
655.433	33.13
655.761	32.93
656.089	33.42
656.417	33.73
656.745	33.17
657.073	33.44
657.4	33.47
657.728	33.45
658.056	33.2
658.383	33.69
658.711	33.73
659.038	34.3
659.365	33.84
659.693	33.3
660.02	33.49
660.347	33.96
660.674	33.46
661.001	34.01
661.329	33.69
661.656	33.79
661.982	33.38
662.309	33.43
662.636	33.7
662.963	33.63
663.29	34.69
663.616	34.06
663.943	34.05
664.27	33.93
664.596	33.95
664.923	34.66
665.249	34.54
665.576	34.3
665.902	33.98
666.228	34.91
666.554	34.82
666.881	34.31
667.207	35.1
667.533	33.97
667.859	34.11
668.185	34.04
668.511	34.85
668.837	34.62
669.162	34.94
669.488	34.39
669.814	33.97
670.139	33.76
670.465	34.75
670.791	34.82
671.116	34.93
671.442	34.12
671.767	34.02
672.092	34.77
672.418	34.47
672.743	34.61
673.068	34.8
673.393	35.43
673.718	34.91
674.043	35.23
674.368	35.14
674.693	35.35
675.018	35.53
675.343	35.05
