Data from 0008_chest_Reflection__3__350.txt Node

Date: Thu Dec 15 19:22:38 CST 2022
User: ToomeyLab
Spectrometer: FLMS14357
Trigger mode: 0
Integration Time (sec): 1.000000E-2
Scans to average: 100
Electric dark correction enabled: true
Nonlinearity correction enabled: false
Boxcar width: 0
XAxis mode: Wavelengths
Number of Pixels in Spectrum: 2048
>>>>>Begin Spectral Data<<<<<
189.047	-110.58
189.435	-110.58
189.823	-110.58
190.211	-262.01
190.599	-7.03
190.987	-20.47
191.375	203.98
191.763	677.65
192.151	158.5
192.538	72.19
192.926	-794.58
193.314	861.61
193.702	21.03
194.089	-41.86
194.477	39.52
194.864	165.19
195.252	-18.87
195.639	113.11
196.027	373.64
196.414	76.77
196.801	331.93
197.189	178.98
197.576	-210.38
197.963	97.19
198.351	-2.63
198.738	-69.9
199.125	-64.15
199.512	7.71
199.899	-108.69
200.286	-135.24
200.673	5.78
201.06	-51.42
201.447	-4.84
201.833	-0.68
202.22	-6.51
202.607	-181.64
202.994	5.52
203.38	15.46
203.767	-56.76
204.154	5.65
204.54	0.69
204.927	17.34
205.313	-8.21
205.699	24.48
206.086	34.03
206.472	11.13
206.858	25.93
207.245	-2.13
207.631	20.81
208.017	24.29
208.403	-79.03
208.789	-4.79
209.175	-84.4
209.561	-81.69
209.947	20.72
210.333	-27.18
210.719	-14.32
211.105	17.41
211.491	11.43
211.876	8.46
212.262	-5.89
212.648	-37.99
213.034	-21.01
213.419	-20.31
213.805	-95.97
214.19	-33.95
214.576	-25.53
214.961	-13.05
215.346	-32.91
215.732	-25.39
216.117	-17.77
216.502	-48.03
216.888	5.59
217.273	6.72
217.658	-16.03
218.043	-33.89
218.428	-33.25
218.813	-20.02
219.198	-84.22
219.583	-18.07
219.968	5.92
220.353	-89.45
220.738	-4.5
221.122	10.71
221.507	-17.84
221.892	-90.03
222.276	-47.16
222.661	-25.49
223.046	-20.26
223.43	9.07
223.815	0.81
224.199	-3.5
224.583	-2.9
224.968	-21.78
225.352	-7.29
225.736	6.44
226.121	3.51
226.505	-11.61
226.889	0.33
227.273	-3.21
227.657	1.86
228.041	-3.93
228.425	-5.41
228.809	1.82
229.193	0.2
229.577	1.9
229.961	1.52
230.344	2.73
230.728	2.4
231.112	3.2
231.495	-0.48
231.879	1.46
232.263	1.38
232.646	1.68
233.03	3.09
233.413	0.86
233.797	-2.76
234.18	0.85
234.563	2.13
234.946	0.39
235.33	-0.67
235.713	1.58
236.096	4.03
236.479	0.82
236.862	1.33
237.245	0.92
237.628	1.53
238.011	1.67
238.394	2.85
238.777	0.56
239.16	2.53
239.543	2.11
239.925	-0.22
240.308	0.15
240.691	1.22
241.073	2.03
241.456	2.68
241.838	0.6
242.221	1.84
242.603	2.31
242.986	2.52
243.368	2.49
243.75	2.46
244.133	2.76
244.515	1.91
244.897	2.02
245.279	1.36
245.661	2.29
246.043	1.76
246.425	2.08
246.807	2.29
247.189	2.06
247.571	1.73
247.953	2.03
248.335	2.14
248.717	2.17
249.098	2.46
249.48	2.06
249.862	2.23
250.243	1.91
250.625	1.99
251.006	2.81
251.388	2.77
251.769	1.32
252.151	1.63
252.532	1.5
252.913	2.33
253.295	1.68
253.676	1.82
254.057	1.69
254.438	1.88
254.819	2.4
255.2	2.3
255.581	2.38
255.962	2.51
256.343	1.82
256.724	1.75
257.105	0.75
257.486	1.45
257.867	1.7
258.247	1.85
258.628	2.26
259.009	2.12
259.389	1.16
259.77	0.82
260.15	2.86
260.531	2.05
260.911	1.81
261.292	2.31
261.672	2.12
262.052	2.02
262.432	1.58
262.813	2.32
263.193	1.14
263.573	1.98
263.953	1.67
264.333	2.15
264.713	2.01
265.093	1.94
265.473	1.17
265.853	1.82
266.233	1.59
266.612	1.07
266.992	1.64
267.372	2.24
267.752	2.43
268.131	1.83
268.511	1.77
268.89	2.48
269.27	1.62
269.649	1.59
270.029	1.99
270.408	1.5
270.787	2.12
271.167	1.59
271.546	2.87
271.925	1.85
272.304	2.28
272.683	1.77
273.062	1.73
273.441	1.66
273.82	1.51
274.199	1.79
274.578	1.7
274.957	1.83
275.336	2.03
275.715	2.01
276.093	1.22
276.472	1.42
276.851	1.94
277.229	2.23
277.608	1.09
277.986	1.88
278.365	1.92
278.743	2.21
279.122	1.89
279.5	1.65
279.878	1.46
280.257	1.53
280.635	2.02
281.013	1.65
281.391	1.56
281.769	2.19
282.147	1.51
282.525	1.45
282.903	1.62
283.281	1.97
283.659	1.97
284.037	2.08
284.415	1.68
284.792	1.71
285.17	1.96
285.548	1.64
285.925	1.96
286.303	2.1
286.68	1.97
287.058	1.75
287.435	1.63
287.813	1.63
288.19	1.46
288.567	1.98
288.945	1.77
289.322	1.98
289.699	2.12
290.076	1.81
290.453	1.62
290.83	2.22
291.207	1.55
291.584	2.17
291.961	1.85
292.338	1.73
292.715	1.77
293.092	2.26
293.469	1.96
293.845	2.24
294.222	2.12
294.599	1.8
294.975	1.28
295.352	2.04
295.728	1.68
296.105	1.97
296.481	2.02
296.858	1.73
297.234	1.92
297.61	2.03
297.986	2.29
298.363	1.96
298.739	2.21
299.115	2.2
299.491	2.39
299.867	1.84
300.243	1.72
300.619	1.66
300.995	2.08
301.371	1.84
301.746	2.28
302.122	1.6
302.498	1.63
302.874	2.29
303.249	2.08
303.625	1.54
304	1.96
304.376	2.3
304.751	2.11
305.127	1.74
305.502	2.13
305.878	2.06
306.253	1.58
306.628	2
307.003	1.56
307.378	2.12
307.754	2.19
308.129	1.8
308.504	2.11
308.879	2.07
309.254	2.2
309.629	1.9
310.003	2.12
310.378	2.45
310.753	2.07
311.128	1.48
311.502	2.32
311.877	1.67
312.252	2.14
312.626	2.25
313.001	2.11
313.375	2.07
313.75	2.17
314.124	2.2
314.498	2.64
314.873	1.96
315.247	2.05
315.621	2.19
315.995	1.9
316.369	1.35
316.743	1.58
317.117	1.86
317.491	2
317.865	1.27
318.239	2.5
318.613	1.63
318.987	1.76
319.361	1.75
319.734	2.08
320.108	1.56
320.482	2.26
320.855	1.71
321.229	1.62
321.602	1.77
321.976	1.77
322.349	2.19
322.723	2.18
323.096	1.99
323.469	1.57
323.843	2
324.216	2.19
324.589	2.19
324.962	2.34
325.335	1.97
325.708	2.35
326.081	1.89
326.454	2.37
326.827	2.72
327.2	1.53
327.573	2.52
327.945	1.94
328.318	2.11
328.691	2.17
329.063	1.76
329.436	1.77
329.809	2.27
330.181	2.47
330.553	2.54
330.926	2.31
331.298	1.91
331.671	1.98
332.043	1.74
332.415	1.93
332.787	2.28
333.159	1.31
333.532	1.93
333.904	2.03
334.276	2.11
334.648	1.95
335.02	1.76
335.391	1.7
335.763	1.84
336.135	2.34
336.507	1.88
336.879	1.93
337.25	2.32
337.622	2.16
337.993	2.13
338.365	2.29
338.736	2.36
339.108	2.2
339.479	2.17
339.851	2.31
340.222	2.59
340.593	1.88
340.964	2.2
341.336	1.78
341.707	1.99
342.078	1.84
342.449	1.92
342.82	2.21
343.191	1.82
343.562	1.58
343.933	1.82
344.303	2.3
344.674	2.04
345.045	2.06
345.416	2.3
345.786	1.89
346.157	2.19
346.527	2.41
346.898	1.73
347.268	2.43
347.639	1.89
348.009	2.14
348.38	1.92
348.75	2.47
349.12	2.21
349.49	2.43
349.861	2.29
350.231	1.71
350.601	2.12
350.971	1.96
351.341	2.17
351.711	2.04
352.081	1.93
352.45	1.86
352.82	1.22
353.19	2.37
353.56	2.24
353.929	1.95
354.299	2.61
354.669	1.77
355.038	2.54
355.408	2.24
355.777	2.19
356.147	2.17
356.516	2.06
356.885	1.9
357.254	1.88
357.624	1.92
357.993	2.07
358.362	2.61
358.731	2.21
359.1	2.24
359.469	2.26
359.838	2.49
360.207	2.17
360.576	2.68
360.945	2.24
361.314	2.15
361.682	1.78
362.051	2.03
362.42	2.09
362.788	2.14
363.157	2.19
363.525	2.24
363.894	1.96
364.262	2.32
364.631	2.45
364.999	2.37
365.367	2.09
365.735	1.93
366.104	2.06
366.472	2.5
366.84	2.23
367.208	2.12
367.576	1.93
367.944	2.18
368.312	2.27
368.68	2.73
369.048	2.33
369.416	2.22
369.783	2.17
370.151	2.49
370.519	2.46
370.886	2.01
371.254	2.65
371.621	2.38
371.989	2.36
372.356	2.11
372.724	2.02
373.091	2.08
373.458	2.06
373.826	2.4
374.193	2.42
374.56	2.43
374.927	2.05
375.294	2.32
375.661	2.59
376.028	2.38
376.395	2.54
376.762	2.2
377.129	2.17
377.496	2.17
377.863	2.59
378.229	2.38
378.596	2.66
378.963	2.51
379.329	2.53
379.696	2.25
380.062	2.05
380.429	2.24
380.795	2.63
381.161	2
381.528	1.96
381.894	2.2
382.26	2.46
382.626	2.41
382.993	2.74
383.359	2.36
383.725	2.21
384.091	2.24
384.457	2.15
384.823	2.5
385.188	2.18
385.554	2.33
385.92	2.1
386.286	2.25
386.651	2.43
387.017	2.37
387.383	2.19
387.748	2.53
388.114	2.37
388.479	2.39
388.845	2.17
389.21	2.59
389.575	2.61
389.94	2.92
390.306	2.24
390.671	2.55
391.036	2.46
391.401	2.51
391.766	2.27
392.131	2.66
392.496	2.4
392.861	2.41
393.226	2.29
393.591	2.21
393.956	2.64
394.32	2.53
394.685	2.41
395.05	2.55
395.414	2.3
395.779	2.76
396.143	2.52
396.508	2.43
396.872	2.58
397.236	2.82
397.601	2.66
397.965	2.42
398.329	2.62
398.694	2.27
399.058	2.6
399.422	2.51
399.786	2.27
400.15	2.57
400.514	2.69
400.878	2.5
401.242	2.55
401.605	2.75
401.969	2.42
402.333	2.41
402.697	2.83
403.06	2.48
403.424	2.45
403.787	2.48
404.151	2.43
404.514	2.67
404.878	2.49
405.241	2.42
405.604	2.36
405.968	2.49
406.331	2.69
406.694	2.56
407.057	2.52
407.42	2.52
407.783	2.72
408.146	2.53
408.509	2.69
408.872	2.5
409.235	2.73
409.598	2.28
409.961	2.72
410.323	2.54
410.686	2.53
411.049	2.65
411.411	2.56
411.774	2.69
412.136	2.69
412.499	2.71
412.861	2.3
413.223	2.27
413.586	2.73
413.948	2.62
414.31	2.97
414.672	2.38
415.035	2.66
415.397	2.44
415.759	2.33
416.121	2.66
416.483	2.5
416.845	2.72
417.206	2.66
417.568	2.65
417.93	2.6
418.292	2.29
418.653	2.57
419.015	2.67
419.377	2.54
419.738	2.71
420.1	2.62
420.461	2.51
420.822	2.69
421.184	2.64
421.545	2.63
421.906	2.65
422.267	2.58
422.629	2.6
422.99	2.57
423.351	2.6
423.712	2.68
424.073	2.61
424.434	2.72
424.795	2.62
425.155	2.61
425.516	2.57
425.877	2.7
426.238	2.55
426.598	2.62
426.959	2.63
427.32	2.54
427.68	2.63
428.041	2.62
428.401	2.64
428.761	2.76
429.122	2.55
429.482	2.65
429.842	2.6
430.202	2.74
430.563	2.62
430.923	2.74
431.283	2.79
431.643	2.75
432.003	2.57
432.363	2.72
432.722	2.57
433.082	2.66
433.442	2.82
433.802	2.64
434.161	2.81
434.521	2.73
434.881	2.76
435.24	2.54
435.6	2.77
435.959	2.86
436.319	2.65
436.678	2.72
437.037	2.78
437.396	2.74
437.756	2.64
438.115	2.76
438.474	2.7
438.833	2.78
439.192	2.72
439.551	2.64
439.91	2.72
440.269	2.7
440.628	2.68
440.987	2.74
441.345	2.77
441.704	2.69
442.063	2.67
442.421	2.72
442.78	2.78
443.138	2.7
443.497	2.76
443.855	2.84
444.214	2.63
444.572	2.87
444.93	2.7
445.288	2.75
445.647	2.74
446.005	2.79
446.363	2.72
446.721	2.74
447.079	2.61
447.437	2.81
447.795	2.81
448.153	2.68
448.51	2.72
448.868	2.73
449.226	2.77
449.584	2.74
449.941	2.84
450.299	2.68
450.656	2.79
451.014	2.84
451.371	2.89
451.729	2.83
452.086	2.73
452.443	2.89
452.801	2.81
453.158	2.87
453.515	2.73
453.872	2.91
454.229	2.76
454.586	2.74
454.943	2.8
455.3	2.79
455.657	2.79
456.014	2.89
456.371	2.8
456.727	2.92
457.084	2.88
457.441	2.86
457.797	2.8
458.154	2.84
458.51	2.67
458.867	2.73
459.223	2.83
459.58	2.82
459.936	2.8
460.292	2.78
460.648	2.67
461.005	2.7
461.361	2.82
461.717	2.78
462.073	2.88
462.429	3
462.785	2.95
463.141	2.86
463.496	2.95
463.852	3.06
464.208	2.81
464.564	2.84
464.919	2.88
465.275	2.85
465.631	3.05
465.986	2.96
466.342	2.73
466.697	2.77
467.052	3.13
467.408	2.93
467.763	2.92
468.118	2.76
468.473	2.99
468.829	2.79
469.184	2.97
469.539	2.79
469.894	3
470.249	2.93
470.603	2.97
470.958	2.99
471.313	3.1
471.668	2.92
472.023	2.9
472.377	2.88
472.732	3.07
473.086	2.96
473.441	2.82
473.795	3.05
474.15	3.09
474.504	2.91
474.859	2.75
475.213	2.96
475.567	2.74
475.921	3.27
476.275	3.11
476.63	2.97
476.984	2.81
477.338	3.2
477.692	3.05
478.045	2.96
478.399	3.03
478.753	2.93
479.107	2.94
479.461	2.93
479.814	2.93
480.168	3.03
480.521	3.05
480.875	2.95
481.228	3.1
481.582	2.92
481.935	3.02
482.289	2.98
482.642	3.11
482.995	2.95
483.348	2.93
483.701	3.06
484.055	3.02
484.408	2.92
484.761	2.89
485.114	2.74
485.466	2.79
485.819	2.83
486.172	2.86
486.525	2.91
486.878	2.92
487.23	2.96
487.583	2.98
487.936	2.94
488.288	2.93
488.641	2.89
488.993	2.87
489.345	2.86
489.698	2.88
490.05	2.93
490.402	2.95
490.754	2.98
491.107	2.94
491.459	3.04
491.811	3.02
492.163	3.02
492.515	2.94
492.866	2.92
493.218	2.9
493.57	2.97
493.922	2.96
494.274	3.1
494.625	3.09
494.977	3.06
495.328	3.13
495.68	3.05
496.031	3.09
496.383	3.07
496.734	3.1
497.086	3.17
497.437	3.22
497.788	3.23
498.139	3.15
498.49	3.06
498.842	3.13
499.193	3.06
499.544	3.2
499.894	3.01
500.245	3.3
500.596	3.06
500.947	3.06
501.298	3.24
501.648	3.22
501.999	3.26
502.35	3.18
502.7	3.31
503.051	3.05
503.401	3.16
503.752	3.11
504.102	3.13
504.452	3.08
504.803	3.11
505.153	3.32
505.503	3.15
505.853	3.27
506.203	3.23
506.553	3.16
506.903	3.31
507.253	3.24
507.603	3.32
507.953	3.34
508.303	3.38
508.652	3.23
509.002	3.32
509.352	3.19
509.701	3.15
510.051	3.26
510.4	3.29
510.75	3.32
511.099	3.17
511.449	3.32
511.798	3.2
512.147	3.27
512.496	3.31
512.846	3.15
513.195	3.35
513.544	3.46
513.893	3.37
514.242	3.2
514.591	3.29
514.939	3.31
515.288	3.43
515.637	3.21
515.986	3.27
516.334	3.32
516.683	3.45
517.032	3.29
517.38	3.29
517.729	3.39
518.077	3.37
518.426	3.44
518.774	3.28
519.122	3.32
519.47	3.34
519.819	3.32
520.167	3.25
520.515	3.33
520.863	3.32
521.211	3.34
521.559	3.4
521.907	3.43
522.255	3.43
522.602	3.59
522.95	3.53
523.298	3.41
523.645	3.48
523.993	3.53
524.341	3.45
524.688	3.51
525.036	3.46
525.383	3.46
525.73	3.28
526.078	3.5
526.425	3.45
526.772	3.49
527.119	3.49
527.466	3.46
527.814	3.46
528.161	3.53
528.508	3.61
528.854	3.42
529.201	3.46
529.548	3.48
529.895	3.36
530.242	3.35
530.588	3.36
530.935	3.46
531.282	3.47
531.628	3.53
531.975	3.49
532.321	3.59
532.667	3.62
533.014	3.7
533.36	3.64
533.706	3.69
534.052	3.62
534.399	3.57
534.745	3.54
535.091	3.51
535.437	3.55
535.783	3.65
536.129	3.6
536.474	3.72
536.82	3.78
537.166	3.63
537.512	3.71
537.857	3.76
538.203	3.64
538.549	3.62
538.894	3.72
539.239	3.71
539.585	3.8
539.93	3.81
540.276	3.87
540.621	3.74
540.966	3.82
541.311	3.87
541.656	3.71
542.001	3.8
542.346	3.74
542.691	3.65
543.036	3.7
543.381	3.72
543.726	3.8
544.071	3.8
544.415	3.8
544.76	3.83
545.105	3.81
545.449	3.8
545.794	3.9
546.138	3.93
546.483	4.02
546.827	3.82
547.171	4.05
547.516	3.9
547.86	3.99
548.204	3.98
548.548	3.96
548.892	4.03
549.236	3.88
549.58	4.12
549.924	4.14
550.268	4.09
550.612	4.1
550.956	4.21
551.3	4.37
551.643	4.24
551.987	4.22
552.33	4.37
552.674	4.19
553.017	4.25
553.361	4.42
553.704	4.15
554.048	4.21
554.391	4.27
554.734	4.03
555.077	4.16
555.42	4.25
555.764	4.37
556.107	4.27
556.45	4.53
556.793	4.47
557.135	4.3
557.478	4.25
557.821	4.44
558.164	4.33
558.507	4.2
558.849	4.51
559.192	4.51
559.534	4.51
559.877	4.36
560.219	4.4
560.562	4.52
560.904	4.62
561.246	4.43
561.589	4.63
561.931	4.49
562.273	4.54
562.615	4.45
562.957	4.48
563.299	4.74
563.641	4.62
563.983	4.4
564.325	4.53
564.667	4.57
565.008	4.63
565.35	4.21
565.692	4.56
566.033	4.55
566.375	4.71
566.716	4.51
567.058	4.73
567.399	4.69
567.741	4.6
568.082	4.69
568.423	4.7
568.764	4.85
569.105	4.81
569.447	4.67
569.788	4.89
570.129	4.68
570.47	4.67
570.811	4.73
571.151	4.8
571.492	4.72
571.833	4.9
572.174	4.93
572.514	4.87
572.855	4.96
573.195	4.76
573.536	5.01
573.876	4.88
574.217	4.89
574.557	5
574.898	4.91
575.238	5.07
575.578	5.15
575.918	4.99
576.258	5.43
576.598	4.98
576.938	4.91
577.278	5.08
577.618	4.96
577.958	5.19
578.298	5.19
578.638	5.18
578.977	5.2
579.317	5.33
579.657	5.19
579.996	5.32
580.336	5.43
580.675	5.29
581.014	5.47
581.354	5.24
581.693	5.34
582.032	5.39
582.372	5.21
582.711	5.47
583.05	5.42
583.389	5.5
583.728	5.54
584.067	5.17
584.406	5.51
584.745	5.41
585.083	5.42
585.422	5.6
585.761	5.58
586.1	5.82
586.438	5.37
586.777	5.45
587.115	5.77
587.454	5.35
587.792	5.61
588.13	5.47
588.469	5.71
588.807	5.74
589.145	5.87
589.483	5.44
589.821	5.58
590.159	5.89
590.497	5.77
590.835	6.01
591.173	5.79
591.511	5.94
591.849	5.85
592.187	5.72
592.524	5.97
592.862	5.77
593.2	6.08
593.537	5.84
593.875	5.76
594.212	5.87
594.55	6.04
594.887	6.12
595.224	6.17
595.561	6.1
595.899	6.06
596.236	6.21
596.573	6.16
596.91	6.11
597.247	6.55
597.584	6.18
597.921	6.27
598.258	6.29
598.594	6.01
598.931	6.09
599.268	6.18
599.604	6.27
599.941	6.46
600.277	6.28
600.614	6.28
600.95	6.39
601.287	6.26
601.623	6.11
601.959	6.59
602.296	6.52
602.632	6.38
602.968	6.26
603.304	6.4
603.64	6.47
603.976	6.52
604.312	6.57
604.648	6.5
604.984	6.75
605.319	6.54
605.655	6.62
605.991	6.5
606.326	6.64
606.662	6.51
606.998	6.8
607.333	6.78
607.668	6.67
608.004	6.67
608.339	6.47
608.674	6.84
609.01	6.76
609.345	6.78
609.68	6.71
610.015	6.98
610.35	6.96
610.685	6.73
611.02	6.96
611.355	6.9
611.689	6.84
612.024	7.11
612.359	7.08
612.694	7.01
613.028	6.82
613.363	6.99
613.697	7.17
614.032	7.23
614.366	7.17
614.7	7.43
615.035	7.18
615.369	7.4
615.703	7.28
616.037	7.24
616.371	7.28
616.705	7.22
617.039	7.66
617.373	7.49
617.707	7.29
618.041	7.25
618.375	7.27
618.709	7.5
619.042	7.29
619.376	7.5
619.71	7.41
620.043	7.75
620.377	7.58
620.71	7.51
621.043	7.82
621.377	7.85
621.71	8.16
622.043	7.79
622.376	7.65
622.709	7.82
623.043	7.69
623.376	7.54
623.709	8.5
624.041	7.65
624.374	7.9
624.707	7.89
625.04	8.11
625.373	7.89
625.705	8.22
626.038	8.22
626.37	7.82
626.703	7.71
627.035	8.2
627.368	8.25
627.7	8.28
628.032	8.14
628.365	8.17
628.697	8.14
629.029	8.18
629.361	8.43
629.693	8.36
630.025	8.19
630.357	8.51
630.689	8.1
631.021	8.38
631.353	8.56
631.684	8.2
632.016	8.09
632.348	8.4
632.679	8.4
633.011	8.39
633.342	8.75
633.674	8.55
634.005	8.48
634.336	8.5
634.668	8.56
634.999	8.23
635.33	8.69
635.661	8.56
635.992	8.87
636.323	8.65
636.654	8.78
636.985	8.41
637.316	8.62
637.647	9.19
637.977	8.72
638.308	9.07
638.639	8.9
638.969	9
639.3	9.05
639.63	8.91
639.961	8.91
640.291	8.77
640.622	9.06
640.952	9.14
641.282	8.91
641.612	9
641.943	8.55
642.273	8.92
642.603	9.37
642.933	9.3
643.263	9.18
643.592	9.71
643.922	9.56
644.252	9.14
644.582	9.48
644.911	9.21
645.241	9.24
645.571	9.29
645.9	9.43
646.23	9.49
646.559	8.96
646.888	9.67
647.218	9.37
647.547	9.36
647.876	9.43
648.205	9.6
648.534	9.78
648.863	9.37
649.192	10.29
649.521	9.49
649.85	9.7
650.179	9.46
650.508	9.5
650.837	9.71
651.165	9.54
651.494	9.57
651.822	9.97
652.151	9.59
652.479	9.69
652.808	9.7
653.136	9.51
653.465	9.58
653.793	9.76
654.121	9.71
654.449	10.02
654.777	9.25
655.105	9.85
655.433	10.14
655.761	10.13
656.089	10.35
656.417	10.66
656.745	10.96
657.073	10.56
657.4	9.87
657.728	9.51
658.056	10.23
658.383	10.08
658.711	10.58
659.038	10.67
659.365	10.52
659.693	10.07
660.02	10.28
660.347	10.3
660.674	10.15
661.001	10.57
661.329	10.36
661.656	10.44
661.982	10.62
662.309	10.51
662.636	10.7
662.963	10.46
663.29	10.9
663.616	10.45
663.943	10.6
664.27	10.7
664.596	10.61
664.923	10.86
665.249	11.09
665.576	10.82
665.902	10.57
666.228	11.29
666.554	11.39
666.881	10.27
667.207	10.99
667.533	10.69
667.859	10.94
668.185	10.93
668.511	11.18
668.837	11.38
669.162	11.1
669.488	10.91
669.814	11.22
670.139	10.44
670.465	11.3
670.791	10.58
671.116	10.88
671.442	10.95
671.767	11.02
672.092	10.87
672.418	11.52
672.743	11.52
673.068	10.95
673.393	11.59
673.718	11.02
674.043	11.28
674.368	11.76
674.693	11.54
675.018	11.58
675.343	11.98
675.667	11.54
675.992	12.28
676.317	10.79
676.641	12.3
676.966	11.61
677.29	11.43
677.615	11.38
677.939	11.82
678.264	10.93
678.588	12.1
678.912	11.87
679.236	12.27
679.56	11.62
679.885	12.05
680.209	12.02
680.532	12.15
680.856	11.84
681.18	12.83
681.504	11.55
681.828	11.54
682.152	11.76
682.475	12.12
682.799	11.64
683.122	11.93
683.446	10.93
683.769	12.26
684.093	12.56
684.416	11.72
684.739	12.02
685.062	12.49
685.386	13.01
685.709	12.8
686.032	12.42
686.355	11.88
686.678	13.04
687.001	11.61
687.324	12.58
687.646	12.62
687.969	12.25
688.292	12.71
688.614	12.73
688.937	12.78
689.26	13.09
