Data from 0008_chest_Reflection__0__347.txt Node

Date: Thu Dec 15 19:21:59 CST 2022
User: ToomeyLab
Spectrometer: FLMS14357
Trigger mode: 0
Integration Time (sec): 1.000000E-2
Scans to average: 100
Electric dark correction enabled: true
Nonlinearity correction enabled: false
Boxcar width: 0
XAxis mode: Wavelengths
Number of Pixels in Spectrum: 2048
>>>>>Begin Spectral Data<<<<<
189.047	-374.04
189.435	-374.04
189.823	-374.04
190.211	-273.28
190.599	70.14
190.987	110.81
191.375	-108.43
191.763	322.35
192.151	72.89
192.538	0.69
192.926	64.58
193.314	1588.39
193.702	46.74
194.089	1.3
194.477	-54.43
194.864	108.55
195.252	-236.9
195.639	174.88
196.027	-9.87
196.414	141.13
196.801	346.45
197.189	99.54
197.576	-36.94
197.963	-13.94
198.351	-17.59
198.738	-61.45
199.125	-137.28
199.512	11.8
199.899	-100.09
200.286	-66.41
200.673	27.91
201.06	43.75
201.447	58.16
201.833	12.72
202.22	1.06
202.607	-9.06
202.994	37.59
203.38	4.21
203.767	-38.35
204.154	1.11
204.54	-21.17
204.927	48.26
205.313	59.96
205.699	45.56
206.086	25.22
206.472	58.95
206.858	-17.25
207.245	3.46
207.631	-42.16
208.017	37.88
208.403	-112.97
208.789	-8.07
209.175	-67.15
209.561	-82.86
209.947	9.48
210.333	-12.94
210.719	23.8
211.105	8.88
211.491	-8.17
211.876	-31.47
212.262	-13.43
212.648	-10.65
213.034	-19.39
213.419	20.07
213.805	-84.93
214.19	-14.92
214.576	-6.63
214.961	23.41
215.346	-50.51
215.732	7.73
216.117	3.67
216.502	-37.21
216.888	27.65
217.273	-7.48
217.658	-8.4
218.043	-15.85
218.428	-12.79
218.813	10.63
219.198	-39.52
219.583	2.26
219.968	18.03
220.353	-62.15
220.738	6.82
221.122	-14.01
221.507	-6.6
221.892	-76.08
222.276	-40.48
222.661	-22.96
223.046	-11.97
223.43	11.75
223.815	7.97
224.199	-6.68
224.583	-3.74
224.968	-11.39
225.352	-10.07
225.736	7.1
226.121	-4.73
226.505	-11.9
226.889	-2.39
227.273	-9.48
227.657	-4.88
228.041	3.64
228.425	-0.13
228.809	-0.46
229.193	4.08
229.577	2.21
229.961	2
230.344	2.69
230.728	3.83
231.112	2.45
231.495	-0.15
231.879	2.69
232.263	2.73
232.646	1.72
233.03	3.88
233.413	1.87
233.797	-0.73
234.18	2.43
234.563	3.83
234.946	1.42
235.33	1.8
235.713	2.31
236.096	2.14
236.479	3.29
236.862	0.99
237.245	1.34
237.628	2.11
238.011	3.65
238.394	2.01
238.777	4.77
239.16	3.1
239.543	3.19
239.925	0.69
240.308	1.46
240.691	0.34
241.073	1.88
241.456	3.33
241.838	2.46
242.221	2.89
242.603	3.28
242.986	3.1
243.368	2.74
243.75	3.22
244.133	3.05
244.515	2.88
244.897	2.5
245.279	1.84
245.661	1.72
246.043	2.23
246.425	2.88
246.807	2.72
247.189	2.49
247.571	2.13
247.953	2.55
248.335	2.61
248.717	2.75
249.098	2.79
249.48	2.56
249.862	2.79
250.243	2.91
250.625	2.88
251.006	3.45
251.388	2.13
251.769	1.77
252.151	2.68
252.532	1.56
252.913	2.03
253.295	1.99
253.676	2.69
254.057	2.36
254.438	1.83
254.819	2.6
255.2	2.47
255.581	2.91
255.962	3.5
256.343	3.65
256.724	3.25
257.105	2.73
257.486	1.26
257.867	2.49
258.247	2.91
258.628	3.7
259.009	2.11
259.389	1.87
259.77	2.33
260.15	2.79
260.531	2.78
260.911	2.15
261.292	2.58
261.672	2.44
262.052	2.5
262.432	1.94
262.813	2.55
263.193	2.8
263.573	2.13
263.953	1.59
264.333	2.79
264.713	2.76
265.093	2.56
265.473	1.97
265.853	2.28
266.233	2.55
266.612	1.75
266.992	2.26
267.372	2.71
267.752	2.51
268.131	2
268.511	2.32
268.89	3.03
269.27	2
269.649	1.66
270.029	2.18
270.408	2.26
270.787	2.56
271.167	2.73
271.546	2.74
271.925	2.74
272.304	2.49
272.683	2.26
273.062	2.49
273.441	2.24
273.82	2.48
274.199	1.83
274.578	2.29
274.957	2.22
275.336	2.64
275.715	2.67
276.093	1.66
276.472	1.4
276.851	2.6
277.229	2.34
277.608	1.92
277.986	2.79
278.365	2.33
278.743	2.49
279.122	1.97
279.5	2.21
279.878	1.85
280.257	1.77
280.635	2.24
281.013	1.85
281.391	2.07
281.769	2.94
282.147	2.31
282.525	1.62
282.903	1.76
283.281	2.48
283.659	1.95
284.037	1.85
284.415	2.03
284.792	1.84
285.17	2.31
285.548	2.53
285.925	1.43
286.303	2.69
286.68	1.97
287.058	2.69
287.435	2.11
287.813	2.37
288.19	2.06
288.567	2.48
288.945	1.97
289.322	2.65
289.699	2.16
290.076	2.45
290.453	1.47
290.83	2.45
291.207	2.2
291.584	2.54
291.961	1.92
292.338	1.79
292.715	2.06
293.092	2.59
293.469	2.28
293.845	1.7
294.222	2.69
294.599	1.65
294.975	1.63
295.352	2.19
295.728	2.06
296.105	2.2
296.481	2.12
296.858	2.4
297.234	1.69
297.61	2.43
297.986	2.61
298.363	2.35
298.739	2.48
299.115	2.33
299.491	2.7
299.867	2.1
300.243	2.12
300.619	1.58
300.995	2.28
301.371	2.26
301.746	2.01
302.122	1.61
302.498	1.74
302.874	2.66
303.249	2.08
303.625	2.05
304	2.51
304.376	2.39
304.751	2.48
305.127	1.98
305.502	2.18
305.878	2.22
306.253	1.41
306.628	1.78
307.003	1.95
307.378	2.44
307.754	2.3
308.129	1.95
308.504	1.6
308.879	1.79
309.254	2.71
309.629	2.25
310.003	2.01
310.378	2.54
310.753	2.48
311.128	2.31
311.502	2.12
311.877	2.05
312.252	2.15
312.626	2.35
313.001	2.51
313.375	2.48
313.75	2.22
314.124	2.68
314.498	2.52
314.873	2.08
315.247	1.99
315.621	2.19
315.995	2.44
316.369	1.62
316.743	1.95
317.117	1.98
317.491	2.17
317.865	1.88
318.239	2.56
318.613	2
318.987	1.65
319.361	2.37
319.734	2.48
320.108	1.76
320.482	2.52
320.855	2.05
321.229	2.25
321.602	2.22
321.976	1.67
322.349	2.99
322.723	2.3
323.096	2.02
323.469	1.93
323.843	2.11
324.216	2.14
324.589	2.76
324.962	2.1
325.335	2.29
325.708	2.17
326.081	2.38
326.454	2.38
326.827	2.06
327.2	2.1
327.573	2.49
327.945	2.15
328.318	2.07
328.691	1.77
329.063	1.9
329.436	1.84
329.809	2.51
330.181	2.55
330.553	2.81
330.926	2.95
331.298	1.97
331.671	2.04
332.043	1.94
332.415	2.5
332.787	2.33
333.159	2.01
333.532	2.15
333.904	2.4
334.276	2.07
334.648	1.83
335.02	2.12
335.391	2.27
335.763	2.05
336.135	2.59
336.507	1.53
336.879	1.81
337.25	2.1
337.622	2.46
337.993	1.86
338.365	2.12
338.736	2.33
339.108	2.35
339.479	2.07
339.851	2.69
340.222	2.09
340.593	2.42
340.964	2.2
341.336	2.22
341.707	2.31
342.078	1.91
342.449	2.16
342.82	2.56
343.191	2.35
343.562	2.27
343.933	1.99
344.303	2.55
344.674	2.29
345.045	2.44
345.416	2.41
345.786	2.15
346.157	2.12
346.527	2.49
346.898	2.09
347.268	2.35
347.639	1.96
348.009	2.4
348.38	1.96
348.75	2.79
349.12	2.34
349.49	1.88
349.861	2.32
350.231	2.27
350.601	2
350.971	1.83
351.341	2.28
351.711	2.47
352.081	1.96
352.45	2.29
352.82	1.9
353.19	2.18
353.56	2.2
353.929	2.66
354.299	2.32
354.669	2.45
355.038	2.51
355.408	2.38
355.777	2.76
356.147	2.6
356.516	2.32
356.885	2.13
357.254	2.29
357.624	2.11
357.993	2.54
358.362	2.71
358.731	2.66
359.1	2.29
359.469	2.57
359.838	2.28
360.207	2.07
360.576	2.41
360.945	2.55
361.314	2.15
361.682	2.09
362.051	2.31
362.42	2.44
362.788	2.4
363.157	2.27
363.525	2.51
363.894	2.25
364.262	2.49
364.631	2.55
364.999	2.51
365.367	2.53
365.735	2.16
366.104	2.37
366.472	2.46
366.84	2.42
367.208	2.63
367.576	2.33
367.944	2.48
368.312	2.42
368.68	2.54
369.048	2.47
369.416	2.28
369.783	2.45
370.151	2.63
370.519	3.03
370.886	2.56
371.254	2.47
371.621	2.35
371.989	2.73
372.356	2.42
372.724	2.47
373.091	2.42
373.458	2.41
373.826	2.31
374.193	2.42
374.56	2.66
374.927	2.61
375.294	2.61
375.661	2.68
376.028	2.38
376.395	2.73
376.762	2.44
377.129	2.38
377.496	2.51
377.863	2.63
378.229	2.65
378.596	2.76
378.963	2.58
379.329	2.43
379.696	2.35
380.062	2.6
380.429	2.25
380.795	2.85
381.161	2.46
381.528	2.32
381.894	2.57
382.26	2.74
382.626	2.57
382.993	2.57
383.359	2.56
383.725	2.23
384.091	2.79
384.457	2.3
384.823	2.69
385.188	2.51
385.554	2.46
385.92	2.28
386.286	2.63
386.651	2.38
387.017	2.73
387.383	2.36
387.748	2.63
388.114	2.67
388.479	2.56
388.845	2.19
389.21	2.88
389.575	3.1
389.94	2.85
390.306	2.58
390.671	2.47
391.036	2.48
391.401	2.34
391.766	2.43
392.131	2.73
392.496	2.47
392.861	2.72
393.226	2.48
393.591	2.76
393.956	2.71
394.32	2.82
394.685	2.83
395.05	2.53
395.414	2.63
395.779	3
396.143	2.63
396.508	2.77
396.872	2.52
397.236	3.02
397.601	2.64
397.965	2.58
398.329	2.65
398.694	2.73
399.058	2.65
399.422	2.67
399.786	2.51
400.15	2.57
400.514	2.76
400.878	2.51
401.242	2.65
401.605	2.65
401.969	2.72
402.333	2.65
402.697	2.79
403.06	2.84
403.424	2.63
403.787	2.64
404.151	2.77
404.514	2.79
404.878	2.67
405.241	2.81
405.604	2.65
405.968	2.78
406.331	2.69
406.694	2.72
407.057	2.6
407.42	2.66
407.783	2.85
408.146	2.76
408.509	2.71
408.872	2.94
409.235	2.77
409.598	2.96
409.961	2.77
410.323	2.62
410.686	2.72
411.049	2.87
411.411	2.63
411.774	2.91
412.136	2.75
412.499	3.03
412.861	2.4
413.223	2.67
413.586	2.76
413.948	2.72
414.31	2.8
414.672	2.89
415.035	2.92
415.397	2.72
415.759	2.46
416.121	3.06
416.483	2.88
416.845	2.9
417.206	2.9
417.568	2.76
417.93	2.9
418.292	2.67
418.653	2.59
419.015	2.76
419.377	2.82
419.738	2.77
420.1	2.76
420.461	2.73
420.822	2.74
421.184	2.8
421.545	2.83
421.906	2.81
422.267	2.73
422.629	2.75
422.99	2.75
423.351	2.76
423.712	2.75
424.073	2.83
424.434	2.86
424.795	2.73
425.155	2.66
425.516	2.77
425.877	2.75
426.238	2.79
426.598	2.86
426.959	2.77
427.32	2.71
427.68	2.87
428.041	2.86
428.401	2.78
428.761	3.05
429.122	2.8
429.482	2.97
429.842	2.78
430.202	2.88
430.563	2.84
430.923	2.84
431.283	2.89
431.643	3
432.003	3
432.363	2.86
432.722	2.87
433.082	2.76
433.442	2.92
433.802	2.74
434.161	2.8
434.521	2.87
434.881	2.85
435.24	2.81
435.6	2.87
435.959	3.03
436.319	2.83
436.678	3.05
437.037	2.87
437.396	2.81
437.756	2.73
438.115	2.86
438.474	3.02
438.833	2.86
439.192	2.82
439.551	2.84
439.91	2.92
440.269	3.04
440.628	2.88
440.987	2.9
441.345	2.78
441.704	2.94
442.063	2.82
442.421	2.92
442.78	2.99
443.138	2.93
443.497	2.95
443.855	3.02
444.214	2.77
444.572	3.1
444.93	2.87
445.288	3.05
445.647	2.83
446.005	2.95
446.363	2.94
446.721	2.98
447.079	2.85
447.437	2.88
447.795	3.04
448.153	2.91
448.51	2.93
448.868	2.86
449.226	2.9
449.584	2.82
449.941	2.88
450.299	2.82
450.656	2.94
451.014	3.08
451.371	3.03
451.729	3.05
452.086	2.96
452.443	3.11
452.801	3.02
453.158	3.16
453.515	2.91
453.872	2.88
454.229	2.86
454.586	2.86
454.943	2.97
455.3	3.1
455.657	2.86
456.014	2.97
456.371	3.02
456.727	3.23
457.084	3.08
457.441	3.05
457.797	2.94
458.154	2.97
458.51	2.98
458.867	3.06
459.223	3.03
459.58	3.06
459.936	3
460.292	2.93
460.648	2.94
461.005	2.95
461.361	2.88
461.717	2.95
462.073	2.97
462.429	3.01
462.785	3.1
463.141	3.03
463.496	3.13
463.852	3.04
464.208	3.1
464.564	2.97
464.919	2.98
465.275	3.18
465.631	3.33
465.986	3.08
466.342	3.08
466.697	3.02
467.052	3.18
467.408	3.12
467.763	2.97
468.118	2.99
468.473	3.08
468.829	2.97
469.184	3.03
469.539	3.06
469.894	3.09
470.249	3.07
470.603	3.17
470.958	3.19
471.313	3.33
471.668	3.03
472.023	3.14
472.377	3.16
472.732	3.24
473.086	3.04
473.441	3.12
473.795	3.28
474.15	3.13
474.504	3.11
474.859	3
475.213	3.23
475.567	2.97
475.921	3.21
476.275	3.14
476.63	3.19
476.984	2.99
477.338	3.38
477.692	3.11
478.045	3.18
478.399	3.14
478.753	3.19
479.107	3.25
479.461	3.2
479.814	3.21
480.168	3.15
480.521	3.16
480.875	3.11
481.228	3.13
481.582	3.18
481.935	3.23
482.289	3.22
482.642	3.34
482.995	3.13
483.348	3.18
483.701	3.18
484.055	3.07
484.408	3.1
484.761	3.06
485.114	2.98
485.466	2.95
485.819	2.96
486.172	3.01
486.525	3.08
486.878	3.13
487.23	3.07
487.583	3.21
487.936	3.13
488.288	3.12
488.641	3.06
488.993	3
489.345	3.06
489.698	3.05
490.05	3.03
490.402	3.09
490.754	3.09
491.107	3.09
491.459	3.21
491.811	3.25
492.163	3.16
492.515	3.14
492.866	3.06
493.218	3.07
493.57	3.16
493.922	3.17
494.274	3.24
494.625	3.32
494.977	3.34
495.328	3.25
495.68	3.24
496.031	3.31
496.383	3.26
496.734	3.25
497.086	3.22
497.437	3.39
497.788	3.46
498.139	3.33
498.49	3.27
498.842	3.35
499.193	3.28
499.544	3.27
499.894	3.38
500.245	3.42
500.596	3.45
500.947	3.28
501.298	3.3
501.648	3.48
501.999	3.43
502.35	3.28
502.7	3.55
503.051	3.27
503.401	3.54
503.752	3.25
504.102	3.31
504.452	3.28
504.803	3.31
505.153	3.34
505.503	3.32
505.853	3.42
506.203	3.4
506.553	3.35
506.903	3.49
507.253	3.41
507.603	3.41
507.953	3.54
508.303	3.33
508.652	3.35
509.002	3.5
509.352	3.47
509.701	3.42
510.051	3.42
510.4	3.55
510.75	3.38
511.099	3.37
511.449	3.48
511.798	3.37
512.147	3.43
512.496	3.46
512.846	3.48
513.195	3.44
513.544	3.5
513.893	3.38
514.242	3.47
514.591	3.38
514.939	3.57
515.288	3.59
515.637	3.43
515.986	3.53
516.334	3.58
516.683	3.42
517.032	3.44
517.38	3.51
517.729	3.6
518.077	3.53
518.426	3.57
518.774	3.52
519.122	3.5
519.47	3.5
519.819	3.51
520.167	3.48
520.515	3.55
520.863	3.47
521.211	3.53
521.559	3.53
521.907	3.56
522.255	3.47
522.602	3.52
522.95	3.6
523.298	3.69
523.645	3.65
523.993	3.71
524.341	3.52
524.688	3.62
525.036	3.6
525.383	3.66
525.73	3.57
526.078	3.7
526.425	3.62
526.772	3.63
527.119	3.6
527.466	3.63
527.814	3.57
528.161	3.7
528.508	3.7
528.854	3.66
529.201	3.55
529.548	3.58
529.895	3.47
530.242	3.54
530.588	3.49
530.935	3.55
531.282	3.55
531.628	3.64
531.975	3.61
532.321	3.72
532.667	3.81
533.014	3.8
533.36	3.78
533.706	3.77
534.052	3.8
534.399	3.72
534.745	3.62
535.091	3.62
535.437	3.71
535.783	3.74
536.129	3.75
536.474	3.86
536.82	3.82
537.166	3.79
537.512	3.81
537.857	3.82
538.203	3.8
538.549	3.77
538.894	3.8
539.239	3.85
539.585	3.94
539.93	3.96
540.276	3.93
540.621	3.88
540.966	3.83
541.311	3.92
541.656	3.81
542.001	3.96
542.346	3.86
542.691	3.79
543.036	3.78
543.381	3.81
543.726	3.89
544.071	3.89
544.415	3.93
544.76	3.88
545.105	3.98
545.449	3.92
545.794	3.91
546.138	4.02
546.483	4.04
546.827	4.02
547.171	4.02
547.516	4.02
547.86	4.09
548.204	4.13
548.548	4.04
548.892	4.09
549.236	4.08
549.58	4.17
549.924	4.26
550.268	4.29
550.612	4.27
550.956	4.26
551.3	4.39
551.643	4.29
551.987	4.39
552.33	4.43
552.674	4.38
553.017	4.24
553.361	4.41
553.704	4.34
554.048	4.3
554.391	4.37
554.734	4.25
555.077	4.32
555.42	4.37
555.764	4.27
556.107	4.48
556.45	4.47
556.793	4.65
557.135	4.34
557.478	4.51
557.821	4.56
558.164	4.4
558.507	4.41
558.849	4.57
559.192	4.57
559.534	4.56
559.877	4.46
560.219	4.56
560.562	4.64
560.904	4.68
561.246	4.4
561.589	4.66
561.931	4.59
562.273	4.56
562.615	4.53
562.957	4.44
563.299	4.59
563.641	4.56
563.983	4.52
564.325	4.79
564.667	4.7
565.008	4.38
565.35	4.6
565.692	4.7
566.033	4.55
566.375	4.79
566.716	4.56
567.058	4.69
567.399	4.83
567.741	4.84
568.082	4.77
568.423	4.68
568.764	4.84
569.105	4.8
569.447	4.88
569.788	4.84
570.129	4.86
570.47	4.77
570.811	5
571.151	4.9
571.492	4.95
571.833	4.87
572.174	4.96
572.514	4.89
572.855	5.06
573.195	4.82
573.536	4.88
573.876	4.93
574.217	4.93
574.557	4.94
574.898	4.84
575.238	5.01
575.578	5.08
575.918	5.05
576.258	5.19
576.598	4.97
576.938	5.06
577.278	5.08
577.618	5.11
577.958	5.12
578.298	5.19
578.638	5.34
578.977	5.36
579.317	5.23
579.657	5.25
579.996	5.36
580.336	5.33
580.675	5.4
581.014	5.3
581.354	5.13
581.693	5.6
582.032	5.5
582.372	5.41
582.711	5.54
583.05	5.32
583.389	5.51
583.728	5.56
584.067	5.48
584.406	5.56
584.745	5.19
585.083	5.44
585.422	5.67
585.761	5.47
586.1	5.71
586.438	5.49
586.777	5.59
587.115	5.59
587.454	5.4
587.792	5.42
588.13	5.47
588.469	5.55
588.807	5.8
589.145	5.67
589.483	5.56
589.821	5.6
590.159	5.78
590.497	5.6
590.835	5.84
591.173	5.92
591.511	5.78
591.849	5.83
592.187	5.54
592.524	5.9
592.862	5.71
593.2	5.81
593.537	5.87
593.875	5.94
594.212	6.17
594.55	6
594.887	6.04
595.224	6
595.561	6.12
595.899	6.17
596.236	6.03
596.573	5.84
596.91	5.97
597.247	6.24
597.584	6.14
597.921	6.03
598.258	6.21
598.594	6.06
598.931	6.01
599.268	5.92
599.604	6.16
599.941	6.2
600.277	6.28
600.614	6.13
600.95	5.98
601.287	6.13
601.623	5.89
601.959	6.57
602.296	6.4
602.632	6.37
602.968	6.52
603.304	6.16
603.64	6.4
603.976	6.24
604.312	6.26
604.648	6.39
604.984	6.43
605.319	6.42
605.655	6.41
605.991	6.25
606.326	6.49
606.662	6.25
606.998	6.56
607.333	6.46
607.668	6.45
608.004	6.76
608.339	6.62
608.674	6.63
609.01	6.87
609.345	6.8
609.68	6.65
610.015	6.67
610.35	6.83
610.685	6.57
611.02	6.63
611.355	6.59
611.689	6.7
612.024	6.81
612.359	6.93
612.694	7.08
613.028	6.62
613.363	6.76
613.697	6.9
614.032	6.91
614.366	6.87
614.7	7.01
615.035	6.99
615.369	6.82
615.703	7.18
616.037	7.08
616.371	7.11
616.705	6.89
617.039	7.17
617.373	7.39
617.707	7.17
618.041	7.15
618.375	6.55
618.709	7.09
619.042	7.21
619.376	7.08
619.71	7.18
620.043	7.51
620.377	7.44
620.71	7.05
621.043	7.65
621.377	7.55
621.71	7.66
622.043	7.32
622.376	7.25
622.709	7.78
623.043	7.58
623.376	7.17
623.709	7.61
624.041	7.3
624.374	7.41
624.707	7.63
625.04	7.46
625.373	7.77
625.705	7.86
626.038	7.49
626.37	7.33
626.703	7.93
627.035	7.66
627.368	7.7
627.7	7.61
628.032	7.66
628.365	7.74
628.697	7.73
629.029	7.65
629.361	8.03
629.693	7.83
630.025	7.87
630.357	7.8
630.689	8.12
631.021	7.77
631.353	7.97
631.684	7.82
632.016	7.82
632.348	7.85
632.679	8
633.011	7.93
633.342	8.18
633.674	7.84
634.005	8.02
634.336	8.16
634.668	8.39
634.999	8.03
635.33	8.18
635.661	8.02
635.992	8.02
636.323	8.45
636.654	8.21
636.985	8.09
637.316	7.97
637.647	8.36
637.977	8.21
638.308	8.45
638.639	8.47
638.969	8.35
639.3	8.58
639.63	8.56
639.961	8.7
640.291	8.22
640.622	8.61
640.952	8.63
641.282	8.32
641.612	8.45
641.943	8.59
642.273	8.51
642.603	8.6
642.933	9.15
643.263	8.91
643.592	8.91
643.922	9.04
644.252	8.51
644.582	8.78
644.911	8.97
645.241	8.59
645.571	8.76
645.9	8.84
646.23	8.71
646.559	8.5
646.888	9.5
647.218	9.43
647.547	8.99
647.876	8.94
648.205	9.23
648.534	9.06
648.863	8.92
649.192	8.79
649.521	8.84
649.85	9.16
650.179	9.34
650.508	9.05
650.837	9.53
651.165	9.09
651.494	8.99
651.822	9.45
652.151	9.17
652.479	9.45
652.808	9.08
653.136	9.08
653.465	8.8
653.793	9.58
654.121	9.49
654.449	9.11
654.777	8.9
655.105	9.17
655.433	9.6
655.761	9.63
656.089	9.66
656.417	10.05
656.745	9.58
657.073	9.2
657.4	9.27
657.728	9.55
658.056	9.41
658.383	9.6
658.711	9.89
659.038	10.1
659.365	10.15
659.693	9.46
660.02	9.41
660.347	9.72
660.674	9.19
661.001	9.71
661.329	9.87
661.656	9.37
661.982	9.41
662.309	9.37
662.636	9.56
662.963	9.96
663.29	10.01
663.616	10.03
663.943	9.94
664.27	9.63
664.596	9.38
664.923	10.29
665.249	10.24
665.576	9.83
665.902	9.59
666.228	10.22
666.554	10.29
666.881	10.08
667.207	10.48
667.533	10.22
667.859	9.75
668.185	9.96
668.511	10.17
668.837	10.07
669.162	10.39
669.488	9.93
669.814	10.13
670.139	9.66
670.465	10.93
670.791	10.06
671.116	10.23
671.442	9.88
671.767	10.21
672.092	10.34
672.418	10.17
672.743	10.59
673.068	10.3
673.393	10.75
673.718	10.22
674.043	10.27
674.368	10.06
674.693	10.13
675.018	10.67
675.343	10.75
675.667	9.89
675.992	10.85
676.317	9.77
676.641	11.21
676.966	11.05
677.29	10.43
677.615	10.34
677.939	10.54
678.264	10.02
678.588	10.92
678.912	11.02
679.236	10.99
679.56	10.53
679.885	11.09
680.209	10.97
680.532	10.73
680.856	10.82
681.18	11.28
681.504	11
681.828	10.5
682.152	10.77
682.475	10.75
682.799	10.91
683.122	11.22
683.446	10.95
683.769	11.04
684.093	11.28
684.416	10.55
684.739	11
685.062	11.43
685.386	11.7
685.709	11.93
686.032	11.83
686.355	10.88
686.678	12.01
687.001	10.95
687.324	11.83
687.646	11.55
687.969	11.93
688.292	11.36
688.614	11.66
688.937	11.74
689.26	11.52
689.582	11.52
689.904	11.91
690.227	11.36
