Data from 0008_forehead_Reflection__4__361.txt Node

Date: Thu Dec 15 19:25:47 CST 2022
User: ToomeyLab
Spectrometer: FLMS14357
Trigger mode: 0
Integration Time (sec): 1.000000E-2
Scans to average: 100
Electric dark correction enabled: true
Nonlinearity correction enabled: false
Boxcar width: 0
XAxis mode: Wavelengths
Number of Pixels in Spectrum: 2048
>>>>>Begin Spectral Data<<<<<
189.047	350.48
189.435	350.48
189.823	350.48
190.211	-542.28
190.599	1.21
190.987	50.03
191.375	-101.16
191.763	989.58
192.151	-20.6
192.538	18.24
192.926	-248.13
193.314	1939.73
193.702	12.06
194.089	26.95
194.477	-73.56
194.864	15.49
195.252	95.61
195.639	66.7
196.027	58.38
196.414	82.37
196.801	-354.65
197.189	310.79
197.576	-192.47
197.963	-59.91
198.351	1.64
198.738	-104.75
199.125	-49.49
199.512	20.59
199.899	-12.33
200.286	-94.06
200.673	10.25
201.06	-78.7
201.447	-40.59
201.833	9.72
202.22	35.23
202.607	-90.53
202.994	1.95
203.38	-20.99
203.767	33.87
204.154	28.4
204.54	4.51
204.927	13.66
205.313	29.35
205.699	36.93
206.086	22.5
206.472	16.73
206.858	30.98
207.245	8.14
207.631	21.17
208.017	49.61
208.403	-106.13
208.789	39.79
209.175	19.2
209.561	-111.18
209.947	-12.65
210.333	-27.61
210.719	22.54
211.105	26.85
211.491	21.42
211.876	-39.28
212.262	16.74
212.648	-22.49
213.034	-61.53
213.419	34.69
213.805	-28.21
214.19	-39.78
214.576	-13.13
214.961	-7.51
215.346	-63.2
215.732	6.97
216.117	7.49
216.502	-52
216.888	-9.38
217.273	-8.57
217.658	-10.32
218.043	-3.86
218.428	-9.59
218.813	20.9
219.198	-80.28
219.583	-9.17
219.968	12.24
220.353	-5.45
220.738	23.04
221.122	-26.24
221.507	-15
221.892	-68.76
222.276	-44.91
222.661	-15.16
223.046	-10.84
223.43	18.79
223.815	1.33
224.199	2.19
224.583	-7.73
224.968	-0.93
225.352	-10.68
225.736	5.83
226.121	6.25
226.505	-5.1
226.889	-0.51
227.273	-7.07
227.657	4.08
228.041	5.43
228.425	2.14
228.809	2.04
229.193	1.31
229.577	3.75
229.961	4.02
230.344	3.67
230.728	4.13
231.112	3.67
231.495	2.16
231.879	4.49
232.263	4.75
232.646	3.95
233.03	4.42
233.413	2.06
233.797	0.91
234.18	4.76
234.563	3.82
234.946	5.05
235.33	1.14
235.713	2.16
236.096	5.07
236.479	3.58
236.862	2.78
237.245	3.43
237.628	3.68
238.011	2.15
238.394	2.41
238.777	3.68
239.16	6.61
239.543	3.52
239.925	3.44
240.308	1.9
240.691	2.78
241.073	3.39
241.456	2.91
241.838	4.53
242.221	2.95
242.603	2.98
242.986	3.14
243.368	4.07
243.75	4.1
244.133	4.45
244.515	3.53
244.897	3.21
245.279	3.21
245.661	3.37
246.043	3.71
246.425	3.52
246.807	2.93
247.189	3.61
247.571	3.25
247.953	3.38
248.335	3.52
248.717	3.4
249.098	3.45
249.48	3.04
249.862	3.36
250.243	3.93
250.625	3.06
251.006	3.75
251.388	3.39
251.769	2.93
252.151	4
252.532	2.75
252.913	3.67
253.295	3.17
253.676	3.31
254.057	2.99
254.438	3.11
254.819	3.2
255.2	3.59
255.581	3.72
255.962	3.86
256.343	3.82
256.724	3.43
257.105	3
257.486	1.08
257.867	3.06
258.247	3.16
258.628	3.37
259.009	3.36
259.389	2.48
259.77	2.89
260.15	3.64
260.531	3.46
260.911	3.38
261.292	3.46
261.672	3.12
262.052	3.31
262.432	2.95
262.813	3.23
263.193	3.36
263.573	2.89
263.953	2.57
264.333	3.62
264.713	3.14
265.093	3.19
265.473	3.17
265.853	3.2
266.233	2.78
266.612	2.04
266.992	3.48
267.372	3.13
267.752	3.8
268.131	3.1
268.511	3.31
268.89	3.71
269.27	2.11
269.649	2.66
270.029	2.89
270.408	3.29
270.787	3.55
271.167	3.33
271.546	4.22
271.925	2.87
272.304	2.86
272.683	2.99
273.062	3.04
273.441	2.85
273.82	3.53
274.199	3.17
274.578	3.35
274.957	3.03
275.336	3.05
275.715	3.54
276.093	2.47
276.472	3.47
276.851	3.14
277.229	3.49
277.608	2.55
277.986	3.3
278.365	3.47
278.743	3.27
279.122	3.16
279.5	2.97
279.878	3.38
280.257	2.81
280.635	3.27
281.013	2.52
281.391	2.62
281.769	3.6
282.147	3.21
282.525	2.77
282.903	2.78
283.281	3.41
283.659	3.05
284.037	3.08
284.415	3.05
284.792	3.43
285.17	3.17
285.548	2.68
285.925	2.87
286.303	3.59
286.68	3.32
287.058	3.14
287.435	2.88
287.813	2.83
288.19	3.23
288.567	3.51
288.945	2.77
289.322	3.06
289.699	3.34
290.076	3.24
290.453	2.67
290.83	3.07
291.207	3.13
291.584	3.15
291.961	3.35
292.338	2.87
292.715	2.89
293.092	3.28
293.469	3.07
293.845	3.19
294.222	3.2
294.599	3.04
294.975	2.88
295.352	3.46
295.728	3.37
296.105	2.77
296.481	3.18
296.858	3.17
297.234	2.61
297.61	3.14
297.986	3.5
298.363	3.35
298.739	3.69
299.115	3.27
299.491	3.47
299.867	3.31
300.243	3.31
300.619	2.88
300.995	3.58
301.371	3.33
301.746	3.89
302.122	2.91
302.498	2.92
302.874	3.43
303.249	3.82
303.625	2.92
304	3.5
304.376	3.57
304.751	3.46
305.127	3.19
305.502	3.62
305.878	3.33
306.253	3.15
306.628	4.01
307.003	3.38
307.378	3.38
307.754	3.59
308.129	3.52
308.504	3.17
308.879	3.66
309.254	3.62
309.629	3.47
310.003	3.73
310.378	3.87
310.753	3.79
311.128	3.15
311.502	3.43
311.877	3.26
312.252	3.96
312.626	4.07
313.001	3.72
313.375	3.84
313.75	3.72
314.124	3.51
314.498	4.1
314.873	3.23
315.247	3.58
315.621	3.47
315.995	3.24
316.369	3.31
316.743	3.46
317.117	3.57
317.491	4
317.865	3.68
318.239	4.22
318.613	3.47
318.987	3.66
319.361	3.73
319.734	3.85
320.108	3.9
320.482	3.96
320.855	3.88
321.229	4.21
321.602	3.82
321.976	3.69
322.349	4.37
322.723	3.61
323.096	3.37
323.469	3.82
323.843	3.26
324.216	4.22
324.589	4.11
324.962	3.94
325.335	4.11
325.708	3.67
326.081	3.61
326.454	4.13
326.827	3.94
327.2	4.05
327.573	4.33
327.945	3.75
328.318	4.18
328.691	4.31
329.063	3.67
329.436	3.39
329.809	4.34
330.181	4.56
330.553	4.2
330.926	4.46
331.298	4.03
331.671	4.44
332.043	3.87
332.415	4.17
332.787	4.31
333.159	3.62
333.532	4.84
333.904	4.37
334.276	4.53
334.648	3.95
335.02	4.08
335.391	4.25
335.763	4.4
336.135	4.69
336.507	4.14
336.879	4.31
337.25	4.17
337.622	4.46
337.993	3.93
338.365	4.59
338.736	4.21
339.108	4.36
339.479	4.37
339.851	4.73
340.222	4.75
340.593	4.13
340.964	4.76
341.336	4.35
341.707	4.44
342.078	4.63
342.449	4.21
342.82	4.72
343.191	4.39
343.562	4.73
343.933	4.37
344.303	4.92
344.674	4.73
345.045	4.92
345.416	5.46
345.786	4.63
346.157	4.92
346.527	4.47
346.898	4.29
347.268	4.94
347.639	4.5
348.009	4.91
348.38	4.58
348.75	5.05
349.12	5.09
349.49	4.69
349.861	4.94
350.231	4.83
350.601	4.65
350.971	4.82
351.341	4.93
351.711	5.1
352.081	4.56
352.45	4.49
352.82	4.38
353.19	5.14
353.56	5.25
353.929	5
354.299	5.13
354.669	5.29
355.038	5.31
355.408	5.1
355.777	5.16
356.147	5.03
356.516	4.97
356.885	5.28
357.254	5.04
357.624	4.75
357.993	5.43
358.362	4.93
358.731	5.64
359.1	5.32
359.469	5.55
359.838	5.39
360.207	5.29
360.576	5.27
360.945	5.36
361.314	5.25
361.682	5.08
362.051	5.7
362.42	5.64
362.788	5.58
363.157	5.14
363.525	5.59
363.894	5.26
364.262	5.56
364.631	5.47
364.999	5.58
365.367	5.55
365.735	5.29
366.104	5.51
366.472	5.72
366.84	5.51
367.208	5.74
367.576	5.76
367.944	5.37
368.312	5.64
368.68	5.98
369.048	5.77
369.416	5.7
369.783	5.82
370.151	5.84
370.519	5.82
370.886	5.83
371.254	6
371.621	6.12
371.989	5.99
372.356	5.83
372.724	5.91
373.091	5.95
373.458	5.73
373.826	6.25
374.193	6.29
374.56	6.37
374.927	5.69
375.294	6.25
375.661	6.38
376.028	6.07
376.395	6.03
376.762	6.03
377.129	6.34
377.496	6.13
377.863	6.3
378.229	6.47
378.596	6.52
378.963	6.21
379.329	6.7
379.696	6.25
380.062	6.45
380.429	6.29
380.795	6.51
381.161	6.18
381.528	6.12
381.894	6.32
382.26	6.63
382.626	6.57
382.993	6.98
383.359	6.37
383.725	6.29
384.091	6.61
384.457	6.55
384.823	6.87
385.188	6.96
385.554	6.89
385.92	6.68
386.286	6.82
386.651	6.69
387.017	6.97
387.383	6.81
387.748	7.03
388.114	7
388.479	7.04
388.845	6.89
389.21	7.09
389.575	7.48
389.94	7.16
390.306	7.09
390.671	7.05
391.036	7.23
391.401	7.36
391.766	6.97
392.131	7.31
392.496	7.17
392.861	7.37
393.226	7.37
393.591	7.18
393.956	7.32
394.32	7.53
394.685	7.32
395.05	7.29
395.414	7.62
395.779	7.45
396.143	7.28
396.508	7.28
396.872	7.47
397.236	7.72
397.601	7.57
397.965	7.65
398.329	7.6
398.694	7.5
399.058	7.72
399.422	7.7
399.786	7.46
400.15	7.76
400.514	7.87
400.878	7.67
401.242	7.78
401.605	7.7
401.969	7.83
402.333	7.64
402.697	8.11
403.06	7.85
403.424	7.81
403.787	8.03
404.151	8.07
404.514	8.11
404.878	7.86
405.241	7.91
405.604	7.92
405.968	8.13
406.331	8.26
406.694	8.06
407.057	8.12
407.42	8.2
407.783	8.19
408.146	8.17
408.509	8.29
408.872	8.21
409.235	8.36
409.598	8.36
409.961	8.45
410.323	8.37
410.686	8.36
411.049	8.45
411.411	8.4
411.774	8.5
412.136	8.39
412.499	8.7
412.861	8.26
413.223	8.51
413.586	8.73
413.948	8.87
414.31	8.7
414.672	8.55
415.035	8.86
415.397	8.86
415.759	8.54
416.121	9.02
416.483	8.66
416.845	8.77
417.206	8.8
417.568	8.92
417.93	9.01
418.292	8.74
418.653	8.73
419.015	8.75
419.377	8.77
419.738	8.89
420.1	8.82
420.461	8.61
420.822	8.94
421.184	8.83
421.545	8.91
421.906	8.96
422.267	8.86
422.629	8.9
422.99	8.87
423.351	8.9
423.712	8.96
424.073	9.08
424.434	9.2
424.795	9.25
425.155	9.02
425.516	9.04
425.877	9.13
426.238	9.18
426.598	9.22
426.959	9.21
427.32	9.28
427.68	9.36
428.041	9.53
428.401	9.47
428.761	9.76
429.122	9.64
429.482	9.8
429.842	9.75
430.202	9.85
430.563	9.79
430.923	9.69
431.283	10.06
431.643	10.14
432.003	10.03
432.363	10.11
432.722	9.99
433.082	10.01
433.442	10.08
433.802	9.98
434.161	9.97
434.521	10.06
434.881	10.07
435.24	10.08
435.6	10.05
435.959	10.15
436.319	10.12
436.678	10.35
437.037	10.19
437.396	10.41
437.756	10.29
438.115	10.4
438.474	10.43
438.833	10.48
439.192	10.62
439.551	10.45
439.91	10.45
440.269	10.51
440.628	10.46
440.987	10.56
441.345	10.48
441.704	10.53
442.063	10.44
442.421	10.58
442.78	10.58
443.138	10.68
443.497	10.73
443.855	10.79
444.214	10.78
444.572	11.01
444.93	10.93
445.288	11.01
445.647	10.83
446.005	10.99
446.363	10.97
446.721	10.96
447.079	10.97
447.437	10.92
447.795	11
448.153	10.93
448.51	10.92
448.868	11
449.226	11.03
449.584	11.06
449.941	11.27
450.299	11.35
450.656	11.36
451.014	11.54
451.371	11.51
451.729	11.58
452.086	11.47
452.443	11.66
452.801	11.67
453.158	11.89
453.515	11.69
453.872	11.52
454.229	11.62
454.586	11.62
454.943	11.78
455.3	11.9
455.657	11.77
456.014	11.96
456.371	12.06
456.727	11.86
457.084	12.15
457.441	12.09
457.797	12.04
458.154	12.27
458.51	12.04
458.867	12.34
459.223	12.22
459.58	12.28
459.936	12.2
460.292	12.14
460.648	12.07
461.005	12.09
461.361	12.07
461.717	12.11
462.073	12.19
462.429	12.32
462.785	12.43
463.141	12.48
463.496	12.5
463.852	12.59
464.208	12.7
464.564	12.75
464.919	12.73
465.275	12.95
465.631	13.02
465.986	13.11
466.342	12.73
466.697	12.92
467.052	13.08
467.408	13.04
467.763	13.06
468.118	12.88
468.473	13.09
468.829	13.17
469.184	13.24
469.539	13.21
469.894	13.08
470.249	13.45
470.603	13.42
470.958	13.54
471.313	13.59
471.668	13.33
472.023	13.43
472.377	13.54
472.732	13.72
473.086	13.55
473.441	13.64
473.795	13.75
474.15	13.61
474.504	13.62
474.859	13.56
475.213	13.98
475.567	13.76
475.921	13.97
476.275	14.16
476.63	14.14
476.984	13.87
477.338	14.1
477.692	14.11
478.045	14.09
478.399	14.01
478.753	14.12
479.107	14.16
479.461	14.15
479.814	14.18
480.168	14.18
480.521	14.21
480.875	14.28
481.228	14.34
481.582	14.16
481.935	14.4
482.289	14.4
482.642	14.44
482.995	14.29
483.348	14.23
483.701	14.3
484.055	14.16
484.408	13.98
484.761	13.88
485.114	13.55
485.466	13.55
485.819	13.61
486.172	13.59
486.525	13.7
486.878	13.84
487.23	14
487.583	14.22
487.936	14.18
488.288	14.17
488.641	14.04
488.993	14
489.345	14.04
489.698	14.07
490.05	14.13
490.402	14.27
490.754	14.45
491.107	14.45
491.459	14.75
491.811	14.9
492.163	14.76
492.515	14.75
492.866	14.58
493.218	14.62
493.57	14.57
493.922	14.54
494.274	14.72
494.625	14.91
494.977	15.16
495.328	15.33
495.68	15.51
496.031	15.77
496.383	15.69
496.734	15.87
497.086	15.93
497.437	15.81
497.788	15.9
498.139	15.63
498.49	15.65
498.842	15.74
499.193	15.7
499.544	15.8
499.894	15.77
500.245	15.98
500.596	16.03
500.947	16.14
501.298	16.09
501.648	16.32
501.999	16.3
502.35	16.19
502.7	16.58
503.051	16.37
503.401	16.53
503.752	16.42
504.102	16.55
504.452	16.57
504.803	16.73
505.153	16.7
505.503	16.66
505.853	16.82
506.203	16.68
506.553	16.7
506.903	16.8
507.253	16.87
507.603	17.01
507.953	16.89
508.303	16.91
508.652	16.95
509.002	17.03
509.352	17
509.701	16.9
510.051	16.95
510.4	17.1
510.75	16.95
511.099	16.74
511.449	17.06
511.798	16.89
512.147	17.02
512.496	17.24
512.846	16.98
513.195	17.19
513.544	17.31
513.893	17.17
514.242	17.24
514.591	17.23
514.939	17.28
515.288	17.37
515.637	17.44
515.986	17.53
516.334	17.68
516.683	17.68
517.032	17.79
517.38	17.81
517.729	17.66
518.077	17.74
518.426	17.75
518.774	17.69
519.122	17.64
519.47	17.55
519.819	17.43
520.167	17.49
520.515	17.36
520.863	17.54
521.211	17.52
521.559	17.55
521.907	17.96
522.255	17.87
522.602	17.93
522.95	18.1
523.298	18.24
523.645	18.33
523.993	18.35
524.341	18.27
524.688	18.18
525.036	18.3
525.383	18.38
525.73	18.25
526.078	18.39
526.425	18.3
526.772	18.15
527.119	17.97
527.466	18.05
527.814	18
528.161	18.01
528.508	18.06
528.854	18
529.201	17.92
529.548	17.74
529.895	17.54
530.242	17.59
530.588	17.59
530.935	17.63
531.282	17.59
531.628	17.74
531.975	17.89
532.321	18.12
532.667	18.29
533.014	18.47
533.36	18.58
533.706	18.54
534.052	18.66
534.399	18.34
534.745	18.27
535.091	18.34
535.437	18.36
535.783	18.34
536.129	18.45
536.474	18.79
536.82	18.99
537.166	18.93
537.512	18.95
537.857	19.03
538.203	18.81
538.549	18.88
538.894	18.98
539.239	19.07
539.585	19.21
539.93	19.33
540.276	19.48
540.621	19.64
540.966	19.7
541.311	19.7
541.656	19.53
542.001	19.36
542.346	19.17
542.691	18.96
543.036	18.84
543.381	18.87
543.726	18.96
544.071	19.01
544.415	19.1
544.76	19.28
545.105	19.21
545.449	19.48
545.794	19.64
546.138	19.77
546.483	19.74
546.827	19.88
547.171	19.94
547.516	20.14
547.86	20.07
548.204	19.91
548.548	19.9
548.892	20.01
549.236	20.12
549.58	20.33
549.924	20.24
550.268	20.66
550.612	20.82
550.956	20.8
551.3	20.99
551.643	20.92
551.987	21.14
552.33	21.25
552.674	20.99
553.017	21.06
553.361	21.05
553.704	21.14
554.048	20.87
554.391	20.82
554.734	21.04
555.077	21.05
555.42	20.85
555.764	20.98
556.107	21.4
556.45	21.31
556.793	21.4
557.135	21.62
557.478	21.58
557.821	21.32
558.164	21.41
558.507	21.59
558.849	21.7
559.192	21.46
559.534	21.63
559.877	21.64
560.219	21.73
560.562	21.54
560.904	22.06
561.246	21.85
561.589	21.8
561.931	21.92
562.273	21.91
562.615	21.84
562.957	21.88
563.299	21.97
563.641	21.88
563.983	22.01
564.325	22.01
564.667	22.03
565.008	22.08
565.35	22.13
565.692	22.23
566.033	22.23
566.375	22.03
566.716	22.13
567.058	22.21
567.399	22.12
567.741	22.13
568.082	22.01
568.423	22.03
568.764	22.05
569.105	22.03
569.447	22.34
569.788	22.4
570.129	22.31
570.47	22.2
570.811	22.47
571.151	22.38
571.492	22.75
571.833	22.38
572.174	22.65
572.514	22.58
572.855	22.77
573.195	22.48
573.536	22.46
573.876	22.52
574.217	22.43
574.557	22.34
574.898	22.53
575.238	22.59
575.578	22.7
575.918	22.76
576.258	22.9
576.598	22.8
576.938	22.73
577.278	22.88
577.618	22.89
577.958	22.97
578.298	22.69
578.638	22.92
578.977	23.16
579.317	23.34
579.657	23.06
579.996	23.34
580.336	23.54
580.675	23.57
581.014	23.64
581.354	23.59
581.693	23.65
582.032	23.75
582.372	23.68
582.711	23.58
583.05	23.74
583.389	23.85
583.728	23.91
584.067	23.77
584.406	23.97
584.745	23.7
585.083	23.77
585.422	24.07
585.761	24.07
586.1	23.7
586.438	23.87
586.777	23.84
587.115	23.85
587.454	23.85
587.792	24.04
588.13	24.14
588.469	24
588.807	24.05
589.145	24.24
589.483	24.15
589.821	24.25
590.159	24.06
590.497	24.06
590.835	24.44
591.173	24.37
591.511	24.38
591.849	24.06
592.187	24.22
592.524	24.62
592.862	24.26
593.2	24.31
593.537	24.25
593.875	24.54
594.212	24.52
594.55	24.82
594.887	24.57
595.224	24.72
595.561	24.68
595.899	24.87
596.236	24.67
596.573	24.67
596.91	24.58
597.247	24.7
597.584	24.59
597.921	24.24
598.258	24.61
598.594	24.39
598.931	24.26
599.268	24.55
599.604	24.58
599.941	24.72
600.277	24.67
600.614	24.76
600.95	24.99
601.287	24.76
601.623	24.94
601.959	25.31
602.296	25.01
602.632	25.31
602.968	25.29
603.304	25.33
603.64	25.17
603.976	25.17
604.312	25.32
604.648	25.32
604.984	25.13
605.319	25.26
605.655	24.78
605.991	25.13
606.326	25.08
606.662	24.87
606.998	25.22
607.333	25.05
607.668	25.2
608.004	25.3
608.339	25.23
608.674	25.67
609.01	26.14
609.345	25.52
609.68	25.64
610.015	25.52
610.35	25.81
610.685	25.59
611.02	25.33
611.355	25.66
611.689	25.4
612.024	25.76
612.359	25.72
612.694	25.95
613.028	25.7
613.363	25.87
613.697	25.91
614.032	25.85
614.366	25.94
614.7	26.34
615.035	26.2
615.369	26.11
615.703	26.23
616.037	26.12
616.371	26.36
616.705	26.06
617.039	26.45
617.373	26.72
617.707	26.43
618.041	26.19
618.375	26.11
618.709	26.56
619.042	26.52
619.376	26.54
619.71	26.42
620.043	26.72
620.377	26.66
620.71	26.5
621.043	26.92
621.377	27.24
621.71	26.87
622.043	26.91
622.376	26.69
622.709	26.96
623.043	27.12
623.376	26.58
623.709	27.34
624.041	27.01
624.374	26.85
624.707	26.82
625.04	27.28
625.373	26.9
625.705	26.82
626.038	26.78
626.37	26.97
626.703	27.26
627.035	27.66
627.368	27.42
627.7	27.35
628.032	27.05
628.365	27.4
628.697	27.45
629.029	27.37
629.361	27.52
629.693	27.24
630.025	27.27
630.357	27.23
630.689	27.38
631.021	27.54
631.353	27.61
631.684	27.37
632.016	27.66
632.348	27.59
632.679	27.69
633.011	27.49
633.342	27.22
633.674	27.8
634.005	27.65
634.336	27.75
634.668	27.74
634.999	27.81
635.33	27.66
635.661	27.71
635.992	28
636.323	28.1
636.654	27.65
636.985	27.52
637.316	27.73
637.647	27.7
637.977	27.8
638.308	27.98
638.639	28.06
638.969	27.87
639.3	28.05
639.63	27.9
639.961	28.24
640.291	28.06
640.622	28.3
640.952	28.27
641.282	27.58
641.612	28.33
641.943	28.2
642.273	28.26
642.603	28.51
642.933	28.34
643.263	28.81
643.592	28.85
643.922	29.03
644.252	28.81
644.582	28.21
644.911	28.41
645.241	28.39
645.571	28.93
645.9	28.86
646.23	28.47
646.559	28.62
646.888	29.36
647.218	28.75
647.547	28.77
647.876	28.67
648.205	29.08
648.534	28.71
648.863	29.47
649.192	28.96
649.521	29.06
649.85	29.2
650.179	28.51
650.508	28.69
650.837	29.39
651.165	29.16
651.494	29.15
651.822	29.08
652.151	29.05
652.479	29.83
652.808	28.9
653.136	28.98
653.465	29.52
653.793	29.06
654.121	29.16
654.449	29.23
654.777	28.83
655.105	28.9
655.433	29.73
655.761	28.96
656.089	29.4
656.417	29.73
656.745	29.91
657.073	29.62
657.4	29.45
657.728	29.14
658.056	29.32
658.383	29.33
658.711	30.04
659.038	30.15
659.365	29.75
659.693	29.45
660.02	29.98
660.347	29.73
660.674	29.32
661.001	29.54
661.329	29.75
661.656	29.29
661.982	29.8
662.309	29.67
662.636	29.5
662.963	29.8
663.29	29.72
663.616	29.41
663.943	30.26
664.27	29.84
664.596	30.25
664.923	29.92
665.249	30.67
665.576	29.92
665.902	29.41
666.228	30.2
666.554	30.45
666.881	29.95
667.207	30.43
667.533	30.29
667.859	30.6
668.185	30.3
668.511	30.44
668.837	30.26
669.162	30.7
669.488	29.68
669.814	30.27
670.139	29.71
670.465	30.63
670.791	30.13
671.116	30.64
671.442	29.92
671.767	30.43
672.092	30.21
672.418	31.33
672.743	30.84
673.068	30.25
673.393	30.81
673.718	30.59
674.043	29.94
674.368	30.73
674.693	30.81
675.018	30.99
675.343	30.57
675.667	30.73
