Data from 0008_chest_Reflection__1__348.txt Node

Date: Thu Dec 15 19:22:11 CST 2022
User: ToomeyLab
Spectrometer: FLMS14357
Trigger mode: 0
Integration Time (sec): 1.000000E-2
Scans to average: 100
Electric dark correction enabled: true
Nonlinearity correction enabled: false
Boxcar width: 0
XAxis mode: Wavelengths
Number of Pixels in Spectrum: 2048
>>>>>Begin Spectral Data<<<<<
189.047	751.44
189.435	751.44
189.823	751.44
190.211	69.24
190.599	34.74
190.987	0.33
191.375	-75.32
191.763	8.14
192.151	85.86
192.538	9.82
192.926	685.63
193.314	76.34
193.702	-25.44
194.089	-20.11
194.477	99.81
194.864	36.12
195.252	29.15
195.639	141.34
196.027	146.15
196.414	55.13
196.801	-288.26
197.189	291.62
197.576	35.1
197.963	165.8
198.351	2.96
198.738	-31.27
199.125	-145.25
199.512	6.37
199.899	-119.44
200.286	-83
200.673	36.16
201.06	66.66
201.447	-2.93
201.833	-13.75
202.22	9.65
202.607	-67.32
202.994	19.64
203.38	-6.01
203.767	23.5
204.154	-30.13
204.54	16.16
204.927	1.73
205.313	41.08
205.699	42.29
206.086	14.07
206.472	1.65
206.858	8.91
207.245	-24.36
207.631	37.06
208.017	16.39
208.403	-62.38
208.789	4.95
209.175	62.13
209.561	-61
209.947	5.97
210.333	-21.48
210.719	-9.28
211.105	12.34
211.491	3.06
211.876	-37.9
212.262	7.7
212.648	-6.89
213.034	-33.73
213.419	-26.99
213.805	-60.66
214.19	-28.91
214.576	-38.37
214.961	-5.15
215.346	-28.64
215.732	-10.08
216.117	-17.52
216.502	-25.82
216.888	0.41
217.273	-1.26
217.658	-27.18
218.043	-36.77
218.428	-26.37
218.813	7.83
219.198	-26.05
219.583	-48.15
219.968	-11.5
220.353	-8.92
220.738	-7.99
221.122	-23.95
221.507	-1.22
221.892	-33.59
222.276	-26.68
222.661	-25.49
223.046	-33.51
223.43	-3.96
223.815	3
224.199	-5.58
224.583	-1.11
224.968	-0.46
225.352	-15.49
225.736	1.37
226.121	1.13
226.505	-5.3
226.889	-2.62
227.273	-11.72
227.657	3.05
228.041	6.65
228.425	-6.39
228.809	0.15
229.193	1.58
229.577	0.57
229.961	1.56
230.344	2.8
230.728	2.66
231.112	3.11
231.495	0.24
231.879	1.04
232.263	2.31
232.646	1.64
233.03	3.95
233.413	1.59
233.797	0.18
234.18	1.21
234.563	1.27
234.946	2.87
235.33	0.6
235.713	3.77
236.096	1.87
236.479	3.61
236.862	0.21
237.245	-1.02
237.628	2.6
238.011	1.39
238.394	0.79
238.777	0.71
239.16	1.64
239.543	3.06
239.925	1.59
240.308	0.34
240.691	0.73
241.073	1.52
241.456	2.57
241.838	1.75
242.221	1.65
242.603	1.68
242.986	2.36
243.368	2.4
243.75	2.56
244.133	2.41
244.515	2.04
244.897	2.38
245.279	1.56
245.661	1.85
246.043	1.22
246.425	1.81
246.807	1.24
247.189	1.64
247.571	1.73
247.953	2
248.335	2.31
248.717	2.38
249.098	2.26
249.48	2.17
249.862	2.22
250.243	2.58
250.625	2.24
251.006	2.85
251.388	1.25
251.769	1.2
252.151	1.99
252.532	1.83
252.913	2.45
253.295	1.84
253.676	2.13
254.057	2.2
254.438	1.71
254.819	1.64
255.2	2.8
255.581	3.32
255.962	2.96
256.343	3.2
256.724	2.28
257.105	1.93
257.486	2.12
257.867	2.81
258.247	2.05
258.628	1.68
259.009	1.39
259.389	1.6
259.77	1.57
260.15	2.57
260.531	2.13
260.911	1.73
261.292	2.18
261.672	2.26
262.052	2.02
262.432	1.8
262.813	2.32
263.193	2.54
263.573	1.9
263.953	1.36
264.333	2.44
264.713	2.48
265.093	1.19
265.473	2
265.853	1.78
266.233	1.81
266.612	1.74
266.992	1.62
267.372	1.99
267.752	2.25
268.131	2.04
268.511	1.5
268.89	2.64
269.27	1.49
269.649	1.8
270.029	1.32
270.408	1.52
270.787	2.24
271.167	2.34
271.546	2.49
271.925	2.39
272.304	1.75
272.683	1.42
273.062	2.04
273.441	1.52
273.82	2.13
274.199	1.96
274.578	2.24
274.957	1.92
275.336	1.65
275.715	2.16
276.093	1.45
276.472	1.28
276.851	2.05
277.229	2.37
277.608	1.49
277.986	2.3
278.365	2.37
278.743	2.09
279.122	1.28
279.5	1.45
279.878	1.72
280.257	1.9
280.635	2.27
281.013	1.62
281.391	1.81
281.769	2.17
282.147	1.54
282.525	1.17
282.903	1.32
283.281	2.33
283.659	2.42
284.037	1.5
284.415	1.55
284.792	2.13
285.17	1.95
285.548	1.04
285.925	1.41
286.303	1.87
286.68	1.99
287.058	2.03
287.435	1.86
287.813	2.01
288.19	1.36
288.567	1.91
288.945	1.6
289.322	2.45
289.699	2.38
290.076	1.7
290.453	1.58
290.83	1.75
291.207	1.8
291.584	1.89
291.961	1.83
292.338	1.79
292.715	1.37
293.092	1.9
293.469	1.86
293.845	1.74
294.222	2.45
294.599	1.6
294.975	1.18
295.352	1.82
295.728	2.15
296.105	1.87
296.481	1.68
296.858	1.74
297.234	1.62
297.61	1.93
297.986	2.22
298.363	1.85
298.739	1.93
299.115	2.03
299.491	2.22
299.867	1.75
300.243	1.53
300.619	1.18
300.995	1.67
301.371	2.03
301.746	1.7
302.122	1.46
302.498	1.43
302.874	2.08
303.249	1.73
303.625	1.47
304	1.63
304.376	1.82
304.751	1.87
305.127	1.65
305.502	1.8
305.878	2.03
306.253	1.39
306.628	1.75
307.003	1.55
307.378	2.24
307.754	1.69
308.129	1.67
308.504	2.01
308.879	2.11
309.254	1.81
309.629	1.7
310.003	1.57
310.378	2.11
310.753	1.91
311.128	1.42
311.502	1.83
311.877	1.65
312.252	1.85
312.626	1.96
313.001	2.05
313.375	1.95
313.75	1.94
314.124	2.09
314.498	1.83
314.873	1.67
315.247	1.97
315.621	1.71
315.995	1.55
316.369	1.17
316.743	1.5
317.117	1.64
317.491	2.38
317.865	1.9
318.239	2.42
318.613	1.62
318.987	1.53
319.361	2.09
319.734	1.52
320.108	1.77
320.482	2.12
320.855	1.89
321.229	2.02
321.602	2.03
321.976	1.33
322.349	2.22
322.723	2.31
323.096	1.8
323.469	1.98
323.843	1.25
324.216	1.98
324.589	1.94
324.962	1.44
325.335	2.12
325.708	1.87
326.081	1.77
326.454	2.27
326.827	1.92
327.2	1.79
327.573	2.04
327.945	1.38
328.318	1.93
328.691	2.13
329.063	1.8
329.436	1.38
329.809	2.24
330.181	2.39
330.553	2.04
330.926	2.04
331.298	1.71
331.671	1.65
332.043	1.57
332.415	1.92
332.787	1.66
333.159	1.31
333.532	1.66
333.904	2.04
334.276	1.76
334.648	2.04
335.02	1.73
335.391	1.6
335.763	2.15
336.135	2.05
336.507	1.53
336.879	1.71
337.25	1.97
337.622	2
337.993	1.72
338.365	2.15
338.736	2
339.108	2.06
339.479	1.75
339.851	2.11
340.222	2.2
340.593	1.97
340.964	1.74
341.336	2
341.707	1.64
342.078	2.02
342.449	2.11
342.82	1.92
343.191	2.26
343.562	2.08
343.933	1.74
344.303	2.04
344.674	1.8
345.045	1.83
345.416	2.05
345.786	1.57
346.157	1.95
346.527	2.08
346.898	1.68
347.268	2.04
347.639	2.03
348.009	2.14
348.38	2.02
348.75	1.89
349.12	2.09
349.49	2.18
349.861	1.75
350.231	1.81
350.601	1.85
350.971	1.97
351.341	2.25
351.711	2.05
352.081	1.91
352.45	1.75
352.82	1.52
353.19	1.94
353.56	2.08
353.929	2.02
354.299	2.24
354.669	1.84
355.038	2.31
355.408	2.08
355.777	2.25
356.147	1.93
356.516	1.92
356.885	1.89
357.254	1.88
357.624	1.78
357.993	1.91
358.362	2.17
358.731	2.27
359.1	2.1
359.469	2.23
359.838	2.23
360.207	1.8
360.576	2.3
360.945	2.24
361.314	2.2
361.682	1.74
362.051	1.86
362.42	1.97
362.788	2.1
363.157	2.15
363.525	2.26
363.894	1.84
364.262	2.16
364.631	2.11
364.999	2.13
365.367	1.71
365.735	1.74
366.104	2.13
366.472	2.09
366.84	2.07
367.208	2.32
367.576	2.13
367.944	2.06
368.312	1.65
368.68	2.07
369.048	1.81
369.416	1.91
369.783	1.84
370.151	2.25
370.519	2.64
370.886	2.23
371.254	2.26
371.621	2.34
371.989	2.56
372.356	1.9
372.724	2.21
373.091	2.01
373.458	2.17
373.826	2.3
374.193	2.4
374.56	2.41
374.927	2.16
375.294	2.24
375.661	2.3
376.028	2
376.395	2.37
376.762	1.96
377.129	2.03
377.496	2.16
377.863	2.43
378.229	2.45
378.596	2.3
378.963	2.12
379.329	2.27
379.696	2.18
380.062	2.1
380.429	1.81
380.795	2.44
381.161	1.93
381.528	1.94
381.894	2.24
382.26	2.09
382.626	2.16
382.993	2.63
383.359	2.07
383.725	1.88
384.091	2.2
384.457	2.05
384.823	2.17
385.188	2.47
385.554	2.29
385.92	2.11
386.286	2.01
386.651	2.16
387.017	2.42
387.383	2.05
387.748	2.44
388.114	2.36
388.479	2.11
388.845	2.02
389.21	2.34
389.575	2.42
389.94	2.66
390.306	2.35
390.671	2.4
391.036	2.18
391.401	2.24
391.766	2.24
392.131	2.41
392.496	2.4
392.861	2.43
393.226	2.35
393.591	2.24
393.956	2.45
394.32	2.32
394.685	2.3
395.05	2.44
395.414	2.4
395.779	2.68
396.143	2.3
396.508	2.3
396.872	2.19
397.236	2.5
397.601	2.61
397.965	2.45
398.329	2.22
398.694	2.11
399.058	2.52
399.422	2.33
399.786	2.37
400.15	2.31
400.514	2.57
400.878	2.29
401.242	2.5
401.605	2.26
401.969	2.23
402.333	2.22
402.697	2.56
403.06	2.32
403.424	2.61
403.787	2.27
404.151	2.32
404.514	2.43
404.878	2.37
405.241	2.42
405.604	2.35
405.968	2.38
406.331	2.37
406.694	2.52
407.057	2.34
407.42	2.43
407.783	2.58
408.146	2.4
408.509	2.55
408.872	2.31
409.235	2.69
409.598	2.3
409.961	2.53
410.323	2.33
410.686	2.46
411.049	2.35
411.411	2.44
411.774	2.49
412.136	2.44
412.499	2.67
412.861	2.18
413.223	2.32
413.586	2.49
413.948	2.57
414.31	2.52
414.672	2.56
415.035	2.51
415.397	2.27
415.759	2.08
416.121	2.67
416.483	2.33
416.845	2.44
417.206	2.44
417.568	2.43
417.93	2.49
418.292	2.33
418.653	2.26
419.015	2.43
419.377	2.36
419.738	2.42
420.1	2.46
420.461	2.42
420.822	2.52
421.184	2.43
421.545	2.56
421.906	2.51
422.267	2.4
422.629	2.39
422.99	2.45
423.351	2.4
423.712	2.39
424.073	2.44
424.434	2.61
424.795	2.39
425.155	2.29
425.516	2.38
425.877	2.54
426.238	2.48
426.598	2.49
426.959	2.43
427.32	2.47
427.68	2.51
428.041	2.47
428.401	2.27
428.761	2.58
429.122	2.55
429.482	2.4
429.842	2.54
430.202	2.58
430.563	2.47
430.923	2.46
431.283	2.56
431.643	2.56
432.003	2.56
432.363	2.51
432.722	2.4
433.082	2.44
433.442	2.64
433.802	2.45
434.161	2.59
434.521	2.53
434.881	2.52
435.24	2.53
435.6	2.45
435.959	2.64
436.319	2.59
436.678	2.61
437.037	2.51
437.396	2.54
437.756	2.48
438.115	2.59
438.474	2.43
438.833	2.49
439.192	2.45
439.551	2.46
439.91	2.65
440.269	2.49
440.628	2.45
440.987	2.57
441.345	2.51
441.704	2.51
442.063	2.45
442.421	2.56
442.78	2.58
443.138	2.48
443.497	2.45
443.855	2.53
444.214	2.4
444.572	2.57
444.93	2.53
445.288	2.61
445.647	2.4
446.005	2.51
446.363	2.55
446.721	2.56
447.079	2.46
447.437	2.49
447.795	2.6
448.153	2.57
448.51	2.55
448.868	2.47
449.226	2.58
449.584	2.48
449.941	2.58
450.299	2.48
450.656	2.56
451.014	2.61
451.371	2.61
451.729	2.57
452.086	2.55
452.443	2.8
452.801	2.59
453.158	2.72
453.515	2.46
453.872	2.57
454.229	2.41
454.586	2.46
454.943	2.68
455.3	2.59
455.657	2.45
456.014	2.58
456.371	2.64
456.727	2.69
457.084	2.7
457.441	2.63
457.797	2.52
458.154	2.63
458.51	2.49
458.867	2.66
459.223	2.5
459.58	2.7
459.936	2.55
460.292	2.46
460.648	2.61
461.005	2.59
461.361	2.62
461.717	2.64
462.073	2.67
462.429	2.63
462.785	2.77
463.141	2.58
463.496	2.5
463.852	2.68
464.208	2.68
464.564	2.53
464.919	2.73
465.275	2.58
465.631	2.87
465.986	2.76
466.342	2.54
466.697	2.58
467.052	2.96
467.408	2.87
467.763	2.55
468.118	2.62
468.473	2.67
468.829	2.71
469.184	2.75
469.539	2.55
469.894	2.68
470.249	2.71
470.603	2.68
470.958	2.73
471.313	2.72
471.668	2.74
472.023	2.76
472.377	2.7
472.732	2.82
473.086	2.56
473.441	2.6
473.795	3
474.15	2.72
474.504	2.73
474.859	2.43
475.213	2.74
475.567	2.73
475.921	2.72
476.275	2.8
476.63	2.72
476.984	2.65
477.338	2.97
477.692	2.77
478.045	2.72
478.399	2.77
478.753	2.62
479.107	2.77
479.461	2.63
479.814	2.7
480.168	2.67
480.521	2.86
480.875	2.85
481.228	2.81
481.582	2.78
481.935	2.87
482.289	2.66
482.642	2.75
482.995	2.72
483.348	2.7
483.701	2.78
484.055	2.7
484.408	2.68
484.761	2.59
485.114	2.56
485.466	2.55
485.819	2.55
486.172	2.62
486.525	2.64
486.878	2.69
487.23	2.64
487.583	2.68
487.936	2.65
488.288	2.66
488.641	2.69
488.993	2.64
489.345	2.64
489.698	2.64
490.05	2.66
490.402	2.72
490.754	2.73
491.107	2.69
491.459	2.79
491.811	2.72
492.163	2.7
492.515	2.68
492.866	2.7
493.218	2.66
493.57	2.72
493.922	2.71
494.274	2.78
494.625	2.89
494.977	2.84
495.328	2.85
495.68	2.75
496.031	2.93
496.383	2.79
496.734	2.84
497.086	2.87
497.437	2.71
497.788	2.88
498.139	2.81
498.49	2.85
498.842	2.89
499.193	2.76
499.544	2.95
499.894	2.75
500.245	2.86
500.596	2.88
500.947	2.9
501.298	2.88
501.648	2.84
501.999	2.8
502.35	2.9
502.7	2.99
503.051	2.87
503.401	2.88
503.752	2.79
504.102	2.9
504.452	2.84
504.803	2.82
505.153	2.92
505.503	2.86
505.853	2.99
506.203	2.93
506.553	2.82
506.903	2.91
507.253	2.95
507.603	2.92
507.953	2.94
508.303	2.89
508.652	2.81
509.002	3
509.352	2.94
509.701	2.82
510.051	2.98
510.4	3.01
510.75	2.87
511.099	2.8
511.449	2.97
511.798	2.91
512.147	2.97
512.496	3.03
512.846	2.89
513.195	2.92
513.544	3.1
513.893	2.92
514.242	2.93
514.591	2.84
514.939	3.03
515.288	3.06
515.637	2.99
515.986	3.02
516.334	3.07
516.683	3.14
517.032	2.84
517.38	2.96
517.729	3.14
518.077	2.9
518.426	3.13
518.774	3.03
519.122	2.99
519.47	3
519.819	3.07
520.167	3.02
520.515	2.98
520.863	3.05
521.211	3.04
521.559	3.03
521.907	3.08
522.255	3.04
522.602	2.99
522.95	3.16
523.298	3.09
523.645	3.23
523.993	3.07
524.341	2.98
524.688	3.14
525.036	3.05
525.383	3.09
525.73	3.05
526.078	3.2
526.425	3.14
526.772	3.07
527.119	3.15
527.466	3.12
527.814	3.11
528.161	3.05
528.508	3.17
528.854	3.07
529.201	3.08
529.548	3.02
529.895	3.03
530.242	2.97
530.588	2.96
530.935	3.01
531.282	3.03
531.628	3.08
531.975	3.07
532.321	3.09
532.667	3.16
533.014	3.22
533.36	3.23
533.706	3.18
534.052	3.2
534.399	3.16
534.745	3.13
535.091	3.08
535.437	3.13
535.783	3.23
536.129	3.23
536.474	3.27
536.82	3.28
537.166	3.25
537.512	3.25
537.857	3.19
538.203	3.22
538.549	3.17
538.894	3.25
539.239	3.24
539.585	3.32
539.93	3.33
540.276	3.33
540.621	3.4
540.966	3.38
541.311	3.38
541.656	3.27
542.001	3.23
542.346	3.27
542.691	3.18
543.036	3.24
543.381	3.24
543.726	3.31
544.071	3.32
544.415	3.37
544.76	3.32
545.105	3.33
545.449	3.35
545.794	3.42
546.138	3.39
546.483	3.48
546.827	3.33
547.171	3.42
547.516	3.54
547.86	3.56
548.204	3.55
548.548	3.44
548.892	3.51
549.236	3.51
549.58	3.56
549.924	3.76
550.268	3.63
550.612	3.7
550.956	3.82
551.3	3.87
551.643	3.61
551.987	3.7
552.33	3.93
552.674	3.66
553.017	3.78
553.361	3.78
553.704	3.68
554.048	3.71
554.391	3.77
554.734	3.62
555.077	3.73
555.42	3.64
555.764	3.65
556.107	3.8
556.45	3.89
556.793	3.93
557.135	3.85
557.478	3.86
557.821	3.87
558.164	3.83
558.507	3.75
558.849	4
559.192	3.75
559.534	3.79
559.877	3.73
560.219	3.97
560.562	3.85
560.904	4.19
561.246	3.81
561.589	4.17
561.931	3.9
562.273	3.95
562.615	3.86
562.957	3.83
563.299	3.96
563.641	4.07
563.983	3.88
564.325	3.95
564.667	3.97
565.008	4.08
565.35	3.95
565.692	4.05
566.033	4.1
566.375	4.23
566.716	3.89
567.058	4.05
567.399	4.07
567.741	4.15
568.082	4.08
568.423	4.05
568.764	4.03
569.105	4.2
569.447	4.29
569.788	4.2
570.129	4.04
570.47	4.06
570.811	4.05
571.151	4.13
571.492	4.23
571.833	4.35
572.174	4.44
572.514	4.33
572.855	4.42
573.195	4.25
573.536	4.28
573.876	4.28
574.217	4.28
574.557	4.37
574.898	4.3
575.238	4.32
575.578	4.54
575.918	4.31
576.258	4.57
576.598	4.29
576.938	4.22
577.278	4.36
577.618	4.46
577.958	4.46
578.298	4.59
578.638	4.43
578.977	4.7
579.317	4.57
579.657	4.47
579.996	4.67
580.336	4.78
580.675	4.7
581.014	4.68
581.354	4.46
581.693	4.85
582.032	4.67
582.372	4.76
582.711	4.94
583.05	4.89
583.389	4.92
583.728	4.96
584.067	4.76
584.406	4.82
584.745	4.72
585.083	4.95
585.422	4.94
585.761	4.69
586.1	4.96
586.438	4.66
586.777	4.92
587.115	4.96
587.454	4.78
587.792	5.16
588.13	5.04
588.469	4.94
588.807	5.15
589.145	5.08
589.483	4.89
589.821	5.03
590.159	5.15
590.497	5.13
590.835	5.24
591.173	5.35
591.511	5.29
591.849	5.24
592.187	5.04
592.524	5.35
592.862	5.11
593.2	5.28
593.537	5.19
593.875	5.12
594.212	5.51
594.55	5.17
594.887	5.31
595.224	5.42
595.561	5.52
595.899	5.67
596.236	5.45
596.573	5.44
596.91	5.27
597.247	5.57
597.584	5.42
597.921	5.37
598.258	5.41
598.594	5.39
598.931	5.23
599.268	5.51
599.604	5.62
599.941	5.48
600.277	5.53
600.614	5.84
600.95	5.67
601.287	5.47
601.623	5.5
601.959	6.1
602.296	5.91
602.632	5.77
602.968	5.51
603.304	5.71
603.64	5.69
603.976	5.63
604.312	5.8
604.648	5.73
604.984	5.73
605.319	5.9
605.655	6
605.991	5.81
606.326	5.77
606.662	5.9
606.998	6.11
607.333	6.06
607.668	5.91
608.004	5.96
608.339	5.91
608.674	5.98
609.01	6.36
609.345	6.2
609.68	6.06
610.015	6.2
610.35	6.27
610.685	6.04
611.02	6.02
611.355	6.16
611.689	6.33
612.024	6.34
612.359	6.53
612.694	6.59
613.028	6.12
613.363	6.4
613.697	6.16
614.032	6.36
614.366	6.42
614.7	6.46
615.035	6.53
615.369	6.78
615.703	6.61
616.037	6.53
616.371	6.57
616.705	6.38
617.039	6.93
617.373	6.52
617.707	6.5
618.041	6.66
618.375	6.53
618.709	6.81
619.042	6.67
619.376	6.63
619.71	6.86
620.043	6.89
620.377	6.96
620.71	6.41
621.043	6.88
621.377	6.88
621.71	7.02
622.043	6.99
622.376	6.76
622.709	7.48
623.043	7.01
623.376	6.91
623.709	7.31
624.041	7.17
624.374	6.98
624.707	6.85
625.04	6.96
625.373	7.28
625.705	6.96
626.038	7.45
626.37	6.9
626.703	6.97
627.035	7.37
627.368	7.6
627.7	7.56
628.032	7.06
628.365	7.64
628.697	7.4
629.029	7.32
629.361	7.62
629.693	7.29
630.025	7.45
630.357	7.43
630.689	7.5
631.021	7.51
631.353	7.48
631.684	7.34
632.016	7.27
632.348	7.32
632.679	7.54
633.011	7.69
633.342	7.41
633.674	7.5
634.005	7.96
634.336	8.19
634.668	7.97
634.999	7.64
635.33	7.73
635.661	7.65
635.992	7.99
636.323	7.95
636.654	7.82
636.985	7.83
637.316	7.95
637.647	8.02
637.977	7.91
638.308	8.04
638.639	8.12
638.969	8.31
639.3	8.05
639.63	8.29
639.961	8.21
640.291	8.31
640.622	8.34
640.952	8.44
641.282	7.88
641.612	8.26
641.943	7.93
642.273	8.28
642.603	8.14
642.933	8.64
643.263	8.82
643.592	9.06
643.922	8.68
644.252	8.42
644.582	8.93
644.911	8.43
645.241	8.35
645.571	8.48
645.9	8.56
646.23	8.73
646.559	8.47
646.888	8.79
647.218	8.66
647.547	8.65
647.876	8.7
648.205	8.5
648.534	8.73
648.863	8.87
649.192	9.21
649.521	9.34
649.85	8.92
650.179	8.99
650.508	8.62
650.837	9.03
651.165	8.57
651.494	8.99
651.822	9.31
652.151	9.11
652.479	9.33
652.808	9.39
653.136	9.15
653.465	9.11
653.793	9.19
654.121	9
654.449	8.95
654.777	9.15
655.105	9.01
655.433	9.72
655.761	9.26
656.089	9.37
656.417	9.67
656.745	9.96
657.073	8.89
657.4	9.26
657.728	9.36
658.056	9.47
658.383	9.35
658.711	9.58
659.038	9.69
659.365	9.66
659.693	9.93
660.02	9.41
660.347	9.83
660.674	9.54
661.001	9.68
661.329	9.45
661.656	9.57
661.982	9.38
662.309	9.56
662.636	9.74
662.963	10.09
663.29	10.27
663.616	9.5
663.943	9.91
664.27	9.88
664.596	9.97
664.923	10.06
665.249	10.4
665.576	10.08
665.902	9.94
666.228	10.21
666.554	10.25
666.881	9.94
667.207	10.57
667.533	9.69
667.859	9.69
668.185	9.75
668.511	10.67
668.837	10.13
669.162	10.26
669.488	9.82
669.814	10.19
670.139	9.97
670.465	10.47
670.791	10.38
671.116	9.99
671.442	9.79
671.767	10.97
672.092	10.53
672.418	10.83
672.743	11.07
673.068	10.28
673.393	10.65
673.718	9.93
674.043	11.05
674.368	10.32
674.693	10.8
675.018	11.11
675.343	11.31
675.667	10.76
675.992	10.63
676.317	10.54
676.641	11.41
676.966	10.82
677.29	10.97
677.615	10.86
677.939	10.95
678.264	11.11
678.588	11.17
678.912	11.38
679.236	10.69
679.56	11.17
679.885	10.98
680.209	12.07
680.532	11.66
680.856	11.43
681.18	11.61
681.504	11.4
681.828	11.15
682.152	11.36
682.475	11.77
682.799	11.07
683.122	11.36
683.446	11.17
683.769	12.06
684.093	11.31
684.416	11.36
684.739	11.63
685.062	12.03
685.386	11.56
685.709	11.81
686.032	12.39
686.355	11.79
686.678	12.08
687.001	12.67
687.324	11.73
687.646	11.78
687.969	12.16
688.292	11.5
688.614	12.16
688.937	12.14
689.26	12.19
689.582	12.07
689.904	12.4
690.227	12.73
690.549	12.3
690.871	12.46
