Data from 0008_crown_Reflection__0__352.txt Node

Date: Thu Dec 15 19:23:53 CST 2022
User: ToomeyLab
Spectrometer: FLMS14357
Trigger mode: 0
Integration Time (sec): 1.000000E-2
Scans to average: 100
Electric dark correction enabled: true
Nonlinearity correction enabled: false
Boxcar width: 0
XAxis mode: Wavelengths
Number of Pixels in Spectrum: 2048
>>>>>Begin Spectral Data<<<<<
189.047	-605.29
189.435	-605.29
189.823	-605.29
190.211	-231.99
190.599	40.82
190.987	73.58
191.375	-52.82
191.763	507.01
192.151	172.86
192.538	36.53
192.926	-442.29
193.314	9.37
193.702	1.75
194.089	84.26
194.477	127.52
194.864	164.44
195.252	303.55
195.639	79.12
196.027	116.89
196.414	139.93
196.801	324.75
197.189	140.97
197.576	242.58
197.963	141
198.351	13.73
198.738	-92.25
199.125	-168.68
199.512	21.47
199.899	-85.69
200.286	-139.63
200.673	21.33
201.06	-45.49
201.447	-10.35
201.833	-16.7
202.22	-29.19
202.607	5.31
202.994	-53.2
203.38	-43.1
203.767	-8.46
204.154	10.72
204.54	14.13
204.927	-5.92
205.313	25.78
205.699	34.82
206.086	18.99
206.472	-21.45
206.858	-23.49
207.245	-10.54
207.631	-32.99
208.017	55.41
208.403	-86.74
208.789	-35.32
209.175	-117.02
209.561	-145.76
209.947	-29.09
210.333	-12.49
210.719	28.85
211.105	32.11
211.491	-29.54
211.876	-54.79
212.262	7.64
212.648	4.44
213.034	-43.09
213.419	-26.23
213.805	-28.7
214.19	-34.44
214.576	-30.49
214.961	-10.65
215.346	-43.55
215.732	-3
216.117	-10.3
216.502	-50.63
216.888	-3.51
217.273	-54.78
217.658	-20.55
218.043	-65.45
218.428	-24.83
218.813	13.72
219.198	-38.73
219.583	-50.42
219.968	-36.51
220.353	-52.92
220.738	-26.6
221.122	-16.21
221.507	-4.25
221.892	-112.28
222.276	-30.97
222.661	-11.67
223.046	-32.34
223.43	8.43
223.815	-5.93
224.199	-16.94
224.583	-11.71
224.968	-15.51
225.352	-19.73
225.736	6.16
226.121	-10.07
226.505	-5.09
226.889	1.37
227.273	-8.82
227.657	-2.9
228.041	0.01
228.425	-2.91
228.809	-2.25
229.193	0.78
229.577	1.43
229.961	1.4
230.344	2.65
230.728	3.26
231.112	3.05
231.495	-0.03
231.879	0.87
232.263	2.52
232.646	1.67
233.03	3.36
233.413	0.99
233.797	1.7
234.18	0.12
234.563	1.41
234.946	-0.51
235.33	1.41
235.713	1.75
236.096	2.15
236.479	3.05
236.862	1.19
237.245	0.18
237.628	2.33
238.011	1.13
238.394	1.91
238.777	2.73
239.16	1.57
239.543	2.87
239.925	1.23
240.308	0.28
240.691	1.62
241.073	2.54
241.456	2.8
241.838	3.14
242.221	1.91
242.603	3.27
242.986	2.37
243.368	3.06
243.75	2.83
244.133	2.66
244.515	2.33
244.897	2.25
245.279	1.76
245.661	1.81
246.043	2.21
246.425	2
246.807	2.01
247.189	1.32
247.571	2.36
247.953	2.27
248.335	2.31
248.717	2.57
249.098	2.57
249.48	2.18
249.862	2.45
250.243	2.49
250.625	2.23
251.006	3.16
251.388	2.89
251.769	1.37
252.151	2.73
252.532	0.69
252.913	2.54
253.295	2.18
253.676	2.29
254.057	2.06
254.438	2.65
254.819	2.05
255.2	2.77
255.581	2.99
255.962	2.41
256.343	3.43
256.724	2.62
257.105	1.83
257.486	1.53
257.867	1.98
258.247	1.48
258.628	2.26
259.009	1.99
259.389	0.94
259.77	1.7
260.15	2.87
260.531	2.07
260.911	2.26
261.292	2.32
261.672	2.39
262.052	2.57
262.432	1.68
262.813	2.51
263.193	2.58
263.573	1.92
263.953	1.79
264.333	2.18
264.713	2.74
265.093	1.96
265.473	1.61
265.853	2.4
266.233	1.39
266.612	1.63
266.992	1.24
267.372	2.68
267.752	2.78
268.131	1.8
268.511	1.71
268.89	2.52
269.27	1.46
269.649	1.72
270.029	1.75
270.408	1.13
270.787	2.06
271.167	2.34
271.546	2.93
271.925	2.68
272.304	1.94
272.683	1.71
273.062	1.92
273.441	1.64
273.82	2.11
274.199	2.02
274.578	2.29
274.957	2.29
275.336	2.73
275.715	2.71
276.093	1.88
276.472	1.36
276.851	2.35
277.229	1.96
277.608	1.55
277.986	1.98
278.365	2.25
278.743	2.43
279.122	1.45
279.5	1.91
279.878	2.03
280.257	1.88
280.635	2.45
281.013	1.54
281.391	1.27
281.769	2.59
282.147	2.33
282.525	1.76
282.903	1.57
283.281	2.26
283.659	2.31
284.037	1.82
284.415	2.12
284.792	2.26
285.17	1.67
285.548	1.96
285.925	1.81
286.303	2.47
286.68	2.01
287.058	2.2
287.435	1.82
287.813	2.02
288.19	1.86
288.567	2.15
288.945	1.44
289.322	2.57
289.699	2.05
290.076	1.65
290.453	1.68
290.83	2.36
291.207	1.95
291.584	1.92
291.961	1.77
292.338	2.06
292.715	1.84
293.092	2.27
293.469	1.69
293.845	2.54
294.222	2.34
294.599	1.91
294.975	1.35
295.352	2.02
295.728	2.08
296.105	1.92
296.481	2.18
296.858	1.8
297.234	1.01
297.61	1.89
297.986	2.19
298.363	2.22
298.739	2.06
299.115	2.06
299.491	2.41
299.867	1.51
300.243	1.93
300.619	1.84
300.995	1.7
301.371	2.01
301.746	2.17
302.122	1.38
302.498	2.03
302.874	2.05
303.249	1.74
303.625	1.6
304	1.83
304.376	1.95
304.751	2.23
305.127	1.7
305.502	1.61
305.878	2.18
306.253	1.49
306.628	2.18
307.003	1.81
307.378	1.47
307.754	1.89
308.129	1.73
308.504	1.87
308.879	1.76
309.254	1.79
309.629	1.79
310.003	1.52
310.378	1.92
310.753	2.14
311.128	1.77
311.502	1.86
311.877	1.75
312.252	1.75
312.626	2.36
313.001	1.99
313.375	1.99
313.75	1.83
314.124	2.28
314.498	2.17
314.873	1.51
315.247	2.14
315.621	1.61
315.995	1.27
316.369	1.3
316.743	1.57
317.117	1.48
317.491	1.59
317.865	1.22
318.239	2.16
318.613	1.5
318.987	1.52
319.361	1.96
319.734	1.51
320.108	1.99
320.482	2.01
320.855	1.74
321.229	1.95
321.602	2.04
321.976	1.16
322.349	2.43
322.723	1.5
323.096	2.16
323.469	1.32
323.843	1.64
324.216	1.49
324.589	2.03
324.962	1.63
325.335	1.52
325.708	1.82
326.081	1.57
326.454	2.04
326.827	1.71
327.2	1.56
327.573	2.41
327.945	1.51
328.318	1.66
328.691	1.88
329.063	1.5
329.436	1.42
329.809	2.27
330.181	2.1
330.553	2.24
330.926	1.98
331.298	1.55
331.671	2.22
332.043	1.3
332.415	1.52
332.787	2.22
333.159	2.14
333.532	1.75
333.904	1.54
334.276	1.73
334.648	1.74
335.02	1.67
335.391	1.4
335.763	1.97
336.135	2.09
336.507	1.72
336.879	1.72
337.25	2.08
337.622	2.22
337.993	1.99
338.365	1.53
338.736	1.93
339.108	2.22
339.479	1.76
339.851	1.82
340.222	2.03
340.593	2
340.964	1.64
341.336	1.47
341.707	1.49
342.078	2.01
342.449	1.94
342.82	1.7
343.191	1.82
343.562	1.82
343.933	1.63
344.303	1.88
344.674	1.7
345.045	1.67
345.416	2.21
345.786	1.57
346.157	2.12
346.527	1.72
346.898	1.49
347.268	2.08
347.639	1.58
348.009	1.79
348.38	1.7
348.75	2.6
349.12	2.09
349.49	2.13
349.861	1.81
350.231	1.95
350.601	1.64
350.971	1.92
351.341	1.93
351.711	1.61
352.081	1.75
352.45	1.42
352.82	1.21
353.19	1.83
353.56	2.05
353.929	1.63
354.299	2.29
354.669	2.12
355.038	2.24
355.408	2.07
355.777	2.22
356.147	2.09
356.516	1.81
356.885	1.88
357.254	1.5
357.624	1.39
357.993	2.19
358.362	1.91
358.731	2.18
359.1	2.07
359.469	2.16
359.838	2.05
360.207	1.88
360.576	2.26
360.945	1.7
361.314	1.87
361.682	1.69
362.051	1.83
362.42	1.98
362.788	2.07
363.157	1.85
363.525	2.04
363.894	1.81
364.262	1.84
364.631	2.16
364.999	1.93
365.367	1.78
365.735	1.87
366.104	1.97
366.472	1.98
366.84	2.15
367.208	2.16
367.576	1.98
367.944	1.92
368.312	1.7
368.68	2.16
369.048	1.89
369.416	1.94
369.783	1.85
370.151	2.28
370.519	2.48
370.886	1.91
371.254	2.06
371.621	2.12
371.989	2.18
372.356	1.87
372.724	1.99
373.091	1.96
373.458	1.94
373.826	2.13
374.193	1.87
374.56	2.09
374.927	2.01
375.294	2.11
375.661	1.92
376.028	1.89
376.395	2.18
376.762	1.82
377.129	1.95
377.496	2.27
377.863	1.98
378.229	2.16
378.596	2.19
378.963	2.15
379.329	1.96
379.696	1.98
380.062	1.95
380.429	1.86
380.795	2.05
381.161	2
381.528	1.86
381.894	2.3
382.26	1.85
382.626	1.89
382.993	2.23
383.359	2.47
383.725	1.75
384.091	2.09
384.457	1.84
384.823	2.06
385.188	2.3
385.554	2.09
385.92	2.01
386.286	2.43
386.651	1.99
387.017	2.36
387.383	2.11
387.748	2.08
388.114	2.13
388.479	1.93
388.845	1.93
389.21	2.36
389.575	2.34
389.94	2.38
390.306	2.15
390.671	2.07
391.036	2.07
391.401	2.05
391.766	1.89
392.131	2.31
392.496	2.12
392.861	2.27
393.226	2.1
393.591	2.18
393.956	2.24
394.32	2.35
394.685	1.93
395.05	2.04
395.414	2.19
395.779	2.26
396.143	2
396.508	2
396.872	2.02
397.236	2.51
397.601	2.37
397.965	2.15
398.329	2
398.694	2.05
399.058	2.14
399.422	2.14
399.786	2.03
400.15	2.06
400.514	2.17
400.878	2.19
401.242	2.23
401.605	2.17
401.969	2.09
402.333	1.96
402.697	2.57
403.06	2.13
403.424	2.3
403.787	2.04
404.151	2.33
404.514	2.2
404.878	2.13
405.241	2.25
405.604	2.22
405.968	2.23
406.331	2.43
406.694	2.25
407.057	2.08
407.42	2.05
407.783	2.3
408.146	2.04
408.509	2.37
408.872	2.17
409.235	2.44
409.598	2.26
409.961	2.36
410.323	1.99
410.686	2.13
411.049	2.21
411.411	2.47
411.774	2.17
412.136	2.19
412.499	2.56
412.861	1.96
413.223	2.11
413.586	2.31
413.948	2.2
414.31	2.41
414.672	2.19
415.035	2.56
415.397	2.17
415.759	1.98
416.121	2.33
416.483	2.14
416.845	2.14
417.206	2.19
417.568	2.2
417.93	2.28
418.292	2.2
418.653	2.04
419.015	2.34
419.377	2.15
419.738	2.3
420.1	2.18
420.461	2.18
420.822	2.38
421.184	2.25
421.545	2.36
421.906	2.35
422.267	2.2
422.629	2.27
422.99	2.18
423.351	2.28
423.712	2.35
424.073	2.39
424.434	2.41
424.795	2.25
425.155	2.12
425.516	2.21
425.877	2.33
426.238	2.28
426.598	2.29
426.959	2.34
427.32	2.33
427.68	2.33
428.041	2.33
428.401	2.14
428.761	2.28
429.122	2.41
429.482	2.34
429.842	2.29
430.202	2.4
430.563	2.33
430.923	2.19
431.283	2.44
431.643	2.47
432.003	2.31
432.363	2.47
432.722	2.3
433.082	2.41
433.442	2.4
433.802	2.23
434.161	2.36
434.521	2.3
434.881	2.26
435.24	2.31
435.6	2.43
435.959	2.45
436.319	2.28
436.678	2.36
437.037	2.3
437.396	2.47
437.756	2.26
438.115	2.24
438.474	2.38
438.833	2.25
439.192	2.32
439.551	2.19
439.91	2.31
440.269	2.28
440.628	2.33
440.987	2.39
441.345	2.42
441.704	2.21
442.063	2.25
442.421	2.48
442.78	2.49
443.138	2.41
443.497	2.29
443.855	2.5
444.214	2.23
444.572	2.43
444.93	2.24
445.288	2.27
445.647	2.28
446.005	2.39
446.363	2.39
446.721	2.41
447.079	2.19
447.437	2.42
447.795	2.34
448.153	2.43
448.51	2.4
448.868	2.31
449.226	2.47
449.584	2.4
449.941	2.33
450.299	2.32
450.656	2.44
451.014	2.52
451.371	2.46
451.729	2.45
452.086	2.44
452.443	2.46
452.801	2.43
453.158	2.54
453.515	2.38
453.872	2.42
454.229	2.41
454.586	2.29
454.943	2.55
455.3	2.46
455.657	2.33
456.014	2.46
456.371	2.48
456.727	2.5
457.084	2.48
457.441	2.48
457.797	2.51
458.154	2.51
458.51	2.29
458.867	2.34
459.223	2.41
459.58	2.5
459.936	2.42
460.292	2.43
460.648	2.34
461.005	2.34
461.361	2.38
461.717	2.41
462.073	2.54
462.429	2.49
462.785	2.53
463.141	2.39
463.496	2.42
463.852	2.49
464.208	2.43
464.564	2.47
464.919	2.45
465.275	2.4
465.631	2.68
465.986	2.56
466.342	2.44
466.697	2.32
467.052	2.67
467.408	2.59
467.763	2.48
468.118	2.47
468.473	2.55
468.829	2.49
469.184	2.44
469.539	2.29
469.894	2.51
470.249	2.47
470.603	2.58
470.958	2.54
471.313	2.44
471.668	2.42
472.023	2.6
472.377	2.57
472.732	2.69
473.086	2.55
473.441	2.46
473.795	2.68
474.15	2.41
474.504	2.55
474.859	2.31
475.213	2.57
475.567	2.4
475.921	2.56
476.275	2.56
476.63	2.48
476.984	2.44
477.338	2.66
477.692	2.55
478.045	2.45
478.399	2.56
478.753	2.44
479.107	2.7
479.461	2.47
479.814	2.53
480.168	2.52
480.521	2.59
480.875	2.66
481.228	2.55
481.582	2.47
481.935	2.72
482.289	2.55
482.642	2.71
482.995	2.55
483.348	2.5
483.701	2.57
484.055	2.48
484.408	2.51
484.761	2.46
485.114	2.34
485.466	2.36
485.819	2.34
486.172	2.43
486.525	2.45
486.878	2.55
487.23	2.47
487.583	2.49
487.936	2.43
488.288	2.47
488.641	2.46
488.993	2.41
489.345	2.43
489.698	2.41
490.05	2.45
490.402	2.46
490.754	2.55
491.107	2.44
491.459	2.61
491.811	2.57
492.163	2.55
492.515	2.53
492.866	2.4
493.218	2.46
493.57	2.52
493.922	2.49
494.274	2.59
494.625	2.63
494.977	2.57
495.328	2.64
495.68	2.58
496.031	2.67
496.383	2.53
496.734	2.52
497.086	2.68
497.437	2.63
497.788	2.65
498.139	2.57
498.49	2.69
498.842	2.68
499.193	2.59
499.544	2.63
499.894	2.56
500.245	2.78
500.596	2.77
500.947	2.72
501.298	2.55
501.648	2.66
501.999	2.66
502.35	2.6
502.7	2.78
503.051	2.73
503.401	2.67
503.752	2.59
504.102	2.59
504.452	2.47
504.803	2.66
505.153	2.76
505.503	2.62
505.853	2.76
506.203	2.61
506.553	2.71
506.903	2.71
507.253	2.67
507.603	2.69
507.953	2.73
508.303	2.78
508.652	2.59
509.002	2.7
509.352	2.66
509.701	2.61
510.051	2.72
510.4	2.73
510.75	2.61
511.099	2.62
511.449	2.73
511.798	2.6
512.147	2.72
512.496	2.71
512.846	2.65
513.195	2.7
513.544	2.76
513.893	2.72
514.242	2.71
514.591	2.66
514.939	2.75
515.288	2.76
515.637	2.67
515.986	2.74
516.334	2.85
516.683	2.72
517.032	2.74
517.38	2.62
517.729	2.69
518.077	2.77
518.426	2.7
518.774	2.6
519.122	2.67
519.47	2.67
519.819	2.76
520.167	2.69
520.515	2.72
520.863	2.67
521.211	2.64
521.559	2.66
521.907	2.72
522.255	2.7
522.602	2.79
522.95	2.87
523.298	2.78
523.645	2.88
523.993	2.72
524.341	2.76
524.688	2.69
525.036	2.79
525.383	2.79
525.73	2.7
526.078	2.76
526.425	2.71
526.772	2.66
527.119	2.73
527.466	2.75
527.814	2.72
528.161	2.78
528.508	2.76
528.854	2.67
529.201	2.67
529.548	2.63
529.895	2.56
530.242	2.58
530.588	2.59
530.935	2.66
531.282	2.66
531.628	2.73
531.975	2.66
532.321	2.78
532.667	2.79
533.014	2.82
533.36	2.73
533.706	2.78
534.052	2.79
534.399	2.76
534.745	2.63
535.091	2.62
535.437	2.71
535.783	2.73
536.129	2.79
536.474	2.9
536.82	2.83
537.166	2.74
537.512	2.85
537.857	2.77
538.203	2.75
538.549	2.63
538.894	2.77
539.239	2.94
539.585	2.86
539.93	2.93
540.276	2.9
540.621	2.87
540.966	2.92
541.311	2.87
541.656	2.82
542.001	2.75
542.346	2.74
542.691	2.63
543.036	2.66
543.381	2.69
543.726	2.78
544.071	2.77
544.415	2.8
544.76	2.83
545.105	2.82
545.449	2.74
545.794	2.84
546.138	2.86
546.483	2.91
546.827	2.81
547.171	2.92
547.516	2.89
547.86	2.88
548.204	2.85
548.548	2.9
548.892	2.81
549.236	2.86
549.58	2.89
549.924	2.94
550.268	3.09
550.612	2.98
550.956	3.04
551.3	3.14
551.643	2.9
551.987	3.08
552.33	3.11
552.674	2.93
553.017	2.94
553.361	3.01
553.704	2.98
554.048	2.81
554.391	2.93
554.734	2.8
555.077	2.9
555.42	2.83
555.764	2.86
556.107	3.05
556.45	3.1
556.793	3.05
557.135	2.99
557.478	3.04
557.821	2.88
558.164	3.02
558.507	2.79
558.849	3.16
559.192	3.07
559.534	3
559.877	2.97
560.219	3.01
560.562	3
560.904	3.09
561.246	2.84
561.589	3.18
561.931	2.87
562.273	3.01
562.615	2.88
562.957	2.97
563.299	3.17
563.641	2.99
563.983	2.95
564.325	3.08
564.667	3
565.008	2.79
565.35	3.08
565.692	2.99
566.033	2.95
566.375	3.01
566.716	2.83
567.058	2.98
567.399	3.06
567.741	3.07
568.082	2.96
568.423	2.81
568.764	2.92
569.105	3
569.447	2.99
569.788	3.01
570.129	2.99
570.47	3.02
570.811	2.96
571.151	2.92
571.492	2.95
571.833	2.86
572.174	3.1
572.514	3.16
572.855	2.94
573.195	2.9
573.536	3.15
573.876	3
574.217	3
574.557	2.98
574.898	3.07
575.238	3.17
575.578	3.13
575.918	3.12
576.258	3.22
576.598	3.05
576.938	2.97
577.278	3.04
577.618	2.93
577.958	3.18
578.298	2.99
578.638	2.93
578.977	2.98
579.317	3.24
579.657	3.03
579.996	3.18
580.336	3.21
580.675	3.04
581.014	3.2
581.354	2.92
581.693	3.24
582.032	3.19
582.372	3.22
582.711	3.24
583.05	3.07
583.389	3.13
583.728	3.16
584.067	3.11
584.406	3.29
584.745	3.05
585.083	3.1
585.422	3.21
585.761	3.3
586.1	3.3
586.438	3.15
586.777	3.12
587.115	3.27
587.454	2.89
587.792	3.2
588.13	3.09
588.469	3.04
588.807	3.31
589.145	3.28
589.483	3.09
589.821	3.1
590.159	3.14
590.497	3.02
590.835	3.47
591.173	3.37
591.511	3.42
591.849	3.28
592.187	3.1
592.524	3.33
592.862	2.97
593.2	3.28
593.537	3.16
593.875	3.26
594.212	3.24
594.55	3.35
594.887	3.09
595.224	3.44
595.561	3.31
595.899	3.2
596.236	3.24
596.573	3.27
596.91	3.15
597.247	3.26
597.584	3.3
597.921	3.05
598.258	3.15
598.594	3.22
598.931	3.16
599.268	2.99
599.604	3.05
599.941	3.28
600.277	3.1
600.614	3.31
600.95	3.23
601.287	2.96
601.623	2.93
601.959	3.42
602.296	3.27
602.632	3.27
602.968	3.08
603.304	3.14
603.64	3.11
603.976	2.89
604.312	3.21
604.648	3.35
604.984	3.28
605.319	2.97
605.655	3.26
605.991	3.31
606.326	3.27
606.662	3.05
606.998	3.29
607.333	3.28
607.668	3.21
608.004	3.2
608.339	3.22
608.674	3.25
609.01	3.44
609.345	3.19
609.68	3.1
610.015	3.42
610.35	3.15
610.685	2.85
611.02	2.98
611.355	3.4
611.689	3.32
612.024	3.18
612.359	3.38
612.694	3.37
613.028	3.12
613.363	3.38
613.697	3.24
614.032	3.49
614.366	3.18
614.7	3.5
615.035	3.21
615.369	3.42
615.703	3.4
616.037	3.26
616.371	3.04
616.705	3.42
617.039	3.46
617.373	3.44
617.707	3.15
618.041	3.06
618.375	2.79
618.709	3.63
619.042	3.42
619.376	3.27
619.71	3.05
620.043	3.69
620.377	3.31
620.71	3.24
621.043	3.45
621.377	3.62
621.71	3.58
622.043	3.36
622.376	3.22
622.709	4
623.043	3.14
623.376	3.58
623.709	3.56
624.041	3.1
624.374	3.44
624.707	3.18
625.04	3.33
625.373	3.44
625.705	3.47
626.038	3.24
626.37	3.11
626.703	3.45
627.035	3.2
627.368	3.48
627.7	3.23
628.032	3.3
628.365	3.6
628.697	3.53
629.029	3.35
629.361	3.58
629.693	3.28
630.025	3.44
630.357	3.42
630.689	3.42
631.021	3.71
631.353	3.59
631.684	3.5
632.016	2.98
632.348	3.16
632.679	3.46
633.011	3.24
633.342	3.43
633.674	3.13
634.005	3.35
634.336	3.67
634.668	3.33
634.999	3.55
635.33	3.34
635.661	3.15
635.992	3.43
636.323	3.38
636.654	3.25
636.985	3.4
637.316	3.31
637.647	3.71
637.977	3.24
638.308	3.7
638.639	3.47
638.969	3.16
639.3	3.28
639.63	3.34
639.961	3.58
640.291	3.35
640.622	3.35
640.952	3.79
641.282	3.16
641.612	3.35
641.943	3.36
642.273	3.07
642.603	3.83
642.933	3.34
643.263	3.6
643.592	3.7
643.922	3.58
644.252	3.55
644.582	4.07
644.911	3.5
645.241	3.53
645.571	3.38
645.9	3.74
646.23	3.97
646.559	3.73
646.888	3.51
647.218	3.59
647.547	3.23
647.876	3.46
648.205	3.34
648.534	3.4
648.863	3.56
649.192	3.81
649.521	4.04
649.85	3.79
650.179	3.29
650.508	3.31
650.837	3.91
651.165	3.76
651.494	3.97
651.822	3.25
652.151	3.13
652.479	3.6
652.808	3.47
653.136	3.16
653.465	3.54
653.793	3.66
654.121	4.11
654.449	3.47
654.777	3.3
655.105	2.95
655.433	3.74
655.761	3.85
656.089	3.56
656.417	3.98
656.745	4.08
657.073	3.32
657.4	3.68
657.728	3.21
658.056	3.02
658.383	3.57
658.711	3.83
659.038	4.21
659.365	3.59
659.693	3.77
660.02	3.43
660.347	3.38
660.674	2.99
661.001	3.32
661.329	3.46
661.656	3.47
661.982	3.41
662.309	3.61
662.636	3.82
662.963	3.6
663.29	3.83
663.616	3.59
663.943	3.42
664.27	3.47
664.596	3.2
664.923	3.37
665.249	3.55
665.576	3.41
665.902	3.65
666.228	4.12
666.554	4.16
666.881	3.57
667.207	3.42
667.533	3.57
667.859	3.41
668.185	3.81
668.511	3.67
668.837	3.63
669.162	4.12
669.488	3.46
669.814	3.28
670.139	2.98
670.465	3.65
670.791	3.59
671.116	3.53
671.442	2.88
671.767	3.17
672.092	3.36
672.418	4.16
672.743	3.82
673.068	2.94
673.393	3.97
673.718	3.15
674.043	3.78
674.368	3.67
674.693	4.23
675.018	3.83
675.343	3.83
675.667	3.63
675.992	3.66
676.317	3.19
676.641	4.22
676.966	3.69
677.29	3.64
677.615	3.7
677.939	4.04
678.264	4.03
678.588	3.84
678.912	3.76
679.236	3.52
679.56	3.11
679.885	3.84
680.209	3.77
680.532	3.76
680.856	4.03
681.18	4.86
681.504	3.58
681.828	3.41
682.152	3.58
682.475	3.74
682.799	3.63
683.122	4.02
683.446	2.97
683.769	3.95
684.093	4.06
684.416	3.03
684.739	3.54
685.062	3.63
685.386	3.65
685.709	3.68
686.032	3.67
686.355	3.77
686.678	3.91
687.001	4
687.324	3.73
687.646	4.04
687.969	4.19
688.292	3.49
688.614	3.75
688.937	4.3
689.26	4.71
689.582	3.68
689.904	4.07
690.227	4.79
690.549	4.21
690.871	3.97
691.194	3.52
