Data from 0025_crown_Reflection__4__85.txt Node

Date: Thu Oct 20 20:59:20 CDT 2022
User: ToomeyLab
Spectrometer: FLMS14357
Trigger mode: 0
Integration Time (sec): 1.000000E-2
Scans to average: 100
Electric dark correction enabled: true
Nonlinearity correction enabled: false
Boxcar width: 0
XAxis mode: Wavelengths
Number of Pixels in Spectrum: 2048
>>>>>Begin Spectral Data<<<<<
189.047	6.78
189.435	6.78
189.823	6.78
190.211	61.74
190.599	50.41
190.987	440.74
191.375	39.89
191.763	204.96
192.151	119.1
192.538	730.16
192.926	96.57
193.314	57.14
193.702	6.68
194.089	313.06
194.477	-8.7
194.864	-377.77
195.252	97.75
195.639	123.87
196.027	290.97
196.414	-168.66
196.801	21.69
197.189	-1011.75
197.576	232.37
197.963	-22.56
198.351	12.15
198.738	16.18
199.125	29.1
199.512	15.97
199.899	6.83
200.286	-34.24
200.673	13.41
201.06	-15.5
201.447	14.3
201.833	-13.56
202.22	-1.87
202.607	-13.62
202.994	3.59
203.38	-13.01
203.767	2.65
204.154	-19.21
204.54	-20.21
204.927	24.68
205.313	-31.08
205.699	9.3
206.086	-10.76
206.472	20.6
206.858	0.38
207.245	-3.3
207.631	11.55
208.017	22.97
208.403	25.47
208.789	-31.75
209.175	-0.5
209.561	6.57
209.947	32.15
210.333	11.22
210.719	30.64
211.105	-11.62
211.491	18.49
211.876	-14.22
212.262	-2.43
212.648	-11.45
213.034	-17.2
213.419	-31.98
213.805	-10.06
214.19	-11.54
214.576	18
214.961	20.12
215.346	1.87
215.732	-47.86
216.117	5.91
216.502	-20.84
216.888	24.68
217.273	9.5
217.658	3.21
218.043	14.88
218.428	0.37
218.813	1.13
219.198	5.14
219.583	-10.29
219.968	-7.36
220.353	-1.43
220.738	20.32
221.122	7.72
221.507	-3.53
221.892	1.64
222.276	2.63
222.661	10.68
223.046	9.8
223.43	14.73
223.815	-1.74
224.199	12.44
224.583	5.45
224.968	11.11
225.352	13.79
225.736	15.36
226.121	11.75
226.505	3.09
226.889	7.65
227.273	10.84
227.657	6.36
228.041	6.11
228.425	10.14
228.809	9.05
229.193	10.61
229.577	11.15
229.961	11.38
230.344	10.93
230.728	9.74
231.112	9.9
231.495	11.32
231.879	9.38
232.263	11.47
232.646	10.99
233.03	9.22
233.413	9.64
233.797	7.57
234.18	9.18
234.563	9.53
234.946	10.01
235.33	8.48
235.713	9.14
236.096	9.67
236.479	9.37
236.862	7.35
237.245	8.23
237.628	10.2
238.011	8.47
238.394	8.7
238.777	10.05
239.16	7.71
239.543	8.79
239.925	10.06
240.308	10.7
240.691	8.74
241.073	9.79
241.456	8.55
241.838	10.44
242.221	9.38
242.603	9.64
242.986	8.94
243.368	9.55
243.75	9.44
244.133	9.24
244.515	9.18
244.897	9.15
245.279	9.82
245.661	9.59
246.043	9.4
246.425	8.69
246.807	8.75
247.189	8.65
247.571	9.32
247.953	9.24
248.335	9.43
248.717	8.96
249.098	8.61
249.48	9
249.862	9.01
250.243	8.7
250.625	8.59
251.006	9.64
251.388	8.61
251.769	10.03
252.151	8.52
252.532	7.43
252.913	8.4
253.295	9.06
253.676	9.23
254.057	7.97
254.438	8.57
254.819	8.44
255.2	9.22
255.581	7.99
255.962	8.38
256.343	8.42
256.724	7.78
257.105	7.92
257.486	7.79
257.867	9.08
258.247	8.28
258.628	8.66
259.009	8.35
259.389	8.62
259.77	8.07
260.15	8.42
260.531	8.17
260.911	8.39
261.292	8.09
261.672	7.72
262.052	7.8
262.432	8.25
262.813	7.98
263.193	7.93
263.573	8.49
263.953	8.05
264.333	7.52
264.713	8.04
265.093	7.5
265.473	7.32
265.853	8.01
266.233	7.86
266.612	7.43
266.992	7.76
267.372	7.32
267.752	7.72
268.131	7.84
268.511	7.42
268.89	7.4
269.27	7.22
269.649	7.88
270.029	8
270.408	7.16
270.787	7.55
271.167	7.22
271.546	7.46
271.925	7.81
272.304	7.93
272.683	7.78
273.062	7.43
273.441	7.5
273.82	7.83
274.199	7.2
274.578	7.05
274.957	7.16
275.336	7.45
275.715	8.07
276.093	7.39
276.472	7.17
276.851	6.99
277.229	7.95
277.608	7.32
277.986	7.2
278.365	7.36
278.743	7
279.122	7.58
279.5	7.64
279.878	7.64
280.257	6.64
280.635	7.47
281.013	6.69
281.391	6.83
281.769	7.62
282.147	6.95
282.525	7.62
282.903	7.3
283.281	7.14
283.659	6.8
284.037	7.42
284.415	7.36
284.792	6.82
285.17	7.22
285.548	7.02
285.925	6.99
286.303	7.36
286.68	7.29
287.058	6.9
287.435	6.86
287.813	6.4
288.19	6.75
288.567	7.04
288.945	7.11
289.322	6.74
289.699	6.91
290.076	6.93
290.453	6.81
290.83	6.61
291.207	6.65
291.584	6.95
291.961	6.66
292.338	6.88
292.715	6.58
293.092	6.83
293.469	7.05
293.845	6.62
294.222	6.85
294.599	7.03
294.975	6.78
295.352	6.29
295.728	6.46
296.105	6.7
296.481	7.01
296.858	7.09
297.234	6.67
297.61	6.44
297.986	6.71
298.363	6.85
298.739	6.93
299.115	6.81
299.491	6.9
299.867	6.63
300.243	6.56
300.619	6.68
300.995	6.87
301.371	6.58
301.746	6.63
302.122	7.36
302.498	7.06
302.874	6.6
303.249	6.33
303.625	6.42
304	6.85
304.376	7.14
304.751	6.64
305.127	6.53
305.502	6.79
305.878	6.82
306.253	6.2
306.628	6.72
307.003	6.93
307.378	6.56
307.754	6.71
308.129	6.9
308.504	7.35
308.879	6.97
309.254	6.47
309.629	7.21
310.003	6.97
310.378	6.78
310.753	6.72
311.128	6.94
311.502	7.09
311.877	6.69
312.252	6.74
312.626	7.01
313.001	6.99
313.375	6.8
313.75	6.85
314.124	6.39
314.498	6.67
314.873	7.47
315.247	6.74
315.621	6.96
315.995	6.77
316.369	6.83
316.743	7.09
317.117	7.66
317.491	7.22
317.865	7.09
318.239	6.54
318.613	6.05
318.987	6.4
319.361	6.76
319.734	6.58
320.108	6.63
320.482	6.62
320.855	6.89
321.229	6.49
321.602	7.33
321.976	6.46
322.349	7.23
322.723	6.77
323.096	7.21
323.469	6.64
323.843	6.62
324.216	6.63
324.589	6.44
324.962	6.54
325.335	6.2
325.708	6.87
326.081	7.05
326.454	6.81
326.827	6.58
327.2	6.67
327.573	7.07
327.945	7.05
328.318	6.65
328.691	7.3
329.063	7.19
329.436	6.21
329.809	7.07
330.181	7.05
330.553	6.49
330.926	6.76
331.298	7.44
331.671	6.44
332.043	6.83
332.415	7.05
332.787	7.25
333.159	7.21
333.532	6.7
333.904	7.35
334.276	6.81
334.648	6.61
335.02	6.88
335.391	6.46
335.763	6.8
336.135	7.37
336.507	7.17
336.879	6.76
337.25	7.46
337.622	7.02
337.993	6.93
338.365	6.75
338.736	7.05
339.108	7.18
339.479	6.26
339.851	7.4
340.222	7
340.593	6.61
340.964	7.43
341.336	7.19
341.707	7.11
342.078	6.81
342.449	7.26
342.82	7.11
343.191	7.62
343.562	7.08
343.933	6.86
344.303	7
344.674	7.21
345.045	7.31
345.416	6.81
345.786	7.25
346.157	7.23
346.527	6.83
346.898	7.08
347.268	7.27
347.639	6.76
348.009	7.43
348.38	6.85
348.75	7.26
349.12	7.21
349.49	7.38
349.861	7.24
350.231	7.46
350.601	7.19
350.971	7.08
351.341	7.35
351.711	6.94
352.081	7.22
352.45	7.21
352.82	7.13
353.19	7.26
353.56	7.06
353.929	7.31
354.299	7.14
354.669	7.25
355.038	7.41
355.408	7.2
355.777	7.42
356.147	7.46
356.516	7.07
356.885	7.81
357.254	7.62
357.624	7.44
357.993	7.69
358.362	7.61
358.731	7.5
359.1	7.03
359.469	7.09
359.838	7.05
360.207	7.34
360.576	7.52
360.945	7.2
361.314	7.88
361.682	7.71
362.051	7.44
362.42	7.51
362.788	7.21
363.157	7.63
363.525	7.27
363.894	7.38
364.262	7.63
364.631	7.3
364.999	7.66
365.367	7.44
365.735	7.28
366.104	7.63
366.472	7.43
366.84	7.82
367.208	7.56
367.576	7.6
367.944	7.83
368.312	7.66
368.68	7.62
369.048	7.68
369.416	7.73
369.783	7.42
370.151	7.49
370.519	7.58
370.886	7.77
371.254	7.61
371.621	7.48
371.989	7.69
372.356	7.87
372.724	7.93
373.091	7.61
373.458	7.6
373.826	7.64
374.193	7.64
374.56	7.7
374.927	7.67
375.294	7.96
375.661	7.66
376.028	7.35
376.395	7.4
376.762	7.38
377.129	7.6
377.496	7.58
377.863	7.71
378.229	7.84
378.596	7.94
378.963	7.45
379.329	7.99
379.696	7.59
380.062	7.97
380.429	8.17
380.795	7.68
381.161	7.88
381.528	7.84
381.894	8.14
382.26	7.82
382.626	7.9
382.993	8.19
383.359	7.88
383.725	8.28
384.091	8.12
384.457	7.72
384.823	8.03
385.188	7.76
385.554	8.08
385.92	7.84
386.286	8.05
386.651	7.78
387.017	8.02
387.383	7.97
387.748	8.04
388.114	8.22
388.479	8.17
388.845	7.93
389.21	7.64
389.575	8.14
389.94	7.83
390.306	8.21
390.671	8.03
391.036	8.17
391.401	8.12
391.766	7.85
392.131	8.04
392.496	8.1
392.861	7.99
393.226	7.96
393.591	8.02
393.956	7.95
394.32	8.31
394.685	8.35
395.05	8.31
395.414	8.19
395.779	8.12
396.143	8.01
396.508	8.23
396.872	8.23
397.236	8.12
397.601	8.49
397.965	8.31
398.329	8.15
398.694	8.01
399.058	8.28
399.422	7.78
399.786	8.05
400.15	8.43
400.514	8.32
400.878	8.32
401.242	8.1
401.605	8.26
401.969	8.13
402.333	8.1
402.697	8.35
403.06	7.93
403.424	8.03
403.787	8.17
404.151	8.39
404.514	8.21
404.878	8.19
405.241	8.36
405.604	8.2
405.968	8.04
406.331	8.13
406.694	8.24
407.057	8.12
407.42	8.02
407.783	8.27
408.146	8.24
408.509	8.19
408.872	8.17
409.235	8.09
409.598	8.03
409.961	7.98
410.323	8.01
410.686	8.51
411.049	8.28
411.411	8.41
411.774	8.49
412.136	8.24
412.499	8.1
412.861	8.26
413.223	8.22
413.586	8.52
413.948	8.46
414.31	8.25
414.672	8.31
415.035	8.26
415.397	8.14
415.759	8.37
416.121	8.35
416.483	8.26
416.845	8.25
417.206	8.3
417.568	8.35
417.93	8.18
418.292	8.28
418.653	8.36
419.015	8.31
419.377	8.22
419.738	8.34
420.1	8.26
420.461	8.16
420.822	8.18
421.184	8.18
421.545	8.34
421.906	8.15
422.267	8.2
422.629	8.05
422.99	8.23
423.351	8.02
423.712	8.06
424.073	8.08
424.434	8.15
424.795	8.18
425.155	8.13
425.516	8.15
425.877	8.14
426.238	8.12
426.598	8.15
426.959	8.18
427.32	8.14
427.68	8.18
428.041	8.12
428.401	8.15
428.761	8.34
429.122	8.11
429.482	8.14
429.842	8.23
430.202	8.31
430.563	8.23
430.923	8.28
431.283	8.37
431.643	8.26
432.003	8.35
432.363	8.12
432.722	8.21
433.082	8.31
433.442	8.28
433.802	8.51
434.161	8.2
434.521	8.16
434.881	8.24
435.24	8.18
435.6	8.24
435.959	8.25
436.319	8.34
436.678	8.3
437.037	8.37
437.396	8.39
437.756	8.37
438.115	8.44
438.474	8.29
438.833	8.26
439.192	8.33
439.551	8.26
439.91	8.26
440.269	8.33
440.628	8.34
440.987	8.23
441.345	8.37
441.704	8.27
442.063	8.14
442.421	8.19
442.78	8.1
443.138	8.14
443.497	8.2
443.855	8.25
444.214	8.28
444.572	8.37
444.93	8.1
445.288	8.14
445.647	8.22
446.005	8.2
446.363	8.1
446.721	8.13
447.079	8.21
447.437	8.19
447.795	8.15
448.153	8.12
448.51	8.1
448.868	8.04
449.226	8.12
449.584	8.1
449.941	8.11
450.299	8.25
450.656	8.2
451.014	8.15
451.371	8.28
451.729	8.07
452.086	8.12
452.443	8.19
452.801	8.17
453.158	8.51
453.515	8.2
453.872	8.32
454.229	8.29
454.586	8.36
454.943	8.12
455.3	8.31
455.657	8.11
456.014	8.04
456.371	8.25
456.727	8.29
457.084	8.15
457.441	8.31
457.797	8.19
458.154	8.15
458.51	8.14
458.867	8.36
459.223	8.21
459.58	8.31
459.936	8.23
460.292	8.29
460.648	8.28
461.005	8.28
461.361	8.13
461.717	8
462.073	7.88
462.429	8.04
462.785	7.99
463.141	8.13
463.496	8.12
463.852	7.97
464.208	8.15
464.564	8.18
464.919	8.16
465.275	8.19
465.631	8.36
465.986	8.34
466.342	8.19
466.697	8.08
467.052	8.25
467.408	8.23
467.763	8.39
468.118	8.28
468.473	8.22
468.829	8.35
469.184	8.32
469.539	8.03
469.894	8.14
470.249	8.21
470.603	8.31
470.958	8.22
471.313	8.2
471.668	8.04
472.023	8.19
472.377	8.24
472.732	8.16
473.086	8.17
473.441	8.2
473.795	7.9
474.15	8.27
474.504	8.19
474.859	8.16
475.213	8.09
475.567	8.19
475.921	8.21
476.275	8.25
476.63	8.12
476.984	8.25
477.338	8.08
477.692	8.39
478.045	8.2
478.399	8.25
478.753	8.12
479.107	8.24
479.461	8.09
479.814	8.02
480.168	8.01
480.521	8.04
480.875	8.13
481.228	8.24
481.582	8.05
481.935	8.07
482.289	8.16
482.642	8.27
482.995	8.22
483.348	8.13
483.701	8.08
484.055	8.01
484.408	8.12
484.761	8.06
485.114	8.04
485.466	7.87
485.819	7.71
486.172	7.56
486.525	7.58
486.878	7.7
487.23	7.73
487.583	7.89
487.936	7.94
488.288	7.97
488.641	7.94
488.993	7.89
489.345	7.8
489.698	7.76
490.05	7.71
490.402	7.6
490.754	7.71
491.107	7.8
491.459	7.93
491.811	7.98
492.163	8.05
492.515	8.01
492.866	8.02
493.218	7.87
493.57	7.74
493.922	7.71
494.274	7.73
494.625	7.75
494.977	7.88
495.328	7.89
495.68	7.98
496.031	8.03
496.383	8.05
496.734	8.07
497.086	8.16
497.437	8.14
497.788	8.16
498.139	8.16
498.49	8.06
498.842	8
499.193	7.92
499.544	7.85
499.894	8.03
500.245	8.04
500.596	8.1
500.947	7.93
501.298	8.03
501.648	7.98
501.999	7.97
502.35	8.04
502.7	8.03
503.051	8.2
503.401	8.06
503.752	7.95
504.102	7.97
504.452	8.06
504.803	7.96
505.153	8.07
505.503	8.07
505.853	8.08
506.203	7.96
506.553	7.97
506.903	8.01
507.253	8.15
507.603	7.95
507.953	8.06
508.303	8.17
508.652	8.11
509.002	8.05
509.352	7.93
509.701	8.26
510.051	8.04
510.4	7.98
510.75	8.06
511.099	8.06
511.449	7.98
511.798	8.03
512.147	7.98
512.496	7.89
512.846	7.98
513.195	8.15
513.544	7.9
513.893	7.94
514.242	7.98
514.591	7.94
514.939	7.78
515.288	7.91
515.637	7.88
515.986	8.04
516.334	7.94
516.683	8.03
517.032	8.06
517.38	7.96
517.729	7.93
518.077	8.07
518.426	8.03
518.774	7.98
519.122	8.01
519.47	7.98
519.819	7.97
520.167	7.9
520.515	7.87
520.863	7.89
521.211	7.78
521.559	7.83
521.907	7.82
522.255	7.87
522.602	7.86
522.95	7.87
523.298	8.04
523.645	7.99
523.993	7.98
524.341	7.96
524.688	7.94
525.036	7.89
525.383	8.09
525.73	7.9
526.078	7.87
526.425	7.96
526.772	8.01
527.119	7.88
527.466	7.82
527.814	7.83
528.161	7.82
528.508	7.81
528.854	7.8
529.201	7.82
529.548	7.91
529.895	7.82
530.242	7.69
530.588	7.58
530.935	7.44
531.282	7.38
531.628	7.49
531.975	7.52
532.321	7.56
532.667	7.65
533.014	7.76
533.36	7.9
533.706	7.74
534.052	7.89
534.399	7.79
534.745	7.79
535.091	7.71
535.437	7.61
535.783	7.54
536.129	7.56
536.474	7.59
536.82	7.75
537.166	7.65
537.512	7.83
537.857	7.79
538.203	7.77
538.549	7.77
538.894	7.64
539.239	7.65
539.585	7.77
539.93	7.79
540.276	7.77
540.621	7.73
540.966	7.77
541.311	7.96
541.656	7.93
542.001	7.84
542.346	7.86
542.691	7.72
543.036	7.67
543.381	7.57
543.726	7.45
544.071	7.51
544.415	7.58
544.76	7.61
545.105	7.58
545.449	7.65
545.794	7.73
546.138	7.67
546.483	7.63
546.827	7.78
547.171	7.82
547.516	7.72
547.86	7.64
548.204	7.86
548.548	7.72
548.892	7.66
549.236	7.62
549.58	7.65
549.924	7.65
550.268	7.74
550.612	7.71
550.956	7.74
551.3	7.76
551.643	7.81
551.987	7.79
552.33	7.82
552.674	7.84
553.017	7.71
553.361	7.92
553.704	7.85
554.048	7.7
554.391	7.56
554.734	7.62
555.077	7.61
555.42	7.53
555.764	7.75
556.107	7.72
556.45	7.72
556.793	7.52
557.135	7.75
557.478	7.61
557.821	7.7
558.164	7.85
558.507	7.62
558.849	7.65
559.192	7.68
559.534	7.58
559.877	7.56
560.219	7.65
560.562	7.74
560.904	7.64
561.246	7.68
561.589	7.67
561.931	7.85
562.273	7.63
562.615	7.72
562.957	7.69
563.299	7.7
563.641	7.86
563.983	7.56
564.325	7.74
564.667	7.64
565.008	7.6
565.35	7.52
565.692	7.62
566.033	7.66
566.375	7.51
566.716	7.68
567.058	7.63
567.399	7.66
567.741	7.6
568.082	7.63
568.423	7.53
568.764	7.44
569.105	7.72
569.447	7.72
569.788	7.63
570.129	7.69
570.47	7.49
570.811	7.36
571.151	7.65
571.492	7.47
571.833	7.45
572.174	7.52
572.514	7.62
572.855	7.5
573.195	7.71
573.536	7.41
573.876	7.5
574.217	7.44
574.557	7.48
574.898	7.4
575.238	7.48
575.578	7.34
575.918	7.46
576.258	7.47
576.598	7.47
576.938	7.64
577.278	7.25
577.618	7.33
577.958	7.37
578.298	7.31
578.638	7.51
578.977	7.54
579.317	7.47
579.657	7.25
579.996	7.43
580.336	7.35
580.675	7.33
581.014	7.58
581.354	7.55
581.693	7.31
582.032	7.27
582.372	7.28
582.711	7.57
583.05	7.55
583.389	7.35
583.728	7.7
584.067	7.34
584.406	7.66
584.745	7.39
585.083	7.22
585.422	7.41
585.761	7.75
586.1	7.18
586.438	7.4
586.777	7.33
587.115	7.27
587.454	7.29
587.792	7.45
588.13	7.61
588.469	7.41
588.807	7.39
589.145	7.23
589.483	7.35
589.821	7.21
590.159	7.26
590.497	7.55
590.835	7.35
591.173	7.1
591.511	7.15
591.849	7.4
592.187	7.22
592.524	7.37
592.862	7.31
593.2	7.14
593.537	7.12
593.875	7.34
594.212	7.18
594.55	7.21
594.887	7.42
595.224	7.25
595.561	7.25
595.899	7.29
596.236	7.43
596.573	7.32
596.91	7.33
597.247	7.28
597.584	7.12
597.921	7.25
598.258	7.47
598.594	7.43
598.931	7.32
599.268	7.15
599.604	7.1
599.941	6.99
600.277	6.83
600.614	7.31
600.95	7.21
601.287	7.17
601.623	7.16
601.959	7.16
602.296	7.45
602.632	7.08
602.968	6.95
603.304	7.15
603.64	7.24
603.976	7.25
604.312	7.18
604.648	7.06
604.984	7.14
605.319	7.22
605.655	7.2
605.991	7.14
606.326	7.25
606.662	7.16
606.998	7.09
607.333	7.01
607.668	6.99
608.004	7.03
608.339	7.01
608.674	6.86
609.01	6.99
609.345	7.25
609.68	7.16
610.015	7.23
610.35	6.98
610.685	7.36
611.02	7.14
611.355	6.96
611.689	6.8
612.024	7.02
612.359	6.81
612.694	7.18
613.028	7.35
613.363	6.98
613.697	6.97
614.032	6.94
614.366	7.15
614.7	6.97
615.035	7.04
615.369	6.79
615.703	6.88
616.037	7
616.371	6.96
616.705	6.99
617.039	7.35
617.373	7.34
617.707	6.63
618.041	7.11
618.375	6.54
618.709	7.03
619.042	7.29
619.376	7.23
619.71	6.92
620.043	6.63
620.377	7.01
620.71	6.76
621.043	6.64
621.377	6.91
621.71	6.76
622.043	6.87
622.376	6.86
622.709	6.91
623.043	7.05
623.376	6.8
623.709	7.12
624.041	6.96
624.374	6.75
624.707	6.95
625.04	7.03
625.373	7.23
625.705	7.27
626.038	7.18
626.37	7.14
626.703	7.2
627.035	6.72
627.368	6.84
627.7	7.09
628.032	6.98
628.365	7.14
628.697	7.07
629.029	6.87
629.361	6.86
629.693	6.7
630.025	6.99
630.357	6.92
630.689	7
631.021	6.66
631.353	6.93
631.684	7.13
632.016	6.82
632.348	7.19
632.679	6.95
633.011	7.03
633.342	6.52
633.674	7.22
634.005	7.01
634.336	6.95
634.668	6.67
634.999	7.09
635.33	6.97
635.661	6.98
635.992	6.88
636.323	6.96
636.654	7.04
636.985	6.77
637.316	6.56
637.647	7.02
637.977	6.77
638.308	6.65
638.639	6.84
638.969	6.61
639.3	6.49
639.63	7.03
639.961	6.47
640.291	6.51
640.622	6.63
640.952	7.16
641.282	7.14
641.612	6.43
641.943	6.9
642.273	6.99
642.603	6.9
642.933	7.17
643.263	6.9
643.592	6.53
643.922	6.94
644.252	6.32
644.582	6.76
644.911	7.14
645.241	7.11
645.571	7.02
645.9	6.79
646.23	6.83
646.559	6.43
646.888	6.86
647.218	6.8
647.547	6.95
647.876	7.04
648.205	6.68
648.534	6.43
648.863	7.13
649.192	6.6
649.521	6.7
649.85	7.08
650.179	6.81
650.508	6.89
650.837	7.06
651.165	6.98
651.494	6.74
651.822	6.89
652.151	7.01
652.479	7.38
652.808	6.86
653.136	6.64
653.465	7.09
653.793	6.51
654.121	6.79
654.449	7.14
654.777	6.68
655.105	6.57
655.433	6.92
655.761	6.31
656.089	6.95
656.417	6.37
656.745	7.1
657.073	7.03
657.4	6.62
657.728	6.82
658.056	6.62
658.383	7.23
658.711	6.57
659.038	7.04
659.365	7.08
659.693	6.81
660.02	6.81
660.347	6.85
660.674	6.9
661.001	6.8
661.329	6.89
661.656	6.91
661.982	7.05
662.309	7.2
662.636	6.36
662.963	6.95
663.29	6.83
663.616	6.71
663.943	6.9
664.27	6.91
664.596	6.41
664.923	6.72
665.249	6.68
665.576	7.08
665.902	6.69
666.228	6.93
666.554	6.97
666.881	6.87
667.207	6.51
667.533	6.92
667.859	6.49
668.185	7.32
668.511	6.39
668.837	6.47
669.162	6.65
669.488	7.13
669.814	6.55
670.139	6.6
670.465	6.53
670.791	6.86
671.116	7.16
671.442	6.34
671.767	7.28
672.092	6.94
672.418	7.1
672.743	7.06
673.068	6.62
673.393	7.11
673.718	6.75
674.043	6.39
674.368	6.79
674.693	7.16
675.018	7.23
675.343	6.72
675.667	6.71
675.992	6.8
676.317	7.17
676.641	7.19
676.966	7.2
677.29	6.96
677.615	6.9
677.939	6.31
678.264	6.43
678.588	6.75
678.912	6.93
679.236	6.99
679.56	6.68
679.885	6.98
680.209	7.14
680.532	7.17
680.856	7.22
681.18	6.76
681.504	6.9
681.828	6.75
682.152	7.17
682.475	6.62
682.799	5.98
683.122	6.64
683.446	6.89
683.769	6.81
684.093	6.72
684.416	6.87
684.739	7.47
685.062	6.8
685.386	6.34
685.709	6.95
686.032	6.73
686.355	6.36
686.678	6.8
687.001	7.33
687.324	7.09
687.646	6.89
687.969	7.18
688.292	7.14
688.614	7.18
688.937	7.74
689.26	6.99
689.582	6.95
689.904	7.23
690.227	7.38
690.549	7.41
690.871	7.31
691.194	6.93
691.516	6.98
691.838	7.08
692.16	7.11
