Data from 0025_crown_Reflection__2__83.txt Node

Date: Thu Oct 20 20:58:56 CDT 2022
User: ToomeyLab
Spectrometer: FLMS14357
Trigger mode: 0
Integration Time (sec): 1.000000E-2
Scans to average: 100
Electric dark correction enabled: true
Nonlinearity correction enabled: false
Boxcar width: 0
XAxis mode: Wavelengths
Number of Pixels in Spectrum: 2048
>>>>>Begin Spectral Data<<<<<
189.047	95.01
189.435	95.01
189.823	95.01
190.211	47.63
190.599	214.2
190.987	295.16
191.375	-78.41
191.763	-230.38
192.151	-60.84
192.538	-1400.46
192.926	-90.87
193.314	-36.16
193.702	43.88
194.089	91
194.477	35.28
194.864	-226.2
195.252	25.74
195.639	21
196.027	445.59
196.414	-99.32
196.801	32.59
197.189	-286.81
197.576	165.41
197.963	-80.19
198.351	-48.27
198.738	-8.58
199.125	30.98
199.512	21.74
199.899	23.55
200.286	-59.32
200.673	36.5
201.06	-22.79
201.447	7.73
201.833	48.43
202.22	2.89
202.607	-5.39
202.994	37.21
203.38	-31.71
203.767	-10.87
204.154	-34.59
204.54	27.12
204.927	22.25
205.313	-5.57
205.699	45.76
206.086	9.23
206.472	81.9
206.858	10.54
207.245	-18.96
207.631	-8.09
208.017	23.13
208.403	-7.66
208.789	9.76
209.175	-3.79
209.561	14.76
209.947	-22.6
210.333	-6.17
210.719	11.15
211.105	-2.33
211.491	-7.69
211.876	-12.01
212.262	3.03
212.648	-10.32
213.034	-17.61
213.419	4.65
213.805	-6.48
214.19	-12.47
214.576	19.4
214.961	23.25
215.346	-13.12
215.732	-9.86
216.117	19.41
216.502	-35.32
216.888	7.92
217.273	20.78
217.658	-6.6
218.043	26.37
218.428	-8.35
218.813	0.81
219.198	11.19
219.583	-3.05
219.968	14.63
220.353	2.06
220.738	7.99
221.122	14.92
221.507	13.14
221.892	4.75
222.276	5.01
222.661	6.23
223.046	0.9
223.43	0.08
223.815	-4.23
224.199	19.89
224.583	4.24
224.968	3.53
225.352	5.08
225.736	10.38
226.121	8.31
226.505	1.09
226.889	5.69
227.273	4.06
227.657	6.84
228.041	0.11
228.425	6.99
228.809	5.99
229.193	4.56
229.577	6.14
229.961	6.6
230.344	6.64
230.728	6.37
231.112	5.23
231.495	5.71
231.879	6.14
232.263	7.08
232.646	6.17
233.03	5.6
233.413	8.96
233.797	7.1
234.18	6.47
234.563	5.18
234.946	5.46
235.33	3.7
235.713	5.9
236.096	5.43
236.479	6.28
236.862	3.96
237.245	4.4
237.628	5.71
238.011	5.41
238.394	6.05
238.777	4.52
239.16	4.1
239.543	4.41
239.925	5.61
240.308	5.33
240.691	3.91
241.073	6.59
241.456	4.33
241.838	6.42
242.221	5.25
242.603	5.09
242.986	5.07
243.368	5.87
243.75	5.26
244.133	5.89
244.515	5.44
244.897	6.35
245.279	6.19
245.661	6.32
246.043	6.12
246.425	5.83
246.807	6.21
247.189	5.69
247.571	5.43
247.953	5.3
248.335	5.72
248.717	5.63
249.098	5.62
249.48	5.55
249.862	5.16
250.243	5.66
250.625	5.55
251.006	6.18
251.388	4.66
251.769	5.87
252.151	5.21
252.532	4.73
252.913	5.37
253.295	5.59
253.676	6.05
254.057	5.46
254.438	5.73
254.819	4.96
255.2	6.07
255.581	5.82
255.962	5.39
256.343	6.05
256.724	3.92
257.105	6.67
257.486	5.59
257.867	5.15
258.247	5.94
258.628	5.69
259.009	5.27
259.389	5.66
259.77	5.18
260.15	5.07
260.531	5.16
260.911	5.08
261.292	4.92
261.672	4.98
262.052	5.22
262.432	5.27
262.813	4.94
263.193	5.28
263.573	4.83
263.953	5.04
264.333	4.9
264.713	5.57
265.093	5.02
265.473	5.27
265.853	4.95
266.233	4.46
266.612	4.8
266.992	5.11
267.372	4
267.752	5.16
268.131	4.58
268.511	5.04
268.89	4.83
269.27	5
269.649	5.17
270.029	5.25
270.408	4.1
270.787	4.7
271.167	4.77
271.546	4.88
271.925	5.11
272.304	4.9
272.683	4.89
273.062	4.95
273.441	4.87
273.82	5.12
274.199	4.75
274.578	4.5
274.957	4.7
275.336	4.53
275.715	4.78
276.093	5.04
276.472	4.91
276.851	4.09
277.229	4.82
277.608	4.74
277.986	4.55
278.365	4.48
278.743	4.49
279.122	5
279.5	4.9
279.878	4.79
280.257	4.36
280.635	4.99
281.013	4.69
281.391	4.35
281.769	4.57
282.147	5.15
282.525	4.67
282.903	4.76
283.281	4.22
283.659	4.11
284.037	4.88
284.415	4.87
284.792	4.44
285.17	4.85
285.548	4.1
285.925	4.17
286.303	4.23
286.68	4.48
287.058	4.27
287.435	4.5
287.813	4.18
288.19	4.31
288.567	4.56
288.945	4.64
289.322	4.48
289.699	4.08
290.076	4.31
290.453	3.92
290.83	4.33
291.207	4.05
291.584	4.25
291.961	4.24
292.338	4.57
292.715	4.56
293.092	4.33
293.469	4.66
293.845	4.42
294.222	4.36
294.599	4.65
294.975	4.52
295.352	4.14
295.728	3.99
296.105	4.25
296.481	4.52
296.858	4.61
297.234	4.21
297.61	4.55
297.986	4.29
298.363	4.42
298.739	4.4
299.115	4.31
299.491	4.4
299.867	4.09
300.243	4.45
300.619	4.32
300.995	4.06
301.371	4.51
301.746	4.1
302.122	4.52
302.498	4.63
302.874	3.98
303.249	4.08
303.625	4.16
304	4.39
304.376	5.16
304.751	4.21
305.127	4.24
305.502	4.66
305.878	4.1
306.253	3.54
306.628	4.46
307.003	4.31
307.378	4.01
307.754	4.35
308.129	4.34
308.504	4.7
308.879	4.38
309.254	4.24
309.629	4.33
310.003	4.18
310.378	4.06
310.753	4.35
311.128	4.45
311.502	4.52
311.877	3.95
312.252	4.04
312.626	4.38
313.001	4.52
313.375	4.1
313.75	3.89
314.124	4.41
314.498	4.39
314.873	4.84
315.247	4.18
315.621	4.14
315.995	3.8
316.369	4.12
316.743	5.26
317.117	4.47
317.491	4.68
317.865	4.57
318.239	3.79
318.613	3.69
318.987	3.9
319.361	4.13
319.734	4.37
320.108	3.78
320.482	3.63
320.855	4.46
321.229	4.21
321.602	4.83
321.976	4.23
322.349	4.17
322.723	4.67
323.096	4.58
323.469	4.74
323.843	4.03
324.216	3.74
324.589	4.15
324.962	4
325.335	3.71
325.708	4.75
326.081	4.21
326.454	4.35
326.827	3.96
327.2	4.19
327.573	4.63
327.945	4.18
328.318	4.18
328.691	4.63
329.063	4
329.436	3.77
329.809	4.58
330.181	3.99
330.553	3.93
330.926	3.76
331.298	4.11
331.671	4.12
332.043	4.37
332.415	4.75
332.787	4.08
333.159	4.46
333.532	4.73
333.904	4.09
334.276	4.32
334.648	3.67
335.02	4.32
335.391	3.64
335.763	4
336.135	4.6
336.507	4.23
336.879	4.43
337.25	4.57
337.622	3.75
337.993	3.86
338.365	3.75
338.736	4.59
339.108	4.64
339.479	3.79
339.851	4.82
340.222	4.05
340.593	4.01
340.964	4.61
341.336	4.03
341.707	4.23
342.078	4.16
342.449	4.31
342.82	3.95
343.191	4.74
343.562	4.52
343.933	4.06
344.303	4.39
344.674	4.96
345.045	4.7
345.416	4.03
345.786	4.39
346.157	4.27
346.527	4.27
346.898	4.39
347.268	4.57
347.639	4.12
348.009	4.9
348.38	3.97
348.75	4.21
349.12	4.75
349.49	4.3
349.861	4.69
350.231	4.49
350.601	4.41
350.971	4.34
351.341	4.22
351.711	4.76
352.081	4.36
352.45	4.46
352.82	4.29
353.19	4.05
353.56	4.4
353.929	4.21
354.299	4.31
354.669	4.07
355.038	4.4
355.408	4.32
355.777	4.16
356.147	4.46
356.516	4.27
356.885	4.8
357.254	4.5
357.624	4.39
357.993	4.53
358.362	4.18
358.731	4.43
359.1	3.93
359.469	4.29
359.838	4.44
360.207	4.47
360.576	4.58
360.945	4.46
361.314	4.26
361.682	4.7
362.051	4.38
362.42	4.54
362.788	4.4
363.157	4.38
363.525	4.29
363.894	4.41
364.262	4.42
364.631	4.21
364.999	4.38
365.367	4.24
365.735	4.46
366.104	4.7
366.472	4.45
366.84	4.57
367.208	4.58
367.576	4.59
367.944	4.31
368.312	4.21
368.68	4.59
369.048	4.33
369.416	4.65
369.783	4.71
370.151	4.42
370.519	4.63
370.886	4.54
371.254	4.76
371.621	4.72
371.989	4.95
372.356	4.48
372.724	4.36
373.091	4.46
373.458	4.73
373.826	4.81
374.193	4.56
374.56	4.35
374.927	4.69
375.294	4.36
375.661	4.37
376.028	4.45
376.395	4.35
376.762	4.81
377.129	4.41
377.496	4.6
377.863	4.58
378.229	4.73
378.596	4.34
378.963	4.56
379.329	4.63
379.696	4.34
380.062	4.52
380.429	4.92
380.795	4.27
381.161	4.48
381.528	4.63
381.894	4.95
382.26	4.61
382.626	4.82
382.993	4.93
383.359	4.56
383.725	5.19
384.091	4.6
384.457	4.47
384.823	4.65
385.188	4.68
385.554	4.52
385.92	4.3
386.286	4.72
386.651	4.66
387.017	4.82
387.383	4.55
387.748	4.88
388.114	4.98
388.479	4.96
388.845	4.62
389.21	4.86
389.575	4.7
389.94	4.57
390.306	4.66
390.671	4.6
391.036	4.77
391.401	4.98
391.766	4.74
392.131	4.47
392.496	4.48
392.861	4.4
393.226	4.63
393.591	4.74
393.956	4.82
394.32	5.13
394.685	4.95
395.05	4.82
395.414	4.65
395.779	4.75
396.143	4.9
396.508	4.79
396.872	5
397.236	4.64
397.601	4.86
397.965	5.06
398.329	4.97
398.694	4.92
399.058	4.98
399.422	4.65
399.786	4.84
400.15	4.81
400.514	5.07
400.878	4.73
401.242	4.78
401.605	4.77
401.969	5.05
402.333	4.81
402.697	4.88
403.06	4.84
403.424	4.86
403.787	4.81
404.151	4.79
404.514	5.01
404.878	4.7
405.241	5
405.604	4.96
405.968	4.62
406.331	4.85
406.694	4.89
407.057	4.85
407.42	4.81
407.783	4.92
408.146	5.11
408.509	4.85
408.872	4.93
409.235	4.99
409.598	4.79
409.961	4.97
410.323	4.78
410.686	4.92
411.049	4.73
411.411	5.13
411.774	5.06
412.136	5.11
412.499	5.07
412.861	4.98
413.223	5.14
413.586	5.11
413.948	5.06
414.31	4.94
414.672	5.02
415.035	5.12
415.397	5.22
415.759	5.12
416.121	4.94
416.483	4.99
416.845	5.07
417.206	4.86
417.568	4.96
417.93	4.81
418.292	5.03
418.653	5.05
419.015	4.92
419.377	4.78
419.738	4.95
420.1	4.9
420.461	4.87
420.822	4.83
421.184	4.93
421.545	4.95
421.906	4.74
422.267	4.81
422.629	4.73
422.99	4.83
423.351	4.8
423.712	4.85
424.073	5.01
424.434	4.91
424.795	4.87
425.155	4.71
425.516	4.93
425.877	4.95
426.238	4.87
426.598	4.91
426.959	5.05
427.32	4.91
427.68	5.12
428.041	4.99
428.401	5.11
428.761	5.24
429.122	5.08
429.482	5.18
429.842	5.04
430.202	5.19
430.563	4.97
430.923	5.07
431.283	5.08
431.643	4.9
432.003	5.13
432.363	4.94
432.722	5.1
433.082	5.17
433.442	5.03
433.802	5.27
434.161	4.94
434.521	4.84
434.881	5.14
435.24	4.91
435.6	5.16
435.959	5.11
436.319	5.11
436.678	5.19
437.037	5.2
437.396	5.07
437.756	5.17
438.115	5.25
438.474	5.17
438.833	5.07
439.192	5.23
439.551	5.02
439.91	4.99
440.269	5.01
440.628	5.04
440.987	5.06
441.345	5.15
441.704	5.06
442.063	4.99
442.421	5.03
442.78	4.98
443.138	4.99
443.497	5.18
443.855	5.22
444.214	5.18
444.572	5.2
444.93	5.02
445.288	5.08
445.647	5.09
446.005	5.11
446.363	4.93
446.721	4.94
447.079	5.16
447.437	5.08
447.795	4.98
448.153	5.01
448.51	5.04
448.868	5.03
449.226	5.03
449.584	5.14
449.941	5.09
450.299	5.12
450.656	5.2
451.014	5.21
451.371	5.18
451.729	5.28
452.086	5.2
452.443	5.24
452.801	5.22
453.158	5.25
453.515	5.09
453.872	5.11
454.229	5.1
454.586	5.13
454.943	5.11
455.3	5.28
455.657	5.18
456.014	5.12
456.371	5.21
456.727	5.17
457.084	5.18
457.441	5.27
457.797	5.17
458.154	5.24
458.51	5.07
458.867	5.16
459.223	5.25
459.58	5.32
459.936	5.24
460.292	5.19
460.648	5.16
461.005	5.17
461.361	5.06
461.717	5.07
462.073	5.21
462.429	5.28
462.785	5.21
463.141	5.4
463.496	5.24
463.852	5.22
464.208	5.22
464.564	5.21
464.919	5.3
465.275	5.18
465.631	5.34
465.986	5.26
466.342	5.09
466.697	5.2
467.052	5.36
467.408	5.25
467.763	5.36
468.118	5.36
468.473	5.26
468.829	5.27
469.184	5.23
469.539	5.19
469.894	5.33
470.249	5.3
470.603	5.32
470.958	5.39
471.313	5.27
471.668	5.26
472.023	5.16
472.377	5.24
472.732	5.32
473.086	5.19
473.441	5.3
473.795	5.22
474.15	5.43
474.504	5.3
474.859	5.39
475.213	5.22
475.567	5.34
475.921	5.29
476.275	5.28
476.63	5.14
476.984	5.36
477.338	5.31
477.692	5.33
478.045	5.22
478.399	5.32
478.753	5.42
479.107	5.35
479.461	5.25
479.814	5.32
480.168	5.29
480.521	5.36
480.875	5.3
481.228	5.55
481.582	5.39
481.935	5.25
482.289	5.25
482.642	5.32
482.995	5.24
483.348	5.18
483.701	5.19
484.055	5.16
484.408	5.18
484.761	4.95
485.114	4.93
485.466	4.92
485.819	5.05
486.172	5.15
486.525	5.18
486.878	5.31
487.23	5.37
487.583	5.22
487.936	5.21
488.288	5.02
488.641	5.08
488.993	5.03
489.345	5.04
489.698	5.13
490.05	5.15
490.402	5.21
490.754	5.22
491.107	5.29
491.459	5.34
491.811	5.32
492.163	5.29
492.515	5.16
492.866	5.05
493.218	5.04
493.57	5.15
493.922	5.23
494.274	5.38
494.625	5.36
494.977	5.38
495.328	5.39
495.68	5.42
496.031	5.54
496.383	5.41
496.734	5.38
497.086	5.41
497.437	5.47
497.788	5.4
498.139	5.36
498.49	5.32
498.842	5.25
499.193	5.36
499.544	5.4
499.894	5.41
500.245	5.41
500.596	5.4
500.947	5.36
501.298	5.49
501.648	5.42
501.999	5.27
502.35	5.48
502.7	5.45
503.051	5.45
503.401	5.55
503.752	5.4
504.102	5.42
504.452	5.54
504.803	5.42
505.153	5.49
505.503	5.48
505.853	5.5
506.203	5.41
506.553	5.42
506.903	5.55
507.253	5.51
507.603	5.33
507.953	5.45
508.303	5.61
508.652	5.5
509.002	5.46
509.352	5.39
509.701	5.54
510.051	5.43
510.4	5.3
510.75	5.4
511.099	5.52
511.449	5.44
511.798	5.36
512.147	5.45
512.496	5.44
512.846	5.53
513.195	5.47
513.544	5.38
513.893	5.48
514.242	5.58
514.591	5.52
514.939	5.37
515.288	5.51
515.637	5.56
515.986	5.5
516.334	5.52
516.683	5.52
517.032	5.48
517.38	5.39
517.729	5.39
518.077	5.65
518.426	5.35
518.774	5.33
519.122	5.45
519.47	5.4
519.819	5.38
520.167	5.35
520.515	5.43
520.863	5.48
521.211	5.42
521.559	5.44
521.907	5.45
522.255	5.55
522.602	5.54
522.95	5.48
523.298	5.61
523.645	5.55
523.993	5.41
524.341	5.58
524.688	5.65
525.036	5.57
525.383	5.53
525.73	5.46
526.078	5.41
526.425	5.42
526.772	5.4
527.119	5.33
527.466	5.42
527.814	5.39
528.161	5.48
528.508	5.49
528.854	5.33
529.201	5.4
529.548	5.25
529.895	5.16
530.242	5.12
530.588	5.21
530.935	5.38
531.282	5.4
531.628	5.42
531.975	5.41
532.321	5.5
532.667	5.5
533.014	5.51
533.36	5.61
533.706	5.41
534.052	5.44
534.399	5.35
534.745	5.28
535.091	5.3
535.437	5.36
535.783	5.46
536.129	5.43
536.474	5.44
536.82	5.58
537.166	5.47
537.512	5.47
537.857	5.41
538.203	5.45
538.549	5.47
538.894	5.48
539.239	5.5
539.585	5.61
539.93	5.69
540.276	5.64
540.621	5.5
540.966	5.64
541.311	5.48
541.656	5.5
542.001	5.43
542.346	5.27
542.691	5.21
543.036	5.32
543.381	5.37
543.726	5.4
544.071	5.53
544.415	5.54
544.76	5.47
545.105	5.43
545.449	5.59
545.794	5.66
546.138	5.59
546.483	5.54
546.827	5.62
547.171	5.51
547.516	5.57
547.86	5.41
548.204	5.53
548.548	5.52
548.892	5.56
549.236	5.58
549.58	5.58
549.924	5.64
550.268	5.52
550.612	5.81
550.956	5.59
551.3	5.64
551.643	5.64
551.987	5.64
552.33	5.7
552.674	5.59
553.017	5.45
553.361	5.53
553.704	5.75
554.048	5.57
554.391	5.44
554.734	5.58
555.077	5.54
555.42	5.58
555.764	5.67
556.107	5.62
556.45	5.65
556.793	5.61
557.135	5.82
557.478	5.6
557.821	5.75
558.164	5.72
558.507	5.73
558.849	5.75
559.192	5.67
559.534	5.88
559.877	5.69
560.219	5.65
560.562	5.66
560.904	5.65
561.246	5.73
561.589	5.94
561.931	5.97
562.273	5.54
562.615	5.58
562.957	5.76
563.299	5.7
563.641	5.86
563.983	5.74
564.325	5.86
564.667	5.73
565.008	5.56
565.35	5.74
565.692	5.49
566.033	5.77
566.375	5.55
566.716	5.55
567.058	5.65
567.399	5.6
567.741	5.58
568.082	5.58
568.423	5.67
568.764	5.57
569.105	5.73
569.447	5.81
569.788	5.73
570.129	5.69
570.47	5.62
570.811	5.46
571.151	5.7
571.492	5.75
571.833	5.55
572.174	5.67
572.514	5.83
572.855	5.66
573.195	5.67
573.536	5.63
573.876	5.56
574.217	5.65
574.557	5.57
574.898	5.63
575.238	5.46
575.578	5.69
575.918	5.55
576.258	5.68
576.598	5.5
576.938	5.71
577.278	5.67
577.618	5.66
577.958	5.69
578.298	5.61
578.638	5.69
578.977	5.78
579.317	5.69
579.657	5.63
579.996	5.7
580.336	5.59
580.675	5.45
581.014	5.57
581.354	5.55
581.693	5.51
582.032	5.6
582.372	5.45
582.711	5.45
583.05	5.55
583.389	5.93
583.728	5.67
584.067	5.54
584.406	5.93
584.745	5.75
585.083	5.53
585.422	5.49
585.761	5.9
586.1	5.68
586.438	5.53
586.777	5.48
587.115	5.41
587.454	5.59
587.792	5.81
588.13	5.69
588.469	5.67
588.807	5.78
589.145	5.69
589.483	5.79
589.821	5.65
590.159	5.49
590.497	5.56
590.835	5.79
591.173	5.64
591.511	5.69
591.849	5.6
592.187	5.75
592.524	5.82
592.862	5.71
593.2	5.84
593.537	5.76
593.875	6
594.212	5.7
594.55	5.72
594.887	5.88
595.224	5.82
595.561	5.44
595.899	5.33
596.236	5.79
596.573	5.84
596.91	5.74
597.247	5.8
597.584	5.58
597.921	5.53
598.258	5.64
598.594	5.77
598.931	5.71
599.268	5.58
599.604	5.76
599.941	5.75
600.277	5.54
600.614	5.78
600.95	5.61
601.287	5.86
601.623	5.62
601.959	5.83
602.296	5.72
602.632	5.68
602.968	5.46
603.304	5.91
603.64	5.67
603.976	5.68
604.312	5.78
604.648	5.57
604.984	5.63
605.319	5.89
605.655	5.59
605.991	5.76
606.326	5.76
606.662	5.69
606.998	5.81
607.333	5.64
607.668	6.05
608.004	5.8
608.339	5.57
608.674	5.59
609.01	5.61
609.345	5.72
609.68	5.55
610.015	5.85
610.35	5.62
610.685	5.69
611.02	5.63
611.355	5.75
611.689	5.65
612.024	5.55
612.359	5.62
612.694	5.58
613.028	6.05
613.363	5.68
613.697	5.83
614.032	5.75
614.366	5.65
614.7	5.65
615.035	5.89
615.369	5.35
615.703	5.9
616.037	5.51
616.371	5.62
616.705	5.83
617.039	5.79
617.373	5.62
617.707	5.66
618.041	5.66
618.375	5.74
618.709	5.69
619.042	6
619.376	5.75
619.71	5.63
620.043	5.51
620.377	5.66
620.71	6.27
621.043	5.61
621.377	5.84
621.71	5.88
622.043	5.72
622.376	5.97
622.709	5.97
623.043	5.78
623.376	5.66
623.709	5.65
624.041	5.92
624.374	5.72
624.707	5.51
625.04	5.98
625.373	6.12
625.705	5.68
626.038	5.62
626.37	5.75
626.703	5.82
627.035	5.64
627.368	5.88
627.7	5.92
628.032	6.03
628.365	5.94
628.697	6
629.029	5.86
629.361	5.74
629.693	5.82
630.025	6.07
630.357	5.75
630.689	6.09
631.021	5.87
631.353	5.97
631.684	5.82
632.016	6.1
632.348	6.1
632.679	5.83
633.011	5.86
633.342	5.42
633.674	6
634.005	5.65
634.336	6.06
634.668	5.53
634.999	6.08
635.33	5.8
635.661	5.85
635.992	6.02
636.323	5.79
636.654	5.8
636.985	5.67
637.316	5.61
637.647	5.78
637.977	5.87
638.308	5.97
638.639	5.98
638.969	5.82
639.3	5.61
639.63	6
639.961	5.26
640.291	5.85
640.622	5.95
640.952	5.85
641.282	6.07
641.612	5.63
641.943	5.71
642.273	5.81
642.603	6.24
642.933	5.95
643.263	5.9
643.592	5.65
643.922	5.65
644.252	5.41
644.582	5.68
644.911	6.1
645.241	6.49
645.571	5.77
645.9	5.47
646.23	6.02
646.559	5.43
646.888	5.91
647.218	6.21
647.547	6.11
647.876	5.93
648.205	5.78
648.534	5.62
648.863	6.01
649.192	6.03
649.521	5.85
649.85	6.14
650.179	5.87
650.508	6.02
650.837	6.29
651.165	5.97
651.494	6.06
651.822	6
652.151	6.06
652.479	6.24
652.808	6.23
653.136	5.78
653.465	5.94
653.793	6.18
654.121	6.06
654.449	6.13
654.777	6.07
655.105	5.99
655.433	5.91
655.761	5.95
656.089	6.13
656.417	5.77
656.745	5.7
657.073	6.21
657.4	5.81
657.728	5.82
658.056	5.93
658.383	6.67
658.711	5.84
659.038	6.3
659.365	6.17
659.693	6
660.02	5.84
660.347	6.03
660.674	5.83
661.001	5.93
661.329	6.25
661.656	6.08
661.982	6.12
662.309	6.31
662.636	6.2
662.963	5.89
663.29	6.5
663.616	6.41
663.943	6.23
664.27	6.12
664.596	6.01
664.923	5.91
665.249	6.05
665.576	5.91
665.902	5.77
666.228	6.14
666.554	6.45
666.881	6.11
667.207	5.66
667.533	6.38
667.859	5.84
668.185	6.35
668.511	5.9
668.837	6.38
669.162	5.74
669.488	6.15
669.814	6.44
670.139	5.67
670.465	6.63
670.791	6.44
671.116	6.58
671.442	5.93
671.767	6.66
672.092	6.61
672.418	6.3
672.743	6.3
673.068	6.27
673.393	7
673.718	5.94
674.043	5.57
674.368	6.12
674.693	6.58
675.018	6.39
675.343	5.84
675.667	6.66
675.992	6.13
676.317	6.54
676.641	6.97
676.966	6.54
677.29	6.53
677.615	6.22
677.939	6.91
678.264	6.37
678.588	6.27
678.912	6.17
679.236	6.53
679.56	5.67
679.885	6.48
680.209	6.69
680.532	6.69
680.856	6.41
681.18	6.4
681.504	6.62
681.828	5.93
682.152	6.17
682.475	6.16
682.799	6.13
683.122	6.56
683.446	6.35
683.769	6.38
684.093	6.62
684.416	5.98
684.739	6.46
685.062	6.46
685.386	6.19
685.709	5.9
686.032	6.79
686.355	6.31
686.678	6.09
687.001	6.32
687.324	6.71
687.646	6.71
687.969	6.88
688.292	6.84
688.614	6.76
688.937	6.98
689.26	6.91
689.582	6.57
689.904	6.25
690.227	6.46
690.549	6.53
690.871	7.13
691.194	6.55
691.516	6.23
691.838	6.76
692.16	7.02
692.482	6.61
692.804	6.24
693.126	6.19
