Data from 0025_forehead_Reflection__2__88.txt Node

Date: Thu Oct 20 21:00:14 CDT 2022
User: ToomeyLab
Spectrometer: FLMS14357
Trigger mode: 0
Integration Time (sec): 1.000000E-2
Scans to average: 100
Electric dark correction enabled: true
Nonlinearity correction enabled: false
Boxcar width: 0
XAxis mode: Wavelengths
Number of Pixels in Spectrum: 2048
>>>>>Begin Spectral Data<<<<<
189.047	68.21
189.435	68.21
189.823	68.21
190.211	27.1
190.599	59.01
190.987	169.8
191.375	91.84
191.763	-111.45
192.151	382.95
192.538	-570.77
192.926	15.93
193.314	146.74
193.702	88.94
194.089	368.66
194.477	1.99
194.864	257.31
195.252	10.25
195.639	-4.2
196.027	425.02
196.414	-37.45
196.801	14.18
197.189	-96.88
197.576	136.09
197.963	-53.98
198.351	-54
198.738	5.3
199.125	34.99
199.512	24.36
199.899	5.01
200.286	38.33
200.673	24.23
201.06	13.37
201.447	25.28
201.833	43.68
202.22	-2.77
202.607	83.15
202.994	14.4
203.38	-2.74
203.767	34.44
204.154	5.28
204.54	29.03
204.927	39.47
205.313	-1.33
205.699	-21.97
206.086	30.27
206.472	28.28
206.858	-5.42
207.245	21.21
207.631	-27.18
208.017	28.39
208.403	28.16
208.789	-24.59
209.175	16.82
209.561	18.23
209.947	16.97
210.333	-14.25
210.719	21.2
211.105	6.58
211.491	-8.47
211.876	7.15
212.262	10.45
212.648	-11.86
213.034	-20.93
213.419	-4.19
213.805	-9.08
214.19	-27.3
214.576	1.95
214.961	20.79
215.346	-4.12
215.732	-18.98
216.117	24.41
216.502	-18.88
216.888	9.51
217.273	19.97
217.658	-7.9
218.043	26.08
218.428	-4.03
218.813	-13.74
219.198	26.43
219.583	-3.16
219.968	13.2
220.353	11.17
220.738	6.61
221.122	19.17
221.507	7.24
221.892	13.21
222.276	1.65
222.661	2.83
223.046	2.57
223.43	4.58
223.815	-0.65
224.199	6.38
224.583	-2.51
224.968	-1.29
225.352	17.81
225.736	11.23
226.121	9.19
226.505	4.5
226.889	4.82
227.273	11.5
227.657	6.74
228.041	2.33
228.425	3.7
228.809	3.07
229.193	3.95
229.577	3.94
229.961	2.84
230.344	3.17
230.728	2.39
231.112	2.74
231.495	2.45
231.879	3.9
232.263	3.64
232.646	3.43
233.03	2.88
233.413	3.23
233.797	1.01
234.18	2.61
234.563	4.02
234.946	2.49
235.33	3.63
235.713	2.83
236.096	2.23
236.479	1.82
236.862	1.14
237.245	1.95
237.628	3.75
238.011	3.39
238.394	2.64
238.777	2.39
239.16	1.98
239.543	2.9
239.925	4.03
240.308	3.55
240.691	2.49
241.073	3.78
241.456	2.58
241.838	2.78
242.221	2.76
242.603	2.85
242.986	2.97
243.368	3.32
243.75	2.67
244.133	2.68
244.515	2.57
244.897	3.24
245.279	3.04
245.661	2.81
246.043	3.61
246.425	3.43
246.807	3.3
247.189	2.94
247.571	2.88
247.953	2.84
248.335	2.96
248.717	3.03
249.098	3.01
249.48	2.89
249.862	2.92
250.243	3.35
250.625	3.02
251.006	4.17
251.388	3.02
251.769	4.59
252.151	3.42
252.532	2.99
252.913	3.28
253.295	3.61
253.676	3.49
254.057	3
254.438	3.4
254.819	3.51
255.2	4.21
255.581	4.09
255.962	3.46
256.343	4.23
256.724	3.28
257.105	4.74
257.486	3.37
257.867	3.14
258.247	2.41
258.628	3.48
259.009	2.97
259.389	3.11
259.77	3.24
260.15	3.36
260.531	2.97
260.911	3.18
261.292	3.12
261.672	2.78
262.052	3.11
262.432	3.25
262.813	3.15
263.193	3.23
263.573	3.38
263.953	3.16
264.333	3.14
264.713	3.4
265.093	2.77
265.473	2.61
265.853	2.47
266.233	3.22
266.612	3.3
266.992	2.74
267.372	2.78
267.752	3
268.131	2.72
268.511	3.12
268.89	2.7
269.27	2.8
269.649	3.03
270.029	3.36
270.408	3.05
270.787	2.89
271.167	2.61
271.546	2.97
271.925	3.22
272.304	3.42
272.683	2.66
273.062	2.75
273.441	3.11
273.82	3.01
274.199	2.84
274.578	2.88
274.957	2.7
275.336	3.13
275.715	3.22
276.093	2.74
276.472	2.79
276.851	2.46
277.229	3.11
277.608	2.68
277.986	2.55
278.365	2.97
278.743	2.82
279.122	2.45
279.5	3.23
279.878	2.98
280.257	2.34
280.635	3.62
281.013	3.01
281.391	2.92
281.769	2.71
282.147	3.59
282.525	3.12
282.903	2.73
283.281	2.76
283.659	2.71
284.037	3.06
284.415	3.39
284.792	2.82
285.17	3.06
285.548	2.68
285.925	3.02
286.303	3.16
286.68	3.22
287.058	2.93
287.435	2.86
287.813	2.51
288.19	2.98
288.567	3.18
288.945	3.24
289.322	2.93
289.699	3.26
290.076	3.3
290.453	3.05
290.83	3.09
291.207	2.84
291.584	3.12
291.961	2.94
292.338	3.32
292.715	2.95
293.092	3.2
293.469	3.44
293.845	3.83
294.222	3.38
294.599	3.82
294.975	3.94
295.352	2.94
295.728	3.12
296.105	3.7
296.481	3.79
296.858	3.83
297.234	3.25
297.61	3.57
297.986	3.51
298.363	3.79
298.739	3.47
299.115	3.64
299.491	4.01
299.867	3.66
300.243	3.9
300.619	3.76
300.995	3.6
301.371	4.06
301.746	3.86
302.122	4.73
302.498	4.52
302.874	3.52
303.249	4.26
303.625	4.27
304	3.82
304.376	4.84
304.751	4.21
305.127	4.23
305.502	3.89
305.878	4.34
306.253	4.06
306.628	4.01
307.003	4.39
307.378	3.95
307.754	4.25
308.129	4.8
308.504	5
308.879	4.91
309.254	4.13
309.629	4.84
310.003	4.42
310.378	4.7
310.753	4.5
311.128	4.67
311.502	5.34
311.877	4.82
312.252	4.66
312.626	4.61
313.001	4.86
313.375	5.1
313.75	4.88
314.124	5.26
314.498	4.98
314.873	5.58
315.247	5.4
315.621	4.92
315.995	5.02
316.369	4.9
316.743	6.05
317.117	5.54
317.491	5.59
317.865	5.47
318.239	5.17
318.613	5.21
318.987	5.24
319.361	5.77
319.734	5.78
320.108	5.61
320.482	5.74
320.855	6.18
321.229	5.32
321.602	5.95
321.976	5.81
322.349	6.1
322.723	6
323.096	6.71
323.469	5.84
323.843	5.55
324.216	5.63
324.589	5.89
324.962	6.41
325.335	5.63
325.708	6.19
326.081	5.99
326.454	6.23
326.827	5.61
327.2	6.02
327.573	6.56
327.945	6.04
328.318	5.96
328.691	6.45
329.063	5.96
329.436	6.52
329.809	6.77
330.181	6.75
330.553	5.93
330.926	6.49
331.298	6.11
331.671	6.09
332.043	6.85
332.415	7.08
332.787	6.72
333.159	6.65
333.532	6.97
333.904	6.66
334.276	6.86
334.648	6.9
335.02	6.35
335.391	6.65
335.763	6.86
336.135	6.94
336.507	7.09
336.879	6.71
337.25	7
337.622	6.3
337.993	6.31
338.365	6.74
338.736	6.73
339.108	7.2
339.479	6.27
339.851	7.54
340.222	6.97
340.593	7.58
340.964	7.71
341.336	7.07
341.707	7.35
342.078	6.84
342.449	7.14
342.82	7.62
343.191	7.81
343.562	7.53
343.933	7.29
344.303	7.27
344.674	7.87
345.045	7.8
345.416	7.75
345.786	7.83
346.157	7.67
346.527	7.2
346.898	7.83
347.268	7.79
347.639	7.4
348.009	8.22
348.38	7.13
348.75	8.04
349.12	7.67
349.49	7.32
349.861	7.79
350.231	7.83
350.601	7.88
350.971	8.27
351.341	8.32
351.711	7.83
352.081	7.77
352.45	7.84
352.82	8.03
353.19	8.1
353.56	7.95
353.929	8.13
354.299	8.2
354.669	8.26
355.038	8.39
355.408	8.29
355.777	8.2
356.147	8.35
356.516	8
356.885	8.64
357.254	8.5
357.624	8.6
357.993	8.61
358.362	8.41
358.731	8.41
359.1	8.13
359.469	8.49
359.838	8.49
360.207	8.77
360.576	8.54
360.945	8.56
361.314	8.66
361.682	9.17
362.051	9.01
362.42	8.75
362.788	8.61
363.157	8.71
363.525	8.66
363.894	8.78
364.262	8.9
364.631	8.78
364.999	8.88
365.367	8.68
365.735	8.99
366.104	8.99
366.472	9.19
366.84	9.21
367.208	9.25
367.576	9.29
367.944	9.3
368.312	9.37
368.68	9.05
369.048	9.31
369.416	9.26
369.783	9.35
370.151	9.5
370.519	9.61
370.886	9.62
371.254	9.59
371.621	9.68
371.989	10.09
372.356	9.88
372.724	9.56
373.091	9.71
373.458	10.01
373.826	10.05
374.193	10.04
374.56	9.99
374.927	9.55
375.294	9.83
375.661	9.57
376.028	9.92
376.395	10.08
376.762	10.19
377.129	10.25
377.496	9.73
377.863	9.66
378.229	10.35
378.596	10.02
378.963	10.11
379.329	10.25
379.696	10.13
380.062	10.04
380.429	10.36
380.795	10.18
381.161	10.26
381.528	10.62
381.894	10.64
382.26	10.7
382.626	10.67
382.993	10.75
383.359	10.65
383.725	11.15
384.091	10.95
384.457	10.57
384.823	10.98
385.188	10.77
385.554	10.7
385.92	10.86
386.286	10.91
386.651	10.81
387.017	11.15
387.383	10.93
387.748	11.2
388.114	11.09
388.479	11.39
388.845	11.18
389.21	11.09
389.575	11.39
389.94	11.11
390.306	11.75
390.671	11.45
391.036	11.7
391.401	11.96
391.766	11.45
392.131	11.13
392.496	11.58
392.861	11.62
393.226	11.9
393.591	11.81
393.956	11.84
394.32	11.88
394.685	12.12
395.05	12.02
395.414	11.87
395.779	12.06
396.143	11.92
396.508	11.94
396.872	12.03
397.236	12.03
397.601	12.08
397.965	12.29
398.329	12.3
398.694	12.55
399.058	12.45
399.422	12.45
399.786	12.37
400.15	12.51
400.514	12.83
400.878	12.67
401.242	12.61
401.605	12.36
401.969	12.53
402.333	12.52
402.697	12.64
403.06	12.67
403.424	12.71
403.787	12.84
404.151	12.87
404.514	12.75
404.878	12.73
405.241	12.84
405.604	12.95
405.968	12.7
406.331	12.86
406.694	12.83
407.057	12.92
407.42	12.99
407.783	12.84
408.146	13.17
408.509	13.15
408.872	13.25
409.235	13.29
409.598	13.21
409.961	13.15
410.323	13.21
410.686	13.33
411.049	13.27
411.411	13.46
411.774	13.48
412.136	13.54
412.499	13.46
412.861	13.56
413.223	13.65
413.586	13.56
413.948	13.56
414.31	13.59
414.672	13.8
415.035	13.76
415.397	13.74
415.759	13.72
416.121	13.75
416.483	13.87
416.845	13.78
417.206	13.69
417.568	13.86
417.93	13.64
418.292	13.85
418.653	13.92
419.015	13.99
419.377	13.86
419.738	13.92
420.1	13.9
420.461	13.93
420.822	13.9
421.184	13.93
421.545	13.77
421.906	13.83
422.267	13.84
422.629	13.74
422.99	13.83
423.351	13.79
423.712	13.95
424.073	14.13
424.434	14.19
424.795	14.19
425.155	14.18
425.516	14.12
425.877	14.03
426.238	14.08
426.598	14.23
426.959	14.34
427.32	14.34
427.68	14.47
428.041	14.46
428.401	14.55
428.761	14.86
429.122	14.64
429.482	14.69
429.842	14.65
430.202	14.78
430.563	14.71
430.923	14.88
431.283	14.75
431.643	14.9
432.003	14.97
432.363	14.96
432.722	14.97
433.082	15.19
433.442	15.04
433.802	15.26
434.161	15.16
434.521	15.03
434.881	15.17
435.24	15.06
435.6	15.09
435.959	15.09
436.319	15.19
436.678	15.35
437.037	15.46
437.396	15.3
437.756	15.42
438.115	15.66
438.474	15.29
438.833	15.32
439.192	15.67
439.551	15.46
439.91	15.42
440.269	15.6
440.628	15.51
440.987	15.48
441.345	15.64
441.704	15.54
442.063	15.42
442.421	15.56
442.78	15.58
443.138	15.61
443.497	15.68
443.855	15.96
444.214	15.82
444.572	16.02
444.93	15.87
445.288	15.88
445.647	15.88
446.005	16.12
446.363	15.91
446.721	15.9
447.079	15.9
447.437	15.95
447.795	15.91
448.153	15.94
448.51	15.88
448.868	16.05
449.226	15.91
449.584	16.07
449.941	16.18
450.299	16.38
450.656	16.38
451.014	16.39
451.371	16.49
451.729	16.33
452.086	16.65
452.443	16.57
452.801	16.64
453.158	16.81
453.515	16.61
453.872	16.74
454.229	16.56
454.586	16.78
454.943	16.64
455.3	17.01
455.657	16.9
456.014	16.87
456.371	16.85
456.727	16.85
457.084	17.05
457.441	17.12
457.797	16.88
458.154	17.22
458.51	16.9
458.867	17.15
459.223	17.13
459.58	17.26
459.936	17.27
460.292	17.2
460.648	17.15
461.005	17.04
461.361	16.94
461.717	16.92
462.073	16.95
462.429	17.08
462.785	17.17
463.141	17.29
463.496	17.26
463.852	17.25
464.208	17.44
464.564	17.59
464.919	17.43
465.275	17.57
465.631	17.78
465.986	17.71
466.342	17.62
466.697	17.69
467.052	17.81
467.408	17.56
467.763	17.9
468.118	17.89
468.473	17.95
468.829	18.11
469.184	18.03
469.539	17.9
469.894	18.06
470.249	18
470.603	18.12
470.958	18.21
471.313	18.3
471.668	18.16
472.023	18.17
472.377	18.23
472.732	18.32
473.086	18.15
473.441	18.51
473.795	18.48
474.15	18.44
474.504	18.61
474.859	18.38
475.213	18.59
475.567	18.6
475.921	18.44
476.275	18.81
476.63	18.45
476.984	18.81
477.338	18.68
477.692	18.74
478.045	18.67
478.399	18.75
478.753	18.71
479.107	18.64
479.461	18.77
479.814	18.8
480.168	18.68
480.521	18.97
480.875	19.01
481.228	18.97
481.582	19.01
481.935	18.97
482.289	18.96
482.642	18.98
482.995	18.87
483.348	18.74
483.701	18.81
484.055	18.72
484.408	18.68
484.761	18.48
485.114	18.43
485.466	18.38
485.819	18.26
486.172	18.15
486.525	18.14
486.878	18.36
487.23	18.51
487.583	18.69
487.936	18.78
488.288	18.85
488.641	18.72
488.993	18.7
489.345	18.6
489.698	18.7
490.05	18.59
490.402	18.61
490.754	18.77
491.107	18.98
491.459	19.19
491.811	19.34
492.163	19.33
492.515	19.27
492.866	19.16
493.218	19.08
493.57	19
493.922	19.05
494.274	19.13
494.625	19.3
494.977	19.41
495.328	19.74
495.68	19.79
496.031	19.9
496.383	20.07
496.734	20.16
497.086	20.15
497.437	20.15
497.788	20.21
498.139	20.04
498.49	20.03
498.842	20.12
499.193	20.12
499.544	20.09
499.894	20.15
500.245	20.29
500.596	20.29
500.947	20.23
501.298	20.33
501.648	20.54
501.999	20.43
502.35	20.69
502.7	20.62
503.051	20.76
503.401	20.68
503.752	20.77
504.102	20.77
504.452	20.86
504.803	20.81
505.153	20.9
505.503	20.9
505.853	20.96
506.203	20.93
506.553	20.85
506.903	21.08
507.253	20.96
507.603	21.11
507.953	20.97
508.303	21.16
508.652	21.19
509.002	21.2
509.352	21.18
509.701	21.17
510.051	21.07
510.4	21.18
510.75	21.11
511.099	21.21
511.449	21.12
511.798	21.23
512.147	21.2
512.496	21.28
512.846	21.53
513.195	21.34
513.544	21.29
513.893	21.36
514.242	21.54
514.591	21.54
514.939	21.52
515.288	21.58
515.637	21.63
515.986	21.76
516.334	21.76
516.683	21.77
517.032	21.73
517.38	21.76
517.729	21.99
518.077	21.99
518.426	21.87
518.774	21.69
519.122	21.94
519.47	21.8
519.819	21.71
520.167	21.71
520.515	21.61
520.863	21.75
521.211	21.6
521.559	21.73
521.907	21.84
522.255	21.96
522.602	22.09
522.95	22.09
523.298	22.19
523.645	22.33
523.993	22.36
524.341	22.34
524.688	22.53
525.036	22.46
525.383	22.36
525.73	22.36
526.078	22.24
526.425	22.4
526.772	22.33
527.119	22.19
527.466	22.2
527.814	22.11
528.161	22.18
528.508	22.14
528.854	22.2
529.201	22.29
529.548	22.16
529.895	22.06
530.242	22.04
530.588	21.88
530.935	21.86
531.282	21.72
531.628	21.83
531.975	22.09
532.321	22.22
532.667	22.44
533.014	22.67
533.36	22.75
533.706	22.68
534.052	22.75
534.399	22.61
534.745	22.63
535.091	22.53
535.437	22.45
535.783	22.47
536.129	22.64
536.474	22.76
536.82	22.93
537.166	23.06
537.512	23.06
537.857	23.17
538.203	22.98
538.549	23.06
538.894	23.17
539.239	23.13
539.585	23.28
539.93	23.49
540.276	23.43
540.621	23.71
540.966	23.74
541.311	23.75
541.656	23.71
542.001	23.51
542.346	23.49
542.691	23.28
543.036	23.29
543.381	23.12
543.726	23.1
544.071	23.14
544.415	23.32
544.76	23.4
545.105	23.46
545.449	23.56
545.794	23.72
546.138	23.87
546.483	23.77
546.827	24.13
547.171	24.08
547.516	23.9
547.86	24.05
548.204	24.13
548.548	24.15
548.892	24.09
549.236	24.19
549.58	24.11
549.924	24.31
550.268	24.54
550.612	24.64
550.956	24.67
551.3	24.84
551.643	24.79
551.987	24.89
552.33	25.04
552.674	25.13
553.017	25.23
553.361	24.98
553.704	25.26
554.048	24.93
554.391	24.84
554.734	24.91
555.077	24.94
555.42	25.11
555.764	25.03
556.107	25.11
556.45	25.31
556.793	25.33
557.135	25.35
557.478	25.5
557.821	25.57
558.164	25.72
558.507	25.4
558.849	25.58
559.192	25.46
559.534	25.64
559.877	25.8
560.219	25.74
560.562	25.55
560.904	25.87
561.246	26.04
561.589	26.21
561.931	25.95
562.273	25.81
562.615	26
562.957	25.93
563.299	25.98
563.641	25.98
563.983	25.96
564.325	26.02
564.667	25.84
565.008	25.93
565.35	26.17
565.692	26.08
566.033	26.41
566.375	26.23
566.716	26.36
567.058	26.28
567.399	26.28
567.741	26.26
568.082	26.18
568.423	26.08
568.764	26.07
569.105	26.23
569.447	26.36
569.788	26.44
570.129	26.54
570.47	26.37
570.811	26.4
571.151	26.65
571.492	26.42
571.833	26.68
572.174	26.55
572.514	26.88
572.855	26.64
573.195	26.7
573.536	26.69
573.876	26.67
574.217	26.75
574.557	26.65
574.898	26.75
575.238	26.54
575.578	26.56
575.918	26.71
576.258	27.07
576.598	26.77
576.938	26.95
577.278	27.13
577.618	27.09
577.958	27.08
578.298	26.85
578.638	27.22
578.977	27.26
579.317	27.37
579.657	27.26
579.996	27.15
580.336	27.38
580.675	27.55
581.014	27.34
581.354	27.5
581.693	27.24
582.032	27.68
582.372	27.57
582.711	27.75
583.05	27.73
583.389	27.69
583.728	27.97
584.067	27.9
584.406	28.08
584.745	27.7
585.083	27.82
585.422	27.88
585.761	28.13
586.1	27.91
586.438	28.07
586.777	27.91
587.115	28.03
587.454	28.11
587.792	28.28
588.13	28.34
588.469	28.16
588.807	28.2
589.145	28.07
589.483	28.5
589.821	28.32
590.159	28.27
590.497	28.34
590.835	28.33
591.173	28.44
591.511	28.12
591.849	28.24
592.187	28.4
592.524	28.53
592.862	28.36
593.2	28.37
593.537	28.3
593.875	28.56
594.212	28.58
594.55	28.47
594.887	28.78
595.224	28.64
595.561	28.56
595.899	28.55
596.236	28.63
596.573	28.91
596.91	28.89
597.247	28.74
597.584	28.86
597.921	28.84
598.258	28.63
598.594	28.8
598.931	28.73
599.268	28.47
599.604	28.68
599.941	28.68
600.277	28.47
600.614	28.9
600.95	29.22
601.287	29.15
601.623	28.87
601.959	29.49
602.296	29.44
602.632	29.2
602.968	29.09
603.304	29.57
603.64	28.99
603.976	29.57
604.312	29.17
604.648	29.44
604.984	29.54
605.319	29.35
605.655	29.05
605.991	29.14
606.326	29.39
606.662	29.22
606.998	29.36
607.333	29.02
607.668	29.13
608.004	29.38
608.339	29.24
608.674	29.43
609.01	29.81
609.345	29.33
609.68	29.74
610.015	29.83
610.35	29.65
610.685	29.77
611.02	29.81
611.355	29.84
611.689	29.54
612.024	29.53
612.359	29.57
612.694	29.63
613.028	30.07
613.363	30.06
613.697	30.14
614.032	30.11
614.366	30.34
614.7	30.35
615.035	30.05
615.369	30.12
615.703	30.28
616.037	30.36
616.371	30.15
616.705	30.2
617.039	30.84
617.373	30.81
617.707	30.2
618.041	30.53
618.375	30.38
618.709	30.84
619.042	30.73
619.376	30.76
619.71	30.81
620.043	30.36
620.377	30.71
620.71	30.98
621.043	30.33
621.377	30.86
621.71	30.86
622.043	31.15
622.376	30.83
622.709	30.92
623.043	30.75
623.376	30.63
623.709	31.05
624.041	30.84
624.374	30.74
624.707	30.76
625.04	30.7
625.373	31.03
625.705	31.29
626.038	31.39
626.37	30.85
626.703	31.21
627.035	31.13
627.368	31.18
627.7	31.09
628.032	31.34
628.365	31.66
628.697	31.29
629.029	31.27
629.361	31.05
629.693	31.15
630.025	31.57
630.357	31.22
630.689	31.1
631.021	31.07
631.353	31.38
631.684	31.54
632.016	31.45
632.348	31.55
632.679	31.45
633.011	31.3
633.342	31.55
633.674	31.87
634.005	31.76
634.336	31.78
634.668	31.43
634.999	31.94
635.33	32.06
635.661	32.18
635.992	31.78
636.323	31.62
636.654	31.76
636.985	31.74
637.316	31.6
637.647	31.97
637.977	32.3
638.308	32.01
638.639	32.01
638.969	31.75
639.3	32.12
639.63	32.18
639.961	31.96
640.291	32.25
640.622	32.11
640.952	32.25
641.282	32.47
641.612	31.99
641.943	32.65
642.273	32.68
642.603	32.46
642.933	32.81
643.263	32.53
643.592	32.56
643.922	32.77
644.252	32.31
644.582	32.35
644.911	32.43
645.241	32.83
645.571	32.63
645.9	32.5
646.23	33.02
646.559	32.87
646.888	32.89
647.218	33.42
647.547	32.87
647.876	32.89
648.205	32.45
648.534	32.48
648.863	32.96
649.192	32.96
649.521	32.86
649.85	33.64
650.179	33.08
650.508	33.22
650.837	32.97
651.165	32.93
651.494	33.38
651.822	32.82
652.151	32.74
652.479	32.96
652.808	33.09
653.136	33.18
653.465	33.08
653.793	33.17
654.121	33.69
654.449	33.15
654.777	33.28
655.105	33.53
655.433	33.33
655.761	33.12
656.089	34
656.417	33.9
656.745	33.55
657.073	33.15
657.4	33.13
657.728	33.77
658.056	33.18
658.383	34.19
658.711	33.5
659.038	33.91
659.365	33.59
659.693	33.16
660.02	33.69
660.347	34.43
660.674	33.71
661.001	34.05
661.329	33.7
661.656	33.32
661.982	33.44
662.309	33.81
662.636	33.53
662.963	33.55
663.29	34.38
663.616	34.22
663.943	34.41
664.27	34.24
664.596	34.23
664.923	33.7
665.249	33.76
665.576	34.22
665.902	34.14
666.228	33.66
666.554	34.7
666.881	34.19
667.207	34.23
667.533	34.06
667.859	34.37
668.185	34.72
668.511	34.21
668.837	34.52
669.162	34.38
669.488	33.93
669.814	34.49
670.139	34.25
670.465	34.61
670.791	34.28
671.116	34.91
671.442	34.57
671.767	34.94
672.092	34.34
672.418	34.1
672.743	35.12
