Data from 0025_chest_Reflection__4__80.txt Node

Date: Thu Oct 20 20:57:47 CDT 2022
User: ToomeyLab
Spectrometer: FLMS14357
Trigger mode: 0
Integration Time (sec): 1.000000E-2
Scans to average: 100
Electric dark correction enabled: true
Nonlinearity correction enabled: false
Boxcar width: 0
XAxis mode: Wavelengths
Number of Pixels in Spectrum: 2048
>>>>>Begin Spectral Data<<<<<
189.047	19.88
189.435	19.88
189.823	19.88
190.211	49.32
190.599	-169.41
190.987	2118.23
191.375	-111.44
191.763	-21.2
192.151	-85.45
192.538	759.86
192.926	29.12
193.314	150.4
193.702	75.64
194.089	237.18
194.477	45.77
194.864	-143.79
195.252	56.09
195.639	64.46
196.027	-123.77
196.414	48.44
196.801	16.6
197.189	-1476.02
197.576	191.07
197.963	24.27
198.351	-7.85
198.738	-5.29
199.125	38.58
199.512	33.72
199.899	-17.7
200.286	2.46
200.673	21.59
201.06	-8.23
201.447	-15.29
201.833	31.95
202.22	-4.97
202.607	-20.87
202.994	22.56
203.38	-22.9
203.767	3.17
204.154	-9.58
204.54	-51.94
204.927	5.49
205.313	-47.22
205.699	-8.5
206.086	-5.97
206.472	10.9
206.858	-11.86
207.245	-0.56
207.631	-45.05
208.017	4.79
208.403	9.74
208.789	-22.78
209.175	-1.56
209.561	26.48
209.947	-18.01
210.333	-6.77
210.719	34.52
211.105	-27.08
211.491	26.62
211.876	3.37
212.262	35.64
212.648	-59.12
213.034	8.04
213.419	7.43
213.805	-20.17
214.19	-12.05
214.576	-16.24
214.961	34.09
215.346	-18.82
215.732	-49.12
216.117	12.16
216.502	-23.31
216.888	8.27
217.273	16.98
217.658	-2.15
218.043	19.21
218.428	-10.56
218.813	23.89
219.198	-0.32
219.583	-7.42
219.968	-4
220.353	-26.9
220.738	12.12
221.122	18.06
221.507	8.01
221.892	-0.62
222.276	0.91
222.661	3.52
223.046	0.13
223.43	10.55
223.815	-5.44
224.199	4.16
224.583	5.85
224.968	10.84
225.352	7.41
225.736	12.86
226.121	8.42
226.505	-0.71
226.889	5.29
227.273	14.89
227.657	3.02
228.041	2.79
228.425	5.99
228.809	3.71
229.193	6.27
229.577	4.58
229.961	5.12
230.344	4.53
230.728	4.54
231.112	4.62
231.495	4.16
231.879	3.1
232.263	4.68
232.646	5.29
233.03	3.92
233.413	4.66
233.797	2.17
234.18	5.99
234.563	6.65
234.946	5.05
235.33	3.73
235.713	4.18
236.096	4.41
236.479	4.37
236.862	4.34
237.245	2.51
237.628	4.54
238.011	6.03
238.394	4.43
238.777	5.45
239.16	3.38
239.543	4.66
239.925	5.87
240.308	4.82
240.691	5.06
241.073	5.03
241.456	3.48
241.838	4.56
242.221	4.27
242.603	4.1
242.986	4.67
243.368	5.14
243.75	4.54
244.133	4.32
244.515	4.74
244.897	5.1
245.279	4.95
245.661	4.57
246.043	4.48
246.425	5.39
246.807	4.54
247.189	4.64
247.571	4.62
247.953	4.48
248.335	4.61
248.717	4.55
249.098	4.43
249.48	4.34
249.862	4.55
250.243	4
250.625	4.01
251.006	5.52
251.388	3.93
251.769	4.99
252.151	4.22
252.532	4.42
252.913	4.23
253.295	4.39
253.676	4.86
254.057	4.73
254.438	4.72
254.819	4.08
255.2	4.68
255.581	5.05
255.962	3.33
256.343	4.38
256.724	4.57
257.105	5.51
257.486	5.75
257.867	4.3
258.247	4.48
258.628	4.67
259.009	4.86
259.389	4.92
259.77	4.44
260.15	4.36
260.531	4.13
260.911	4.16
261.292	4.12
261.672	3.99
262.052	4.4
262.432	4.34
262.813	4.43
263.193	4.04
263.573	4.11
263.953	4.3
264.333	4.24
264.713	5.08
265.093	4.3
265.473	3.36
265.853	4.5
266.233	4.17
266.612	4.04
266.992	3.34
267.372	3.98
267.752	4.42
268.131	3.85
268.511	4.12
268.89	3.76
269.27	4.19
269.649	4.15
270.029	4.28
270.408	3.81
270.787	4.2
271.167	4.06
271.546	4.5
271.925	4.09
272.304	4.44
272.683	4.24
273.062	4.07
273.441	4.13
273.82	4.64
274.199	4.09
274.578	3.96
274.957	4.12
275.336	3.67
275.715	4.2
276.093	4.11
276.472	3.73
276.851	4.1
277.229	4.31
277.608	4
277.986	3.98
278.365	4.38
278.743	4.1
279.122	4.17
279.5	4.4
279.878	3.55
280.257	3.59
280.635	4.5
281.013	4.12
281.391	3.98
281.769	3.88
282.147	3.7
282.525	4.12
282.903	4.25
283.281	3.87
283.659	3.64
284.037	4.57
284.415	3.91
284.792	3.93
285.17	4.08
285.548	3.72
285.925	4.03
286.303	4.21
286.68	4.04
287.058	4.07
287.435	3.88
287.813	3.65
288.19	3.64
288.567	4.31
288.945	4.37
289.322	3.89
289.699	4.44
290.076	4.05
290.453	4.15
290.83	3.96
291.207	3.82
291.584	3.75
291.961	3.53
292.338	4.21
292.715	4.02
293.092	3.62
293.469	4.13
293.845	3.88
294.222	3.78
294.599	4.08
294.975	3.99
295.352	3.76
295.728	3.25
296.105	3.85
296.481	3.88
296.858	4.5
297.234	4.3
297.61	4.06
297.986	3.79
298.363	4.03
298.739	3.92
299.115	4.03
299.491	4.24
299.867	3.92
300.243	3.77
300.619	4.06
300.995	3.7
301.371	3.93
301.746	3.93
302.122	4.42
302.498	4.59
302.874	3.59
303.249	3.92
303.625	3.77
304	3.6
304.376	4.54
304.751	3.68
305.127	3.93
305.502	4.05
305.878	3.74
306.253	3.98
306.628	4
307.003	3.95
307.378	4.08
307.754	4.27
308.129	3.74
308.504	4.43
308.879	4.47
309.254	4.03
309.629	4.09
310.003	3.91
310.378	4.15
310.753	3.57
311.128	4.23
311.502	4.33
311.877	3.76
312.252	3.76
312.626	3.98
313.001	4.32
313.375	4.12
313.75	4.11
314.124	4.48
314.498	4.01
314.873	4.08
315.247	4.24
315.621	3.78
315.995	3.59
316.369	3.67
316.743	4.54
317.117	4.4
317.491	4.35
317.865	4.42
318.239	3.79
318.613	3.51
318.987	3.36
319.361	4.31
319.734	4
320.108	3.69
320.482	3.84
320.855	3.79
321.229	4.12
321.602	4.51
321.976	4.13
322.349	3.88
322.723	4.35
323.096	3.91
323.469	4.41
323.843	3.75
324.216	3.85
324.589	4.02
324.962	4.3
325.335	3.38
325.708	4.29
326.081	4.05
326.454	3.98
326.827	3.56
327.2	4.14
327.573	4.26
327.945	3.96
328.318	3.67
328.691	4.61
329.063	3.94
329.436	3.35
329.809	4.34
330.181	4.14
330.553	3.52
330.926	4.04
331.298	3.43
331.671	3.68
332.043	4.27
332.415	4.11
332.787	4.19
333.159	4.18
333.532	4.3
333.904	4.27
334.276	3.97
334.648	3.68
335.02	4.14
335.391	3.84
335.763	4.17
336.135	4.61
336.507	4
336.879	4.16
337.25	4.02
337.622	4.1
337.993	3.29
338.365	4.27
338.736	3.95
339.108	4.39
339.479	3.86
339.851	4.25
340.222	4.26
340.593	4.1
340.964	4.48
341.336	4.12
341.707	4.21
342.078	4.28
342.449	3.97
342.82	4.04
343.191	4.39
343.562	4.35
343.933	3.94
344.303	3.95
344.674	4.83
345.045	4.58
345.416	4.19
345.786	4.27
346.157	4.41
346.527	4.05
346.898	3.92
347.268	3.96
347.639	4.19
348.009	4.77
348.38	3.68
348.75	4.27
349.12	4.8
349.49	4.31
349.861	4.28
350.231	4.18
350.601	4.13
350.971	4.62
351.341	3.88
351.711	4.11
352.081	4.14
352.45	4.19
352.82	4.42
353.19	4.18
353.56	3.86
353.929	4.57
354.299	3.97
354.669	3.77
355.038	4
355.408	4.02
355.777	4.04
356.147	3.92
356.516	4.1
356.885	4.36
357.254	4.3
357.624	3.97
357.993	4.57
358.362	3.96
358.731	4.22
359.1	3.79
359.469	3.91
359.838	4
360.207	3.96
360.576	3.98
360.945	3.63
361.314	4.27
361.682	4.51
362.051	4.1
362.42	4.05
362.788	3.92
363.157	4.33
363.525	4.01
363.894	4.16
364.262	4.39
364.631	3.84
364.999	4.15
365.367	4.03
365.735	4.23
366.104	4.14
366.472	4.18
366.84	4.42
367.208	4.26
367.576	4.39
367.944	3.93
368.312	4.11
368.68	4.35
369.048	4.37
369.416	4.21
369.783	4.05
370.151	4.06
370.519	4.04
370.886	4.29
371.254	4.38
371.621	4.37
371.989	4.22
372.356	4.51
372.724	3.89
373.091	4.12
373.458	4.06
373.826	4.33
374.193	4.49
374.56	4.23
374.927	4.21
375.294	4.32
375.661	3.9
376.028	4.02
376.395	4.11
376.762	4.23
377.129	4.04
377.496	4.02
377.863	4.17
378.229	4.39
378.596	4.03
378.963	3.88
379.329	4.36
379.696	4.01
380.062	4.15
380.429	4.34
380.795	3.91
381.161	4.29
381.528	4.32
381.894	4.28
382.26	4.29
382.626	4.28
382.993	4.14
383.359	4.21
383.725	4.58
384.091	4.71
384.457	3.96
384.823	4.41
385.188	4.22
385.554	4.22
385.92	4.08
386.286	4.3
386.651	4.24
387.017	4.15
387.383	4.26
387.748	4.25
388.114	4.57
388.479	4.37
388.845	4.2
389.21	3.97
389.575	4.48
389.94	4.15
390.306	4.38
390.671	4.06
391.036	4.47
391.401	4.47
391.766	4.03
392.131	4.02
392.496	4.27
392.861	4.09
393.226	4.3
393.591	4.4
393.956	4.39
394.32	4.42
394.685	4.66
395.05	4.09
395.414	4.3
395.779	4.39
396.143	4.35
396.508	4.32
396.872	4.21
397.236	4.16
397.601	4.4
397.965	4.48
398.329	4.42
398.694	4.36
399.058	4.43
399.422	4.1
399.786	4.44
400.15	4.26
400.514	4.29
400.878	4.26
401.242	4.38
401.605	4.01
401.969	4.14
402.333	4.44
402.697	4.35
403.06	4.43
403.424	4.34
403.787	4.44
404.151	4.55
404.514	4.42
404.878	4.2
405.241	4.13
405.604	4.39
405.968	4.16
406.331	4.46
406.694	4.42
407.057	4
407.42	4.14
407.783	4.15
408.146	4.37
408.509	4.37
408.872	4.34
409.235	4.39
409.598	4.17
409.961	4.31
410.323	4.25
410.686	4.38
411.049	4.44
411.411	4.61
411.774	4.35
412.136	4.42
412.499	4.32
412.861	4.51
413.223	4.37
413.586	4.6
413.948	4.52
414.31	4.39
414.672	4.49
415.035	4.47
415.397	4.47
415.759	4.5
416.121	4.45
416.483	4.43
416.845	4.32
417.206	4.16
417.568	4.31
417.93	4.4
418.292	4.56
418.653	4.45
419.015	4.43
419.377	4.44
419.738	4.34
420.1	4.38
420.461	4.37
420.822	4.29
421.184	4.4
421.545	4.35
421.906	4.28
422.267	4.3
422.629	4.2
422.99	4.35
423.351	4.15
423.712	4.41
424.073	4.39
424.434	4.3
424.795	4.41
425.155	4.29
425.516	4.39
425.877	4.39
426.238	4.33
426.598	4.36
426.959	4.48
427.32	4.35
427.68	4.48
428.041	4.36
428.401	4.41
428.761	4.59
429.122	4.34
429.482	4.4
429.842	4.48
430.202	4.5
430.563	4.43
430.923	4.38
431.283	4.37
431.643	4.54
432.003	4.61
432.363	4.26
432.722	4.36
433.082	4.57
433.442	4.35
433.802	4.64
434.161	4.54
434.521	4.43
434.881	4.56
435.24	4.31
435.6	4.45
435.959	4.46
436.319	4.42
436.678	4.5
437.037	4.52
437.396	4.6
437.756	4.65
438.115	4.63
438.474	4.56
438.833	4.45
439.192	4.61
439.551	4.36
439.91	4.54
440.269	4.49
440.628	4.57
440.987	4.53
441.345	4.61
441.704	4.52
442.063	4.32
442.421	4.43
442.78	4.55
443.138	4.5
443.497	4.57
443.855	4.74
444.214	4.6
444.572	4.63
444.93	4.42
445.288	4.5
445.647	4.39
446.005	4.4
446.363	4.51
446.721	4.49
447.079	4.48
447.437	4.47
447.795	4.42
448.153	4.45
448.51	4.4
448.868	4.45
449.226	4.4
449.584	4.52
449.941	4.5
450.299	4.63
450.656	4.53
451.014	4.5
451.371	4.53
451.729	4.62
452.086	4.56
452.443	4.67
452.801	4.6
453.158	4.76
453.515	4.51
453.872	4.58
454.229	4.53
454.586	4.69
454.943	4.51
455.3	4.58
455.657	4.67
456.014	4.39
456.371	4.6
456.727	4.67
457.084	4.61
457.441	4.66
457.797	4.46
458.154	4.71
458.51	4.72
458.867	4.56
459.223	4.52
459.58	4.61
459.936	4.64
460.292	4.64
460.648	4.6
461.005	4.62
461.361	4.56
461.717	4.47
462.073	4.54
462.429	4.67
462.785	4.67
463.141	4.65
463.496	4.57
463.852	4.44
464.208	4.74
464.564	4.67
464.919	4.59
465.275	4.72
465.631	4.77
465.986	4.71
466.342	4.68
466.697	4.79
467.052	4.7
467.408	4.6
467.763	4.86
468.118	4.66
468.473	4.66
468.829	4.64
469.184	4.67
469.539	4.7
469.894	4.67
470.249	4.66
470.603	4.77
470.958	4.77
471.313	4.68
471.668	4.68
472.023	4.62
472.377	4.71
472.732	4.8
473.086	4.69
473.441	4.59
473.795	4.7
474.15	4.81
474.504	4.76
474.859	4.68
475.213	4.75
475.567	4.69
475.921	4.81
476.275	4.72
476.63	4.58
476.984	4.89
477.338	4.74
477.692	4.68
478.045	4.62
478.399	4.83
478.753	4.81
479.107	4.73
479.461	4.79
479.814	4.71
480.168	4.76
480.521	4.69
480.875	4.87
481.228	4.8
481.582	4.73
481.935	4.67
482.289	4.72
482.642	4.82
482.995	4.77
483.348	4.69
483.701	4.61
484.055	4.58
484.408	4.65
484.761	4.6
485.114	4.5
485.466	4.48
485.819	4.5
486.172	4.51
486.525	4.54
486.878	4.67
487.23	4.67
487.583	4.62
487.936	4.67
488.288	4.66
488.641	4.57
488.993	4.57
489.345	4.51
489.698	4.57
490.05	4.6
490.402	4.57
490.754	4.6
491.107	4.76
491.459	4.7
491.811	4.8
492.163	4.75
492.515	4.69
492.866	4.64
493.218	4.66
493.57	4.61
493.922	4.64
494.274	4.72
494.625	4.74
494.977	4.81
495.328	4.84
495.68	4.85
496.031	4.83
496.383	4.9
496.734	4.84
497.086	4.8
497.437	4.86
497.788	4.87
498.139	4.82
498.49	4.76
498.842	4.92
499.193	4.89
499.544	4.82
499.894	4.8
500.245	4.82
500.596	4.79
500.947	4.77
501.298	4.99
501.648	4.86
501.999	4.83
502.35	5.03
502.7	4.97
503.051	5.02
503.401	4.85
503.752	4.92
504.102	4.92
504.452	5.01
504.803	4.88
505.153	5.01
505.503	4.97
505.853	5.06
506.203	4.9
506.553	4.96
506.903	5.01
507.253	5.02
507.603	4.97
507.953	5.01
508.303	5
508.652	4.95
509.002	5.04
509.352	4.94
509.701	5.13
510.051	5.01
510.4	4.96
510.75	4.92
511.099	5.07
511.449	4.89
511.798	4.95
512.147	5.02
512.496	5.05
512.846	5.03
513.195	5.12
513.544	5.05
513.893	4.99
514.242	5.07
514.591	5.14
514.939	4.89
515.288	5.16
515.637	5.05
515.986	5.13
516.334	5.11
516.683	5.12
517.032	5.14
517.38	5.03
517.729	4.95
518.077	5.1
518.426	5.04
518.774	5.04
519.122	5.23
519.47	5.02
519.819	5
520.167	4.97
520.515	5.02
520.863	5.07
521.211	5.04
521.559	5.16
521.907	5.12
522.255	5.17
522.602	5.15
522.95	5.13
523.298	5.19
523.645	5.24
523.993	5.27
524.341	5.17
524.688	5.22
525.036	5.17
525.383	5.26
525.73	5.21
526.078	5.05
526.425	5.14
526.772	5.23
527.119	5.07
527.466	5.2
527.814	5.16
528.161	5.31
528.508	5.24
528.854	5.17
529.201	5.23
529.548	5.14
529.895	5.05
530.242	5.04
530.588	5
530.935	5.13
531.282	5.12
531.628	5.17
531.975	5.16
532.321	5.16
532.667	5.29
533.014	5.32
533.36	5.34
533.706	5.27
534.052	5.29
534.399	5.25
534.745	5.26
535.091	5.29
535.437	5.26
535.783	5.27
536.129	5.38
536.474	5.31
536.82	5.53
537.166	5.51
537.512	5.39
537.857	5.38
538.203	5.38
538.549	5.39
538.894	5.33
539.239	5.43
539.585	5.53
539.93	5.55
540.276	5.42
540.621	5.57
540.966	5.54
541.311	5.62
541.656	5.61
542.001	5.47
542.346	5.38
542.691	5.36
543.036	5.45
543.381	5.4
543.726	5.44
544.071	5.52
544.415	5.58
544.76	5.46
545.105	5.48
545.449	5.72
545.794	5.64
546.138	5.72
546.483	5.69
546.827	5.7
547.171	5.65
547.516	5.72
547.86	5.62
548.204	5.85
548.548	5.75
548.892	5.67
549.236	5.78
549.58	5.89
549.924	5.8
550.268	5.9
550.612	5.73
550.956	5.94
551.3	5.95
551.643	5.97
551.987	5.97
552.33	5.95
552.674	6.09
553.017	5.9
553.361	6.07
553.704	5.98
554.048	5.97
554.391	5.86
554.734	5.93
555.077	5.89
555.42	6.08
555.764	6.05
556.107	6.18
556.45	6
556.793	6.12
557.135	6.18
557.478	5.99
557.821	6.13
558.164	6.32
558.507	6.31
558.849	6.05
559.192	5.97
559.534	6.39
559.877	6.2
560.219	6.2
560.562	6.31
560.904	6.28
561.246	6.24
561.589	6.35
561.931	6.5
562.273	6.26
562.615	6.39
562.957	6.4
563.299	6.45
563.641	6.52
563.983	6.34
564.325	6.46
564.667	6.46
565.008	6.42
565.35	6.49
565.692	6.39
566.033	6.66
566.375	6.3
566.716	6.41
567.058	6.64
567.399	6.63
567.741	6.26
568.082	6.49
568.423	6.47
568.764	6.47
569.105	6.73
569.447	6.66
569.788	6.77
570.129	6.58
570.47	6.54
570.811	6.47
571.151	6.78
571.492	6.66
571.833	6.73
572.174	6.61
572.514	6.85
572.855	6.74
573.195	6.94
573.536	6.62
573.876	6.62
574.217	6.72
574.557	6.81
574.898	6.89
575.238	6.8
575.578	6.95
575.918	6.99
576.258	6.79
576.598	6.8
576.938	6.98
577.278	7.08
577.618	6.76
577.958	7.03
578.298	6.83
578.638	7.03
578.977	7.06
579.317	7.34
579.657	7
579.996	7.08
580.336	6.81
580.675	7
581.014	7.29
581.354	7.11
581.693	7.13
582.032	7.29
582.372	7.04
582.711	6.99
583.05	7.23
583.389	7.3
583.728	7.31
584.067	7.23
584.406	7.31
584.745	7.41
585.083	7.31
585.422	7.56
585.761	7.57
586.1	7.47
586.438	7.65
586.777	7.41
587.115	7.48
587.454	7.41
587.792	7.75
588.13	7.64
588.469	7.58
588.807	7.7
589.145	7.56
589.483	7.68
589.821	7.48
590.159	7.56
590.497	7.75
590.835	7.66
591.173	7.53
591.511	7.5
591.849	7.66
592.187	7.97
592.524	8.09
592.862	7.84
593.2	7.82
593.537	8
593.875	7.96
594.212	7.88
594.55	7.83
594.887	7.92
595.224	8.05
595.561	7.81
595.899	7.83
596.236	8
596.573	8.18
596.91	8.28
597.247	8.28
597.584	8.32
597.921	8.09
598.258	8.06
598.594	8.05
598.931	8.23
599.268	8.17
599.604	8.15
599.941	8.42
600.277	8.18
600.614	8.38
600.95	8.28
601.287	8.29
601.623	8.55
601.959	8.2
602.296	8.66
602.632	8.4
602.968	8.35
603.304	8.59
603.64	8.38
603.976	8.57
604.312	8.6
604.648	8.47
604.984	8.61
605.319	8.47
605.655	8.45
605.991	8.62
606.326	8.54
606.662	8.63
606.998	8.71
607.333	8.64
607.668	8.91
608.004	8.75
608.339	8.73
608.674	8.74
609.01	8.64
609.345	8.82
609.68	9.06
610.015	9.19
610.35	8.89
610.685	9.08
611.02	8.98
611.355	9.09
611.689	8.95
612.024	8.93
612.359	8.99
612.694	9.09
613.028	9.23
613.363	9
613.697	9.2
614.032	9.18
614.366	9.06
614.7	8.87
615.035	9.33
615.369	9
615.703	9.22
616.037	9.32
616.371	9.41
616.705	9.59
617.039	9.34
617.373	9.5
617.707	9.31
618.041	9.56
618.375	9.28
618.709	9.83
619.042	9.65
619.376	9.55
619.71	9.59
620.043	9.26
620.377	10.01
620.71	9.62
621.043	9.38
621.377	9.82
621.71	9.49
622.043	9.8
622.376	9.53
622.709	9.67
623.043	9.78
623.376	9.65
623.709	9.89
624.041	9.84
624.374	9.95
624.707	9.79
625.04	9.81
625.373	10.08
625.705	10.25
626.038	10.04
626.37	9.9
626.703	10.22
627.035	9.82
627.368	10.12
627.7	10.25
628.032	10.27
628.365	10.35
628.697	10.32
629.029	10.28
629.361	10.12
629.693	10.29
630.025	10.67
630.357	10.34
630.689	10.3
631.021	10.38
631.353	10.68
631.684	10.76
632.016	10.66
632.348	10.61
632.679	10.61
633.011	10.33
633.342	10.49
633.674	11.18
634.005	10.46
634.336	10.53
634.668	10.46
634.999	10.57
635.33	10.94
635.661	10.69
635.992	10.83
636.323	11.25
636.654	11.09
636.985	10.97
637.316	10.81
637.647	11.36
637.977	11.18
638.308	11.19
638.639	11.35
638.969	10.9
639.3	11.05
639.63	11.2
639.961	11.16
640.291	10.78
640.622	10.56
640.952	10.89
641.282	11.41
641.612	10.84
641.943	11.26
642.273	11.44
642.603	11.21
642.933	11.84
643.263	11.97
643.592	11.28
643.922	11.34
644.252	11
644.582	11.74
644.911	11.5
645.241	11.63
645.571	11.68
645.9	11.1
646.23	11.61
646.559	11.54
646.888	12
647.218	11.99
647.547	12.08
647.876	11.83
648.205	11.53
648.534	11.38
648.863	11.65
649.192	11.98
649.521	12.07
649.85	12.14
650.179	12.03
650.508	12.02
650.837	12.47
651.165	11.76
651.494	11.77
651.822	12.14
652.151	12.42
652.479	12.53
652.808	12.46
653.136	12.1
653.465	12.47
653.793	12.42
654.121	12.38
654.449	12.55
654.777	12.3
655.105	12.31
655.433	12.52
655.761	12.22
656.089	12.71
656.417	12.23
656.745	12.8
657.073	12.58
657.4	12.62
657.728	12.64
658.056	12.68
658.383	12.9
658.711	12.3
659.038	12.99
659.365	12.98
659.693	12.8
660.02	12.93
660.347	13.31
660.674	13.09
661.001	12.8
661.329	13.14
661.656	12.98
661.982	13.06
662.309	13.22
662.636	13.19
662.963	13.05
663.29	13.45
663.616	12.72
663.943	13.49
664.27	13.37
664.596	13.29
664.923	13.22
665.249	13.77
665.576	13.57
665.902	13.56
666.228	13.32
666.554	13.73
666.881	13.83
667.207	13.32
667.533	13.93
667.859	13.12
668.185	14.2
668.511	13.25
668.837	13.32
669.162	13.35
669.488	13.57
669.814	13.73
670.139	13.53
670.465	13.85
670.791	14.13
671.116	13.88
671.442	13.3
671.767	13.97
672.092	14.19
672.418	14.19
672.743	14.31
673.068	13.87
673.393	14.74
673.718	14.24
674.043	13.4
674.368	14.56
674.693	14.68
675.018	14.03
675.343	14.53
675.667	14.58
675.992	13.76
676.317	14.43
676.641	15.03
676.966	14.52
677.29	14.57
677.615	14.28
677.939	14.17
678.264	14.29
678.588	14.64
678.912	14.24
679.236	14.66
679.56	14
679.885	14.43
680.209	14.64
680.532	14.54
680.856	14.7
681.18	14.92
681.504	15.2
681.828	14.58
682.152	14.64
682.475	14.66
682.799	14.18
683.122	15.13
683.446	15.13
683.769	15.48
684.093	14.78
684.416	15.23
684.739	15.14
685.062	15.19
685.386	14.69
685.709	14.9
686.032	15.31
686.355	15.26
686.678	14.97
687.001	15.1
687.324	15.47
687.646	15.15
687.969	15.93
688.292	15.71
688.614	16.07
688.937	15.65
