Data from 0025_chest_Reflection__1__77.txt Node

Date: Thu Oct 20 20:57:14 CDT 2022
User: ToomeyLab
Spectrometer: FLMS14357
Trigger mode: 0
Integration Time (sec): 1.000000E-2
Scans to average: 100
Electric dark correction enabled: true
Nonlinearity correction enabled: false
Boxcar width: 0
XAxis mode: Wavelengths
Number of Pixels in Spectrum: 2048
>>>>>Begin Spectral Data<<<<<
189.047	243.71
189.435	243.71
189.823	243.71
190.211	52.93
190.599	124.8
190.987	704.56
191.375	-101.83
191.763	-270.92
192.151	181.56
192.538	-706.96
192.926	60.5
193.314	211.34
193.702	71.68
194.089	270.03
194.477	10.69
194.864	-84.45
195.252	29.14
195.639	2.64
196.027	486.52
196.414	-685.07
196.801	53.15
197.189	-78.9
197.576	177.13
197.963	14.29
198.351	-38.03
198.738	17.98
199.125	18.93
199.512	8.6
199.899	40.9
200.286	-12.17
200.673	7.59
201.06	14.33
201.447	17.07
201.833	79.1
202.22	-17.94
202.607	25.93
202.994	11.48
203.38	-22.23
203.767	-23.15
204.154	-46.34
204.54	7.88
204.927	25.7
205.313	-47.99
205.699	-14.47
206.086	22.02
206.472	35.2
206.858	-14.02
207.245	24.11
207.631	-3.83
208.017	19.55
208.403	-4.64
208.789	-57.17
209.175	-37.98
209.561	5.65
209.947	14.33
210.333	14.39
210.719	7.19
211.105	-43.3
211.491	-18.41
211.876	-13
212.262	5.87
212.648	-14.62
213.034	-23.12
213.419	-14.3
213.805	15.88
214.19	-7.81
214.576	2.11
214.961	22.62
215.346	-31.63
215.732	-17.93
216.117	8.08
216.502	-13.87
216.888	-0.48
217.273	9.57
217.658	-3.99
218.043	26.13
218.428	-0.22
218.813	9.07
219.198	-18.21
219.583	-20.79
219.968	-9.82
220.353	-7.87
220.738	20.22
221.122	6.73
221.507	1.77
221.892	-9.33
222.276	-0.93
222.661	15.75
223.046	7.19
223.43	0.86
223.815	-3.72
224.199	9.57
224.583	3.82
224.968	1.12
225.352	9.38
225.736	6.63
226.121	9.25
226.505	1.83
226.889	5.79
227.273	13.37
227.657	0.94
228.041	2.61
228.425	7.35
228.809	5.26
229.193	3.29
229.577	3.24
229.961	3.56
230.344	3.51
230.728	3.66
231.112	3.63
231.495	1.77
231.879	2.87
232.263	4.05
232.646	3.42
233.03	3.85
233.413	4.14
233.797	3
234.18	3.33
234.563	3.51
234.946	3.3
235.33	3.19
235.713	2.99
236.096	2.19
236.479	3.8
236.862	1.24
237.245	3.63
237.628	3.8
238.011	5.17
238.394	3.51
238.777	3.59
239.16	3.06
239.543	3.14
239.925	3.34
240.308	2.79
240.691	2.98
241.073	4.55
241.456	2.26
241.838	3.03
242.221	3.41
242.603	2.61
242.986	3.22
243.368	3.83
243.75	2.92
244.133	3.39
244.515	3.84
244.897	3.91
245.279	3.58
245.661	3.39
246.043	3.88
246.425	3.51
246.807	4.63
247.189	2.8
247.571	3.43
247.953	3.49
248.335	3.67
248.717	3.6
249.098	3.58
249.48	3.6
249.862	3.37
250.243	3.66
250.625	3.54
251.006	4.69
251.388	3.57
251.769	4.3
252.151	3.41
252.532	2.94
252.913	3.52
253.295	3.84
253.676	4.29
254.057	3.85
254.438	3.96
254.819	2.59
255.2	4.55
255.581	3.76
255.962	3.59
256.343	3.83
256.724	2.7
257.105	4.08
257.486	4.29
257.867	2.98
258.247	3.25
258.628	3.45
259.009	2.9
259.389	3.57
259.77	3.85
260.15	3.65
260.531	3.19
260.911	3.36
261.292	3.41
261.672	3.05
262.052	3.34
262.432	3.45
262.813	3.52
263.193	3.17
263.573	3.19
263.953	2.98
264.333	3.5
264.713	3.58
265.093	3.78
265.473	2.9
265.853	3.49
266.233	3.87
266.612	2.7
266.992	2.1
267.372	2.69
267.752	3.48
268.131	2.9
268.511	3.47
268.89	3.13
269.27	3.17
269.649	3.32
270.029	3.12
270.408	2.89
270.787	3.52
271.167	3.09
271.546	3.25
271.925	2.97
272.304	3.32
272.683	3.09
273.062	2.98
273.441	3.61
273.82	3.51
274.199	3.04
274.578	2.75
274.957	2.74
275.336	3.19
275.715	2.7
276.093	3.36
276.472	3.43
276.851	2.18
277.229	2.85
277.608	2.61
277.986	2.81
278.365	3.24
278.743	2.76
279.122	3.08
279.5	3.27
279.878	3.46
280.257	2.66
280.635	3.17
281.013	3.18
281.391	2.56
281.769	2.9
282.147	3
282.525	3.07
282.903	2.89
283.281	3.05
283.659	2.58
284.037	3.26
284.415	3.26
284.792	2.96
285.17	3.25
285.548	2.65
285.925	2.63
286.303	3.21
286.68	3.38
287.058	2.98
287.435	2.86
287.813	2.73
288.19	2.84
288.567	2.97
288.945	2.88
289.322	2.92
289.699	3.34
290.076	3.13
290.453	3.23
290.83	3.07
291.207	2.76
291.584	2.93
291.961	3.09
292.338	3.57
292.715	2.89
293.092	2.91
293.469	3.22
293.845	2.87
294.222	2.73
294.599	3.28
294.975	3.5
295.352	2.79
295.728	2.86
296.105	3.01
296.481	2.79
296.858	3.3
297.234	2.71
297.61	2.99
297.986	3.08
298.363	3.25
298.739	3.16
299.115	3.12
299.491	3.23
299.867	2.67
300.243	3.16
300.619	2.94
300.995	2.99
301.371	3.05
301.746	3.09
302.122	3.57
302.498	3.55
302.874	2.93
303.249	2.88
303.625	3.17
304	2.88
304.376	3.53
304.751	3.25
305.127	3.43
305.502	3.11
305.878	2.87
306.253	2.5
306.628	3.12
307.003	2.74
307.378	3.04
307.754	3.2
308.129	3.45
308.504	3.53
308.879	3.19
309.254	2.88
309.629	3.13
310.003	3.06
310.378	2.96
310.753	2.86
311.128	3.22
311.502	3.6
311.877	3.14
312.252	3.07
312.626	3.31
313.001	3.24
313.375	3.06
313.75	3.3
314.124	3.59
314.498	3.32
314.873	3.31
315.247	3.08
315.621	3.3
315.995	3.33
316.369	3.28
316.743	3.66
317.117	3.46
317.491	3.32
317.865	3.28
318.239	2.81
318.613	3.08
318.987	3.13
319.361	3.55
319.734	2.97
320.108	2.96
320.482	3.23
320.855	3.32
321.229	3.02
321.602	3.08
321.976	3.5
322.349	3.36
322.723	2.9
323.096	3.7
323.469	3.45
323.843	3.22
324.216	2.78
324.589	3.17
324.962	3.48
325.335	2.96
325.708	3.53
326.081	3.16
326.454	3.07
326.827	3.14
327.2	3.49
327.573	3.31
327.945	3.55
328.318	3.16
328.691	3.58
329.063	3.39
329.436	3.02
329.809	3.76
330.181	3.56
330.553	2.79
330.926	3.31
331.298	2.89
331.671	2.62
332.043	3.46
332.415	3.49
332.787	3.54
333.159	3.27
333.532	3.61
333.904	3.68
334.276	2.94
334.648	2.5
335.02	2.85
335.391	3.41
335.763	3.17
336.135	3.42
336.507	3.45
336.879	3.15
337.25	3.31
337.622	2.87
337.993	2.86
338.365	3.41
338.736	3.22
339.108	3.32
339.479	2.51
339.851	3.76
340.222	2.94
340.593	3.33
340.964	3.83
341.336	3.73
341.707	3.63
342.078	3.59
342.449	3.6
342.82	3.35
343.191	3.84
343.562	3.6
343.933	3.29
344.303	3.52
344.674	3.68
345.045	3.55
345.416	3.22
345.786	3.47
346.157	3.35
346.527	3.69
346.898	3.45
347.268	3.79
347.639	3.45
348.009	3.84
348.38	3.25
348.75	3.49
349.12	3.56
349.49	3.19
349.861	3.69
350.231	3.39
350.601	3.73
350.971	3.34
351.341	3.44
351.711	3.45
352.081	3.15
352.45	3.45
352.82	3.4
353.19	3.67
353.56	3.46
353.929	3.64
354.299	3.48
354.669	3.5
355.038	3.34
355.408	3
355.777	3.48
356.147	3.73
356.516	3.22
356.885	3.56
357.254	3.44
357.624	3.53
357.993	3.52
358.362	3.08
358.731	3.3
359.1	3.15
359.469	3.35
359.838	3.65
360.207	3.59
360.576	3.42
360.945	3.26
361.314	3.46
361.682	3.72
362.051	3.28
362.42	3.41
362.788	3.26
363.157	3.47
363.525	3.29
363.894	3.46
364.262	3.47
364.631	3.63
364.999	3.36
365.367	3.52
365.735	3.67
366.104	3.69
366.472	3.54
366.84	3.97
367.208	3.37
367.576	3.52
367.944	3.32
368.312	3.61
368.68	3.44
369.048	3.51
369.416	3.67
369.783	3.54
370.151	3.43
370.519	3.55
370.886	3.59
371.254	3.6
371.621	3.37
371.989	3.76
372.356	3.9
372.724	3.42
373.091	3.43
373.458	3.6
373.826	3.9
374.193	3.69
374.56	3.79
374.927	3.45
375.294	3.59
375.661	3.4
376.028	3.26
376.395	3.47
376.762	3.79
377.129	3.37
377.496	3.59
377.863	3.74
378.229	3.98
378.596	3.44
378.963	3.37
379.329	3.69
379.696	3.37
380.062	3.78
380.429	3.68
380.795	3.36
381.161	3.64
381.528	3.62
381.894	3.51
382.26	3.52
382.626	3.74
382.993	3.67
383.359	3.73
383.725	3.86
384.091	3.96
384.457	3.54
384.823	3.7
385.188	3.82
385.554	3.69
385.92	3.68
386.286	3.78
386.651	3.58
387.017	3.6
387.383	3.81
387.748	3.76
388.114	4.05
388.479	3.92
388.845	3.67
389.21	3.32
389.575	3.91
389.94	3.5
390.306	3.8
390.671	3.66
391.036	3.69
391.401	4.02
391.766	3.38
392.131	3.59
392.496	3.83
392.861	3.52
393.226	3.8
393.591	3.83
393.956	3.77
394.32	3.8
394.685	3.87
395.05	3.74
395.414	3.57
395.779	3.76
396.143	3.74
396.508	3.92
396.872	3.75
397.236	3.47
397.601	3.72
397.965	4.11
398.329	3.87
398.694	3.69
399.058	3.81
399.422	3.64
399.786	3.59
400.15	3.86
400.514	3.73
400.878	4
401.242	3.59
401.605	3.65
401.969	3.92
402.333	3.91
402.697	3.85
403.06	3.8
403.424	3.76
403.787	4.02
404.151	3.83
404.514	3.69
404.878	3.65
405.241	3.82
405.604	3.95
405.968	3.81
406.331	3.92
406.694	3.89
407.057	3.66
407.42	3.72
407.783	3.61
408.146	3.85
408.509	3.6
408.872	3.76
409.235	3.89
409.598	3.68
409.961	3.97
410.323	3.86
410.686	4.01
411.049	3.8
411.411	3.91
411.774	3.83
412.136	3.79
412.499	3.78
412.861	3.87
413.223	3.85
413.586	4.01
413.948	3.95
414.31	3.93
414.672	4.03
415.035	3.88
415.397	4.11
415.759	4.02
416.121	3.96
416.483	4.1
416.845	4.05
417.206	3.75
417.568	3.75
417.93	3.79
418.292	3.88
418.653	3.9
419.015	3.81
419.377	3.95
419.738	3.84
420.1	3.97
420.461	3.84
420.822	3.8
421.184	3.83
421.545	3.9
421.906	3.72
422.267	3.75
422.629	3.79
422.99	3.84
423.351	3.77
423.712	3.85
424.073	3.89
424.434	3.88
424.795	3.81
425.155	3.78
425.516	3.85
425.877	3.85
426.238	3.75
426.598	3.92
426.959	4.01
427.32	3.85
427.68	4.14
428.041	3.88
428.401	3.89
428.761	4.06
429.122	3.91
429.482	3.85
429.842	3.74
430.202	4.13
430.563	3.86
430.923	3.92
431.283	3.94
431.643	4.01
432.003	4.11
432.363	3.78
432.722	4
433.082	4.07
433.442	3.9
433.802	4.07
434.161	3.9
434.521	3.78
434.881	3.87
435.24	3.97
435.6	4.08
435.959	3.95
436.319	3.99
436.678	3.97
437.037	4.28
437.396	3.98
437.756	4.1
438.115	4.03
438.474	4.13
438.833	3.98
439.192	4.14
439.551	3.9
439.91	3.88
440.269	4.05
440.628	4.16
440.987	3.95
441.345	4.03
441.704	4.01
442.063	3.85
442.421	3.93
442.78	3.97
443.138	3.98
443.497	4.06
443.855	4.09
444.214	4.06
444.572	4.14
444.93	3.93
445.288	4.01
445.647	4.1
446.005	4
446.363	3.99
446.721	4.01
447.079	3.98
447.437	4.07
447.795	3.99
448.153	4.03
448.51	3.92
448.868	4.02
449.226	3.97
449.584	3.98
449.941	4.09
450.299	4.05
450.656	4.02
451.014	4.13
451.371	4.06
451.729	4.04
452.086	4.14
452.443	4.12
452.801	4
453.158	4.25
453.515	4.06
453.872	4.04
454.229	4.05
454.586	4.13
454.943	4.11
455.3	4.23
455.657	4.11
456.014	4.05
456.371	4.28
456.727	4.17
457.084	4.13
457.441	4.1
457.797	4.07
458.154	4.18
458.51	4.06
458.867	4.05
459.223	4.14
459.58	4.15
459.936	4.16
460.292	4.2
460.648	4.04
461.005	4.07
461.361	4.02
461.717	4.02
462.073	4.13
462.429	4.25
462.785	4.16
463.141	4.17
463.496	4.06
463.852	3.9
464.208	4.15
464.564	4.28
464.919	4.15
465.275	4.19
465.631	4.1
465.986	4.34
466.342	4.18
466.697	4.23
467.052	4.21
467.408	4.18
467.763	4.32
468.118	4.11
468.473	4.29
468.829	4.26
469.184	4.46
469.539	4.2
469.894	4.22
470.249	4.09
470.603	4.25
470.958	4.23
471.313	4.25
471.668	4.19
472.023	4.22
472.377	4.31
472.732	4.18
473.086	3.99
473.441	4.26
473.795	4.21
474.15	4.35
474.504	4.22
474.859	4.24
475.213	4.31
475.567	4.34
475.921	4.24
476.275	4.3
476.63	4.22
476.984	4.37
477.338	4.31
477.692	4.17
478.045	4.18
478.399	4.31
478.753	4.35
479.107	4.32
479.461	4.23
479.814	4.17
480.168	4.22
480.521	4.18
480.875	4.42
481.228	4.38
481.582	4.2
481.935	4.29
482.289	4.31
482.642	4.48
482.995	4.27
483.348	4.26
483.701	4.27
484.055	4.14
484.408	4.19
484.761	4.1
485.114	4.05
485.466	4.01
485.819	4.12
486.172	4.19
486.525	4.19
486.878	4.35
487.23	4.32
487.583	4.3
487.936	4.23
488.288	4.21
488.641	4.11
488.993	4.11
489.345	4.14
489.698	4.23
490.05	4.23
490.402	4.25
490.754	4.37
491.107	4.42
491.459	4.52
491.811	4.43
492.163	4.36
492.515	4.26
492.866	4.22
493.218	4.18
493.57	4.22
493.922	4.38
494.274	4.38
494.625	4.47
494.977	4.5
495.328	4.58
495.68	4.5
496.031	4.62
496.383	4.51
496.734	4.6
497.086	4.42
497.437	4.46
497.788	4.58
498.139	4.51
498.49	4.47
498.842	4.32
499.193	4.51
499.544	4.52
499.894	4.53
500.245	4.6
500.596	4.57
500.947	4.49
501.298	4.56
501.648	4.53
501.999	4.5
502.35	4.6
502.7	4.68
503.051	4.72
503.401	4.66
503.752	4.53
504.102	4.51
504.452	4.6
504.803	4.62
505.153	4.62
505.503	4.61
505.853	4.59
506.203	4.66
506.553	4.54
506.903	4.73
507.253	4.66
507.603	4.6
507.953	4.65
508.303	4.58
508.652	4.69
509.002	4.71
509.352	4.64
509.701	4.8
510.051	4.62
510.4	4.63
510.75	4.62
511.099	4.65
511.449	4.65
511.798	4.67
512.147	4.73
512.496	4.6
512.846	4.76
513.195	4.81
513.544	4.69
513.893	4.8
514.242	4.7
514.591	4.82
514.939	4.7
515.288	4.68
515.637	4.7
515.986	4.78
516.334	4.92
516.683	4.84
517.032	4.86
517.38	4.79
517.729	4.83
518.077	4.91
518.426	4.8
518.774	4.84
519.122	4.76
519.47	4.75
519.819	4.81
520.167	4.8
520.515	4.77
520.863	4.88
521.211	4.81
521.559	4.86
521.907	4.9
522.255	4.85
522.602	4.98
522.95	4.96
523.298	5.09
523.645	4.94
523.993	5.03
524.341	4.95
524.688	5.08
525.036	5.01
525.383	5.09
525.73	5.01
526.078	4.9
526.425	5.04
526.772	4.99
527.119	4.8
527.466	5.03
527.814	4.92
528.161	5.05
528.508	5
528.854	4.95
529.201	4.96
529.548	4.86
529.895	4.81
530.242	4.77
530.588	4.87
530.935	4.95
531.282	4.96
531.628	5.03
531.975	5.08
532.321	5.06
532.667	5.11
533.014	5.24
533.36	5.15
533.706	5.08
534.052	5.07
534.399	5.08
534.745	5.05
535.091	5.08
535.437	5.07
535.783	5.16
536.129	5.24
536.474	5.24
536.82	5.34
537.166	5.25
537.512	5.22
537.857	5.19
538.203	5.22
538.549	5.29
538.894	5.37
539.239	5.34
539.585	5.42
539.93	5.47
540.276	5.48
540.621	5.51
540.966	5.46
541.311	5.45
541.656	5.37
542.001	5.35
542.346	5.29
542.691	5.23
543.036	5.34
543.381	5.39
543.726	5.39
544.071	5.45
544.415	5.54
544.76	5.46
545.105	5.41
545.449	5.59
545.794	5.63
546.138	5.66
546.483	5.57
546.827	5.66
547.171	5.62
547.516	5.58
547.86	5.59
548.204	5.64
548.548	5.61
548.892	5.71
549.236	5.86
549.58	5.79
549.924	5.94
550.268	5.89
550.612	5.96
550.956	5.89
551.3	6.04
551.643	6.1
551.987	5.91
552.33	5.87
552.674	6.11
553.017	5.97
553.361	6.12
553.704	5.99
554.048	6.07
554.391	5.94
554.734	6.11
555.077	6.08
555.42	5.99
555.764	6.24
556.107	6.27
556.45	6.36
556.793	6.12
557.135	6.33
557.478	6.36
557.821	6.3
558.164	6.35
558.507	6.3
558.849	6.28
559.192	6.29
559.534	6.31
559.877	6.3
560.219	6.48
560.562	6.54
560.904	6.47
561.246	6.56
561.589	6.38
561.931	6.64
562.273	6.43
562.615	6.52
562.957	6.42
563.299	6.6
563.641	6.67
563.983	6.37
564.325	6.67
564.667	6.65
565.008	6.59
565.35	6.78
565.692	6.66
566.033	6.89
566.375	6.69
566.716	6.7
567.058	6.75
567.399	6.83
567.741	6.71
568.082	6.65
568.423	6.79
568.764	6.85
569.105	7.08
569.447	7.05
569.788	7.01
570.129	6.9
570.47	6.72
570.811	6.84
571.151	7.21
571.492	6.98
571.833	7.2
572.174	6.97
572.514	7.17
572.855	7.02
573.195	7.21
573.536	7.1
573.876	7.21
574.217	6.99
574.557	7.08
574.898	7.45
575.238	7.1
575.578	7.34
575.918	7.34
576.258	7.53
576.598	7.31
576.938	7.49
577.278	7.39
577.618	7.42
577.958	7.55
578.298	7.39
578.638	7.67
578.977	7.7
579.317	7.64
579.657	7.45
579.996	7.84
580.336	7.85
580.675	7.86
581.014	7.95
581.354	7.56
581.693	7.83
582.032	7.73
582.372	7.69
582.711	7.65
583.05	7.92
583.389	7.8
583.728	8.04
584.067	8.07
584.406	8
584.745	8.03
585.083	8.16
585.422	8.15
585.761	8.19
586.1	7.94
586.438	8.06
586.777	8.3
587.115	8.07
587.454	8.18
587.792	8.36
588.13	8.23
588.469	8.23
588.807	8.49
589.145	8.53
589.483	8.35
589.821	8.5
590.159	8.5
590.497	8.5
590.835	8.47
591.173	8.47
591.511	8.4
591.849	8.65
592.187	8.76
592.524	8.7
592.862	8.68
593.2	8.57
593.537	8.74
593.875	8.63
594.212	8.77
594.55	8.91
594.887	8.86
595.224	9.21
595.561	8.76
595.899	8.93
596.236	8.79
596.573	9.15
596.91	9.06
597.247	9.08
597.584	9.02
597.921	9.12
598.258	9.23
598.594	9.09
598.931	9.23
599.268	9.23
599.604	9.2
599.941	9.2
600.277	9.16
600.614	9.36
600.95	9.51
601.287	9.42
601.623	9.44
601.959	9.5
602.296	9.68
602.632	9.43
602.968	9.36
603.304	9.79
603.64	9.54
603.976	9.71
604.312	9.82
604.648	9.56
604.984	9.65
605.319	9.77
605.655	9.73
605.991	9.76
606.326	9.78
606.662	9.73
606.998	9.89
607.333	9.89
607.668	10.08
608.004	9.98
608.339	9.96
608.674	9.84
609.01	9.87
609.345	10.18
609.68	10.04
610.015	10.11
610.35	10.06
610.685	10.26
611.02	10.1
611.355	10.26
611.689	10.24
612.024	10.14
612.359	10.2
612.694	10.33
613.028	10.54
613.363	10.53
613.697	10.65
614.032	10.49
614.366	10.42
614.7	10.47
615.035	10.79
615.369	10.6
615.703	10.72
616.037	10.82
616.371	10.55
616.705	10.51
617.039	11
617.373	10.89
617.707	10.76
618.041	10.73
618.375	10.64
618.709	11.32
619.042	10.93
619.376	10.92
619.71	11.1
620.043	10.85
620.377	11.25
620.71	11.3
621.043	10.91
621.377	11.21
621.71	11.27
622.043	11.22
622.376	11.32
622.709	11.49
623.043	11.52
623.376	11.26
623.709	11.49
624.041	11.51
624.374	11.51
624.707	11.45
625.04	11.35
625.373	11.35
625.705	11.51
626.038	11.66
626.37	11.85
626.703	11.8
627.035	11.73
627.368	11.51
627.7	11.64
628.032	11.94
628.365	11.89
628.697	12.09
629.029	11.9
629.361	11.69
629.693	11.87
630.025	12.41
630.357	12.1
630.689	12.05
631.021	12.05
631.353	12.28
631.684	12.32
632.016	12.26
632.348	12.32
632.679	12.12
633.011	12.33
633.342	12
633.674	12.92
634.005	12.29
634.336	12.77
634.668	12.19
634.999	12.59
635.33	12.82
635.661	12.31
635.992	12.52
636.323	12.63
636.654	12.76
636.985	12.48
637.316	12.55
637.647	13.08
637.977	12.77
638.308	12.84
638.639	13
638.969	12.9
639.3	12.86
639.63	12.78
639.961	12.89
640.291	12.97
640.622	13.24
640.952	13.32
641.282	13.45
641.612	13.08
641.943	13.06
642.273	13.16
642.603	13.48
642.933	13.77
643.263	13.19
643.592	12.85
643.922	13.45
644.252	12.98
644.582	13.28
644.911	13.94
645.241	13.85
645.571	13.62
645.9	12.97
646.23	13.38
646.559	13.33
646.888	13.97
647.218	13.98
647.547	13.87
647.876	13.79
648.205	13.59
648.534	13.38
648.863	13.83
649.192	14.18
649.521	14.1
649.85	14.51
650.179	14.01
650.508	14.01
650.837	14.31
651.165	14.51
651.494	14.04
651.822	14.21
652.151	14.23
652.479	14.47
652.808	14.22
653.136	14.1
653.465	14.61
653.793	14.22
654.121	14.62
654.449	14.72
654.777	14.9
655.105	14.91
655.433	14.55
655.761	14.61
656.089	14.64
656.417	14.82
656.745	14.14
657.073	14.81
657.4	14.44
657.728	14.86
658.056	14.76
658.383	14.74
658.711	14.73
659.038	14.93
659.365	14.84
659.693	14.78
660.02	15.35
660.347	15.39
660.674	14.8
661.001	15.17
661.329	15.22
661.656	15.32
661.982	15.63
662.309	15.11
662.636	15.53
662.963	15.69
663.29	15.6
663.616	15.37
663.943	15.37
664.27	15.45
664.596	15.54
664.923	15.8
665.249	15.95
665.576	15.93
665.902	15.58
666.228	15.64
666.554	16.06
666.881	15.86
667.207	15.56
667.533	15.67
667.859	15.72
668.185	16.34
668.511	16.22
668.837	16.13
669.162	16.25
669.488	15.5
669.814	15.99
670.139	15.94
670.465	16.37
670.791	15.94
671.116	16.8
671.442	16.01
671.767	16.5
672.092	16.53
672.418	16.22
672.743	17.16
673.068	16.42
673.393	17.16
673.718	16.49
674.043	16.06
674.368	16.87
674.693	17.34
675.018	16.82
675.343	16.95
675.667	16.49
675.992	16.55
676.317	16.29
676.641	17.01
676.966	16.98
677.29	17.04
677.615	16.73
677.939	17.28
678.264	16.84
678.588	17.52
678.912	16.51
679.236	17.72
679.56	16.49
679.885	17.35
680.209	17.26
680.532	17.88
680.856	17.1
681.18	16.98
681.504	17.34
681.828	17.25
682.152	17.15
682.475	17.26
682.799	16.95
683.122	17.16
683.446	17.8
683.769	17.85
684.093	17.32
684.416	17.78
684.739	18.31
685.062	17.37
685.386	17.56
685.709	17.28
686.032	17.99
686.355	17.66
686.678	17.91
687.001	17.66
687.324	18.02
