Data from 0025_crown_Reflection__0__81.txt Node

Date: Thu Oct 20 20:58:35 CDT 2022
User: ToomeyLab
Spectrometer: FLMS14357
Trigger mode: 0
Integration Time (sec): 1.000000E-2
Scans to average: 100
Electric dark correction enabled: true
Nonlinearity correction enabled: false
Boxcar width: 0
XAxis mode: Wavelengths
Number of Pixels in Spectrum: 2048
>>>>>Begin Spectral Data<<<<<
189.047	325.47
189.435	325.47
189.823	325.47
190.211	25.01
190.599	4.61
190.987	-99.43
191.375	296.8
191.763	44.44
192.151	-96.62
192.538	41.53
192.926	-140.12
193.314	127.78
193.702	89.69
194.089	228.93
194.477	-54.41
194.864	-56.55
195.252	109.58
195.639	83.51
196.027	379.36
196.414	-286.97
196.801	17.87
197.189	-511.03
197.576	406.25
197.963	-2.3
198.351	-110.02
198.738	39.23
199.125	24.11
199.512	18.48
199.899	-9.41
200.286	-21.78
200.673	-11.43
201.06	5.25
201.447	8.45
201.833	79.53
202.22	7.13
202.607	19.24
202.994	15.18
203.38	6.83
203.767	-72.12
204.154	-48.59
204.54	-38.57
204.927	31.49
205.313	25.75
205.699	-20.4
206.086	-23.46
206.472	21.14
206.858	-22.92
207.245	-0.41
207.631	-15.9
208.017	36.83
208.403	13.68
208.789	-13.61
209.175	-25.97
209.561	0.5
209.947	-0.44
210.333	0.95
210.719	13.04
211.105	7.07
211.491	-20.04
211.876	-17.81
212.262	-18.96
212.648	1.12
213.034	-5.3
213.419	-37.3
213.805	-3.62
214.19	-27.91
214.576	-9.24
214.961	12.32
215.346	-15.97
215.732	-16.37
216.117	24.27
216.502	-25.05
216.888	-12.73
217.273	-18.39
217.658	-14.43
218.043	26.92
218.428	7.5
218.813	12.04
219.198	12.37
219.583	-14.89
219.968	3.68
220.353	8.74
220.738	8.89
221.122	26.68
221.507	-3.98
221.892	-2.55
222.276	9.72
222.661	-0.76
223.046	6.08
223.43	8.19
223.815	-10.33
224.199	4.24
224.583	0.33
224.968	-1.38
225.352	11.12
225.736	17.08
226.121	11.17
226.505	-1.11
226.889	5.82
227.273	9.49
227.657	8.87
228.041	4.64
228.425	5.93
228.809	6.21
229.193	5.09
229.577	6.51
229.961	6.68
230.344	6.62
230.728	6.2
231.112	6.81
231.495	5.64
231.879	6.03
232.263	7.07
232.646	7.28
233.03	5.16
233.413	6.81
233.797	5.46
234.18	5.09
234.563	7.67
234.946	6.54
235.33	5.7
235.713	6.08
236.096	5.1
236.479	5.72
236.862	5.33
237.245	4.03
237.628	7.81
238.011	6.86
238.394	5.13
238.777	6.76
239.16	3.84
239.543	4.95
239.925	7.62
240.308	7.41
240.691	5.17
241.073	6.24
241.456	4.96
241.838	6.62
242.221	5.65
242.603	5.45
242.986	5.63
243.368	6.77
243.75	6.03
244.133	6.52
244.515	6.13
244.897	6.68
245.279	6.57
245.661	6.54
246.043	5.93
246.425	6.28
246.807	6.66
247.189	5.69
247.571	6.09
247.953	5.91
248.335	6.1
248.717	6.2
249.098	6.02
249.48	6.45
249.862	6.07
250.243	6.23
250.625	5.84
251.006	7.23
251.388	5.4
251.769	6.57
252.151	6
252.532	5.61
252.913	5.53
253.295	6.14
253.676	5.76
254.057	5.82
254.438	5.86
254.819	6.32
255.2	6.52
255.581	5.75
255.962	5.13
256.343	6.76
256.724	5.06
257.105	7.4
257.486	5.04
257.867	6.37
258.247	5.29
258.628	6.01
259.009	5.12
259.389	6.17
259.77	5.94
260.15	5.39
260.531	5.6
260.911	5.45
261.292	5.36
261.672	5.47
262.052	5.52
262.432	5.56
262.813	5.63
263.193	5.8
263.573	5.54
263.953	5.78
264.333	5.22
264.713	5.74
265.093	6.28
265.473	4.44
265.853	5.23
266.233	5.25
266.612	5.53
266.992	4.96
267.372	4.68
267.752	5.21
268.131	5.16
268.511	5.68
268.89	5.07
269.27	5.06
269.649	5.44
270.029	5.95
270.408	5.23
270.787	5.37
271.167	5.1
271.546	5.33
271.925	5.67
272.304	5.04
272.683	5.33
273.062	5.43
273.441	5.12
273.82	5.68
274.199	5.19
274.578	4.69
274.957	4.81
275.336	5.05
275.715	5.17
276.093	4.91
276.472	5.41
276.851	4.48
277.229	5.34
277.608	4.9
277.986	5.42
278.365	4.92
278.743	5.04
279.122	5.13
279.5	4.96
279.878	4.75
280.257	4.43
280.635	5.06
281.013	4.55
281.391	4.77
281.769	5.04
282.147	4.65
282.525	4.85
282.903	4.63
283.281	4.65
283.659	4.98
284.037	4.99
284.415	5.23
284.792	5.03
285.17	5.05
285.548	4.46
285.925	5.01
286.303	4.84
286.68	4.88
287.058	4.82
287.435	4.94
287.813	4.3
288.19	4.59
288.567	4.39
288.945	4.99
289.322	5.04
289.699	5.11
290.076	4.98
290.453	4.81
290.83	4.41
291.207	4.7
291.584	4.89
291.961	4.73
292.338	4.83
292.715	4.96
293.092	4.55
293.469	5.07
293.845	4.49
294.222	4.84
294.599	4.86
294.975	5.15
295.352	4.15
295.728	4.33
296.105	4.5
296.481	4.75
296.858	4.93
297.234	4.52
297.61	4.39
297.986	4.28
298.363	4.45
298.739	4.61
299.115	4.59
299.491	4.69
299.867	4.54
300.243	4.78
300.619	4.63
300.995	4.53
301.371	4.14
301.746	4.73
302.122	5.14
302.498	4.73
302.874	4.32
303.249	4.32
303.625	4.42
304	4.45
304.376	5.23
304.751	4.58
305.127	4.38
305.502	4.81
305.878	4.52
306.253	4.05
306.628	4.43
307.003	4.49
307.378	4.34
307.754	4.83
308.129	4.52
308.504	4.66
308.879	4.56
309.254	4.68
309.629	4.31
310.003	4.67
310.378	4.43
310.753	4.16
311.128	4.72
311.502	4.98
311.877	4.38
312.252	4.56
312.626	4.59
313.001	4.79
313.375	4.54
313.75	4.39
314.124	4.73
314.498	4.71
314.873	4.95
315.247	4.47
315.621	4.45
315.995	4.22
316.369	4.64
316.743	4.9
317.117	4.68
317.491	4.71
317.865	4.86
318.239	4.54
318.613	3.96
318.987	4.32
319.361	4.77
319.734	4.47
320.108	3.69
320.482	4.79
320.855	4.83
321.229	4.27
321.602	4.72
321.976	5.2
322.349	4.6
322.723	4.32
323.096	4.74
323.469	4.64
323.843	3.98
324.216	4.24
324.589	3.68
324.962	4.41
325.335	4.13
325.708	4.71
326.081	4.66
326.454	4.38
326.827	3.87
327.2	4.45
327.573	4.53
327.945	4.74
328.318	4.23
328.691	4.63
329.063	4.53
329.436	4.17
329.809	5
330.181	4.49
330.553	4.1
330.926	4.05
331.298	4.33
331.671	4.24
332.043	4.74
332.415	5.12
332.787	4.54
333.159	4.88
333.532	4.39
333.904	4.8
334.276	4.63
334.648	4.47
335.02	4.35
335.391	4.38
335.763	4.36
336.135	4.88
336.507	4.68
336.879	3.87
337.25	4.84
337.622	4.59
337.993	4.05
338.365	4.3
338.736	4.37
339.108	4.9
339.479	4
339.851	5.14
340.222	4.21
340.593	4.44
340.964	5.48
341.336	4.56
341.707	4.93
342.078	4.5
342.449	4.52
342.82	4.58
343.191	5.01
343.562	4.89
343.933	4.26
344.303	4.43
344.674	4.6
345.045	5.21
345.416	4.72
345.786	4.52
346.157	4.9
346.527	4.54
346.898	4.57
347.268	4.87
347.639	4.72
348.009	4.71
348.38	4.33
348.75	4.47
349.12	5.24
349.49	4.36
349.861	4.88
350.231	4.93
350.601	4.51
350.971	4.89
351.341	4.83
351.711	4.79
352.081	4.76
352.45	4.7
352.82	4.79
353.19	4.79
353.56	4.84
353.929	5.11
354.299	4.6
354.669	4.28
355.038	4.9
355.408	4.55
355.777	4.62
356.147	4.75
356.516	4.58
356.885	4.95
357.254	4.64
357.624	4.79
357.993	5.16
358.362	4.87
358.731	4.8
359.1	4.61
359.469	4.68
359.838	4.62
360.207	4.76
360.576	4.6
360.945	4.67
361.314	5
361.682	5.04
362.051	4.52
362.42	4.75
362.788	4.33
363.157	4.92
363.525	4.82
363.894	4.84
364.262	4.91
364.631	4.54
364.999	5.01
365.367	4.82
365.735	4.71
366.104	4.82
366.472	5.04
366.84	4.95
367.208	5.14
367.576	4.96
367.944	4.85
368.312	4.86
368.68	4.97
369.048	4.93
369.416	5.09
369.783	4.77
370.151	5.1
370.519	4.93
370.886	5.07
371.254	4.8
371.621	5.06
371.989	5.28
372.356	5.17
372.724	4.91
373.091	4.7
373.458	5.07
373.826	5.19
374.193	4.7
374.56	5.12
374.927	4.82
375.294	5.19
375.661	4.74
376.028	5.04
376.395	5.17
376.762	5.01
377.129	5.01
377.496	4.83
377.863	4.97
378.229	5.19
378.596	5.01
378.963	4.71
379.329	5.02
379.696	4.98
380.062	4.75
380.429	5.02
380.795	4.81
381.161	5.23
381.528	5.01
381.894	5.07
382.26	5.06
382.626	5.09
382.993	5.12
383.359	5.28
383.725	5.63
384.091	5.1
384.457	5.18
384.823	5.31
385.188	5.15
385.554	5.26
385.92	4.91
386.286	5.24
386.651	4.97
387.017	4.98
387.383	5.24
387.748	5.34
388.114	5.15
388.479	5.15
388.845	4.96
389.21	5.14
389.575	5.37
389.94	5.04
390.306	5.55
390.671	5.12
391.036	5.56
391.401	5.46
391.766	5
392.131	5.04
392.496	5.16
392.861	5.05
393.226	5.28
393.591	5.34
393.956	5.19
394.32	5.68
394.685	5.45
395.05	5.38
395.414	5.11
395.779	5.36
396.143	5.22
396.508	5.34
396.872	5.53
397.236	5.35
397.601	5.48
397.965	5.3
398.329	5.36
398.694	5.16
399.058	5.4
399.422	5.05
399.786	5.39
400.15	5.38
400.514	5.61
400.878	5.59
401.242	5.16
401.605	5.37
401.969	5.3
402.333	5.42
402.697	5.59
403.06	5.35
403.424	5.38
403.787	5.44
404.151	5.55
404.514	5.47
404.878	5.45
405.241	5.35
405.604	5.47
405.968	5.18
406.331	5.36
406.694	5.37
407.057	5.38
407.42	5.32
407.783	5.26
408.146	5.49
408.509	5.49
408.872	5.6
409.235	5.31
409.598	5.24
409.961	5.17
410.323	5.39
410.686	5.29
411.049	5.38
411.411	5.51
411.774	5.47
412.136	5.55
412.499	5.47
412.861	5.41
413.223	5.49
413.586	5.76
413.948	5.37
414.31	5.43
414.672	5.58
415.035	5.61
415.397	5.52
415.759	5.47
416.121	5.51
416.483	5.43
416.845	5.45
417.206	5.48
417.568	5.48
417.93	5.44
418.292	5.51
418.653	5.43
419.015	5.5
419.377	5.33
419.738	5.4
420.1	5.48
420.461	5.5
420.822	5.28
421.184	5.51
421.545	5.42
421.906	5.34
422.267	5.37
422.629	5.34
422.99	5.4
423.351	5.28
423.712	5.38
424.073	5.51
424.434	5.47
424.795	5.41
425.155	5.41
425.516	5.37
425.877	5.5
426.238	5.38
426.598	5.51
426.959	5.54
427.32	5.39
427.68	5.56
428.041	5.42
428.401	5.47
428.761	5.74
429.122	5.53
429.482	5.44
429.842	5.62
430.202	5.47
430.563	5.45
430.923	5.64
431.283	5.49
431.643	5.53
432.003	5.59
432.363	5.46
432.722	5.51
433.082	5.67
433.442	5.56
433.802	5.7
434.161	5.55
434.521	5.56
434.881	5.57
435.24	5.45
435.6	5.59
435.959	5.47
436.319	5.67
436.678	5.55
437.037	5.71
437.396	5.48
437.756	5.62
438.115	5.63
438.474	5.78
438.833	5.48
439.192	5.73
439.551	5.69
439.91	5.54
440.269	5.6
440.628	5.62
440.987	5.43
441.345	5.63
441.704	5.64
442.063	5.52
442.421	5.61
442.78	5.58
443.138	5.65
443.497	5.63
443.855	5.61
444.214	5.67
444.572	5.58
444.93	5.55
445.288	5.71
445.647	5.42
446.005	5.64
446.363	5.58
446.721	5.49
447.079	5.56
447.437	5.7
447.795	5.58
448.153	5.44
448.51	5.57
448.868	5.53
449.226	5.49
449.584	5.6
449.941	5.66
450.299	5.56
450.656	5.52
451.014	5.65
451.371	5.69
451.729	5.72
452.086	5.59
452.443	5.7
452.801	5.72
453.158	5.79
453.515	5.66
453.872	5.63
454.229	5.58
454.586	5.69
454.943	5.54
455.3	5.91
455.657	5.84
456.014	5.49
456.371	5.67
456.727	5.63
457.084	5.66
457.441	5.89
457.797	5.62
458.154	5.81
458.51	5.66
458.867	5.69
459.223	5.54
459.58	5.88
459.936	5.62
460.292	5.73
460.648	5.6
461.005	5.68
461.361	5.53
461.717	5.52
462.073	5.62
462.429	5.77
462.785	5.62
463.141	5.84
463.496	5.6
463.852	5.54
464.208	5.75
464.564	5.79
464.919	5.67
465.275	5.7
465.631	5.73
465.986	5.63
466.342	5.9
466.697	5.58
467.052	5.54
467.408	5.71
467.763	5.95
468.118	5.73
468.473	5.62
468.829	5.74
469.184	5.76
469.539	5.64
469.894	5.65
470.249	5.69
470.603	5.76
470.958	5.86
471.313	5.75
471.668	5.81
472.023	5.65
472.377	5.75
472.732	5.75
473.086	5.67
473.441	5.79
473.795	5.7
474.15	5.88
474.504	5.79
474.859	5.69
475.213	5.71
475.567	5.8
475.921	5.71
476.275	5.84
476.63	5.63
476.984	6.04
477.338	5.69
477.692	5.72
478.045	5.81
478.399	5.84
478.753	5.85
479.107	5.9
479.461	5.69
479.814	5.82
480.168	5.86
480.521	5.73
480.875	5.92
481.228	5.88
481.582	5.73
481.935	5.84
482.289	5.81
482.642	5.87
482.995	5.74
483.348	5.69
483.701	5.73
484.055	5.63
484.408	5.68
484.761	5.53
485.114	5.49
485.466	5.45
485.819	5.52
486.172	5.5
486.525	5.58
486.878	5.6
487.23	5.65
487.583	5.71
487.936	5.69
488.288	5.63
488.641	5.56
488.993	5.54
489.345	5.5
489.698	5.57
490.05	5.62
490.402	5.57
490.754	5.65
491.107	5.79
491.459	5.75
491.811	5.86
492.163	5.73
492.515	5.61
492.866	5.63
493.218	5.58
493.57	5.61
493.922	5.66
494.274	5.7
494.625	5.73
494.977	5.75
495.328	5.88
495.68	5.77
496.031	5.81
496.383	5.74
496.734	5.92
497.086	5.83
497.437	5.78
497.788	5.76
498.139	5.9
498.49	5.72
498.842	5.8
499.193	5.8
499.544	5.8
499.894	5.84
500.245	5.87
500.596	5.86
500.947	5.73
501.298	5.89
501.648	5.81
501.999	5.78
502.35	5.94
502.7	5.92
503.051	5.9
503.401	5.85
503.752	5.84
504.102	5.82
504.452	6.01
504.803	5.85
505.153	5.91
505.503	5.93
505.853	5.86
506.203	5.78
506.553	5.82
506.903	5.94
507.253	5.93
507.603	5.75
507.953	5.82
508.303	5.82
508.652	5.87
509.002	5.96
509.352	5.85
509.701	6.02
510.051	5.91
510.4	5.83
510.75	5.84
511.099	5.93
511.449	5.88
511.798	5.78
512.147	5.9
512.496	5.81
512.846	5.94
513.195	5.99
513.544	5.88
513.893	5.84
514.242	5.85
514.591	5.93
514.939	5.84
515.288	5.87
515.637	6
515.986	5.87
516.334	6
516.683	6.1
517.032	5.89
517.38	5.98
517.729	5.87
518.077	5.97
518.426	5.8
518.774	5.89
519.122	6.08
519.47	5.84
519.819	5.81
520.167	5.84
520.515	5.83
520.863	5.85
521.211	5.85
521.559	5.97
521.907	5.86
522.255	5.94
522.602	5.92
522.95	5.86
523.298	5.96
523.645	5.95
523.993	5.88
524.341	5.86
524.688	6.06
525.036	5.94
525.383	6.08
525.73	5.97
526.078	5.87
526.425	5.89
526.772	5.87
527.119	5.83
527.466	5.88
527.814	5.86
528.161	5.88
528.508	5.83
528.854	5.76
529.201	5.88
529.548	5.78
529.895	5.75
530.242	5.66
530.588	5.71
530.935	5.74
531.282	5.75
531.628	5.8
531.975	5.82
532.321	5.84
532.667	5.97
533.014	5.99
533.36	5.94
533.706	5.86
534.052	5.91
534.399	5.77
534.745	5.77
535.091	5.87
535.437	5.83
535.783	5.83
536.129	5.82
536.474	5.9
536.82	5.94
537.166	5.91
537.512	5.95
537.857	5.94
538.203	5.93
538.549	5.91
538.894	5.91
539.239	5.97
539.585	6.14
539.93	5.94
540.276	6.05
540.621	6.05
540.966	6.01
541.311	6.06
541.656	5.87
542.001	5.96
542.346	5.81
542.691	5.84
543.036	5.85
543.381	5.9
543.726	5.78
544.071	5.91
544.415	5.91
544.76	5.81
545.105	5.88
545.449	6.02
545.794	5.99
546.138	5.96
546.483	6
546.827	6.04
547.171	6.04
547.516	5.85
547.86	5.89
548.204	6.04
548.548	5.99
548.892	5.98
549.236	6.04
549.58	6.03
549.924	6.07
550.268	5.98
550.612	6.03
550.956	6.07
551.3	6.12
551.643	6.09
551.987	6.09
552.33	5.83
552.674	6.24
553.017	6.27
553.361	6.13
553.704	6.19
554.048	6.07
554.391	6.05
554.734	6.06
555.077	6.1
555.42	6.14
555.764	6.18
556.107	6.01
556.45	6.2
556.793	6.06
557.135	6.36
557.478	6.13
557.821	6.26
558.164	6.25
558.507	6.2
558.849	5.97
559.192	6.16
559.534	6.22
559.877	6.02
560.219	6.01
560.562	6.1
560.904	6.15
561.246	6.12
561.589	6.19
561.931	6.19
562.273	6.06
562.615	6.17
562.957	6.11
563.299	6.14
563.641	6.16
563.983	6.01
564.325	6.19
564.667	6.09
565.008	6.03
565.35	6.09
565.692	6.06
566.033	6.24
566.375	6.19
566.716	6.08
567.058	6.07
567.399	6.27
567.741	6.05
568.082	5.99
568.423	6.11
568.764	6.02
569.105	6.22
569.447	6.3
569.788	6.08
570.129	6.09
570.47	5.95
570.811	5.99
571.151	6.24
571.492	6.09
571.833	6.05
572.174	6.11
572.514	6.35
572.855	6.27
573.195	6.28
573.536	6.04
573.876	6.12
574.217	6.16
574.557	6.11
574.898	6.15
575.238	5.96
575.578	6.03
575.918	6.12
576.258	6.2
576.598	6.23
576.938	6.17
577.278	6.05
577.618	6.1
577.958	6.2
578.298	5.97
578.638	6.27
578.977	6.1
579.317	6.25
579.657	6.16
579.996	6.25
580.336	6.13
580.675	6.09
581.014	6.28
581.354	6.07
581.693	6.01
582.032	6.13
582.372	6.03
582.711	6.17
583.05	6.16
583.389	6.33
583.728	6.03
584.067	6.02
584.406	6.11
584.745	6.18
585.083	6.11
585.422	6.28
585.761	6.15
586.1	6
586.438	6.31
586.777	6.17
587.115	6.27
587.454	6.12
587.792	6.48
588.13	6.12
588.469	6.26
588.807	6.23
589.145	6.19
589.483	6.17
589.821	6.04
590.159	6.03
590.497	6.37
590.835	6.1
591.173	6.11
591.511	6.21
591.849	6.16
592.187	6.04
592.524	6.27
592.862	6.32
593.2	6.47
593.537	6.27
593.875	6.43
594.212	6.17
594.55	6.07
594.887	6.3
595.224	6.4
595.561	5.89
595.899	5.93
596.236	6.07
596.573	6.5
596.91	6.33
597.247	6.2
597.584	6.06
597.921	6.11
598.258	6.11
598.594	6.22
598.931	6.31
599.268	6.13
599.604	6.18
599.941	6.09
600.277	6.16
600.614	6.19
600.95	6.21
601.287	6.15
601.623	6.25
601.959	6.35
602.296	6.46
602.632	6.17
602.968	6.01
603.304	6.09
603.64	6.27
603.976	6.25
604.312	6.39
604.648	6.13
604.984	6.19
605.319	6.27
605.655	6.01
605.991	6.2
606.326	6.24
606.662	6.06
606.998	6.21
607.333	6.12
607.668	6.36
608.004	6.1
608.339	6.3
608.674	6.05
609.01	6.42
609.345	6.31
609.68	6.09
610.015	6.28
610.35	6.24
610.685	6.37
611.02	6.21
611.355	6.32
611.689	6.13
612.024	6.03
612.359	5.98
612.694	6.33
613.028	6.5
613.363	6.22
613.697	6.28
614.032	6.28
614.366	6.16
614.7	6.04
615.035	6.02
615.369	5.93
615.703	6.36
616.037	6.16
616.371	6.31
616.705	6.3
617.039	6.44
617.373	6.31
617.707	6.17
618.041	6.21
618.375	6.01
618.709	6.37
619.042	6.36
619.376	6.43
619.71	6.29
620.043	5.98
620.377	6.33
620.71	6.34
621.043	5.9
621.377	6.39
621.71	6.39
622.043	5.99
622.376	6.52
622.709	6.47
623.043	6.06
623.376	6.04
623.709	6.32
624.041	6.39
624.374	6.48
624.707	6.04
625.04	6.57
625.373	6.45
625.705	6.3
626.038	6.18
626.37	6.43
626.703	6.36
627.035	6.16
627.368	6.35
627.7	6.29
628.032	6.69
628.365	6.25
628.697	6.43
629.029	6.33
629.361	6.17
629.693	6.38
630.025	6.49
630.357	6.4
630.689	6.29
631.021	5.98
631.353	6.23
631.684	6.46
632.016	6.36
632.348	6.51
632.679	6.51
633.011	6.22
633.342	6.04
633.674	6.86
634.005	6.01
634.336	6.49
634.668	5.98
634.999	6.67
635.33	6.35
635.661	6.14
635.992	6.32
636.323	6.6
636.654	6.4
636.985	6.46
637.316	5.95
637.647	6.45
637.977	6.36
638.308	6.62
638.639	6.3
638.969	6.44
639.3	6.46
639.63	6.4
639.961	6.19
640.291	6.21
640.622	6.52
640.952	6.6
641.282	6.56
641.612	6.12
641.943	6.25
642.273	6.29
642.603	6.6
642.933	6.58
643.263	6.26
643.592	6.19
643.922	6.37
644.252	5.79
644.582	6.41
644.911	6.06
645.241	6.82
645.571	6.39
645.9	6.13
646.23	6.77
646.559	6.07
646.888	6.64
647.218	6.48
647.547	6.78
647.876	6.2
648.205	6.15
648.534	6.04
648.863	6.39
649.192	6.61
649.521	6.65
649.85	6.55
650.179	6.95
650.508	6.59
650.837	6.59
651.165	6.56
651.494	6.9
651.822	6.44
652.151	6.6
652.479	6.8
652.808	6.51
653.136	6.4
653.465	6.36
653.793	6.37
654.121	6.35
654.449	6.58
654.777	6.78
655.105	6.57
655.433	6.17
655.761	5.95
656.089	6.64
656.417	6.74
656.745	6.49
657.073	6.61
657.4	6.59
657.728	6.36
658.056	6.19
658.383	6.84
658.711	6.43
659.038	6.67
659.365	6.57
659.693	6.35
660.02	6.35
660.347	7.23
660.674	6.59
661.001	6.67
661.329	6.65
661.656	6.86
661.982	6.8
662.309	6.76
662.636	6.52
662.963	6.83
663.29	7.11
663.616	6.72
663.943	6.62
664.27	7.18
664.596	6.46
664.923	6.72
665.249	6.1
665.576	7.15
665.902	7.08
666.228	7.06
666.554	6.55
666.881	7.33
667.207	6.63
667.533	7.03
667.859	6.21
668.185	7.18
668.511	5.98
668.837	6.37
669.162	6.46
669.488	6.57
669.814	6.61
670.139	6.4
670.465	6.88
670.791	6.44
671.116	7.19
671.442	5.93
671.767	6.72
672.092	6.76
672.418	6.41
672.743	7.09
673.068	7.06
673.393	7.44
673.718	6.44
674.043	6.65
674.368	6.91
674.693	7.39
675.018	6.84
675.343	7.14
675.667	7.14
675.992	6.76
676.317	6.77
676.641	7.39
676.966	6.93
677.29	6.44
677.615	6.89
677.939	6.36
678.264	6.96
678.588	7.05
678.912	6.91
679.236	7.06
679.56	6.47
679.885	6.98
680.209	7.08
680.532	7.16
680.856	6.96
681.18	6.76
681.504	6.89
681.828	7.02
682.152	6.87
682.475	7.28
682.799	6.33
683.122	6.45
683.446	6.45
683.769	6.71
684.093	6.87
684.416	7.24
684.739	6.93
685.062	6.34
685.386	6.9
685.709	6.74
686.032	6.99
686.355	7.13
686.678	6.48
687.001	6.79
687.324	7.21
687.646	7.22
687.969	7.31
688.292	7.36
688.614	7.24
688.937	7.7
689.26	7.31
689.582	7.25
689.904	6.89
690.227	6.9
690.549	7.15
690.871	7.45
691.194	7.81
691.516	6.4
691.838	7.44
692.16	7.45
