Data from 0025_crown_Reflection__1__82.txt Node

Date: Thu Oct 20 20:58:45 CDT 2022
User: ToomeyLab
Spectrometer: FLMS14357
Trigger mode: 0
Integration Time (sec): 1.000000E-2
Scans to average: 100
Electric dark correction enabled: true
Nonlinearity correction enabled: false
Boxcar width: 0
XAxis mode: Wavelengths
Number of Pixels in Spectrum: 2048
>>>>>Begin Spectral Data<<<<<
189.047	284.36
189.435	284.36
189.823	284.36
190.211	39.64
190.599	33.66
190.987	860.11
191.375	221.74
191.763	-496.91
192.151	173.18
192.538	540.84
192.926	86.57
193.314	139.23
193.702	82.21
194.089	129.42
194.477	63.61
194.864	-28.83
195.252	82.09
195.639	43.56
196.027	47.46
196.414	-377.07
196.801	92.07
197.189	-647.24
197.576	156.38
197.963	-44.48
198.351	-12.85
198.738	-10.63
199.125	27.71
199.512	-12.8
199.899	-7.02
200.286	4.73
200.673	20.96
201.06	39.27
201.447	-15.95
201.833	28.55
202.22	9.09
202.607	8.29
202.994	7.14
203.38	-21.81
203.767	12.7
204.154	-9.01
204.54	-46.95
204.927	8.82
205.313	-18.84
205.699	27.25
206.086	-19.1
206.472	33.82
206.858	-8.77
207.245	9.81
207.631	7.31
208.017	8.85
208.403	11.86
208.789	-12.55
209.175	-11.19
209.561	5.32
209.947	18.18
210.333	-16.36
210.719	7.58
211.105	-5.16
211.491	-6.64
211.876	-10.89
212.262	-11.99
212.648	-37.5
213.034	3.47
213.419	-31.33
213.805	-28.55
214.19	-28.37
214.576	-2.98
214.961	25.75
215.346	-14.62
215.732	-20.19
216.117	5.91
216.502	-48.9
216.888	-19.13
217.273	12.01
217.658	-14.73
218.043	28.31
218.428	-9.02
218.813	-4.57
219.198	7.15
219.583	-11.31
219.968	4.95
220.353	3.77
220.738	-0.42
221.122	6.82
221.507	10.39
221.892	-4.37
222.276	5.69
222.661	3.79
223.046	10.03
223.43	-1.52
223.815	4.99
224.199	10.58
224.583	2.54
224.968	0.16
225.352	7.36
225.736	10.48
226.121	9.37
226.505	6.54
226.889	2.24
227.273	12.84
227.657	7.44
228.041	6.82
228.425	7.39
228.809	9.17
229.193	5.38
229.577	9.58
229.961	8.76
230.344	9.35
230.728	8.42
231.112	9.18
231.495	8.48
231.879	7.52
232.263	8.15
232.646	9.63
233.03	7.64
233.413	8.53
233.797	6.21
234.18	8.09
234.563	8.72
234.946	7.36
235.33	7.56
235.713	9.13
236.096	7.59
236.479	8.32
236.862	6.63
237.245	6.64
237.628	8.41
238.011	8.69
238.394	6.04
238.777	5
239.16	6.16
239.543	7.52
239.925	10.25
240.308	8.11
240.691	8.13
241.073	8.15
241.456	7.13
241.838	8.2
242.221	7.78
242.603	7.91
242.986	7.96
243.368	7.97
243.75	8.27
244.133	8.03
244.515	8.04
244.897	7.5
245.279	7.75
245.661	8.19
246.043	8.51
246.425	8.26
246.807	7.57
247.189	7.8
247.571	8.1
247.953	7.78
248.335	7.71
248.717	7.89
249.098	7.7
249.48	7.52
249.862	7.6
250.243	7.63
250.625	7.61
251.006	8.22
251.388	7.05
251.769	7.88
252.151	7.23
252.532	7.43
252.913	7.27
253.295	7.71
253.676	7.77
254.057	7.56
254.438	7.16
254.819	6.47
255.2	7.6
255.581	6.75
255.962	5.62
256.343	7.11
256.724	7.51
257.105	7.9
257.486	7.17
257.867	7.78
258.247	6.9
258.628	7.53
259.009	7.39
259.389	7.82
259.77	7.11
260.15	7.25
260.531	7.41
260.911	7.24
261.292	7.21
261.672	6.87
262.052	7.02
262.432	7.1
262.813	6.99
263.193	7.3
263.573	7.31
263.953	7.29
264.333	6.98
264.713	7.69
265.093	7.21
265.473	6.42
265.853	6.49
266.233	6.92
266.612	6.03
266.992	5.68
267.372	6.86
267.752	7.19
268.131	6.3
268.511	7.2
268.89	6.71
269.27	6.41
269.649	7.11
270.029	7.11
270.408	6.93
270.787	6.34
271.167	7.2
271.546	6.39
271.925	6.82
272.304	6.87
272.683	6.59
273.062	6.66
273.441	6.74
273.82	6.94
274.199	6.4
274.578	6.3
274.957	6.33
275.336	6.74
275.715	6.5
276.093	6.76
276.472	6.59
276.851	6.06
277.229	6.73
277.608	6.21
277.986	6.22
278.365	6.32
278.743	6.87
279.122	6.37
279.5	6.75
279.878	6.67
280.257	6.01
280.635	6.84
281.013	6.48
281.391	6.36
281.769	6.22
282.147	6.9
282.525	6.46
282.903	6.2
283.281	6.4
283.659	6.17
284.037	6.15
284.415	6.45
284.792	6.24
285.17	6.63
285.548	6.05
285.925	6.52
286.303	6.32
286.68	6.75
287.058	6.25
287.435	6.5
287.813	6.29
288.19	6.45
288.567	6.16
288.945	6.42
289.322	6.31
289.699	6.72
290.076	5.76
290.453	6.2
290.83	6.32
291.207	6.12
291.584	6.34
291.961	5.72
292.338	6.55
292.715	6.25
293.092	6.03
293.469	6.39
293.845	6.1
294.222	6.34
294.599	6.18
294.975	6.32
295.352	6.11
295.728	5.8
296.105	6.22
296.481	6.09
296.858	6.82
297.234	5.95
297.61	6.07
297.986	6.14
298.363	6.31
298.739	6.05
299.115	6.07
299.491	6.28
299.867	6.06
300.243	6.17
300.619	6.19
300.995	6.4
301.371	6.25
301.746	6.27
302.122	6.65
302.498	6.45
302.874	5.75
303.249	6.13
303.625	6.3
304	6.11
304.376	6.78
304.751	6.4
305.127	6.45
305.502	6.17
305.878	6.05
306.253	5.91
306.628	6
307.003	6.25
307.378	5.91
307.754	6.35
308.129	6.23
308.504	6.53
308.879	6.13
309.254	5.98
309.629	6.36
310.003	6.1
310.378	5.88
310.753	6.25
311.128	6.08
311.502	6.32
311.877	6.15
312.252	6.44
312.626	6.34
313.001	6.47
313.375	6.18
313.75	6.39
314.124	6.48
314.498	6.16
314.873	6.41
315.247	5.84
315.621	5.95
315.995	6.3
316.369	5.96
316.743	6.42
317.117	6.25
317.491	6.35
317.865	6.48
318.239	5.71
318.613	5.82
318.987	6.32
319.361	6.15
319.734	5.7
320.108	6.37
320.482	6.17
320.855	6.35
321.229	5.64
321.602	6.47
321.976	6.92
322.349	5.91
322.723	6.23
323.096	6.35
323.469	6.14
323.843	5.87
324.216	6.01
324.589	5.95
324.962	6.11
325.335	5.69
325.708	6.23
326.081	6.23
326.454	6.01
326.827	5.9
327.2	6.53
327.573	6.29
327.945	6.2
328.318	5.94
328.691	6.39
329.063	5.78
329.436	6.06
329.809	6.32
330.181	6.03
330.553	5.66
330.926	6.09
331.298	6.13
331.671	5.63
332.043	6.73
332.415	6.6
332.787	6.65
333.159	6.35
333.532	6.14
333.904	6.44
334.276	6.04
334.648	5.62
335.02	6.16
335.391	6.03
335.763	6.18
336.135	6.38
336.507	5.76
336.879	5.7
337.25	6.27
337.622	5.98
337.993	6
338.365	6.03
338.736	6.19
339.108	6.68
339.479	5.79
339.851	6.7
340.222	6.11
340.593	6.31
340.964	6.79
341.336	6.48
341.707	5.85
342.078	6.29
342.449	6.57
342.82	6.46
343.191	6.75
343.562	6.81
343.933	6.17
344.303	6.25
344.674	6.46
345.045	6.46
345.416	6.21
345.786	6.71
346.157	6.41
346.527	6.09
346.898	6.39
347.268	6.61
347.639	5.97
348.009	6.75
348.38	5.96
348.75	6.25
349.12	6.46
349.49	6.12
349.861	6.98
350.231	6.17
350.601	6.47
350.971	6.26
351.341	6.61
351.711	6.33
352.081	6.79
352.45	6.22
352.82	6.31
353.19	6.48
353.56	6.52
353.929	6.56
354.299	6.14
354.669	6.39
355.038	6.61
355.408	6.22
355.777	6.26
356.147	6.38
356.516	6.39
356.885	6.62
357.254	6.41
357.624	6.38
357.993	6.77
358.362	6.46
358.731	6.45
359.1	6.42
359.469	6.52
359.838	6.32
360.207	6.52
360.576	6.56
360.945	6.32
361.314	6.64
361.682	6.9
362.051	6.45
362.42	6.6
362.788	6.22
363.157	6.59
363.525	6.51
363.894	6.58
364.262	6.73
364.631	6.32
364.999	6.67
365.367	6.51
365.735	6.36
366.104	6.77
366.472	6.46
366.84	6.88
367.208	6.94
367.576	7
367.944	6.5
368.312	6.56
368.68	6.33
369.048	6.53
369.416	6.62
369.783	6.53
370.151	6.48
370.519	6.32
370.886	6.62
371.254	7.01
371.621	6.4
371.989	6.78
372.356	6.8
372.724	6.41
373.091	6.66
373.458	6.59
373.826	6.73
374.193	6.39
374.56	6.7
374.927	6.58
375.294	6.51
375.661	6.65
376.028	6.91
376.395	6.65
376.762	6.82
377.129	6.66
377.496	6.51
377.863	6.57
378.229	6.84
378.596	6.53
378.963	6.59
379.329	6.88
379.696	6.7
380.062	6.78
380.429	6.82
380.795	6.52
381.161	6.85
381.528	6.75
381.894	6.85
382.26	6.83
382.626	6.74
382.993	6.76
383.359	6.72
383.725	7.15
384.091	6.77
384.457	6.69
384.823	6.7
385.188	6.76
385.554	6.83
385.92	6.46
386.286	7.02
386.651	6.89
387.017	6.84
387.383	6.76
387.748	6.51
388.114	6.92
388.479	6.9
388.845	6.79
389.21	6.6
389.575	6.97
389.94	6.85
390.306	6.96
390.671	7
391.036	7.09
391.401	7.19
391.766	6.77
392.131	6.82
392.496	6.89
392.861	6.85
393.226	6.7
393.591	7.15
393.956	6.82
394.32	7.09
394.685	7.02
395.05	7.08
395.414	6.88
395.779	6.84
396.143	6.97
396.508	7.17
396.872	7
397.236	6.7
397.601	7.25
397.965	7.11
398.329	6.89
398.694	6.75
399.058	7.08
399.422	6.75
399.786	7.04
400.15	6.99
400.514	7.16
400.878	7.15
401.242	7.07
401.605	7.02
401.969	6.88
402.333	6.84
402.697	7.07
403.06	6.85
403.424	6.76
403.787	7.04
404.151	6.98
404.514	7.16
404.878	7.03
405.241	6.98
405.604	7.02
405.968	6.71
406.331	7.16
406.694	7
407.057	6.81
407.42	6.83
407.783	6.75
408.146	7.06
408.509	6.97
408.872	7.15
409.235	7.01
409.598	6.9
409.961	6.92
410.323	6.97
410.686	7.2
411.049	7
411.411	7.14
411.774	7.09
412.136	7.04
412.499	7.12
412.861	7.03
413.223	7.16
413.586	7.17
413.948	7.11
414.31	7.12
414.672	6.87
415.035	6.96
415.397	7.17
415.759	7.23
416.121	7.08
416.483	7.05
416.845	7.1
417.206	6.89
417.568	7.15
417.93	7.03
418.292	7.13
418.653	6.99
419.015	7.26
419.377	7.05
419.738	6.93
420.1	6.92
420.461	7.01
420.822	6.97
421.184	7.04
421.545	6.91
421.906	6.84
422.267	6.88
422.629	6.81
422.99	6.81
423.351	6.78
423.712	6.79
424.073	6.9
424.434	7.05
424.795	6.91
425.155	6.79
425.516	6.88
425.877	6.93
426.238	6.86
426.598	6.85
426.959	7.11
427.32	6.93
427.68	7.08
428.041	6.84
428.401	7.04
428.761	6.99
429.122	6.95
429.482	7.07
429.842	7.19
430.202	7.13
430.563	7
430.923	7.04
431.283	7.04
431.643	6.97
432.003	7.25
432.363	6.99
432.722	6.86
433.082	7.06
433.442	7
433.802	7.03
434.161	7.08
434.521	6.91
434.881	7.03
435.24	7.09
435.6	7.08
435.959	7.07
436.319	7.08
436.678	7.01
437.037	7.12
437.396	6.88
437.756	7.07
438.115	7.09
438.474	7.15
438.833	7.03
439.192	7.17
439.551	6.94
439.91	7.03
440.269	6.94
440.628	7.07
440.987	7.11
441.345	7.07
441.704	6.97
442.063	6.95
442.421	6.95
442.78	6.92
443.138	7.04
443.497	7
443.855	7.15
444.214	7.04
444.572	6.97
444.93	6.92
445.288	7.01
445.647	7.05
446.005	7.08
446.363	6.84
446.721	7
447.079	6.96
447.437	6.97
447.795	7.02
448.153	6.98
448.51	6.96
448.868	6.9
449.226	6.87
449.584	6.91
449.941	7.02
450.299	6.92
450.656	7.05
451.014	7.07
451.371	6.93
451.729	7.08
452.086	7.07
452.443	7.21
452.801	7.09
453.158	7.1
453.515	6.94
453.872	6.96
454.229	6.98
454.586	7.01
454.943	7.01
455.3	7.12
455.657	7.08
456.014	6.97
456.371	6.93
456.727	7.07
457.084	6.92
457.441	7.21
457.797	7.02
458.154	7.1
458.51	7.2
458.867	6.9
459.223	6.96
459.58	7.06
459.936	7.04
460.292	7.06
460.648	6.95
461.005	7.07
461.361	6.91
461.717	6.84
462.073	6.88
462.429	7.11
462.785	7.01
463.141	7.1
463.496	6.91
463.852	6.86
464.208	7.08
464.564	7.04
464.919	7.17
465.275	7.18
465.631	6.96
465.986	6.93
466.342	7.05
466.697	7.05
467.052	7.17
467.408	6.88
467.763	7.03
468.118	6.97
468.473	7.07
468.829	6.92
469.184	7.2
469.539	6.85
469.894	6.92
470.249	6.92
470.603	7.03
470.958	7.09
471.313	6.94
471.668	7.03
472.023	7.05
472.377	7.19
472.732	6.93
473.086	7.02
473.441	6.87
473.795	6.93
474.15	7.06
474.504	6.92
474.859	7.06
475.213	7.04
475.567	7.1
475.921	6.88
476.275	7.05
476.63	6.83
476.984	6.96
477.338	7.11
477.692	7.08
478.045	6.91
478.399	6.87
478.753	7.02
479.107	6.98
479.461	6.93
479.814	7.02
480.168	6.88
480.521	6.94
480.875	6.99
481.228	6.98
481.582	7.13
481.935	6.91
482.289	6.87
482.642	7.07
482.995	7.06
483.348	6.86
483.701	6.85
484.055	6.76
484.408	6.84
484.761	6.68
485.114	6.67
485.466	6.6
485.819	6.64
486.172	6.65
486.525	6.64
486.878	6.75
487.23	6.77
487.583	6.77
487.936	6.79
488.288	6.74
488.641	6.73
488.993	6.65
489.345	6.65
489.698	6.72
490.05	6.71
490.402	6.75
490.754	6.74
491.107	6.88
491.459	6.99
491.811	6.89
492.163	6.83
492.515	6.7
492.866	6.69
493.218	6.7
493.57	6.73
493.922	6.81
494.274	6.85
494.625	6.83
494.977	6.94
495.328	6.94
495.68	6.89
496.031	6.97
496.383	7.02
496.734	6.92
497.086	6.95
497.437	7.06
497.788	7.02
498.139	6.88
498.49	6.82
498.842	6.97
499.193	6.89
499.544	6.99
499.894	6.97
500.245	6.81
500.596	6.89
500.947	6.74
501.298	6.95
501.648	6.85
501.999	6.83
502.35	7.05
502.7	6.99
503.051	7.08
503.401	6.96
503.752	6.96
504.102	6.88
504.452	7.03
504.803	6.94
505.153	7.02
505.503	6.92
505.853	6.91
506.203	6.95
506.553	6.9
506.903	7.07
507.253	7.02
507.603	6.86
507.953	6.87
508.303	6.91
508.652	6.88
509.002	6.87
509.352	6.92
509.701	7.05
510.051	6.89
510.4	6.9
510.75	6.94
511.099	6.92
511.449	6.75
511.798	6.84
512.147	6.89
512.496	6.95
512.846	6.94
513.195	6.9
513.544	6.91
513.893	6.9
514.242	6.94
514.591	6.93
514.939	6.86
515.288	6.88
515.637	6.87
515.986	6.9
516.334	6.76
516.683	6.97
517.032	7.02
517.38	6.87
517.729	6.87
518.077	6.93
518.426	6.88
518.774	6.77
519.122	6.88
519.47	6.88
519.819	6.77
520.167	6.78
520.515	6.76
520.863	6.87
521.211	6.72
521.559	6.84
521.907	6.91
522.255	6.86
522.602	6.78
522.95	6.72
523.298	7.04
523.645	6.86
523.993	6.94
524.341	6.87
524.688	6.87
525.036	6.96
525.383	6.96
525.73	6.84
526.078	6.82
526.425	6.81
526.772	6.81
527.119	6.66
527.466	6.79
527.814	6.74
528.161	6.83
528.508	6.8
528.854	6.63
529.201	6.73
529.548	6.65
529.895	6.55
530.242	6.6
530.588	6.58
530.935	6.65
531.282	6.61
531.628	6.63
531.975	6.64
532.321	6.72
532.667	6.84
533.014	6.79
533.36	6.84
533.706	6.79
534.052	6.65
534.399	6.68
534.745	6.63
535.091	6.71
535.437	6.73
535.783	6.7
536.129	6.66
536.474	6.81
536.82	6.84
537.166	6.73
537.512	6.77
537.857	6.66
538.203	6.8
538.549	6.78
538.894	6.76
539.239	6.74
539.585	6.89
539.93	6.86
540.276	6.86
540.621	6.9
540.966	6.72
541.311	6.87
541.656	6.79
542.001	6.71
542.346	6.61
542.691	6.57
543.036	6.66
543.381	6.65
543.726	6.66
544.071	6.69
544.415	6.74
544.76	6.64
545.105	6.7
545.449	6.8
545.794	6.84
546.138	6.79
546.483	6.77
546.827	6.81
547.171	6.82
547.516	6.7
547.86	6.76
548.204	6.92
548.548	6.72
548.892	6.75
549.236	6.8
549.58	6.92
549.924	6.86
550.268	6.82
550.612	6.89
550.956	6.85
551.3	6.97
551.643	6.77
551.987	6.88
552.33	6.87
552.674	6.92
553.017	6.76
553.361	6.84
553.704	6.99
554.048	6.75
554.391	6.73
554.734	6.78
555.077	6.81
555.42	6.82
555.764	6.89
556.107	6.89
556.45	6.84
556.793	6.8
557.135	6.97
557.478	6.9
557.821	6.73
558.164	6.91
558.507	7.05
558.849	6.71
559.192	6.82
559.534	6.88
559.877	6.76
560.219	6.69
560.562	6.9
560.904	6.71
561.246	6.81
561.589	6.93
561.931	6.99
562.273	6.75
562.615	6.79
562.957	6.8
563.299	6.86
563.641	6.87
563.983	6.7
564.325	6.88
564.667	6.84
565.008	6.87
565.35	6.89
565.692	6.77
566.033	6.91
566.375	6.77
566.716	6.74
567.058	6.83
567.399	6.87
567.741	6.81
568.082	6.69
568.423	6.66
568.764	6.71
569.105	6.79
569.447	6.94
569.788	6.79
570.129	6.88
570.47	6.55
570.811	6.77
571.151	6.8
571.492	6.8
571.833	6.85
572.174	6.63
572.514	6.98
572.855	6.63
573.195	6.88
573.536	6.78
573.876	6.84
574.217	6.83
574.557	6.85
574.898	6.79
575.238	6.83
575.578	6.63
575.918	6.79
576.258	6.76
576.598	6.69
576.938	6.93
577.278	6.82
577.618	6.72
577.958	6.7
578.298	6.56
578.638	6.67
578.977	6.79
579.317	6.81
579.657	6.61
579.996	6.6
580.336	6.59
580.675	6.79
581.014	6.82
581.354	6.67
581.693	6.69
582.032	6.67
582.372	6.63
582.711	6.59
583.05	6.91
583.389	6.6
583.728	6.81
584.067	6.64
584.406	6.95
584.745	6.74
585.083	6.66
585.422	6.86
585.761	6.81
586.1	6.78
586.438	6.88
586.777	6.69
587.115	6.7
587.454	6.66
587.792	6.91
588.13	6.81
588.469	7.01
588.807	6.79
589.145	6.82
589.483	6.76
589.821	6.68
590.159	6.6
590.497	6.74
590.835	6.85
591.173	6.68
591.511	6.52
591.849	6.78
592.187	6.82
592.524	6.98
592.862	6.59
593.2	6.74
593.537	6.88
593.875	6.76
594.212	6.62
594.55	6.76
594.887	6.89
595.224	6.85
595.561	6.49
595.899	6.67
596.236	6.69
596.573	6.76
596.91	6.71
597.247	6.74
597.584	6.55
597.921	6.74
598.258	6.79
598.594	6.81
598.931	6.78
599.268	6.6
599.604	6.64
599.941	6.63
600.277	6.76
600.614	6.79
600.95	6.86
601.287	6.81
601.623	6.58
601.959	6.7
602.296	6.85
602.632	6.7
602.968	6.84
603.304	6.65
603.64	6.62
603.976	6.71
604.312	6.88
604.648	6.61
604.984	6.71
605.319	6.74
605.655	6.65
605.991	6.72
606.326	6.61
606.662	6.65
606.998	6.69
607.333	6.72
607.668	6.92
608.004	6.64
608.339	6.5
608.674	6.56
609.01	6.62
609.345	6.64
609.68	6.71
610.015	7
610.35	6.61
610.685	6.8
611.02	6.76
611.355	6.81
611.689	6.78
612.024	6.55
612.359	6.42
612.694	6.62
613.028	6.91
613.363	6.68
613.697	6.73
614.032	6.7
614.366	6.61
614.7	6.74
615.035	6.78
615.369	6.26
615.703	6.69
616.037	6.54
616.371	6.65
616.705	6.76
617.039	6.81
617.373	6.62
617.707	6.44
618.041	6.72
618.375	6.26
618.709	6.96
619.042	6.86
619.376	6.94
619.71	6.95
620.043	6.34
620.377	6.85
620.71	6.72
621.043	6.4
621.377	6.54
621.71	6.56
622.043	6.37
622.376	6.71
622.709	6.88
623.043	6.4
623.376	6.57
623.709	6.63
624.041	6.87
624.374	6.62
624.707	6.76
625.04	6.53
625.373	6.51
625.705	6.59
626.038	6.53
626.37	7.22
626.703	6.74
627.035	6.47
627.368	6.72
627.7	6.49
628.032	6.95
628.365	6.98
628.697	6.78
629.029	6.92
629.361	6.33
629.693	6.71
630.025	7.04
630.357	6.74
630.689	6.62
631.021	6.55
631.353	6.66
631.684	6.49
632.016	6.9
632.348	6.61
632.679	6.57
633.011	6.72
633.342	6.44
633.674	7.09
634.005	6.23
634.336	7.08
634.668	6.34
634.999	6.92
635.33	6.92
635.661	7.03
635.992	6.9
636.323	7.01
636.654	6.76
636.985	6.87
637.316	6.78
637.647	6.95
637.977	6.63
638.308	7.06
638.639	6.71
638.969	6.51
639.3	6.61
639.63	7.02
639.961	6.59
640.291	6.43
640.622	6.64
640.952	7.05
641.282	6.9
641.612	6.4
641.943	6.92
642.273	6.91
642.603	6.72
642.933	7.01
643.263	6.83
643.592	6.48
643.922	6.56
644.252	6.9
644.582	6.78
644.911	7.06
645.241	7.11
645.571	6.8
645.9	6.35
646.23	6.7
646.559	6.47
646.888	6.81
647.218	7.04
647.547	6.99
647.876	6.88
648.205	6.65
648.534	6.48
648.863	6.83
649.192	6.85
649.521	6.91
649.85	7
650.179	6.73
650.508	6.87
650.837	6.97
651.165	6.8
651.494	6.8
651.822	6.62
652.151	6.61
652.479	7.24
652.808	7.07
653.136	6.64
653.465	6.59
653.793	6.86
654.121	6.83
654.449	6.95
654.777	6.96
655.105	6.89
655.433	6.72
655.761	6.73
656.089	6.8
656.417	6.87
656.745	6.6
657.073	7.08
657.4	7.2
657.728	6.98
658.056	6.65
658.383	7.09
658.711	6.44
659.038	7.22
659.365	6.76
659.693	6.5
660.02	6.8
660.347	7.19
660.674	7.03
661.001	7.19
661.329	7.05
661.656	6.99
661.982	6.82
662.309	7.01
662.636	7.2
662.963	7.02
663.29	7.14
663.616	6.54
663.943	7.01
664.27	7.11
664.596	6.57
664.923	6.23
665.249	6.95
665.576	7.1
665.902	7.16
666.228	6.7
666.554	6.93
666.881	7.25
667.207	7.39
667.533	7.01
667.859	6.08
668.185	6.98
668.511	6.35
668.837	6.46
669.162	6.01
669.488	6.81
669.814	7.04
670.139	6.65
670.465	7.12
670.791	6.97
671.116	7.09
671.442	6.06
671.767	7.18
672.092	7.23
672.418	7.03
672.743	6.86
673.068	7.47
673.393	7.88
673.718	6.98
674.043	6.94
674.368	7.17
674.693	6.99
675.018	7.11
675.343	6.79
675.667	7.27
675.992	7.14
676.317	7.49
676.641	7.28
676.966	6.68
677.29	7.25
677.615	6.41
677.939	6.96
678.264	7.36
678.588	7.05
678.912	7.01
679.236	7.34
679.56	6.85
679.885	7.1
680.209	6.7
680.532	6.86
680.856	7.18
681.18	6.9
681.504	7
681.828	6.8
682.152	7.19
682.475	6.95
682.799	6.44
683.122	6.57
683.446	6.78
683.769	7.45
684.093	7.09
684.416	7.71
684.739	7.08
685.062	6.72
685.386	6.89
685.709	6.57
686.032	6.89
686.355	6.66
686.678	7.23
687.001	7.39
687.324	7.85
687.646	7.14
687.969	8.28
688.292	7.19
688.614	7.53
688.937	7.58
689.26	7.46
689.582	7.02
689.904	7.14
690.227	7.56
690.549	7.12
690.871	7.85
691.194	7.28
691.516	7.19
691.838	7.01
692.16	7.4
692.482	6.54
692.804	6.67
