Data from 0025_forehead_Reflection__0__86.txt Node

Date: Thu Oct 20 20:59:54 CDT 2022
User: ToomeyLab
Spectrometer: FLMS14357
Trigger mode: 0
Integration Time (sec): 1.000000E-2
Scans to average: 100
Electric dark correction enabled: true
Nonlinearity correction enabled: false
Boxcar width: 0
XAxis mode: Wavelengths
Number of Pixels in Spectrum: 2048
>>>>>Begin Spectral Data<<<<<
189.047	4.32
189.435	4.32
189.823	4.32
190.211	105.54
190.599	77.13
190.987	1835.33
191.375	214.34
191.763	-273.44
192.151	85.08
192.538	-187.01
192.926	-426.7
193.314	89.56
193.702	82.96
194.089	216.22
194.477	-49.49
194.864	31.95
195.252	83.77
195.639	98.9
196.027	236.41
196.414	146.27
196.801	19.36
197.189	-811.99
197.576	92
197.963	-0.23
198.351	-57.62
198.738	-7.34
199.125	38.17
199.512	-10.65
199.899	-2.54
200.286	-1.15
200.673	23.57
201.06	13.6
201.447	15.16
201.833	62.25
202.22	-33.56
202.607	26.09
202.994	26.01
203.38	-5.39
203.767	9.6
204.154	-18.48
204.54	-10.24
204.927	5.19
205.313	24.27
205.699	1.48
206.086	-26.58
206.472	42.15
206.858	-7.18
207.245	1.02
207.631	-22.38
208.017	16.42
208.403	12.13
208.789	-62.54
209.175	-25.7
209.561	-1.21
209.947	2.75
210.333	-5.54
210.719	11.87
211.105	-6.56
211.491	-13.93
211.876	-9.36
212.262	37.01
212.648	-38.86
213.034	-12.71
213.419	-10.23
213.805	-24.15
214.19	-18.04
214.576	25.53
214.961	17.77
215.346	-12.14
215.732	-7.69
216.117	23.45
216.502	-24.09
216.888	12.92
217.273	12.79
217.658	-14.72
218.043	27.67
218.428	-8.59
218.813	-11.86
219.198	11.4
219.583	-3.32
219.968	8.32
220.353	-7.48
220.738	-1.01
221.122	15.38
221.507	-2.89
221.892	-4.02
222.276	2.4
222.661	-5.54
223.046	15.16
223.43	7.97
223.815	-9.03
224.199	3.37
224.583	9.82
224.968	3.32
225.352	10.39
225.736	10.96
226.121	5.36
226.505	-1.67
226.889	1.04
227.273	7.72
227.657	2.73
228.041	-1.28
228.425	0.69
228.809	3.25
229.193	1.88
229.577	2.81
229.961	3.31
230.344	3.33
230.728	2.91
231.112	2.96
231.495	3.32
231.879	4.23
232.263	2.34
232.646	3.08
233.03	1.91
233.413	4.02
233.797	2.66
234.18	3.56
234.563	3.22
234.946	3.07
235.33	2.92
235.713	2.87
236.096	2.82
236.479	3.88
236.862	0.83
237.245	2.04
237.628	3.62
238.011	3.92
238.394	4.53
238.777	2.21
239.16	0.88
239.543	2.23
239.925	2.37
240.308	3.67
240.691	3.81
241.073	4.52
241.456	3.46
241.838	3.66
242.221	3.36
242.603	3.56
242.986	3.56
243.368	4.12
243.75	3.84
244.133	3.16
244.515	3.49
244.897	3.99
245.279	4.18
245.661	4.59
246.043	3.91
246.425	4.26
246.807	3.49
247.189	3.63
247.571	4.36
247.953	3.95
248.335	4.21
248.717	4.11
249.098	4.14
249.48	4.09
249.862	3.88
250.243	4.46
250.625	3.55
251.006	4.77
251.388	3.4
251.769	5.52
252.151	4.67
252.532	4.88
252.913	3.97
253.295	4.79
253.676	4.99
254.057	4.13
254.438	3.68
254.819	4.02
255.2	4.63
255.581	4.69
255.962	3.09
256.343	5.06
256.724	3.34
257.105	5.58
257.486	4.91
257.867	4.27
258.247	4.12
258.628	4.24
259.009	4.22
259.389	4.31
259.77	3.81
260.15	4.51
260.531	4.17
260.911	3.95
261.292	3.87
261.672	3.65
262.052	3.92
262.432	4.26
262.813	3.79
263.193	4.03
263.573	4.54
263.953	3.98
264.333	3.71
264.713	5.21
265.093	3.84
265.473	3.85
265.853	4.3
266.233	2.99
266.612	3.38
266.992	3.83
267.372	3.76
267.752	3.51
268.131	3.37
268.511	3.84
268.89	3.48
269.27	3.94
269.649	4.42
270.029	3.92
270.408	3.94
270.787	3.9
271.167	4.03
271.546	3.66
271.925	3.86
272.304	3.68
272.683	3.74
273.062	3.36
273.441	4.11
273.82	3.83
274.199	3.61
274.578	3.47
274.957	3.3
275.336	3.36
275.715	3.63
276.093	3.69
276.472	3.82
276.851	3.28
277.229	3.92
277.608	3.11
277.986	3.92
278.365	3.7
278.743	3.48
279.122	4.1
279.5	3.87
279.878	3.25
280.257	2.91
280.635	3.97
281.013	3.81
281.391	3.28
281.769	3.53
282.147	3.7
282.525	3.63
282.903	3.44
283.281	4.01
283.659	3.78
284.037	3.74
284.415	3.9
284.792	3.79
285.17	3.53
285.548	3.77
285.925	3.38
286.303	3.83
286.68	3.9
287.058	3.92
287.435	3.66
287.813	3.49
288.19	3.88
288.567	3.68
288.945	4.07
289.322	3.72
289.699	4.18
290.076	4.38
290.453	4.01
290.83	3.64
291.207	4.1
291.584	3.99
291.961	4.2
292.338	4.34
292.715	4.11
293.092	3.94
293.469	4.61
293.845	3.95
294.222	4.22
294.599	4.6
294.975	4.64
295.352	4.6
295.728	4.36
296.105	4.4
296.481	4.67
296.858	5.04
297.234	4.43
297.61	4.74
297.986	4.81
298.363	5.18
298.739	4.9
299.115	4.85
299.491	5.01
299.867	4.71
300.243	4.86
300.619	4.67
300.995	4.96
301.371	4.9
301.746	5.21
302.122	5.58
302.498	5.31
302.874	5.28
303.249	4.87
303.625	4.92
304	4.9
304.376	5.76
304.751	5.26
305.127	5.23
305.502	5.34
305.878	5.03
306.253	4.88
306.628	5.16
307.003	5.39
307.378	5.33
307.754	5.22
308.129	5.76
308.504	6.08
308.879	5.87
309.254	5.35
309.629	5.58
310.003	5.56
310.378	5.88
310.753	5.77
311.128	5.63
311.502	6.06
311.877	5.92
312.252	5.4
312.626	6.12
313.001	5.71
313.375	5.89
313.75	5.61
314.124	5.78
314.498	5.66
314.873	5.84
315.247	5.81
315.621	5.65
315.995	6.53
316.369	5.7
316.743	6.62
317.117	6.13
317.491	6.49
317.865	6.55
318.239	6.17
318.613	6.07
318.987	6.03
319.361	6.09
319.734	6
320.108	5.86
320.482	5.9
320.855	6.23
321.229	5.89
321.602	6.6
321.976	6.39
322.349	6.94
322.723	6.63
323.096	6.71
323.469	6.63
323.843	6.15
324.216	6.46
324.589	6.43
324.962	7.02
325.335	5.97
325.708	6.66
326.081	6.56
326.454	6.69
326.827	6.45
327.2	6.99
327.573	6.8
327.945	6.81
328.318	6.59
328.691	7
329.063	6.09
329.436	6.28
329.809	6.7
330.181	6.82
330.553	6.05
330.926	6.75
331.298	6.13
331.671	6.03
332.043	7.06
332.415	7.02
332.787	7.1
333.159	6.91
333.532	6.75
333.904	7.26
334.276	6.63
334.648	6.45
335.02	6.4
335.391	6.22
335.763	7.06
336.135	6.83
336.507	6.85
336.879	6.33
337.25	6.62
337.622	6.75
337.993	6.45
338.365	6.89
338.736	6.63
339.108	7.51
339.479	6.48
339.851	7.29
340.222	6.65
340.593	6.84
340.964	7.18
341.336	7.32
341.707	6.95
342.078	7.39
342.449	7.12
342.82	7.28
343.191	7.22
343.562	7.32
343.933	6.96
344.303	7.27
344.674	7.5
345.045	7.15
345.416	7.24
345.786	7.22
346.157	7.33
346.527	7.04
346.898	7.15
347.268	7.13
347.639	7.03
348.009	7.46
348.38	6.78
348.75	7.53
349.12	7.14
349.49	6.77
349.861	7.36
350.231	7.07
350.601	7.45
350.971	7.28
351.341	7.19
351.711	7.15
352.081	7.36
352.45	7.5
352.82	7.12
353.19	7.37
353.56	7.32
353.929	7.64
354.299	7.44
354.669	7.3
355.038	7.67
355.408	7.24
355.777	7.33
356.147	7.43
356.516	7.32
356.885	7.42
357.254	7.28
357.624	7.4
357.993	7.6
358.362	7.34
358.731	7.5
359.1	7.02
359.469	7.36
359.838	7.52
360.207	7.65
360.576	7.53
360.945	7.12
361.314	7.92
361.682	7.86
362.051	7.9
362.42	7.41
362.788	7.13
363.157	7.65
363.525	7.3
363.894	7.54
364.262	7.54
364.631	7.17
364.999	7.69
365.367	7.39
365.735	7.64
366.104	7.64
366.472	7.64
366.84	7.85
367.208	7.74
367.576	7.71
367.944	7.73
368.312	7.68
368.68	7.93
369.048	7.59
369.416	7.89
369.783	7.68
370.151	7.93
370.519	7.77
370.886	8.15
371.254	8.16
371.621	7.9
371.989	8.21
372.356	8.01
372.724	7.73
373.091	7.83
373.458	7.85
373.826	8.18
374.193	8.18
374.56	7.99
374.927	7.94
375.294	7.96
375.661	7.66
376.028	7.9
376.395	8.07
376.762	8.05
377.129	7.81
377.496	7.88
377.863	7.94
378.229	8.35
378.596	7.98
378.963	8.02
379.329	8.22
379.696	8.16
380.062	8.47
380.429	8.36
380.795	7.99
381.161	8.33
381.528	8.51
381.894	8.3
382.26	8.31
382.626	8.36
382.993	8.79
383.359	8.45
383.725	8.51
384.091	8.34
384.457	8.24
384.823	8.57
385.188	8.35
385.554	8.7
385.92	8.32
386.286	8.66
386.651	8.37
387.017	8.33
387.383	8.5
387.748	8.59
388.114	8.67
388.479	8.69
388.845	8.73
389.21	8.52
389.575	8.74
389.94	8.39
390.306	8.89
390.671	8.68
391.036	8.97
391.401	9.06
391.766	8.64
392.131	8.73
392.496	8.79
392.861	8.6
393.226	8.84
393.591	9.05
393.956	8.6
394.32	9.17
394.685	8.96
395.05	8.89
395.414	9
395.779	9.08
396.143	9.01
396.508	9.11
396.872	9.29
397.236	8.86
397.601	9.34
397.965	9.13
398.329	9.18
398.694	9.32
399.058	9.05
399.422	9.21
399.786	9.19
400.15	9.32
400.514	9.3
400.878	9.4
401.242	9.17
401.605	9.13
401.969	9.18
402.333	9.44
402.697	9.27
403.06	9.16
403.424	9.4
403.787	9.49
404.151	9.55
404.514	9.28
404.878	9.61
405.241	9.44
405.604	9.62
405.968	9.22
406.331	9.25
406.694	9.45
407.057	9.36
407.42	9.2
407.783	9.52
408.146	9.43
408.509	9.42
408.872	9.37
409.235	9.73
409.598	9.46
409.961	9.43
410.323	9.44
410.686	9.53
411.049	9.63
411.411	9.68
411.774	9.66
412.136	9.66
412.499	9.64
412.861	9.51
413.223	9.59
413.586	10.04
413.948	9.61
414.31	9.74
414.672	9.7
415.035	9.81
415.397	9.8
415.759	9.73
416.121	9.74
416.483	9.71
416.845	9.87
417.206	9.62
417.568	9.82
417.93	9.71
418.292	10.01
418.653	9.95
419.015	9.72
419.377	9.56
419.738	9.72
420.1	9.77
420.461	9.69
420.822	9.67
421.184	9.65
421.545	9.75
421.906	9.49
422.267	9.66
422.629	9.6
422.99	9.53
423.351	9.52
423.712	9.75
424.073	9.67
424.434	9.77
424.795	9.66
425.155	9.61
425.516	9.77
425.877	9.8
426.238	9.63
426.598	9.8
426.959	9.95
427.32	9.75
427.68	10.07
428.041	9.91
428.401	9.98
428.761	10.08
429.122	10
429.482	10.07
429.842	9.89
430.202	10.1
430.563	10.09
430.923	10.17
431.283	10.05
431.643	10.08
432.003	10.19
432.363	10
432.722	10.08
433.082	10.27
433.442	10.12
433.802	10.49
434.161	10.26
434.521	10.1
434.881	10.17
435.24	10.19
435.6	10.2
435.959	10.15
436.319	10.44
436.678	10.25
437.037	10.57
437.396	10.15
437.756	10.4
438.115	10.44
438.474	10.41
438.833	10.3
439.192	10.43
439.551	10.35
439.91	10.3
440.269	10.3
440.628	10.44
440.987	10.36
441.345	10.45
441.704	10.45
442.063	10.18
442.421	10.5
442.78	10.38
443.138	10.43
443.497	10.47
443.855	10.51
444.214	10.53
444.572	10.55
444.93	10.43
445.288	10.43
445.647	10.5
446.005	10.51
446.363	10.47
446.721	10.42
447.079	10.47
447.437	10.43
447.795	10.42
448.153	10.33
448.51	10.47
448.868	10.3
449.226	10.39
449.584	10.56
449.941	10.56
450.299	10.62
450.656	10.63
451.014	10.73
451.371	10.7
451.729	10.81
452.086	10.71
452.443	10.97
452.801	10.86
453.158	10.89
453.515	10.64
453.872	10.75
454.229	10.84
454.586	10.78
454.943	10.78
455.3	10.93
455.657	10.87
456.014	10.81
456.371	10.84
456.727	10.86
457.084	10.8
457.441	11.1
457.797	11.02
458.154	11.09
458.51	11.04
458.867	10.87
459.223	10.96
459.58	11.15
459.936	10.9
460.292	11
460.648	10.96
461.005	11.08
461.361	10.86
461.717	10.88
462.073	10.79
462.429	10.98
462.785	10.99
463.141	11.13
463.496	10.95
463.852	11.05
464.208	11.06
464.564	11.17
464.919	11.13
465.275	11.14
465.631	11.29
465.986	11.08
466.342	11.28
466.697	11.24
467.052	11.36
467.408	11.21
467.763	11.43
468.118	11.24
468.473	11.25
468.829	11.27
469.184	11.39
469.539	11.37
469.894	11.22
470.249	11.33
470.603	11.36
470.958	11.58
471.313	11.51
471.668	11.4
472.023	11.41
472.377	11.47
472.732	11.47
473.086	11.53
473.441	11.55
473.795	11.36
474.15	11.44
474.504	11.68
474.859	11.54
475.213	11.58
475.567	11.46
475.921	11.5
476.275	11.54
476.63	11.58
476.984	11.71
477.338	11.7
477.692	11.69
478.045	11.62
478.399	11.61
478.753	11.69
479.107	11.64
479.461	11.57
479.814	11.57
480.168	11.5
480.521	11.84
480.875	11.71
481.228	11.78
481.582	11.72
481.935	11.89
482.289	11.9
482.642	11.84
482.995	11.74
483.348	11.72
483.701	11.67
484.055	11.67
484.408	11.54
484.761	11.4
485.114	11.34
485.466	11.25
485.819	11.23
486.172	11.2
486.525	11.3
486.878	11.53
487.23	11.49
487.583	11.63
487.936	11.6
488.288	11.6
488.641	11.58
488.993	11.51
489.345	11.5
489.698	11.45
490.05	11.51
490.402	11.62
490.754	11.63
491.107	11.82
491.459	11.91
491.811	11.89
492.163	11.91
492.515	11.82
492.866	11.77
493.218	11.66
493.57	11.61
493.922	11.76
494.274	11.81
494.625	11.8
494.977	12.03
495.328	12.12
495.68	12.16
496.031	12.34
496.383	12.2
496.734	12.16
497.086	12.16
497.437	12.27
497.788	12.26
498.139	12.24
498.49	12.23
498.842	12.23
499.193	12.26
499.544	12.16
499.894	12.31
500.245	12.39
500.596	12.34
500.947	12.34
501.298	12.26
501.648	12.37
501.999	12.32
502.35	12.52
502.7	12.48
503.051	12.6
503.401	12.59
503.752	12.56
504.102	12.51
504.452	12.75
504.803	12.57
505.153	12.66
505.503	12.55
505.853	12.7
506.203	12.67
506.553	12.67
506.903	12.62
507.253	12.77
507.603	12.62
507.953	12.68
508.303	12.69
508.652	12.83
509.002	12.75
509.352	12.72
509.701	12.81
510.051	12.71
510.4	12.67
510.75	12.77
511.099	12.74
511.449	12.82
511.798	12.73
512.147	12.76
512.496	12.73
512.846	12.89
513.195	12.93
513.544	12.84
513.893	12.79
514.242	12.95
514.591	12.95
514.939	12.98
515.288	12.93
515.637	13.05
515.986	12.98
516.334	13.02
516.683	13.06
517.032	13.07
517.38	13.14
517.729	13.05
518.077	13.24
518.426	13.1
518.774	13.11
519.122	13.11
519.47	13
519.819	12.98
520.167	12.93
520.515	12.96
520.863	13.07
521.211	12.91
521.559	13.2
521.907	13.11
522.255	13.17
522.602	13.14
522.95	13.19
523.298	13.31
523.645	13.31
523.993	13.41
524.341	13.31
524.688	13.39
525.036	13.45
525.383	13.47
525.73	13.19
526.078	13.46
526.425	13.46
526.772	13.35
527.119	13.12
527.466	13.27
527.814	13.28
528.161	13.34
528.508	13.27
528.854	13.21
529.201	13.2
529.548	13.12
529.895	12.99
530.242	12.96
530.588	12.99
530.935	13.02
531.282	13.03
531.628	13.07
531.975	13.18
532.321	13.3
532.667	13.39
533.014	13.52
533.36	13.59
533.706	13.52
534.052	13.5
534.399	13.43
534.745	13.32
535.091	13.31
535.437	13.34
535.783	13.42
536.129	13.36
536.474	13.45
536.82	13.69
537.166	13.6
537.512	13.74
537.857	13.7
538.203	13.68
538.549	13.69
538.894	13.77
539.239	13.7
539.585	13.83
539.93	13.9
540.276	13.92
540.621	14
540.966	13.88
541.311	14.07
541.656	14.02
542.001	13.87
542.346	13.81
542.691	13.6
543.036	13.66
543.381	13.69
543.726	13.68
544.071	13.7
544.415	13.8
544.76	13.8
545.105	13.8
545.449	14.05
545.794	14
546.138	14.07
546.483	14.06
546.827	14.18
547.171	14.14
547.516	14.24
547.86	14.18
548.204	14.18
548.548	14.25
548.892	14.22
549.236	14.25
549.58	14.33
549.924	14.29
550.268	14.36
550.612	14.43
550.956	14.54
551.3	14.59
551.643	14.49
551.987	14.51
552.33	14.51
552.674	14.83
553.017	14.69
553.361	14.71
553.704	14.83
554.048	14.66
554.391	14.59
554.734	14.58
555.077	14.46
555.42	14.64
555.764	14.58
556.107	14.8
556.45	14.78
556.793	14.86
557.135	14.78
557.478	14.9
557.821	15.01
558.164	14.78
558.507	14.73
558.849	14.66
559.192	14.94
559.534	14.95
559.877	14.94
560.219	14.99
560.562	14.95
560.904	15.12
561.246	14.94
561.589	15.27
561.931	15.03
562.273	14.96
562.615	15
562.957	15.1
563.299	14.97
563.641	15.25
563.983	15.2
564.325	15.04
564.667	15.26
565.008	15.29
565.35	15.21
565.692	15.23
566.033	15.26
566.375	15.1
566.716	15.18
567.058	15.15
567.399	15.21
567.741	15.18
568.082	15.02
568.423	15.3
568.764	15.16
569.105	15.19
569.447	15.39
569.788	15.22
570.129	15.41
570.47	15.42
570.811	15.32
571.151	15.6
571.492	15.37
571.833	15.33
572.174	15.42
572.514	15.44
572.855	15.42
573.195	15.57
573.536	15.46
573.876	15.44
574.217	15.38
574.557	15.52
574.898	15.59
575.238	15.42
575.578	15.38
575.918	15.57
576.258	15.61
576.598	15.49
576.938	15.63
577.278	15.69
577.618	15.62
577.958	15.68
578.298	15.6
578.638	15.68
578.977	15.79
579.317	15.69
579.657	15.54
579.996	15.73
580.336	15.91
580.675	15.83
581.014	15.94
581.354	15.98
581.693	15.75
582.032	15.91
582.372	15.77
582.711	15.65
583.05	15.95
583.389	15.9
583.728	16
584.067	16.01
584.406	15.99
584.745	16.18
585.083	16.17
585.422	16.22
585.761	16.53
586.1	16.04
586.438	16.2
586.777	16.25
587.115	16.2
587.454	16.13
587.792	16.39
588.13	16.21
588.469	16.28
588.807	16.37
589.145	16.14
589.483	16.42
589.821	16.24
590.159	16.11
590.497	16.39
590.835	16.17
591.173	16.27
591.511	16.13
591.849	16.32
592.187	16.18
592.524	16.36
592.862	16.4
593.2	16.47
593.537	16.57
593.875	16.54
594.212	16.19
594.55	16.46
594.887	16.64
595.224	16.6
595.561	16.38
595.899	16.29
596.236	16.59
596.573	16.59
596.91	16.67
597.247	16.57
597.584	16.34
597.921	16.45
598.258	16.67
598.594	16.56
598.931	16.77
599.268	16.43
599.604	16.52
599.941	16.6
600.277	16.53
600.614	16.76
600.95	16.73
601.287	16.76
601.623	16.76
601.959	16.7
602.296	16.83
602.632	16.52
602.968	16.64
603.304	17.03
603.64	16.78
603.976	16.99
604.312	17.04
604.648	16.74
604.984	16.9
605.319	17.04
605.655	16.68
605.991	16.76
606.326	16.77
606.662	16.73
606.998	16.92
607.333	16.94
607.668	16.92
608.004	17.06
608.339	16.94
608.674	17.19
609.01	16.99
609.345	17.02
609.68	17.38
610.015	17.18
610.35	17.15
610.685	17.07
611.02	17.05
611.355	17.27
611.689	17
612.024	16.98
612.359	17.24
612.694	17.35
613.028	17.58
613.363	17.45
613.697	17.41
614.032	17.29
614.366	17.22
614.7	17.36
615.035	17.21
615.369	17.05
615.703	17.29
616.037	17.74
616.371	17.81
616.705	17.29
617.039	17.36
617.373	17.36
617.707	17.5
618.041	17.65
618.375	17.28
618.709	17.6
619.042	17.84
619.376	17.53
619.71	17.69
620.043	17.25
620.377	17.81
620.71	17.65
621.043	17.37
621.377	18.02
621.71	17.68
622.043	17.72
622.376	17.96
622.709	17.88
623.043	17.67
623.376	17.58
623.709	17.59
624.041	17.91
624.374	18.1
624.707	17.91
625.04	18.01
625.373	17.76
625.705	18.13
626.038	18.17
626.37	17.79
626.703	17.99
627.035	17.86
627.368	18.24
627.7	18.37
628.032	17.96
628.365	18.22
628.697	18.18
629.029	18.24
629.361	18.13
629.693	18.18
630.025	18.5
630.357	18.19
630.689	18.33
631.021	17.88
631.353	18.06
631.684	18.18
632.016	18.21
632.348	18.53
632.679	18.09
633.011	18.33
633.342	18.31
633.674	18.75
634.005	18.4
634.336	18.64
634.668	17.91
634.999	18.48
635.33	18.53
635.661	18.52
635.992	18.35
636.323	18.59
636.654	18.52
636.985	18.31
637.316	18.29
637.647	18.54
637.977	18.65
638.308	18.96
638.639	18.54
638.969	18.57
639.3	18.47
639.63	18.6
639.961	18.43
640.291	18.47
640.622	18.33
640.952	18.69
641.282	18.71
641.612	18.74
641.943	18.66
642.273	18.83
642.603	18.91
642.933	18.69
643.263	18.55
643.592	18.75
643.922	18.89
644.252	18.88
644.582	19.04
644.911	18.94
645.241	19.17
645.571	18.76
645.9	18.14
646.23	19.15
646.559	18.95
646.888	19.2
647.218	19.39
647.547	19.16
647.876	18.75
648.205	18.94
648.534	18.88
648.863	19.29
649.192	19.05
649.521	19.3
649.85	19.55
650.179	19
650.508	19.21
650.837	19.47
651.165	18.87
651.494	19.55
651.822	19.29
652.151	19.41
652.479	19.72
652.808	19.49
653.136	19.36
653.465	19.14
653.793	19.28
654.121	19.73
654.449	19.81
654.777	19.41
655.105	19.52
655.433	19.51
655.761	19.33
656.089	19.62
656.417	19.34
656.745	19.3
657.073	19.8
657.4	19.76
657.728	19.47
658.056	19.16
658.383	20.05
658.711	19.64
659.038	19.96
659.365	19.52
659.693	19.89
660.02	19.47
660.347	19.8
660.674	19.81
661.001	19.58
661.329	19.77
661.656	19.54
661.982	19.72
662.309	19.67
662.636	19.84
662.963	20.13
663.29	19.47
663.616	19.78
663.943	20.37
664.27	20.23
664.596	19.66
664.923	19.73
665.249	19.79
665.576	20.27
665.902	19.68
666.228	20.26
666.554	20.37
666.881	20.41
667.207	19.67
667.533	20.14
667.859	19.84
668.185	20.02
668.511	19.82
668.837	20.25
669.162	20.07
669.488	20.07
669.814	19.95
670.139	19.9
670.465	20.44
670.791	20.16
671.116	20.25
671.442	19.87
671.767	20.47
672.092	20.58
672.418	20.21
672.743	20.82
673.068	19.72
673.393	20.68
673.718	20.08
674.043	19.58
674.368	20.37
674.693	20.54
675.018	20.44
675.343	20.81
675.667	20.67
675.992	20.79
