Data from 0025_crown_Reflection__3__84.txt Node

Date: Thu Oct 20 20:59:11 CDT 2022
User: ToomeyLab
Spectrometer: FLMS14357
Trigger mode: 0
Integration Time (sec): 1.000000E-2
Scans to average: 100
Electric dark correction enabled: true
Nonlinearity correction enabled: false
Boxcar width: 0
XAxis mode: Wavelengths
Number of Pixels in Spectrum: 2048
>>>>>Begin Spectral Data<<<<<
189.047	123.16
189.435	123.16
189.823	123.16
190.211	54.02
190.599	-24.8
190.987	1273.5
191.375	145.69
191.763	-85.3
192.151	248.79
192.538	179.58
192.926	166.9
193.314	104.78
193.702	149.83
194.089	218.14
194.477	-16.44
194.864	-75.23
195.252	34.87
195.639	11.32
196.027	361.78
196.414	-285.21
196.801	33.89
197.189	-1010.55
197.576	4.65
197.963	-13.89
198.351	-67.99
198.738	24.71
199.125	5.2
199.512	29.69
199.899	-6.26
200.286	-0.96
200.673	52.97
201.06	76.69
201.447	16.42
201.833	26.99
202.22	3.77
202.607	-17.36
202.994	38.91
203.38	-5.26
203.767	3.4
204.154	-43.01
204.54	-19.66
204.927	22.28
205.313	-8.77
205.699	22.88
206.086	-16.98
206.472	7.99
206.858	2.85
207.245	-0.62
207.631	-17.86
208.017	37.52
208.403	12.25
208.789	-21.99
209.175	-11.16
209.561	-3.57
209.947	27.7
210.333	18.18
210.719	-0.14
211.105	32.59
211.491	20.29
211.876	-0.95
212.262	20.37
212.648	-18.36
213.034	-16.46
213.419	2
213.805	26.68
214.19	-32.47
214.576	-25.62
214.961	24.35
215.346	-22.45
215.732	5.81
216.117	29.57
216.502	-50.32
216.888	11.99
217.273	6.55
217.658	4.58
218.043	30.59
218.428	-28.3
218.813	6.47
219.198	-7.43
219.583	-6.99
219.968	8.84
220.353	5.31
220.738	9.32
221.122	17.03
221.507	-6.74
221.892	7.66
222.276	12.54
222.661	0.07
223.046	6.35
223.43	16.85
223.815	0.76
224.199	16.18
224.583	-0.98
224.968	8.55
225.352	8.48
225.736	13.44
226.121	15.07
226.505	2.45
226.889	1.22
227.273	12.47
227.657	11.84
228.041	6.7
228.425	8.88
228.809	7.57
229.193	4.34
229.577	7.4
229.961	6.96
230.344	8.51
230.728	8.12
231.112	8.62
231.495	7.34
231.879	7.5
232.263	8.49
232.646	8.14
233.03	6.93
233.413	7.83
233.797	7.02
234.18	5.98
234.563	8.18
234.946	8.22
235.33	5.83
235.713	8.33
236.096	8.11
236.479	6.48
236.862	4.88
237.245	7.56
237.628	7.42
238.011	8.23
238.394	7.86
238.777	8.38
239.16	6.95
239.543	7.24
239.925	7.55
240.308	6.81
240.691	7.21
241.073	7.1
241.456	5.86
241.838	7.12
242.221	7.53
242.603	6.48
242.986	7.15
243.368	7.41
243.75	6.56
244.133	7.03
244.515	7.41
244.897	7.32
245.279	7.36
245.661	6.25
246.043	7.02
246.425	7.07
246.807	7.18
247.189	6.57
247.571	6.72
247.953	6.48
248.335	6.92
248.717	6.98
249.098	6.94
249.48	6.84
249.862	6.6
250.243	6.71
250.625	7.13
251.006	7.3
251.388	6.58
251.769	7.56
252.151	6.1
252.532	6.51
252.913	6.81
253.295	6.39
253.676	6.88
254.057	6.68
254.438	7.26
254.819	6.65
255.2	8.23
255.581	7.15
255.962	6.94
256.343	7.28
256.724	5.86
257.105	7.78
257.486	6.96
257.867	7.07
258.247	6.84
258.628	6.27
259.009	6.05
259.389	6.94
259.77	6.7
260.15	6.28
260.531	6.27
260.911	6.24
261.292	6.31
261.672	6.01
262.052	6.42
262.432	6.89
262.813	6.41
263.193	6.64
263.573	6.13
263.953	5.97
264.333	6.24
264.713	7.15
265.093	6.59
265.473	5.82
265.853	5.9
266.233	5.86
266.612	5.75
266.992	5.07
267.372	5.76
267.752	5.89
268.131	5.89
268.511	6.08
268.89	6.1
269.27	6.01
269.649	6.43
270.029	6.32
270.408	5.52
270.787	5.84
271.167	6.1
271.546	6.08
271.925	5.93
272.304	6.43
272.683	6.11
273.062	6.09
273.441	6.08
273.82	5.97
274.199	5.56
274.578	5.62
274.957	5.84
275.336	6.14
275.715	6.09
276.093	5.86
276.472	5.71
276.851	5.28
277.229	5.91
277.608	5.81
277.986	5.54
278.365	5.81
278.743	6.19
279.122	5.74
279.5	5.83
279.878	6.02
280.257	5.59
280.635	6.41
281.013	5.66
281.391	5.35
281.769	5.39
282.147	5.94
282.525	6.07
282.903	5.73
283.281	5.6
283.659	5.77
284.037	6.1
284.415	6.02
284.792	5.53
285.17	5.6
285.548	4.91
285.925	5.44
286.303	5.41
286.68	5.55
287.058	5.36
287.435	5.64
287.813	5.05
288.19	5.48
288.567	5.67
288.945	6.07
289.322	5.16
289.699	5.4
290.076	5.41
290.453	5.3
290.83	5.07
291.207	5.19
291.584	5.5
291.961	5.32
292.338	5.86
292.715	5.4
293.092	5.1
293.469	5.66
293.845	4.87
294.222	5.42
294.599	6.05
294.975	5.77
295.352	4.72
295.728	4.94
296.105	4.99
296.481	5.77
296.858	5.5
297.234	4.99
297.61	5.13
297.986	5.39
298.363	5.26
298.739	5.32
299.115	5.36
299.491	5.49
299.867	5.18
300.243	5.42
300.619	5.14
300.995	5.09
301.371	5.3
301.746	5.3
302.122	5.83
302.498	5.39
302.874	4.8
303.249	5.48
303.625	5.28
304	4.53
304.376	6.15
304.751	5.6
305.127	4.79
305.502	4.99
305.878	5.09
306.253	5.32
306.628	5.34
307.003	5.23
307.378	5.38
307.754	5.36
308.129	5.36
308.504	6.16
308.879	5.97
309.254	5.57
309.629	5.52
310.003	4.91
310.378	5.38
310.753	5.24
311.128	5.4
311.502	5.49
311.877	5.14
312.252	5.14
312.626	5.33
313.001	5.39
313.375	5.18
313.75	5.18
314.124	5.88
314.498	5.48
314.873	5.52
315.247	5.21
315.621	5.12
315.995	5.15
316.369	5.48
316.743	5.89
317.117	5.65
317.491	5.51
317.865	5.26
318.239	5.2
318.613	5.36
318.987	5.14
319.361	4.96
319.734	5.36
320.108	5.3
320.482	5.04
320.855	5.61
321.229	5
321.602	5.67
321.976	5.45
322.349	5.65
322.723	4.94
323.096	5.41
323.469	5.55
323.843	5.57
324.216	5.47
324.589	4.83
324.962	5.12
325.335	5.01
325.708	5.57
326.081	5.27
326.454	5.45
326.827	5.11
327.2	5.34
327.573	5.74
327.945	5.36
328.318	5.18
328.691	5.88
329.063	5.29
329.436	5.05
329.809	5.53
330.181	5.49
330.553	5.16
330.926	5.33
331.298	4.96
331.671	5.33
332.043	5.7
332.415	5.86
332.787	5.53
333.159	5.24
333.532	5.28
333.904	5.64
334.276	5.56
334.648	4.94
335.02	5.13
335.391	4.84
335.763	5.29
336.135	5.34
336.507	5.19
336.879	4.94
337.25	4.93
337.622	5.27
337.993	5.32
338.365	5.4
338.736	5.6
339.108	5.71
339.479	5.2
339.851	6.18
340.222	4.64
340.593	5.53
340.964	5.91
341.336	5.25
341.707	5.69
342.078	5.81
342.449	5.38
342.82	5.44
343.191	6.03
343.562	6.34
343.933	5.26
344.303	5.59
344.674	6.14
345.045	5.75
345.416	5.02
345.786	5.77
346.157	6.08
346.527	5.34
346.898	5.43
347.268	5.66
347.639	5.66
348.009	6.1
348.38	5.12
348.75	5.75
349.12	5.88
349.49	5.2
349.861	5.64
350.231	5.29
350.601	5.81
350.971	5.57
351.341	5.7
351.711	5.69
352.081	5.6
352.45	5.56
352.82	5.3
353.19	4.98
353.56	5.77
353.929	5.64
354.299	5.65
354.669	5.36
355.038	5.61
355.408	5.3
355.777	5.74
356.147	5.64
356.516	5.19
356.885	5.84
357.254	5.75
357.624	5.56
357.993	5.75
358.362	5.63
358.731	5.71
359.1	5.4
359.469	5.28
359.838	5.44
360.207	5.59
360.576	5.58
360.945	5.33
361.314	5.96
361.682	5.83
362.051	5.7
362.42	5.59
362.788	5.46
363.157	5.72
363.525	5.57
363.894	5.54
364.262	5.77
364.631	5.9
364.999	5.8
365.367	5.38
365.735	5.62
366.104	5.74
366.472	5.75
366.84	5.95
367.208	6
367.576	6.01
367.944	5.33
368.312	5.59
368.68	5.69
369.048	5.59
369.416	5.92
369.783	5.58
370.151	5.66
370.519	5.78
370.886	5.56
371.254	6.06
371.621	5.63
371.989	5.92
372.356	5.87
372.724	5.4
373.091	5.55
373.458	5.68
373.826	6.16
374.193	5.98
374.56	5.79
374.927	5.8
375.294	5.52
375.661	5.76
376.028	5.8
376.395	5.35
376.762	5.57
377.129	5.63
377.496	5.76
377.863	5.81
378.229	5.89
378.596	5.72
378.963	5.59
379.329	6.12
379.696	5.86
380.062	6.09
380.429	5.93
380.795	5.71
381.161	5.91
381.528	6.05
381.894	6.09
382.26	6.05
382.626	6.09
382.993	6
383.359	5.86
383.725	6.25
384.091	6.23
384.457	5.84
384.823	6.02
385.188	5.89
385.554	5.88
385.92	5.92
386.286	5.96
386.651	5.76
387.017	6.01
387.383	6.02
387.748	6.02
388.114	6.18
388.479	6.05
388.845	5.86
389.21	6
389.575	6.12
389.94	5.74
390.306	6.04
390.671	6
391.036	6.42
391.401	5.93
391.766	5.91
392.131	5.76
392.496	5.96
392.861	6
393.226	6.01
393.591	6.16
393.956	5.96
394.32	6.52
394.685	6.05
395.05	6.09
395.414	6.02
395.779	6.26
396.143	5.91
396.508	6.19
396.872	6.28
397.236	6.12
397.601	6.35
397.965	6.19
398.329	5.94
398.694	6.02
399.058	6.07
399.422	6.1
399.786	6.05
400.15	6.19
400.514	6.12
400.878	6.11
401.242	5.88
401.605	6.17
401.969	6.09
402.333	6.15
402.697	6.32
403.06	6.15
403.424	6.03
403.787	6.37
404.151	6.3
404.514	6.26
404.878	6.06
405.241	6.11
405.604	6.27
405.968	6.06
406.331	6.16
406.694	6.16
407.057	6
407.42	6.06
407.783	6.04
408.146	6.18
408.509	6.08
408.872	6.18
409.235	6.22
409.598	6.14
409.961	5.95
410.323	5.97
410.686	6.29
411.049	6.08
411.411	6.23
411.774	6.21
412.136	6.16
412.499	6.19
412.861	6.08
413.223	5.94
413.586	6.28
413.948	6.2
414.31	6.35
414.672	6.13
415.035	6.23
415.397	6.27
415.759	6.2
416.121	6.15
416.483	6.15
416.845	6.11
417.206	5.88
417.568	6.12
417.93	6.04
418.292	6.44
418.653	6.25
419.015	6.14
419.377	6.08
419.738	6.11
420.1	6.19
420.461	6.02
420.822	6.04
421.184	6.17
421.545	6.03
421.906	5.95
422.267	5.96
422.629	5.94
422.99	6.01
423.351	6.15
423.712	6.13
424.073	6.12
424.434	6.14
424.795	6.06
425.155	5.93
425.516	6.03
425.877	5.98
426.238	6.06
426.598	6.16
426.959	6.22
427.32	6.12
427.68	6.25
428.041	6.03
428.401	6.23
428.761	6.31
429.122	6.1
429.482	6.19
429.842	6.16
430.202	6.4
430.563	6.33
430.923	6.22
431.283	6.21
431.643	6.34
432.003	6.3
432.363	6.17
432.722	6.25
433.082	6.21
433.442	6.12
433.802	6.48
434.161	6.24
434.521	6.05
434.881	6.18
435.24	6.07
435.6	6.19
435.959	6.24
436.319	6.26
436.678	6.21
437.037	6.35
437.396	6.28
437.756	6.36
438.115	6.42
438.474	6.27
438.833	6.23
439.192	6.35
439.551	6.17
439.91	6.22
440.269	6.16
440.628	6.26
440.987	6.07
441.345	6.16
441.704	6.18
442.063	6.08
442.421	6.13
442.78	6.23
443.138	6.21
443.497	6.16
443.855	6.22
444.214	6.26
444.572	6.21
444.93	6.21
445.288	6.22
445.647	6.19
446.005	6.17
446.363	6.05
446.721	6.04
447.079	6.19
447.437	6.17
447.795	6.06
448.153	6.12
448.51	6.07
448.868	6.19
449.226	6.17
449.584	6.22
449.941	6.28
450.299	6.31
450.656	6.22
451.014	6.18
451.371	6.27
451.729	6.13
452.086	6.33
452.443	6.37
452.801	6.32
453.158	6.27
453.515	6.05
453.872	6.19
454.229	6.17
454.586	6.32
454.943	6.21
455.3	6.28
455.657	6.23
456.014	6.09
456.371	6.23
456.727	6.29
457.084	6.23
457.441	6.2
457.797	6.23
458.154	6.28
458.51	6.26
458.867	6.17
459.223	6.13
459.58	6.33
459.936	6.12
460.292	6.29
460.648	6.03
461.005	6.14
461.361	6.04
461.717	6.05
462.073	6.19
462.429	6.25
462.785	6.13
463.141	6.36
463.496	6.35
463.852	6.03
464.208	6.31
464.564	6.29
464.919	6.17
465.275	6.16
465.631	6.27
465.986	6.25
466.342	6.33
466.697	6.2
467.052	6.26
467.408	6.4
467.763	6.41
468.118	6.18
468.473	6.15
468.829	6.34
469.184	6.33
469.539	6.12
469.894	6.33
470.249	6.24
470.603	6.31
470.958	6.28
471.313	6.12
471.668	6.18
472.023	6.18
472.377	6.24
472.732	6.25
473.086	6.2
473.441	6.29
473.795	6.03
474.15	6.34
474.504	6.15
474.859	6.07
475.213	6.11
475.567	6.2
475.921	6.29
476.275	6.26
476.63	6.18
476.984	6.37
477.338	6.14
477.692	6.16
478.045	6.09
478.399	6.19
478.753	6.3
479.107	6.35
479.461	6.08
479.814	6.17
480.168	6.27
480.521	6.12
480.875	6.3
481.228	6.42
481.582	6.29
481.935	6.1
482.289	6.26
482.642	6.22
482.995	6.06
483.348	6.19
483.701	6.02
484.055	5.97
484.408	5.99
484.761	5.78
485.114	5.75
485.466	5.75
485.819	5.9
486.172	5.98
486.525	6.08
486.878	6.16
487.23	6.21
487.583	6.17
487.936	6
488.288	5.92
488.641	5.86
488.993	5.89
489.345	5.84
489.698	5.97
490.05	6.05
490.402	6.06
490.754	6.11
491.107	6.22
491.459	6.21
491.811	6.25
492.163	6.07
492.515	5.91
492.866	5.85
493.218	5.87
493.57	6.02
493.922	6.17
494.274	6.16
494.625	6.21
494.977	6.28
495.328	6.31
495.68	6.31
496.031	6.38
496.383	6.31
496.734	6.21
497.086	6.21
497.437	6.23
497.788	6.13
498.139	6.21
498.49	6.17
498.842	6.16
499.193	6.14
499.544	6.19
499.894	6.18
500.245	6.23
500.596	6.17
500.947	6.09
501.298	6.19
501.648	6.18
501.999	6.19
502.35	6.31
502.7	6.16
503.051	6.27
503.401	6.32
503.752	6.18
504.102	6.3
504.452	6.28
504.803	6.22
505.153	6.18
505.503	6.23
505.853	6.15
506.203	6.18
506.553	6.29
506.903	6.44
507.253	6.27
507.603	6.25
507.953	6.13
508.303	6.21
508.652	6.3
509.002	6.25
509.352	6.24
509.701	6.39
510.051	6.22
510.4	6.11
510.75	6.17
511.099	6.28
511.449	6.14
511.798	6.22
512.147	6.18
512.496	6.07
512.846	6.29
513.195	6.31
513.544	6.05
513.893	6.12
514.242	6.2
514.591	6.25
514.939	6.18
515.288	6.2
515.637	6.18
515.986	6.21
516.334	6.32
516.683	6.1
517.032	6.05
517.38	6.07
517.729	6.19
518.077	6.25
518.426	6.04
518.774	6.03
519.122	6.14
519.47	6.16
519.819	6.01
520.167	5.98
520.515	6.07
520.863	6.15
521.211	6.08
521.559	6.23
521.907	6.11
522.255	6.17
522.602	6.22
522.95	6.18
523.298	6.24
523.645	6.3
523.993	6.3
524.341	6.19
524.688	6.28
525.036	6.05
525.383	6.26
525.73	6.12
526.078	6.12
526.425	6.05
526.772	6.11
527.119	6.03
527.466	6.08
527.814	6.07
528.161	6.2
528.508	6.1
528.854	6.05
529.201	6.02
529.548	5.86
529.895	5.79
530.242	5.78
530.588	5.88
530.935	5.98
531.282	6.03
531.628	6.11
531.975	6.04
532.321	6.03
532.667	6.15
533.014	6.18
533.36	6.14
533.706	6.09
534.052	5.95
534.399	5.88
534.745	5.91
535.091	5.96
535.437	5.99
535.783	6.1
536.129	6.14
536.474	6.12
536.82	6.24
537.166	6.08
537.512	6.14
537.857	6.02
538.203	6.05
538.549	6.06
538.894	6.17
539.239	6.19
539.585	6.25
539.93	6.23
540.276	6.26
540.621	6.28
540.966	6.13
541.311	6.23
541.656	6.07
542.001	5.98
542.346	5.94
542.691	5.82
543.036	5.88
543.381	5.98
543.726	6.05
544.071	6.11
544.415	6.11
544.76	6.08
545.105	6.08
545.449	6.14
545.794	6.22
546.138	6.2
546.483	6.17
546.827	6.28
547.171	6.05
547.516	6.12
547.86	6.04
548.204	6.02
548.548	6.12
548.892	6.14
549.236	6.14
549.58	6.22
549.924	6.18
550.268	6.24
550.612	6.18
550.956	6.07
551.3	6.29
551.643	6.1
551.987	6.18
552.33	6.22
552.674	6.45
553.017	6.04
553.361	6.06
553.704	6.27
554.048	5.98
554.391	6.14
554.734	6.23
555.077	6.15
555.42	6.23
555.764	6.3
556.107	6.1
556.45	6.27
556.793	6.12
557.135	6.35
557.478	6.2
557.821	6.14
558.164	6.32
558.507	6.1
558.849	6.08
559.192	6
559.534	6.2
559.877	6.08
560.219	6.12
560.562	6.27
560.904	6.06
561.246	6.12
561.589	6.19
561.931	6.34
562.273	6.1
562.615	6.21
562.957	6.23
563.299	6.23
563.641	6.12
563.983	6.22
564.325	6.15
564.667	6.06
565.008	6.14
565.35	6.25
565.692	6.12
566.033	6.15
566.375	6.11
566.716	6.15
567.058	6.18
567.399	6.18
567.741	6.14
568.082	6.1
568.423	6.07
568.764	6.01
569.105	6.32
569.447	6.36
569.788	6.26
570.129	6.06
570.47	6.12
570.811	6.02
571.151	6.23
571.492	6.16
571.833	6.22
572.174	6.1
572.514	6.24
572.855	6.08
573.195	6.19
573.536	6.09
573.876	6.17
574.217	6.14
574.557	6.01
574.898	6.16
575.238	6.05
575.578	6.07
575.918	6.19
576.258	6.22
576.598	6.28
576.938	6.2
577.278	6.08
577.618	6.22
577.958	6.28
578.298	5.94
578.638	6.01
578.977	6.22
579.317	6.3
579.657	6.06
579.996	6.21
580.336	6.11
580.675	6.16
581.014	6.2
581.354	6.36
581.693	6.13
582.032	6.02
582.372	6.22
582.711	5.9
583.05	6
583.389	6.23
583.728	6.34
584.067	6.3
584.406	6.22
584.745	6.26
585.083	5.97
585.422	6.18
585.761	6.27
586.1	6.08
586.438	6.25
586.777	5.96
587.115	6.01
587.454	6.12
587.792	6.55
588.13	6.27
588.469	6.3
588.807	6.19
589.145	6.17
589.483	6.03
589.821	6.13
590.159	6.01
590.497	6.26
590.835	6.2
591.173	6.09
591.511	5.99
591.849	6.19
592.187	6.26
592.524	6.28
592.862	6.13
593.2	6.24
593.537	6.31
593.875	6.31
594.212	6.04
594.55	6
594.887	6.28
595.224	6.28
595.561	6.03
595.899	6.02
596.236	6.09
596.573	6.2
596.91	6.27
597.247	6.38
597.584	6.1
597.921	6.06
598.258	6.12
598.594	6.13
598.931	6.3
599.268	6.01
599.604	6.12
599.941	6.13
600.277	6.1
600.614	6.31
600.95	6.33
601.287	6.44
601.623	6.42
601.959	6.2
602.296	6.14
602.632	5.98
602.968	5.93
603.304	6.09
603.64	5.91
603.976	6.18
604.312	6.23
604.648	6.08
604.984	6.01
605.319	6.23
605.655	6
605.991	6.17
606.326	6.15
606.662	6.14
606.998	6.16
607.333	6.28
607.668	6.21
608.004	6.25
608.339	6
608.674	6.17
609.01	5.97
609.345	5.9
609.68	6.21
610.015	6.04
610.35	5.96
610.685	6.21
611.02	6.07
611.355	6.18
611.689	6.05
612.024	6.02
612.359	5.83
612.694	6.02
613.028	6.3
613.363	6.26
613.697	6.31
614.032	6.23
614.366	6.13
614.7	5.75
615.035	6.25
615.369	6.03
615.703	6.13
616.037	6.14
616.371	6.23
616.705	6.24
617.039	6.1
617.373	6.1
617.707	5.92
618.041	5.92
618.375	5.78
618.709	6.61
619.042	6.4
619.376	6.12
619.71	6.25
620.043	6
620.377	6.12
620.71	6.05
621.043	5.89
621.377	6.04
621.71	6.01
622.043	6.02
622.376	6.28
622.709	6.3
623.043	5.94
623.376	5.72
623.709	6.43
624.041	6.18
624.374	6.22
624.707	6.06
625.04	5.99
625.373	6.13
625.705	6.02
626.038	6.1
626.37	6.63
626.703	6.38
627.035	6.13
627.368	6.19
627.7	6.1
628.032	5.85
628.365	6.01
628.697	6.13
629.029	6.34
629.361	6
629.693	5.99
630.025	6.34
630.357	6
630.689	6.2
631.021	6
631.353	6.12
631.684	6.2
632.016	6.23
632.348	6.33
632.679	6.22
633.011	6.35
633.342	5.79
633.674	6.18
634.005	5.9
634.336	6.09
634.668	5.84
634.999	6.33
635.33	6.33
635.661	6.15
635.992	5.9
636.323	6.22
636.654	5.94
636.985	6.59
637.316	6.08
637.647	5.97
637.977	6.42
638.308	6.38
638.639	6.49
638.969	6.34
639.3	5.94
639.63	6.19
639.961	5.81
640.291	5.85
640.622	6.02
640.952	6.12
641.282	6.41
641.612	6.14
641.943	6.37
642.273	6.44
642.603	6.14
642.933	6.2
643.263	6.14
643.592	6.1
643.922	6.39
644.252	5.91
644.582	6.28
644.911	6.38
645.241	6.43
645.571	6.19
645.9	5.73
646.23	6.02
646.559	6.18
646.888	6.6
647.218	6.23
647.547	6.3
647.876	6.33
648.205	6.35
648.534	6.1
648.863	5.99
649.192	5.89
649.521	6.17
649.85	6.47
650.179	6.34
650.508	6.18
650.837	6.6
651.165	6.42
651.494	6.13
651.822	6.38
652.151	6.59
652.479	6.57
652.808	6.26
653.136	6.26
653.465	6.26
653.793	6.19
654.121	6.3
654.449	6.43
654.777	6.68
655.105	6.34
655.433	6.36
655.761	6.56
656.089	6.62
656.417	6.19
656.745	6.35
657.073	6.35
657.4	6.33
657.728	5.83
658.056	6.11
658.383	6.85
658.711	6.22
659.038	6.58
659.365	6.38
659.693	6.65
660.02	6.47
660.347	6.63
660.674	6.35
661.001	6.36
661.329	6.3
661.656	6.49
661.982	6.74
662.309	6.41
662.636	6.5
662.963	6.37
663.29	6.27
663.616	6.42
663.943	6.22
664.27	6.54
664.596	6.16
664.923	6.64
665.249	6.05
665.576	6.63
665.902	6.73
666.228	6.51
666.554	6.85
666.881	6.57
667.207	6.7
667.533	6.68
667.859	5.95
668.185	6.25
668.511	5.76
668.837	6.37
669.162	5.91
669.488	6.32
669.814	6.81
670.139	6.42
670.465	6.82
670.791	6.72
671.116	6.66
671.442	5.65
671.767	7.11
672.092	6.8
672.418	7.08
672.743	6.1
673.068	6.46
673.393	6.6
673.718	6.37
674.043	5.85
674.368	6.8
674.693	6.78
675.018	5.88
675.343	6.43
675.667	6.4
675.992	6.64
676.317	7.13
676.641	6.83
676.966	7.36
677.29	7.17
677.615	6.24
677.939	6.86
678.264	5.98
678.588	6.36
678.912	6.17
679.236	6.84
679.56	6.63
679.885	6.85
680.209	6.54
680.532	6.41
680.856	6.51
681.18	6.72
681.504	6.12
681.828	6.33
682.152	6.52
682.475	6.62
682.799	5.9
683.122	6.33
683.446	6.41
683.769	6.86
684.093	6.65
684.416	7.23
684.739	6.7
685.062	6.83
685.386	6.28
685.709	6.28
686.032	6.34
686.355	6.05
686.678	6.45
687.001	6.44
687.324	6.76
687.646	6.5
687.969	6.77
688.292	6.96
688.614	6.88
688.937	7.05
689.26	6.92
689.582	6.93
689.904	6.9
690.227	6.64
690.549	6.54
690.871	7.23
691.194	7.26
691.516	6.44
691.838	6.77
692.16	6.68
692.482	6.63
692.804	7.41
693.126	6.14
