Data from 1897-2_crown_Reflection__3__14.txt Node

Date: Fri Sep 30 17:49:06 CDT 2022
User: ToomeyLab
Spectrometer: FLMS14357
Trigger mode: 0
Integration Time (sec): 1.000000E-2
Scans to average: 100
Electric dark correction enabled: true
Nonlinearity correction enabled: false
Boxcar width: 0
XAxis mode: Wavelengths
Number of Pixels in Spectrum: 2048
>>>>>Begin Spectral Data<<<<<
189.047	-71.89
189.435	-71.89
189.823	-71.89
190.211	-43.8
190.599	38.44
190.987	-33.44
191.375	-52.22
191.763	52.27
192.151	-3.57
192.538	-66.77
192.926	423.53
193.314	-100.21
193.702	32.7
194.089	-59.48
194.477	-49.14
194.864	119.71
195.252	-42.11
195.639	37.31
196.027	26.28
196.414	-18.81
196.801	54.42
197.189	-370.67
197.576	108.48
197.963	-27.3
198.351	-3.03
198.738	40.95
199.125	31.14
199.512	38.39
199.899	19.1
200.286	22.86
200.673	43.52
201.06	28.28
201.447	49.42
201.833	49.08
202.22	18.33
202.607	52.94
202.994	44.29
203.38	21.54
203.767	25.76
204.154	22.12
204.54	32.11
204.927	22.33
205.313	-17.85
205.699	52.09
206.086	-45.37
206.472	75.01
206.858	26.24
207.245	32.71
207.631	16.82
208.017	-7.23
208.403	-8.43
208.789	9.21
209.175	27.45
209.561	-14.17
209.947	19.8
210.333	-43.63
210.719	19.58
211.105	6.2
211.491	-2.69
211.876	13.6
212.262	41.7
212.648	15.38
213.034	-8.14
213.419	25.79
213.805	4.28
214.19	19.06
214.576	11.92
214.961	4.52
215.346	37.42
215.732	18.02
216.117	-9.64
216.502	33.3
216.888	26.53
217.273	-1.45
217.658	19.94
218.043	-6.5
218.428	13.69
218.813	26.02
219.198	15.79
219.583	17.66
219.968	29.67
220.353	7.31
220.738	9.2
221.122	15.17
221.507	31.19
221.892	3.11
222.276	22.14
222.661	12.28
223.046	8.39
223.43	11.73
223.815	19.46
224.199	12.86
224.583	12.11
224.968	3.63
225.352	12.42
225.736	13.89
226.121	10.98
226.505	8.87
226.889	13.36
227.273	6.93
227.657	12.83
228.041	12.53
228.425	15.18
228.809	12.35
229.193	9.57
229.577	9.4
229.961	11.75
230.344	9.56
230.728	9.83
231.112	10.05
231.495	10.02
231.879	10.81
232.263	9.86
232.646	9.56
233.03	11.78
233.413	11.67
233.797	9.34
234.18	10.25
234.563	10.75
234.946	9.99
235.33	9.93
235.713	11.42
236.096	9.12
236.479	8.99
236.862	9.77
237.245	10.21
237.628	9.16
238.011	11.98
238.394	9.74
238.777	9.28
239.16	8.75
239.543	10.39
239.925	10.74
240.308	10.96
240.691	10.47
241.073	9.95
241.456	11.03
241.838	9.32
242.221	9.75
242.603	10.1
242.986	10.61
243.368	8.53
243.75	9.86
244.133	9.86
244.515	10.14
244.897	9.36
245.279	10.42
245.661	9.21
246.043	8.81
246.425	9.17
246.807	8.52
247.189	10.22
247.571	9.32
247.953	9.41
248.335	8.94
248.717	8.81
249.098	8.98
249.48	8.87
249.862	8.92
250.243	8.87
250.625	9.55
251.006	8.88
251.388	8.38
251.769	9.25
252.151	8.75
252.532	8.84
252.913	9.03
253.295	9.29
253.676	8.19
254.057	8.68
254.438	8.08
254.819	9.63
255.2	8.63
255.581	9.13
255.962	8.42
256.343	8.62
256.724	8.64
257.105	9.19
257.486	9.26
257.867	8.18
258.247	8.66
258.628	8.61
259.009	9.27
259.389	7.89
259.77	8.76
260.15	8.31
260.531	8.7
260.911	7.94
261.292	7.88
261.672	7.88
262.052	7.73
262.432	7.94
262.813	8.38
263.193	8.14
263.573	8.5
263.953	8.44
264.333	8.23
264.713	7.33
265.093	7.69
265.473	7.08
265.853	8.53
266.233	8.53
266.612	7.9
266.992	7.89
267.372	7.4
267.752	7.42
268.131	7.78
268.511	7.23
268.89	7.35
269.27	7.8
269.649	7.6
270.029	8.08
270.408	7.48
270.787	7.37
271.167	8.05
271.546	7.88
271.925	7.83
272.304	8.23
272.683	7.1
273.062	7.46
273.441	7.12
273.82	7.1
274.199	7.48
274.578	7.27
274.957	7.6
275.336	7.45
275.715	6.99
276.093	7.88
276.472	7.55
276.851	7.73
277.229	7.5
277.608	7.23
277.986	7.22
278.365	7.94
278.743	7.16
279.122	7.41
279.5	7.67
279.878	7.29
280.257	7.44
280.635	6.98
281.013	7.76
281.391	7.25
281.769	6.93
282.147	7.26
282.525	6.82
282.903	6.89
283.281	6.7
283.659	7
284.037	6.92
284.415	7.45
284.792	7.08
285.17	6.49
285.548	7.16
285.925	7.15
286.303	6.94
286.68	6.58
287.058	6.94
287.435	6.82
287.813	6.81
288.19	6.68
288.567	6.9
288.945	6.23
289.322	6.57
289.699	6.56
290.076	7.15
290.453	7.21
290.83	6.67
291.207	6.38
291.584	6.62
291.961	6.64
292.338	6.83
292.715	6.87
293.092	6.36
293.469	6.64
293.845	7.25
294.222	6.74
294.599	6.77
294.975	7.24
295.352	6.93
295.728	6.81
296.105	6.75
296.481	6.5
296.858	6.95
297.234	6.8
297.61	6.72
297.986	6.02
298.363	6.3
298.739	6.17
299.115	6.31
299.491	6.5
299.867	6.18
300.243	6.22
300.619	6.2
300.995	7.05
301.371	6.62
301.746	6.4
302.122	6.36
302.498	6.56
302.874	6.7
303.249	6.63
303.625	6.68
304	6.81
304.376	7.04
304.751	6.45
305.127	6.07
305.502	6.36
305.878	5.89
306.253	6.03
306.628	5.66
307.003	6.34
307.378	6.8
307.754	6.22
308.129	5.98
308.504	6.04
308.879	6.6
309.254	5.86
309.629	6.11
310.003	6.07
310.378	6.11
310.753	5.76
311.128	5.92
311.502	5.97
311.877	6.28
312.252	6.25
312.626	6.28
313.001	5.78
313.375	5.81
313.75	6.4
314.124	6.08
314.498	6.02
314.873	5.95
315.247	5.78
315.621	5.87
315.995	6.54
316.369	5.97
316.743	6.16
317.117	6.52
317.491	6.61
317.865	6.88
318.239	6.16
318.613	6.87
318.987	6.08
319.361	6.25
319.734	5.5
320.108	6.07
320.482	6.3
320.855	5.73
321.229	5.91
321.602	5.71
321.976	5.74
322.349	6.15
322.723	5.77
323.096	6.26
323.469	5.93
323.843	6.05
324.216	5.74
324.589	6.57
324.962	6.45
325.335	6.06
325.708	6.51
326.081	6.41
326.454	6.15
326.827	6.27
327.2	5.8
327.573	5.84
327.945	5.85
328.318	5.93
328.691	6.16
329.063	5.86
329.436	5.78
329.809	6.57
330.181	6.21
330.553	6.07
330.926	6.13
331.298	6.27
331.671	6.41
332.043	6.34
332.415	5.72
332.787	5.8
333.159	5.91
333.532	6.65
333.904	6.04
334.276	6.2
334.648	5.68
335.02	6.15
335.391	6.21
335.763	5.6
336.135	5.95
336.507	5.91
336.879	5.76
337.25	5.56
337.622	6.03
337.993	5.65
338.365	5.73
338.736	6.26
339.108	5.95
339.479	6.39
339.851	6.28
340.222	6.06
340.593	6.17
340.964	6.01
341.336	5.89
341.707	6.06
342.078	5.96
342.449	6.13
342.82	6
343.191	5.86
343.562	6.41
343.933	6.09
344.303	5.99
344.674	6.21
345.045	5.81
345.416	6.29
345.786	6.11
346.157	6.71
346.527	6.01
346.898	6.1
347.268	5.84
347.639	5.7
348.009	6.16
348.38	6.28
348.75	6.72
349.12	6.34
349.49	6.47
349.861	6.09
350.231	5.92
350.601	6.74
350.971	6.17
351.341	6.18
351.711	6.29
352.081	5.97
352.45	6.85
352.82	6.09
353.19	6.54
353.56	6.33
353.929	5.95
354.299	6.58
354.669	6.18
355.038	6.16
355.408	6.58
355.777	6.1
356.147	6.23
356.516	6.57
356.885	5.85
357.254	6.44
357.624	6.5
357.993	5.96
358.362	6.52
358.731	6.15
359.1	6.24
359.469	5.94
359.838	6.32
360.207	6.33
360.576	6.4
360.945	6.39
361.314	6.3
361.682	6.44
362.051	6.37
362.42	6.54
362.788	6.45
363.157	6.44
363.525	6.25
363.894	6.27
364.262	6.28
364.631	6.74
364.999	6.52
365.367	6.33
365.735	6.12
366.104	5.96
366.472	6.87
366.84	6.47
367.208	6.58
367.576	6.74
367.944	6.64
368.312	6.16
368.68	6.28
369.048	6.22
369.416	6.36
369.783	6.64
370.151	6.53
370.519	6.73
370.886	6.52
371.254	6.88
371.621	6.98
371.989	6.56
372.356	6.7
372.724	7.06
373.091	6.44
373.458	6.39
373.826	6.7
374.193	6.64
374.56	6.87
374.927	6.9
375.294	6.99
375.661	6.35
376.028	6.42
376.395	6.85
376.762	6.46
377.129	7.11
377.496	6.81
377.863	6.3
378.229	7.12
378.596	6.71
378.963	6.65
379.329	6.46
379.696	6.77
380.062	6.69
380.429	6.65
380.795	6.51
381.161	6.55
381.528	6.81
381.894	6.59
382.26	6.57
382.626	6.8
382.993	6.67
383.359	6.57
383.725	6.59
384.091	6.53
384.457	6.94
384.823	7.01
385.188	6.97
385.554	6.81
385.92	6.89
386.286	6.8
386.651	6.87
387.017	6.54
387.383	6.7
387.748	6.52
388.114	6.88
388.479	6.88
388.845	6.64
389.21	6.75
389.575	6.83
389.94	6.7
390.306	7.12
390.671	6.85
391.036	6.95
391.401	6.61
391.766	7.01
392.131	6.99
392.496	7.03
392.861	7.07
393.226	6.9
393.591	6.75
393.956	7.02
394.32	6.95
394.685	7.02
395.05	7.04
395.414	6.82
395.779	6.74
396.143	7.08
396.508	6.76
396.872	6.82
397.236	6.66
397.601	7.02
397.965	6.99
398.329	6.98
398.694	7.16
399.058	6.84
399.422	7.17
399.786	6.86
400.15	7.28
400.514	6.94
400.878	6.94
401.242	6.59
401.605	7.04
401.969	7.04
402.333	7.18
402.697	6.85
403.06	6.77
403.424	6.84
403.787	7.35
404.151	7.02
404.514	7.04
404.878	7.01
405.241	7.12
405.604	7.13
405.968	7.13
406.331	7
406.694	6.98
407.057	6.92
407.42	7.09
407.783	6.99
408.146	6.89
408.509	6.88
408.872	7.07
409.235	7.16
409.598	7.01
409.961	7.23
410.323	7.14
410.686	7.32
411.049	7.01
411.411	7.14
411.774	7.16
412.136	7.15
412.499	6.98
412.861	6.96
413.223	7.04
413.586	7.03
413.948	7.21
414.31	7.34
414.672	7.23
415.035	7.38
415.397	7.11
415.759	7.06
416.121	7.17
416.483	6.94
416.845	6.98
417.206	7.13
417.568	7.05
417.93	6.83
418.292	7.04
418.653	6.91
419.015	7.22
419.377	6.92
419.738	6.92
420.1	7.07
420.461	7.05
420.822	6.96
421.184	6.98
421.545	6.97
421.906	6.89
422.267	6.95
422.629	6.91
422.99	6.87
423.351	6.85
423.712	6.85
424.073	6.98
424.434	6.96
424.795	6.9
425.155	6.91
425.516	6.92
425.877	6.97
426.238	6.86
426.598	6.87
426.959	6.87
427.32	6.99
427.68	7.01
428.041	6.97
428.401	7.01
428.761	7.24
429.122	7.25
429.482	7.09
429.842	7.23
430.202	7.13
430.563	7.04
430.923	7.05
431.283	6.91
431.643	7.22
432.003	7
432.363	7.12
432.722	7.21
433.082	7.18
433.442	7.14
433.802	7.15
434.161	7.01
434.521	7.08
434.881	6.85
435.24	6.91
435.6	7.16
435.959	7.07
436.319	7.09
436.678	7.13
437.037	7.11
437.396	7.24
437.756	7.1
438.115	7
438.474	7.04
438.833	7.21
439.192	7.2
439.551	7.08
439.91	6.97
440.269	6.81
440.628	6.98
440.987	7.05
441.345	7.08
441.704	7
442.063	7.05
442.421	6.99
442.78	7.06
443.138	6.88
443.497	7.12
443.855	7.13
444.214	7.09
444.572	7.14
444.93	7.05
445.288	7.18
445.647	7.02
446.005	7.01
446.363	7.07
446.721	6.98
447.079	7
447.437	7.05
447.795	6.9
448.153	6.93
448.51	6.86
448.868	6.84
449.226	6.87
449.584	6.9
449.941	6.83
450.299	7.07
450.656	7
451.014	7.2
451.371	7.13
451.729	7.15
452.086	7.03
452.443	7.24
452.801	7.13
453.158	6.86
453.515	7.09
453.872	7.17
454.229	7.1
454.586	7.16
454.943	7.1
455.3	6.91
455.657	7.04
456.014	6.89
456.371	6.96
456.727	7.09
457.084	6.87
457.441	6.89
457.797	7.09
458.154	6.77
458.51	6.81
458.867	7.15
459.223	7.05
459.58	7.19
459.936	7.18
460.292	7.14
460.648	7
461.005	6.95
461.361	6.88
461.717	6.82
462.073	6.79
462.429	6.82
462.785	6.9
463.141	6.97
463.496	7.07
463.852	6.83
464.208	7.02
464.564	6.9
464.919	7.02
465.275	7.01
465.631	7.17
465.986	7.08
466.342	7.14
466.697	7
467.052	7.09
467.408	7.06
467.763	6.77
468.118	7.05
468.473	6.86
468.829	6.97
469.184	7.12
469.539	7.08
469.894	7.03
470.249	7.02
470.603	7.06
470.958	7.05
471.313	6.99
471.668	7.01
472.023	6.94
472.377	6.96
472.732	6.92
473.086	6.99
473.441	6.98
473.795	6.87
474.15	6.95
474.504	7.04
474.859	7.05
475.213	6.91
475.567	7.03
475.921	6.98
476.275	6.91
476.63	6.9
476.984	7.04
477.338	6.96
477.692	6.95
478.045	7.04
478.399	7.06
478.753	6.97
479.107	6.85
479.461	6.96
479.814	6.98
480.168	6.97
480.521	6.95
480.875	6.94
481.228	6.89
481.582	6.94
481.935	6.99
482.289	6.95
482.642	7
482.995	6.95
483.348	6.87
483.701	6.96
484.055	6.8
484.408	6.82
484.761	6.73
485.114	6.65
485.466	6.59
485.819	6.51
486.172	6.47
486.525	6.48
486.878	6.52
487.23	6.57
487.583	6.62
487.936	6.7
488.288	6.73
488.641	6.65
488.993	6.63
489.345	6.58
489.698	6.56
490.05	6.56
490.402	6.6
490.754	6.61
491.107	6.71
491.459	6.77
491.811	6.78
492.163	6.84
492.515	6.82
492.866	6.77
493.218	6.6
493.57	6.61
493.922	6.49
494.274	6.57
494.625	6.66
494.977	6.67
495.328	6.83
495.68	6.74
496.031	6.9
496.383	6.82
496.734	6.88
497.086	6.92
497.437	6.96
497.788	6.86
498.139	6.69
498.49	6.79
498.842	6.73
499.193	6.79
499.544	6.74
499.894	6.79
500.245	6.85
500.596	6.7
500.947	6.74
501.298	6.91
501.648	6.88
501.999	6.9
502.35	6.78
502.7	6.72
503.051	6.8
503.401	6.89
503.752	6.77
504.102	6.94
504.452	6.75
504.803	6.79
505.153	6.94
505.503	6.73
505.853	6.89
506.203	6.72
506.553	6.81
506.903	6.96
507.253	6.95
507.603	6.82
507.953	6.96
508.303	6.92
508.652	6.81
509.002	6.91
509.352	6.94
509.701	6.77
510.051	6.83
510.4	6.71
510.75	6.68
511.099	6.74
511.449	6.72
511.798	6.68
512.147	6.76
512.496	6.63
512.846	6.74
513.195	6.81
513.544	6.76
513.893	6.81
514.242	6.64
514.591	6.81
514.939	6.74
515.288	6.79
515.637	6.69
515.986	6.69
516.334	6.65
516.683	6.61
517.032	6.79
517.38	6.68
517.729	6.73
518.077	6.77
518.426	6.77
518.774	6.81
519.122	6.73
519.47	6.77
519.819	6.66
520.167	6.69
520.515	6.56
520.863	6.61
521.211	6.72
521.559	6.72
521.907	6.69
522.255	6.6
522.602	6.7
522.95	6.73
523.298	6.85
523.645	6.78
523.993	6.79
524.341	6.74
524.688	6.78
525.036	6.5
525.383	6.63
525.73	6.73
526.078	6.84
526.425	6.69
526.772	6.73
527.119	6.51
527.466	6.59
527.814	6.51
528.161	6.62
528.508	6.62
528.854	6.62
529.201	6.57
529.548	6.57
529.895	6.46
530.242	6.4
530.588	6.4
530.935	6.38
531.282	6.35
531.628	6.38
531.975	6.42
532.321	6.4
532.667	6.57
533.014	6.51
533.36	6.57
533.706	6.61
534.052	6.55
534.399	6.54
534.745	6.48
535.091	6.44
535.437	6.52
535.783	6.45
536.129	6.35
536.474	6.48
536.82	6.51
537.166	6.65
537.512	6.63
537.857	6.62
538.203	6.62
538.549	6.47
538.894	6.54
539.239	6.49
539.585	6.61
539.93	6.54
540.276	6.72
540.621	6.67
540.966	6.71
541.311	6.67
541.656	6.56
542.001	6.64
542.346	6.6
542.691	6.43
543.036	6.43
543.381	6.35
543.726	6.34
544.071	6.35
544.415	6.38
544.76	6.45
545.105	6.44
545.449	6.55
545.794	6.55
546.138	6.49
546.483	6.58
546.827	6.52
547.171	6.5
547.516	6.48
547.86	6.5
548.204	6.53
548.548	6.54
548.892	6.58
549.236	6.56
549.58	6.58
549.924	6.58
550.268	6.68
550.612	6.81
550.956	6.75
551.3	6.65
551.643	6.58
551.987	6.49
552.33	6.67
552.674	6.68
553.017	6.62
553.361	6.49
553.704	6.78
554.048	6.52
554.391	6.67
554.734	6.58
555.077	6.49
555.42	6.75
555.764	6.46
556.107	6.58
556.45	6.64
556.793	6.47
557.135	6.72
557.478	6.6
557.821	6.75
558.164	6.59
558.507	6.81
558.849	6.65
559.192	6.68
559.534	6.64
559.877	6.65
560.219	6.59
560.562	6.64
560.904	6.64
561.246	6.57
561.589	6.5
561.931	6.56
562.273	6.52
562.615	6.55
562.957	6.43
563.299	6.69
563.641	6.52
563.983	6.56
564.325	6.5
564.667	6.63
565.008	6.47
565.35	6.63
565.692	6.8
566.033	6.44
566.375	6.4
566.716	6.55
567.058	6.48
567.399	6.57
567.741	6.49
568.082	6.68
568.423	6.63
568.764	6.66
569.105	6.35
569.447	6.4
569.788	6.47
570.129	6.56
570.47	6.47
570.811	6.48
571.151	6.61
571.492	6.49
571.833	6.43
572.174	6.33
572.514	6.42
572.855	6.39
573.195	6.6
573.536	6.56
573.876	6.53
574.217	6.38
574.557	6.51
574.898	6.42
575.238	6.53
575.578	6.34
575.918	6.26
576.258	6.53
576.598	6.37
576.938	6.49
577.278	6.46
577.618	6.4
577.958	6.39
578.298	6.44
578.638	6.53
578.977	6.39
579.317	6.35
579.657	6.5
579.996	6.29
580.336	6.39
580.675	6.44
581.014	6.29
581.354	6.33
581.693	6.61
582.032	6.11
582.372	6.37
582.711	6.3
583.05	6.16
583.389	6.27
583.728	6.33
584.067	6.47
584.406	6.52
584.745	6.38
585.083	6.33
585.422	6.5
585.761	6.42
586.1	6.4
586.438	6.64
586.777	6.48
587.115	6.48
587.454	6.55
587.792	6.17
588.13	6.5
588.469	6.49
588.807	6.28
589.145	6.41
589.483	6.64
589.821	6.54
590.159	6.45
590.497	6.38
590.835	6.34
591.173	6.3
591.511	6.28
591.849	6.41
592.187	6.33
592.524	6.08
592.862	6.56
593.2	6.42
593.537	6.03
593.875	6.33
594.212	6.26
594.55	6.31
594.887	6.58
595.224	6.44
595.561	6.21
595.899	6.15
596.236	6.3
596.573	6.27
596.91	6.32
597.247	6.15
597.584	6.42
597.921	6.2
598.258	6.16
598.594	6.19
598.931	6.24
599.268	6.24
599.604	6.15
599.941	6
600.277	5.96
600.614	6.22
600.95	6.4
601.287	6.05
601.623	6.41
601.959	6.12
602.296	6.23
602.632	6.31
602.968	6.39
603.304	6.14
603.64	6.44
603.976	6.15
604.312	5.99
604.648	6.35
604.984	6.32
605.319	6.25
605.655	6.16
605.991	6.1
606.326	6.27
606.662	6.19
606.998	5.98
607.333	6.03
607.668	6.15
608.004	6.08
608.339	6.13
608.674	6.37
609.01	5.89
609.345	6.14
609.68	6.18
610.015	6.29
610.35	6.38
610.685	5.9
611.02	6.01
611.355	5.97
611.689	5.9
612.024	6.19
612.359	6.01
612.694	6.2
613.028	6.05
613.363	5.79
613.697	6.12
614.032	6.26
614.366	6.09
614.7	6.18
615.035	6.18
615.369	5.95
615.703	6.18
616.037	6.04
616.371	5.98
616.705	5.85
617.039	6.33
617.373	6.01
617.707	5.81
618.041	6.29
618.375	6.31
618.709	6.19
619.042	5.82
619.376	6.16
619.71	6.15
620.043	6.07
620.377	6.32
620.71	5.89
621.043	6.27
621.377	6.09
621.71	5.83
622.043	6.06
622.376	5.77
622.709	5.86
623.043	6.34
623.376	6.1
623.709	5.92
624.041	6.35
624.374	6.04
624.707	5.64
625.04	6.4
625.373	6.27
625.705	5.69
626.038	6.4
626.37	6.4
626.703	6.29
627.035	5.99
627.368	6.06
627.7	5.91
628.032	6.08
628.365	5.94
628.697	6.04
629.029	5.9
629.361	5.9
629.693	6.34
630.025	5.88
630.357	6.08
630.689	5.92
631.021	5.68
631.353	5.95
631.684	6.27
632.016	6.08
632.348	6.18
632.679	5.92
633.011	5.72
633.342	6.16
633.674	6.17
634.005	6.02
634.336	5.72
634.668	6.1
634.999	5.91
635.33	6.53
635.661	5.94
635.992	5.97
636.323	5.92
636.654	5.65
636.985	6.1
637.316	6.09
637.647	5.74
637.977	6.35
638.308	5.52
638.639	5.62
638.969	5.99
639.3	5.62
639.63	5.56
639.961	6.17
640.291	5.47
640.622	6.17
640.952	6.05
641.282	6.25
641.612	6.02
641.943	6.29
642.273	5.91
642.603	5.61
642.933	5.58
643.263	6.04
643.592	6.03
643.922	5.59
644.252	6.13
644.582	6.11
644.911	6.03
645.241	6.29
645.571	5.84
645.9	5.99
646.23	5.91
646.559	6.04
646.888	5.29
647.218	5.64
647.547	5.53
647.876	5.73
648.205	5.81
648.534	5.74
648.863	5.9
649.192	5.9
649.521	5.95
649.85	5.84
650.179	6.16
650.508	5.59
650.837	5.97
651.165	5.85
651.494	6.04
651.822	6.4
652.151	5.68
652.479	6.31
652.808	6.21
653.136	6.07
653.465	5.97
653.793	5.65
654.121	5.79
654.449	5.85
654.777	5.63
655.105	5.94
655.433	5.63
655.761	6.17
656.089	6.27
656.417	5.32
656.745	6.03
657.073	6.06
657.4	6.22
657.728	5.97
658.056	5.82
658.383	5.67
658.711	5.97
659.038	5.18
659.365	6.28
659.693	5.71
660.02	5.91
660.347	5.93
660.674	5.88
661.001	5.82
661.329	5.93
661.656	5.83
661.982	5.91
662.309	6.06
662.636	6.13
662.963	5.83
663.29	5.3
663.616	5.69
663.943	5.85
664.27	5.61
664.596	5.73
664.923	5.49
665.249	5.7
665.576	6.03
665.902	5.61
666.228	6.1
666.554	5.99
666.881	5.97
667.207	5.51
667.533	5.62
667.859	6.33
668.185	6.27
668.511	5.38
668.837	5.32
669.162	6.02
669.488	5.41
669.814	6.05
670.139	5.55
670.465	6
670.791	6.15
671.116	5.34
671.442	5.94
671.767	5.65
672.092	5.93
672.418	5.56
672.743	6.18
673.068	5.85
673.393	6.21
673.718	4.9
674.043	6.46
674.368	5.89
674.693	5.5
675.018	5.7
675.343	6.11
675.667	6.37
675.992	5.59
676.317	5.92
676.641	5.69
676.966	5.42
677.29	4.71
677.615	5.42
677.939	5.81
678.264	5.74
678.588	5.84
678.912	5.9
679.236	5.34
679.56	5.39
679.885	5.74
680.209	5.89
680.532	6.53
680.856	5.88
681.18	6.05
681.504	6.2
681.828	5.84
682.152	5.51
682.475	5.9
682.799	5.96
683.122	5.66
683.446	5.64
683.769	6.16
684.093	6.5
684.416	6.75
684.739	5.64
685.062	6.33
685.386	6.32
685.709	5.78
686.032	5.83
686.355	5.86
686.678	5.91
687.001	6.04
687.324	6.16
687.646	5.42
687.969	5.54
688.292	5.96
688.614	5.43
688.937	5.63
689.26	5.46
689.582	5.84
689.904	5.96
690.227	5.43
690.549	5.04
690.871	5.71
691.194	5.66
691.516	5.33
691.838	5.32
692.16	5.82
