Data from 1897-2_crown_Reflection__2__13.txt Node

Date: Fri Sep 30 17:48:55 CDT 2022
User: ToomeyLab
Spectrometer: FLMS14357
Trigger mode: 0
Integration Time (sec): 1.000000E-2
Scans to average: 100
Electric dark correction enabled: true
Nonlinearity correction enabled: false
Boxcar width: 0
XAxis mode: Wavelengths
Number of Pixels in Spectrum: 2048
>>>>>Begin Spectral Data<<<<<
189.047	0.62
189.435	0.62
189.823	0.62
190.211	-236.54
190.599	-36.26
190.987	-41.85
191.375	658.75
191.763	90.37
192.151	31.01
192.538	29.47
192.926	178.8
193.314	56.99
193.702	7.19
194.089	-84.71
194.477	-61.04
194.864	135.06
195.252	-778.47
195.639	206.56
196.027	-69.21
196.414	62.11
196.801	95.71
197.189	-141.27
197.576	149.57
197.963	-39.78
198.351	-15.83
198.738	-6.5
199.125	52.96
199.512	23.91
199.899	30.87
200.286	15.45
200.673	27.64
201.06	21.69
201.447	27.56
201.833	10.6
202.22	3.61
202.607	26.46
202.994	56.52
203.38	5.51
203.767	8.44
204.154	10.45
204.54	23.12
204.927	19.2
205.313	-26.62
205.699	19.33
206.086	-90.27
206.472	1.33
206.858	33.44
207.245	-4.32
207.631	9.29
208.017	-3.88
208.403	21.62
208.789	15.39
209.175	8.63
209.561	33.89
209.947	23.63
210.333	-8.05
210.719	-3.17
211.105	7.39
211.491	24.08
211.876	21.51
212.262	35.66
212.648	17.48
213.034	8.76
213.419	15.2
213.805	5.44
214.19	13.81
214.576	23.23
214.961	4.16
215.346	20.68
215.732	-10.58
216.117	6.46
216.502	7.83
216.888	20.36
217.273	-11.48
217.658	25.5
218.043	-14.95
218.428	1.27
218.813	19.76
219.198	20.69
219.583	3.48
219.968	36.86
220.353	14.85
220.738	11.19
221.122	24.42
221.507	22.35
221.892	9.72
222.276	-17.97
222.661	14.64
223.046	4.89
223.43	1.95
223.815	14.93
224.199	13.37
224.583	8.12
224.968	-0.46
225.352	-3.14
225.736	3.59
226.121	8.27
226.505	1.29
226.889	6.83
227.273	-3.19
227.657	4.07
228.041	4.75
228.425	8.59
228.809	5.38
229.193	6.4
229.577	4.62
229.961	6.3
230.344	5.14
230.728	5.75
231.112	6.16
231.495	5.12
231.879	8.43
232.263	5.14
232.646	4.44
233.03	7
233.413	7.32
233.797	5.05
234.18	6.66
234.563	7.15
234.946	6.35
235.33	3.76
235.713	6.74
236.096	5.83
236.479	5.79
236.862	6.6
237.245	4.48
237.628	5.08
238.011	7.29
238.394	4.41
238.777	3.19
239.16	4.81
239.543	5.88
239.925	6.19
240.308	5.58
240.691	6.73
241.073	6.2
241.456	5.01
241.838	5.62
242.221	4.76
242.603	6.12
242.986	5.75
243.368	4.38
243.75	5.09
244.133	5.93
244.515	5.28
244.897	5.52
245.279	5.58
245.661	6.46
246.043	5.81
246.425	4.57
246.807	5
247.189	6.01
247.571	5.83
247.953	5.28
248.335	5.17
248.717	5.01
249.098	5.39
249.48	5.35
249.862	5.31
250.243	5.03
250.625	4.95
251.006	5.19
251.388	4.28
251.769	6.33
252.151	4.85
252.532	5.9
252.913	4.04
253.295	5.29
253.676	4.95
254.057	5.52
254.438	5.36
254.819	5.5
255.2	5.01
255.581	4.98
255.962	5.15
256.343	4.7
256.724	5.58
257.105	5.19
257.486	5.69
257.867	4.21
258.247	4.02
258.628	5.3
259.009	6.17
259.389	4.66
259.77	5.52
260.15	5.03
260.531	5.38
260.911	4.75
261.292	4.61
261.672	4.6
262.052	4.91
262.432	4.83
262.813	5.44
263.193	4.76
263.573	4.84
263.953	5.2
264.333	5.58
264.713	3.96
265.093	5.24
265.473	4.44
265.853	4.81
266.233	4.57
266.612	4.83
266.992	5.15
267.372	4.06
267.752	4.36
268.131	4.81
268.511	4.92
268.89	4.02
269.27	4.88
269.649	4.47
270.029	5.04
270.408	4.11
270.787	5.09
271.167	4.47
271.546	5.15
271.925	5.51
272.304	4.72
272.683	4.43
273.062	4.54
273.441	4.55
273.82	4.13
274.199	4.67
274.578	4.12
274.957	4.63
275.336	4.08
275.715	4.67
276.093	4.37
276.472	4.7
276.851	4.45
277.229	4.2
277.608	4.93
277.986	4.16
278.365	4.35
278.743	4.47
279.122	3.96
279.5	4.34
279.878	4.72
280.257	4.86
280.635	5.16
281.013	4.67
281.391	4.56
281.769	4.78
282.147	3.92
282.525	4.38
282.903	4.11
283.281	3.76
283.659	4.49
284.037	4.43
284.415	4.8
284.792	4.78
285.17	4.23
285.548	4.24
285.925	4.33
286.303	3.93
286.68	3.86
287.058	3.8
287.435	4.26
287.813	4.28
288.19	4.34
288.567	4.33
288.945	3.94
289.322	3.95
289.699	4.19
290.076	4.51
290.453	4.15
290.83	3.89
291.207	4.03
291.584	3.76
291.961	4.25
292.338	4.47
292.715	4.45
293.092	3.64
293.469	4.3
293.845	4.53
294.222	4
294.599	4.84
294.975	4.12
295.352	4.17
295.728	4.04
296.105	3.96
296.481	4.6
296.858	4.75
297.234	3.93
297.61	3.76
297.986	3.72
298.363	3.99
298.739	3.68
299.115	3.87
299.491	4.07
299.867	3.99
300.243	4.12
300.619	4
300.995	4.7
301.371	3.96
301.746	4.15
302.122	4.39
302.498	4.58
302.874	4.02
303.249	4.65
303.625	4.32
304	4.11
304.376	4.08
304.751	3.79
305.127	3.84
305.502	3.76
305.878	4.32
306.253	4.25
306.628	4.38
307.003	3.78
307.378	4.06
307.754	3.69
308.129	3.81
308.504	3.94
308.879	4.42
309.254	3.47
309.629	4.28
310.003	3.53
310.378	3.61
310.753	3.71
311.128	3.81
311.502	3.89
311.877	4.4
312.252	3.9
312.626	3.97
313.001	3.77
313.375	3.71
313.75	4.43
314.124	3.83
314.498	4.06
314.873	4.02
315.247	3.91
315.621	3.53
315.995	4.02
316.369	3.37
316.743	4.1
317.117	4.47
317.491	4.74
317.865	4.54
318.239	4.22
318.613	4
318.987	3.39
319.361	3.64
319.734	3.46
320.108	3.88
320.482	3.93
320.855	3.75
321.229	4.12
321.602	3.73
321.976	3.8
322.349	3.63
322.723	3.51
323.096	4.45
323.469	4.03
323.843	4.09
324.216	3.8
324.589	4.21
324.962	3.94
325.335	3.51
325.708	3.58
326.081	3.77
326.454	4.04
326.827	3.46
327.2	3.69
327.573	3.62
327.945	3.52
328.318	3.67
328.691	4.64
329.063	3.58
329.436	3.96
329.809	4.02
330.181	3.71
330.553	3.8
330.926	4
331.298	3.49
331.671	4.34
332.043	4.15
332.415	3.91
332.787	3.85
333.159	3.41
333.532	4.13
333.904	3.5
334.276	3.79
334.648	3.7
335.02	4.11
335.391	4.09
335.763	3.67
336.135	3.63
336.507	3.62
336.879	3.89
337.25	3.67
337.622	3.97
337.993	3.78
338.365	4.31
338.736	3.86
339.108	3.75
339.479	3.8
339.851	3.46
340.222	4.08
340.593	3.58
340.964	3.52
341.336	4.22
341.707	3.94
342.078	4.1
342.449	3.78
342.82	3.25
343.191	3.46
343.562	3.7
343.933	3.72
344.303	3.92
344.674	3.3
345.045	3.3
345.416	4.28
345.786	4.03
346.157	4.27
346.527	3.97
346.898	3.88
347.268	3.37
347.639	3.59
348.009	3.71
348.38	4.45
348.75	4.37
349.12	3.98
349.49	4.15
349.861	3.66
350.231	3.68
350.601	4.05
350.971	3.66
351.341	3.81
351.711	3.59
352.081	3.91
352.45	3.95
352.82	4.22
353.19	3.73
353.56	3.32
353.929	3.53
354.299	4.02
354.669	3.88
355.038	4.4
355.408	3.81
355.777	3.74
356.147	3.74
356.516	3.93
356.885	3.31
357.254	4.15
357.624	3.79
357.993	3.36
358.362	3.82
358.731	3.74
359.1	3.86
359.469	3.68
359.838	4.06
360.207	3.86
360.576	3.89
360.945	3.94
361.314	3.82
361.682	3.69
362.051	4.01
362.42	3.95
362.788	3.82
363.157	3.9
363.525	3.75
363.894	3.93
364.262	4.13
364.631	4.27
364.999	3.87
365.367	3.95
365.735	3.79
366.104	3.73
366.472	4.15
366.84	3.91
367.208	4.02
367.576	4.67
367.944	3.91
368.312	3.56
368.68	3.48
369.048	3.79
369.416	3.97
369.783	3.79
370.151	4.23
370.519	3.73
370.886	4.23
371.254	3.92
371.621	4.12
371.989	3.83
372.356	4.07
372.724	4.07
373.091	3.49
373.458	3.8
373.826	4.09
374.193	4.3
374.56	4.32
374.927	4.66
375.294	4.15
375.661	4
376.028	3.76
376.395	3.97
376.762	3.57
377.129	4.32
377.496	4.04
377.863	3.91
378.229	4.51
378.596	3.97
378.963	4.2
379.329	3.93
379.696	4.08
380.062	4.11
380.429	4.19
380.795	3.87
381.161	4.06
381.528	4.27
381.894	3.85
382.26	3.84
382.626	4.05
382.993	4.39
383.359	3.8
383.725	3.93
384.091	4.04
384.457	4.16
384.823	4.31
385.188	3.95
385.554	4.2
385.92	4.27
386.286	4.07
386.651	4.13
387.017	4.13
387.383	4.07
387.748	3.97
388.114	4.14
388.479	3.99
388.845	3.85
389.21	4.18
389.575	4.17
389.94	4.06
390.306	4.05
390.671	4.02
391.036	4.34
391.401	4.05
391.766	4.38
392.131	4.05
392.496	4.19
392.861	4.07
393.226	4.06
393.591	4.15
393.956	4.12
394.32	4.19
394.685	4.32
395.05	4.37
395.414	4.09
395.779	4.04
396.143	4.16
396.508	4.11
396.872	4.16
397.236	4.12
397.601	4.21
397.965	4.21
398.329	4.16
398.694	4.43
399.058	4.26
399.422	4.37
399.786	4.33
400.15	4.31
400.514	4.03
400.878	4.15
401.242	3.91
401.605	4.16
401.969	4.39
402.333	4.12
402.697	4.46
403.06	4.07
403.424	4.3
403.787	4.33
404.151	4.18
404.514	4.06
404.878	4.21
405.241	4.3
405.604	4.33
405.968	4.23
406.331	4.28
406.694	4.18
407.057	4.3
407.42	4.35
407.783	3.98
408.146	4.08
408.509	4.28
408.872	4.34
409.235	4.44
409.598	4.4
409.961	4.33
410.323	4.37
410.686	4.38
411.049	4.21
411.411	4.29
411.774	4.32
412.136	4.41
412.499	4.36
412.861	4.28
413.223	4.1
413.586	4.23
413.948	4.51
414.31	4.42
414.672	4.38
415.035	4.59
415.397	4.32
415.759	4.33
416.121	4.43
416.483	4.3
416.845	4.33
417.206	4.34
417.568	4.33
417.93	4.15
418.292	4.33
418.653	4.16
419.015	4.51
419.377	4.22
419.738	4.15
420.1	4.27
420.461	4.2
420.822	4.17
421.184	4.2
421.545	4.15
421.906	4.12
422.267	4.1
422.629	4.13
422.99	4.2
423.351	4.19
423.712	4.22
424.073	4.28
424.434	4.27
424.795	4.19
425.155	4.2
425.516	4.16
425.877	4.29
426.238	4.1
426.598	4.15
426.959	4.13
427.32	4.42
427.68	4.33
428.041	4.37
428.401	4.34
428.761	4.46
429.122	4.41
429.482	4.42
429.842	4.33
430.202	4.23
430.563	4.43
430.923	4.21
431.283	4.34
431.643	4.52
432.003	4.32
432.363	4.36
432.722	4.42
433.082	4.52
433.442	4.34
433.802	4.41
434.161	4.41
434.521	4.07
434.881	4.11
435.24	4.2
435.6	4.32
435.959	4.23
436.319	4.42
436.678	4.36
437.037	4.41
437.396	4.47
437.756	4.4
438.115	4.32
438.474	4.49
438.833	4.39
439.192	4.36
439.551	4.23
439.91	4.29
440.269	4.08
440.628	4.28
440.987	4.32
441.345	4.38
441.704	4.29
442.063	4.3
442.421	4.31
442.78	4.28
443.138	4.19
443.497	4.27
443.855	4.37
444.214	4.45
444.572	4.41
444.93	4.28
445.288	4.41
445.647	4.31
446.005	4.23
446.363	4.34
446.721	4.21
447.079	4.22
447.437	4.23
447.795	4.15
448.153	4.25
448.51	4.16
448.868	4.24
449.226	4.28
449.584	4.35
449.941	4.41
450.299	4.27
450.656	4.47
451.014	4.41
451.371	4.44
451.729	4.53
452.086	4.43
452.443	4.35
452.801	4.47
453.158	4.27
453.515	4.32
453.872	4.5
454.229	4.28
454.586	4.42
454.943	4.47
455.3	4.39
455.657	4.48
456.014	4.31
456.371	4.29
456.727	4.35
457.084	4.21
457.441	4.42
457.797	4.19
458.154	4.27
458.51	4.37
458.867	4.5
459.223	4.32
459.58	4.34
459.936	4.33
460.292	4.28
460.648	4.2
461.005	4.21
461.361	4.08
461.717	4.15
462.073	4.21
462.429	4.29
462.785	4.36
463.141	4.32
463.496	4.47
463.852	4.31
464.208	4.64
464.564	4.24
464.919	4.52
465.275	4.46
465.631	4.35
465.986	4.25
466.342	4.36
466.697	4.46
467.052	4.37
467.408	4.26
467.763	4.29
468.118	4.33
468.473	4.22
468.829	4.36
469.184	4.43
469.539	4.4
469.894	4.18
470.249	4.41
470.603	4.46
470.958	4.34
471.313	4.36
471.668	4.24
472.023	4.21
472.377	4.31
472.732	4.41
473.086	4.21
473.441	4.5
473.795	4.33
474.15	4.2
474.504	4.34
474.859	4.36
475.213	4.29
475.567	4.39
475.921	4.32
476.275	4.3
476.63	4.43
476.984	4.39
477.338	4.31
477.692	4.3
478.045	4.36
478.399	4.32
478.753	4.34
479.107	4.23
479.461	4.24
479.814	4.3
480.168	4.4
480.521	4.31
480.875	4.49
481.228	4.31
481.582	4.29
481.935	4.38
482.289	4.29
482.642	4.17
482.995	4.28
483.348	4.16
483.701	4.29
484.055	4.13
484.408	4.04
484.761	3.99
485.114	3.85
485.466	3.83
485.819	3.89
486.172	4.07
486.525	4.21
486.878	4.27
487.23	4.3
487.583	4.19
487.936	4.24
488.288	4.13
488.641	4
488.993	3.99
489.345	4
489.698	4.01
490.05	4.14
490.402	4.18
490.754	4.21
491.107	4.3
491.459	4.38
491.811	4.18
492.163	4.24
492.515	4.15
492.866	3.99
493.218	3.88
493.57	3.96
493.922	4.12
494.274	4.27
494.625	4.41
494.977	4.37
495.328	4.38
495.68	4.2
496.031	4.23
496.383	4.45
496.734	4.31
497.086	4.23
497.437	4.43
497.788	4.22
498.139	4.11
498.49	4.1
498.842	4.16
499.193	4.36
499.544	4.24
499.894	4.28
500.245	4.27
500.596	4.25
500.947	4.26
501.298	4.42
501.648	4.32
501.999	4.19
502.35	4.29
502.7	4.39
503.051	4.33
503.401	4.35
503.752	4.2
504.102	4.41
504.452	4.42
504.803	4.32
505.153	4.45
505.503	4.27
505.853	4.31
506.203	4.15
506.553	4.23
506.903	4.34
507.253	4.24
507.603	4.49
507.953	4.34
508.303	4.37
508.652	4.27
509.002	4.28
509.352	4.34
509.701	4.29
510.051	4.29
510.4	4.2
510.75	4.24
511.099	4.15
511.449	4.23
511.798	4.19
512.147	4.23
512.496	4.3
512.846	4.29
513.195	4.34
513.544	4.31
513.893	4.27
514.242	4.28
514.591	4.3
514.939	4.16
515.288	4.37
515.637	4.23
515.986	4.33
516.334	4.38
516.683	4.08
517.032	4.37
517.38	4.25
517.729	4.42
518.077	4.23
518.426	4.18
518.774	4.25
519.122	4.26
519.47	4.18
519.819	4.24
520.167	4.13
520.515	4.16
520.863	4.3
521.211	4.29
521.559	4.34
521.907	4.23
522.255	4.28
522.602	4.48
522.95	4.21
523.298	4.4
523.645	4.36
523.993	4.39
524.341	4.51
524.688	4.35
525.036	4.24
525.383	4.15
525.73	4.31
526.078	4.38
526.425	4.17
526.772	4.24
527.119	4.06
527.466	4.07
527.814	4.12
528.161	4.14
528.508	4.23
528.854	4.17
529.201	4.16
529.548	4.02
529.895	3.93
530.242	3.88
530.588	3.92
530.935	4.11
531.282	4.2
531.628	4.22
531.975	4.28
532.321	4.26
532.667	4.29
533.014	4.29
533.36	4.21
533.706	4.19
534.052	4.2
534.399	4.15
534.745	4.05
535.091	4.02
535.437	4.2
535.783	4.25
536.129	4.29
536.474	4.3
536.82	4.31
537.166	4.31
537.512	4.25
537.857	4.21
538.203	4.14
538.549	4.04
538.894	4.18
539.239	4.28
539.585	4.31
539.93	4.34
540.276	4.36
540.621	4.37
540.966	4.3
541.311	4.33
541.656	4.31
542.001	4.22
542.346	4.16
542.691	3.97
543.036	3.94
543.381	4.02
543.726	4.1
544.071	4.27
544.415	4.21
544.76	4.25
545.105	4.17
545.449	4.3
545.794	4.27
546.138	4.29
546.483	4.37
546.827	4.27
547.171	4.27
547.516	4.19
547.86	4.22
548.204	4.18
548.548	4.2
548.892	4.13
549.236	4.21
549.58	4.32
549.924	4.27
550.268	4.49
550.612	4.39
550.956	4.47
551.3	4.41
551.643	4.38
551.987	4.28
552.33	4.36
552.674	4.5
553.017	4.23
553.361	4.17
553.704	4.38
554.048	4.2
554.391	4.33
554.734	4.24
555.077	4.32
555.42	4.42
555.764	4.34
556.107	4.47
556.45	4.4
556.793	4.37
557.135	4.51
557.478	4.23
557.821	4.3
558.164	4.39
558.507	4.44
558.849	4.26
559.192	4.21
559.534	4.29
559.877	4.47
560.219	4.27
560.562	4.44
560.904	4.3
561.246	4.41
561.589	4.23
561.931	4.38
562.273	4.34
562.615	4.48
562.957	4.3
563.299	4.28
563.641	4.24
563.983	4.2
564.325	4.38
564.667	4.49
565.008	4.25
565.35	4.28
565.692	4.34
566.033	4.1
566.375	4.16
566.716	4.48
567.058	4.29
567.399	4.27
567.741	4.23
568.082	4.21
568.423	4.42
568.764	4.34
569.105	4.36
569.447	4.31
569.788	4.36
570.129	4.36
570.47	4.3
570.811	4.31
571.151	4.44
571.492	4.37
571.833	4.26
572.174	4.18
572.514	4.25
572.855	4.23
573.195	4.2
573.536	4.32
573.876	4.39
574.217	4.23
574.557	4.42
574.898	4.43
575.238	4.41
575.578	4.35
575.918	4.26
576.258	4.34
576.598	4.39
576.938	4.26
577.278	4.38
577.618	4.42
577.958	4.29
578.298	4.32
578.638	4.49
578.977	4.29
579.317	4.28
579.657	4.48
579.996	4.26
580.336	4.48
580.675	4.42
581.014	4.35
581.354	4.2
581.693	4.56
582.032	4.5
582.372	4.28
582.711	4.3
583.05	4.38
583.389	4.31
583.728	4.26
584.067	4.45
584.406	4.33
584.745	4.37
585.083	4.36
585.422	4.38
585.761	4.12
586.1	4.26
586.438	4.6
586.777	4.6
587.115	4.46
587.454	4.54
587.792	4.25
588.13	4.54
588.469	4.35
588.807	4.53
589.145	4.3
589.483	4.59
589.821	4.28
590.159	4.62
590.497	4.14
590.835	4.33
591.173	4.37
591.511	4.05
591.849	4.47
592.187	4.14
592.524	4.28
592.862	4.47
593.2	4.44
593.537	4.26
593.875	4.41
594.212	4.38
594.55	4.16
594.887	4.48
595.224	4.55
595.561	4.27
595.899	4.22
596.236	4.19
596.573	4.25
596.91	4.49
597.247	4.39
597.584	4.32
597.921	4.19
598.258	4.24
598.594	4.06
598.931	4.19
599.268	4.04
599.604	4.29
599.941	4.24
600.277	4.29
600.614	4.56
600.95	4.43
601.287	4.28
601.623	4.39
601.959	4.48
602.296	4.47
602.632	4.3
602.968	4.33
603.304	4.19
603.64	4.3
603.976	4.13
604.312	4.07
604.648	4.42
604.984	4.55
605.319	4.41
605.655	4.4
605.991	4.34
606.326	4.11
606.662	4.24
606.998	4.16
607.333	4.32
607.668	4.39
608.004	4.54
608.339	4.56
608.674	4.68
609.01	4.22
609.345	4.15
609.68	4.48
610.015	4.52
610.35	4.24
610.685	4.01
611.02	3.99
611.355	3.99
611.689	4.16
612.024	4.42
612.359	4.43
612.694	4.5
613.028	4.61
613.363	4.33
613.697	4.36
614.032	4.3
614.366	4.47
614.7	4.41
615.035	4.44
615.369	4.3
615.703	4.41
616.037	4.45
616.371	4.62
616.705	4.24
617.039	4.54
617.373	4.29
617.707	4.08
618.041	4.34
618.375	4.48
618.709	4.45
619.042	4.43
619.376	4.52
619.71	4.51
620.043	4.35
620.377	4.32
620.71	4.07
621.043	4.57
621.377	4.4
621.71	4
622.043	4.55
622.376	4.29
622.709	4.17
623.043	4.84
623.376	4.31
623.709	4.05
624.041	4.56
624.374	4.25
624.707	4.16
625.04	4.35
625.373	4.27
625.705	3.85
626.038	4.21
626.37	4.58
626.703	4.43
627.035	4.3
627.368	4.44
627.7	4.44
628.032	4.39
628.365	3.97
628.697	4.44
629.029	4.26
629.361	4.1
629.693	4.63
630.025	4.38
630.357	4.44
630.689	4.41
631.021	4.37
631.353	4.29
631.684	4.28
632.016	4.45
632.348	4.45
632.679	4.17
633.011	4.26
633.342	4.4
633.674	4.7
634.005	4.23
634.336	4.62
634.668	4.45
634.999	4.41
635.33	4.65
635.661	4.24
635.992	4.35
636.323	4.35
636.654	4.08
636.985	4.44
637.316	4.5
637.647	4.11
637.977	4.6
638.308	3.88
638.639	3.95
638.969	4.28
639.3	4.51
639.63	4.4
639.961	4.62
640.291	4.16
640.622	4.67
640.952	4.53
641.282	4.52
641.612	4.7
641.943	4.6
642.273	4.44
642.603	4.32
642.933	3.85
643.263	4.65
643.592	4.47
643.922	3.79
644.252	4.72
644.582	4.49
644.911	4.46
645.241	4.9
645.571	4.25
645.9	4.5
646.23	4.62
646.559	4.38
646.888	4.68
647.218	4.15
647.547	4.43
647.876	4.25
648.205	4.4
648.534	4.12
648.863	4.34
649.192	4.53
649.521	4.14
649.85	4.21
650.179	4.36
650.508	4.37
650.837	4.27
651.165	4.4
651.494	4.73
651.822	4.65
652.151	4.49
652.479	4.54
652.808	4.75
653.136	4.44
653.465	4.52
653.793	4.33
654.121	3.76
654.449	4.72
654.777	4.61
655.105	4.9
655.433	4.61
655.761	4.39
656.089	5.02
656.417	4.11
656.745	4.35
657.073	4.39
657.4	4.69
657.728	4.54
658.056	4.37
658.383	4.63
658.711	4.51
659.038	4.23
659.365	4.2
659.693	4.36
660.02	4.38
660.347	4.25
660.674	4.38
661.001	4.28
661.329	4.49
661.656	4.35
661.982	4.5
662.309	4.67
662.636	4.69
662.963	4.44
663.29	4.24
663.616	4.19
663.943	5.02
664.27	4.21
664.596	4.39
664.923	4.17
665.249	4.63
665.576	4.65
665.902	4.5
666.228	5
666.554	4.41
666.881	4.55
667.207	4.2
667.533	4.26
667.859	4.79
668.185	4.33
668.511	4.69
668.837	4.4
669.162	4.84
669.488	4.2
669.814	4.47
670.139	4.35
670.465	5.11
670.791	4.22
671.116	4.47
671.442	4.77
671.767	4.52
672.092	4.27
672.418	4.01
672.743	4.88
673.068	5.25
673.393	4.58
673.718	4.21
674.043	4.78
674.368	5.06
674.693	3.93
675.018	4.49
675.343	4.4
675.667	4.88
675.992	3.97
676.317	4.71
676.641	4.46
676.966	4.22
677.29	4.04
677.615	4.06
677.939	4.1
678.264	4.65
678.588	4.27
678.912	4.93
679.236	5.01
679.56	4.89
679.885	4.5
680.209	4.07
680.532	4.68
680.856	4.29
681.18	4.72
681.504	4.73
681.828	4.47
682.152	4.51
682.475	4.34
682.799	4.49
683.122	4.79
683.446	4.64
683.769	4.75
684.093	5
684.416	4.68
684.739	4.87
685.062	4.97
685.386	4.92
685.709	4.83
686.032	4.46
686.355	4.27
686.678	4.44
687.001	4.66
687.324	4.96
687.646	4.09
687.969	4.61
688.292	5.2
688.614	4.02
688.937	4.62
689.26	4.28
689.582	4.75
689.904	5.06
690.227	4.3
690.549	4.61
690.871	4.54
691.194	4.28
691.516	4.32
691.838	4.39
692.16	4.6
692.482	4.38
692.804	5.3
693.126	3.94
693.448	4.65
