Data from 1897-2_crown_Reflection__4__15.txt Node

Date: Fri Sep 30 17:49:21 CDT 2022
User: ToomeyLab
Spectrometer: FLMS14357
Trigger mode: 0
Integration Time (sec): 1.000000E-2
Scans to average: 100
Electric dark correction enabled: true
Nonlinearity correction enabled: false
Boxcar width: 0
XAxis mode: Wavelengths
Number of Pixels in Spectrum: 2048
>>>>>Begin Spectral Data<<<<<
189.047	96.05
189.435	96.05
189.823	96.05
190.211	2.12
190.599	-17.77
190.987	132.13
191.375	243.08
191.763	-15.91
192.151	133.24
192.538	-119.85
192.926	-249.21
193.314	17.24
193.702	76.67
194.089	-40.31
194.477	-53.46
194.864	2.95
195.252	243.54
195.639	-173.52
196.027	103.96
196.414	59.78
196.801	47.98
197.189	-255.43
197.576	-21.52
197.963	-144.4
198.351	13.05
198.738	-30.75
199.125	46.85
199.512	2.2
199.899	-16.79
200.286	11.04
200.673	44.69
201.06	-0.75
201.447	26.24
201.833	6.54
202.22	19.24
202.607	30.96
202.994	38.05
203.38	21.01
203.767	-19.97
204.154	16.77
204.54	28.06
204.927	36.54
205.313	-71.36
205.699	47.72
206.086	-65.97
206.472	-29.38
206.858	27.89
207.245	2.27
207.631	-3.82
208.017	-27.89
208.403	18.2
208.789	-0.16
209.175	10.83
209.561	10.12
209.947	5.17
210.333	-23.27
210.719	-5.59
211.105	-27.23
211.491	-21.58
211.876	18.93
212.262	23.42
212.648	19.95
213.034	-15.58
213.419	1.12
213.805	-31.77
214.19	3.23
214.576	9.32
214.961	-6.3
215.346	-0.64
215.732	15.46
216.117	-7.57
216.502	13.98
216.888	35.28
217.273	-18.94
217.658	19.71
218.043	0.01
218.428	-0.39
218.813	8.47
219.198	3.92
219.583	27.01
219.968	21.59
220.353	12.29
220.738	3.12
221.122	8.79
221.507	24.17
221.892	1.06
222.276	-2.27
222.661	10.34
223.046	11.64
223.43	-0.89
223.815	12.87
224.199	7.15
224.583	-3.89
224.968	8.22
225.352	5.38
225.736	16.36
226.121	10.45
226.505	-1.35
226.889	1.8
227.273	-2.22
227.657	9.12
228.041	5.33
228.425	7.74
228.809	4.68
229.193	6.19
229.577	3.18
229.961	4.54
230.344	4.43
230.728	4.31
231.112	4.71
231.495	3.85
231.879	7.67
232.263	4.02
232.646	3.33
233.03	5
233.413	4.5
233.797	4.39
234.18	2.59
234.563	2.69
234.946	5.82
235.33	4.4
235.713	7.2
236.096	5.12
236.479	4.15
236.862	4.83
237.245	6.49
237.628	3.57
238.011	5.12
238.394	4.13
238.777	4.43
239.16	2.96
239.543	4.58
239.925	3.72
240.308	2.92
240.691	5.1
241.073	4.38
241.456	5.41
241.838	3.58
242.221	4.77
242.603	5.01
242.986	5.24
243.368	3.73
243.75	4.24
244.133	4.71
244.515	4.77
244.897	4.87
245.279	4.39
245.661	4.69
246.043	3.98
246.425	4
246.807	4.58
247.189	5.14
247.571	4.87
247.953	4.53
248.335	4.08
248.717	4.46
249.098	4.37
249.48	4.11
249.862	4.23
250.243	3.99
250.625	4.45
251.006	3.88
251.388	3.03
251.769	6.52
252.151	4.16
252.532	4.44
252.913	3.69
253.295	4.41
253.676	3.8
254.057	4.28
254.438	3.87
254.819	4.73
255.2	4.05
255.581	5.16
255.962	3.12
256.343	4.03
256.724	4.82
257.105	4.66
257.486	5.05
257.867	4.69
258.247	4.14
258.628	5.07
259.009	3.92
259.389	4.31
259.77	4.73
260.15	3.39
260.531	4.07
260.911	3.97
261.292	3.85
261.672	4.12
262.052	4.14
262.432	4.37
262.813	4.62
263.193	3.99
263.573	3.68
263.953	3.36
264.333	4.38
264.713	3.34
265.093	4.65
265.473	4.43
265.853	3.9
266.233	3.21
266.612	4.18
266.992	4.21
267.372	3.26
267.752	3.47
268.131	4.54
268.511	3.37
268.89	3.74
269.27	4.22
269.649	4.07
270.029	4.75
270.408	3.9
270.787	3.26
271.167	3.6
271.546	4.15
271.925	4.81
272.304	3.68
272.683	3.78
273.062	3.98
273.441	4.12
273.82	3.59
274.199	4.04
274.578	3.69
274.957	3.92
275.336	3.69
275.715	3.78
276.093	3.94
276.472	3.55
276.851	3.88
277.229	4.06
277.608	3.45
277.986	3.34
278.365	4.1
278.743	3.69
279.122	3.88
279.5	4.03
279.878	3.77
280.257	3.77
280.635	4.07
281.013	4.31
281.391	3.55
281.769	4.06
282.147	3.27
282.525	3.75
282.903	3.72
283.281	3.67
283.659	4.37
284.037	4.12
284.415	4.04
284.792	3.55
285.17	3.87
285.548	3.97
285.925	3.75
286.303	3.27
286.68	3.4
287.058	3.61
287.435	4.07
287.813	3.86
288.19	3.54
288.567	3.72
288.945	3.3
289.322	4.13
289.699	3.82
290.076	3.2
290.453	3.74
290.83	3.46
291.207	3.42
291.584	3.4
291.961	3.44
292.338	4.22
292.715	3.9
293.092	3.42
293.469	3.94
293.845	3.57
294.222	3.72
294.599	3.94
294.975	4.11
295.352	4.03
295.728	4.41
296.105	3.64
296.481	3.89
296.858	4.26
297.234	3.38
297.61	3.64
297.986	3.49
298.363	3.68
298.739	3.55
299.115	3.6
299.491	3.74
299.867	3.74
300.243	3.7
300.619	3.79
300.995	3.9
301.371	3.67
301.746	3.51
302.122	4.01
302.498	3.65
302.874	3.48
303.249	4.01
303.625	4.2
304	3.93
304.376	3.75
304.751	4
305.127	3.79
305.502	3.74
305.878	4.28
306.253	3.99
306.628	3.8
307.003	3.68
307.378	4.03
307.754	3.37
308.129	4.16
308.504	3.86
308.879	4.19
309.254	3.81
309.629	3.88
310.003	3.85
310.378	3.85
310.753	3.55
311.128	3.64
311.502	3.82
311.877	3.66
312.252	3.8
312.626	4.16
313.001	3.83
313.375	3.93
313.75	4.16
314.124	3.54
314.498	3.48
314.873	4.1
315.247	3.63
315.621	3.95
315.995	4
316.369	3.6
316.743	3.68
317.117	4.26
317.491	4.66
317.865	4.13
318.239	3.69
318.613	3.64
318.987	3.63
319.361	3.63
319.734	4.09
320.108	3.3
320.482	3.54
320.855	3.74
321.229	4.4
321.602	3.52
321.976	3.42
322.349	3.23
322.723	3.2
323.096	4.19
323.469	3.92
323.843	3.74
324.216	4.09
324.589	4.26
324.962	4.09
325.335	3.85
325.708	3.86
326.081	4.04
326.454	4.18
326.827	3.61
327.2	3.28
327.573	3.73
327.945	3.31
328.318	3.48
328.691	3.79
329.063	3.72
329.436	3.67
329.809	4.17
330.181	3.9
330.553	3.96
330.926	3.73
331.298	3.62
331.671	4.2
332.043	3.69
332.415	3.78
332.787	3.65
333.159	3.75
333.532	4.38
333.904	3.77
334.276	4.04
334.648	3.55
335.02	4.07
335.391	4.25
335.763	3.79
336.135	4.26
336.507	4.04
336.879	3.66
337.25	3.2
337.622	3.38
337.993	4.12
338.365	3.51
338.736	3.78
339.108	3.85
339.479	4.17
339.851	3.34
340.222	3.7
340.593	3.56
340.964	3.71
341.336	3.62
341.707	3.63
342.078	3.7
342.449	3.36
342.82	3.65
343.191	3.89
343.562	3.95
343.933	3.56
344.303	3.63
344.674	3.94
345.045	3.78
345.416	3.69
345.786	3.72
346.157	3.9
346.527	3.56
346.898	3.58
347.268	3.46
347.639	3.62
348.009	3.8
348.38	4.24
348.75	3.94
349.12	3.97
349.49	4.03
349.861	3.52
350.231	3.79
350.601	4.05
350.971	3.67
351.341	3.86
351.711	3.5
352.081	3.54
352.45	3.94
352.82	4.03
353.19	3.76
353.56	3.42
353.929	3.56
354.299	3.64
354.669	3.3
355.038	3.8
355.408	4.01
355.777	3.23
356.147	3.45
356.516	3.94
356.885	3.54
357.254	3.71
357.624	3.7
357.993	3.27
358.362	3.78
358.731	3.86
359.1	3.4
359.469	3.43
359.838	3.68
360.207	3.54
360.576	3.56
360.945	3.65
361.314	3.6
361.682	3.79
362.051	3.64
362.42	3.73
362.788	3.48
363.157	3.84
363.525	3.5
363.894	3.54
364.262	3.85
364.631	3.78
364.999	3.77
365.367	4.04
365.735	3.49
366.104	3.43
366.472	4.13
366.84	3.97
367.208	3.52
367.576	4.29
367.944	3.79
368.312	3.61
368.68	3.4
369.048	3.54
369.416	3.68
369.783	3.69
370.151	3.63
370.519	3.64
370.886	3.98
371.254	3.53
371.621	3.69
371.989	3.9
372.356	3.72
372.724	3.71
373.091	3.69
373.458	3.71
373.826	3.77
374.193	4.05
374.56	4.31
374.927	4.31
375.294	4.15
375.661	3.7
376.028	3.28
376.395	3.68
376.762	3.45
377.129	4.16
377.496	4.03
377.863	3.84
378.229	4.02
378.596	3.95
378.963	3.95
379.329	3.76
379.696	3.86
380.062	3.96
380.429	3.89
380.795	3.95
381.161	3.79
381.528	3.59
381.894	3.32
382.26	3.9
382.626	3.61
382.993	3.96
383.359	3.79
383.725	3.53
384.091	3.65
384.457	3.92
384.823	3.76
385.188	3.85
385.554	3.85
385.92	3.91
386.286	3.99
386.651	3.75
387.017	3.36
387.383	3.74
387.748	3.39
388.114	3.92
388.479	3.63
388.845	3.45
389.21	3.78
389.575	3.97
389.94	3.61
390.306	3.82
390.671	3.94
391.036	4.12
391.401	3.59
391.766	3.96
392.131	3.61
392.496	3.68
392.861	3.89
393.226	3.56
393.591	3.88
393.956	3.99
394.32	3.87
394.685	3.78
395.05	3.82
395.414	3.63
395.779	3.73
396.143	3.87
396.508	3.71
396.872	3.85
397.236	3.92
397.601	3.77
397.965	3.61
398.329	3.67
398.694	4.03
399.058	3.9
399.422	3.87
399.786	3.79
400.15	3.86
400.514	3.68
400.878	3.93
401.242	3.55
401.605	3.62
401.969	3.79
402.333	3.84
402.697	3.93
403.06	3.99
403.424	3.8
403.787	3.94
404.151	3.89
404.514	3.81
404.878	3.58
405.241	3.82
405.604	3.72
405.968	3.79
406.331	3.64
406.694	3.71
407.057	3.78
407.42	3.93
407.783	3.62
408.146	3.66
408.509	3.94
408.872	4.04
409.235	3.82
409.598	4.03
409.961	3.75
410.323	3.96
410.686	4.02
411.049	3.91
411.411	3.92
411.774	4.05
412.136	4.01
412.499	3.84
412.861	3.74
413.223	3.52
413.586	3.88
413.948	3.78
414.31	4.02
414.672	3.99
415.035	4.04
415.397	3.79
415.759	3.86
416.121	3.85
416.483	3.91
416.845	3.86
417.206	4.04
417.568	3.83
417.93	3.62
418.292	3.88
418.653	3.8
419.015	3.86
419.377	3.92
419.738	3.77
420.1	3.84
420.461	3.84
420.822	3.77
421.184	3.83
421.545	3.76
421.906	3.55
422.267	3.66
422.629	3.76
422.99	3.73
423.351	3.73
423.712	3.7
424.073	3.82
424.434	3.83
424.795	3.84
425.155	3.69
425.516	3.77
425.877	3.78
426.238	3.73
426.598	3.8
426.959	3.74
427.32	3.79
427.68	3.83
428.041	3.8
428.401	3.83
428.761	3.92
429.122	3.94
429.482	3.89
429.842	3.99
430.202	3.93
430.563	3.88
430.923	3.91
431.283	3.71
431.643	4.06
432.003	3.84
432.363	3.97
432.722	4.11
433.082	4.12
433.442	3.89
433.802	4
434.161	3.7
434.521	3.75
434.881	3.65
435.24	3.84
435.6	3.88
435.959	4.04
436.319	3.95
436.678	3.94
437.037	3.99
437.396	3.99
437.756	3.82
438.115	3.82
438.474	3.91
438.833	3.95
439.192	3.96
439.551	3.97
439.91	3.8
440.269	3.71
440.628	3.93
440.987	3.94
441.345	3.83
441.704	3.9
442.063	3.87
442.421	3.96
442.78	3.88
443.138	3.8
443.497	3.96
443.855	4.02
444.214	3.91
444.572	4.05
444.93	3.89
445.288	4.01
445.647	3.8
446.005	3.94
446.363	4.06
446.721	3.72
447.079	3.87
447.437	3.81
447.795	3.79
448.153	3.74
448.51	3.84
448.868	3.76
449.226	3.82
449.584	3.89
449.941	3.79
450.299	3.99
450.656	3.96
451.014	4.1
451.371	4.07
451.729	3.99
452.086	4.02
452.443	4.04
452.801	3.92
453.158	3.92
453.515	3.89
453.872	3.94
454.229	3.99
454.586	4.11
454.943	4.05
455.3	3.94
455.657	3.89
456.014	3.66
456.371	3.93
456.727	3.85
457.084	3.92
457.441	3.97
457.797	4.03
458.154	3.9
458.51	4.02
458.867	3.98
459.223	3.95
459.58	4.03
459.936	3.92
460.292	3.97
460.648	3.86
461.005	3.88
461.361	3.77
461.717	3.83
462.073	3.93
462.429	3.9
462.785	3.97
463.141	4.03
463.496	3.93
463.852	3.92
464.208	4.03
464.564	3.84
464.919	4.03
465.275	3.97
465.631	4.1
465.986	3.95
466.342	4.15
466.697	3.97
467.052	4.04
467.408	3.94
467.763	3.85
468.118	3.98
468.473	3.96
468.829	4.06
469.184	4.06
469.539	3.98
469.894	4.08
470.249	4.12
470.603	4.07
470.958	3.99
471.313	4.01
471.668	3.96
472.023	3.91
472.377	3.93
472.732	3.99
473.086	4.05
473.441	4.07
473.795	3.82
474.15	4.04
474.504	4.1
474.859	4.01
475.213	3.97
475.567	4.09
475.921	3.96
476.275	3.84
476.63	3.91
476.984	3.91
477.338	3.99
477.692	4.03
478.045	4.04
478.399	3.94
478.753	4.12
479.107	3.91
479.461	3.95
479.814	3.97
480.168	4.06
480.521	3.92
480.875	4.12
481.228	3.91
481.582	4.08
481.935	4.01
482.289	4.13
482.642	3.98
482.995	3.95
483.348	3.99
483.701	3.98
484.055	3.93
484.408	3.9
484.761	3.81
485.114	3.72
485.466	3.65
485.819	3.67
486.172	3.78
486.525	3.87
486.878	3.94
487.23	3.96
487.583	3.94
487.936	3.96
488.288	3.88
488.641	3.77
488.993	3.82
489.345	3.81
489.698	3.79
490.05	3.87
490.402	3.93
490.754	3.93
491.107	3.96
491.459	4
491.811	3.97
492.163	4.06
492.515	3.94
492.866	3.9
493.218	3.76
493.57	3.8
493.922	3.85
494.274	3.92
494.625	4.01
494.977	4.06
495.328	4.07
495.68	3.96
496.031	4.09
496.383	4.04
496.734	4.07
497.086	3.98
497.437	4.09
497.788	4.08
498.139	3.9
498.49	3.93
498.842	3.98
499.193	4.11
499.544	4.06
499.894	4.15
500.245	4.03
500.596	4.08
500.947	4.04
501.298	4.24
501.648	4
501.999	4.04
502.35	4.14
502.7	4.1
503.051	4.07
503.401	4.09
503.752	4.06
504.102	4.11
504.452	4.07
504.803	4.07
505.153	4.21
505.503	4.09
505.853	4.05
506.203	3.94
506.553	4.02
506.903	4.13
507.253	4.08
507.603	4.18
507.953	4.33
508.303	4.17
508.652	4.15
509.002	4.19
509.352	4.17
509.701	4.12
510.051	4.17
510.4	4.04
510.75	4.11
511.099	3.98
511.449	4.02
511.798	4.09
512.147	4.12
512.496	4.15
512.846	4.07
513.195	4.16
513.544	4.15
513.893	4.15
514.242	4.12
514.591	4.18
514.939	4.05
515.288	4.12
515.637	4.15
515.986	4.2
516.334	4.21
516.683	4.05
517.032	4.16
517.38	4.11
517.729	4.24
518.077	4.17
518.426	4.22
518.774	4.16
519.122	4.06
519.47	4.17
519.819	4.19
520.167	4.24
520.515	4.11
520.863	4.15
521.211	4.13
521.559	4.22
521.907	4.13
522.255	4.1
522.602	4.18
522.95	4.19
523.298	4.2
523.645	4.15
523.993	4.3
524.341	4.28
524.688	4.23
525.036	4.09
525.383	4.08
525.73	4.21
526.078	4.32
526.425	4.22
526.772	4.14
527.119	4
527.466	3.97
527.814	4.05
528.161	4.09
528.508	4.14
528.854	4.11
529.201	4.02
529.548	4
529.895	3.92
530.242	3.92
530.588	3.95
530.935	4.04
531.282	4.1
531.628	4.1
531.975	4.16
532.321	4.15
532.667	4.1
533.014	4.14
533.36	4.23
533.706	4.15
534.052	4.18
534.399	4.06
534.745	4.02
535.091	4.01
535.437	4.16
535.783	4.2
536.129	4.2
536.474	4.23
536.82	4.14
537.166	4.23
537.512	4.15
537.857	4.27
538.203	4.17
538.549	4.07
538.894	4.22
539.239	4.22
539.585	4.28
539.93	4.24
540.276	4.28
540.621	4.31
540.966	4.38
541.311	4.31
541.656	4.24
542.001	4.23
542.346	4.18
542.691	4
543.036	4.03
543.381	4.11
543.726	4.1
544.071	4.23
544.415	4.22
544.76	4.27
545.105	4.14
545.449	4.17
545.794	4.18
546.138	4.33
546.483	4.39
546.827	4.24
547.171	4.31
547.516	4.25
547.86	4.25
548.204	4.18
548.548	4.17
548.892	4.27
549.236	4.29
549.58	4.32
549.924	4.33
550.268	4.44
550.612	4.49
550.956	4.47
551.3	4.46
551.643	4.54
551.987	4.36
552.33	4.5
552.674	4.38
553.017	4.2
553.361	4.27
553.704	4.36
554.048	4.27
554.391	4.45
554.734	4.23
555.077	4.45
555.42	4.4
555.764	4.36
556.107	4.44
556.45	4.48
556.793	4.32
557.135	4.35
557.478	4.53
557.821	4.45
558.164	4.66
558.507	4.55
558.849	4.36
559.192	4.34
559.534	4.42
559.877	4.27
560.219	4.51
560.562	4.52
560.904	4.32
561.246	4.48
561.589	4.43
561.931	4.53
562.273	4.56
562.615	4.46
562.957	4.47
563.299	4.49
563.641	4.24
563.983	4.4
564.325	4.5
564.667	4.7
565.008	4.37
565.35	4.45
565.692	4.58
566.033	4.28
566.375	4.46
566.716	4.49
567.058	4.46
567.399	4.33
567.741	4.51
568.082	4.47
568.423	4.44
568.764	4.59
569.105	4.5
569.447	4.54
569.788	4.68
570.129	4.42
570.47	4.43
570.811	4.4
571.151	4.59
571.492	4.65
571.833	4.55
572.174	4.41
572.514	4.51
572.855	4.34
573.195	4.56
573.536	4.63
573.876	4.57
574.217	4.48
574.557	4.55
574.898	4.46
575.238	4.6
575.578	4.63
575.918	4.42
576.258	4.52
576.598	4.42
576.938	4.57
577.278	4.59
577.618	4.62
577.958	4.5
578.298	4.63
578.638	4.76
578.977	4.58
579.317	4.51
579.657	4.59
579.996	4.5
580.336	4.58
580.675	4.57
581.014	4.55
581.354	4.66
581.693	4.8
582.032	4.48
582.372	4.51
582.711	4.38
583.05	4.59
583.389	4.46
583.728	4.64
584.067	4.69
584.406	4.84
584.745	4.51
585.083	4.62
585.422	4.68
585.761	4.59
586.1	4.76
586.438	4.8
586.777	4.89
587.115	4.89
587.454	4.68
587.792	4.35
588.13	4.62
588.469	4.74
588.807	4.62
589.145	4.74
589.483	4.89
589.821	4.6
590.159	4.91
590.497	4.62
590.835	4.61
591.173	4.55
591.511	4.46
591.849	4.73
592.187	4.63
592.524	4.63
592.862	4.7
593.2	4.77
593.537	4.62
593.875	4.77
594.212	4.72
594.55	4.7
594.887	4.85
595.224	4.75
595.561	4.62
595.899	4.59
596.236	4.92
596.573	4.5
596.91	4.58
597.247	4.85
597.584	4.69
597.921	4.6
598.258	4.57
598.594	4.54
598.931	4.68
599.268	4.65
599.604	4.59
599.941	4.46
600.277	4.61
600.614	4.75
600.95	4.93
601.287	4.72
601.623	4.86
601.959	4.61
602.296	4.75
602.632	4.73
602.968	4.81
603.304	4.73
603.64	4.66
603.976	4.62
604.312	4.59
604.648	4.85
604.984	4.79
605.319	4.79
605.655	4.77
605.991	4.69
606.326	4.67
606.662	4.74
606.998	4.68
607.333	4.69
607.668	4.74
608.004	5.04
608.339	4.67
608.674	5.04
609.01	4.74
609.345	4.62
609.68	5.23
610.015	4.99
610.35	4.61
610.685	4.57
611.02	4.51
611.355	4.72
611.689	4.7
612.024	4.93
612.359	4.93
612.694	4.93
613.028	4.92
613.363	4.76
613.697	4.9
614.032	4.63
614.366	4.93
614.7	4.93
615.035	5.2
615.369	4.99
615.703	4.98
616.037	5.07
616.371	4.99
616.705	4.86
617.039	5.05
617.373	5.2
617.707	4.6
618.041	4.84
618.375	4.7
618.709	5.14
619.042	4.68
619.376	4.91
619.71	5.07
620.043	5.17
620.377	4.88
620.71	4.61
621.043	4.92
621.377	5.02
621.71	4.52
622.043	4.68
622.376	4.69
622.709	4.74
623.043	4.84
623.376	4.68
623.709	4.89
624.041	5.12
624.374	4.94
624.707	4.85
625.04	4.86
625.373	4.99
625.705	5.02
626.038	4.89
626.37	5.06
626.703	5.23
627.035	4.93
627.368	5.15
627.7	5.2
628.032	5.02
628.365	4.78
628.697	5.07
629.029	4.79
629.361	5.14
629.693	5.03
630.025	5.06
630.357	5.13
630.689	4.95
631.021	4.85
631.353	4.97
631.684	4.94
632.016	5.28
632.348	5.04
632.679	4.84
633.011	5.21
633.342	5
633.674	5.41
634.005	5.52
634.336	5.18
634.668	5.03
634.999	4.96
635.33	5.48
635.661	5.05
635.992	5.23
636.323	5.22
636.654	5.1
636.985	5.05
637.316	5.19
637.647	4.86
637.977	5.31
638.308	4.78
638.639	4.89
638.969	5.01
639.3	5.28
639.63	4.73
639.961	5.14
640.291	5.1
640.622	4.99
640.952	5.2
641.282	5.26
641.612	5.14
641.943	5.2
642.273	5.37
642.603	5.09
642.933	5
643.263	4.99
643.592	5.28
643.922	4.85
644.252	5.64
644.582	5.47
644.911	4.9
645.241	5.45
645.571	4.96
645.9	5.22
646.23	5.04
646.559	5.2
646.888	5.36
647.218	4.72
647.547	5.02
647.876	4.85
648.205	5.4
648.534	4.85
648.863	5.09
649.192	5.12
649.521	5.56
649.85	5.27
650.179	5.55
650.508	4.8
650.837	5.56
651.165	5.25
651.494	5.09
651.822	5.65
652.151	5.17
652.479	5.31
652.808	5.29
653.136	5.61
653.465	5.31
653.793	5.37
654.121	4.91
654.449	5.29
654.777	5.08
655.105	5.18
655.433	5.13
655.761	6
656.089	5.76
656.417	5.44
656.745	5.01
657.073	5.09
657.4	5.34
657.728	5.53
658.056	5.1
658.383	5.61
658.711	6.12
659.038	4.87
659.365	5.55
659.693	5.11
660.02	5.44
660.347	5.32
660.674	5.3
661.001	5.39
661.329	5.5
661.656	5.41
661.982	5.4
662.309	5.76
662.636	5.81
662.963	5.11
663.29	4.99
663.616	5.4
663.943	5.28
664.27	5.54
664.596	5.7
664.923	5.53
665.249	5.16
665.576	5.36
665.902	5.56
666.228	5.66
666.554	5.15
666.881	5.57
667.207	5.18
667.533	5.26
667.859	5.47
668.185	5.79
668.511	5.37
668.837	5.63
669.162	6.34
669.488	5.74
669.814	5.43
670.139	4.87
670.465	5.81
670.791	5.62
671.116	5.36
671.442	5.52
671.767	5.66
672.092	5.04
672.418	4.93
672.743	5.34
673.068	5.91
673.393	5.72
673.718	5.29
674.043	5.44
674.368	6.37
674.693	5.27
675.018	5.2
675.343	5.06
675.667	5.43
675.992	5.3
676.317	5.76
676.641	5.72
676.966	5.6
677.29	5.12
677.615	5.57
677.939	5.97
678.264	5.23
678.588	5.52
678.912	5.27
679.236	5.47
679.56	5.01
679.885	5.89
680.209	5.89
680.532	5.53
680.856	5.61
681.18	5.75
681.504	5.59
681.828	5.61
682.152	5.09
682.475	5.64
682.799	5.72
683.122	5.89
683.446	5.41
683.769	6.03
684.093	6.29
684.416	6.25
684.739	6.15
685.062	5.76
685.386	6.26
685.709	5.82
686.032	5.85
686.355	5.86
686.678	5.34
687.001	5.72
687.324	6.11
687.646	5.73
687.969	5.49
688.292	6.02
688.614	4.88
688.937	5.92
689.26	4.85
689.582	5.41
689.904	6.33
690.227	5.56
690.549	5.43
690.871	6.27
691.194	5.76
691.516	5.74
691.838	5.58
692.16	5.97
692.482	5.93
692.804	6.5
