Data from 1897-2_chest_Reflection__5__05.txt Node

Date: Fri Sep 30 17:45:56 CDT 2022
User: ToomeyLab
Spectrometer: FLMS14357
Trigger mode: 0
Integration Time (sec): 1.000000E-2
Scans to average: 100
Electric dark correction enabled: true
Nonlinearity correction enabled: false
Boxcar width: 0
XAxis mode: Wavelengths
Number of Pixels in Spectrum: 2048
>>>>>Begin Spectral Data<<<<<
189.047	93.86
189.435	93.86
189.823	93.86
190.211	20.11
190.599	68.96
190.987	196.71
191.375	335.25
191.763	62.14
192.151	-106.88
192.538	68.1
192.926	21.29
193.314	8.3
193.702	56.21
194.089	-153.16
194.477	-96.74
194.864	141.6
195.252	-1073.68
195.639	19.92
196.027	30.55
196.414	123.9
196.801	80.45
197.189	124.84
197.576	126.74
197.963	-7.13
198.351	13.56
198.738	-35.17
199.125	36.52
199.512	3.78
199.899	3
200.286	-2.79
200.673	28.79
201.06	21.17
201.447	37.56
201.833	22.78
202.22	29.74
202.607	31.47
202.994	49.55
203.38	-4.73
203.767	-20.67
204.154	21.76
204.54	22.45
204.927	20.7
205.313	4.6
205.699	31.93
206.086	-41.51
206.472	4.54
206.858	5.29
207.245	23.05
207.631	-27.37
208.017	19.24
208.403	13.31
208.789	34.11
209.175	33.03
209.561	1
209.947	30.02
210.333	-37.21
210.719	-21.02
211.105	-50.55
211.491	35.92
211.876	18.15
212.262	21.35
212.648	9.99
213.034	10.79
213.419	26.94
213.805	-22.99
214.19	14.76
214.576	-7.12
214.961	14.32
215.346	4.55
215.732	-2.17
216.117	18.67
216.502	18.83
216.888	12.07
217.273	1.65
217.658	18.26
218.043	-2.13
218.428	-0.22
218.813	10.12
219.198	7.96
219.583	37.91
219.968	18.33
220.353	9.24
220.738	7.99
221.122	28.46
221.507	17.82
221.892	16.91
222.276	-5.31
222.661	15.44
223.046	-3.63
223.43	2.55
223.815	5.64
224.199	16.08
224.583	-0.91
224.968	-7.31
225.352	-3.65
225.736	20.05
226.121	9.26
226.505	-4.08
226.889	7.49
227.273	-1.66
227.657	3.47
228.041	0.06
228.425	5.8
228.809	3.13
229.193	6.92
229.577	-0.61
229.961	2.12
230.344	1.49
230.728	0.95
231.112	0.68
231.495	0.53
231.879	2.81
232.263	1.22
232.646	0.93
233.03	2.53
233.413	1.09
233.797	2.84
234.18	0.05
234.563	0.18
234.946	1.27
235.33	1
235.713	3.33
236.096	2.72
236.479	3.12
236.862	0.41
237.245	3.08
237.628	1.31
238.011	2.75
238.394	1.22
238.777	-1.13
239.16	0.9
239.543	1.88
239.925	1.5
240.308	-0.18
240.691	1.29
241.073	2.16
241.456	1.48
241.838	1.87
242.221	0.86
242.603	2.8
242.986	1.96
243.368	0.61
243.75	1.28
244.133	1.79
244.515	1.23
244.897	1.4
245.279	1.79
245.661	1.2
246.043	0.47
246.425	0.58
246.807	2.1
247.189	2.8
247.571	1.82
247.953	1.81
248.335	1.28
248.717	1.45
249.098	1.31
249.48	1.25
249.862	1.34
250.243	1.28
250.625	1.7
251.006	1.69
251.388	0.77
251.769	2.29
252.151	1.77
252.532	2.97
252.913	0.54
253.295	1.71
253.676	1.58
254.057	1.69
254.438	1.5
254.819	2.38
255.2	1.3
255.581	1.45
255.962	1.36
256.343	1.48
256.724	1.66
257.105	2.52
257.486	1.66
257.867	2.38
258.247	1.03
258.628	2.05
259.009	2.33
259.389	1.79
259.77	1.26
260.15	0.64
260.531	1.89
260.911	1.59
261.292	1.12
261.672	1.15
262.052	1.35
262.432	1.29
262.813	2.12
263.193	1.53
263.573	2.19
263.953	1.71
264.333	1.98
264.713	1.2
265.093	1.48
265.473	1.48
265.853	2.52
266.233	0.98
266.612	1.66
266.992	1.2
267.372	0.91
267.752	1.31
268.131	1.51
268.511	1.49
268.89	0.73
269.27	1.12
269.649	0.96
270.029	1.35
270.408	1.38
270.787	1.85
271.167	1.5
271.546	1.12
271.925	1.56
272.304	1.69
272.683	1.07
273.062	1.55
273.441	1.23
273.82	0.89
274.199	1.2
274.578	1.78
274.957	1.35
275.336	1.15
275.715	1.8
276.093	1.34
276.472	0.9
276.851	1.75
277.229	1.18
277.608	1.23
277.986	1.26
278.365	1.65
278.743	1.26
279.122	1.01
279.5	1.24
279.878	1.65
280.257	1.6
280.635	1.93
281.013	1.49
281.391	1.57
281.769	1.61
282.147	1.27
282.525	1.8
282.903	1.12
283.281	1.48
283.659	1.4
284.037	1.1
284.415	1.45
284.792	1.16
285.17	0.73
285.548	1.48
285.925	1.25
286.303	1.35
286.68	1.39
287.058	1.35
287.435	1.35
287.813	1.5
288.19	1.72
288.567	1.14
288.945	0.61
289.322	1.06
289.699	1.73
290.076	1.45
290.453	1.44
290.83	1.79
291.207	1.07
291.584	1.37
291.961	1.41
292.338	1.66
292.715	2.04
293.092	1.4
293.469	1.84
293.845	2.35
294.222	1.72
294.599	2.04
294.975	1.93
295.352	2.01
295.728	2.14
296.105	1.64
296.481	1.64
296.858	2.11
297.234	1.8
297.61	1.85
297.986	1.27
298.363	1.9
298.739	1.62
299.115	1.83
299.491	2.1
299.867	1.68
300.243	1.77
300.619	1.82
300.995	2.07
301.371	1.8
301.746	2.03
302.122	2.51
302.498	1.67
302.874	2.15
303.249	1.57
303.625	2.36
304	2.9
304.376	2.21
304.751	2.17
305.127	1.74
305.502	1.72
305.878	2.2
306.253	1.7
306.628	2.21
307.003	1.79
307.378	2.06
307.754	1.82
308.129	2.28
308.504	1.95
308.879	1.95
309.254	1.79
309.629	2.01
310.003	2.18
310.378	2.01
310.753	1.82
311.128	1.61
311.502	2.04
311.877	2.11
312.252	2.52
312.626	2.58
313.001	2.04
313.375	1.8
313.75	2.63
314.124	2.46
314.498	1.94
314.873	2.13
315.247	2.08
315.621	2.77
315.995	2.72
316.369	1.95
316.743	2.56
317.117	2.45
317.491	3.08
317.865	3.21
318.239	2.73
318.613	2.62
318.987	2.7
319.361	2.48
319.734	2.59
320.108	2.14
320.482	1.66
320.855	2.47
321.229	3.08
321.602	2.12
321.976	2.61
322.349	2.74
322.723	1.95
323.096	2.75
323.469	3.32
323.843	2.9
324.216	2.49
324.589	3.05
324.962	2.85
325.335	2.68
325.708	2.78
326.081	2.88
326.454	2.85
326.827	2.32
327.2	2.59
327.573	2.05
327.945	2.13
328.318	2.41
328.691	2.66
329.063	3.16
329.436	2.14
329.809	3.41
330.181	2.58
330.553	2.18
330.926	2.56
331.298	2.58
331.671	2.8
332.043	2.38
332.415	2.5
332.787	2.19
333.159	2.42
333.532	3.05
333.904	2.73
334.276	2.99
334.648	2.34
335.02	2.66
335.391	3.39
335.763	2.93
336.135	2.71
336.507	2.6
336.879	2.79
337.25	2.26
337.622	2.82
337.993	2.13
338.365	2.18
338.736	3.1
339.108	2.91
339.479	3.24
339.851	3.16
340.222	3
340.593	2.54
340.964	2.52
341.336	2.5
341.707	2.44
342.078	3.08
342.449	2.98
342.82	2.5
343.191	2.84
343.562	2.85
343.933	2.72
344.303	3.13
344.674	2.71
345.045	2.52
345.416	3.13
345.786	2.8
346.157	3.33
346.527	2.57
346.898	2.62
347.268	2.49
347.639	2.08
348.009	2.6
348.38	3.16
348.75	3.15
349.12	2.93
349.49	3.07
349.861	2.65
350.231	2.62
350.601	2.99
350.971	2.49
351.341	2.88
351.711	2.31
352.081	2.77
352.45	2.97
352.82	2.99
353.19	3.07
353.56	2.96
353.929	2.72
354.299	2.74
354.669	2.48
355.038	2.87
355.408	2.99
355.777	2.57
356.147	2.69
356.516	2.94
356.885	2.62
357.254	2.91
357.624	2.74
357.993	2.32
358.362	2.36
358.731	2.54
359.1	2.61
359.469	2.32
359.838	2.88
360.207	2.88
360.576	2.58
360.945	2.65
361.314	2.31
361.682	2.75
362.051	2.8
362.42	2.55
362.788	2.69
363.157	2.68
363.525	2.44
363.894	2.76
364.262	2.89
364.631	3.01
364.999	2.79
365.367	2.99
365.735	2.72
366.104	2.58
366.472	2.92
366.84	2.88
367.208	2.91
367.576	3.41
367.944	2.7
368.312	2.5
368.68	2.36
369.048	2.5
369.416	2.91
369.783	2.56
370.151	2.55
370.519	2.84
370.886	2.78
371.254	2.79
371.621	2.77
371.989	2.94
372.356	2.79
372.724	2.98
373.091	2.74
373.458	2.75
373.826	2.89
374.193	2.84
374.56	3.05
374.927	3.39
375.294	3.01
375.661	2.71
376.028	2.94
376.395	2.85
376.762	2.67
377.129	3.1
377.496	2.86
377.863	2.5
378.229	3.08
378.596	2.8
378.963	3.03
379.329	2.7
379.696	3.06
380.062	3.1
380.429	2.62
380.795	2.88
381.161	2.48
381.528	2.7
381.894	2.72
382.26	2.74
382.626	2.63
382.993	2.96
383.359	2.8
383.725	2.88
384.091	2.75
384.457	2.71
384.823	3.04
385.188	2.75
385.554	3
385.92	2.93
386.286	3.16
386.651	3.16
387.017	2.9
387.383	2.84
387.748	2.48
388.114	3
388.479	2.95
388.845	2.73
389.21	2.89
389.575	2.67
389.94	2.91
390.306	3.17
390.671	2.82
391.036	3.07
391.401	2.76
391.766	3.02
392.131	3.06
392.496	2.97
392.861	3.02
393.226	2.79
393.591	2.78
393.956	3.14
394.32	2.83
394.685	2.68
395.05	3.06
395.414	3.06
395.779	2.86
396.143	3.05
396.508	2.71
396.872	3.11
397.236	2.89
397.601	2.91
397.965	3.03
398.329	2.9
398.694	3.21
399.058	3.01
399.422	3.27
399.786	2.93
400.15	3.21
400.514	2.9
400.878	2.87
401.242	2.71
401.605	2.96
401.969	2.93
402.333	2.93
402.697	2.87
403.06	3.01
403.424	3.1
403.787	3.13
404.151	3.16
404.514	3.07
404.878	3.09
405.241	3.09
405.604	3.13
405.968	2.9
406.331	2.89
406.694	2.95
407.057	3.01
407.42	3.33
407.783	2.9
408.146	2.73
408.509	2.98
408.872	3.07
409.235	3.03
409.598	3.01
409.961	3.08
410.323	3.32
410.686	3.4
411.049	3
411.411	3.14
411.774	3.34
412.136	3.29
412.499	2.93
412.861	3.04
413.223	2.97
413.586	2.9
413.948	3.26
414.31	3.35
414.672	3.18
415.035	3.34
415.397	3.16
415.759	3.09
416.121	3.02
416.483	3.15
416.845	3.23
417.206	3.2
417.568	3.09
417.93	2.89
418.292	3.06
418.653	3.02
419.015	3.02
419.377	3.2
419.738	3.06
420.1	3.14
420.461	3.09
420.822	3.06
421.184	3.07
421.545	3.04
421.906	2.86
422.267	3.05
422.629	3.03
422.99	2.91
423.351	2.95
423.712	2.91
424.073	3.16
424.434	3.04
424.795	3.01
425.155	3.07
425.516	3
425.877	3.09
426.238	3.02
426.598	3.13
426.959	3.05
427.32	3.06
427.68	3.1
428.041	3.1
428.401	3.16
428.761	3.25
429.122	3.14
429.482	3.2
429.842	3.24
430.202	3.16
430.563	3.11
430.923	3.24
431.283	3.08
431.643	3.21
432.003	3.19
432.363	3.3
432.722	3.28
433.082	3.17
433.442	3.22
433.802	3.37
434.161	3.21
434.521	3.21
434.881	3.14
435.24	3.21
435.6	3.37
435.959	3.14
436.319	3.25
436.678	3.32
437.037	3.34
437.396	3.39
437.756	3.22
438.115	3.12
438.474	3.37
438.833	3.42
439.192	3.29
439.551	3.26
439.91	3.26
440.269	2.97
440.628	3.31
440.987	3.25
441.345	3.28
441.704	3.12
442.063	3.34
442.421	3.28
442.78	3.13
443.138	3.23
443.497	3.3
443.855	3.31
444.214	3.26
444.572	3.36
444.93	3.2
445.288	3.44
445.647	3.21
446.005	3.3
446.363	3.39
446.721	3.2
447.079	3.21
447.437	3.3
447.795	3.2
448.153	3.15
448.51	3.23
448.868	3.12
449.226	3.2
449.584	3.22
449.941	3.31
450.299	3.37
450.656	3.25
451.014	3.42
451.371	3.52
451.729	3.38
452.086	3.28
452.443	3.41
452.801	3.36
453.158	3.29
453.515	3.36
453.872	3.5
454.229	3.39
454.586	3.54
454.943	3.25
455.3	3.37
455.657	3.54
456.014	3.34
456.371	3.29
456.727	3.46
457.084	3.27
457.441	3.37
457.797	3.49
458.154	3.2
458.51	3.33
458.867	3.43
459.223	3.36
459.58	3.4
459.936	3.63
460.292	3.51
460.648	3.37
461.005	3.4
461.361	3.38
461.717	3.38
462.073	3.24
462.429	3.39
462.785	3.48
463.141	3.52
463.496	3.36
463.852	3.37
464.208	3.65
464.564	3.43
464.919	3.61
465.275	3.59
465.631	3.74
465.986	3.43
466.342	3.48
466.697	3.59
467.052	3.51
467.408	3.49
467.763	3.33
468.118	3.57
468.473	3.53
468.829	3.38
469.184	3.47
469.539	3.55
469.894	3.56
470.249	3.52
470.603	3.69
470.958	3.56
471.313	3.68
471.668	3.63
472.023	3.52
472.377	3.52
472.732	3.57
473.086	3.49
473.441	3.6
473.795	3.57
474.15	3.54
474.504	3.72
474.859	3.65
475.213	3.55
475.567	3.63
475.921	3.69
476.275	3.57
476.63	3.72
476.984	3.65
477.338	3.53
477.692	3.67
478.045	3.64
478.399	3.77
478.753	3.69
479.107	3.63
479.461	3.66
479.814	3.61
480.168	3.66
480.521	3.6
480.875	3.78
481.228	3.55
481.582	3.74
481.935	3.55
482.289	3.71
482.642	3.63
482.995	3.7
483.348	3.63
483.701	3.7
484.055	3.65
484.408	3.57
484.761	3.54
485.114	3.44
485.466	3.45
485.819	3.4
486.172	3.46
486.525	3.49
486.878	3.54
487.23	3.6
487.583	3.56
487.936	3.7
488.288	3.66
488.641	3.49
488.993	3.59
489.345	3.57
489.698	3.55
490.05	3.59
490.402	3.58
490.754	3.59
491.107	3.6
491.459	3.72
491.811	3.69
492.163	3.83
492.515	3.68
492.866	3.69
493.218	3.57
493.57	3.61
493.922	3.62
494.274	3.69
494.625	3.73
494.977	3.78
495.328	3.77
495.68	3.73
496.031	3.91
496.383	3.88
496.734	3.88
497.086	3.95
497.437	3.92
497.788	3.95
498.139	3.78
498.49	3.69
498.842	3.79
499.193	3.89
499.544	3.91
499.894	3.87
500.245	3.85
500.596	3.87
500.947	3.87
501.298	4.09
501.648	3.86
501.999	3.96
502.35	3.99
502.7	4
503.051	3.94
503.401	4.02
503.752	3.96
504.102	4.07
504.452	3.98
504.803	4.05
505.153	4.12
505.503	4.03
505.853	4
506.203	3.9
506.553	3.9
506.903	4.14
507.253	4.08
507.603	4.11
507.953	4.16
508.303	4.1
508.652	4.08
509.002	4.06
509.352	4.18
509.701	4.04
510.051	4.11
510.4	4.13
510.75	4.12
511.099	4
511.449	4.12
511.798	4.1
512.147	4.07
512.496	4.06
512.846	4.15
513.195	4.19
513.544	4.13
513.893	4.17
514.242	4.1
514.591	4.21
514.939	4.22
515.288	4.24
515.637	4.13
515.986	4.25
516.334	4.22
516.683	4.14
517.032	4.09
517.38	4.08
517.729	4.25
518.077	4.25
518.426	4.29
518.774	4.23
519.122	4.24
519.47	4.29
519.819	4.27
520.167	4.32
520.515	4.17
520.863	4.22
521.211	4.21
521.559	4.33
521.907	4.32
522.255	4.23
522.602	4.31
522.95	4.4
523.298	4.4
523.645	4.35
523.993	4.44
524.341	4.45
524.688	4.43
525.036	4.34
525.383	4.3
525.73	4.46
526.078	4.47
526.425	4.31
526.772	4.56
527.119	4.3
527.466	4.36
527.814	4.45
528.161	4.32
528.508	4.46
528.854	4.42
529.201	4.43
529.548	4.33
529.895	4.39
530.242	4.29
530.588	4.33
530.935	4.36
531.282	4.36
531.628	4.35
531.975	4.42
532.321	4.43
532.667	4.48
533.014	4.59
533.36	4.54
533.706	4.64
534.052	4.6
534.399	4.54
534.745	4.51
535.091	4.46
535.437	4.55
535.783	4.51
536.129	4.59
536.474	4.54
536.82	4.62
537.166	4.68
537.512	4.78
537.857	4.81
538.203	4.71
538.549	4.57
538.894	4.72
539.239	4.68
539.585	4.76
539.93	4.71
540.276	4.76
540.621	4.79
540.966	4.88
541.311	4.82
541.656	4.92
542.001	4.85
542.346	4.78
542.691	4.72
543.036	4.69
543.381	4.73
543.726	4.72
544.071	4.78
544.415	4.83
544.76	4.82
545.105	4.89
545.449	4.94
545.794	4.98
546.138	4.94
546.483	5.04
546.827	4.95
547.171	4.99
547.516	5
547.86	5.02
548.204	5.05
548.548	5
548.892	5.1
549.236	5.12
549.58	5.08
549.924	5.13
550.268	5.2
550.612	5.28
550.956	5.31
551.3	5.29
551.643	5.33
551.987	5.12
552.33	5.45
552.674	5.35
553.017	5.2
553.361	5.28
553.704	5.38
554.048	5.26
554.391	5.39
554.734	5.2
555.077	5.45
555.42	5.37
555.764	5.37
556.107	5.35
556.45	5.45
556.793	5.41
557.135	5.61
557.478	5.47
557.821	5.6
558.164	5.62
558.507	5.71
558.849	5.49
559.192	5.52
559.534	5.54
559.877	5.74
560.219	5.57
560.562	5.74
560.904	5.63
561.246	5.64
561.589	5.75
561.931	5.86
562.273	5.69
562.615	5.75
562.957	5.69
563.299	5.87
563.641	5.76
563.983	5.64
564.325	5.85
564.667	5.9
565.008	5.69
565.35	5.84
565.692	5.86
566.033	5.71
566.375	5.82
566.716	5.83
567.058	5.83
567.399	5.94
567.741	5.89
568.082	6
568.423	5.97
568.764	5.97
569.105	6.03
569.447	5.8
569.788	6.2
570.129	6.09
570.47	5.97
570.811	6
571.151	6.08
571.492	6.1
571.833	6.26
572.174	5.97
572.514	6.08
572.855	6.04
573.195	6.09
573.536	6.15
573.876	6.4
574.217	6.04
574.557	6.33
574.898	6.21
575.238	6.38
575.578	6.28
575.918	6.24
576.258	6.27
576.598	6.26
576.938	6.35
577.278	6.37
577.618	6.44
577.958	6.44
578.298	6.5
578.638	6.72
578.977	6.59
579.317	6.57
579.657	6.53
579.996	6.45
580.336	6.68
580.675	6.57
581.014	6.23
581.354	6.71
581.693	6.67
582.032	6.64
582.372	6.74
582.711	6.55
583.05	6.81
583.389	6.57
583.728	6.9
584.067	6.81
584.406	6.9
584.745	6.75
585.083	6.65
585.422	6.84
585.761	6.92
586.1	6.68
586.438	7.13
586.777	7.07
587.115	7.13
587.454	7.08
587.792	6.97
588.13	7.17
588.469	7.16
588.807	7.03
589.145	6.74
589.483	7.23
589.821	6.98
590.159	7.25
590.497	7.19
590.835	7.14
591.173	7.02
591.511	7.05
591.849	7.3
592.187	7.12
592.524	7.08
592.862	7.2
593.2	7.25
593.537	7.18
593.875	7.52
594.212	7.11
594.55	7.15
594.887	7.48
595.224	7.59
595.561	7.4
595.899	7.33
596.236	7.52
596.573	7.39
596.91	7.65
597.247	7.27
597.584	7.65
597.921	7.38
598.258	7.54
598.594	7.32
598.931	7.52
599.268	7.5
599.604	7.58
599.941	7.44
600.277	7.5
600.614	7.62
600.95	7.72
601.287	7.61
601.623	7.86
601.959	7.65
602.296	7.9
602.632	7.8
602.968	8.05
603.304	7.96
603.64	7.7
603.976	7.76
604.312	7.64
604.648	7.7
604.984	7.83
605.319	7.89
605.655	8.01
605.991	7.92
606.326	7.88
606.662	7.96
606.998	7.7
607.333	8.02
607.668	7.99
608.004	8.21
608.339	7.98
608.674	8.31
609.01	8.16
609.345	7.87
609.68	8.35
610.015	8.46
610.35	8.23
610.685	7.96
611.02	7.97
611.355	7.96
611.689	8.12
612.024	8.18
612.359	8.35
612.694	8.46
613.028	8.17
613.363	8.2
613.697	8.53
614.032	8.62
614.366	8.32
614.7	8.45
615.035	8.75
615.369	8.4
615.703	8.25
616.037	8.36
616.371	8.58
616.705	8.26
617.039	8.73
617.373	8.92
617.707	8.28
618.041	8.99
618.375	8.71
618.709	8.83
619.042	8.54
619.376	9.06
619.71	8.71
620.043	8.86
620.377	8.97
620.71	8.75
621.043	9.16
621.377	8.62
621.71	8.77
622.043	8.67
622.376	8.89
622.709	8.7
623.043	8.94
623.376	9.25
623.709	8.83
624.041	9.18
624.374	9.23
624.707	8.79
625.04	9.08
625.373	9.42
625.705	9.08
626.038	9.23
626.37	9.28
626.703	9.45
627.035	9.21
627.368	9.83
627.7	9.22
628.032	9.38
628.365	9.2
628.697	9.27
629.029	9.18
629.361	9.3
629.693	9.64
630.025	9.36
630.357	9.57
630.689	9.74
631.021	9.39
631.353	9.43
631.684	9.65
632.016	9.57
632.348	9.63
632.679	9.38
633.011	9.65
633.342	9.69
633.674	10.09
634.005	9.82
634.336	9.56
634.668	9.56
634.999	10.07
635.33	10.17
635.661	9.77
635.992	9.64
636.323	10.03
636.654	9.76
636.985	9.71
637.316	9.66
637.647	9.67
637.977	10.3
638.308	9.67
638.639	9.95
638.969	10
639.3	10.22
639.63	9.9
639.961	9.97
640.291	10.1
640.622	10.18
640.952	10.36
641.282	10.25
641.612	10.36
641.943	10.34
642.273	10.4
642.603	10.24
642.933	10.27
643.263	10.37
643.592	10.03
643.922	10.2
644.252	10.4
644.582	10.6
644.911	10.69
645.241	10.65
645.571	10.27
645.9	10.33
646.23	10.2
646.559	10.34
646.888	11.08
647.218	10.53
647.547	10.87
647.876	10.62
648.205	10.67
648.534	10.63
648.863	10.41
649.192	10.35
649.521	10.82
649.85	10.43
650.179	11.21
650.508	10.64
650.837	11.02
651.165	10.89
651.494	10.75
651.822	10.78
652.151	10.67
652.479	11.18
652.808	11.14
653.136	10.89
653.465	11.14
653.793	10.85
654.121	10.52
654.449	11.16
654.777	10.93
655.105	11.14
655.433	11.19
655.761	11.67
656.089	11.2
656.417	10.91
656.745	11.45
657.073	11.12
657.4	11.4
657.728	11.22
658.056	11.53
658.383	11.58
658.711	11.38
659.038	10.77
659.365	11.18
659.693	11.3
660.02	11.05
660.347	11.67
660.674	11.39
661.001	11.65
661.329	11.33
661.656	11.1
661.982	11.5
662.309	11.75
662.636	11.78
662.963	11.06
663.29	11.02
663.616	11.27
663.943	11.73
664.27	11.7
664.596	11.02
664.923	11.5
665.249	11.7
665.576	11.35
665.902	11.63
666.228	12.31
666.554	11.36
666.881	11.94
667.207	11.52
667.533	11.81
667.859	12.26
668.185	12.15
668.511	12.21
668.837	12.02
669.162	11.97
669.488	12.21
669.814	12.21
670.139	12
670.465	12.19
670.791	12.22
671.116	11.88
671.442	12.66
671.767	12.3
672.092	12.12
672.418	12.28
672.743	12.2
673.068	12.61
673.393	12.8
673.718	12.02
674.043	12.75
674.368	12.77
674.693	11.73
675.018	11.8
675.343	12.87
675.667	12.79
675.992	12.23
676.317	12.83
676.641	12.33
676.966	12.07
677.29	12.1
677.615	12.31
677.939	12.9
678.264	12.38
678.588	12.94
678.912	12.76
679.236	12.33
679.56	12.58
679.885	12.5
680.209	12.96
680.532	12.83
680.856	12.61
681.18	13.07
681.504	13.14
681.828	12.66
682.152	12
682.475	12.41
682.799	12.89
683.122	13.36
683.446	12.69
683.769	13.37
684.093	13.17
684.416	13.31
684.739	13.38
685.062	13.36
685.386	13.46
685.709	12.91
686.032	12.77
686.355	12.85
686.678	12.87
687.001	13.18
687.324	14.06
687.646	12.94
687.969	14.14
688.292	13.5
688.614	12.64
688.937	13.47
689.26	12.84
689.582	13.22
689.904	13.12
690.227	13.29
