Data from 1897-2_chest_Reflection__4__04.txt Node

Date: Fri Sep 30 17:45:45 CDT 2022
User: ToomeyLab
Spectrometer: FLMS14357
Trigger mode: 0
Integration Time (sec): 1.000000E-2
Scans to average: 100
Electric dark correction enabled: true
Nonlinearity correction enabled: false
Boxcar width: 0
XAxis mode: Wavelengths
Number of Pixels in Spectrum: 2048
>>>>>Begin Spectral Data<<<<<
189.047	76.35
189.435	76.35
189.823	76.35
190.211	487.37
190.599	56.03
190.987	304.65
191.375	821.41
191.763	13.32
192.151	-232.17
192.538	30.41
192.926	836.04
193.314	23
193.702	46.31
194.089	29.25
194.477	-56.51
194.864	166.88
195.252	-326.32
195.639	273.68
196.027	82.71
196.414	-36.77
196.801	87.96
197.189	128.82
197.576	-22.31
197.963	3.2
198.351	-7.94
198.738	-13.16
199.125	46.41
199.512	16.88
199.899	41.49
200.286	34.27
200.673	51.27
201.06	30.4
201.447	26.28
201.833	15.37
202.22	12.75
202.607	43.85
202.994	50.66
203.38	27.98
203.767	15.69
204.154	-5.96
204.54	29.36
204.927	24.27
205.313	-42.04
205.699	63.88
206.086	34.17
206.472	38.35
206.858	29.76
207.245	18.16
207.631	-16.21
208.017	23.39
208.403	13.14
208.789	30.82
209.175	17.84
209.561	-68.95
209.947	-4.87
210.333	-19.62
210.719	-12.38
211.105	-57.64
211.491	9.21
211.876	25.11
212.262	11.84
212.648	32.2
213.034	-5.66
213.419	24.44
213.805	8.22
214.19	11.31
214.576	28.38
214.961	3.39
215.346	8.12
215.732	3.01
216.117	2.62
216.502	41.4
216.888	47.22
217.273	-12.18
217.658	8.43
218.043	7.71
218.428	15.88
218.813	6.06
219.198	21.66
219.583	15.55
219.968	22.13
220.353	14.85
220.738	16.05
221.122	12.36
221.507	24.9
221.892	10.44
222.276	-13.12
222.661	13.98
223.046	4.23
223.43	1.58
223.815	-0.25
224.199	8.7
224.583	3.17
224.968	-1.04
225.352	-2.13
225.736	6.82
226.121	9.81
226.505	3.44
226.889	3.83
227.273	-2.53
227.657	5.63
228.041	3.08
228.425	7.47
228.809	5.84
229.193	7.44
229.577	3.55
229.961	5.35
230.344	4.35
230.728	4.63
231.112	6.25
231.495	4.92
231.879	6.25
232.263	5.81
232.646	2.72
233.03	4.41
233.413	5
233.797	2.44
234.18	7.42
234.563	6.34
234.946	6.22
235.33	2.25
235.713	6.12
236.096	3.67
236.479	4.99
236.862	4.38
237.245	5.22
237.628	4.64
238.011	5.37
238.394	4.14
238.777	2.48
239.16	4.17
239.543	5.9
239.925	5.79
240.308	4.09
240.691	6.73
241.073	5.55
241.456	4.36
241.838	4.48
242.221	3.61
242.603	4.54
242.986	4.94
243.368	3.32
243.75	4.18
244.133	4.59
244.515	4.31
244.897	4.58
245.279	5.23
245.661	3.75
246.043	4.14
246.425	4.69
246.807	5.03
247.189	4.42
247.571	4.11
247.953	4.77
248.335	4.26
248.717	4.05
249.098	4.2
249.48	3.93
249.862	3.79
250.243	3.72
250.625	3.85
251.006	4.26
251.388	3.43
251.769	5.2
252.151	4.49
252.532	5.17
252.913	4.14
253.295	3.55
253.676	3.76
254.057	4.1
254.438	3.75
254.819	4.41
255.2	4.37
255.581	5.04
255.962	4.47
256.343	4.6
256.724	3.83
257.105	4.71
257.486	4.29
257.867	5.26
258.247	2.86
258.628	3.69
259.009	5.2
259.389	3.69
259.77	4.37
260.15	3.37
260.531	4.01
260.911	4.05
261.292	3.7
261.672	3.83
262.052	3.92
262.432	3.42
262.813	4.18
263.193	4.05
263.573	3.6
263.953	3.68
264.333	4.02
264.713	3.66
265.093	4.02
265.473	3.12
265.853	4.13
266.233	3.71
266.612	4.03
266.992	3.04
267.372	3.13
267.752	2.89
268.131	3.55
268.511	4.04
268.89	3.17
269.27	4.2
269.649	4.17
270.029	3.82
270.408	3.98
270.787	3.53
271.167	3.7
271.546	3.89
271.925	4.51
272.304	4.08
272.683	3.69
273.062	3.7
273.441	3.44
273.82	3.59
274.199	3.36
274.578	3.38
274.957	3.63
275.336	3.28
275.715	3.88
276.093	3.69
276.472	3.37
276.851	3.88
277.229	3.63
277.608	4.04
277.986	3.5
278.365	4.23
278.743	3.14
279.122	3.58
279.5	3.5
279.878	3.53
280.257	4.07
280.635	3.49
281.013	4.13
281.391	3.4
281.769	4.37
282.147	4.28
282.525	3.65
282.903	3.52
283.281	3.56
283.659	3.51
284.037	3.4
284.415	3.97
284.792	3.81
285.17	3.16
285.548	4.1
285.925	3.48
286.303	3.19
286.68	3.2
287.058	3.57
287.435	3.73
287.813	3.51
288.19	3.5
288.567	3.55
288.945	3.21
289.322	3.25
289.699	3.88
290.076	3.48
290.453	3.46
290.83	3.34
291.207	3.62
291.584	3.2
291.961	3.79
292.338	4.09
292.715	3.92
293.092	3.03
293.469	3.59
293.845	4.17
294.222	3.23
294.599	3.99
294.975	3.37
295.352	3.45
295.728	3.88
296.105	3.5
296.481	3.79
296.858	3.8
297.234	3.5
297.61	3.69
297.986	3.36
298.363	3.61
298.739	3.38
299.115	3.35
299.491	3.58
299.867	3.3
300.243	3.24
300.619	2.96
300.995	3.77
301.371	4.17
301.746	3.65
302.122	3.46
302.498	3.48
302.874	3.58
303.249	3.83
303.625	4.1
304	3.68
304.376	4.07
304.751	3.66
305.127	3.42
305.502	3.7
305.878	3.62
306.253	3.43
306.628	3.37
307.003	3.27
307.378	3.6
307.754	3.29
308.129	3.71
308.504	3.26
308.879	4.09
309.254	3.34
309.629	3.71
310.003	3.54
310.378	3.29
310.753	3.43
311.128	3.23
311.502	3.8
311.877	3.35
312.252	4.06
312.626	3.63
313.001	3.28
313.375	3.6
313.75	3.45
314.124	3.64
314.498	3.6
314.873	3.81
315.247	3.58
315.621	3.5
315.995	4.19
316.369	3.4
316.743	3.33
317.117	3.92
317.491	4.59
317.865	4.67
318.239	4.44
318.613	3.64
318.987	3.65
319.361	3.27
319.734	3.04
320.108	4
320.482	3.74
320.855	3.57
321.229	3.96
321.602	3.51
321.976	3.48
322.349	3.09
322.723	3.52
323.096	4.12
323.469	3.73
323.843	3.65
324.216	3.36
324.589	3.81
324.962	3.71
325.335	3.57
325.708	3.28
326.081	3.56
326.454	3.64
326.827	3.91
327.2	3.89
327.573	2.89
327.945	3.05
328.318	3.63
328.691	3.96
329.063	3.61
329.436	3.62
329.809	4.27
330.181	3.5
330.553	3.47
330.926	4.44
331.298	3.44
331.671	4.19
332.043	3.47
332.415	3.28
332.787	3.5
333.159	3.78
333.532	3.68
333.904	3.54
334.276	3.77
334.648	3.25
335.02	3.83
335.391	3.43
335.763	3.3
336.135	3.42
336.507	3.74
336.879	3.55
337.25	3.5
337.622	3.82
337.993	3.2
338.365	3.62
338.736	3.73
339.108	3.62
339.479	3.96
339.851	3.25
340.222	4.03
340.593	3.42
340.964	3.51
341.336	3.26
341.707	3.56
342.078	3.51
342.449	3.94
342.82	3.51
343.191	3.22
343.562	3.55
343.933	3.57
344.303	3.52
344.674	3.75
345.045	3.39
345.416	4.02
345.786	3.48
346.157	4.03
346.527	3.74
346.898	3.46
347.268	3.34
347.639	3.46
348.009	3.61
348.38	4.06
348.75	3.91
349.12	3.25
349.49	3.71
349.861	3.24
350.231	3.63
350.601	3.73
350.971	3.55
351.341	3.43
351.711	3.48
352.081	3.48
352.45	3.71
352.82	3.92
353.19	3.9
353.56	3.5
353.929	3.29
354.299	3.57
354.669	3.67
355.038	3.69
355.408	3.74
355.777	3.29
356.147	3.39
356.516	3.86
356.885	3.43
357.254	3.84
357.624	3.74
357.993	2.92
358.362	3.73
358.731	3.36
359.1	3.31
359.469	3.54
359.838	3.84
360.207	3.45
360.576	3.61
360.945	3.57
361.314	3.22
361.682	3.61
362.051	3.67
362.42	3.61
362.788	3.57
363.157	3.37
363.525	3.32
363.894	3.52
364.262	3.79
364.631	4
364.999	3.51
365.367	3.8
365.735	3.47
366.104	3.26
366.472	3.48
366.84	3.71
367.208	3.69
367.576	4.13
367.944	3.46
368.312	3.27
368.68	3.34
369.048	3.19
369.416	3.41
369.783	3.6
370.151	3.36
370.519	3.92
370.886	3.78
371.254	3.47
371.621	3.87
371.989	3.75
372.356	3.67
372.724	3.84
373.091	3.42
373.458	3.61
373.826	3.54
374.193	3.53
374.56	3.85
374.927	4.05
375.294	3.83
375.661	3.55
376.028	3.74
376.395	3.8
376.762	3.56
377.129	3.92
377.496	4.03
377.863	3.07
378.229	3.73
378.596	3.65
378.963	3.99
379.329	3.48
379.696	3.48
380.062	3.53
380.429	3.61
380.795	3.62
381.161	3.47
381.528	3.76
381.894	3.49
382.26	3.48
382.626	3.65
382.993	3.63
383.359	3.6
383.725	3.54
384.091	3.54
384.457	3.52
384.823	3.89
385.188	3.86
385.554	3.82
385.92	3.79
386.286	4.01
386.651	3.97
387.017	3.53
387.383	3.76
387.748	3.21
388.114	3.72
388.479	3.62
388.845	3.33
389.21	3.41
389.575	3.6
389.94	3.6
390.306	3.87
390.671	3.66
391.036	3.85
391.401	3.55
391.766	3.73
392.131	3.64
392.496	3.72
392.861	3.64
393.226	3.68
393.591	3.54
393.956	3.87
394.32	3.54
394.685	3.34
395.05	3.95
395.414	3.78
395.779	3.6
396.143	3.71
396.508	3.51
396.872	3.76
397.236	3.81
397.601	3.74
397.965	3.63
398.329	3.3
398.694	3.89
399.058	3.83
399.422	3.87
399.786	3.8
400.15	3.74
400.514	3.66
400.878	3.56
401.242	3.63
401.605	3.61
401.969	3.67
402.333	3.8
402.697	3.63
403.06	3.51
403.424	3.66
403.787	3.87
404.151	3.83
404.514	3.87
404.878	3.58
405.241	3.81
405.604	3.68
405.968	3.6
406.331	3.61
406.694	3.53
407.057	3.71
407.42	3.97
407.783	3.53
408.146	3.66
408.509	3.69
408.872	3.61
409.235	3.65
409.598	3.74
409.961	3.5
410.323	3.85
410.686	3.96
411.049	3.51
411.411	3.87
411.774	3.8
412.136	4.02
412.499	3.43
412.861	3.68
413.223	3.48
413.586	3.55
413.948	3.85
414.31	3.81
414.672	3.67
415.035	3.91
415.397	3.94
415.759	3.68
416.121	3.68
416.483	3.75
416.845	3.8
417.206	3.78
417.568	3.85
417.93	3.54
418.292	3.74
418.653	3.66
419.015	3.79
419.377	3.68
419.738	3.61
420.1	3.79
420.461	3.66
420.822	3.64
421.184	3.52
421.545	3.5
421.906	3.49
422.267	3.5
422.629	3.63
422.99	3.52
423.351	3.65
423.712	3.64
424.073	3.63
424.434	3.57
424.795	3.64
425.155	3.64
425.516	3.58
425.877	3.7
426.238	3.59
426.598	3.61
426.959	3.68
427.32	3.71
427.68	3.72
428.041	3.52
428.401	3.75
428.761	3.81
429.122	3.66
429.482	3.63
429.842	3.8
430.202	3.78
430.563	3.75
430.923	3.69
431.283	3.63
431.643	3.87
432.003	3.58
432.363	3.96
432.722	3.78
433.082	3.88
433.442	3.57
433.802	3.78
434.161	3.77
434.521	3.67
434.881	3.56
435.24	3.63
435.6	3.69
435.959	3.71
436.319	3.82
436.678	3.85
437.037	3.73
437.396	3.91
437.756	3.71
438.115	3.71
438.474	3.75
438.833	3.71
439.192	3.79
439.551	3.8
439.91	3.61
440.269	3.59
440.628	3.76
440.987	3.71
441.345	3.71
441.704	3.67
442.063	3.83
442.421	3.78
442.78	3.64
443.138	3.68
443.497	3.78
443.855	3.78
444.214	3.72
444.572	3.83
444.93	3.67
445.288	3.83
445.647	3.71
446.005	3.77
446.363	3.88
446.721	3.74
447.079	3.76
447.437	3.82
447.795	3.65
448.153	3.77
448.51	3.68
448.868	3.69
449.226	3.67
449.584	3.68
449.941	3.7
450.299	3.73
450.656	3.81
451.014	3.82
451.371	3.79
451.729	3.84
452.086	3.63
452.443	3.8
452.801	3.83
453.158	3.82
453.515	3.69
453.872	3.93
454.229	3.78
454.586	3.87
454.943	3.74
455.3	3.75
455.657	3.9
456.014	3.64
456.371	3.66
456.727	3.8
457.084	3.79
457.441	3.87
457.797	3.7
458.154	3.63
458.51	3.62
458.867	3.83
459.223	3.75
459.58	3.84
459.936	3.9
460.292	3.81
460.648	3.74
461.005	3.9
461.361	3.71
461.717	3.71
462.073	3.64
462.429	3.69
462.785	3.8
463.141	3.87
463.496	3.73
463.852	3.74
464.208	3.96
464.564	3.64
464.919	3.85
465.275	3.92
465.631	3.88
465.986	3.79
466.342	3.85
466.697	3.92
467.052	3.78
467.408	3.86
467.763	3.7
468.118	3.78
468.473	3.77
468.829	3.82
469.184	3.91
469.539	4
469.894	3.93
470.249	3.99
470.603	3.99
470.958	3.95
471.313	3.81
471.668	3.9
472.023	3.76
472.377	3.88
472.732	3.89
473.086	3.89
473.441	3.9
473.795	3.78
474.15	3.84
474.504	3.95
474.859	3.92
475.213	3.8
475.567	3.92
475.921	3.85
476.275	3.87
476.63	3.88
476.984	3.85
477.338	3.76
477.692	4.02
478.045	3.97
478.399	3.97
478.753	4.03
479.107	3.92
479.461	3.96
479.814	3.91
480.168	3.89
480.521	3.78
480.875	4.06
481.228	3.87
481.582	3.93
481.935	3.96
482.289	4.09
482.642	4.02
482.995	3.91
483.348	3.87
483.701	4.01
484.055	3.89
484.408	3.82
484.761	3.85
485.114	3.78
485.466	3.7
485.819	3.68
486.172	3.73
486.525	3.83
486.878	3.86
487.23	3.82
487.583	3.84
487.936	3.95
488.288	3.88
488.641	3.85
488.993	3.81
489.345	3.76
489.698	3.73
490.05	3.85
490.402	3.91
490.754	3.91
491.107	3.87
491.459	3.97
491.811	3.92
492.163	4.03
492.515	3.94
492.866	3.92
493.218	3.78
493.57	3.85
493.922	3.84
494.274	3.89
494.625	3.97
494.977	4.07
495.328	3.97
495.68	3.96
496.031	4.11
496.383	4.05
496.734	4.12
497.086	4.17
497.437	4.14
497.788	4.13
498.139	4.02
498.49	4
498.842	3.99
499.193	4.02
499.544	4.07
499.894	4.2
500.245	3.96
500.596	4.05
500.947	4.11
501.298	4.25
501.648	4.04
501.999	4.17
502.35	4.15
502.7	4.14
503.051	4.2
503.401	4.16
503.752	4.15
504.102	4.18
504.452	4.1
504.803	4.22
505.153	4.23
505.503	4.17
505.853	4.11
506.203	4.09
506.553	4.15
506.903	4.21
507.253	4.29
507.603	4.28
507.953	4.25
508.303	4.28
508.652	4.16
509.002	4.28
509.352	4.17
509.701	4.29
510.051	4.31
510.4	4.17
510.75	4.17
511.099	4.05
511.449	4.15
511.798	4.18
512.147	4.2
512.496	4.28
512.846	4.18
513.195	4.42
513.544	4.26
513.893	4.32
514.242	4.2
514.591	4.35
514.939	4.26
515.288	4.32
515.637	4.09
515.986	4.33
516.334	4.34
516.683	4.16
517.032	4.38
517.38	4.36
517.729	4.46
518.077	4.37
518.426	4.34
518.774	4.38
519.122	4.34
519.47	4.33
519.819	4.31
520.167	4.37
520.515	4.27
520.863	4.39
521.211	4.43
521.559	4.45
521.907	4.49
522.255	4.33
522.602	4.41
522.95	4.44
523.298	4.47
523.645	4.26
523.993	4.39
524.341	4.48
524.688	4.44
525.036	4.36
525.383	4.41
525.73	4.53
526.078	4.54
526.425	4.34
526.772	4.48
527.119	4.37
527.466	4.39
527.814	4.4
528.161	4.36
528.508	4.37
528.854	4.38
529.201	4.4
529.548	4.39
529.895	4.33
530.242	4.33
530.588	4.3
530.935	4.38
531.282	4.38
531.628	4.41
531.975	4.41
532.321	4.45
532.667	4.54
533.014	4.59
533.36	4.49
533.706	4.52
534.052	4.63
534.399	4.56
534.745	4.54
535.091	4.47
535.437	4.58
535.783	4.55
536.129	4.63
536.474	4.56
536.82	4.61
537.166	4.72
537.512	4.77
537.857	4.79
538.203	4.67
538.549	4.64
538.894	4.73
539.239	4.63
539.585	4.65
539.93	4.83
540.276	4.75
540.621	5.02
540.966	4.97
541.311	4.8
541.656	4.84
542.001	4.78
542.346	4.79
542.691	4.66
543.036	4.66
543.381	4.67
543.726	4.72
544.071	4.77
544.415	4.76
544.76	4.81
545.105	4.77
545.449	4.88
545.794	4.78
546.138	4.88
546.483	5.07
546.827	4.94
547.171	5.01
547.516	4.93
547.86	5.02
548.204	4.99
548.548	4.9
548.892	4.92
549.236	5.01
549.58	5.11
549.924	5.11
550.268	5.22
550.612	5.18
550.956	5.3
551.3	5.22
551.643	5.15
551.987	5.18
552.33	5.31
552.674	5.32
553.017	5.2
553.361	5.17
553.704	5.37
554.048	5.21
554.391	5.25
554.734	5.25
555.077	5.24
555.42	5.46
555.764	5.31
556.107	5.34
556.45	5.25
556.793	5.26
557.135	5.47
557.478	5.47
557.821	5.54
558.164	5.39
558.507	5.71
558.849	5.49
559.192	5.31
559.534	5.32
559.877	5.59
560.219	5.5
560.562	5.59
560.904	5.43
561.246	5.64
561.589	5.38
561.931	5.58
562.273	5.6
562.615	5.52
562.957	5.53
563.299	5.67
563.641	5.66
563.983	5.45
564.325	5.8
564.667	5.75
565.008	5.78
565.35	5.61
565.692	5.66
566.033	5.63
566.375	5.58
566.716	6.04
567.058	5.74
567.399	5.59
567.741	5.79
568.082	5.8
568.423	5.81
568.764	5.9
569.105	5.79
569.447	5.8
569.788	5.95
570.129	5.93
570.47	5.99
570.811	5.91
571.151	5.89
571.492	5.9
571.833	5.89
572.174	5.8
572.514	5.97
572.855	6.01
573.195	6
573.536	6.05
573.876	6.01
574.217	6.12
574.557	6.09
574.898	6.05
575.238	6.23
575.578	6.24
575.918	6.02
576.258	6.27
576.598	6.12
576.938	6.2
577.278	6.31
577.618	6.45
577.958	6.48
578.298	6.27
578.638	6.51
578.977	6.4
579.317	6.24
579.657	6.27
579.996	6.17
580.336	6.31
580.675	6.5
581.014	6.42
581.354	6.52
581.693	6.51
582.032	6.41
582.372	6.49
582.711	6.42
583.05	6.66
583.389	6.63
583.728	6.62
584.067	6.63
584.406	6.7
584.745	6.99
585.083	6.7
585.422	6.88
585.761	6.6
586.1	6.63
586.438	6.81
586.777	6.95
587.115	6.98
587.454	7
587.792	6.6
588.13	6.77
588.469	6.92
588.807	6.97
589.145	6.69
589.483	7.09
589.821	6.98
590.159	7.17
590.497	6.87
590.835	7.19
591.173	6.8
591.511	6.99
591.849	7
592.187	7.12
592.524	6.91
592.862	7.01
593.2	7.21
593.537	6.97
593.875	7.39
594.212	7.08
594.55	7.22
594.887	7.34
595.224	7.35
595.561	7.36
595.899	7.14
596.236	7.49
596.573	7.32
596.91	7.38
597.247	7.22
597.584	7.27
597.921	7.32
598.258	7.43
598.594	7.33
598.931	7.5
599.268	7.25
599.604	7.47
599.941	7.45
600.277	7.35
600.614	7.69
600.95	7.82
601.287	7.5
601.623	7.83
601.959	7.74
602.296	7.97
602.632	7.75
602.968	7.61
603.304	7.68
603.64	7.85
603.976	7.64
604.312	7.9
604.648	7.99
604.984	7.85
605.319	7.84
605.655	7.89
605.991	7.69
606.326	7.89
606.662	8.06
606.998	7.98
607.333	7.92
607.668	8.01
608.004	8.3
608.339	8.13
608.674	8.16
609.01	7.82
609.345	8.02
609.68	8.21
610.015	8.24
610.35	8.13
610.685	8.24
611.02	8.25
611.355	7.95
611.689	8.23
612.024	8.42
612.359	8.52
612.694	8.5
613.028	8.43
613.363	8.4
613.697	8.39
614.032	8.7
614.366	8.59
614.7	8.39
615.035	8.53
615.369	8.42
615.703	8.8
616.037	8.68
616.371	8.63
616.705	8.9
617.039	8.78
617.373	8.87
617.707	8.57
618.041	9.05
618.375	8.7
618.709	9.03
619.042	8.62
619.376	9.09
619.71	9.39
620.043	9.27
620.377	9.24
620.71	9.01
621.043	9.23
621.377	8.98
621.71	9.06
622.043	8.92
622.376	9.35
622.709	8.96
623.043	9.29
623.376	9.11
623.709	9.17
624.041	9.09
624.374	9.48
624.707	9.07
625.04	9.45
625.373	9.35
625.705	9.68
626.038	9
626.37	9.42
626.703	9.63
627.035	9.6
627.368	9.58
627.7	9.55
628.032	9.47
628.365	9.34
628.697	9.52
629.029	9.47
629.361	9.86
629.693	9.8
630.025	9.79
630.357	9.65
630.689	9.82
631.021	9.69
631.353	9.94
631.684	9.69
632.016	9.75
632.348	10
632.679	9.82
633.011	10.08
633.342	10.19
633.674	10
634.005	10.01
634.336	9.88
634.668	10.29
634.999	10.28
635.33	10.34
635.661	10.24
635.992	10.22
636.323	10.22
636.654	9.95
636.985	9.85
637.316	10.53
637.647	10.14
637.977	10.48
638.308	10.05
638.639	10.17
638.969	10.53
639.3	10.46
639.63	10.04
639.961	10.56
640.291	10.19
640.622	10.57
640.952	10.84
641.282	10.36
641.612	10.8
641.943	10.82
642.273	10.5
642.603	10.53
642.933	10.68
643.263	10.78
643.592	10.73
643.922	10.34
644.252	10.85
644.582	11.22
644.911	11.05
645.241	11.07
645.571	11.1
645.9	10.81
646.23	10.8
646.559	10.6
646.888	10.97
647.218	10.72
647.547	11.32
647.876	10.97
648.205	10.97
648.534	10.67
648.863	11.67
649.192	10.84
649.521	11.33
649.85	11.13
650.179	11.49
650.508	10.99
650.837	11.56
651.165	11.43
651.494	11.17
651.822	11.6
652.151	11.76
652.479	11.53
652.808	11.98
653.136	11.75
653.465	11.57
653.793	11.25
654.121	11.38
654.449	11.57
654.777	11.42
655.105	12.01
655.433	11.75
655.761	12.18
656.089	12.28
656.417	11.51
656.745	12.01
657.073	11.74
657.4	12.37
657.728	12.06
658.056	12.08
658.383	12.13
658.711	12.13
659.038	11.83
659.365	12.02
659.693	11.96
660.02	11.89
660.347	12.46
660.674	12.62
661.001	12.27
661.329	12.34
661.656	12.12
661.982	12.41
662.309	12.64
662.636	12.62
662.963	12.43
663.29	12.25
663.616	12.38
663.943	13.06
664.27	12.39
664.596	12.6
664.923	12.91
665.249	12.77
665.576	12.71
665.902	13.18
666.228	13.01
666.554	12.68
666.881	13.32
667.207	12.73
667.533	12.51
667.859	13.18
668.185	13.25
668.511	12.91
668.837	13.27
669.162	13.14
669.488	12.51
669.814	12.94
670.139	12.37
670.465	13.44
670.791	13.52
671.116	13.19
671.442	13.56
671.767	13.23
672.092	13.46
672.418	13.17
672.743	13.45
673.068	14.07
673.393	13.75
673.718	13.06
674.043	13.39
674.368	13.67
674.693	13.66
675.018	13.54
675.343	13.49
675.667	13.55
675.992	13.29
676.317	13.94
676.641	13.67
676.966	13.54
677.29	13.08
677.615	13.24
677.939	13.41
678.264	13.56
678.588	13.8
678.912	13.44
679.236	13.43
679.56	13.69
679.885	13.71
680.209	13.54
680.532	13.79
680.856	13.82
681.18	14.6
681.504	14.79
681.828	13.99
682.152	13.47
682.475	13.83
682.799	14.23
683.122	14.35
683.446	14.39
683.769	14.31
684.093	14.48
684.416	14.55
684.739	14.43
685.062	14.95
685.386	14.66
685.709	14.53
686.032	14.19
686.355	14.69
686.678	14.57
687.001	14.5
687.324	14.76
687.646	14.79
687.969	14.84
688.292	15.18
688.614	14.14
688.937	14.48
