Data from 1897-2_chest_Reflection__1__01.txt Node

Date: Fri Sep 30 17:45:07 CDT 2022
User: ToomeyLab
Spectrometer: FLMS14357
Trigger mode: 0
Integration Time (sec): 1.000000E-2
Scans to average: 100
Electric dark correction enabled: true
Nonlinearity correction enabled: false
Boxcar width: 0
XAxis mode: Wavelengths
Number of Pixels in Spectrum: 2048
>>>>>Begin Spectral Data<<<<<
189.047	-91.86
189.435	-91.86
189.823	-91.86
190.211	-432.29
190.599	75.59
190.987	147.16
191.375	376.76
191.763	176.65
192.151	21.72
192.538	-100.42
192.926	195.99
193.314	83.67
193.702	59.64
194.089	-35.29
194.477	-242.72
194.864	38.6
195.252	633.97
195.639	381.74
196.027	91.93
196.414	135.03
196.801	102.84
197.189	-63.5
197.576	103.16
197.963	-86.41
198.351	-8.7
198.738	8.89
199.125	61.73
199.512	35.09
199.899	9.42
200.286	-20.59
200.673	54.38
201.06	-0.84
201.447	13.76
201.833	30.06
202.22	29.15
202.607	34.4
202.994	23.73
203.38	5.86
203.767	34.73
204.154	8.78
204.54	13.68
204.927	5.81
205.313	-24.82
205.699	13.89
206.086	-89.57
206.472	31.7
206.858	31.57
207.245	16.51
207.631	-31.09
208.017	-40.31
208.403	52.12
208.789	25.39
209.175	17.88
209.561	-45.16
209.947	-12.6
210.333	-37.39
210.719	-0.13
211.105	1.78
211.491	11.11
211.876	13.37
212.262	12.8
212.648	3.31
213.034	-14
213.419	28.48
213.805	-23.1
214.19	38.05
214.576	12.39
214.961	4.5
215.346	1.98
215.732	12.93
216.117	-1.54
216.502	36.37
216.888	-2.66
217.273	-19.4
217.658	14.85
218.043	3.93
218.428	7.2
218.813	14.92
219.198	21.39
219.583	19.35
219.968	8.27
220.353	7.16
220.738	15.95
221.122	21.05
221.507	25.69
221.892	13.22
222.276	-2.8
222.661	11.04
223.046	15.48
223.43	-6.26
223.815	1.92
224.199	4.71
224.583	0.14
224.968	8.19
225.352	0.91
225.736	11.48
226.121	4.29
226.505	-0.98
226.889	5.62
227.273	0.28
227.657	4.55
228.041	3.19
228.425	9.39
228.809	6.09
229.193	6.31
229.577	1.4
229.961	4.36
230.344	2.72
230.728	2.56
231.112	3.15
231.495	3.18
231.879	5.15
232.263	3.88
232.646	1.62
233.03	3.48
233.413	5.15
233.797	1.38
234.18	3.56
234.563	4.16
234.946	3.84
235.33	1.73
235.713	3.47
236.096	3.81
236.479	4.32
236.862	3.18
237.245	3.67
237.628	2.36
238.011	4.68
238.394	3.73
238.777	1.22
239.16	2.39
239.543	4.03
239.925	2.82
240.308	1.83
240.691	4.41
241.073	2.57
241.456	2.96
241.838	2.95
242.221	3.49
242.603	3.56
242.986	4.64
243.368	2.1
243.75	3.08
244.133	3.45
244.515	3.4
244.897	3.68
245.279	3.44
245.661	3.36
246.043	3
246.425	1.98
246.807	3.27
247.189	4.4
247.571	3.5
247.953	3.42
248.335	2.73
248.717	3.09
249.098	3.36
249.48	3.06
249.862	3.01
250.243	2.5
250.625	3.4
251.006	3.15
251.388	1.94
251.769	4.03
252.151	3.01
252.532	3.13
252.913	2.39
253.295	3.26
253.676	3.2
254.057	3.43
254.438	3.09
254.819	3.95
255.2	2.66
255.581	4.31
255.962	3.73
256.343	3.15
256.724	3.65
257.105	3.53
257.486	3.97
257.867	2.69
258.247	2.68
258.628	3.45
259.009	4.09
259.389	2.92
259.77	3.3
260.15	2.97
260.531	3.58
260.911	2.76
261.292	2.9
261.672	2.92
262.052	2.86
262.432	2.81
262.813	3.53
263.193	3.29
263.573	2.6
263.953	2.15
264.333	3.77
264.713	2.68
265.093	2.91
265.473	3.25
265.853	3.14
266.233	3.2
266.612	3.35
266.992	2.94
267.372	2.01
267.752	2.9
268.131	2.9
268.511	3.23
268.89	3
269.27	3.12
269.649	2.83
270.029	3.28
270.408	3.14
270.787	2.94
271.167	3.09
271.546	3.2
271.925	3.28
272.304	3.21
272.683	2.78
273.062	3.08
273.441	2.67
273.82	2.47
274.199	3.54
274.578	2.48
274.957	2.73
275.336	3.27
275.715	2.99
276.093	3.28
276.472	2.76
276.851	3.05
277.229	3.42
277.608	2.79
277.986	2.69
278.365	2.98
278.743	2.37
279.122	2.96
279.5	2.95
279.878	2.83
280.257	2.67
280.635	3.08
281.013	3.43
281.391	2.89
281.769	3.09
282.147	2.94
282.525	2.71
282.903	2.47
283.281	2.79
283.659	3.29
284.037	2.69
284.415	3.11
284.792	3.02
285.17	2.16
285.548	2.75
285.925	2.83
286.303	2.38
286.68	2.08
287.058	2.63
287.435	2.83
287.813	2.49
288.19	3.04
288.567	2.92
288.945	2.45
289.322	2.59
289.699	2.34
290.076	2.4
290.453	2.62
290.83	2.5
291.207	2.63
291.584	2.6
291.961	2.58
292.338	3
292.715	3.16
293.092	2.59
293.469	3.13
293.845	3.08
294.222	3.21
294.599	3.47
294.975	3.58
295.352	2.94
295.728	3.42
296.105	2.98
296.481	3.01
296.858	3.54
297.234	3.25
297.61	3.21
297.986	2.74
298.363	3.08
298.739	3.09
299.115	2.75
299.491	3.07
299.867	3.16
300.243	2.89
300.619	2.74
300.995	3.69
301.371	3.43
301.746	3.23
302.122	3.98
302.498	2.78
302.874	3.02
303.249	3.42
303.625	3.59
304	3.62
304.376	3.52
304.751	3.58
305.127	3.58
305.502	3.1
305.878	3.34
306.253	3.2
306.628	3.47
307.003	3.26
307.378	3.42
307.754	3.38
308.129	2.94
308.504	3.57
308.879	3.66
309.254	3.39
309.629	3.46
310.003	2.69
310.378	2.8
310.753	3.1
311.128	3.09
311.502	3.55
311.877	3.35
312.252	3.2
312.626	3.57
313.001	3.12
313.375	3.5
313.75	3.82
314.124	3.37
314.498	3.06
314.873	3.25
315.247	3.6
315.621	3.58
315.995	3.66
316.369	3.44
316.743	3.25
317.117	4.51
317.491	3.87
317.865	3.89
318.239	3.93
318.613	3.59
318.987	3.7
319.361	3.23
319.734	3.49
320.108	3.62
320.482	3.54
320.855	4.27
321.229	4
321.602	3.72
321.976	3.29
322.349	3.52
322.723	2.89
323.096	3.96
323.469	3.8
323.843	3.33
324.216	2.87
324.589	3.57
324.962	3.64
325.335	3.34
325.708	3.83
326.081	3.86
326.454	3.66
326.827	3.52
327.2	3.12
327.573	3.9
327.945	3.31
328.318	3.82
328.691	3.73
329.063	3.42
329.436	3.47
329.809	4.05
330.181	3.8
330.553	3.51
330.926	3.86
331.298	3.74
331.671	3.79
332.043	2.95
332.415	3.53
332.787	3.32
333.159	3.48
333.532	4.21
333.904	3.8
334.276	3.72
334.648	3.15
335.02	3.97
335.391	3.81
335.763	3.6
336.135	3.47
336.507	4.08
336.879	3.73
337.25	3.24
337.622	3.23
337.993	3.65
338.365	3.62
338.736	3.34
339.108	3.73
339.479	4.31
339.851	3.39
340.222	4.15
340.593	3.31
340.964	3.69
341.336	3.34
341.707	3.74
342.078	3.84
342.449	3.97
342.82	3.71
343.191	3.19
343.562	3.65
343.933	3.75
344.303	3.41
344.674	3.52
345.045	3.43
345.416	3.66
345.786	3.77
346.157	3.97
346.527	3.46
346.898	3.5
347.268	3.44
347.639	3.33
348.009	3.83
348.38	4.31
348.75	3.84
349.12	3.93
349.49	4.13
349.861	3.37
350.231	3.67
350.601	3.5
350.971	3.72
351.341	3.84
351.711	3.09
352.081	3.77
352.45	3.85
352.82	3.82
353.19	3.84
353.56	3.58
353.929	3.32
354.299	3.78
354.669	3.31
355.038	3.63
355.408	4.01
355.777	3.38
356.147	3.72
356.516	3.99
356.885	3.45
357.254	3.82
357.624	3.65
357.993	3.22
358.362	3.85
358.731	3.58
359.1	3.4
359.469	3.36
359.838	3.77
360.207	3.67
360.576	3.76
360.945	3.64
361.314	3.33
361.682	3.85
362.051	3.66
362.42	3.5
362.788	3.6
363.157	3.53
363.525	3.42
363.894	3.48
364.262	3.71
364.631	3.84
364.999	3.87
365.367	3.86
365.735	3.53
366.104	3.33
366.472	3.82
366.84	3.91
367.208	3.56
367.576	4
367.944	3.89
368.312	3.57
368.68	3.35
369.048	3.27
369.416	3.8
369.783	3.83
370.151	3.55
370.519	3.59
370.886	3.74
371.254	3.36
371.621	3.56
371.989	4.09
372.356	3.7
372.724	3.92
373.091	3.6
373.458	3.59
373.826	3.7
374.193	4.02
374.56	3.95
374.927	3.9
375.294	3.99
375.661	3.79
376.028	3.5
376.395	3.69
376.762	3.41
377.129	4.05
377.496	3.88
377.863	3.71
378.229	4.04
378.596	3.87
378.963	3.85
379.329	3.61
379.696	4.03
380.062	3.69
380.429	3.62
380.795	3.76
381.161	3.63
381.528	4.04
381.894	3.72
382.26	3.74
382.626	3.71
382.993	3.78
383.359	3.71
383.725	3.48
384.091	3.68
384.457	3.87
384.823	3.95
385.188	3.63
385.554	3.8
385.92	3.95
386.286	3.93
386.651	3.76
387.017	3.91
387.383	3.54
387.748	3.38
388.114	3.74
388.479	3.78
388.845	3.67
389.21	3.66
389.575	3.9
389.94	3.55
390.306	3.96
390.671	3.83
391.036	3.86
391.401	3.63
391.766	4.12
392.131	3.66
392.496	3.86
392.861	3.73
393.226	3.79
393.591	3.73
393.956	4
394.32	3.85
394.685	3.62
395.05	3.99
395.414	3.87
395.779	3.7
396.143	3.9
396.508	3.77
396.872	3.93
397.236	3.76
397.601	4.01
397.965	3.98
398.329	3.74
398.694	3.91
399.058	3.95
399.422	3.85
399.786	3.83
400.15	3.94
400.514	3.81
400.878	3.87
401.242	3.76
401.605	3.79
401.969	3.87
402.333	3.76
402.697	4.02
403.06	3.97
403.424	4.06
403.787	3.9
404.151	3.98
404.514	3.68
404.878	3.88
405.241	4.05
405.604	4.01
405.968	4
406.331	3.71
406.694	3.76
407.057	3.79
407.42	4.16
407.783	3.96
408.146	3.8
408.509	3.85
408.872	3.92
409.235	3.98
409.598	3.86
409.961	3.78
410.323	3.97
410.686	4.07
411.049	3.94
411.411	3.87
411.774	3.94
412.136	4.02
412.499	3.91
412.861	3.74
413.223	3.8
413.586	4
413.948	4.01
414.31	4.09
414.672	4.07
415.035	4.06
415.397	3.98
415.759	3.94
416.121	3.9
416.483	3.88
416.845	3.83
417.206	3.94
417.568	3.96
417.93	3.99
418.292	3.87
418.653	3.94
419.015	4.12
419.377	3.94
419.738	3.85
420.1	3.98
420.461	4.03
420.822	3.9
421.184	3.94
421.545	3.8
421.906	3.77
422.267	3.8
422.629	3.85
422.99	3.83
423.351	3.91
423.712	3.78
424.073	3.98
424.434	3.9
424.795	3.84
425.155	3.93
425.516	3.81
425.877	3.93
426.238	3.85
426.598	3.82
426.959	3.88
427.32	3.96
427.68	4.1
428.041	3.92
428.401	3.98
428.761	4.03
429.122	4.1
429.482	4.04
429.842	4.03
430.202	3.91
430.563	3.99
430.923	3.82
431.283	4.07
431.643	4.26
432.003	3.86
432.363	4.13
432.722	4.07
433.082	4.16
433.442	3.9
433.802	4.17
434.161	3.95
434.521	4.07
434.881	3.89
435.24	4.01
435.6	4.05
435.959	3.96
436.319	3.98
436.678	3.93
437.037	4.05
437.396	4.07
437.756	3.9
438.115	3.99
438.474	4.07
438.833	4.13
439.192	4.1
439.551	4.2
439.91	4.02
440.269	3.91
440.628	4.04
440.987	4.1
441.345	4
441.704	3.99
442.063	4.12
442.421	4.11
442.78	4.1
443.138	3.96
443.497	4.11
443.855	4.16
444.214	4.07
444.572	4.15
444.93	4.01
445.288	4.06
445.647	4.04
446.005	4.11
446.363	4.15
446.721	3.92
447.079	4
447.437	4.14
447.795	3.97
448.153	4.01
448.51	3.99
448.868	3.98
449.226	4.13
449.584	4.04
449.941	4.02
450.299	4.06
450.656	4.19
451.014	4.3
451.371	4.11
451.729	4.17
452.086	4.19
452.443	4.15
452.801	4.24
453.158	4.11
453.515	4.01
453.872	4.06
454.229	4.15
454.586	4.25
454.943	4.27
455.3	4.2
455.657	4.34
456.014	3.97
456.371	4.08
456.727	4.22
457.084	4.25
457.441	4.17
457.797	4.1
458.154	4.23
458.51	4.27
458.867	4.21
459.223	4.17
459.58	4.27
459.936	4.3
460.292	4.14
460.648	4.09
461.005	4.12
461.361	4.15
461.717	4.07
462.073	4.16
462.429	4.11
462.785	4.27
463.141	4.24
463.496	4.22
463.852	4.13
464.208	4.4
464.564	4.21
464.919	4.21
465.275	4.36
465.631	4.36
465.986	4.13
466.342	4.37
466.697	4.4
467.052	4.3
467.408	4.28
467.763	4.3
468.118	4.29
468.473	4.19
468.829	4.22
469.184	4.23
469.539	4.31
469.894	4.45
470.249	4.29
470.603	4.57
470.958	4.21
471.313	4.29
471.668	4.27
472.023	4.35
472.377	4.14
472.732	4.38
473.086	4.4
473.441	4.44
473.795	4.39
474.15	4.29
474.504	4.34
474.859	4.47
475.213	4.47
475.567	4.41
475.921	4.3
476.275	4.22
476.63	4.39
476.984	4.39
477.338	4.34
477.692	4.5
478.045	4.36
478.399	4.37
478.753	4.5
479.107	4.36
479.461	4.35
479.814	4.31
480.168	4.34
480.521	4.29
480.875	4.52
481.228	4.3
481.582	4.43
481.935	4.4
482.289	4.44
482.642	4.41
482.995	4.43
483.348	4.3
483.701	4.45
484.055	4.36
484.408	4.25
484.761	4.21
485.114	4.13
485.466	4.07
485.819	4.1
486.172	4.16
486.525	4.23
486.878	4.28
487.23	4.33
487.583	4.26
487.936	4.41
488.288	4.33
488.641	4.24
488.993	4.24
489.345	4.23
489.698	4.23
490.05	4.31
490.402	4.33
490.754	4.37
491.107	4.42
491.459	4.45
491.811	4.43
492.163	4.45
492.515	4.35
492.866	4.34
493.218	4.26
493.57	4.31
493.922	4.38
494.274	4.46
494.625	4.53
494.977	4.56
495.328	4.56
495.68	4.52
496.031	4.62
496.383	4.64
496.734	4.63
497.086	4.63
497.437	4.68
497.788	4.58
498.139	4.43
498.49	4.52
498.842	4.56
499.193	4.56
499.544	4.59
499.894	4.59
500.245	4.63
500.596	4.59
500.947	4.62
501.298	4.63
501.648	4.63
501.999	4.6
502.35	4.72
502.7	4.68
503.051	4.62
503.401	4.8
503.752	4.71
504.102	4.73
504.452	4.67
504.803	4.72
505.153	4.76
505.503	4.73
505.853	4.77
506.203	4.64
506.553	4.82
506.903	4.9
507.253	4.83
507.603	4.85
507.953	4.95
508.303	4.85
508.652	4.76
509.002	4.82
509.352	4.9
509.701	4.8
510.051	4.89
510.4	4.69
510.75	4.71
511.099	4.67
511.449	4.78
511.798	4.72
512.147	4.79
512.496	4.83
512.846	4.87
513.195	4.91
513.544	4.85
513.893	4.91
514.242	4.81
514.591	4.91
514.939	4.93
515.288	4.98
515.637	4.87
515.986	4.99
516.334	4.92
516.683	4.83
517.032	4.99
517.38	4.85
517.729	5.07
518.077	4.94
518.426	5.06
518.774	4.98
519.122	5.01
519.47	4.98
519.819	4.95
520.167	4.99
520.515	4.9
520.863	4.94
521.211	5.03
521.559	5.09
521.907	5.07
522.255	4.96
522.602	5.07
522.95	5.21
523.298	5.09
523.645	5.01
523.993	5.15
524.341	5.16
524.688	5.2
525.036	5.04
525.383	4.93
525.73	5.19
526.078	5.27
526.425	5.07
526.772	5.07
527.119	4.95
527.466	5.02
527.814	5.04
528.161	4.97
528.508	5.03
528.854	5.02
529.201	5.04
529.548	5
529.895	4.89
530.242	4.86
530.588	4.89
530.935	5.01
531.282	5.05
531.628	5.09
531.975	5.16
532.321	5.22
532.667	5.2
533.014	5.25
533.36	5.14
533.706	5.2
534.052	5.26
534.399	5.22
534.745	5.14
535.091	5.12
535.437	5.21
535.783	5.25
536.129	5.3
536.474	5.34
536.82	5.33
537.166	5.36
537.512	5.37
537.857	5.44
538.203	5.35
538.549	5.29
538.894	5.39
539.239	5.47
539.585	5.53
539.93	5.48
540.276	5.61
540.621	5.54
540.966	5.59
541.311	5.48
541.656	5.55
542.001	5.51
542.346	5.51
542.691	5.27
543.036	5.24
543.381	5.38
543.726	5.39
544.071	5.55
544.415	5.52
544.76	5.55
545.105	5.53
545.449	5.61
545.794	5.65
546.138	5.63
546.483	5.86
546.827	5.7
547.171	5.74
547.516	5.64
547.86	5.71
548.204	5.73
548.548	5.73
548.892	5.82
549.236	5.86
549.58	5.86
549.924	5.79
550.268	6.14
550.612	6.09
550.956	5.99
551.3	6.03
551.643	6.12
551.987	5.98
552.33	6.23
552.674	6.02
553.017	6
553.361	5.84
553.704	6.23
554.048	5.99
554.391	6.24
554.734	6.07
555.077	6.16
555.42	6.25
555.764	6.16
556.107	6.24
556.45	6.27
556.793	6.14
557.135	6.36
557.478	6.31
557.821	6.32
558.164	6.45
558.507	6.72
558.849	6.48
559.192	6.23
559.534	6.39
559.877	6.53
560.219	6.35
560.562	6.65
560.904	6.32
561.246	6.55
561.589	6.54
561.931	6.5
562.273	6.53
562.615	6.45
562.957	6.45
563.299	6.57
563.641	6.51
563.983	6.65
564.325	6.59
564.667	6.77
565.008	6.47
565.35	6.57
565.692	6.92
566.033	6.61
566.375	6.58
566.716	6.67
567.058	6.95
567.399	6.59
567.741	6.79
568.082	6.61
568.423	6.71
568.764	6.83
569.105	6.84
569.447	6.84
569.788	6.87
570.129	6.85
570.47	6.91
570.811	6.96
571.151	7.03
571.492	7.1
571.833	6.82
572.174	6.92
572.514	7.12
572.855	6.95
573.195	6.99
573.536	7.1
573.876	7.04
574.217	7.02
574.557	7.22
574.898	7.14
575.238	7.3
575.578	7.31
575.918	7.34
576.258	7.28
576.598	7.1
576.938	7.29
577.278	7.45
577.618	7.57
577.958	7.27
578.298	7.48
578.638	7.49
578.977	7.48
579.317	7.44
579.657	7.52
579.996	7.35
580.336	7.71
580.675	7.66
581.014	7.5
581.354	7.53
581.693	7.72
582.032	7.71
582.372	7.86
582.711	7.67
583.05	7.88
583.389	7.66
583.728	7.68
584.067	7.72
584.406	7.81
584.745	7.85
585.083	7.81
585.422	8.04
585.761	8.02
586.1	7.93
586.438	8.15
586.777	8.11
587.115	7.93
587.454	8.1
587.792	7.87
588.13	8.02
588.469	8.05
588.807	8.06
589.145	8.09
589.483	8.46
589.821	8.32
590.159	8.54
590.497	7.98
590.835	8.09
591.173	7.98
591.511	8.03
591.849	8.36
592.187	8.26
592.524	8.27
592.862	8.48
593.2	8.59
593.537	8.37
593.875	8.53
594.212	8.57
594.55	8.26
594.887	8.55
595.224	8.73
595.561	8.53
595.899	8.6
596.236	8.76
596.573	8.66
596.91	8.74
597.247	8.35
597.584	8.65
597.921	8.54
598.258	8.43
598.594	8.41
598.931	8.56
599.268	8.53
599.604	8.74
599.941	8.72
600.277	8.77
600.614	9.02
600.95	9.14
601.287	8.86
601.623	9.17
601.959	9.15
602.296	9.13
602.632	9.09
602.968	9.04
603.304	9.05
603.64	9.1
603.976	9.06
604.312	8.99
604.648	9.28
604.984	9.36
605.319	9.12
605.655	9.07
605.991	9.09
606.326	8.97
606.662	9.32
606.998	9.12
607.333	9.16
607.668	9.26
608.004	9.39
608.339	9.44
608.674	9.71
609.01	9.59
609.345	9.43
609.68	9.76
610.015	9.79
610.35	9.61
610.685	9.35
611.02	9.37
611.355	9.42
611.689	9.54
612.024	9.68
612.359	9.9
612.694	9.94
613.028	9.88
613.363	9.71
613.697	9.81
614.032	10
614.366	10.17
614.7	9.76
615.035	10.22
615.369	10.14
615.703	10.22
616.037	9.99
616.371	10.24
616.705	9.81
617.039	10.23
617.373	10.69
617.707	9.75
618.041	10.6
618.375	10.36
618.709	10.52
619.042	10.22
619.376	10.64
619.71	10.8
620.043	10.87
620.377	10.59
620.71	10.3
621.043	10.44
621.377	10.52
621.71	10.56
622.043	10.46
622.376	10.52
622.709	10.57
623.043	10.77
623.376	10.46
623.709	10.81
624.041	10.89
624.374	10.92
624.707	10.74
625.04	11.16
625.373	11.02
625.705	10.56
626.038	10.4
626.37	10.72
626.703	11.36
627.035	11.01
627.368	10.88
627.7	10.84
628.032	10.84
628.365	10.86
628.697	11.16
629.029	10.7
629.361	10.8
629.693	11.34
630.025	11.38
630.357	11.33
630.689	11.43
631.021	11.2
631.353	11.29
631.684	11.35
632.016	11.5
632.348	11.3
632.679	11.2
633.011	11.58
633.342	11.57
633.674	11.63
634.005	11.41
634.336	11.75
634.668	11.58
634.999	11.65
635.33	11.8
635.661	11.63
635.992	11.63
636.323	11.67
636.654	11.48
636.985	11.59
637.316	11.84
637.647	11.49
637.977	12.05
638.308	11.69
638.639	11.33
638.969	11.99
639.3	12.01
639.63	11.44
639.961	12.24
640.291	11.72
640.622	12.37
640.952	12.52
641.282	12.27
641.612	12.26
641.943	12.14
642.273	12.73
642.603	12.37
642.933	12.27
643.263	12.42
643.592	12.28
643.922	11.83
644.252	12.73
644.582	12.66
644.911	12.17
645.241	12.7
645.571	12.52
645.9	12.52
646.23	12.41
646.559	12.38
646.888	12.44
647.218	11.78
647.547	12.63
647.876	12.93
648.205	12.66
648.534	12.61
648.863	12.82
649.192	12.8
649.521	12.9
649.85	12.77
650.179	13.12
650.508	12.95
650.837	13.4
651.165	12.68
651.494	13.23
651.822	12.9
652.151	13.61
652.479	13.56
652.808	13.14
653.136	13.28
653.465	13.07
653.793	13.3
654.121	13.34
654.449	13.16
654.777	12.88
655.105	13.34
655.433	13.33
655.761	13.5
656.089	13.59
656.417	13.07
656.745	13.37
657.073	13.33
657.4	13.28
657.728	13.3
658.056	13.09
658.383	13.71
658.711	13.96
659.038	13.09
659.365	13.91
659.693	13.52
660.02	13.42
660.347	13.62
660.674	13.57
661.001	13.62
661.329	13.55
661.656	13.29
661.982	13.76
662.309	13.64
662.636	14.47
662.963	14.08
663.29	13.72
663.616	13.88
663.943	14.12
664.27	13.82
664.596	13.95
664.923	13.74
665.249	13.85
665.576	14.22
665.902	13.82
666.228	14.28
666.554	14.46
666.881	14.28
667.207	14.05
667.533	13.92
667.859	14.37
668.185	14.8
668.511	13.75
668.837	14.9
669.162	14.86
669.488	14.52
669.814	14.51
670.139	14.42
670.465	14.62
670.791	14.64
671.116	14.1
671.442	14.66
671.767	15.12
672.092	13.96
672.418	14.21
672.743	14.96
673.068	14.72
673.393	14.6
673.718	14.23
674.043	14.65
674.368	15.39
674.693	14.95
675.018	14.94
675.343	14.7
675.667	15.36
675.992	15.21
676.317	15.42
676.641	14.89
676.966	13.94
677.29	14
677.615	14.58
677.939	15.73
678.264	14.69
678.588	15.15
678.912	14.75
679.236	15.69
679.56	15.19
679.885	15.53
680.209	15.03
680.532	14.91
680.856	15.63
681.18	15.92
681.504	15.66
681.828	15.36
682.152	15.29
682.475	15.38
682.799	15.29
683.122	15.66
683.446	15.44
683.769	15.86
684.093	15.38
684.416	16.12
684.739	15.74
685.062	15.76
685.386	16.5
685.709	15.43
686.032	15.85
686.355	15.09
686.678	15.09
687.001	15.74
687.324	16.45
687.646	15.72
687.969	15.83
