Data from 1897-2_crown_Reflection__1__12.txt Node

Date: Fri Sep 30 17:48:45 CDT 2022
User: ToomeyLab
Spectrometer: FLMS14357
Trigger mode: 0
Integration Time (sec): 1.000000E-2
Scans to average: 100
Electric dark correction enabled: true
Nonlinearity correction enabled: false
Boxcar width: 0
XAxis mode: Wavelengths
Number of Pixels in Spectrum: 2048
>>>>>Begin Spectral Data<<<<<
189.047	-17.77
189.435	-17.77
189.823	-17.77
190.211	344.47
190.599	-6.2
190.987	115.97
191.375	1235.25
191.763	117.38
192.151	469.97
192.538	-130.77
192.926	-45.28
193.314	12.95
193.702	35.82
194.089	-35.01
194.477	-1.51
194.864	267.55
195.252	-1413.88
195.639	64.9
196.027	22.6
196.414	75.01
196.801	57.27
197.189	162.54
197.576	-75.08
197.963	111.48
198.351	3.76
198.738	-27.43
199.125	65.76
199.512	12.54
199.899	22.46
200.286	-8.62
200.673	72.3
201.06	22.17
201.447	-1.3
201.833	21.48
202.22	7.43
202.607	23.43
202.994	51.82
203.38	3.34
203.767	18.53
204.154	34.77
204.54	32.2
204.927	23.39
205.313	-42.98
205.699	11.28
206.086	-3.18
206.472	65.87
206.858	11.24
207.245	20.31
207.631	57.74
208.017	-38.71
208.403	19.48
208.789	67.67
209.175	11.91
209.561	54.97
209.947	7.28
210.333	-43.6
210.719	-12.69
211.105	14.97
211.491	0.31
211.876	14.49
212.262	39.31
212.648	22.59
213.034	-4.47
213.419	28.88
213.805	10.6
214.19	0.06
214.576	18.5
214.961	16.63
215.346	4.32
215.732	-15.22
216.117	10.58
216.502	36.01
216.888	37.92
217.273	-26.74
217.658	25.92
218.043	29.59
218.428	25.1
218.813	19.95
219.198	15.56
219.583	25.86
219.968	40.7
220.353	18.49
220.738	39.47
221.122	20.75
221.507	18.71
221.892	15.06
222.276	11.15
222.661	11.72
223.046	-4.08
223.43	3.79
223.815	11.18
224.199	15.09
224.583	-0.48
224.968	4.02
225.352	17.97
225.736	16.53
226.121	15.81
226.505	3.12
226.889	8.73
227.273	-3.87
227.657	12.25
228.041	8.41
228.425	12.44
228.809	8.77
229.193	8.96
229.577	5.17
229.961	7.7
230.344	7.06
230.728	6.99
231.112	6.82
231.495	7.21
231.879	8.65
232.263	7.04
232.646	6.99
233.03	8
233.413	8.23
233.797	6.16
234.18	9.83
234.563	8.32
234.946	9.29
235.33	5.17
235.713	8.67
236.096	6.79
236.479	6.98
236.862	5.55
237.245	6
237.628	5.73
238.011	7.81
238.394	7.95
238.777	3.13
239.16	5.4
239.543	8.37
239.925	6.31
240.308	6.81
240.691	8.6
241.073	7.55
241.456	7.06
241.838	7.62
242.221	7.26
242.603	7.27
242.986	7.22
243.368	5.65
243.75	6.83
244.133	7.12
244.515	6.43
244.897	6.75
245.279	8.2
245.661	7.08
246.043	6.13
246.425	6.61
246.807	6.81
247.189	7.15
247.571	6.81
247.953	6.66
248.335	6.49
248.717	6.25
249.098	6.67
249.48	6.38
249.862	6.24
250.243	6.05
250.625	6.86
251.006	6.85
251.388	5.72
251.769	7.54
252.151	5.63
252.532	6.41
252.913	6.19
253.295	6.55
253.676	5.66
254.057	6.31
254.438	5.93
254.819	7.38
255.2	6.24
255.581	6.89
255.962	6.42
256.343	5.73
256.724	6.51
257.105	6.79
257.486	7.01
257.867	6.78
258.247	5.18
258.628	6.88
259.009	7.16
259.389	5.68
259.77	6.76
260.15	5.74
260.531	6.25
260.911	5.95
261.292	5.88
261.672	5.71
262.052	5.78
262.432	5.74
262.813	6.83
263.193	5.58
263.573	5.82
263.953	5.03
264.333	6.4
264.713	5.61
265.093	6.81
265.473	6.17
265.853	5.89
266.233	6.08
266.612	5.27
266.992	6.16
267.372	5.21
267.752	5.91
268.131	6.2
268.511	5.36
268.89	5.81
269.27	5.44
269.649	5.9
270.029	5.71
270.408	4.93
270.787	5.15
271.167	5.67
271.546	5.88
271.925	5.63
272.304	5.51
272.683	5.6
273.062	5.83
273.441	5.52
273.82	5.45
274.199	6.22
274.578	5.37
274.957	5.76
275.336	5.65
275.715	5.64
276.093	5.72
276.472	6.16
276.851	5.37
277.229	5.94
277.608	5.42
277.986	5.29
278.365	5.91
278.743	5.53
279.122	5.51
279.5	5.5
279.878	5.89
280.257	5.71
280.635	6.33
281.013	6.03
281.391	5.26
281.769	5.68
282.147	5.67
282.525	5.7
282.903	5.55
283.281	5.21
283.659	5.67
284.037	5.28
284.415	5.43
284.792	5.66
285.17	5.31
285.548	5.56
285.925	5.5
286.303	5.01
286.68	5.25
287.058	5.31
287.435	5.58
287.813	5.43
288.19	5.23
288.567	5.62
288.945	4.87
289.322	5.12
289.699	5.21
290.076	5.12
290.453	5.51
290.83	5.72
291.207	4.89
291.584	5.11
291.961	5.18
292.338	5.75
292.715	5.69
293.092	5.09
293.469	4.96
293.845	6.19
294.222	5.3
294.599	5.29
294.975	5.56
295.352	5.2
295.728	5.52
296.105	5.64
296.481	5.64
296.858	5.58
297.234	5.54
297.61	5.48
297.986	5.07
298.363	5.18
298.739	5.58
299.115	5.27
299.491	5.47
299.867	5.59
300.243	5
300.619	5.02
300.995	5.58
301.371	5.56
301.746	5.16
302.122	5.26
302.498	5.78
302.874	5.36
303.249	5.76
303.625	5.29
304	5.95
304.376	5.51
304.751	6.02
305.127	5.35
305.502	5.37
305.878	5.45
306.253	5.37
306.628	5.59
307.003	5.29
307.378	5.23
307.754	5.49
308.129	5.45
308.504	5.42
308.879	5.42
309.254	5.25
309.629	5.3
310.003	5.39
310.378	5.2
310.753	5.17
311.128	5.23
311.502	5.4
311.877	5.49
312.252	5.73
312.626	5.69
313.001	5.36
313.375	5.33
313.75	5.44
314.124	5.51
314.498	5.41
314.873	5.38
315.247	4.97
315.621	5.46
315.995	5.81
316.369	5.45
316.743	5.65
317.117	5.97
317.491	6.35
317.865	5.9
318.239	5.77
318.613	5.82
318.987	5.64
319.361	4.82
319.734	5.12
320.108	5.65
320.482	5.34
320.855	5.74
321.229	6.2
321.602	4.93
321.976	5.89
322.349	5.39
322.723	5.78
323.096	5.61
323.469	5.79
323.843	5.06
324.216	5.38
324.589	5.7
324.962	5.65
325.335	5.4
325.708	5.32
326.081	5.86
326.454	5.29
326.827	5.44
327.2	5.31
327.573	5.48
327.945	5.26
328.318	5.58
328.691	5.46
329.063	5.14
329.436	5.66
329.809	5.95
330.181	5.16
330.553	5.22
330.926	5.07
331.298	5.06
331.671	5.48
332.043	4.96
332.415	5.3
332.787	5.52
333.159	5.41
333.532	5.9
333.904	6.01
334.276	5.55
334.648	5.09
335.02	5.65
335.391	5.97
335.763	5.33
336.135	5.18
336.507	5.87
336.879	5.25
337.25	5.07
337.622	5.41
337.993	4.94
338.365	5.24
338.736	5.45
339.108	5.8
339.479	5.32
339.851	5.52
340.222	5.92
340.593	5.05
340.964	5.57
341.336	5.21
341.707	5.59
342.078	5.39
342.449	5.27
342.82	5.61
343.191	5.4
343.562	5.44
343.933	5.3
344.303	5.39
344.674	5.52
345.045	5.24
345.416	5.82
345.786	6.11
346.157	5.83
346.527	5.36
346.898	5.21
347.268	5.06
347.639	4.96
348.009	5.47
348.38	5.88
348.75	6.23
349.12	5.57
349.49	5.69
349.861	5.12
350.231	5.35
350.601	6.11
350.971	5.5
351.341	5.56
351.711	5.55
352.081	5.03
352.45	5.68
352.82	5.83
353.19	5.5
353.56	5.32
353.929	5.13
354.299	5.25
354.669	5.2
355.038	5.79
355.408	5.7
355.777	5.36
356.147	5.4
356.516	5.65
356.885	5.18
357.254	5.56
357.624	5.71
357.993	5.13
358.362	5.29
358.731	5.38
359.1	5.43
359.469	5.2
359.838	5.72
360.207	5.41
360.576	5.01
360.945	5.52
361.314	5.97
361.682	5.35
362.051	5.29
362.42	5.64
362.788	5.42
363.157	5.24
363.525	5.16
363.894	5.44
364.262	5.57
364.631	5.92
364.999	5.64
365.367	5.84
365.735	5.21
366.104	5.15
366.472	5.71
366.84	5.61
367.208	5.51
367.576	5.83
367.944	5.42
368.312	5.15
368.68	5.46
369.048	5.48
369.416	5.47
369.783	5.3
370.151	5.44
370.519	5.13
370.886	5.83
371.254	5.26
371.621	5.63
371.989	5.54
372.356	5.49
372.724	5.65
373.091	5.02
373.458	5.32
373.826	5.43
374.193	5.52
374.56	5.66
374.927	5.77
375.294	5.65
375.661	5.43
376.028	5.31
376.395	5.58
376.762	5.56
377.129	5.56
377.496	5.94
377.863	5.27
378.229	5.84
378.596	5.64
378.963	5.83
379.329	5.44
379.696	5.71
380.062	5.65
380.429	5.73
380.795	5.15
381.161	5.33
381.528	5.22
381.894	5.43
382.26	5.55
382.626	5.91
382.993	5.46
383.359	5.5
383.725	5.08
384.091	5.42
384.457	5.73
384.823	5.57
385.188	5.83
385.554	5.57
385.92	5.85
386.286	5.69
386.651	5.63
387.017	5.66
387.383	5.59
387.748	5.46
388.114	5.76
388.479	5.7
388.845	5.38
389.21	5.55
389.575	5.75
389.94	5.56
390.306	5.67
390.671	5.71
391.036	5.84
391.401	5.45
391.766	5.73
392.131	5.36
392.496	5.87
392.861	5.57
393.226	5.62
393.591	5.59
393.956	5.72
394.32	5.6
394.685	5.56
395.05	5.56
395.414	5.71
395.779	5.53
396.143	5.86
396.508	5.47
396.872	5.67
397.236	5.49
397.601	5.73
397.965	5.79
398.329	5.59
398.694	5.76
399.058	5.86
399.422	5.67
399.786	5.54
400.15	5.82
400.514	5.7
400.878	5.57
401.242	5.58
401.605	5.6
401.969	5.98
402.333	5.73
402.697	5.92
403.06	5.66
403.424	5.62
403.787	5.84
404.151	5.84
404.514	5.7
404.878	5.77
405.241	5.74
405.604	5.73
405.968	5.72
406.331	5.59
406.694	5.68
407.057	5.69
407.42	5.79
407.783	5.72
408.146	5.57
408.509	5.71
408.872	5.65
409.235	5.69
409.598	5.89
409.961	5.87
410.323	5.97
410.686	5.79
411.049	5.73
411.411	5.71
411.774	5.85
412.136	5.82
412.499	5.69
412.861	5.74
413.223	5.53
413.586	5.53
413.948	5.89
414.31	5.98
414.672	5.71
415.035	5.89
415.397	5.84
415.759	5.87
416.121	5.96
416.483	5.75
416.845	5.96
417.206	5.98
417.568	5.91
417.93	5.65
418.292	5.8
418.653	5.59
419.015	5.95
419.377	5.71
419.738	5.61
420.1	5.79
420.461	5.74
420.822	5.7
421.184	5.73
421.545	5.48
421.906	5.55
422.267	5.63
422.629	5.68
422.99	5.64
423.351	5.63
423.712	5.61
424.073	5.75
424.434	5.78
424.795	5.66
425.155	5.61
425.516	5.7
425.877	5.76
426.238	5.68
426.598	5.6
426.959	5.67
427.32	5.9
427.68	5.86
428.041	5.76
428.401	5.83
428.761	5.92
429.122	5.94
429.482	5.83
429.842	6.03
430.202	5.7
430.563	5.95
430.923	5.84
431.283	5.82
431.643	5.97
432.003	5.96
432.363	5.89
432.722	6.11
433.082	5.88
433.442	5.86
433.802	5.84
434.161	5.88
434.521	5.78
434.881	5.79
435.24	5.69
435.6	5.87
435.959	5.85
436.319	5.97
436.678	5.82
437.037	6.03
437.396	5.97
437.756	5.94
438.115	5.77
438.474	5.99
438.833	6.03
439.192	5.9
439.551	5.9
439.91	5.82
440.269	5.71
440.628	5.83
440.987	5.91
441.345	5.82
441.704	5.82
442.063	5.95
442.421	5.8
442.78	5.81
443.138	5.76
443.497	5.92
443.855	5.94
444.214	5.73
444.572	5.91
444.93	5.99
445.288	5.86
445.647	5.81
446.005	5.95
446.363	6
446.721	5.86
447.079	5.84
447.437	5.74
447.795	5.73
448.153	5.67
448.51	5.7
448.868	5.65
449.226	5.79
449.584	5.79
449.941	5.8
450.299	5.91
450.656	5.93
451.014	6.03
451.371	5.94
451.729	5.88
452.086	6.02
452.443	6.14
452.801	6.13
453.158	5.88
453.515	5.93
453.872	6.05
454.229	5.91
454.586	5.97
454.943	6.15
455.3	6.05
455.657	6.06
456.014	5.89
456.371	6.05
456.727	5.97
457.084	5.95
457.441	5.82
457.797	5.86
458.154	5.82
458.51	5.79
458.867	6.21
459.223	5.89
459.58	5.96
459.936	6.07
460.292	5.88
460.648	5.88
461.005	5.9
461.361	5.9
461.717	5.89
462.073	5.77
462.429	5.89
462.785	5.88
463.141	6
463.496	5.93
463.852	6.07
464.208	6.18
464.564	5.99
464.919	6.23
465.275	6.11
465.631	6.05
465.986	6.06
466.342	6
466.697	6.18
467.052	6.12
467.408	5.98
467.763	5.92
468.118	6
468.473	6.03
468.829	5.98
469.184	6.13
469.539	6.14
469.894	6.31
470.249	6.15
470.603	6.1
470.958	5.99
471.313	6.05
471.668	6.2
472.023	6.12
472.377	6.08
472.732	5.95
473.086	6.17
473.441	6.2
473.795	6.03
474.15	6.06
474.504	6.18
474.859	6.16
475.213	6.07
475.567	6.11
475.921	6.1
476.275	5.94
476.63	6.19
476.984	6.05
477.338	6.13
477.692	6.2
478.045	6.02
478.399	6.11
478.753	6.07
479.107	5.98
479.461	6.14
479.814	5.99
480.168	6.17
480.521	6.04
480.875	6.33
481.228	6.08
481.582	6.08
481.935	6.11
482.289	6.26
482.642	6.02
482.995	6.03
483.348	6.07
483.701	6.08
484.055	6.03
484.408	6
484.761	5.85
485.114	5.74
485.466	5.65
485.819	5.63
486.172	5.75
486.525	5.85
486.878	5.96
487.23	5.94
487.583	5.91
487.936	6.01
488.288	5.95
488.641	5.89
488.993	5.83
489.345	5.82
489.698	5.83
490.05	5.9
490.402	5.92
490.754	6
491.107	6.04
491.459	6.14
491.811	6.08
492.163	6.15
492.515	6.04
492.866	5.96
493.218	5.83
493.57	5.83
493.922	5.93
494.274	6.08
494.625	6.1
494.977	6.2
495.328	6.16
495.68	6.11
496.031	6.29
496.383	6.21
496.734	6.17
497.086	6.36
497.437	6.21
497.788	6.17
498.139	6.05
498.49	6.12
498.842	6.07
499.193	6.17
499.544	6.15
499.894	6.2
500.245	6.21
500.596	6.25
500.947	6.17
501.298	6.31
501.648	6.21
501.999	6.21
502.35	6.27
502.7	6.15
503.051	6.22
503.401	6.28
503.752	6.25
504.102	6.36
504.452	6.35
504.803	6.37
505.153	6.25
505.503	6.17
505.853	6.23
506.203	6.2
506.553	6.3
506.903	6.43
507.253	6.35
507.603	6.28
507.953	6.45
508.303	6.45
508.652	6.36
509.002	6.36
509.352	6.32
509.701	6.19
510.051	6.34
510.4	6.15
510.75	6.28
511.099	6.1
511.449	6.2
511.798	6.28
512.147	6.29
512.496	6.35
512.846	6.23
513.195	6.34
513.544	6.26
513.893	6.32
514.242	6.33
514.591	6.4
514.939	6.3
515.288	6.31
515.637	6.35
515.986	6.4
516.334	6.35
516.683	6.25
517.032	6.37
517.38	6.32
517.729	6.38
518.077	6.3
518.426	6.41
518.774	6.33
519.122	6.23
519.47	6.32
519.819	6.3
520.167	6.26
520.515	6.17
520.863	6.25
521.211	6.36
521.559	6.45
521.907	6.46
522.255	6.31
522.602	6.48
522.95	6.38
523.298	6.53
523.645	6.39
523.993	6.51
524.341	6.54
524.688	6.49
525.036	6.39
525.383	6.32
525.73	6.42
526.078	6.52
526.425	6.36
526.772	6.36
527.119	6.2
527.466	6.23
527.814	6.3
528.161	6.26
528.508	6.3
528.854	6.31
529.201	6.27
529.548	6.2
529.895	6.13
530.242	6.01
530.588	6.05
530.935	6.14
531.282	6.19
531.628	6.24
531.975	6.32
532.321	6.3
532.667	6.39
533.014	6.39
533.36	6.31
533.706	6.34
534.052	6.35
534.399	6.39
534.745	6.27
535.091	6.18
535.437	6.32
535.783	6.31
536.129	6.4
536.474	6.42
536.82	6.41
537.166	6.42
537.512	6.37
537.857	6.41
538.203	6.32
538.549	6.36
538.894	6.51
539.239	6.39
539.585	6.51
539.93	6.45
540.276	6.47
540.621	6.64
540.966	6.65
541.311	6.57
541.656	6.51
542.001	6.52
542.346	6.42
542.691	6.25
543.036	6.18
543.381	6.24
543.726	6.29
544.071	6.41
544.415	6.48
544.76	6.36
545.105	6.36
545.449	6.53
545.794	6.45
546.138	6.59
546.483	6.55
546.827	6.48
547.171	6.53
547.516	6.46
547.86	6.48
548.204	6.47
548.548	6.47
548.892	6.59
549.236	6.54
549.58	6.63
549.924	6.54
550.268	6.79
550.612	6.69
550.956	6.77
551.3	6.65
551.643	6.85
551.987	6.67
552.33	6.89
552.674	6.73
553.017	6.66
553.361	6.69
553.704	6.79
554.048	6.61
554.391	6.75
554.734	6.52
555.077	6.69
555.42	6.75
555.764	6.76
556.107	6.76
556.45	6.76
556.793	6.59
557.135	6.9
557.478	6.78
557.821	6.62
558.164	6.9
558.507	6.95
558.849	6.78
559.192	6.7
559.534	6.71
559.877	6.74
560.219	6.78
560.562	7
560.904	6.67
561.246	6.92
561.589	6.72
561.931	6.79
562.273	6.91
562.615	6.66
562.957	6.71
563.299	6.86
563.641	6.61
563.983	6.71
564.325	6.81
564.667	7.05
565.008	6.84
565.35	6.85
565.692	6.94
566.033	6.92
566.375	6.72
566.716	6.91
567.058	6.68
567.399	6.71
567.741	6.88
568.082	6.8
568.423	6.91
568.764	6.93
569.105	6.76
569.447	6.69
569.788	6.87
570.129	6.84
570.47	6.96
570.811	6.71
571.151	6.91
571.492	6.92
571.833	6.93
572.174	6.67
572.514	6.87
572.855	6.82
573.195	6.77
573.536	6.99
573.876	6.88
574.217	6.83
574.557	6.94
574.898	6.92
575.238	7.02
575.578	7.19
575.918	6.83
576.258	7
576.598	6.81
576.938	6.87
577.278	6.99
577.618	7.07
577.958	6.9
578.298	6.94
578.638	7.2
578.977	6.94
579.317	7
579.657	6.93
579.996	6.93
580.336	7.15
580.675	7.02
581.014	6.88
581.354	7.02
581.693	7.12
582.032	6.96
582.372	7.05
582.711	6.74
583.05	6.91
583.389	7.04
583.728	6.99
584.067	7.24
584.406	7.06
584.745	7.06
585.083	6.93
585.422	7.12
585.761	7.06
586.1	7.13
586.438	7.21
586.777	7.27
587.115	7.02
587.454	7.08
587.792	6.99
588.13	7.08
588.469	7.03
588.807	7
589.145	7.09
589.483	7.27
589.821	7.12
590.159	7.33
590.497	7.35
590.835	7.04
591.173	7.16
591.511	7.13
591.849	7.09
592.187	7.08
592.524	7.16
592.862	7.34
593.2	7.32
593.537	7.23
593.875	7.27
594.212	7.26
594.55	7.19
594.887	7.2
595.224	7.07
595.561	7.23
595.899	7.23
596.236	7.23
596.573	7.28
596.91	7.2
597.247	7.03
597.584	7.27
597.921	7.15
598.258	7.03
598.594	7
598.931	7.09
599.268	7.03
599.604	7.27
599.941	7.03
600.277	7.11
600.614	7.22
600.95	7.39
601.287	7.33
601.623	7.37
601.959	7.28
602.296	7.33
602.632	6.97
602.968	7.3
603.304	7.23
603.64	7.49
603.976	7.15
604.312	7.06
604.648	7.23
604.984	7.3
605.319	7.21
605.655	7.36
605.991	7.02
606.326	7.03
606.662	7.23
606.998	7.28
607.333	7.19
607.668	7.33
608.004	7.35
608.339	7.43
608.674	7.5
609.01	7.25
609.345	7.18
609.68	7.48
610.015	7.64
610.35	7.01
610.685	7.1
611.02	7.12
611.355	7
611.689	7.05
612.024	7.44
612.359	7.4
612.694	7.28
613.028	7.57
613.363	7.36
613.697	7.27
614.032	7.42
614.366	7.45
614.7	7.31
615.035	7.65
615.369	7.23
615.703	7.42
616.037	7.69
616.371	7.26
616.705	7.57
617.039	7.59
617.373	7.65
617.707	7.31
618.041	7.81
618.375	7.24
618.709	7.45
619.042	7.42
619.376	7.85
619.71	7.58
620.043	7.96
620.377	7.52
620.71	7.2
621.043	7.7
621.377	7.66
621.71	7.25
622.043	7.47
622.376	7.35
622.709	7.36
623.043	7.65
623.376	7.48
623.709	7.51
624.041	7.46
624.374	7.3
624.707	7.29
625.04	7.56
625.373	7.55
625.705	7.3
626.038	7.41
626.37	7.4
626.703	7.71
627.035	7.74
627.368	7.18
627.7	7.59
628.032	7.43
628.365	7.44
628.697	7.57
629.029	7.28
629.361	7.53
629.693	7.65
630.025	7.48
630.357	7.51
630.689	7.76
631.021	7.43
631.353	7.49
631.684	7.84
632.016	7.64
632.348	7.42
632.679	7.66
633.011	7.46
633.342	7.56
633.674	7.81
634.005	7.81
634.336	7.97
634.668	7.74
634.999	7.68
635.33	7.93
635.661	7.49
635.992	7.6
636.323	7.58
636.654	7.46
636.985	7.58
637.316	8.55
637.647	7.55
637.977	7.88
638.308	7.56
638.639	7.48
638.969	7.76
639.3	7.39
639.63	7.11
639.961	7.99
640.291	7.46
640.622	8
640.952	7.9
641.282	7.85
641.612	8.01
641.943	7.74
642.273	8.13
642.603	8.05
642.933	7.75
643.263	8.06
643.592	7.94
643.922	7.8
644.252	8.1
644.582	8.11
644.911	7.93
645.241	8.14
645.571	7.76
645.9	7.61
646.23	7.83
646.559	7.73
646.888	8.3
647.218	7.61
647.547	7.58
647.876	7.4
648.205	7.81
648.534	7.67
648.863	8.03
649.192	7.71
649.521	7.75
649.85	8.15
650.179	7.8
650.508	7.9
650.837	7.84
651.165	7.46
651.494	7.8
651.822	7.88
652.151	7.8
652.479	8.11
652.808	8.01
653.136	8.2
653.465	7.89
653.793	8.04
654.121	8.07
654.449	8.19
654.777	7.54
655.105	7.92
655.433	8.33
655.761	8.71
656.089	8.17
656.417	7.6
656.745	8.16
657.073	8.46
657.4	8.08
657.728	7.92
658.056	8.19
658.383	8.32
658.711	7.96
659.038	7.86
659.365	7.89
659.693	7.71
660.02	8.39
660.347	8.33
660.674	7.85
661.001	7.94
661.329	8.16
661.656	7.76
661.982	8.13
662.309	8.12
662.636	8.31
662.963	8.32
663.29	8.07
663.616	8.18
663.943	8.28
664.27	7.96
664.596	7.78
664.923	8.27
665.249	8.06
665.576	8.47
665.902	8.07
666.228	8.58
666.554	8.57
666.881	8.25
667.207	7.97
667.533	8.1
667.859	8.47
668.185	8.62
668.511	8.55
668.837	8.48
669.162	8.83
669.488	8.56
669.814	8.27
670.139	7.97
670.465	9.02
670.791	8.56
671.116	8.54
671.442	8.11
671.767	8.58
672.092	8.4
672.418	8.48
672.743	8.32
673.068	8.7
673.393	9.07
673.718	8.2
674.043	8.54
674.368	9.61
674.693	8.04
675.018	7.95
675.343	8.18
675.667	9.09
675.992	8.48
676.317	8.98
676.641	8.8
676.966	8.27
677.29	7.8
677.615	8.55
677.939	8.24
678.264	7.8
678.588	8.6
678.912	8.64
679.236	8.55
679.56	8.26
679.885	9.05
680.209	8.17
680.532	8.33
680.856	8.43
681.18	8.47
681.504	8.17
681.828	8.66
682.152	8.26
682.475	8.58
682.799	8.47
683.122	8.8
683.446	8.43
683.769	8.97
684.093	9.08
684.416	8.72
684.739	8.38
685.062	8.51
685.386	9.08
685.709	8.64
686.032	8.11
686.355	9.22
686.678	8.11
687.001	8.91
687.324	9.05
687.646	8.46
687.969	8.66
688.292	8.8
688.614	7.41
688.937	8.6
689.26	9.1
689.582	8.59
689.904	8.39
690.227	8.8
690.549	7.95
690.871	8.73
691.194	8.17
691.516	8.42
691.838	8.72
692.16	8.58
692.482	8.82
692.804	9
693.126	8.19
