Data from 1897-2_crown_Reflection__0__11.txt Node

Date: Fri Sep 30 17:48:35 CDT 2022
User: ToomeyLab
Spectrometer: FLMS14357
Trigger mode: 0
Integration Time (sec): 1.000000E-2
Scans to average: 100
Electric dark correction enabled: true
Nonlinearity correction enabled: false
Boxcar width: 0
XAxis mode: Wavelengths
Number of Pixels in Spectrum: 2048
>>>>>Begin Spectral Data<<<<<
189.047	80.46
189.435	80.46
189.823	80.46
190.211	316.09
190.599	-9.63
190.987	133.16
191.375	822.19
191.763	-68.62
192.151	168.45
192.538	87.31
192.926	-103.36
193.314	-15.37
193.702	65.92
194.089	50.37
194.477	-1.02
194.864	124.89
195.252	491.39
195.639	91.3
196.027	140.44
196.414	27.66
196.801	34.69
197.189	-8.36
197.576	72.61
197.963	-181.3
198.351	1.11
198.738	-31.63
199.125	39.13
199.512	36.5
199.899	31.5
200.286	-8.22
200.673	40.51
201.06	8.4
201.447	30.74
201.833	25.76
202.22	38
202.607	39.82
202.994	43.23
203.38	9.29
203.767	-0.21
204.154	21.89
204.54	16.89
204.927	33.94
205.313	-21.26
205.699	55.12
206.086	-82.09
206.472	-18.37
206.858	28.02
207.245	28.68
207.631	-12.92
208.017	8.94
208.403	45.03
208.789	28.48
209.175	32.76
209.561	-7.54
209.947	-3.82
210.333	-19.25
210.719	-7.83
211.105	-20.15
211.491	7.86
211.876	24.35
212.262	36.17
212.648	34.47
213.034	-7.82
213.419	19.95
213.805	1.94
214.19	4.18
214.576	7.21
214.961	5.31
215.346	13.26
215.732	4.12
216.117	16.99
216.502	30.15
216.888	28.26
217.273	-12.97
217.658	16.63
218.043	3.18
218.428	1.36
218.813	7.84
219.198	22.16
219.583	18.8
219.968	27.33
220.353	14.86
220.738	31.37
221.122	12.83
221.507	18.45
221.892	18.65
222.276	11.45
222.661	8.92
223.046	13.73
223.43	3.76
223.815	5.11
224.199	7.04
224.583	1.59
224.968	0.8
225.352	-2.69
225.736	14.58
226.121	15.27
226.505	3.95
226.889	8.9
227.273	2.82
227.657	9.26
228.041	7.77
228.425	4.58
228.809	7.53
229.193	10.3
229.577	6.21
229.961	7.95
230.344	8.16
230.728	7.56
231.112	8.17
231.495	6.81
231.879	8.95
232.263	8.75
232.646	7.64
233.03	7.82
233.413	8.58
233.797	7.71
234.18	7.14
234.563	8.12
234.946	7.93
235.33	6.05
235.713	7.93
236.096	8.7
236.479	8.71
236.862	6.26
237.245	8.8
237.628	7.21
238.011	9.46
238.394	6.21
238.777	5.36
239.16	6.15
239.543	7.55
239.925	8.47
240.308	5.95
240.691	7.96
241.073	7.24
241.456	7.44
241.838	8.03
242.221	7.8
242.603	7.35
242.986	7.82
243.368	6.84
243.75	6.98
244.133	7.95
244.515	6.65
244.897	7.41
245.279	8.07
245.661	7.61
246.043	6
246.425	7.02
246.807	7.59
247.189	7.88
247.571	7.28
247.953	7.48
248.335	7.16
248.717	6.96
249.098	7.06
249.48	6.77
249.862	6.61
250.243	6.85
250.625	6.71
251.006	7.08
251.388	6.84
251.769	8.3
252.151	7.07
252.532	7.12
252.913	6.23
253.295	6.81
253.676	6.33
254.057	7.17
254.438	6.1
254.819	7.62
255.2	6
255.581	6.77
255.962	7.1
256.343	7.22
256.724	6.62
257.105	7.09
257.486	6.95
257.867	7.18
258.247	5.79
258.628	6.44
259.009	7.18
259.389	6.21
259.77	7.3
260.15	6.17
260.531	7.07
260.911	6.6
261.292	6.32
261.672	6.09
262.052	6.13
262.432	6
262.813	6.48
263.193	6.09
263.573	6.46
263.953	5.92
264.333	6.84
264.713	5.46
265.093	5.84
265.473	5.41
265.853	5.64
266.233	5.46
266.612	6.28
266.992	5.79
267.372	5.6
267.752	5.66
268.131	5.98
268.511	5.99
268.89	5.41
269.27	5.99
269.649	5.95
270.029	6.18
270.408	6.31
270.787	5.7
271.167	5.97
271.546	6.33
271.925	6.21
272.304	6.65
272.683	5.95
273.062	5.81
273.441	5.8
273.82	5.36
274.199	6.13
274.578	5.65
274.957	5.78
275.336	5.57
275.715	5.8
276.093	5.34
276.472	5.42
276.851	5.56
277.229	6.1
277.608	6.31
277.986	5.4
278.365	5.93
278.743	5.39
279.122	5.83
279.5	5.74
279.878	5.41
280.257	6.3
280.635	5.99
281.013	6.33
281.391	5.75
281.769	5.67
282.147	5.51
282.525	6.18
282.903	5.41
283.281	5.28
283.659	5.5
284.037	5.95
284.415	6.19
284.792	5.91
285.17	5.09
285.548	6.03
285.925	5.61
286.303	5.39
286.68	5.07
287.058	5.51
287.435	5.55
287.813	5.54
288.19	5.61
288.567	5.59
288.945	5.08
289.322	5.15
289.699	5.71
290.076	5.54
290.453	5.79
290.83	5.18
291.207	5
291.584	5.33
291.961	5.5
292.338	5.48
292.715	5.64
293.092	5.12
293.469	5.58
293.845	6.12
294.222	5.61
294.599	6.07
294.975	5.17
295.352	5.45
295.728	5.64
296.105	5.42
296.481	5.66
296.858	5.7
297.234	5.37
297.61	5.42
297.986	5.41
298.363	5.66
298.739	5.48
299.115	5.22
299.491	5.45
299.867	5.61
300.243	5.38
300.619	5.26
300.995	6.1
301.371	5.71
301.746	5.41
302.122	5.78
302.498	5.95
302.874	5.69
303.249	5.72
303.625	5.37
304	5.43
304.376	5.34
304.751	5.57
305.127	5.63
305.502	5.28
305.878	5.84
306.253	5.39
306.628	5.64
307.003	5.25
307.378	5.21
307.754	5.28
308.129	5.94
308.504	5.17
308.879	6
309.254	5.46
309.629	5.14
310.003	5.16
310.378	5.5
310.753	5.39
311.128	5.27
311.502	5.67
311.877	5.42
312.252	5.37
312.626	5.47
313.001	5.27
313.375	5.56
313.75	5.43
314.124	5.64
314.498	4.98
314.873	5.49
315.247	4.96
315.621	5.26
315.995	5.1
316.369	5.42
316.743	5.46
317.117	6.02
317.491	5.99
317.865	6.05
318.239	6.09
318.613	5.62
318.987	5.33
319.361	5.57
319.734	4.81
320.108	5.69
320.482	5.22
320.855	5.16
321.229	5.77
321.602	5.34
321.976	5.6
322.349	5.52
322.723	5.24
323.096	5.46
323.469	5.59
323.843	5.39
324.216	5.13
324.589	6.03
324.962	5.44
325.335	5.53
325.708	5.37
326.081	5.63
326.454	5.23
326.827	5.52
327.2	5.18
327.573	5
327.945	5.28
328.318	5.27
328.691	5.75
329.063	5.27
329.436	5.4
329.809	5.57
330.181	5.56
330.553	5.05
330.926	5.33
331.298	5.26
331.671	5.21
332.043	4.87
332.415	5.23
332.787	5
333.159	5.05
333.532	5.38
333.904	5.41
334.276	5.68
334.648	5.61
335.02	5.58
335.391	5.07
335.763	5.74
336.135	5.46
336.507	5.6
336.879	5.52
337.25	4.58
337.622	5.21
337.993	5
338.365	5.11
338.736	4.99
339.108	5.28
339.479	5.47
339.851	5.33
340.222	5.48
340.593	5.08
340.964	5.15
341.336	5.52
341.707	5.18
342.078	5.44
342.449	5.2
342.82	5.07
343.191	5.25
343.562	5.25
343.933	5.15
344.303	5.44
344.674	5.42
345.045	5.42
345.416	5.48
345.786	5.58
346.157	5.68
346.527	5.21
346.898	5.36
347.268	5.33
347.639	5.32
348.009	5.57
348.38	5.82
348.75	5.61
349.12	5.59
349.49	5.76
349.861	5.38
350.231	5.18
350.601	5.36
350.971	5.18
351.341	5.95
351.711	5.18
352.081	5.36
352.45	5.27
352.82	5.42
353.19	5.6
353.56	5.38
353.929	5.36
354.299	5.85
354.669	5.34
355.038	5.28
355.408	5.5
355.777	5.24
356.147	5.47
356.516	5.35
356.885	5.06
357.254	5.8
357.624	5.44
357.993	5.17
358.362	5.31
358.731	5.53
359.1	5.24
359.469	5.01
359.838	5.57
360.207	5.51
360.576	5.34
360.945	5.57
361.314	5.27
361.682	5.46
362.051	5.48
362.42	5.54
362.788	5.42
363.157	5.34
363.525	5.19
363.894	5.22
364.262	5.46
364.631	5.82
364.999	5.3
365.367	5.69
365.735	5.09
366.104	5.28
366.472	5.67
366.84	5.57
367.208	5.66
367.576	6.08
367.944	5.17
368.312	5.35
368.68	5.18
369.048	5.16
369.416	5.59
369.783	5.6
370.151	5.72
370.519	5.64
370.886	5.58
371.254	5.61
371.621	5.53
371.989	5.41
372.356	5.3
372.724	5.65
373.091	5.12
373.458	5.39
373.826	5.26
374.193	5.7
374.56	5.6
374.927	5.69
375.294	5.75
375.661	5.69
376.028	5.63
376.395	5.16
376.762	5.41
377.129	5.81
377.496	5.71
377.863	5.48
378.229	5.75
378.596	5.61
378.963	5.74
379.329	5.49
379.696	6.04
380.062	5.67
380.429	5.48
380.795	5.41
381.161	5.3
381.528	5.32
381.894	5.4
382.26	5.83
382.626	5.83
382.993	5.71
383.359	5.37
383.725	5.4
384.091	5.63
384.457	5.65
384.823	5.78
385.188	5.82
385.554	5.99
385.92	5.88
386.286	5.89
386.651	5.76
387.017	5.61
387.383	5.58
387.748	5.51
388.114	5.7
388.479	5.43
388.845	5.45
389.21	5.64
389.575	5.67
389.94	5.64
390.306	5.7
390.671	5.53
391.036	5.73
391.401	5.36
391.766	5.6
392.131	5.62
392.496	5.9
392.861	5.98
393.226	5.74
393.591	5.43
393.956	5.61
394.32	5.7
394.685	5.45
395.05	5.58
395.414	5.65
395.779	5.7
396.143	5.72
396.508	5.33
396.872	5.78
397.236	5.59
397.601	5.56
397.965	5.86
398.329	5.63
398.694	5.81
399.058	5.69
399.422	5.62
399.786	5.71
400.15	5.74
400.514	5.66
400.878	5.77
401.242	5.51
401.605	5.69
401.969	5.73
402.333	5.7
402.697	5.94
403.06	5.7
403.424	5.75
403.787	5.95
404.151	5.75
404.514	5.83
404.878	5.53
405.241	5.79
405.604	5.98
405.968	5.76
406.331	5.62
406.694	5.75
407.057	5.68
407.42	5.95
407.783	5.6
408.146	5.73
408.509	5.76
408.872	5.68
409.235	5.84
409.598	5.75
409.961	5.58
410.323	6.05
410.686	5.79
411.049	5.68
411.411	5.84
411.774	5.94
412.136	5.83
412.499	5.61
412.861	5.8
413.223	5.59
413.586	5.87
413.948	5.98
414.31	5.8
414.672	5.68
415.035	5.83
415.397	5.88
415.759	5.89
416.121	5.76
416.483	5.71
416.845	5.72
417.206	5.86
417.568	5.8
417.93	5.73
418.292	5.81
418.653	5.58
419.015	5.78
419.377	5.75
419.738	5.65
420.1	5.81
420.461	5.78
420.822	5.73
421.184	5.64
421.545	5.65
421.906	5.55
422.267	5.47
422.629	5.74
422.99	5.61
423.351	5.68
423.712	5.59
424.073	5.63
424.434	5.65
424.795	5.64
425.155	5.69
425.516	5.62
425.877	5.69
426.238	5.65
426.598	5.78
426.959	5.59
427.32	5.8
427.68	5.84
428.041	5.67
428.401	5.71
428.761	5.8
429.122	5.8
429.482	5.85
429.842	5.99
430.202	5.89
430.563	5.73
430.923	5.78
431.283	5.67
431.643	5.87
432.003	5.71
432.363	5.75
432.722	5.91
433.082	5.76
433.442	5.69
433.802	5.92
434.161	5.74
434.521	5.81
434.881	5.58
435.24	5.79
435.6	5.74
435.959	5.74
436.319	5.71
436.678	5.72
437.037	5.76
437.396	6
437.756	5.73
438.115	5.69
438.474	5.83
438.833	5.91
439.192	5.8
439.551	5.82
439.91	5.87
440.269	5.65
440.628	5.8
440.987	5.81
441.345	5.86
441.704	5.74
442.063	5.91
442.421	5.78
442.78	5.78
443.138	5.56
443.497	5.74
443.855	5.82
444.214	5.81
444.572	5.9
444.93	5.6
445.288	5.94
445.647	5.9
446.005	5.75
446.363	5.84
446.721	5.89
447.079	5.75
447.437	5.76
447.795	5.72
448.153	5.58
448.51	5.62
448.868	5.54
449.226	5.64
449.584	5.73
449.941	5.71
450.299	5.74
450.656	5.74
451.014	5.8
451.371	5.79
451.729	5.84
452.086	5.91
452.443	5.94
452.801	5.94
453.158	5.75
453.515	5.66
453.872	5.8
454.229	5.74
454.586	5.84
454.943	5.9
455.3	5.76
455.657	5.9
456.014	5.63
456.371	5.73
456.727	5.78
457.084	5.73
457.441	5.89
457.797	5.88
458.154	5.7
458.51	5.66
458.867	5.79
459.223	5.85
459.58	5.91
459.936	5.96
460.292	5.73
460.648	5.76
461.005	5.85
461.361	5.8
461.717	5.71
462.073	5.66
462.429	5.69
462.785	5.73
463.141	5.81
463.496	5.76
463.852	5.74
464.208	5.95
464.564	5.74
464.919	5.94
465.275	5.92
465.631	5.83
465.986	5.83
466.342	5.93
466.697	5.83
467.052	5.94
467.408	5.89
467.763	5.71
468.118	5.82
468.473	5.81
468.829	5.78
469.184	5.89
469.539	5.86
469.894	5.74
470.249	5.85
470.603	6.04
470.958	5.77
471.313	5.75
471.668	5.88
472.023	5.9
472.377	5.79
472.732	6.02
473.086	6.1
473.441	5.93
473.795	5.98
474.15	5.78
474.504	5.89
474.859	5.97
475.213	5.87
475.567	5.8
475.921	5.86
476.275	5.65
476.63	5.92
476.984	5.97
477.338	5.84
477.692	5.97
478.045	5.94
478.399	5.89
478.753	5.92
479.107	5.82
479.461	5.93
479.814	5.77
480.168	5.93
480.521	5.77
480.875	5.92
481.228	5.83
481.582	5.9
481.935	5.9
482.289	5.96
482.642	5.84
482.995	5.88
483.348	5.85
483.701	5.9
484.055	5.79
484.408	5.71
484.761	5.74
485.114	5.7
485.466	5.58
485.819	5.52
486.172	5.42
486.525	5.49
486.878	5.51
487.23	5.61
487.583	5.63
487.936	5.69
488.288	5.78
488.641	5.67
488.993	5.69
489.345	5.56
489.698	5.63
490.05	5.59
490.402	5.6
490.754	5.6
491.107	5.62
491.459	5.68
491.811	5.72
492.163	5.85
492.515	5.73
492.866	5.79
493.218	5.69
493.57	5.66
493.922	5.59
494.274	5.62
494.625	5.69
494.977	5.72
495.328	5.75
495.68	5.8
496.031	5.92
496.383	5.84
496.734	5.98
497.086	5.88
497.437	6.01
497.788	5.93
498.139	5.8
498.49	5.82
498.842	5.79
499.193	5.79
499.544	5.75
499.894	5.92
500.245	5.81
500.596	5.82
500.947	5.85
501.298	6.1
501.648	5.94
501.999	5.81
502.35	5.9
502.7	5.89
503.051	5.93
503.401	5.83
503.752	5.96
504.102	6.04
504.452	5.84
504.803	5.9
505.153	6.13
505.503	5.78
505.853	5.95
506.203	5.75
506.553	5.84
506.903	6
507.253	5.95
507.603	5.9
507.953	6.03
508.303	6
508.652	5.96
509.002	5.98
509.352	5.94
509.701	5.82
510.051	5.99
510.4	5.92
510.75	5.9
511.099	5.8
511.449	5.84
511.798	5.78
512.147	5.88
512.496	5.9
512.846	5.93
513.195	5.98
513.544	5.86
513.893	5.93
514.242	5.92
514.591	5.85
514.939	5.88
515.288	5.99
515.637	5.87
515.986	5.93
516.334	5.83
516.683	5.97
517.032	5.96
517.38	5.91
517.729	5.94
518.077	5.89
518.426	5.94
518.774	5.91
519.122	5.83
519.47	5.95
519.819	5.93
520.167	5.96
520.515	5.82
520.863	5.88
521.211	5.92
521.559	5.9
521.907	5.86
522.255	5.8
522.602	5.94
522.95	5.85
523.298	5.99
523.645	5.91
523.993	6.11
524.341	6.07
524.688	6.08
525.036	6.02
525.383	5.88
525.73	5.99
526.078	6.12
526.425	5.95
526.772	6.02
527.119	5.89
527.466	5.85
527.814	5.85
528.161	5.76
528.508	5.85
528.854	5.89
529.201	5.99
529.548	5.89
529.895	5.83
530.242	5.79
530.588	5.71
530.935	5.71
531.282	5.66
531.628	5.61
531.975	5.76
532.321	5.82
532.667	5.84
533.014	5.85
533.36	5.83
533.706	5.9
534.052	5.98
534.399	5.96
534.745	5.84
535.091	5.84
535.437	5.85
535.783	5.78
536.129	5.82
536.474	5.82
536.82	5.82
537.166	5.99
537.512	6.02
537.857	6.01
538.203	5.94
538.549	5.86
538.894	6.07
539.239	5.87
539.585	5.91
539.93	5.98
540.276	5.93
540.621	6.07
540.966	6.05
541.311	5.99
541.656	6.05
542.001	6.12
542.346	6.07
542.691	5.98
543.036	5.86
543.381	5.83
543.726	5.76
544.071	5.83
544.415	5.82
544.76	5.88
545.105	5.89
545.449	6.02
545.794	5.88
546.138	5.94
546.483	6.05
546.827	6.05
547.171	6.11
547.516	6
547.86	5.93
548.204	5.99
548.548	6.02
548.892	6.08
549.236	6.02
549.58	6.07
549.924	5.98
550.268	6.19
550.612	6.15
550.956	6.21
551.3	6.13
551.643	6.12
551.987	6.11
552.33	6.27
552.674	6.31
553.017	6.05
553.361	6.13
553.704	6.34
554.048	6.15
554.391	6.25
554.734	6.11
555.077	6.17
555.42	6.17
555.764	6.06
556.107	6.31
556.45	6.2
556.793	6.14
557.135	6.22
557.478	6.11
557.821	6.29
558.164	6.26
558.507	6.25
558.849	6.31
559.192	6.19
559.534	6.13
559.877	6.32
560.219	6.16
560.562	6.29
560.904	6.12
561.246	6.23
561.589	6.27
561.931	6.37
562.273	6.23
562.615	6.28
562.957	6.23
563.299	6.16
563.641	6.05
563.983	6.07
564.325	6.3
564.667	6.46
565.008	6.17
565.35	6.1
565.692	6.37
566.033	6.25
566.375	6.11
566.716	6.39
567.058	6.22
567.399	6.33
567.741	6.31
568.082	6.24
568.423	6.37
568.764	6.31
569.105	6.2
569.447	6.12
569.788	6.35
570.129	6.2
570.47	6.28
570.811	6.15
571.151	6.23
571.492	6.45
571.833	6.2
572.174	6.06
572.514	6.28
572.855	6.28
573.195	6.22
573.536	6.2
573.876	6.32
574.217	6.14
574.557	6.46
574.898	6.17
575.238	6.4
575.578	6.38
575.918	6.2
576.258	6.35
576.598	6.31
576.938	6.44
577.278	6.43
577.618	6.52
577.958	6.38
578.298	6.21
578.638	6.42
578.977	6.52
579.317	6.27
579.657	6.36
579.996	6.42
580.336	6.54
580.675	6.44
581.014	6.36
581.354	6.29
581.693	6.43
582.032	6.32
582.372	6.58
582.711	6.14
583.05	6.4
583.389	6.22
583.728	6.17
584.067	6.4
584.406	6.42
584.745	6.48
585.083	6.46
585.422	6.41
585.761	6.32
586.1	6.18
586.438	6.69
586.777	6.57
587.115	6.6
587.454	6.43
587.792	6.3
588.13	6.47
588.469	6.37
588.807	6.58
589.145	6.23
589.483	6.66
589.821	6.57
590.159	6.76
590.497	6.52
590.835	6.58
591.173	6.25
591.511	6.46
591.849	6.63
592.187	6.54
592.524	6.35
592.862	6.56
593.2	6.39
593.537	6.38
593.875	6.68
594.212	6.21
594.55	6.43
594.887	6.76
595.224	6.57
595.561	6.46
595.899	6.61
596.236	6.64
596.573	6.53
596.91	6.38
597.247	6.43
597.584	6.47
597.921	6.31
598.258	6.37
598.594	6.44
598.931	6.52
599.268	6.31
599.604	6.48
599.941	6.28
600.277	6.32
600.614	6.53
600.95	6.4
601.287	6.27
601.623	6.58
601.959	6.45
602.296	6.56
602.632	6.53
602.968	6.61
603.304	6.29
603.64	6.47
603.976	6.15
604.312	6.43
604.648	6.74
604.984	6.55
605.319	6.67
605.655	6.66
605.991	6.56
606.326	6.51
606.662	6.61
606.998	6.49
607.333	6.44
607.668	6.53
608.004	6.56
608.339	6.51
608.674	6.67
609.01	6.29
609.345	6.57
609.68	6.9
610.015	6.66
610.35	6.53
610.685	6.39
611.02	6.54
611.355	6.29
611.689	6.3
612.024	6.52
612.359	6.62
612.694	6.62
613.028	6.61
613.363	6.23
613.697	6.49
614.032	6.72
614.366	6.77
614.7	6.69
615.035	6.47
615.369	6.6
615.703	6.97
616.037	6.65
616.371	6.52
616.705	6.77
617.039	6.62
617.373	6.61
617.707	6.27
618.041	6.66
618.375	6.82
618.709	6.73
619.042	6.54
619.376	6.9
619.71	6.79
620.043	7.19
620.377	6.69
620.71	6.72
621.043	6.82
621.377	6.6
621.71	6.38
622.043	6.61
622.376	6.41
622.709	6.62
623.043	6.82
623.376	6.32
623.709	6.64
624.041	6.96
624.374	6.72
624.707	6.68
625.04	6.85
625.373	6.57
625.705	6.53
626.038	6.6
626.37	6.86
626.703	7.08
627.035	6.83
627.368	6.82
627.7	7.02
628.032	6.73
628.365	6.78
628.697	6.92
629.029	6.61
629.361	6.95
629.693	7.08
630.025	6.87
630.357	7.09
630.689	6.93
631.021	6.89
631.353	6.44
631.684	6.95
632.016	6.96
632.348	6.81
632.679	6.71
633.011	6.86
633.342	6.71
633.674	6.95
634.005	6.98
634.336	6.91
634.668	7.01
634.999	7.02
635.33	7.12
635.661	6.51
635.992	6.97
636.323	6.76
636.654	6.76
636.985	6.64
637.316	7.05
637.647	6.84
637.977	7.17
638.308	6.46
638.639	6.48
638.969	6.85
639.3	7.04
639.63	6.7
639.961	7.45
640.291	6.54
640.622	7.28
640.952	7.32
641.282	6.95
641.612	6.49
641.943	7.04
642.273	6.95
642.603	6.49
642.933	7.02
643.263	7.18
643.592	7.1
643.922	6.75
644.252	6.97
644.582	7.42
644.911	7.37
645.241	6.91
645.571	6.81
645.9	7.07
646.23	6.83
646.559	6.75
646.888	6.93
647.218	7.15
647.547	6.47
647.876	7.06
648.205	7.04
648.534	6.83
648.863	7.45
649.192	7.18
649.521	7.12
649.85	7.17
650.179	6.75
650.508	6.91
650.837	7.14
651.165	6.78
651.494	7.18
651.822	6.53
652.151	7.05
652.479	7.55
652.808	7.06
653.136	7.4
653.465	6.64
653.793	6.81
654.121	6.93
654.449	7.42
654.777	6.63
655.105	6.95
655.433	6.94
655.761	7.58
656.089	7.19
656.417	6.79
656.745	7.08
657.073	7.33
657.4	7.34
657.728	7.27
658.056	7.14
658.383	7.33
658.711	7.63
659.038	6.77
659.365	6.83
659.693	6.81
660.02	7.36
660.347	7.76
660.674	6.97
661.001	7.3
661.329	7.27
661.656	6.86
661.982	6.89
662.309	7.19
662.636	7.24
662.963	6.89
663.29	6.8
663.616	6.94
663.943	7.03
664.27	7.17
664.596	7.17
664.923	6.83
665.249	7.28
665.576	7.45
665.902	7.53
666.228	7.32
666.554	7.39
666.881	6.95
667.207	7.32
667.533	7.41
667.859	7.47
668.185	7.59
668.511	6.92
668.837	6.64
669.162	7.43
669.488	6.84
669.814	7.19
670.139	7.09
670.465	7.92
670.791	7.19
671.116	7.34
671.442	7.45
671.767	7.52
672.092	6.97
672.418	7.25
672.743	7.53
673.068	7.38
673.393	7.38
673.718	6.61
674.043	7.58
674.368	7.78
674.693	7.22
675.018	7.34
675.343	7.59
675.667	7.57
675.992	6.99
676.317	7.28
676.641	7.46
676.966	7.29
677.29	7.01
677.615	7.2
677.939	7.4
678.264	7.2
678.588	7.09
678.912	7.43
679.236	7.32
679.56	7.67
679.885	6.87
680.209	7.49
680.532	7.83
680.856	7.51
681.18	7.14
681.504	7.36
681.828	7.22
682.152	7.3
682.475	7.33
682.799	7.6
683.122	7.75
683.446	8.18
683.769	7.93
684.093	7.41
684.416	7.84
684.739	7.4
685.062	7.71
685.386	8.29
685.709	7.88
686.032	7.32
686.355	7.66
686.678	7.15
687.001	7.89
687.324	7.62
687.646	7.87
687.969	7
688.292	7.48
688.614	7.66
688.937	7.74
689.26	7.63
689.582	7.4
689.904	7.64
690.227	7.22
690.549	7.18
690.871	7.37
691.194	7.91
691.516	7.65
691.838	6.89
692.16	7.73
692.482	7.29
692.804	7.72
693.126	7.57
