Data from 1897-2_chest_Reflection__2__02.txt Node

Date: Fri Sep 30 17:45:19 CDT 2022
User: ToomeyLab
Spectrometer: FLMS14357
Trigger mode: 0
Integration Time (sec): 1.000000E-2
Scans to average: 100
Electric dark correction enabled: true
Nonlinearity correction enabled: false
Boxcar width: 0
XAxis mode: Wavelengths
Number of Pixels in Spectrum: 2048
>>>>>Begin Spectral Data<<<<<
189.047	33.03
189.435	33.03
189.823	33.03
190.211	-579.55
190.599	-29.58
190.987	167.73
191.375	15.93
191.763	49.42
192.151	12.6
192.538	127.13
192.926	234.27
193.314	11.13
193.702	65.73
194.089	73.26
194.477	-161.64
194.864	182.23
195.252	338.28
195.639	107.75
196.027	-29.88
196.414	26.23
196.801	66.99
197.189	-44.74
197.576	254.41
197.963	70.95
198.351	10.14
198.738	25.52
199.125	50.7
199.512	3.85
199.899	5.79
200.286	5.74
200.673	16.21
201.06	35.87
201.447	24.61
201.833	36.47
202.22	27.42
202.607	29
202.994	27.97
203.38	-4.47
203.767	-24.46
204.154	-1.05
204.54	2.75
204.927	30.56
205.313	-30.38
205.699	24.86
206.086	-125.07
206.472	-10.93
206.858	11.89
207.245	9.72
207.631	-24.18
208.017	-27.17
208.403	29.71
208.789	-16.87
209.175	27.39
209.561	8.15
209.947	-12.32
210.333	-43.91
210.719	-7.52
211.105	-3.09
211.491	-5.05
211.876	-14.25
212.262	23.55
212.648	23.38
213.034	-8.21
213.419	21.25
213.805	19.38
214.19	-4.93
214.576	25.57
214.961	14.66
215.346	17.53
215.732	9.52
216.117	5.19
216.502	33.32
216.888	29.08
217.273	-3.61
217.658	10.6
218.043	4.06
218.428	-2.84
218.813	18.31
219.198	4.75
219.583	21.44
219.968	21.18
220.353	-0.99
220.738	-6.78
221.122	16.96
221.507	25.07
221.892	22.45
222.276	-4.98
222.661	8.02
223.046	5.13
223.43	-1.73
223.815	2.76
224.199	4.88
224.583	-8.44
224.968	-2.91
225.352	4.33
225.736	6.62
226.121	17.2
226.505	2.94
226.889	2.39
227.273	-4.04
227.657	10.52
228.041	0.33
228.425	7.17
228.809	4.43
229.193	4.87
229.577	1.92
229.961	4.18
230.344	3.68
230.728	3.34
231.112	3.9
231.495	4.37
231.879	5.23
232.263	3.54
232.646	2.72
233.03	4.64
233.413	3.36
233.797	2.42
234.18	2.81
234.563	3.45
234.946	5.82
235.33	2.93
235.713	5.47
236.096	4.07
236.479	2.43
236.862	2.52
237.245	4.41
237.628	2.52
238.011	6.44
238.394	3.83
238.777	1.46
239.16	2.35
239.543	4.41
239.925	2.91
240.308	3.05
240.691	5.97
241.073	4.61
241.456	3.6
241.838	3.36
242.221	3.17
242.603	4.72
242.986	4.31
243.368	3.42
243.75	3.58
244.133	3.98
244.515	4.09
244.897	4.59
245.279	4.98
245.661	3.17
246.043	2.63
246.425	3.28
246.807	4.45
247.189	4.27
247.571	4.14
247.953	4.31
248.335	4.04
248.717	3.71
249.098	4.09
249.48	3.83
249.862	3.59
250.243	3.49
250.625	4.39
251.006	3.89
251.388	2.19
251.769	4.08
252.151	3.96
252.532	4
252.913	3.66
253.295	4.24
253.676	3.75
254.057	3.77
254.438	3.86
254.819	4.34
255.2	4.45
255.581	3.74
255.962	4.06
256.343	4.18
256.724	4.4
257.105	4.48
257.486	4.4
257.867	4.58
258.247	3
258.628	4.23
259.009	4.98
259.389	3.37
259.77	3.84
260.15	3.73
260.531	4.51
260.911	3.75
261.292	3.66
261.672	3.55
262.052	3.6
262.432	3.6
262.813	4.18
263.193	3.41
263.573	3.25
263.953	3.4
264.333	3.8
264.713	3.59
265.093	3.92
265.473	4.4
265.853	3.96
266.233	3.96
266.612	3.8
266.992	3.09
267.372	3.17
267.752	3.65
268.131	3.65
268.511	3.42
268.89	2.59
269.27	3.64
269.649	3.18
270.029	3.82
270.408	3.61
270.787	3.55
271.167	3.44
271.546	3.41
271.925	4.4
272.304	3.21
272.683	3.45
273.062	3.67
273.441	3.28
273.82	2.8
274.199	3.71
274.578	3.18
274.957	3.27
275.336	3.18
275.715	3.6
276.093	3.52
276.472	3.28
276.851	3.38
277.229	2.98
277.608	3.15
277.986	3.18
278.365	3.77
278.743	2.88
279.122	3.56
279.5	3.53
279.878	3.05
280.257	3.34
280.635	3.47
281.013	4
281.391	2.9
281.769	3.23
282.147	3.33
282.525	4.18
282.903	3.69
283.281	3.48
283.659	3.56
284.037	3.53
284.415	3.68
284.792	3.37
285.17	3.01
285.548	2.89
285.925	3.59
286.303	3
286.68	3.15
287.058	3.53
287.435	3.43
287.813	3.54
288.19	3.46
288.567	3.38
288.945	3.03
289.322	3.18
289.699	3.3
290.076	3.57
290.453	3.55
290.83	3.3
291.207	3.03
291.584	2.89
291.961	3.47
292.338	3.37
292.715	3.39
293.092	3.36
293.469	3.25
293.845	3.88
294.222	3.45
294.599	4.56
294.975	4.28
295.352	4.08
295.728	3.88
296.105	3.5
296.481	3.72
296.858	4.24
297.234	4.06
297.61	3.87
297.986	3.54
298.363	3.94
298.739	3.67
299.115	3.48
299.491	3.8
299.867	3.91
300.243	3.63
300.619	3.14
300.995	4.48
301.371	4.03
301.746	3.77
302.122	3.91
302.498	3.99
302.874	4.19
303.249	3.89
303.625	3.84
304	3.54
304.376	3.84
304.751	4.24
305.127	3.83
305.502	3.85
305.878	4.16
306.253	3.31
306.628	3.66
307.003	3.87
307.378	3.77
307.754	3.82
308.129	3.99
308.504	3.91
308.879	3.65
309.254	3.82
309.629	4.43
310.003	3.81
310.378	3.89
310.753	4.06
311.128	4.06
311.502	4.19
311.877	3.67
312.252	3.94
312.626	4.11
313.001	4.01
313.375	3.93
313.75	4
314.124	3.97
314.498	3.72
314.873	4.11
315.247	3.69
315.621	4.4
315.995	3.93
316.369	3.43
316.743	3.79
317.117	4.72
317.491	4.56
317.865	4.9
318.239	4.58
318.613	4.04
318.987	4.04
319.361	3.71
319.734	4.16
320.108	4.03
320.482	3.65
320.855	3.87
321.229	4.45
321.602	3.85
321.976	4.35
322.349	3.8
322.723	3.66
323.096	4.24
323.469	4.14
323.843	3.61
324.216	4.26
324.589	4.59
324.962	4.31
325.335	4.26
325.708	4.2
326.081	4.6
326.454	4.6
326.827	4.18
327.2	4.15
327.573	4.12
327.945	4.21
328.318	4.33
328.691	4.5
329.063	4.38
329.436	4.01
329.809	4.52
330.181	4.37
330.553	4.09
330.926	4.27
331.298	4.14
331.671	3.98
332.043	3.68
332.415	3.99
332.787	4.13
333.159	3.94
333.532	3.83
333.904	4.15
334.276	3.94
334.648	3.97
335.02	4.02
335.391	4.44
335.763	4.01
336.135	4.24
336.507	4.12
336.879	4.23
337.25	3.26
337.622	3.71
337.993	3.84
338.365	4.04
338.736	3.93
339.108	4.01
339.479	4.22
339.851	3.54
340.222	4.45
340.593	4.05
340.964	3.7
341.336	4.27
341.707	3.8
342.078	4
342.449	4.3
342.82	4.17
343.191	3.85
343.562	3.77
343.933	4.45
344.303	4.2
344.674	4.48
345.045	3.95
345.416	4.34
345.786	4.04
346.157	4.11
346.527	4.31
346.898	4.15
347.268	3.74
347.639	4.08
348.009	4.07
348.38	4.56
348.75	4.41
349.12	4.29
349.49	4.34
349.861	4.02
350.231	3.73
350.601	4.52
350.971	4.27
351.341	4.39
351.711	4.39
352.081	4.08
352.45	4.34
352.82	3.81
353.19	4.38
353.56	4.23
353.929	3.85
354.299	4.04
354.669	3.78
355.038	4.15
355.408	4.35
355.777	3.85
356.147	3.93
356.516	4.15
356.885	3.48
357.254	4.25
357.624	4.32
357.993	3.55
358.362	4.22
358.731	4.19
359.1	3.91
359.469	3.74
359.838	4.15
360.207	4.19
360.576	3.97
360.945	4
361.314	4.09
361.682	4.22
362.051	4.12
362.42	4.25
362.788	4.04
363.157	4.03
363.525	3.94
363.894	4.03
364.262	4.03
364.631	4.4
364.999	4.23
365.367	4.27
365.735	3.98
366.104	4.19
366.472	3.95
366.84	4.38
367.208	4.43
367.576	4.74
367.944	4.14
368.312	4.06
368.68	3.86
369.048	4.14
369.416	4.19
369.783	3.88
370.151	4.2
370.519	4.4
370.886	4.12
371.254	4.01
371.621	4.34
371.989	3.85
372.356	4.21
372.724	4.41
373.091	4.07
373.458	4.15
373.826	4.23
374.193	4.35
374.56	4.25
374.927	4.51
375.294	4.39
375.661	4
376.028	4.28
376.395	4.18
376.762	3.97
377.129	4.16
377.496	4.26
377.863	4.03
378.229	4.21
378.596	4.33
378.963	4.41
379.329	4.11
379.696	4.29
380.062	4.67
380.429	4.11
380.795	4.05
381.161	4.07
381.528	4.04
381.894	4.29
382.26	4.11
382.626	4.26
382.993	4.47
383.359	3.96
383.725	3.87
384.091	4.29
384.457	4.28
384.823	4.4
385.188	4.4
385.554	4.39
385.92	4.36
386.286	4.39
386.651	4.26
387.017	4.29
387.383	4.12
387.748	4.07
388.114	4.29
388.479	4.42
388.845	4.23
389.21	4.41
389.575	4.19
389.94	4.35
390.306	4.31
390.671	4.09
391.036	4.21
391.401	3.95
391.766	4.54
392.131	4.3
392.496	4.38
392.861	4.33
393.226	4.14
393.591	4.36
393.956	4.6
394.32	4.21
394.685	4.24
395.05	4.32
395.414	4.25
395.779	4.2
396.143	4.4
396.508	4.21
396.872	4.4
397.236	4.19
397.601	4.29
397.965	4.3
398.329	4.37
398.694	4.35
399.058	4.51
399.422	4.62
399.786	4.35
400.15	4.38
400.514	4.1
400.878	4.36
401.242	3.98
401.605	4.22
401.969	4.33
402.333	4.4
402.697	4.18
403.06	4.3
403.424	4.12
403.787	4.36
404.151	4.61
404.514	4.38
404.878	4.19
405.241	4.47
405.604	4.43
405.968	4.29
406.331	4.22
406.694	4.3
407.057	4.24
407.42	4.34
407.783	4.35
408.146	4.33
408.509	4.36
408.872	4.16
409.235	4.37
409.598	4.39
409.961	4.26
410.323	4.52
410.686	4.54
411.049	4.38
411.411	4.43
411.774	4.59
412.136	4.41
412.499	4.38
412.861	4.29
413.223	4.27
413.586	4.55
413.948	4.36
414.31	4.58
414.672	4.44
415.035	4.51
415.397	4.46
415.759	4.33
416.121	4.23
416.483	4.44
416.845	4.45
417.206	4.47
417.568	4.49
417.93	4.26
418.292	4.36
418.653	4.26
419.015	4.58
419.377	4.41
419.738	4.35
420.1	4.45
420.461	4.54
420.822	4.35
421.184	4.33
421.545	4.32
421.906	4.16
422.267	4.3
422.629	4.33
422.99	4.29
423.351	4.25
423.712	4.33
424.073	4.25
424.434	4.41
424.795	4.31
425.155	4.36
425.516	4.36
425.877	4.38
426.238	4.23
426.598	4.42
426.959	4.35
427.32	4.36
427.68	4.42
428.041	4.21
428.401	4.45
428.761	4.43
429.122	4.57
429.482	4.46
429.842	4.56
430.202	4.39
430.563	4.43
430.923	4.59
431.283	4.33
431.643	4.64
432.003	4.48
432.363	4.44
432.722	4.68
433.082	4.55
433.442	4.46
433.802	4.51
434.161	4.4
434.521	4.6
434.881	4.41
435.24	4.34
435.6	4.45
435.959	4.27
436.319	4.44
436.678	4.44
437.037	4.47
437.396	4.7
437.756	4.52
438.115	4.45
438.474	4.66
438.833	4.58
439.192	4.5
439.551	4.47
439.91	4.41
440.269	4.31
440.628	4.61
440.987	4.53
441.345	4.65
441.704	4.49
442.063	4.5
442.421	4.49
442.78	4.44
443.138	4.37
443.497	4.49
443.855	4.59
444.214	4.48
444.572	4.52
444.93	4.57
445.288	4.48
445.647	4.45
446.005	4.54
446.363	4.68
446.721	4.59
447.079	4.52
447.437	4.51
447.795	4.56
448.153	4.44
448.51	4.49
448.868	4.38
449.226	4.45
449.584	4.53
449.941	4.43
450.299	4.45
450.656	4.44
451.014	4.73
451.371	4.65
451.729	4.54
452.086	4.62
452.443	4.64
452.801	4.59
453.158	4.66
453.515	4.62
453.872	4.6
454.229	4.59
454.586	4.67
454.943	4.5
455.3	4.61
455.657	4.71
456.014	4.47
456.371	4.6
456.727	4.59
457.084	4.39
457.441	4.47
457.797	4.59
458.154	4.38
458.51	4.55
458.867	4.63
459.223	4.56
459.58	4.84
459.936	4.7
460.292	4.63
460.648	4.64
461.005	4.53
461.361	4.6
461.717	4.49
462.073	4.55
462.429	4.58
462.785	4.6
463.141	4.68
463.496	4.6
463.852	4.66
464.208	4.81
464.564	4.6
464.919	4.81
465.275	4.85
465.631	4.82
465.986	4.69
466.342	4.75
466.697	4.71
467.052	4.69
467.408	4.56
467.763	4.5
468.118	4.75
468.473	4.73
468.829	4.71
469.184	4.65
469.539	4.83
469.894	4.76
470.249	4.78
470.603	4.78
470.958	4.77
471.313	4.68
471.668	4.62
472.023	4.66
472.377	4.67
472.732	4.82
473.086	4.81
473.441	4.8
473.795	4.72
474.15	4.69
474.504	4.77
474.859	4.84
475.213	4.68
475.567	4.81
475.921	4.78
476.275	4.63
476.63	4.68
476.984	4.81
477.338	4.76
477.692	4.87
478.045	4.76
478.399	4.77
478.753	4.88
479.107	4.88
479.461	4.81
479.814	4.79
480.168	4.82
480.521	4.86
480.875	4.9
481.228	4.8
481.582	4.7
481.935	4.9
482.289	4.93
482.642	4.71
482.995	4.75
483.348	4.87
483.701	4.85
484.055	4.78
484.408	4.78
484.761	4.72
485.114	4.67
485.466	4.59
485.819	4.55
486.172	4.57
486.525	4.61
486.878	4.63
487.23	4.65
487.583	4.72
487.936	4.76
488.288	4.76
488.641	4.71
488.993	4.74
489.345	4.65
489.698	4.68
490.05	4.7
490.402	4.74
490.754	4.77
491.107	4.74
491.459	4.83
491.811	4.84
492.163	4.92
492.515	4.76
492.866	4.82
493.218	4.7
493.57	4.75
493.922	4.74
494.274	4.78
494.625	4.88
494.977	4.9
495.328	4.92
495.68	4.93
496.031	4.97
496.383	4.96
496.734	4.94
497.086	5.03
497.437	5.05
497.788	5.07
498.139	4.85
498.49	4.89
498.842	4.88
499.193	5.01
499.544	5.04
499.894	5.06
500.245	4.93
500.596	5.01
500.947	4.96
501.298	5.15
501.648	5.04
501.999	5.1
502.35	5.19
502.7	5.01
503.051	5.02
503.401	5.09
503.752	5
504.102	5.31
504.452	5.06
504.803	5.06
505.153	5.19
505.503	5.09
505.853	5.14
506.203	5.04
506.553	5.09
506.903	5.16
507.253	5.14
507.603	5.2
507.953	5.34
508.303	5.41
508.652	5.22
509.002	5.25
509.352	5.35
509.701	5.21
510.051	5.29
510.4	5.16
510.75	5.32
511.099	5.07
511.449	5.14
511.798	5.1
512.147	5.2
512.496	5.16
512.846	5.2
513.195	5.33
513.544	5.3
513.893	5.35
514.242	5.19
514.591	5.38
514.939	5.2
515.288	5.32
515.637	5.12
515.986	5.36
516.334	5.35
516.683	5.26
517.032	5.38
517.38	5.3
517.729	5.48
518.077	5.33
518.426	5.39
518.774	5.48
519.122	5.36
519.47	5.4
519.819	5.46
520.167	5.38
520.515	5.4
520.863	5.31
521.211	5.45
521.559	5.38
521.907	5.48
522.255	5.39
522.602	5.44
522.95	5.57
523.298	5.62
523.645	5.44
523.993	5.66
524.341	5.65
524.688	5.71
525.036	5.6
525.383	5.54
525.73	5.64
526.078	5.66
526.425	5.45
526.772	5.69
527.119	5.45
527.466	5.47
527.814	5.48
528.161	5.44
528.508	5.47
528.854	5.55
529.201	5.51
529.548	5.54
529.895	5.55
530.242	5.51
530.588	5.46
530.935	5.5
531.282	5.46
531.628	5.47
531.975	5.48
532.321	5.62
532.667	5.58
533.014	5.73
533.36	5.61
533.706	5.68
534.052	5.78
534.399	5.73
534.745	5.71
535.091	5.72
535.437	5.68
535.783	5.73
536.129	5.75
536.474	5.76
536.82	5.88
537.166	5.88
537.512	5.9
537.857	5.99
538.203	5.92
538.549	5.88
538.894	5.83
539.239	5.87
539.585	5.93
539.93	5.92
540.276	6.09
540.621	6.01
540.966	6.05
541.311	6.1
541.656	6.1
542.001	6.14
542.346	6.09
542.691	6.01
543.036	5.92
543.381	5.93
543.726	5.9
544.071	5.96
544.415	5.92
544.76	6.01
545.105	6.11
545.449	6.17
545.794	6.1
546.138	6.2
546.483	6.32
546.827	6.09
547.171	6.25
547.516	6.19
547.86	6.24
548.204	6.22
548.548	6.15
548.892	6.25
549.236	6.39
549.58	6.35
549.924	6.32
550.268	6.5
550.612	6.51
550.956	6.5
551.3	6.48
551.643	6.73
551.987	6.47
552.33	6.66
552.674	6.6
553.017	6.36
553.361	6.4
553.704	6.8
554.048	6.55
554.391	6.64
554.734	6.52
555.077	6.62
555.42	6.69
555.764	6.71
556.107	6.8
556.45	6.67
556.793	6.71
557.135	6.75
557.478	6.72
557.821	6.78
558.164	6.83
558.507	6.94
558.849	6.86
559.192	6.75
559.534	6.8
559.877	7.1
560.219	7
560.562	7.06
560.904	6.9
561.246	7.01
561.589	6.93
561.931	7.07
562.273	7.06
562.615	7
562.957	6.98
563.299	7.24
563.641	7.1
563.983	7.02
564.325	7.04
564.667	7.38
565.008	7.07
565.35	7.14
565.692	7.35
566.033	7.04
566.375	7.05
566.716	7.28
567.058	7.18
567.399	7.28
567.741	7.21
568.082	7.4
568.423	7.41
568.764	7.21
569.105	7.44
569.447	7.42
569.788	7.39
570.129	7.39
570.47	7.53
570.811	7.58
571.151	7.45
571.492	7.6
571.833	7.55
572.174	7.38
572.514	7.6
572.855	7.45
573.195	7.64
573.536	7.54
573.876	7.67
574.217	7.61
574.557	7.71
574.898	7.56
575.238	7.79
575.578	7.91
575.918	7.73
576.258	8.03
576.598	7.9
576.938	7.85
577.278	7.97
577.618	7.98
577.958	8.01
578.298	7.94
578.638	8.12
578.977	7.89
579.317	7.96
579.657	8.03
579.996	7.95
580.336	8.22
580.675	8
581.014	7.92
581.354	8.08
581.693	8.17
582.032	8.22
582.372	8.02
582.711	7.96
583.05	8.07
583.389	8.34
583.728	8.44
584.067	8.39
584.406	8.26
584.745	8.53
585.083	8.48
585.422	8.61
585.761	8.36
586.1	8.52
586.438	8.85
586.777	8.71
587.115	8.75
587.454	8.53
587.792	8.44
588.13	8.75
588.469	8.68
588.807	8.76
589.145	8.52
589.483	8.92
589.821	8.85
590.159	8.98
590.497	8.73
590.835	8.76
591.173	8.69
591.511	8.89
591.849	8.92
592.187	8.83
592.524	8.94
592.862	9.02
593.2	9.06
593.537	8.96
593.875	9.06
594.212	8.95
594.55	9.1
594.887	9.31
595.224	9.1
595.561	9.07
595.899	9.25
596.236	9.36
596.573	9.01
596.91	9.28
597.247	8.92
597.584	9.26
597.921	9.36
598.258	9.19
598.594	9.17
598.931	9.38
599.268	9.34
599.604	9.38
599.941	9.26
600.277	9.26
600.614	9.45
600.95	9.64
601.287	9.51
601.623	9.45
601.959	9.65
602.296	9.72
602.632	9.5
602.968	9.7
603.304	9.75
603.64	9.74
603.976	9.63
604.312	9.92
604.648	9.91
604.984	10.11
605.319	9.73
605.655	9.88
605.991	9.85
606.326	9.94
606.662	9.89
606.998	9.83
607.333	9.85
607.668	9.83
608.004	10.03
608.339	9.89
608.674	10
609.01	9.92
609.345	9.7
609.68	10.53
610.015	10.24
610.35	10.18
610.685	10.27
611.02	10.11
611.355	10.16
611.689	10.21
612.024	10.34
612.359	10.29
612.694	10.41
613.028	10.55
613.363	10.24
613.697	10.5
614.032	10.62
614.366	10.44
614.7	10.32
615.035	10.62
615.369	10.37
615.703	10.44
616.037	10.58
616.371	10.9
616.705	10.9
617.039	10.97
617.373	11.15
617.707	10.58
618.041	10.83
618.375	10.92
618.709	11.17
619.042	10.89
619.376	11.28
619.71	11
620.043	11.45
620.377	11.12
620.71	11.16
621.043	11.22
621.377	10.85
621.71	10.83
622.043	10.77
622.376	10.85
622.709	11.21
623.043	11.48
623.376	11.09
623.709	11.23
624.041	11.59
624.374	11.41
624.707	10.88
625.04	11.56
625.373	11.32
625.705	11.27
626.038	11.3
626.37	11.6
626.703	11.89
627.035	11.68
627.368	11.6
627.7	11.73
628.032	11.88
628.365	11.72
628.697	11.85
629.029	11.59
629.361	11.92
629.693	12
630.025	11.72
630.357	11.82
630.689	11.79
631.021	12.02
631.353	11.97
631.684	12.02
632.016	12.23
632.348	12.27
632.679	11.78
633.011	12.26
633.342	12.32
633.674	12.21
634.005	12.25
634.336	12.36
634.668	12.5
634.999	12.69
635.33	12.65
635.661	12.3
635.992	12.44
636.323	12.5
636.654	12.55
636.985	12.32
637.316	12.62
637.647	12.58
637.977	12.84
638.308	12.17
638.639	12.39
638.969	12.3
639.3	12.54
639.63	12.44
639.961	12.75
640.291	12.71
640.622	13.04
640.952	12.99
641.282	12.45
641.612	12.86
641.943	12.82
642.273	13.04
642.603	12.81
642.933	12.65
643.263	13.02
643.592	13.06
643.922	12.52
644.252	13.7
644.582	13.54
644.911	13.48
645.241	13.49
645.571	13.07
645.9	13.17
646.23	12.79
646.559	13.19
646.888	13.59
647.218	13.3
647.547	13
647.876	13.16
648.205	13.06
648.534	13.28
648.863	13.58
649.192	13.39
649.521	13.43
649.85	13.4
650.179	13.64
650.508	13.78
650.837	13.86
651.165	13.46
651.494	13.59
651.822	14.54
652.151	13.47
652.479	14.1
652.808	14.27
653.136	14.09
653.465	13.95
653.793	13.84
654.121	13.69
654.449	14.3
654.777	13.89
655.105	14.25
655.433	14.1
655.761	14.11
656.089	14.05
656.417	14.31
656.745	14.28
657.073	14.09
657.4	15.09
657.728	14.29
658.056	14.32
658.383	14.29
658.711	14.86
659.038	13.8
659.365	13.93
659.693	13.79
660.02	14.88
660.347	14.57
660.674	14.68
661.001	14.56
661.329	14.7
661.656	14.37
661.982	14.76
662.309	14.89
662.636	14.85
662.963	14.77
663.29	14.2
663.616	14.66
663.943	15.1
664.27	14.97
664.596	14.76
664.923	14.55
665.249	14.68
665.576	15.29
665.902	14.97
666.228	15.35
666.554	15.21
666.881	15.12
667.207	14.72
667.533	15.03
667.859	15.72
668.185	15.21
668.511	15.17
668.837	15.07
669.162	15.44
669.488	15.12
669.814	16.01
670.139	14.99
670.465	16.1
670.791	15.57
671.116	15.26
671.442	15.64
671.767	15.24
672.092	15.18
672.418	15.27
672.743	15.9
673.068	15.5
673.393	15.66
673.718	15.56
674.043	16.15
674.368	15.61
674.693	15.84
675.018	15.2
675.343	16.06
675.667	15.85
675.992	15.63
676.317	16.49
676.641	16.65
676.966	15.55
677.29	15.34
677.615	15.67
677.939	15.87
678.264	15.68
678.588	16.55
678.912	16.78
679.236	16.08
679.56	16.36
679.885	16.5
680.209	15.81
680.532	16.67
680.856	16.13
681.18	16.43
681.504	16.58
681.828	16.97
682.152	16.42
682.475	16.57
682.799	16.82
683.122	16.89
683.446	16.65
683.769	17.07
684.093	16.95
684.416	16.59
684.739	16.91
685.062	17.16
685.386	17.46
685.709	16.8
686.032	17.07
686.355	17.03
686.678	16.26
687.001	16.57
687.324	17.75
687.646	16.24
