Data from 1897-2_forehead_Reflection__1__07.txt Node

Date: Fri Sep 30 17:47:14 CDT 2022
User: ToomeyLab
Spectrometer: FLMS14357
Trigger mode: 0
Integration Time (sec): 1.000000E-2
Scans to average: 100
Electric dark correction enabled: true
Nonlinearity correction enabled: false
Boxcar width: 0
XAxis mode: Wavelengths
Number of Pixels in Spectrum: 2048
>>>>>Begin Spectral Data<<<<<
189.047	-13.12
189.435	-13.12
189.823	-13.12
190.211	-228.27
190.599	23.76
190.987	100.47
191.375	1663.97
191.763	-88.37
192.151	-206.88
192.538	-15.87
192.926	474.04
193.314	28.85
193.702	7.67
194.089	55.67
194.477	-44.54
194.864	16.8
195.252	-1395.69
195.639	57.79
196.027	124.93
196.414	-20.9
196.801	125.92
197.189	-81.58
197.576	39.92
197.963	135.46
198.351	28.24
198.738	15.76
199.125	61.74
199.512	44.42
199.899	-12.82
200.286	-3.03
200.673	60.5
201.06	11.61
201.447	12.3
201.833	46.39
202.22	32.8
202.607	37.75
202.994	63.8
203.38	23.2
203.767	-4.9
204.154	19.19
204.54	41.02
204.927	40.9
205.313	-16.3
205.699	45.21
206.086	17.23
206.472	57.85
206.858	15.44
207.245	3.57
207.631	34.27
208.017	-2.78
208.403	6.98
208.789	29.97
209.175	50.03
209.561	-16.09
209.947	6.22
210.333	17.91
210.719	-1.51
211.105	-47.04
211.491	34.78
211.876	31.51
212.262	29.16
212.648	43.79
213.034	8.82
213.419	16.41
213.805	7.98
214.19	40.03
214.576	30.34
214.961	15.69
215.346	12.5
215.732	33.95
216.117	-0.06
216.502	39.31
216.888	19.15
217.273	16.45
217.658	27.35
218.043	14.15
218.428	24.34
218.813	8.11
219.198	14.38
219.583	29.79
219.968	41.7
220.353	17.62
220.738	9.9
221.122	9
221.507	38.35
221.892	28.47
222.276	13.47
222.661	5.82
223.046	12.59
223.43	-4.12
223.815	7.65
224.199	9
224.583	2.82
224.968	3.85
225.352	18.79
225.736	11.48
226.121	13.17
226.505	9.61
226.889	1.26
227.273	1.52
227.657	7.35
228.041	0.18
228.425	7.08
228.809	3.78
229.193	3.2
229.577	0.76
229.961	2.45
230.344	1.5
230.728	1.69
231.112	1.87
231.495	2.22
231.879	4.85
232.263	1.87
232.646	0.93
233.03	3.1
233.413	2.13
233.797	3.22
234.18	1.46
234.563	4.18
234.946	2.36
235.33	1.29
235.713	3.43
236.096	2.47
236.479	3.53
236.862	0.7
237.245	3.21
237.628	0.6
238.011	4.64
238.394	2.99
238.777	-0.56
239.16	1.77
239.543	2.67
239.925	2.28
240.308	1.11
240.691	4.24
241.073	2.77
241.456	1.99
241.838	2.36
242.221	2.09
242.603	3.36
242.986	3.11
243.368	1.23
243.75	1.74
244.133	2.5
244.515	1.81
244.897	1.96
245.279	1.91
245.661	1.82
246.043	2.65
246.425	1.43
246.807	2.45
247.189	3.05
247.571	3.22
247.953	2.21
248.335	1.57
248.717	1.92
249.098	2.33
249.48	1.9
249.862	2.38
250.243	1.89
250.625	2.26
251.006	2.19
251.388	1.19
251.769	2.74
252.151	2.04
252.532	2.78
252.913	1.51
253.295	2.14
253.676	1.34
254.057	2.19
254.438	1.96
254.819	2.99
255.2	2.43
255.581	3.48
255.962	3.48
256.343	2.06
256.724	3.61
257.105	2.64
257.486	2.71
257.867	2.47
258.247	2.55
258.628	2.73
259.009	3.27
259.389	2.35
259.77	2.1
260.15	1.65
260.531	2.46
260.911	2.07
261.292	1.91
261.672	2.04
262.052	1.96
262.432	2.1
262.813	2.52
263.193	2.02
263.573	2.12
263.953	1.67
264.333	2.31
264.713	1.42
265.093	2.76
265.473	3.32
265.853	1.81
266.233	1.61
266.612	2.29
266.992	1.98
267.372	1.89
267.752	1.85
268.131	2.13
268.511	2.21
268.89	1.67
269.27	1.99
269.649	1.4
270.029	2.65
270.408	1.76
270.787	2.37
271.167	2.07
271.546	2.2
271.925	2.28
272.304	2.08
272.683	2.26
273.062	2.17
273.441	1.71
273.82	1.62
274.199	2.21
274.578	1.73
274.957	2.11
275.336	2.18
275.715	2.09
276.093	1.89
276.472	1.96
276.851	2.61
277.229	1.88
277.608	1.76
277.986	1.94
278.365	2.47
278.743	2.35
279.122	2
279.5	2.37
279.878	2.11
280.257	2.02
280.635	2.66
281.013	2.49
281.391	2.13
281.769	2.47
282.147	1.77
282.525	2.13
282.903	1.74
283.281	1.85
283.659	1.87
284.037	2.34
284.415	2.47
284.792	2.34
285.17	1.94
285.548	2.26
285.925	2.05
286.303	1.64
286.68	1.54
287.058	1.82
287.435	1.87
287.813	1.95
288.19	2.16
288.567	1.83
288.945	1.7
289.322	2.24
289.699	2.01
290.076	2.06
290.453	2.47
290.83	2.07
291.207	1.67
291.584	2
291.961	2.03
292.338	2.74
292.715	2.77
293.092	2.04
293.469	2.43
293.845	2.67
294.222	2.44
294.599	2.41
294.975	2.8
295.352	2.77
295.728	2.87
296.105	2.17
296.481	2.44
296.858	2.64
297.234	2.82
297.61	2.76
297.986	2.07
298.363	2.55
298.739	2.21
299.115	2.31
299.491	2.75
299.867	2.74
300.243	2.57
300.619	2.58
300.995	3.01
301.371	2.83
301.746	2.7
302.122	2.69
302.498	2.2
302.874	2.95
303.249	3.05
303.625	3.12
304	3.2
304.376	2.91
304.751	3.15
305.127	2.87
305.502	3.51
305.878	3.49
306.253	3
306.628	2.66
307.003	3.43
307.378	3.54
307.754	3.57
308.129	3.31
308.504	3.33
308.879	3.38
309.254	3.65
309.629	3.76
310.003	3.24
310.378	2.99
310.753	3.13
311.128	3.49
311.502	3.91
311.877	3.92
312.252	3.88
312.626	4
313.001	3.62
313.375	3.93
313.75	4.07
314.124	4.07
314.498	3.81
314.873	4.32
315.247	3.86
315.621	4.85
315.995	4.63
316.369	4.27
316.743	4.74
317.117	5.11
317.491	5.06
317.865	5.5
318.239	5.31
318.613	4.84
318.987	4.89
319.361	4.12
319.734	4.98
320.108	5.32
320.482	4.07
320.855	5
321.229	5.63
321.602	4.94
321.976	4.7
322.349	5.36
322.723	4.98
323.096	5.28
323.469	5.3
323.843	5.23
324.216	5.49
324.589	6.24
324.962	6.05
325.335	5.54
325.708	5.55
326.081	5.96
326.454	5.74
326.827	5.86
327.2	6.2
327.573	5.51
327.945	5.98
328.318	5.59
328.691	6.09
329.063	5.87
329.436	6
329.809	6.54
330.181	6.39
330.553	6.15
330.926	6.47
331.298	5.72
331.671	6.68
332.043	6.16
332.415	6.65
332.787	6.26
333.159	6.42
333.532	7.13
333.904	6.43
334.276	6.98
334.648	6.39
335.02	6.86
335.391	6.93
335.763	6.95
336.135	7.13
336.507	7.19
336.879	6.63
337.25	6.51
337.622	7.02
337.993	6.65
338.365	7.22
338.736	7.2
339.108	7.3
339.479	7.66
339.851	6.74
340.222	7.86
340.593	7.25
340.964	7.74
341.336	7.7
341.707	7.27
342.078	7.35
342.449	7.78
342.82	7.21
343.191	7.57
343.562	7.81
343.933	7.96
344.303	7.73
344.674	7.85
345.045	7.45
345.416	8.12
345.786	8.23
346.157	8.08
346.527	7.83
346.898	8.25
347.268	7.7
347.639	7.93
348.009	8.27
348.38	8.52
348.75	8.77
349.12	8.66
349.49	9.14
349.861	8.05
350.231	8.11
350.601	8.61
350.971	7.97
351.341	8.51
351.711	8.38
352.081	8.59
352.45	8.97
352.82	9.08
353.19	9.17
353.56	8.88
353.929	8.69
354.299	9.26
354.669	8.77
355.038	9
355.408	8.85
355.777	9.01
356.147	9.09
356.516	9.19
356.885	8.7
357.254	9.31
357.624	9.21
357.993	8.89
358.362	9.24
358.731	9.37
359.1	9.13
359.469	9.37
359.838	9.37
360.207	9.4
360.576	9.47
360.945	9.77
361.314	9.4
361.682	9.56
362.051	9.54
362.42	9.53
362.788	9.44
363.157	9.6
363.525	9.39
363.894	9.68
364.262	9.88
364.631	10.17
364.999	10
365.367	10.04
365.735	10.25
366.104	10.19
366.472	10.35
366.84	10.44
367.208	10.31
367.576	10.85
367.944	10.39
368.312	10.06
368.68	10.13
369.048	10.12
369.416	10.59
369.783	10.68
370.151	10.6
370.519	11.03
370.886	11.06
371.254	10.63
371.621	11.14
371.989	10.77
372.356	10.78
372.724	11.32
373.091	11.06
373.458	10.84
373.826	11.38
374.193	11.36
374.56	11.37
374.927	11.72
375.294	11.67
375.661	11.12
376.028	11.27
376.395	11.35
376.762	11.57
377.129	12
377.496	11.82
377.863	11.25
378.229	11.81
378.596	11.66
378.963	11.63
379.329	11.76
379.696	11.88
380.062	12.03
380.429	11.82
380.795	11.73
381.161	11.98
381.528	12.12
381.894	12.19
382.26	12.2
382.626	12.06
382.993	12.37
383.359	12.07
383.725	12.23
384.091	12.07
384.457	12.47
384.823	12.41
385.188	12.53
385.554	12.7
385.92	12.72
386.286	12.9
386.651	12.6
387.017	12.78
387.383	12.56
387.748	12.46
388.114	12.83
388.479	12.84
388.845	12.57
389.21	12.97
389.575	13.12
389.94	13.2
390.306	13.23
390.671	13.1
391.036	13.2
391.401	13.4
391.766	13.3
392.131	13.11
392.496	13.27
392.861	13.51
393.226	13.38
393.591	13.31
393.956	13.6
394.32	13.8
394.685	13.81
395.05	13.71
395.414	13.29
395.779	13.6
396.143	13.85
396.508	13.66
396.872	14.01
397.236	14.01
397.601	14.07
397.965	14.22
398.329	14.12
398.694	14.46
399.058	14.27
399.422	14.4
399.786	14.23
400.15	14.34
400.514	13.9
400.878	14.31
401.242	14.38
401.605	14.4
401.969	14.6
402.333	14.65
402.697	14.75
403.06	14.61
403.424	14.71
403.787	14.81
404.151	14.86
404.514	14.98
404.878	14.7
405.241	14.97
405.604	14.67
405.968	14.86
406.331	14.73
406.694	14.94
407.057	14.74
407.42	15.2
407.783	15.09
408.146	14.89
408.509	15.4
408.872	15.49
409.235	15.41
409.598	15.51
409.961	15.61
410.323	15.63
410.686	15.61
411.049	15.33
411.411	15.47
411.774	15.56
412.136	15.86
412.499	15.54
412.861	15.88
413.223	15.48
413.586	15.69
413.948	15.85
414.31	16.17
414.672	15.91
415.035	16.08
415.397	16.09
415.759	15.97
416.121	16.23
416.483	16.07
416.845	16.01
417.206	16.2
417.568	16.17
417.93	16.19
418.292	16.06
418.653	15.99
419.015	16.29
419.377	16.09
419.738	15.92
420.1	16.27
420.461	16.28
420.822	16.24
421.184	16.21
421.545	16.1
421.906	16.12
422.267	16.16
422.629	16.12
422.99	16.32
423.351	16.33
423.712	16.42
424.073	16.49
424.434	16.67
424.795	16.7
425.155	16.58
425.516	16.49
425.877	16.52
426.238	16.68
426.598	16.74
426.959	16.91
427.32	17.11
427.68	17.2
428.041	17.36
428.401	17.45
428.761	17.64
429.122	17.66
429.482	17.81
429.842	17.88
430.202	17.75
430.563	17.72
430.923	17.92
431.283	17.59
431.643	18.06
432.003	17.88
432.363	18
432.722	17.97
433.082	18.2
433.442	18.04
433.802	18.24
434.161	17.95
434.521	17.9
434.881	17.85
435.24	17.99
435.6	18.22
435.959	18.14
436.319	18.42
436.678	18.47
437.037	18.65
437.396	18.72
437.756	18.51
438.115	18.57
438.474	18.78
438.833	18.98
439.192	18.75
439.551	18.72
439.91	18.59
440.269	18.55
440.628	18.7
440.987	18.72
441.345	18.67
441.704	18.63
442.063	18.78
442.421	18.71
442.78	18.71
443.138	18.88
443.497	19.18
443.855	19.41
444.214	19.16
444.572	19.18
444.93	19.35
445.288	19.61
445.647	19.37
446.005	19.34
446.363	19.3
446.721	19.27
447.079	19.22
447.437	19.2
447.795	19.08
448.153	19.07
448.51	19.13
448.868	19.34
449.226	19.46
449.584	19.63
449.941	19.72
450.299	19.98
450.656	20.02
451.014	20.28
451.371	20.31
451.729	20.39
452.086	20.29
452.443	20.53
452.801	20.34
453.158	20.54
453.515	20.09
453.872	20.23
454.229	20.44
454.586	20.56
454.943	20.41
455.3	20.55
455.657	20.71
456.014	20.61
456.371	20.74
456.727	20.6
457.084	20.69
457.441	21.08
457.797	20.87
458.154	20.78
458.51	21.17
458.867	21.07
459.223	20.89
459.58	21.05
459.936	21
460.292	20.77
460.648	20.83
461.005	20.74
461.361	20.49
461.717	20.56
462.073	20.58
462.429	21.07
462.785	21.25
463.141	21.47
463.496	21.46
463.852	21.53
464.208	21.89
464.564	21.66
464.919	21.87
465.275	21.93
465.631	21.93
465.986	21.89
466.342	21.95
466.697	21.92
467.052	21.99
467.408	21.93
467.763	22.04
468.118	22.08
468.473	21.95
468.829	22.02
469.184	22.19
469.539	22.34
469.894	22.32
470.249	22.52
470.603	22.42
470.958	22.3
471.313	22.51
471.668	22.44
472.023	22.53
472.377	22.62
472.732	22.62
473.086	22.4
473.441	22.83
473.795	22.66
474.15	22.55
474.504	22.72
474.859	22.62
475.213	22.88
475.567	23.03
475.921	23.07
476.275	23
476.63	23.05
476.984	22.87
477.338	23.08
477.692	23.02
478.045	23.13
478.399	23.06
478.753	23.1
479.107	22.97
479.461	23.09
479.814	23.08
480.168	23.15
480.521	23.13
480.875	23.32
481.228	23.3
481.582	23.33
481.935	23.39
482.289	23.26
482.642	23.19
482.995	23.18
483.348	23
483.701	23.02
484.055	23.12
484.408	22.75
484.761	22.26
485.114	21.85
485.466	21.67
485.819	21.88
486.172	22.37
486.525	22.79
486.878	23.05
487.23	23.08
487.583	23.1
487.936	23.11
488.288	22.81
488.641	22.47
488.993	22.45
489.345	22.5
489.698	22.68
490.05	22.86
490.402	23.08
490.754	23.55
491.107	23.58
491.459	23.81
491.811	23.92
492.163	23.74
492.515	23.49
492.866	23.02
493.218	22.75
493.57	22.96
493.922	23.32
494.274	23.79
494.625	24.16
494.977	24.41
495.328	24.48
495.68	24.58
496.031	24.69
496.383	24.72
496.734	24.97
497.086	24.78
497.437	24.91
497.788	24.62
498.139	24.41
498.49	24.25
498.842	24.33
499.193	24.59
499.544	24.79
499.894	24.75
500.245	24.74
500.596	24.97
500.947	24.97
501.298	25.16
501.648	24.95
501.999	25.23
502.35	25.53
502.7	25.45
503.051	25.27
503.401	25.44
503.752	25.24
504.102	25.75
504.452	25.35
504.803	25.57
505.153	25.6
505.503	25.59
505.853	25.4
506.203	25.29
506.553	25.63
506.903	25.65
507.253	25.72
507.603	25.69
507.953	25.79
508.303	25.82
508.652	25.79
509.002	25.61
509.352	25.77
509.701	25.49
510.051	25.6
510.4	25.43
510.75	25.47
511.099	25.47
511.449	25.52
511.798	25.69
512.147	25.58
512.496	25.89
512.846	25.83
513.195	25.83
513.544	25.86
513.893	25.89
514.242	25.86
514.591	26.01
514.939	25.99
515.288	26.13
515.637	26.14
515.986	26.29
516.334	26.43
516.683	26.39
517.032	26.38
517.38	26.37
517.729	26.65
518.077	26.4
518.426	26.36
518.774	26.36
519.122	26
519.47	25.98
519.819	25.94
520.167	25.74
520.515	25.7
520.863	25.88
521.211	26.18
521.559	26.29
521.907	26.43
522.255	26.42
522.602	26.55
522.95	26.59
523.298	26.79
523.645	26.83
523.993	27
524.341	26.94
524.688	26.69
525.036	26.65
525.383	26.78
525.73	26.86
526.078	26.9
526.425	26.54
526.772	26.43
527.119	26.01
527.466	26.01
527.814	26.23
528.161	26.32
528.508	26.46
528.854	26.42
529.201	26.13
529.548	25.86
529.895	25.43
530.242	25.16
530.588	25.4
530.935	25.84
531.282	26.3
531.628	26.45
531.975	26.62
532.321	26.65
532.667	26.74
533.014	26.88
533.36	26.87
533.706	26.74
534.052	26.68
534.399	26.4
534.745	25.95
535.091	25.99
535.437	26.3
535.783	26.67
536.129	27.05
536.474	27.33
536.82	27.31
537.166	27.34
537.512	27.31
537.857	27.04
538.203	26.69
538.549	26.67
538.894	27.1
539.239	27.24
539.585	27.5
539.93	27.65
540.276	27.87
540.621	28.03
540.966	27.84
541.311	27.85
541.656	27.66
542.001	27.29
542.346	26.85
542.691	26.36
543.036	26.24
543.381	26.54
543.726	26.87
544.071	27.29
544.415	27.32
544.76	27.43
545.105	27.41
545.449	27.64
545.794	27.98
546.138	27.89
546.483	28.06
546.827	27.97
547.171	27.73
547.516	27.87
547.86	27.77
548.204	27.75
548.548	27.73
548.892	27.97
549.236	28.14
549.58	28.36
549.924	28.56
550.268	28.8
550.612	28.74
550.956	28.81
551.3	28.84
551.643	28.89
551.987	28.76
552.33	28.94
552.674	28.88
553.017	28.88
553.361	28.88
553.704	28.96
554.048	28.57
554.391	28.56
554.734	28.54
555.077	28.74
555.42	28.95
555.764	29.04
556.107	29.14
556.45	29.19
556.793	29.27
557.135	29.34
557.478	29.36
557.821	29.54
558.164	29.43
558.507	29.75
558.849	29.28
559.192	29.29
559.534	29.46
559.877	29.34
560.219	29.75
560.562	29.64
560.904	29.37
561.246	29.6
561.589	29.5
561.931	29.73
562.273	29.7
562.615	29.4
562.957	29.35
563.299	29.66
563.641	29.48
563.983	29.46
564.325	29.8
564.667	29.7
565.008	29.59
565.35	29.84
565.692	29.91
566.033	29.73
566.375	29.61
566.716	29.78
567.058	29.45
567.399	29.4
567.741	29.28
568.082	29.41
568.423	29.47
568.764	29.71
569.105	29.68
569.447	29.72
569.788	29.97
570.129	29.92
570.47	29.66
570.811	29.6
571.151	29.81
571.492	29.86
571.833	29.92
572.174	29.8
572.514	29.74
572.855	29.89
573.195	29.55
573.536	29.75
573.876	29.66
574.217	29.61
574.557	29.81
574.898	30.01
575.238	30.13
575.578	30.09
575.918	30.07
576.258	30.05
576.598	30.12
576.938	29.85
577.278	30.18
577.618	30.14
577.958	30.13
578.298	30.39
578.638	30.52
578.977	30.31
579.317	30.29
579.657	30.42
579.996	30.39
580.336	30.61
580.675	30.73
581.014	30.65
581.354	30.73
581.693	30.6
582.032	30.79
582.372	30.73
582.711	30.76
583.05	30.9
583.389	30.7
583.728	30.78
584.067	30.94
584.406	30.82
584.745	31.02
585.083	30.72
585.422	31.2
585.761	31.04
586.1	31.03
586.438	31.3
586.777	31.21
587.115	31.17
587.454	31.24
587.792	31.08
588.13	31.05
588.469	31.15
588.807	31.22
589.145	31.31
589.483	31.46
589.821	31.13
590.159	31.29
590.497	31.27
590.835	31.31
591.173	30.95
591.511	31.32
591.849	31.11
592.187	31.11
592.524	31.23
592.862	31.31
593.2	31.24
593.537	31.25
593.875	31.17
594.212	31.32
594.55	31.62
594.887	31.64
595.224	31.47
595.561	31.39
595.899	31.25
596.236	31.5
596.573	31.11
596.91	31.37
597.247	31.05
597.584	31.12
597.921	31.27
598.258	30.62
598.594	30.64
598.931	30.7
599.268	30.75
599.604	31.43
599.941	31.45
600.277	31.5
600.614	31.82
600.95	31.97
601.287	31.85
601.623	31.63
601.959	31.67
602.296	31.94
602.632	31.52
602.968	31.79
603.304	31.83
603.64	31.91
603.976	31.67
604.312	31.55
604.648	31.54
604.984	31.62
605.319	31.43
605.655	31.3
605.991	31.36
606.326	31.05
606.662	31.23
606.998	31.34
607.333	31.4
607.668	31.73
608.004	31.97
608.339	32.34
608.674	32.26
609.01	31.86
609.345	32.16
609.68	31.92
610.015	32.24
610.35	31.83
610.685	31.37
611.02	31.38
611.355	31.54
611.689	31.67
612.024	31.86
612.359	31.65
612.694	32.05
613.028	32.4
613.363	31.97
613.697	32.28
614.032	32.56
614.366	32.17
614.7	32.34
615.035	32.39
615.369	32.31
615.703	32.56
616.037	32.44
616.371	32.47
616.705	32.55
617.039	32.77
617.373	32.49
617.707	32.33
618.041	32.63
618.375	32.56
618.709	32.41
619.042	32.83
619.376	33.03
619.71	32.84
620.043	33.01
620.377	32.66
620.71	32.51
621.043	33.16
621.377	32.46
621.71	32.81
622.043	32.8
622.376	32.69
622.709	33.09
623.043	32.84
623.376	32.95
623.709	33.05
624.041	33.11
624.374	32.53
624.707	32.78
625.04	33.08
625.373	32.72
625.705	32.81
626.038	32.6
626.37	33.04
626.703	33.2
627.035	32.75
627.368	32.4
627.7	32.66
628.032	32.61
628.365	32.47
628.697	32.89
629.029	32.61
629.361	32.94
629.693	32.87
630.025	33.21
630.357	32.85
630.689	32.99
631.021	32.85
631.353	33.22
631.684	33.03
632.016	33.12
632.348	33.18
632.679	32.89
633.011	33.29
633.342	33.26
633.674	32.85
634.005	33
634.336	32.98
634.668	33.28
634.999	33.39
635.33	33.27
635.661	32.84
635.992	32.75
636.323	33.25
636.654	33.26
636.985	33.23
637.316	33.4
637.647	33.25
637.977	33.6
638.308	33.11
638.639	32.86
638.969	33.56
639.3	33.2
639.63	33.33
639.961	33.87
640.291	33.07
640.622	33.34
640.952	33.75
641.282	33.34
641.612	33.59
641.943	33.93
642.273	33.61
642.603	34.01
642.933	33.94
643.263	33.67
643.592	33.57
643.922	33.42
644.252	34.13
644.582	33.74
644.911	33.47
645.241	33.96
645.571	33.67
645.9	33.67
646.23	33.4
646.559	33.47
646.888	33.87
647.218	33.32
647.547	33.41
647.876	33.48
648.205	33.58
648.534	33.16
648.863	33.95
649.192	33.97
649.521	33.86
649.85	33.76
650.179	33.85
650.508	33.56
650.837	34.59
651.165	33.77
651.494	33.65
651.822	34.41
652.151	34.28
652.479	33.84
652.808	34.15
653.136	33.9
653.465	34.01
653.793	33.37
654.121	33.59
654.449	34.25
654.777	33.74
655.105	34.17
655.433	34.39
655.761	34.53
656.089	34.42
656.417	33.7
656.745	33.5
657.073	34.07
657.4	34.39
657.728	34.08
658.056	33.78
658.383	34.23
658.711	34.23
659.038	33.47
659.365	34.13
659.693	34.14
660.02	33.5
660.347	33.78
660.674	34.13
661.001	33.48
661.329	33.57
661.656	33.64
661.982	34.11
662.309	34.2
662.636	34.3
662.963	34.39
663.29	34.03
663.616	34.23
663.943	34.44
664.27	34.23
664.596	33.92
664.923	34.47
665.249	34.92
665.576	34.51
665.902	34.23
666.228	34.63
666.554	34.34
666.881	34.82
667.207	34.14
667.533	34.25
667.859	34.68
668.185	34.38
668.511	35.5
668.837	34.57
669.162	34.91
669.488	34.57
669.814	34.54
670.139	34.49
670.465	34.77
670.791	34.47
671.116	33.94
671.442	34.26
671.767	34.47
672.092	34.37
672.418	34.06
