Data from 1897-2_forehead_Reflection__3__09.txt Node

Date: Fri Sep 30 17:47:37 CDT 2022
User: ToomeyLab
Spectrometer: FLMS14357
Trigger mode: 0
Integration Time (sec): 1.000000E-2
Scans to average: 100
Electric dark correction enabled: true
Nonlinearity correction enabled: false
Boxcar width: 0
XAxis mode: Wavelengths
Number of Pixels in Spectrum: 2048
>>>>>Begin Spectral Data<<<<<
189.047	-7.1
189.435	-7.1
189.823	-7.1
190.211	-129.27
190.599	13.48
190.987	248.99
191.375	-130.81
191.763	-36.17
192.151	285.52
192.538	57.15
192.926	44.35
193.314	110.73
193.702	22.77
194.089	-31.66
194.477	-53.74
194.864	107.17
195.252	-985.17
195.639	-94.47
196.027	120.1
196.414	96.86
196.801	85.06
197.189	198.01
197.576	-51.46
197.963	-39.78
198.351	22.43
198.738	16.04
199.125	46.42
199.512	34.06
199.899	56.83
200.286	27.88
200.673	33.3
201.06	26.19
201.447	41.09
201.833	59.06
202.22	31.56
202.607	37.58
202.994	50.88
203.38	17.89
203.767	30.21
204.154	48.94
204.54	29.28
204.927	32.8
205.313	-38.89
205.699	41.24
206.086	-46.44
206.472	-15.28
206.858	38.48
207.245	49.33
207.631	-26.86
208.017	19.68
208.403	56.87
208.789	27.86
209.175	39.8
209.561	-4.99
209.947	11.4
210.333	21.89
210.719	31.78
211.105	0.83
211.491	27.97
211.876	59.72
212.262	44.29
212.648	57.08
213.034	19.02
213.419	20.93
213.805	16.89
214.19	35.06
214.576	2.8
214.961	25.22
215.346	13.65
215.732	30.61
216.117	26.48
216.502	33.71
216.888	47.37
217.273	10.95
217.658	20.23
218.043	23.52
218.428	7.89
218.813	34.13
219.198	17.94
219.583	14.04
219.968	25.91
220.353	14.53
220.738	22.48
221.122	18
221.507	22.3
221.892	27.12
222.276	1.85
222.661	20.03
223.046	17.51
223.43	2.4
223.815	4.49
224.199	7.26
224.583	3.75
224.968	4.18
225.352	8.29
225.736	15.03
226.121	19.75
226.505	15.13
226.889	4.3
227.273	-2.91
227.657	14.11
228.041	11.45
228.425	7
228.809	7.17
229.193	8.18
229.577	3.13
229.961	4.75
230.344	4.07
230.728	4.25
231.112	4.32
231.495	4.4
231.879	5.21
232.263	4.92
232.646	4.95
233.03	5.83
233.413	3.04
233.797	5.35
234.18	4.42
234.563	4.98
234.946	5.93
235.33	1.66
235.713	6.67
236.096	5.63
236.479	5.8
236.862	5.04
237.245	5.1
237.628	4.95
238.011	6.38
238.394	4.05
238.777	3.04
239.16	6.25
239.543	4.31
239.925	5.35
240.308	3.31
240.691	6.34
241.073	5.82
241.456	6.97
241.838	4.07
242.221	4.95
242.603	5.54
242.986	5.62
243.368	3.16
243.75	4.54
244.133	4.64
244.515	4.25
244.897	4.58
245.279	4.94
245.661	4.46
246.043	4.04
246.425	3.99
246.807	5.37
247.189	5.08
247.571	4.67
247.953	4.69
248.335	4.61
248.717	4.21
249.098	4.5
249.48	4.43
249.862	4.65
250.243	4.21
250.625	4.9
251.006	4.29
251.388	3.96
251.769	5.21
252.151	5.14
252.532	4.43
252.913	4.78
253.295	4.99
253.676	4.23
254.057	4.94
254.438	4.42
254.819	5.48
255.2	5.91
255.581	5.3
255.962	5.15
256.343	4.73
256.724	5.63
257.105	5.42
257.486	5.84
257.867	5.77
258.247	5.44
258.628	5.32
259.009	5.84
259.389	4.32
259.77	5.46
260.15	4.31
260.531	5.22
260.911	4.75
261.292	4.11
261.672	4.27
262.052	4.31
262.432	4.44
262.813	4.87
263.193	4.91
263.573	4.32
263.953	4.39
264.333	5.32
264.713	4.49
265.093	4.63
265.473	4.87
265.853	4.37
266.233	3.98
266.612	4.84
266.992	3.67
267.372	3.3
267.752	3.96
268.131	4.48
268.511	4.32
268.89	4.42
269.27	4.86
269.649	4.75
270.029	4.99
270.408	4.12
270.787	3.78
271.167	4.6
271.546	4.88
271.925	5.09
272.304	4.93
272.683	4.15
273.062	4.85
273.441	4.1
273.82	3.79
274.199	4.47
274.578	3.87
274.957	4.41
275.336	4.68
275.715	4.57
276.093	4.87
276.472	4.75
276.851	4.37
277.229	4.59
277.608	4.34
277.986	4.63
278.365	5.13
278.743	4.18
279.122	4.79
279.5	4.81
279.878	4.38
280.257	5.08
280.635	5.06
281.013	5.28
281.391	5.14
281.769	4.71
282.147	4.21
282.525	4.1
282.903	4.75
283.281	3.96
283.659	4.4
284.037	4.2
284.415	4.58
284.792	4.56
285.17	3.93
285.548	4.81
285.925	4.46
286.303	4.68
286.68	4.46
287.058	4.28
287.435	4.89
287.813	4.67
288.19	4.73
288.567	4.54
288.945	4.28
289.322	4.01
289.699	4.71
290.076	4.32
290.453	4.72
290.83	4.95
291.207	4.53
291.584	4.72
291.961	4.49
292.338	4.6
292.715	4.89
293.092	5.07
293.469	5.09
293.845	5.11
294.222	5.38
294.599	5.53
294.975	5.41
295.352	5.45
295.728	4.85
296.105	5.21
296.481	5.36
296.858	5.45
297.234	5.63
297.61	5.23
297.986	5.27
298.363	5.35
298.739	4.77
299.115	5.29
299.491	5.7
299.867	5.57
300.243	5.37
300.619	5.56
300.995	5.89
301.371	5.55
301.746	5.64
302.122	6.32
302.498	6.14
302.874	6.11
303.249	5.72
303.625	6.26
304	6.78
304.376	6.13
304.751	6.47
305.127	6.58
305.502	6.77
305.878	6.67
306.253	6.39
306.628	6.94
307.003	6.46
307.378	6.8
307.754	6.69
308.129	6.91
308.504	6.7
308.879	7.05
309.254	7.36
309.629	7.22
310.003	7.23
310.378	7.37
310.753	7.22
311.128	7.27
311.502	7.41
311.877	7.85
312.252	7.61
312.626	7.95
313.001	7.29
313.375	7.64
313.75	8.14
314.124	8.06
314.498	7.88
314.873	7.95
315.247	8.19
315.621	8.58
315.995	8.25
316.369	8.03
316.743	8.76
317.117	9.1
317.491	9.64
317.865	9.47
318.239	8.52
318.613	9.58
318.987	8.98
319.361	8.87
319.734	9.34
320.108	9.59
320.482	9.7
320.855	10.15
321.229	9.48
321.602	9.55
321.976	10.17
322.349	9.23
322.723	9.93
323.096	10.07
323.469	10.26
323.843	10.15
324.216	10.19
324.589	10.28
324.962	10.58
325.335	10.42
325.708	9.91
326.081	10.57
326.454	10.62
326.827	10.54
327.2	10.43
327.573	9.77
327.945	10.82
328.318	10.61
328.691	10.91
329.063	10.48
329.436	11
329.809	11.73
330.181	11.41
330.553	10.89
330.926	11.9
331.298	10.92
331.671	11.32
332.043	11.85
332.415	11.29
332.787	11.8
333.159	11.64
333.532	12.06
333.904	11.8
334.276	11.75
334.648	11.9
335.02	11.95
335.391	12.29
335.763	12.3
336.135	12.02
336.507	12.24
336.879	11.82
337.25	11.54
337.622	12.32
337.993	12.22
338.365	12.05
338.736	12.82
339.108	12.51
339.479	12.6
339.851	11.6
340.222	12.89
340.593	12.7
340.964	12.52
341.336	13.41
341.707	12.9
342.078	13.52
342.449	13
342.82	12.76
343.191	13.46
343.562	13.33
343.933	12.93
344.303	13.32
344.674	13.17
345.045	12.74
345.416	13.93
345.786	13.14
346.157	14.02
346.527	13.46
346.898	13.85
347.268	13.26
347.639	13.48
348.009	13.79
348.38	14.26
348.75	14.52
349.12	14.29
349.49	14.35
349.861	13.98
350.231	14.45
350.601	14.31
350.971	14.58
351.341	14.34
351.711	14.46
352.081	14.2
352.45	14.48
352.82	14.7
353.19	14.79
353.56	14.94
353.929	14.74
354.299	14.61
354.669	14.45
355.038	14.81
355.408	15.25
355.777	14.89
356.147	14.9
356.516	15.16
356.885	14.57
357.254	15.15
357.624	14.93
357.993	14.43
358.362	15.06
358.731	14.95
359.1	15.47
359.469	14.94
359.838	15.7
360.207	15.76
360.576	15.75
360.945	15.96
361.314	15.72
361.682	15.8
362.051	15.8
362.42	15.93
362.788	15.56
363.157	15.65
363.525	15.41
363.894	15.76
364.262	15.88
364.631	16.43
364.999	16.18
365.367	16.36
365.735	15.99
366.104	15.72
366.472	16.89
366.84	16.79
367.208	16.52
367.576	17.28
367.944	16.9
368.312	16.38
368.68	16.51
369.048	16.58
369.416	16.91
369.783	16.82
370.151	16.96
370.519	17.62
370.886	17.32
371.254	17.14
371.621	17.26
371.989	17.33
372.356	17.41
372.724	17.43
373.091	17.3
373.458	17.38
373.826	17.51
374.193	17.9
374.56	17.81
374.927	17.9
375.294	17.84
375.661	17.58
376.028	17.9
376.395	18.04
376.762	18.02
377.129	18.2
377.496	18.42
377.863	18.09
378.229	18.21
378.596	18.25
378.963	18.72
379.329	18.09
379.696	18.66
380.062	18.45
380.429	18.61
380.795	18.34
381.161	18.64
381.528	18.66
381.894	18.37
382.26	18.84
382.626	18.88
382.993	18.66
383.359	19.24
383.725	18.77
384.091	19.01
384.457	19.24
384.823	19.2
385.188	19.34
385.554	19.56
385.92	19.89
386.286	19.41
386.651	19.51
387.017	19.56
387.383	19.47
387.748	19.46
388.114	19.95
388.479	20.13
388.845	19.52
389.21	19.54
389.575	20.04
389.94	20.07
390.306	20.08
390.671	19.92
391.036	20.17
391.401	20.29
391.766	20.48
392.131	20.07
392.496	20.06
392.861	20.16
393.226	20.22
393.591	20.29
393.956	20.47
394.32	20.46
394.685	20.64
395.05	20.77
395.414	20.59
395.779	20.58
396.143	20.99
396.508	20.69
396.872	20.81
397.236	21
397.601	21.13
397.965	21.1
398.329	21.25
398.694	21.33
399.058	21.21
399.422	21.6
399.786	21.06
400.15	21.38
400.514	21.36
400.878	21.4
401.242	21.35
401.605	21.54
401.969	21.57
402.333	21.67
402.697	21.68
403.06	21.97
403.424	21.97
403.787	22.2
404.151	22.11
404.514	21.99
404.878	22.09
405.241	21.95
405.604	21.93
405.968	22.09
406.331	22.01
406.694	21.94
407.057	22.08
407.42	22.45
407.783	22.37
408.146	22.28
408.509	22.66
408.872	22.83
409.235	22.69
409.598	22.57
409.961	22.75
410.323	22.85
410.686	22.83
411.049	22.78
411.411	22.84
411.774	22.96
412.136	22.85
412.499	23.04
412.861	22.87
413.223	22.9
413.586	23.34
413.948	23.39
414.31	23.35
414.672	23.15
415.035	23.39
415.397	23.7
415.759	23.59
416.121	23.65
416.483	23.7
416.845	23.7
417.206	23.74
417.568	23.55
417.93	23.6
418.292	23.61
418.653	23.44
419.015	23.72
419.377	23.6
419.738	23.34
420.1	23.6
420.461	23.5
420.822	23.61
421.184	23.6
421.545	23.55
421.906	23.56
422.267	23.56
422.629	23.72
422.99	23.6
423.351	23.71
423.712	23.82
424.073	23.88
424.434	24.01
424.795	24.07
425.155	23.97
425.516	23.87
425.877	24.03
426.238	24.07
426.598	24.2
426.959	24.36
427.32	24.54
427.68	24.48
428.041	24.72
428.401	24.85
428.761	25.2
429.122	25.09
429.482	25.21
429.842	25.28
430.202	25.42
430.563	25.3
430.923	25.35
431.283	25.23
431.643	25.45
432.003	25.65
432.363	25.47
432.722	25.86
433.082	25.63
433.442	25.54
433.802	25.68
434.161	25.58
434.521	25.55
434.881	25.41
435.24	25.32
435.6	25.69
435.959	25.71
436.319	25.84
436.678	25.9
437.037	26.32
437.396	26.32
437.756	26.19
438.115	25.97
438.474	26.32
438.833	26.39
439.192	26.44
439.551	26.27
439.91	26.27
440.269	26.1
440.628	26.4
440.987	26.39
441.345	26.34
441.704	26.13
442.063	26.38
442.421	26.3
442.78	26.3
443.138	26.37
443.497	26.76
443.855	26.92
444.214	27.03
444.572	26.96
444.93	27.01
445.288	27.03
445.647	27.16
446.005	27.04
446.363	26.93
446.721	26.83
447.079	26.81
447.437	26.7
447.795	26.6
448.153	26.69
448.51	26.74
448.868	26.93
449.226	27.16
449.584	27.3
449.941	27.4
450.299	27.63
450.656	27.64
451.014	27.68
451.371	27.89
451.729	27.98
452.086	28.12
452.443	28.12
452.801	28.06
453.158	28.17
453.515	28.17
453.872	28.04
454.229	28.23
454.586	28.33
454.943	28.27
455.3	28.28
455.657	28.53
456.014	28.28
456.371	28.4
456.727	28.37
457.084	28.38
457.441	28.49
457.797	28.75
458.154	28.67
458.51	28.69
458.867	28.7
459.223	28.97
459.58	28.86
459.936	28.78
460.292	28.64
460.648	28.57
461.005	28.36
461.361	28.22
461.717	28.31
462.073	28.56
462.429	28.71
462.785	29.03
463.141	29.17
463.496	29.11
463.852	29.48
464.208	29.62
464.564	29.25
464.919	29.53
465.275	29.64
465.631	29.55
465.986	29.59
466.342	29.75
466.697	29.63
467.052	29.75
467.408	29.84
467.763	29.85
468.118	29.7
468.473	29.81
468.829	29.62
469.184	29.74
469.539	29.89
469.894	30.05
470.249	30.09
470.603	30.14
470.958	30.17
471.313	30.05
471.668	30.07
472.023	30.12
472.377	30.49
472.732	30.14
473.086	30.37
473.441	30.4
473.795	30.32
474.15	30.67
474.504	30.43
474.859	30.55
475.213	30.65
475.567	30.92
475.921	30.89
476.275	30.84
476.63	30.89
476.984	30.96
477.338	30.82
477.692	31.01
478.045	30.82
478.399	30.97
478.753	30.98
479.107	31.04
479.461	30.86
479.814	30.96
480.168	31.02
480.521	31.23
480.875	31.31
481.228	31.1
481.582	31.06
481.935	31.25
482.289	31.1
482.642	31.05
482.995	31.03
483.348	31.1
483.701	31.11
484.055	30.99
484.408	30.62
484.761	30.49
485.114	29.98
485.466	29.88
485.819	30.13
486.172	30.34
486.525	30.64
486.878	30.76
487.23	30.96
487.583	31.06
487.936	31.21
488.288	30.98
488.641	30.7
488.993	30.53
489.345	30.55
489.698	30.81
490.05	30.88
490.402	31.07
490.754	31.36
491.107	31.63
491.459	31.74
491.811	31.83
492.163	31.8
492.515	31.61
492.866	31.14
493.218	30.95
493.57	31.08
493.922	31.35
494.274	31.71
494.625	32.08
494.977	32.15
495.328	32.42
495.68	32.33
496.031	32.54
496.383	32.64
496.734	32.86
497.086	32.85
497.437	32.77
497.788	32.66
498.139	32.36
498.49	32.35
498.842	32.46
499.193	32.67
499.544	32.64
499.894	32.87
500.245	32.9
500.596	32.85
500.947	33.05
501.298	33.28
501.648	33.15
501.999	33.21
502.35	33.41
502.7	33.24
503.051	33.28
503.401	33.5
503.752	33.44
504.102	33.72
504.452	33.78
504.803	33.62
505.153	33.78
505.503	33.62
505.853	33.65
506.203	33.49
506.553	33.83
506.903	33.73
507.253	33.78
507.603	33.87
507.953	33.97
508.303	33.89
508.652	33.75
509.002	33.92
509.352	33.83
509.701	33.83
510.051	33.79
510.4	33.69
510.75	33.71
511.099	33.53
511.449	33.94
511.798	33.85
512.147	33.94
512.496	34.12
512.846	34.07
513.195	34.18
513.544	34.08
513.893	34.02
514.242	34.01
514.591	34.19
514.939	34.47
515.288	34.45
515.637	34.4
515.986	34.52
516.334	34.55
516.683	34.55
517.032	34.83
517.38	34.83
517.729	34.74
518.077	34.67
518.426	34.92
518.774	34.74
519.122	34.59
519.47	34.52
519.819	34.26
520.167	34.07
520.515	34.23
520.863	34.37
521.211	34.49
521.559	34.63
521.907	34.73
522.255	34.67
522.602	35.07
522.95	35.02
523.298	35.26
523.645	35.11
523.993	35.21
524.341	35.35
524.688	35.35
525.036	35.22
525.383	35.25
525.73	35.4
526.078	35.35
526.425	35.07
526.772	34.79
527.119	34.66
527.466	34.67
527.814	34.94
528.161	34.83
528.508	35.09
528.854	35.08
529.201	34.94
529.548	34.68
529.895	34.25
530.242	34.05
530.588	34.3
530.935	34.64
531.282	34.57
531.628	34.86
531.975	35.06
532.321	35.31
532.667	35.49
533.014	35.46
533.36	35.39
533.706	35.44
534.052	35.58
534.399	35.31
534.745	34.91
535.091	34.9
535.437	35.19
535.783	35.45
536.129	35.67
536.474	35.9
536.82	35.95
537.166	36.11
537.512	36.05
537.857	35.86
538.203	35.53
538.549	35.65
538.894	35.96
539.239	35.99
539.585	36.23
539.93	36.39
540.276	36.56
540.621	36.58
540.966	36.49
541.311	36.65
541.656	36.51
542.001	36.38
542.346	35.91
542.691	35.37
543.036	35.22
543.381	35.64
543.726	35.66
544.071	35.94
544.415	36.11
544.76	36.26
545.105	36.27
545.449	36.56
545.794	36.74
546.138	36.81
546.483	36.76
546.827	36.82
547.171	36.67
547.516	36.71
547.86	36.79
548.204	36.57
548.548	36.64
548.892	36.91
549.236	36.81
549.58	37.27
549.924	37.25
550.268	37.49
550.612	37.6
550.956	37.86
551.3	37.48
551.643	37.85
551.987	37.7
552.33	37.64
552.674	37.67
553.017	37.71
553.361	37.62
553.704	37.97
554.048	37.7
554.391	37.54
554.734	37.68
555.077	37.81
555.42	38.07
555.764	37.85
556.107	37.96
556.45	38.12
556.793	38.34
557.135	38.39
557.478	38.26
557.821	38.39
558.164	38.33
558.507	38.47
558.849	38.23
559.192	38.3
559.534	38.32
559.877	38.46
560.219	38.54
560.562	38.56
560.904	38.42
561.246	38.75
561.589	38.49
561.931	38.69
562.273	38.58
562.615	38.51
562.957	38.46
563.299	38.56
563.641	38.5
563.983	38.69
564.325	38.65
564.667	39.09
565.008	38.73
565.35	38.83
565.692	39.09
566.033	38.8
566.375	38.6
566.716	38.92
567.058	38.85
567.399	38.69
567.741	38.62
568.082	38.77
568.423	38.91
568.764	38.86
569.105	38.82
569.447	38.86
569.788	39.32
570.129	38.85
570.47	39.04
570.811	39.12
571.151	39.19
571.492	39.33
571.833	39.3
572.174	39.12
572.514	39.08
572.855	39.01
573.195	38.98
573.536	38.96
573.876	39.16
574.217	39.17
574.557	39.51
574.898	39.5
575.238	39.51
575.578	39.62
575.918	39.49
576.258	39.85
576.598	39.56
576.938	39.56
577.278	39.53
577.618	39.76
577.958	39.49
578.298	39.84
578.638	39.98
578.977	39.87
579.317	39.89
579.657	40.15
579.996	39.84
580.336	39.86
580.675	40.29
581.014	40.07
581.354	40.21
581.693	40.3
582.032	40.12
582.372	40.22
582.711	40.25
583.05	40.18
583.389	40.34
583.728	40.39
584.067	40.7
584.406	40.28
584.745	40.3
585.083	40.54
585.422	40.55
585.761	40.4
586.1	40.47
586.438	40.9
586.777	40.69
587.115	40.65
587.454	40.54
587.792	40.66
588.13	40.77
588.469	40.66
588.807	41.08
589.145	40.72
589.483	40.85
589.821	40.68
590.159	40.99
590.497	40.58
590.835	40.78
591.173	40.79
591.511	40.93
591.849	40.74
592.187	40.68
592.524	40.97
592.862	41.25
593.2	41.17
593.537	41.1
593.875	41.1
594.212	41.1
594.55	41.5
594.887	41.23
595.224	41.07
595.561	40.98
595.899	41.26
596.236	41.37
596.573	40.98
596.91	41.28
597.247	41.11
597.584	40.87
597.921	41.19
598.258	41.04
598.594	40.78
598.931	41.03
599.268	40.94
599.604	41.31
599.941	40.99
600.277	41.29
600.614	41.55
600.95	41.74
601.287	41.7
601.623	41.67
601.959	42.09
602.296	41.52
602.632	41.71
602.968	41.71
603.304	41.59
603.64	41.74
603.976	41.87
604.312	41.63
604.648	41.85
604.984	41.4
605.319	41.27
605.655	41.86
605.991	41.37
606.326	41.19
606.662	41.55
606.998	41.52
607.333	41.86
607.668	41.75
608.004	42.07
608.339	42.15
608.674	42.04
609.01	42.07
609.345	42.21
609.68	42.22
610.015	42.05
610.35	42.33
610.685	41.56
611.02	41.64
611.355	41.85
611.689	42.06
612.024	41.94
612.359	41.91
612.694	42.46
613.028	42.65
613.363	42.38
613.697	42.41
614.032	42.83
614.366	42.58
614.7	42.74
615.035	42.63
615.369	42.41
615.703	42.63
616.037	42.82
616.371	42.9
616.705	42.54
617.039	43.13
617.373	42.89
617.707	42.42
618.041	42.81
618.375	42.87
618.709	43.11
619.042	42.8
619.376	43.03
619.71	42.88
620.043	42.99
620.377	42.97
620.71	42.53
621.043	43.25
621.377	42.54
621.71	42.85
622.043	42.77
622.376	43.18
622.709	42.83
623.043	43.08
623.376	43.33
623.709	43.23
624.041	43.62
624.374	43.32
624.707	43.1
625.04	43.19
625.373	43.09
625.705	43.27
626.038	43.12
626.37	43.29
626.703	43.44
627.035	43.12
627.368	43.38
627.7	43.17
628.032	43.09
628.365	43.1
628.697	43.24
629.029	43.29
629.361	43.49
629.693	43.19
630.025	43.13
630.357	43.43
630.689	43.55
631.021	43.61
631.353	43.58
631.684	43.66
632.016	43.43
632.348	43.99
632.679	43.46
633.011	43.58
633.342	44.22
633.674	44.08
634.005	43.71
634.336	43.51
634.668	43.94
634.999	44.02
635.33	43.73
635.661	43.58
635.992	43.61
636.323	43.56
636.654	44.02
636.985	43.9
637.316	43.99
637.647	43.94
637.977	44.3
638.308	43.84
638.639	43.76
638.969	44.25
639.3	43.98
639.63	44.08
639.961	44
640.291	44.33
640.622	44.1
640.952	44.58
641.282	44.86
641.612	44.28
641.943	44.71
642.273	44.3
642.603	44.05
642.933	44.45
643.263	44.72
643.592	44.32
643.922	43.95
644.252	44.62
644.582	44.49
644.911	44.51
645.241	44.39
645.571	44.65
645.9	44.62
646.23	44.49
646.559	44.65
646.888	44.45
647.218	44.93
647.547	44.97
647.876	44.72
648.205	44.75
648.534	44.45
648.863	44.91
649.192	44.4
649.521	44.61
649.85	44.78
650.179	44.81
650.508	44.49
650.837	45.24
651.165	44.77
651.494	44.76
651.822	44.89
652.151	44.84
652.479	45.37
652.808	44.94
653.136	44.98
653.465	44.97
653.793	44.42
654.121	44.81
654.449	45.19
654.777	44.5
655.105	44.94
655.433	45.46
655.761	45.5
656.089	45.43
656.417	44.81
656.745	45.39
657.073	45.52
657.4	45.49
657.728	45.45
658.056	45.52
658.383	45.72
658.711	45.59
659.038	44.81
659.365	44.92
659.693	45.35
660.02	45.43
660.347	45.7
660.674	45.32
661.001	44.87
661.329	45.36
661.656	45.08
661.982	45.27
662.309	45.53
662.636	45.47
662.963	45.56
663.29	45.39
663.616	45.48
663.943	45.4
664.27	45.81
664.596	45.44
664.923	45.36
665.249	45.24
665.576	46.28
665.902	45.86
666.228	45.64
666.554	45.92
666.881	45.73
667.207	45.31
667.533	45.71
667.859	45.86
668.185	45.99
668.511	45.57
668.837	45.82
669.162	46.25
