Data from 20-2_crown_Reflection__2__37.txt Node

Date: Fri Nov 11 20:28:31 CST 2022
User: ToomeyLab
Spectrometer: FLMS14357
Trigger mode: 0
Integration Time (sec): 1.000000E-2
Scans to average: 100
Electric dark correction enabled: true
Nonlinearity correction enabled: false
Boxcar width: 0
XAxis mode: Wavelengths
Number of Pixels in Spectrum: 2048
>>>>>Begin Spectral Data<<<<<
189.047	212.8
189.435	212.8
189.823	212.8
190.211	11.42
190.599	-316.8
190.987	-42.56
191.375	-301.76
191.763	-90.8
192.151	21.85
192.538	73.05
192.926	84.51
193.314	203.92
193.702	65.62
194.089	190.16
194.477	-337.9
194.864	139.86
195.252	71.69
195.639	56.81
196.027	-132.21
196.414	60.9
196.801	203.16
197.189	3.81
197.576	24.13
197.963	-27.34
198.351	-59.22
198.738	6.04
199.125	24.16
199.512	28.58
199.899	-66.22
200.286	23.98
200.673	-16.94
201.06	38.28
201.447	5.93
201.833	20.44
202.22	-69.61
202.607	29.01
202.994	29.86
203.38	27.65
203.767	20.07
204.154	21.63
204.54	-28.31
204.927	4.75
205.313	-0.28
205.699	18.11
206.086	34.27
206.472	14.87
206.858	0.59
207.245	34.46
207.631	4.95
208.017	6.68
208.403	0.32
208.789	25.07
209.175	9.81
209.561	32.03
209.947	-10.25
210.333	2.56
210.719	17.85
211.105	42.56
211.491	10.22
211.876	-0.96
212.262	14.92
212.648	-5.74
213.034	21.72
213.419	-21.78
213.805	-36.94
214.19	2.13
214.576	9.54
214.961	-39.68
215.346	3.15
215.732	-18
216.117	28.8
216.502	39.74
216.888	2.5
217.273	4.36
217.658	7.23
218.043	10.57
218.428	2
218.813	4.28
219.198	33.19
219.583	-15.11
219.968	6.38
220.353	-7.98
220.738	-23.9
221.122	6.42
221.507	-9.87
221.892	6.6
222.276	21.59
222.661	8.68
223.046	-7.65
223.43	-11.64
223.815	-4.71
224.199	2.36
224.583	-1.43
224.968	-9.48
225.352	10.95
225.736	-5.54
226.121	3.52
226.505	6.2
226.889	1.31
227.273	10.48
227.657	1.75
228.041	3.4
228.425	2.05
228.809	1.58
229.193	7.77
229.577	3.53
229.961	4.48
230.344	4.29
230.728	2.64
231.112	1.92
231.495	4.14
231.879	2.54
232.263	2.75
232.646	2.82
233.03	2.5
233.413	2.2
233.797	2.87
234.18	3.08
234.563	4.08
234.946	2.02
235.33	4.02
235.713	1.69
236.096	1.55
236.479	3.67
236.862	5.18
237.245	3.22
237.628	4.15
238.011	3.41
238.394	2.15
238.777	4.76
239.16	3.74
239.543	2.41
239.925	2.97
240.308	2.58
240.691	3.53
241.073	2.93
241.456	1.54
241.838	5.01
242.221	2.42
242.603	3.88
242.986	2.37
243.368	2.67
243.75	2.88
244.133	2.89
244.515	2.51
244.897	3.36
245.279	3.02
245.661	3.07
246.043	3.48
246.425	3.77
246.807	3.31
247.189	2.6
247.571	2.64
247.953	2.74
248.335	2.77
248.717	2.87
249.098	2.96
249.48	2.78
249.862	3.11
250.243	2.43
250.625	2.97
251.006	3.73
251.388	2.52
251.769	2.97
252.151	2.61
252.532	2.74
252.913	3.37
253.295	2.75
253.676	2.1
254.057	2.47
254.438	2.34
254.819	2.65
255.2	3.09
255.581	2.26
255.962	2.45
256.343	2.58
256.724	2.87
257.105	3.17
257.486	2.48
257.867	3.79
258.247	1.97
258.628	2.71
259.009	2.16
259.389	2.78
259.77	3.38
260.15	3.08
260.531	2.59
260.911	2.62
261.292	2.73
261.672	2.27
262.052	2.59
262.432	2.68
262.813	3.35
263.193	2.59
263.573	2.68
263.953	2.95
264.333	2.58
264.713	2.85
265.093	2.85
265.473	1.26
265.853	2.53
266.233	3.09
266.612	3.15
266.992	2.2
267.372	3.07
267.752	2.3
268.131	2.54
268.511	2.53
268.89	2.12
269.27	2.09
269.649	2.5
270.029	2.96
270.408	3.03
270.787	2.41
271.167	2.14
271.546	2.47
271.925	2.68
272.304	2.24
272.683	2.93
273.062	2.64
273.441	2.65
273.82	2.62
274.199	2.21
274.578	2.19
274.957	2.57
275.336	3.05
275.715	2.38
276.093	2.09
276.472	2.89
276.851	2.31
277.229	2.32
277.608	2.89
277.986	2.7
278.365	2.4
278.743	2.42
279.122	3.27
279.5	2.83
279.878	2.87
280.257	2.94
280.635	2.39
281.013	2.57
281.391	1.94
281.769	1.94
282.147	2.74
282.525	1.99
282.903	2.07
283.281	2.32
283.659	2.9
284.037	2.57
284.415	2.41
284.792	2.38
285.17	2.72
285.548	2.4
285.925	2.06
286.303	2.21
286.68	2.8
287.058	2.61
287.435	2.38
287.813	2.69
288.19	2.4
288.567	2.61
288.945	2.59
289.322	2.67
289.699	1.81
290.076	2.61
290.453	2.46
290.83	2.07
291.207	2.5
291.584	2.99
291.961	2.48
292.338	2.85
292.715	2.93
293.092	2.57
293.469	2.34
293.845	2.55
294.222	2.08
294.599	2.79
294.975	2.5
295.352	2.63
295.728	2.26
296.105	2.34
296.481	2.09
296.858	2.16
297.234	2.48
297.61	2.22
297.986	2.9
298.363	2.54
298.739	2.35
299.115	2.77
299.491	2.83
299.867	2.43
300.243	2.69
300.619	2.97
300.995	2.86
301.371	2.79
301.746	3.2
302.122	2.6
302.498	2.64
302.874	2.75
303.249	2.5
303.625	2.35
304	1.9
304.376	2.6
304.751	2.53
305.127	2.91
305.502	2.48
305.878	2.69
306.253	2.54
306.628	2.4
307.003	2.94
307.378	2.34
307.754	2.45
308.129	2.58
308.504	2.76
308.879	2.42
309.254	2.89
309.629	2.24
310.003	2.18
310.378	2.72
310.753	2.83
311.128	2.74
311.502	2.81
311.877	2.6
312.252	2.55
312.626	2.48
313.001	2.37
313.375	2.54
313.75	2.53
314.124	2.11
314.498	2.46
314.873	2.02
315.247	2.52
315.621	2.8
315.995	2.68
316.369	2.43
316.743	2.53
317.117	2.77
317.491	2.5
317.865	1.98
318.239	2.84
318.613	2.72
318.987	2.36
319.361	2.57
319.734	2.3
320.108	2.65
320.482	2.73
320.855	2.26
321.229	2.17
321.602	2.72
321.976	2.45
322.349	3.05
322.723	2.89
323.096	2.57
323.469	2.57
323.843	2.85
324.216	2.26
324.589	2.76
324.962	3.36
325.335	2.42
325.708	2.91
326.081	3.01
326.454	2.35
326.827	2.61
327.2	3.04
327.573	3.34
327.945	2.86
328.318	2.41
328.691	2.61
329.063	2.58
329.436	2.04
329.809	2.57
330.181	2.57
330.553	2.1
330.926	3.43
331.298	2.88
331.671	2.36
332.043	2.07
332.415	2.75
332.787	3.06
333.159	2.69
333.532	2.77
333.904	2.7
334.276	2.77
334.648	2.72
335.02	2.82
335.391	3
335.763	2.54
336.135	2.67
336.507	2.3
336.879	2.62
337.25	2.48
337.622	2.79
337.993	2.82
338.365	2.88
338.736	2.5
339.108	2.66
339.479	2.39
339.851	2.53
340.222	2.79
340.593	2.76
340.964	2.62
341.336	2.89
341.707	2.36
342.078	2.43
342.449	2.83
342.82	2.74
343.191	2.88
343.562	2.66
343.933	2.61
344.303	2.33
344.674	2.9
345.045	2.61
345.416	2.83
345.786	2.59
346.157	2.55
346.527	2.89
346.898	2.35
347.268	2.54
347.639	2.47
348.009	2.5
348.38	2.75
348.75	2.77
349.12	3.2
349.49	2.63
349.861	2.61
350.231	2.69
350.601	2.86
350.971	2.63
351.341	2.86
351.711	2.91
352.081	2.78
352.45	3.13
352.82	2.46
353.19	3.08
353.56	2.68
353.929	2.62
354.299	2.65
354.669	2.71
355.038	2.8
355.408	2.79
355.777	2.94
356.147	2.79
356.516	2.86
356.885	2.86
357.254	2.69
357.624	2.46
357.993	2.73
358.362	2.64
358.731	2.33
359.1	2.71
359.469	2.22
359.838	2.51
360.207	2.82
360.576	2.34
360.945	2.71
361.314	3.02
361.682	2.78
362.051	2.71
362.42	2.83
362.788	2.8
363.157	2.58
363.525	2.59
363.894	2.42
364.262	2.72
364.631	2.9
364.999	2.67
365.367	2.85
365.735	2.45
366.104	2.54
366.472	2.68
366.84	2.41
367.208	2.57
367.576	2.95
367.944	2.74
368.312	2.58
368.68	2.53
369.048	2.79
369.416	2.51
369.783	2.8
370.151	3.01
370.519	2.72
370.886	2.56
371.254	2.89
371.621	2.69
371.989	2.29
372.356	2.65
372.724	2.76
373.091	2.78
373.458	2.55
373.826	2.41
374.193	2.46
374.56	2.7
374.927	2.49
375.294	2.96
375.661	3.06
376.028	2.37
376.395	2.77
376.762	2.47
377.129	2.72
377.496	2.54
377.863	2.8
378.229	2.9
378.596	2.58
378.963	2.72
379.329	2.72
379.696	2.71
380.062	2.83
380.429	2.79
380.795	3.09
381.161	2.81
381.528	2.43
381.894	2.83
382.26	2.8
382.626	3.01
382.993	2.7
383.359	3.05
383.725	2.76
384.091	3.04
384.457	2.71
384.823	2.69
385.188	2.61
385.554	2.54
385.92	2.6
386.286	2.77
386.651	2.76
387.017	2.7
387.383	2.68
387.748	2.51
388.114	2.66
388.479	2.61
388.845	2.58
389.21	2.55
389.575	2.83
389.94	2.85
390.306	2.65
390.671	2.72
391.036	2.72
391.401	2.68
391.766	3.08
392.131	2.75
392.496	2.75
392.861	2.84
393.226	2.67
393.591	2.61
393.956	2.61
394.32	2.75
394.685	2.81
395.05	2.87
395.414	2.76
395.779	2.93
396.143	2.75
396.508	2.9
396.872	2.83
397.236	2.74
397.601	2.78
397.965	2.85
398.329	2.95
398.694	2.9
399.058	2.79
399.422	2.76
399.786	2.59
400.15	2.97
400.514	2.71
400.878	2.78
401.242	2.82
401.605	2.96
401.969	3.02
402.333	2.46
402.697	2.89
403.06	3.12
403.424	2.54
403.787	3.04
404.151	2.72
404.514	2.68
404.878	2.75
405.241	2.8
405.604	2.76
405.968	2.89
406.331	2.72
406.694	2.67
407.057	2.78
407.42	2.98
407.783	2.91
408.146	2.81
408.509	2.89
408.872	2.98
409.235	2.83
409.598	3.01
409.961	3.01
410.323	2.66
410.686	2.81
411.049	2.85
411.411	2.84
411.774	2.83
412.136	2.75
412.499	2.77
412.861	2.73
413.223	2.65
413.586	2.91
413.948	3
414.31	3.05
414.672	2.85
415.035	2.7
415.397	2.74
415.759	2.79
416.121	2.81
416.483	2.61
416.845	2.8
417.206	2.91
417.568	2.66
417.93	2.68
418.292	2.59
418.653	2.86
419.015	2.96
419.377	2.7
419.738	2.71
420.1	2.78
420.461	2.85
420.822	2.78
421.184	2.71
421.545	2.7
421.906	2.77
422.267	2.65
422.629	2.65
422.99	2.75
423.351	2.71
423.712	2.68
424.073	2.8
424.434	2.73
424.795	2.86
425.155	2.67
425.516	2.71
425.877	2.69
426.238	2.78
426.598	2.63
426.959	2.73
427.32	2.91
427.68	2.85
428.041	2.76
428.401	2.65
428.761	2.82
429.122	2.81
429.482	2.84
429.842	2.81
430.202	2.71
430.563	2.94
430.923	2.78
431.283	2.66
431.643	2.75
432.003	2.78
432.363	2.92
432.722	3.02
433.082	2.91
433.442	2.79
433.802	2.87
434.161	2.8
434.521	2.84
434.881	2.93
435.24	2.79
435.6	2.67
435.959	2.74
436.319	2.66
436.678	2.67
437.037	2.81
437.396	2.87
437.756	2.74
438.115	2.77
438.474	2.73
438.833	2.8
439.192	2.86
439.551	2.82
439.91	2.86
440.269	2.86
440.628	2.89
440.987	2.74
441.345	2.85
441.704	2.85
442.063	2.84
442.421	2.86
442.78	2.68
443.138	2.82
443.497	2.8
443.855	2.8
444.214	2.76
444.572	2.98
444.93	2.73
445.288	2.68
445.647	2.84
446.005	2.94
446.363	2.82
446.721	2.91
447.079	2.87
447.437	2.79
447.795	2.8
448.153	2.76
448.51	2.77
448.868	2.77
449.226	2.81
449.584	2.83
449.941	2.74
450.299	2.74
450.656	2.84
451.014	2.82
451.371	2.84
451.729	2.83
452.086	2.89
452.443	2.81
452.801	2.97
453.158	2.84
453.515	2.83
453.872	2.84
454.229	2.94
454.586	2.68
454.943	2.91
455.3	2.94
455.657	2.88
456.014	2.99
456.371	2.92
456.727	2.93
457.084	2.64
457.441	2.88
457.797	2.75
458.154	2.76
458.51	2.89
458.867	2.61
459.223	2.89
459.58	2.64
459.936	2.82
460.292	2.81
460.648	2.84
461.005	2.76
461.361	2.81
461.717	2.73
462.073	2.8
462.429	2.7
462.785	2.86
463.141	2.78
463.496	2.84
463.852	2.93
464.208	2.94
464.564	2.85
464.919	2.82
465.275	2.81
465.631	2.89
465.986	3.06
466.342	2.87
466.697	2.9
467.052	2.76
467.408	2.71
467.763	2.69
468.118	2.84
468.473	2.95
468.829	2.76
469.184	2.9
469.539	2.91
469.894	3.09
470.249	2.97
470.603	2.79
470.958	2.74
471.313	3.02
471.668	3.05
472.023	2.78
472.377	2.99
472.732	2.79
473.086	2.82
473.441	2.87
473.795	2.78
474.15	2.83
474.504	3.08
474.859	2.75
475.213	2.89
475.567	2.9
475.921	2.8
476.275	2.79
476.63	2.89
476.984	2.94
477.338	2.94
477.692	2.75
478.045	2.85
478.399	3.06
478.753	2.75
479.107	2.93
479.461	2.89
479.814	2.87
480.168	2.95
480.521	2.95
480.875	2.99
481.228	2.76
481.582	2.95
481.935	2.71
482.289	2.75
482.642	2.87
482.995	2.84
483.348	2.78
483.701	2.87
484.055	2.81
484.408	2.79
484.761	2.7
485.114	2.59
485.466	2.54
485.819	2.58
486.172	2.63
486.525	2.68
486.878	2.72
487.23	2.75
487.583	2.8
487.936	2.75
488.288	2.75
488.641	2.68
488.993	2.69
489.345	2.64
489.698	2.65
490.05	2.65
490.402	2.75
490.754	2.8
491.107	2.79
491.459	2.79
491.811	2.87
492.163	2.85
492.515	2.82
492.866	2.71
493.218	2.63
493.57	2.68
493.922	2.76
494.274	2.79
494.625	2.81
494.977	2.89
495.328	2.86
495.68	2.96
496.031	2.84
496.383	2.91
496.734	2.85
497.086	2.8
497.437	2.93
497.788	2.73
498.139	2.8
498.49	2.78
498.842	2.72
499.193	2.93
499.544	2.94
499.894	2.84
500.245	2.82
500.596	2.98
500.947	2.88
501.298	2.83
501.648	2.91
501.999	2.89
502.35	3.03
502.7	2.84
503.051	2.85
503.401	2.99
503.752	2.86
504.102	2.87
504.452	2.88
504.803	2.83
505.153	2.78
505.503	2.98
505.853	2.87
506.203	2.98
506.553	2.73
506.903	2.84
507.253	2.82
507.603	2.93
507.953	2.98
508.303	2.87
508.652	2.9
509.002	2.78
509.352	2.9
509.701	2.88
510.051	2.93
510.4	2.91
510.75	2.86
511.099	2.77
511.449	2.83
511.798	2.87
512.147	2.7
512.496	2.84
512.846	2.92
513.195	2.84
513.544	2.87
513.893	2.79
514.242	2.88
514.591	2.81
514.939	2.83
515.288	2.91
515.637	2.92
515.986	2.89
516.334	2.89
516.683	2.86
517.032	3
517.38	2.87
517.729	2.97
518.077	2.95
518.426	2.83
518.774	2.96
519.122	3.02
519.47	2.93
519.819	2.93
520.167	2.8
520.515	2.83
520.863	2.79
521.211	2.87
521.559	2.8
521.907	2.91
522.255	2.79
522.602	3.07
522.95	2.88
523.298	3.01
523.645	2.96
523.993	2.99
524.341	2.99
524.688	2.98
525.036	2.94
525.383	2.9
525.73	2.79
526.078	2.81
526.425	2.8
526.772	2.88
527.119	2.75
527.466	2.91
527.814	2.84
528.161	2.86
528.508	2.86
528.854	2.82
529.201	2.8
529.548	2.72
529.895	2.7
530.242	2.64
530.588	2.7
530.935	2.71
531.282	2.75
531.628	2.78
531.975	2.81
532.321	2.78
532.667	2.92
533.014	2.81
533.36	2.82
533.706	2.88
534.052	2.74
534.399	2.81
534.745	2.76
535.091	2.78
535.437	2.76
535.783	2.77
536.129	2.84
536.474	2.91
536.82	2.81
537.166	2.89
537.512	2.87
537.857	2.86
538.203	2.79
538.549	2.9
538.894	2.83
539.239	2.82
539.585	2.93
539.93	2.9
540.276	2.96
540.621	3
540.966	2.9
541.311	2.91
541.656	2.8
542.001	2.77
542.346	2.85
542.691	2.73
543.036	2.65
543.381	2.78
543.726	2.76
544.071	2.81
544.415	2.87
544.76	2.82
545.105	2.78
545.449	2.77
545.794	2.92
546.138	2.85
546.483	2.91
546.827	2.91
547.171	3.04
547.516	2.68
547.86	2.9
548.204	2.91
548.548	2.86
548.892	2.85
549.236	2.9
549.58	2.99
549.924	2.95
550.268	2.98
550.612	2.97
550.956	3.16
551.3	2.91
551.643	2.94
551.987	3.08
552.33	2.87
552.674	2.74
553.017	2.99
553.361	3.01
553.704	3.14
554.048	2.83
554.391	3.03
554.734	2.95
555.077	3.08
555.42	2.93
555.764	3.05
556.107	2.99
556.45	3.22
556.793	2.97
557.135	2.86
557.478	3.08
557.821	3.06
558.164	2.97
558.507	3.03
558.849	2.98
559.192	2.99
559.534	3.07
559.877	2.99
560.219	3.04
560.562	2.92
560.904	3.04
561.246	2.89
561.589	3
561.931	2.71
562.273	3.07
562.615	2.86
562.957	2.96
563.299	2.88
563.641	2.88
563.983	2.99
564.325	2.93
564.667	2.99
565.008	3.15
565.35	2.86
565.692	2.69
566.033	2.93
566.375	3.03
566.716	3.07
567.058	2.91
567.399	3.03
567.741	3.03
568.082	3.03
568.423	2.97
568.764	3
569.105	2.9
569.447	3.11
569.788	3.02
570.129	3
570.47	3.12
570.811	3.02
571.151	3.02
571.492	2.94
571.833	2.92
572.174	3.05
572.514	2.93
572.855	2.94
573.195	2.77
573.536	2.92
573.876	3.02
574.217	3.04
574.557	2.89
574.898	3.03
575.238	3
575.578	2.98
575.918	3
576.258	3.1
576.598	2.98
576.938	2.94
577.278	2.93
577.618	3.03
577.958	2.95
578.298	2.91
578.638	3
578.977	3.03
579.317	3.1
579.657	3.11
579.996	3.02
580.336	2.9
580.675	3.21
581.014	3.03
581.354	2.73
581.693	2.97
582.032	3.19
582.372	2.92
582.711	3.16
583.05	2.91
583.389	3.15
583.728	3.19
584.067	3.16
584.406	2.87
584.745	3.36
585.083	2.91
585.422	2.99
585.761	3.13
586.1	2.71
586.438	2.93
586.777	2.97
587.115	3.05
587.454	3.13
587.792	3.17
588.13	3.03
588.469	3.05
588.807	3.07
589.145	2.87
589.483	3.09
589.821	3.1
590.159	3.2
590.497	3.21
590.835	3.08
591.173	3.1
591.511	2.96
591.849	2.96
592.187	3.04
592.524	2.94
592.862	2.97
593.2	3.02
593.537	3.06
593.875	3.09
594.212	3.12
594.55	3.18
594.887	3.03
595.224	2.94
595.561	2.88
595.899	2.92
596.236	3.04
596.573	3.06
596.91	3.06
597.247	3.02
597.584	3.07
597.921	3.14
598.258	2.96
598.594	3.06
598.931	2.94
599.268	2.95
599.604	3.1
599.941	3.17
600.277	3.06
600.614	3.21
600.95	2.91
601.287	3.03
601.623	3.45
601.959	3.18
602.296	2.94
602.632	3.22
602.968	2.86
603.304	2.99
603.64	3.2
603.976	3.09
604.312	3.13
604.648	2.84
604.984	2.91
605.319	3.07
605.655	3.02
605.991	2.98
606.326	3.18
606.662	2.89
606.998	2.83
607.333	3.01
607.668	2.88
608.004	3.07
608.339	3.11
608.674	3.15
609.01	2.97
609.345	3.06
609.68	2.96
610.015	3.32
610.35	3.06
610.685	3.07
611.02	2.81
611.355	2.92
611.689	3.02
612.024	2.96
612.359	2.75
612.694	2.89
613.028	3.08
613.363	3.06
613.697	3.24
614.032	3.15
614.366	2.85
614.7	2.97
615.035	3.12
615.369	3.01
615.703	3.02
616.037	3.29
616.371	2.88
616.705	3.38
617.039	3.16
617.373	3.18
617.707	2.99
618.041	3.01
618.375	2.83
618.709	3.3
619.042	3.06
619.376	3.11
619.71	3.24
620.043	3.22
620.377	2.96
620.71	3.19
621.043	3.15
621.377	3.18
621.71	2.87
622.043	2.99
622.376	3.3
622.709	3.12
623.043	3.26
623.376	3.41
623.709	3.25
624.041	3.49
624.374	2.87
624.707	3.08
625.04	3.41
625.373	2.77
625.705	3.09
626.038	3.04
626.37	2.91
626.703	2.91
627.035	3.32
627.368	2.98
627.7	3.09
628.032	2.99
628.365	3.18
628.697	3.02
629.029	3.17
629.361	2.98
629.693	2.84
630.025	3.12
630.357	3.07
630.689	2.99
631.021	3.23
631.353	3.2
631.684	2.91
632.016	2.95
632.348	2.76
632.679	2.83
633.011	3.01
633.342	3.15
633.674	2.88
634.005	2.97
634.336	3.09
634.668	3.01
634.999	2.98
635.33	2.95
635.661	3.35
635.992	3.18
636.323	3
636.654	3.54
636.985	3.08
637.316	3.03
637.647	3.49
637.977	3.09
638.308	3.03
638.639	3.03
638.969	3.07
639.3	3.29
639.63	3.59
639.961	3.28
640.291	3.79
640.622	3.51
640.952	3.1
641.282	2.81
641.612	2.79
641.943	3.64
642.273	3.09
642.603	3.41
642.933	3.45
643.263	3.19
643.592	3.19
643.922	2.86
644.252	3.14
644.582	3.11
644.911	3.03
645.241	3.31
645.571	3.36
645.9	3.1
646.23	3.26
646.559	3.18
646.888	3.26
647.218	2.88
647.547	2.98
647.876	3.11
648.205	3.54
648.534	2.94
648.863	3
649.192	3.02
649.521	3
649.85	2.94
650.179	3.26
650.508	3.17
650.837	3.47
651.165	3.18
651.494	3.33
651.822	2.87
652.151	3.12
652.479	2.84
652.808	3.16
653.136	2.9
653.465	3.9
653.793	3.22
654.121	3.33
654.449	3.01
654.777	3.54
655.105	3.21
655.433	3.09
655.761	3.08
656.089	2.89
656.417	2.93
656.745	3.57
657.073	2.94
657.4	3.16
657.728	3.37
658.056	3.89
658.383	2.82
658.711	2.87
659.038	3.04
659.365	3.26
659.693	3.36
660.02	3.55
660.347	3.35
660.674	3.32
661.001	3.22
661.329	2.84
661.656	3.1
661.982	3.33
662.309	3.34
662.636	3.6
662.963	3.4
663.29	3.39
663.616	2.71
663.943	3.34
664.27	2.78
664.596	3.87
664.923	2.8
665.249	3.32
665.576	3.15
665.902	3.22
666.228	3.1
666.554	2.69
666.881	2.62
667.207	3.35
667.533	3.63
667.859	3.4
668.185	3.21
668.511	2.55
668.837	3.47
669.162	3.59
669.488	3.41
669.814	3
670.139	3.37
670.465	2.79
670.791	3.08
671.116	2.96
671.442	2.84
671.767	3.66
672.092	3.63
672.418	3.06
672.743	2.89
673.068	3.64
673.393	3.77
673.718	3.42
674.043	3.68
674.368	3.95
674.693	2.61
675.018	3.47
675.343	3.88
675.667	3.84
675.992	3.82
676.317	2.82
676.641	2.95
676.966	3.19
677.29	3.22
677.615	3.14
677.939	3.46
678.264	3.34
678.588	2.6
678.912	2.9
679.236	3.44
679.56	3.64
679.885	3.17
680.209	2.97
680.532	4.01
680.856	3.6
681.18	3.71
681.504	3.38
681.828	3.62
682.152	3.43
682.475	3.18
682.799	3.21
683.122	3.03
683.446	3.77
683.769	3.7
684.093	3.63
684.416	3.41
684.739	3.85
685.062	3.25
685.386	3.73
685.709	3.33
686.032	3.37
686.355	3.71
686.678	3.06
687.001	3.19
687.324	3.37
687.646	2.46
687.969	3.22
688.292	4.31
688.614	3.22
688.937	3.34
689.26	3.26
689.582	3.13
689.904	3.51
690.227	3.25
690.549	2.94
690.871	2.99
691.194	3.34
691.516	2.71
691.838	3.06
692.16	3.27
692.482	2.9
692.804	3.16
693.126	3.08
