Data from 20-2_forehead_Reflection__0__40.txt Node

Date: Fri Nov 11 20:29:18 CST 2022
User: ToomeyLab
Spectrometer: FLMS14357
Trigger mode: 0
Integration Time (sec): 1.000000E-2
Scans to average: 100
Electric dark correction enabled: true
Nonlinearity correction enabled: false
Boxcar width: 0
XAxis mode: Wavelengths
Number of Pixels in Spectrum: 2048
>>>>>Begin Spectral Data<<<<<
189.047	1919.6
189.435	1919.6
189.823	1919.6
190.211	210.91
190.599	202.71
190.987	450.56
191.375	-356.8
191.763	-15.17
192.151	-5.04
192.538	14.74
192.926	-189.11
193.314	82.45
193.702	241.05
194.089	104.5
194.477	-578.91
194.864	134.68
195.252	120.63
195.639	129.42
196.027	32.73
196.414	60.12
196.801	230.63
197.189	93.69
197.576	48.69
197.963	17.51
198.351	37.02
198.738	4.89
199.125	58.22
199.512	34.44
199.899	-83.92
200.286	20.23
200.673	-27.72
201.06	22.46
201.447	14.04
201.833	26.46
202.22	26.63
202.607	42.57
202.994	23.91
203.38	60.18
203.767	19.61
204.154	45.81
204.54	11.67
204.927	44.99
205.313	7.69
205.699	-7.92
206.086	38.5
206.472	20.91
206.858	59.45
207.245	55.13
207.631	35.92
208.017	9.88
208.403	22.85
208.789	25.21
209.175	21.49
209.561	38.63
209.947	1.95
210.333	-13.15
210.719	26.72
211.105	51.07
211.491	49.94
211.876	34.42
212.262	40.96
212.648	46.77
213.034	5.17
213.419	-21.96
213.805	22.22
214.19	2.68
214.576	24.41
214.961	-18.76
215.346	0.77
215.732	26.28
216.117	46.11
216.502	3.41
216.888	25.27
217.273	29.71
217.658	19.08
218.043	4.21
218.428	30.31
218.813	18.67
219.198	27.68
219.583	29.87
219.968	7.28
220.353	15.05
220.738	5.43
221.122	14.85
221.507	-2.94
221.892	-4.37
222.276	18.19
222.661	27.15
223.046	3.07
223.43	-6.89
223.815	7.7
224.199	15.55
224.583	7.95
224.968	5.13
225.352	12.37
225.736	2.08
226.121	2.09
226.505	7.68
226.889	7.37
227.273	2.15
227.657	-2.29
228.041	1.69
228.425	3.26
228.809	5.23
229.193	6.99
229.577	5.02
229.961	4.53
230.344	4.11
230.728	2.28
231.112	2.58
231.495	3.53
231.879	3.32
232.263	3.44
232.646	1.46
233.03	2.01
233.413	4.69
233.797	3.11
234.18	2.27
234.563	4.51
234.946	3.88
235.33	3.26
235.713	3.46
236.096	3.82
236.479	3.43
236.862	4.09
237.245	3.52
237.628	4.69
238.011	3.75
238.394	3.83
238.777	4.39
239.16	3.63
239.543	1.34
239.925	4.34
240.308	4.18
240.691	4.06
241.073	2.87
241.456	2.34
241.838	3.44
242.221	2.92
242.603	3.06
242.986	2.89
243.368	3.43
243.75	3.21
244.133	2.61
244.515	3.05
244.897	3.36
245.279	2.67
245.661	3.06
246.043	3.25
246.425	3.35
246.807	3.62
247.189	2.62
247.571	3.1
247.953	3.13
248.335	3.01
248.717	3.03
249.098	3.16
249.48	3.14
249.862	3.25
250.243	2.99
250.625	3.09
251.006	3.61
251.388	3.92
251.769	4.46
252.151	3.44
252.532	2.9
252.913	4.27
253.295	2.89
253.676	2.64
254.057	3.11
254.438	3.25
254.819	3.34
255.2	3.71
255.581	3.4
255.962	3.28
256.343	3.49
256.724	3.73
257.105	3.26
257.486	3.48
257.867	4.69
258.247	3.04
258.628	3.15
259.009	2.84
259.389	2.77
259.77	3.96
260.15	3.69
260.531	3.45
260.911	3.05
261.292	2.96
261.672	2.96
262.052	2.88
262.432	3.26
262.813	3.35
263.193	2.4
263.573	3.2
263.953	3.74
264.333	2.87
264.713	2.94
265.093	3.32
265.473	3.24
265.853	2.77
266.233	3.06
266.612	3.02
266.992	3.16
267.372	4.04
267.752	3.7
268.131	2.73
268.511	3.26
268.89	2.68
269.27	2.84
269.649	2.44
270.029	3.21
270.408	3.49
270.787	3.22
271.167	2.75
271.546	3.22
271.925	3.09
272.304	2.83
272.683	2.97
273.062	2.61
273.441	2.97
273.82	3.16
274.199	2.79
274.578	2.65
274.957	3.17
275.336	3.43
275.715	3.25
276.093	2.85
276.472	3.13
276.851	2.59
277.229	2.41
277.608	3.13
277.986	3.2
278.365	2.46
278.743	2.61
279.122	3.69
279.5	2.96
279.878	2.88
280.257	2.94
280.635	3.17
281.013	3.02
281.391	2.71
281.769	3.1
282.147	2.79
282.525	2.63
282.903	3.06
283.281	2.88
283.659	3
284.037	3.27
284.415	2.65
284.792	2.96
285.17	3.16
285.548	2.85
285.925	2.66
286.303	3.09
286.68	3.17
287.058	3.11
287.435	2.93
287.813	2.83
288.19	2.85
288.567	3.05
288.945	3.21
289.322	3.58
289.699	2.79
290.076	3.64
290.453	3.01
290.83	3.37
291.207	3.13
291.584	3.29
291.961	3.23
292.338	3.03
292.715	3.33
293.092	3.36
293.469	3.51
293.845	3.86
294.222	3.25
294.599	3.6
294.975	4.19
295.352	3.65
295.728	3.84
296.105	3.47
296.481	3.62
296.858	3.45
297.234	3.88
297.61	3.21
297.986	3.99
298.363	3.71
298.739	3.83
299.115	3.55
299.491	3.86
299.867	3.81
300.243	3.59
300.619	4.12
300.995	3.9
301.371	4.33
301.746	4.35
302.122	4.1
302.498	4.24
302.874	4.12
303.249	3.92
303.625	4.17
304	4.13
304.376	4.48
304.751	4.04
305.127	4.01
305.502	4.8
305.878	5
306.253	4.57
306.628	4.64
307.003	4.35
307.378	4.76
307.754	4.99
308.129	4.19
308.504	4.69
308.879	4.91
309.254	4.43
309.629	4.86
310.003	4.98
310.378	4.85
310.753	5.55
311.128	5.2
311.502	5.09
311.877	5.02
312.252	4.87
312.626	5.28
313.001	4.85
313.375	5.15
313.75	5.25
314.124	5.07
314.498	5.21
314.873	5.49
315.247	5.7
315.621	5.49
315.995	5.85
316.369	5.9
316.743	5.64
317.117	5.93
317.491	6.18
317.865	5.5
318.239	5.94
318.613	6
318.987	5.77
319.361	5.92
319.734	6.42
320.108	5.85
320.482	6.48
320.855	6.09
321.229	5.93
321.602	6.3
321.976	6.17
322.349	6.36
322.723	6.78
323.096	6.51
323.469	6.37
323.843	6.92
324.216	6.02
324.589	6.63
324.962	6.97
325.335	6.26
325.708	6.67
326.081	6.9
326.454	6.53
326.827	6.52
327.2	7.54
327.573	7.71
327.945	6.91
328.318	6.76
328.691	7.26
329.063	7.31
329.436	6.97
329.809	7.22
330.181	6.59
330.553	6.49
330.926	7.11
331.298	7.02
331.671	7.32
332.043	7.02
332.415	7.23
332.787	8.06
333.159	7.4
333.532	7.8
333.904	7.97
334.276	7.34
334.648	7.2
335.02	7.15
335.391	7.88
335.763	7.29
336.135	7.52
336.507	7.51
336.879	7.69
337.25	7.72
337.622	7.76
337.993	8.09
338.365	7.76
338.736	7.89
339.108	8.19
339.479	7.57
339.851	7.96
340.222	7.77
340.593	8.29
340.964	7.79
341.336	8.22
341.707	8.08
342.078	7.8
342.449	7.97
342.82	8.29
343.191	8.51
343.562	8.08
343.933	8.01
344.303	8.29
344.674	8.47
345.045	8.26
345.416	8.59
345.786	8.32
346.157	8.21
346.527	8.14
346.898	8.03
347.268	8.31
347.639	8.25
348.009	8.62
348.38	8.51
348.75	8.55
349.12	9.01
349.49	8.65
349.861	8.7
350.231	8.95
350.601	8.63
350.971	8.57
351.341	9
351.711	8.81
352.081	8.95
352.45	8.82
352.82	8.78
353.19	9.26
353.56	8.68
353.929	9.28
354.299	9.29
354.669	9.15
355.038	8.96
355.408	8.96
355.777	9.54
356.147	9.15
356.516	9.39
356.885	9.34
357.254	9.05
357.624	8.82
357.993	9.38
358.362	9.66
358.731	9.1
359.1	9.1
359.469	9.21
359.838	9.25
360.207	9.67
360.576	9.51
360.945	9.47
361.314	9.21
361.682	9.11
362.051	9.39
362.42	9.72
362.788	9.97
363.157	9.44
363.525	9.46
363.894	9.62
364.262	9.74
364.631	9.78
364.999	9.93
365.367	9.79
365.735	9.94
366.104	9.83
366.472	10.04
366.84	9.71
367.208	9.82
367.576	10.42
367.944	10.15
368.312	10.19
368.68	10.51
369.048	10.43
369.416	10.26
369.783	10.4
370.151	10.24
370.519	10.2
370.886	10.31
371.254	10.66
371.621	10.55
371.989	10.37
372.356	10.66
372.724	10.7
373.091	10.77
373.458	10.24
373.826	10.54
374.193	10.36
374.56	10.44
374.927	10.72
375.294	10.77
375.661	10.78
376.028	10.73
376.395	10.77
376.762	11.07
377.129	10.67
377.496	10.84
377.863	10.96
378.229	11.27
378.596	11.01
378.963	10.95
379.329	11.11
379.696	11.11
380.062	11.19
380.429	11.23
380.795	11.43
381.161	11.25
381.528	11.1
381.894	11.48
382.26	11.71
382.626	11.51
382.993	11.33
383.359	11.58
383.725	11.32
384.091	11.49
384.457	11.41
384.823	11.52
385.188	11.5
385.554	11.67
385.92	11.34
386.286	11.75
386.651	11.7
387.017	11.68
387.383	11.57
387.748	11.52
388.114	11.65
388.479	11.28
388.845	11.75
389.21	11.63
389.575	11.78
389.94	11.73
390.306	11.99
390.671	11.84
391.036	12.2
391.401	11.96
391.766	12.11
392.131	11.85
392.496	11.94
392.861	12.2
393.226	11.8
393.591	11.85
393.956	12.21
394.32	12.14
394.685	12.24
395.05	12.22
395.414	12.04
395.779	12.27
396.143	12.14
396.508	12.36
396.872	12.56
397.236	12.29
397.601	12.35
397.965	12.4
398.329	12.43
398.694	12.43
399.058	12.68
399.422	12.57
399.786	12.6
400.15	12.55
400.514	12.76
400.878	12.59
401.242	12.62
401.605	12.76
401.969	12.84
402.333	12.47
402.697	12.69
403.06	13.02
403.424	12.43
403.787	12.87
404.151	12.76
404.514	12.74
404.878	12.85
405.241	12.89
405.604	12.9
405.968	12.86
406.331	12.73
406.694	12.85
407.057	12.93
407.42	13.04
407.783	12.94
408.146	13.13
408.509	13.22
408.872	13.23
409.235	13.39
409.598	13.33
409.961	13.24
410.323	13.14
410.686	13.37
411.049	13.25
411.411	13.53
411.774	13.36
412.136	13.2
412.499	13.52
412.861	13.34
413.223	13.39
413.586	13.54
413.948	13.72
414.31	13.41
414.672	13.54
415.035	13.5
415.397	13.6
415.759	13.7
416.121	13.48
416.483	13.62
416.845	13.56
417.206	13.37
417.568	13.66
417.93	13.69
418.292	13.51
418.653	13.79
419.015	13.81
419.377	13.63
419.738	13.75
420.1	13.6
420.461	13.81
420.822	13.7
421.184	13.72
421.545	13.82
421.906	13.81
422.267	13.72
422.629	13.57
422.99	13.67
423.351	13.8
423.712	13.79
424.073	14.09
424.434	14.01
424.795	14.09
425.155	13.97
425.516	13.94
425.877	14.04
426.238	14.1
426.598	13.98
426.959	14.09
427.32	14.23
427.68	14.25
428.041	14.41
428.401	14.33
428.761	14.48
429.122	14.6
429.482	14.61
429.842	14.54
430.202	14.76
430.563	14.88
430.923	14.67
431.283	14.75
431.643	14.68
432.003	14.89
432.363	14.83
432.722	14.94
433.082	14.86
433.442	15.06
433.802	15.06
434.161	14.91
434.521	15.15
434.881	15.18
435.24	15.15
435.6	15.08
435.959	14.96
436.319	14.96
436.678	15.23
437.037	15.18
437.396	15.34
437.756	15.28
438.115	15.1
438.474	15.34
438.833	15.43
439.192	15.53
439.551	15.29
439.91	15.48
440.269	15.61
440.628	15.56
440.987	15.49
441.345	15.67
441.704	15.55
442.063	15.47
442.421	15.55
442.78	15.4
443.138	15.6
443.497	15.64
443.855	15.7
444.214	15.68
444.572	15.89
444.93	15.73
445.288	15.88
445.647	15.96
446.005	15.91
446.363	16.02
446.721	15.85
447.079	15.97
447.437	15.94
447.795	15.96
448.153	15.92
448.51	15.95
448.868	15.98
449.226	15.98
449.584	16.18
449.941	16.14
450.299	16.13
450.656	16.26
451.014	16.33
451.371	16.42
451.729	16.4
452.086	16.45
452.443	16.65
452.801	16.51
453.158	16.57
453.515	16.74
453.872	16.64
454.229	16.76
454.586	16.75
454.943	16.89
455.3	16.97
455.657	16.97
456.014	16.88
456.371	17.17
456.727	16.94
457.084	17.02
457.441	17.07
457.797	17.1
458.154	17.06
458.51	17.22
458.867	17.07
459.223	17.13
459.58	17.13
459.936	17.14
460.292	17.09
460.648	17.24
461.005	17.06
461.361	16.98
461.717	16.98
462.073	17.15
462.429	16.99
462.785	17.22
463.141	17.18
463.496	17.47
463.852	17.48
464.208	17.55
464.564	17.49
464.919	17.69
465.275	17.8
465.631	17.69
465.986	17.8
466.342	17.93
466.697	17.72
467.052	17.84
467.408	17.95
467.763	18.05
468.118	17.9
468.473	18.06
468.829	18.11
469.184	18.01
469.539	18.15
469.894	18.2
470.249	18.36
470.603	18.22
470.958	18.3
471.313	18.31
471.668	18.41
472.023	18.42
472.377	18.44
472.732	18.45
473.086	18.45
473.441	18.43
473.795	18.46
474.15	18.56
474.504	18.58
474.859	18.58
475.213	18.72
475.567	18.63
475.921	18.7
476.275	18.65
476.63	18.95
476.984	18.76
477.338	18.82
477.692	18.57
478.045	18.64
478.399	19.05
478.753	18.64
479.107	18.92
479.461	18.77
479.814	18.81
480.168	18.85
480.521	19.04
480.875	19.18
481.228	19.17
481.582	18.93
481.935	18.99
482.289	18.91
482.642	18.96
482.995	19.03
483.348	18.97
483.701	18.81
484.055	18.74
484.408	18.59
484.761	18.35
485.114	18.15
485.466	18.14
485.819	18.28
486.172	18.38
486.525	18.51
486.878	18.62
487.23	18.66
487.583	18.77
487.936	18.79
488.288	18.84
488.641	18.71
488.993	18.63
489.345	18.61
489.698	18.65
490.05	18.81
490.402	18.86
490.754	19.04
491.107	19.12
491.459	19.21
491.811	19.38
492.163	19.35
492.515	19.37
492.866	19.08
493.218	19.04
493.57	19.07
493.922	19.33
494.274	19.4
494.625	19.56
494.977	19.81
495.328	19.87
495.68	19.95
496.031	20.11
496.383	20.28
496.734	20.25
497.086	20.25
497.437	20.35
497.788	20.18
498.139	20.11
498.49	20.09
498.842	20.1
499.193	20.29
499.544	20.36
499.894	20.31
500.245	20.48
500.596	20.6
500.947	20.59
501.298	20.75
501.648	20.71
501.999	20.7
502.35	20.9
502.7	20.63
503.051	20.81
503.401	20.97
503.752	20.8
504.102	20.89
504.452	21.04
504.803	20.98
505.153	21.07
505.503	21.19
505.853	21.11
506.203	21.15
506.553	20.93
506.903	21.06
507.253	21.24
507.603	21.14
507.953	21.4
508.303	21.49
508.652	21.4
509.002	21.26
509.352	21.26
509.701	21.33
510.051	21.39
510.4	21.32
510.75	21.29
511.099	21.27
511.449	21.4
511.798	21.38
512.147	21.4
512.496	21.52
512.846	21.68
513.195	21.42
513.544	21.49
513.893	21.31
514.242	21.49
514.591	21.74
514.939	21.59
515.288	21.74
515.637	21.95
515.986	22.01
516.334	21.85
516.683	21.92
517.032	21.86
517.38	21.97
517.729	22
518.077	22.09
518.426	22.16
518.774	22.1
519.122	21.93
519.47	21.9
519.819	21.82
520.167	21.74
520.515	21.81
520.863	21.94
521.211	22.07
521.559	22.09
521.907	22.18
522.255	22.24
522.602	22.2
522.95	22.31
523.298	22.65
523.645	22.51
523.993	22.51
524.341	22.69
524.688	22.65
525.036	22.61
525.383	22.61
525.73	22.58
526.078	22.47
526.425	22.57
526.772	22.44
527.119	22.33
527.466	22.38
527.814	22.38
528.161	22.36
528.508	22.37
528.854	22.33
529.201	22.32
529.548	22.07
529.895	21.89
530.242	21.93
530.588	22.13
530.935	22.14
531.282	22.24
531.628	22.38
531.975	22.52
532.321	22.65
532.667	22.76
533.014	22.86
533.36	22.94
533.706	22.93
534.052	22.82
534.399	22.82
534.745	22.68
535.091	22.64
535.437	22.77
535.783	22.89
536.129	23.05
536.474	23.13
536.82	23.14
537.166	23.26
537.512	23.25
537.857	23.3
538.203	23.27
538.549	23.35
538.894	23.43
539.239	23.33
539.585	23.56
539.93	23.73
540.276	23.91
540.621	23.81
540.966	24.06
541.311	23.94
541.656	23.86
542.001	23.71
542.346	23.4
542.691	23.26
543.036	23.1
543.381	23.29
543.726	23.42
544.071	23.55
544.415	23.6
544.76	23.87
545.105	23.67
545.449	23.85
545.794	24.15
546.138	24.19
546.483	24.18
546.827	24.34
547.171	24.39
547.516	24.33
547.86	24.37
548.204	24.18
548.548	24.24
548.892	24.35
549.236	24.55
549.58	24.73
549.924	24.76
550.268	24.87
550.612	24.98
550.956	25.1
551.3	25.15
551.643	25.11
551.987	25.43
552.33	25.47
552.674	25.42
553.017	25.54
553.361	25.57
553.704	25.51
554.048	25.56
554.391	25.31
554.734	25.4
555.077	25.39
555.42	25.6
555.764	25.58
556.107	25.56
556.45	25.83
556.793	25.67
557.135	25.73
557.478	25.95
557.821	25.82
558.164	25.79
558.507	25.85
558.849	25.8
559.192	25.96
559.534	26.21
559.877	26.12
560.219	26.29
560.562	26.28
560.904	26.29
561.246	26.12
561.589	26.22
561.931	26.13
562.273	26.33
562.615	26.06
562.957	26.11
563.299	26.11
563.641	26.39
563.983	26.32
564.325	26.21
564.667	26.43
565.008	26.48
565.35	26.56
565.692	26.43
566.033	26.34
566.375	26.61
566.716	26.6
567.058	26.39
567.399	26.58
567.741	26.47
568.082	26.59
568.423	26.62
568.764	26.58
569.105	26.84
569.447	26.83
569.788	26.6
570.129	26.78
570.47	26.84
570.811	27.03
571.151	27.12
571.492	26.94
571.833	27.03
572.174	27.14
572.514	26.94
572.855	27.04
573.195	26.8
573.536	26.81
573.876	26.92
574.217	26.98
574.557	27
574.898	27.07
575.238	27.21
575.578	27.06
575.918	27.31
576.258	27.36
576.598	27.3
576.938	27.42
577.278	27.23
577.618	27.42
577.958	27.48
578.298	27.44
578.638	27.68
578.977	27.79
579.317	27.66
579.657	27.85
579.996	27.73
580.336	27.91
580.675	27.82
581.014	27.85
581.354	28.02
581.693	27.84
582.032	28
582.372	28.26
582.711	28.3
583.05	28.1
583.389	28.42
583.728	28.3
584.067	28.34
584.406	28.4
584.745	28.68
585.083	28.38
585.422	28.37
585.761	28.49
586.1	28.55
586.438	28.41
586.777	28.56
587.115	28.48
587.454	28.54
587.792	28.61
588.13	28.76
588.469	28.94
588.807	28.74
589.145	28.84
589.483	29.15
589.821	28.95
590.159	29.04
590.497	29.15
590.835	28.67
591.173	28.88
591.511	28.66
591.849	29.06
592.187	28.97
592.524	29.13
592.862	29.01
593.2	29.09
593.537	29.18
593.875	29.65
594.212	29.19
594.55	29.09
594.887	29
595.224	29.42
595.561	29.22
595.899	29.36
596.236	29.26
596.573	29.35
596.91	29.34
597.247	29.35
597.584	29.09
597.921	29.3
598.258	28.97
598.594	29.13
598.931	28.96
599.268	28.98
599.604	29.28
599.941	29.31
600.277	29.28
600.614	29.58
600.95	29.49
601.287	29.84
601.623	30.16
601.959	29.85
602.296	29.92
602.632	29.9
602.968	29.99
603.304	30.04
603.64	30.12
603.976	30.35
604.312	29.72
604.648	29.9
604.984	29.96
605.319	29.76
605.655	29.84
605.991	29.46
606.326	30
606.662	29.94
606.998	29.84
607.333	29.86
607.668	29.79
608.004	30.03
608.339	30.12
608.674	30.34
609.01	30.42
609.345	30.27
609.68	30.29
610.015	30.26
610.35	30.1
610.685	30.2
611.02	30.1
611.355	30.15
611.689	30.38
612.024	30.21
612.359	30.21
612.694	30.34
613.028	30.58
613.363	30.57
613.697	30.64
614.032	30.76
614.366	30.67
614.7	30.56
615.035	30.71
615.369	30.6
615.703	30.86
616.037	30.98
616.371	31.1
616.705	31.07
617.039	31.15
617.373	30.87
617.707	31.01
618.041	31.34
618.375	30.92
618.709	31.31
619.042	31.21
619.376	31.33
619.71	31.41
620.043	31.64
620.377	31.22
620.71	31.35
621.043	31.39
621.377	31.69
621.71	31.3
622.043	31.41
622.376	31.53
622.709	31.15
623.043	31.55
623.376	31.64
623.709	31.68
624.041	31.76
624.374	31.62
624.707	31.78
625.04	31.47
625.373	31.68
625.705	31.8
626.038	31.81
626.37	32.09
626.703	31.83
627.035	31.61
627.368	31.66
627.7	31.42
628.032	31.61
628.365	31.92
628.697	31.85
629.029	31.8
629.361	31.95
629.693	32
630.025	31.89
630.357	32.06
630.689	31.92
631.021	32.12
631.353	32.12
631.684	32
632.016	32.1
632.348	32.34
632.679	32.44
633.011	32.52
633.342	31.91
633.674	32.16
634.005	32.38
634.336	32.22
634.668	32.73
634.999	32.61
635.33	32.35
635.661	32.27
635.992	32.3
636.323	32.4
636.654	32.45
636.985	32.9
637.316	32.46
637.647	32.79
637.977	32.47
638.308	32.62
638.639	32.68
638.969	32.71
639.3	32.9
639.63	33
639.961	32.72
640.291	33.37
640.622	33.25
640.952	33.28
641.282	32.99
641.612	32.52
641.943	33.01
642.273	32.83
642.603	33.04
642.933	33.08
643.263	32.72
643.592	32.97
643.922	33.6
644.252	33.37
644.582	33.02
644.911	33.05
645.241	32.93
645.571	33.25
645.9	33.54
646.23	33.6
646.559	33.63
646.888	33.84
647.218	33.08
647.547	33.46
647.876	33.39
648.205	33.7
648.534	33.3
648.863	33.77
649.192	33.5
649.521	33.6
649.85	33.68
650.179	33.52
650.508	33.34
650.837	34.02
651.165	33.58
651.494	33.61
651.822	33.58
652.151	33.62
652.479	33.55
652.808	33.42
653.136	33.36
653.465	34.16
653.793	33.87
654.121	33.53
654.449	33.43
654.777	34.3
655.105	33.83
655.433	33.72
655.761	34.43
656.089	34.04
656.417	33.94
656.745	34.74
657.073	34.23
657.4	33.92
657.728	33.67
658.056	34.71
658.383	34.11
658.711	34.09
659.038	34.38
659.365	34
659.693	33.87
660.02	34.5
660.347	33.9
660.674	34.1
661.001	33.82
661.329	33.85
661.656	33.78
661.982	34.21
662.309	33.86
662.636	34.5
662.963	34.51
663.29	34.14
663.616	34.36
663.943	34.52
664.27	34.03
664.596	34.94
664.923	34.41
665.249	35.36
665.576	35.09
665.902	34.5
666.228	34.8
666.554	34.07
666.881	34.45
667.207	34.14
667.533	35.32
667.859	35.17
668.185	35.21
668.511	34.74
668.837	34.98
669.162	35.1
669.488	34.5
669.814	35.39
670.139	34.63
670.465	34.61
670.791	34.6
671.116	34.93
671.442	34.73
671.767	35.3
672.092	35.23
672.418	34.79
