Data from 20-2_crown_Reflection__1__36.txt Node

Date: Fri Nov 11 20:28:22 CST 2022
User: ToomeyLab
Spectrometer: FLMS14357
Trigger mode: 0
Integration Time (sec): 1.000000E-2
Scans to average: 100
Electric dark correction enabled: true
Nonlinearity correction enabled: false
Boxcar width: 0
XAxis mode: Wavelengths
Number of Pixels in Spectrum: 2048
>>>>>Begin Spectral Data<<<<<
189.047	-1929.6
189.435	-1929.6
189.823	-1929.6
190.211	66.18
190.599	-83.72
190.987	27.87
191.375	9.07
191.763	-167.6
192.151	28.85
192.538	-27.93
192.926	145.93
193.314	356.27
193.702	145.05
194.089	222.29
194.477	-686.08
194.864	180.61
195.252	107.83
195.639	-118.76
196.027	-121.12
196.414	92.23
196.801	766.8
197.189	43.96
197.576	207.89
197.963	44.31
198.351	-2.64
198.738	37.9
199.125	16.41
199.512	28.76
199.899	-12.32
200.286	23.06
200.673	61.78
201.06	16.5
201.447	4.62
201.833	45.43
202.22	2.53
202.607	43.17
202.994	24.19
203.38	14.12
203.767	30.95
204.154	25.45
204.54	-3.31
204.927	23.85
205.313	31.03
205.699	-56.66
206.086	41.02
206.472	36.57
206.858	51.82
207.245	35.81
207.631	42.57
208.017	27.1
208.403	12.19
208.789	35.75
209.175	6.66
209.561	47.7
209.947	18.68
210.333	29.44
210.719	8.48
211.105	41.25
211.491	22.45
211.876	20.38
212.262	38.21
212.648	38.38
213.034	2.17
213.419	-26.31
213.805	15.43
214.19	22.96
214.576	6.46
214.961	-9.38
215.346	16.4
215.732	-0.17
216.117	19.73
216.502	53.88
216.888	23.89
217.273	10.51
217.658	-1.25
218.043	8.53
218.428	17.17
218.813	-7.04
219.198	10.82
219.583	20.96
219.968	13.12
220.353	13.06
220.738	-0.99
221.122	5.23
221.507	-4.67
221.892	-1.06
222.276	8.68
222.661	18.07
223.046	-14.23
223.43	8.02
223.815	11.1
224.199	14.6
224.583	8.89
224.968	-8.67
225.352	9.57
225.736	7.66
226.121	2.37
226.505	-5.85
226.889	2.54
227.273	5.62
227.657	2.65
228.041	5.95
228.425	1.38
228.809	5.42
229.193	10.77
229.577	6.82
229.961	6.67
230.344	7.46
230.728	5.7
231.112	6.13
231.495	5.96
231.879	4.68
232.263	5.22
232.646	5.56
233.03	6.59
233.413	4.86
233.797	6.37
234.18	4.59
234.563	8.25
234.946	5.13
235.33	6.16
235.713	4.56
236.096	4.31
236.479	5.58
236.862	6.46
237.245	6.81
237.628	7.07
238.011	5.72
238.394	7.41
238.777	6.53
239.16	7.89
239.543	4.39
239.925	6.48
240.308	4.45
240.691	6.06
241.073	4.95
241.456	5.12
241.838	6.28
242.221	6.56
242.603	6.81
242.986	5.7
243.368	6.07
243.75	5.72
244.133	5.41
244.515	5.52
244.897	5.62
245.279	4.78
245.661	5.55
246.043	5.62
246.425	6.95
246.807	5.76
247.189	4.52
247.571	5.3
247.953	5.61
248.335	5.43
248.717	5.43
249.098	5.77
249.48	5.12
249.862	5.71
250.243	5.38
250.625	5.36
251.006	5.77
251.388	4.95
251.769	6.28
252.151	5.88
252.532	6.22
252.913	5.43
253.295	5.14
253.676	4.45
254.057	5.08
254.438	5.55
254.819	4.61
255.2	5.36
255.581	5.07
255.962	4.57
256.343	5.1
256.724	5.01
257.105	4.54
257.486	5.09
257.867	6.02
258.247	3.93
258.628	4.69
259.009	5.12
259.389	4.6
259.77	5.86
260.15	4.99
260.531	5.3
260.911	5.01
261.292	5.04
261.672	4.72
262.052	4.97
262.432	5.26
262.813	5.23
263.193	4.59
263.573	4.59
263.953	5.02
264.333	4.71
264.713	4.85
265.093	4.76
265.473	4.57
265.853	5.16
266.233	5.29
266.612	4.64
266.992	5.52
267.372	5.32
267.752	4.52
268.131	4.26
268.511	4.9
268.89	4.57
269.27	4.46
269.649	4.64
270.029	4.81
270.408	4.6
270.787	4.84
271.167	4.03
271.546	4.72
271.925	5.29
272.304	5.08
272.683	4.32
273.062	4.49
273.441	4.64
273.82	4.86
274.199	4.66
274.578	4.42
274.957	5.19
275.336	5.19
275.715	5.18
276.093	4.48
276.472	4.51
276.851	4.67
277.229	4.45
277.608	4.53
277.986	4.86
278.365	4.41
278.743	4.35
279.122	5.05
279.5	5.35
279.878	4.77
280.257	4.95
280.635	4.32
281.013	4.36
281.391	4.35
281.769	4.64
282.147	4.59
282.525	4.14
282.903	4.55
283.281	4.78
283.659	4.69
284.037	4.71
284.415	4.6
284.792	4.35
285.17	5.04
285.548	4.47
285.925	4.08
286.303	4.65
286.68	4.4
287.058	4.63
287.435	4.41
287.813	4.63
288.19	4.03
288.567	4.48
288.945	4.71
289.322	4.46
289.699	3.99
290.076	4.67
290.453	4.19
290.83	4.27
291.207	4.43
291.584	4.73
291.961	4.19
292.338	4.28
292.715	4.19
293.092	4.52
293.469	4.23
293.845	4.55
294.222	4.23
294.599	4.65
294.975	4.37
295.352	4.83
295.728	4.07
296.105	4.04
296.481	3.91
296.858	4.2
297.234	4.32
297.61	4.19
297.986	4.36
298.363	4.32
298.739	4.17
299.115	4.41
299.491	4.66
299.867	4.11
300.243	4.26
300.619	4.43
300.995	4.36
301.371	4.93
301.746	4.48
302.122	4.48
302.498	4.51
302.874	4.52
303.249	4.39
303.625	4.09
304	3.68
304.376	4.21
304.751	3.92
305.127	4.39
305.502	4.46
305.878	4.44
306.253	4.33
306.628	4.37
307.003	4.55
307.378	4.07
307.754	4.26
308.129	4.39
308.504	4.27
308.879	4.31
309.254	4.97
309.629	3.97
310.003	4.12
310.378	4.42
310.753	4.66
311.128	4.53
311.502	4.45
311.877	4.36
312.252	4.38
312.626	4.44
313.001	4.22
313.375	4.73
313.75	4.13
314.124	3.89
314.498	4.2
314.873	3.96
315.247	4.28
315.621	4.27
315.995	4.58
316.369	4.4
316.743	4.47
317.117	4.03
317.491	3.94
317.865	3.78
318.239	4.48
318.613	4.61
318.987	3.79
319.361	3.79
319.734	4.64
320.108	3.9
320.482	4.8
320.855	4.28
321.229	4.14
321.602	4.22
321.976	4.06
322.349	4.57
322.723	4.53
323.096	4.07
323.469	4.4
323.843	4.49
324.216	3.77
324.589	4.31
324.962	4.73
325.335	4.09
325.708	4.23
326.081	4.43
326.454	4.37
326.827	3.95
327.2	4.69
327.573	4.58
327.945	4.43
328.318	4.08
328.691	4.22
329.063	4.45
329.436	3.82
329.809	3.9
330.181	3.8
330.553	3.87
330.926	4.23
331.298	4.64
331.671	4.36
332.043	3.78
332.415	4.47
332.787	4.62
333.159	4.22
333.532	4.72
333.904	4.18
334.276	4.18
334.648	4.26
335.02	4.17
335.391	4.8
335.763	4.49
336.135	4.15
336.507	3.78
336.879	4.32
337.25	4.37
337.622	4.76
337.993	5.02
338.365	4.86
338.736	4.21
339.108	4.41
339.479	4.23
339.851	4.43
340.222	4.28
340.593	4.53
340.964	4.44
341.336	4.54
341.707	4.17
342.078	4.2
342.449	4.57
342.82	4.51
343.191	4.51
343.562	4.3
343.933	4.51
344.303	4.1
344.674	4.53
345.045	4.53
345.416	4.86
345.786	4.22
346.157	4.73
346.527	4.41
346.898	4.05
347.268	4.21
347.639	4.35
348.009	4.09
348.38	4.46
348.75	4.11
349.12	4.75
349.49	4.51
349.861	4.28
350.231	4.39
350.601	3.99
350.971	4.47
351.341	4.59
351.711	4.43
352.081	5
352.45	4.5
352.82	4.15
353.19	4.59
353.56	4.54
353.929	4.44
354.299	4.57
354.669	4.58
355.038	4.51
355.408	4.67
355.777	4.43
356.147	4.35
356.516	4.43
356.885	4.39
357.254	4.02
357.624	3.91
357.993	4.46
358.362	4.58
358.731	4.24
359.1	4.52
359.469	4.23
359.838	4.38
360.207	4.61
360.576	4.57
360.945	4.39
361.314	4.32
361.682	4.32
362.051	4.35
362.42	4.64
362.788	4.79
363.157	4.14
363.525	4.4
363.894	4.36
364.262	4.59
364.631	4.88
364.999	4.63
365.367	4.37
365.735	4.56
366.104	4.5
366.472	4.32
366.84	4.17
367.208	4.27
367.576	4.95
367.944	4.65
368.312	3.97
368.68	4.72
369.048	4.54
369.416	4.65
369.783	4.93
370.151	4.68
370.519	4.9
370.886	4.45
371.254	5.02
371.621	4.55
371.989	4.65
372.356	4.85
372.724	4.95
373.091	4.76
373.458	4.8
373.826	4.63
374.193	4.69
374.56	4.48
374.927	4.67
375.294	4.79
375.661	4.96
376.028	4.43
376.395	4.78
376.762	5.01
377.129	4.41
377.496	4.66
377.863	4.6
378.229	5.02
378.596	4.59
378.963	4.33
379.329	4.67
379.696	4.72
380.062	4.95
380.429	4.61
380.795	4.83
381.161	4.67
381.528	4.76
381.894	4.67
382.26	4.81
382.626	4.63
382.993	4.77
383.359	4.99
383.725	4.62
384.091	5
384.457	4.87
384.823	4.71
385.188	4.63
385.554	4.87
385.92	4.62
386.286	4.65
386.651	4.74
387.017	4.7
387.383	4.9
387.748	4.61
388.114	4.78
388.479	4.39
388.845	4.64
389.21	4.47
389.575	4.85
389.94	4.97
390.306	4.84
390.671	4.96
391.036	4.59
391.401	4.94
391.766	4.83
392.131	4.72
392.496	4.95
392.861	4.62
393.226	4.69
393.591	4.71
393.956	4.74
394.32	4.82
394.685	4.71
395.05	4.7
395.414	4.56
395.779	4.5
396.143	4.66
396.508	4.9
396.872	4.92
397.236	4.68
397.601	4.75
397.965	4.86
398.329	4.93
398.694	5.01
399.058	4.85
399.422	4.83
399.786	4.64
400.15	4.95
400.514	4.92
400.878	4.78
401.242	4.77
401.605	4.88
401.969	4.96
402.333	4.62
402.697	4.87
403.06	5.13
403.424	4.65
403.787	5.06
404.151	4.86
404.514	4.75
404.878	4.68
405.241	4.91
405.604	4.67
405.968	4.96
406.331	4.6
406.694	4.69
407.057	4.79
407.42	4.91
407.783	4.7
408.146	4.85
408.509	5.08
408.872	4.87
409.235	5.09
409.598	4.91
409.961	5.11
410.323	4.9
410.686	4.95
411.049	4.81
411.411	4.87
411.774	4.69
412.136	4.85
412.499	4.99
412.861	5.02
413.223	4.8
413.586	4.92
413.948	4.88
414.31	4.92
414.672	4.86
415.035	5.05
415.397	4.65
415.759	4.91
416.121	4.91
416.483	4.83
416.845	5
417.206	4.69
417.568	4.71
417.93	4.84
418.292	4.65
418.653	4.89
419.015	4.79
419.377	4.9
419.738	4.77
420.1	4.75
420.461	4.86
420.822	4.72
421.184	4.68
421.545	4.72
421.906	4.77
422.267	4.67
422.629	4.56
422.99	4.67
423.351	4.71
423.712	4.65
424.073	4.73
424.434	4.73
424.795	4.79
425.155	4.81
425.516	4.62
425.877	4.65
426.238	4.69
426.598	4.72
426.959	4.7
427.32	4.8
427.68	4.8
428.041	4.83
428.401	4.67
428.761	4.88
429.122	4.74
429.482	4.95
429.842	4.85
430.202	4.87
430.563	4.92
430.923	4.89
431.283	4.72
431.643	4.65
432.003	4.86
432.363	4.85
432.722	5.05
433.082	4.93
433.442	4.87
433.802	4.84
434.161	4.92
434.521	4.86
434.881	4.91
435.24	4.75
435.6	4.84
435.959	4.82
436.319	4.65
436.678	4.76
437.037	4.85
437.396	4.96
437.756	4.8
438.115	4.85
438.474	4.91
438.833	4.78
439.192	4.92
439.551	4.91
439.91	4.86
440.269	4.8
440.628	5.01
440.987	4.77
441.345	4.82
441.704	4.79
442.063	4.86
442.421	4.77
442.78	4.65
443.138	4.79
443.497	4.77
443.855	4.87
444.214	4.87
444.572	4.9
444.93	4.96
445.288	4.8
445.647	4.89
446.005	4.98
446.363	4.91
446.721	4.8
447.079	4.89
447.437	4.76
447.795	4.72
448.153	4.65
448.51	4.73
448.868	4.76
449.226	4.78
449.584	4.76
449.941	4.78
450.299	4.74
450.656	4.9
451.014	4.94
451.371	4.83
451.729	4.79
452.086	4.8
452.443	4.77
452.801	5.04
453.158	4.9
453.515	4.87
453.872	4.74
454.229	4.71
454.586	4.91
454.943	4.97
455.3	5.02
455.657	4.99
456.014	4.88
456.371	4.99
456.727	4.98
457.084	4.77
457.441	5.04
457.797	4.88
458.154	4.77
458.51	4.9
458.867	4.78
459.223	4.85
459.58	4.94
459.936	4.75
460.292	4.8
460.648	4.8
461.005	4.85
461.361	4.77
461.717	4.67
462.073	4.89
462.429	4.76
462.785	4.76
463.141	4.7
463.496	4.82
463.852	4.9
464.208	4.92
464.564	4.89
464.919	4.87
465.275	4.79
465.631	4.9
465.986	5.09
466.342	5.05
466.697	4.82
467.052	4.84
467.408	4.76
467.763	4.9
468.118	4.79
468.473	4.93
468.829	4.91
469.184	4.82
469.539	5.05
469.894	4.98
470.249	5.05
470.603	4.91
470.958	4.88
471.313	5.05
471.668	4.95
472.023	4.71
472.377	4.85
472.732	4.95
473.086	4.88
473.441	4.95
473.795	4.75
474.15	4.89
474.504	5.04
474.859	4.85
475.213	4.98
475.567	4.91
475.921	4.93
476.275	4.97
476.63	4.91
476.984	4.99
477.338	4.95
477.692	4.83
478.045	4.63
478.399	4.87
478.753	4.79
479.107	4.87
479.461	4.81
479.814	4.79
480.168	4.87
480.521	4.95
480.875	5.01
481.228	4.87
481.582	4.94
481.935	4.72
482.289	4.68
482.642	4.89
482.995	4.83
483.348	4.78
483.701	4.83
484.055	4.77
484.408	4.7
484.761	4.57
485.114	4.51
485.466	4.4
485.819	4.45
486.172	4.51
486.525	4.65
486.878	4.64
487.23	4.67
487.583	4.71
487.936	4.7
488.288	4.67
488.641	4.56
488.993	4.59
489.345	4.51
489.698	4.56
490.05	4.6
490.402	4.64
490.754	4.71
491.107	4.68
491.459	4.68
491.811	4.78
492.163	4.76
492.515	4.7
492.866	4.66
493.218	4.54
493.57	4.55
493.922	4.59
494.274	4.75
494.625	4.75
494.977	4.84
495.328	4.85
495.68	4.79
496.031	4.8
496.383	4.94
496.734	4.85
497.086	4.91
497.437	4.92
497.788	4.68
498.139	4.75
498.49	4.66
498.842	4.76
499.193	4.77
499.544	4.86
499.894	4.76
500.245	4.83
500.596	4.87
500.947	4.73
501.298	4.79
501.648	4.84
501.999	4.86
502.35	4.96
502.7	4.92
503.051	4.88
503.401	4.87
503.752	4.83
504.102	4.82
504.452	4.97
504.803	4.8
505.153	4.86
505.503	4.93
505.853	4.78
506.203	4.93
506.553	4.78
506.903	4.75
507.253	4.82
507.603	4.87
507.953	4.87
508.303	4.81
508.652	4.86
509.002	4.82
509.352	4.82
509.701	4.88
510.051	4.8
510.4	4.89
510.75	4.82
511.099	4.67
511.449	4.81
511.798	4.86
512.147	4.72
512.496	4.71
512.846	4.87
513.195	4.73
513.544	4.77
513.893	4.72
514.242	4.71
514.591	4.89
514.939	4.83
515.288	4.77
515.637	4.88
515.986	4.85
516.334	4.8
516.683	4.85
517.032	4.88
517.38	4.79
517.729	4.85
518.077	4.83
518.426	4.92
518.774	4.76
519.122	4.91
519.47	4.76
519.819	4.62
520.167	4.64
520.515	4.73
520.863	4.66
521.211	4.76
521.559	4.66
521.907	4.84
522.255	4.76
522.602	4.86
522.95	4.71
523.298	4.78
523.645	4.87
523.993	4.87
524.341	4.86
524.688	4.83
525.036	4.74
525.383	4.88
525.73	4.76
526.078	4.68
526.425	4.67
526.772	4.71
527.119	4.6
527.466	4.64
527.814	4.7
528.161	4.75
528.508	4.64
528.854	4.67
529.201	4.7
529.548	4.58
529.895	4.44
530.242	4.43
530.588	4.43
530.935	4.48
531.282	4.54
531.628	4.57
531.975	4.61
532.321	4.64
532.667	4.71
533.014	4.66
533.36	4.73
533.706	4.78
534.052	4.64
534.399	4.61
534.745	4.55
535.091	4.55
535.437	4.51
535.783	4.52
536.129	4.69
536.474	4.7
536.82	4.66
537.166	4.7
537.512	4.67
537.857	4.62
538.203	4.63
538.549	4.7
538.894	4.67
539.239	4.7
539.585	4.68
539.93	4.75
540.276	4.89
540.621	4.78
540.966	4.88
541.311	4.62
541.656	4.71
542.001	4.7
542.346	4.58
542.691	4.54
543.036	4.48
543.381	4.45
543.726	4.46
544.071	4.63
544.415	4.64
544.76	4.66
545.105	4.62
545.449	4.51
545.794	4.78
546.138	4.68
546.483	4.75
546.827	4.77
547.171	4.77
547.516	4.66
547.86	4.58
548.204	4.75
548.548	4.64
548.892	4.65
549.236	4.57
549.58	4.7
549.924	4.74
550.268	4.9
550.612	4.81
550.956	4.89
551.3	4.67
551.643	4.85
551.987	4.71
552.33	4.83
552.674	4.71
553.017	4.87
553.361	4.85
553.704	4.78
554.048	4.72
554.391	4.79
554.734	4.79
555.077	4.81
555.42	4.75
555.764	4.9
556.107	4.76
556.45	4.91
556.793	4.88
557.135	4.74
557.478	4.75
557.821	4.82
558.164	4.86
558.507	4.82
558.849	4.8
559.192	4.69
559.534	4.83
559.877	4.88
560.219	4.78
560.562	4.98
560.904	4.97
561.246	4.58
561.589	4.8
561.931	4.61
562.273	4.77
562.615	4.8
562.957	4.85
563.299	4.74
563.641	4.74
563.983	4.69
564.325	4.82
564.667	4.87
565.008	4.96
565.35	4.85
565.692	4.5
566.033	4.64
566.375	4.87
566.716	4.8
567.058	4.75
567.399	4.85
567.741	4.82
568.082	4.65
568.423	4.77
568.764	4.82
569.105	4.56
569.447	4.71
569.788	4.85
570.129	4.61
570.47	4.69
570.811	4.74
571.151	4.72
571.492	4.68
571.833	4.69
572.174	4.86
572.514	4.7
572.855	4.78
573.195	4.58
573.536	4.7
573.876	4.65
574.217	4.75
574.557	4.71
574.898	4.78
575.238	4.63
575.578	4.66
575.918	4.96
576.258	4.72
576.598	4.63
576.938	4.78
577.278	4.56
577.618	4.71
577.958	4.83
578.298	4.73
578.638	4.77
578.977	4.8
579.317	4.86
579.657	4.66
579.996	4.7
580.336	4.55
580.675	4.78
581.014	4.82
581.354	4.64
581.693	4.61
582.032	4.8
582.372	4.76
582.711	4.85
583.05	4.8
583.389	4.94
583.728	4.72
584.067	4.87
584.406	4.71
584.745	4.87
585.083	4.67
585.422	4.69
585.761	4.81
586.1	4.69
586.438	4.86
586.777	4.65
587.115	4.65
587.454	4.55
587.792	4.63
588.13	4.57
588.469	4.65
588.807	4.68
589.145	4.63
589.483	4.98
589.821	4.71
590.159	4.91
590.497	4.97
590.835	4.75
591.173	4.84
591.511	4.66
591.849	4.74
592.187	4.65
592.524	4.55
592.862	4.59
593.2	4.86
593.537	4.71
593.875	4.86
594.212	4.65
594.55	4.83
594.887	4.75
595.224	4.57
595.561	4.68
595.899	4.52
596.236	4.7
596.573	4.49
596.91	4.81
597.247	4.69
597.584	4.58
597.921	4.58
598.258	4.56
598.594	4.74
598.931	4.47
599.268	4.59
599.604	4.67
599.941	4.68
600.277	4.86
600.614	4.86
600.95	4.52
601.287	4.97
601.623	4.97
601.959	4.79
602.296	4.65
602.632	4.57
602.968	4.76
603.304	4.64
603.64	4.9
603.976	4.89
604.312	4.72
604.648	4.62
604.984	4.68
605.319	4.8
605.655	4.56
605.991	4.56
606.326	4.95
606.662	4.71
606.998	4.61
607.333	4.69
607.668	4.44
608.004	4.68
608.339	4.53
608.674	4.7
609.01	4.75
609.345	4.62
609.68	4.51
610.015	4.67
610.35	4.56
610.685	4.67
611.02	4.54
611.355	4.51
611.689	4.6
612.024	4.52
612.359	4.57
612.694	4.51
613.028	4.7
613.363	4.72
613.697	4.66
614.032	4.89
614.366	4.61
614.7	4.6
615.035	4.56
615.369	4.49
615.703	4.64
616.037	4.77
616.371	4.84
616.705	4.55
617.039	4.79
617.373	4.36
617.707	4.74
618.041	4.62
618.375	4.44
618.709	4.79
619.042	4.87
619.376	4.85
619.71	4.66
620.043	4.79
620.377	4.58
620.71	4.71
621.043	4.47
621.377	4.98
621.71	4.61
622.043	4.8
622.376	4.78
622.709	4.64
623.043	4.76
623.376	4.98
623.709	5
624.041	4.84
624.374	4.35
624.707	4.96
625.04	4.88
625.373	4.37
625.705	4.77
626.038	4.7
626.37	4.83
626.703	4.52
627.035	4.64
627.368	4.4
627.7	4.28
628.032	4.52
628.365	4.79
628.697	4.3
629.029	4.66
629.361	4.52
629.693	4.48
630.025	4.56
630.357	4.52
630.689	4.4
631.021	4.7
631.353	4.77
631.684	4.41
632.016	4.6
632.348	4.41
632.679	4.16
633.011	4.57
633.342	4.77
633.674	4.54
634.005	4.69
634.336	4.52
634.668	4.83
634.999	4.37
635.33	4.86
635.661	4.75
635.992	4.82
636.323	4.71
636.654	4.82
636.985	4.52
637.316	4.52
637.647	4.91
637.977	4.72
638.308	4.72
638.639	4.52
638.969	4.36
639.3	4.93
639.63	4.92
639.961	4.8
640.291	4.84
640.622	4.97
640.952	4.41
641.282	4.35
641.612	4.5
641.943	4.93
642.273	4.3
642.603	4.85
642.933	4.72
643.263	4.52
643.592	4.87
643.922	4.94
644.252	4.9
644.582	4.61
644.911	4.32
645.241	4.54
645.571	4.19
645.9	4.79
646.23	5.03
646.559	4.52
646.888	4.63
647.218	4.39
647.547	3.94
647.876	4.57
648.205	4.64
648.534	4.48
648.863	4.61
649.192	4.43
649.521	4.37
649.85	4.62
650.179	4.62
650.508	4.93
650.837	4.93
651.165	4.29
651.494	4.75
651.822	4.32
652.151	4.03
652.479	4.09
652.808	4.79
653.136	4.14
653.465	4.84
653.793	4.97
654.121	4.38
654.449	4.39
654.777	4.99
655.105	4.57
655.433	4.69
655.761	4.59
656.089	4.7
656.417	4.04
656.745	4.64
657.073	4.62
657.4	4.44
657.728	4.53
658.056	5.26
658.383	4.62
658.711	4.13
659.038	4.77
659.365	4.09
659.693	4.64
660.02	5.09
660.347	4.68
660.674	4.53
661.001	4.71
661.329	4.46
661.656	4.22
661.982	4.73
662.309	4.65
662.636	4.85
662.963	4.73
663.29	4.85
663.616	4.28
663.943	4.98
664.27	4.77
664.596	5.14
664.923	5.1
665.249	4.64
665.576	5.16
665.902	5.11
666.228	4.84
666.554	4.68
666.881	4.24
667.207	4.52
667.533	4.85
667.859	5.38
668.185	5
668.511	4.46
668.837	4.92
669.162	4.37
669.488	4.83
669.814	4.94
670.139	4.46
670.465	3.89
670.791	4.35
671.116	4.73
671.442	5
671.767	5.11
672.092	4.71
672.418	4.68
672.743	4.83
673.068	4.99
673.393	5.64
673.718	4.57
674.043	4.76
674.368	4.34
674.693	4.11
675.018	5.05
675.343	5.11
675.667	5.1
675.992	5.3
676.317	4.25
676.641	4.55
676.966	4.92
677.29	3.94
677.615	4.93
677.939	5.09
678.264	4.78
678.588	4.53
678.912	4.91
679.236	4.74
679.56	5.01
679.885	4
680.209	4.57
680.532	5.03
680.856	5.47
681.18	4.94
681.504	4.65
681.828	4.53
682.152	4.29
682.475	4.78
682.799	4.63
683.122	4.66
683.446	5.29
683.769	5.09
684.093	5.18
684.416	4.5
684.739	5.1
685.062	4.56
685.386	4.59
685.709	4.38
686.032	4.62
686.355	4.24
686.678	5.44
687.001	4.64
687.324	4.31
687.646	4.34
687.969	4.84
688.292	5.48
688.614	3.87
688.937	5.03
689.26	3.89
689.582	5.14
689.904	4.43
690.227	4.79
690.549	4.84
690.871	4.57
691.194	4.45
691.516	4.6
691.838	4.11
692.16	4.83
692.482	4.68
