Data from 20-2_chest_Reflection__0__30.txt Node

Date: Fri Nov 11 20:26:37 CST 2022
User: ToomeyLab
Spectrometer: FLMS14357
Trigger mode: 0
Integration Time (sec): 1.000000E-2
Scans to average: 100
Electric dark correction enabled: true
Nonlinearity correction enabled: false
Boxcar width: 0
XAxis mode: Wavelengths
Number of Pixels in Spectrum: 2048
>>>>>Begin Spectral Data<<<<<
189.047	-300.8
189.435	-300.8
189.823	-300.8
190.211	-117.13
190.599	-93.02
190.987	696.05
191.375	-0
191.763	-93.08
192.151	74.91
192.538	43.39
192.926	848.29
193.314	184.44
193.702	163.27
194.089	-103.92
194.477	-467.67
194.864	32.15
195.252	112.85
195.639	-158.63
196.027	122.73
196.414	34.94
196.801	787.35
197.189	186.01
197.576	10.51
197.963	-24.9
198.351	-21.49
198.738	12.49
199.125	10.1
199.512	66.99
199.899	-65.28
200.286	41.19
200.673	9.52
201.06	42.14
201.447	53.19
201.833	27.41
202.22	6.86
202.607	22.27
202.994	10.97
203.38	35.45
203.767	24.05
204.154	11.53
204.54	9.37
204.927	14.78
205.313	50.86
205.699	-52.7
206.086	46.55
206.472	11.58
206.858	19.64
207.245	35.69
207.631	32.24
208.017	30.92
208.403	24.61
208.789	-15.15
209.175	52.8
209.561	30.1
209.947	29.35
210.333	21.75
210.719	26.71
211.105	39.99
211.491	3.93
211.876	27.7
212.262	46.27
212.648	25.23
213.034	4.33
213.419	-7.36
213.805	3.81
214.19	3.18
214.576	22.76
214.961	-28.91
215.346	8.89
215.732	6.71
216.117	17.63
216.502	13.62
216.888	-2.53
217.273	17.35
217.658	-20.89
218.043	28.53
218.428	9.22
218.813	18.25
219.198	19.87
219.583	27.71
219.968	14.54
220.353	10.86
220.738	1.67
221.122	22.09
221.507	-20.14
221.892	8.57
222.276	15.69
222.661	21.16
223.046	10.55
223.43	6.3
223.815	14.83
224.199	18.06
224.583	-2.59
224.968	4.51
225.352	9.06
225.736	7.11
226.121	8.53
226.505	13.7
226.889	-4.28
227.273	6.6
227.657	-0.09
228.041	4.64
228.425	4.08
228.809	4.86
229.193	7.1
229.577	5.6
229.961	4.98
230.344	5.65
230.728	4.58
231.112	4.42
231.495	5.25
231.879	3.57
232.263	4.02
232.646	4.25
233.03	5.34
233.413	6.12
233.797	6.1
234.18	4.9
234.563	6.24
234.946	4.03
235.33	5.85
235.713	5.43
236.096	4.72
236.479	4.08
236.862	7.27
237.245	6.8
237.628	6.01
238.011	5.1
238.394	5.59
238.777	5.71
239.16	6.19
239.543	3.37
239.925	4.96
240.308	6.03
240.691	5.95
241.073	4.45
241.456	3.73
241.838	5.23
242.221	5.14
242.603	4.9
242.986	4.58
243.368	4.84
243.75	4.43
244.133	4.67
244.515	4
244.897	5.17
245.279	3.63
245.661	4.64
246.043	5.28
246.425	5.22
246.807	4.85
247.189	4.38
247.571	4.42
247.953	4.29
248.335	4.44
248.717	4.51
249.098	4.51
249.48	4
249.862	4.54
250.243	4.33
250.625	4.7
251.006	5.04
251.388	5.34
251.769	4.83
252.151	4.77
252.532	3.65
252.913	4.92
253.295	4.15
253.676	3.7
254.057	4.22
254.438	4.23
254.819	3.04
255.2	5.07
255.581	3.87
255.962	3.82
256.343	4.07
256.724	4.87
257.105	3.89
257.486	3.71
257.867	4.49
258.247	2.79
258.628	3.99
259.009	3.59
259.389	3.9
259.77	5.22
260.15	4.2
260.531	4.03
260.911	4.16
261.292	4.1
261.672	3.94
262.052	3.92
262.432	3.96
262.813	4.35
263.193	4.06
263.573	4.05
263.953	4.26
264.333	3.81
264.713	3.76
265.093	4.73
265.473	3.24
265.853	4.74
266.233	4.36
266.612	4.39
266.992	4.17
267.372	4.87
267.752	3.94
268.131	3.62
268.511	4.13
268.89	3.72
269.27	4.08
269.649	3.74
270.029	3.9
270.408	4.11
270.787	4.13
271.167	3.4
271.546	4.2
271.925	4.01
272.304	3.51
272.683	3.74
273.062	3.55
273.441	3.57
273.82	3.84
274.199	3.96
274.578	3.8
274.957	3.75
275.336	4.05
275.715	3.82
276.093	3.38
276.472	3.54
276.851	4.19
277.229	3.69
277.608	4.03
277.986	4
278.365	3.8
278.743	3.88
279.122	4.31
279.5	3.6
279.878	4.55
280.257	3.68
280.635	3.36
281.013	3.91
281.391	4.06
281.769	3.16
282.147	3.63
282.525	3.25
282.903	3.69
283.281	3.69
283.659	4.09
284.037	3.88
284.415	3.64
284.792	4.14
285.17	3.95
285.548	3.85
285.925	3.69
286.303	3.4
286.68	4.03
287.058	4.19
287.435	3.88
287.813	3.67
288.19	3.67
288.567	3.91
288.945	3.77
289.322	4.33
289.699	3.42
290.076	4.42
290.453	3.67
290.83	3.66
291.207	3.85
291.584	3.66
291.961	3.82
292.338	3.91
292.715	4.1
293.092	4.31
293.469	4.08
293.845	4.02
294.222	3.65
294.599	4.32
294.975	3.98
295.352	3.81
295.728	4.18
296.105	4
296.481	3.7
296.858	3.92
297.234	4.1
297.61	3.43
297.986	4.05
298.363	3.94
298.739	4.06
299.115	4.19
299.491	3.87
299.867	3.89
300.243	3.98
300.619	3.96
300.995	4.02
301.371	4.28
301.746	4.13
302.122	4.22
302.498	4.06
302.874	3.91
303.249	4.22
303.625	3.91
304	3.36
304.376	3.84
304.751	3.55
305.127	3.66
305.502	4.05
305.878	4.44
306.253	3.83
306.628	3.79
307.003	3.9
307.378	3.89
307.754	4.53
308.129	3.72
308.504	4.12
308.879	4.16
309.254	4.3
309.629	3.78
310.003	3.93
310.378	4.18
310.753	4.44
311.128	4.41
311.502	4.16
311.877	4.04
312.252	4.35
312.626	3.84
313.001	3.89
313.375	4.1
313.75	3.93
314.124	3.7
314.498	4.4
314.873	3.75
315.247	4.38
315.621	4.22
315.995	4.1
316.369	4.24
316.743	4
317.117	4.26
317.491	4.38
317.865	4.18
318.239	4.13
318.613	4.3
318.987	3.7
319.361	4.09
319.734	4.43
320.108	4.11
320.482	4.66
320.855	4.2
321.229	4.33
321.602	4.33
321.976	4.55
322.349	3.86
322.723	4.33
323.096	4.36
323.469	4.56
323.843	4.37
324.216	4.27
324.589	4.85
324.962	4.61
325.335	4.09
325.708	4.48
326.081	4.19
326.454	4.02
326.827	4
327.2	4.79
327.573	5.26
327.945	4.04
328.318	3.98
328.691	4.34
329.063	4.28
329.436	4.09
329.809	4.09
330.181	3.68
330.553	4.01
330.926	4.4
331.298	4.21
331.671	4.32
332.043	3.95
332.415	4
332.787	4.16
333.159	4.61
333.532	4.57
333.904	4.6
334.276	3.81
334.648	4.39
335.02	4.41
335.391	4.78
335.763	4.3
336.135	4.15
336.507	4.08
336.879	4.63
337.25	4.21
337.622	4.48
337.993	4.41
338.365	4.9
338.736	4.28
339.108	4.28
339.479	4.16
339.851	4.38
340.222	4.06
340.593	4.71
340.964	4.41
341.336	4.52
341.707	4.29
342.078	4.11
342.449	4.16
342.82	4.48
343.191	4.6
343.562	4.55
343.933	4.29
344.303	4.16
344.674	4.42
345.045	4.13
345.416	4.43
345.786	4.13
346.157	4.26
346.527	4.32
346.898	3.99
347.268	4.3
347.639	4.16
348.009	4.07
348.38	4.34
348.75	4.03
349.12	4.86
349.49	4.55
349.861	4.34
350.231	4.11
350.601	4.61
350.971	4.4
351.341	4.51
351.711	4.38
352.081	4.35
352.45	4.61
352.82	4.06
353.19	4.59
353.56	4.12
353.929	4.23
354.299	4.15
354.669	4.51
355.038	4.36
355.408	4.3
355.777	4.35
356.147	4.74
356.516	4.29
356.885	4.43
357.254	4.07
357.624	3.75
357.993	4.26
358.362	4.41
358.731	3.83
359.1	4.23
359.469	3.87
359.838	4.11
360.207	4.47
360.576	4.43
360.945	4.39
361.314	4.08
361.682	4.01
362.051	4.05
362.42	4.46
362.788	4.44
363.157	3.96
363.525	4.12
363.894	4.21
364.262	4.48
364.631	4.56
364.999	4.24
365.367	4.41
365.735	4.29
366.104	4.21
366.472	4.28
366.84	4.02
367.208	4.17
367.576	4.6
367.944	4.44
368.312	4.32
368.68	4.45
369.048	4.27
369.416	4.37
369.783	4.42
370.151	4.46
370.519	4.36
370.886	4.38
371.254	4.74
371.621	4.03
371.989	4.12
372.356	4.67
372.724	4.63
373.091	4.6
373.458	4.2
373.826	4.46
374.193	4.12
374.56	4.27
374.927	4.31
375.294	4.43
375.661	4.3
376.028	4.12
376.395	4.62
376.762	4.51
377.129	4.25
377.496	4.45
377.863	4.57
378.229	4.57
378.596	4.13
378.963	4.29
379.329	4.65
379.696	4.54
380.062	4.44
380.429	4.54
380.795	4.8
381.161	4.49
381.528	4.52
381.894	4.61
382.26	4.53
382.626	4.55
382.993	4.26
383.359	4.75
383.725	4.36
384.091	4.52
384.457	4.46
384.823	4.3
385.188	4.33
385.554	4.39
385.92	4.15
386.286	4.48
386.651	4.45
387.017	4
387.383	4.29
387.748	4.53
388.114	4.19
388.479	4.13
388.845	4.36
389.21	4.23
389.575	4.48
389.94	4.41
390.306	4.27
390.671	4.38
391.036	4.39
391.401	4.55
391.766	4.34
392.131	4.46
392.496	4.48
392.861	4.32
393.226	4.5
393.591	4.21
393.956	4.15
394.32	4.28
394.685	4.59
395.05	4.54
395.414	4.21
395.779	4.36
396.143	4.3
396.508	4.46
396.872	4.54
397.236	4.34
397.601	4.53
397.965	4.54
398.329	4.54
398.694	4.6
399.058	4.53
399.422	4.55
399.786	4.2
400.15	4.41
400.514	4.45
400.878	4.55
401.242	4.47
401.605	4.46
401.969	4.6
402.333	4.12
402.697	4.4
403.06	4.63
403.424	4.09
403.787	4.43
404.151	4.35
404.514	4.52
404.878	4.38
405.241	4.56
405.604	4.41
405.968	4.37
406.331	4.46
406.694	4.34
407.057	4.41
407.42	4.46
407.783	4.54
408.146	4.52
408.509	4.56
408.872	4.26
409.235	4.59
409.598	4.55
409.961	4.54
410.323	4.54
410.686	4.6
411.049	4.56
411.411	4.32
411.774	4.45
412.136	4.48
412.499	4.39
412.861	4.51
413.223	4.29
413.586	4.41
413.948	4.48
414.31	4.65
414.672	4.65
415.035	4.42
415.397	4.53
415.759	4.42
416.121	4.17
416.483	4.4
416.845	4.44
417.206	4.31
417.568	4.27
417.93	4.38
418.292	4.28
418.653	4.55
419.015	4.55
419.377	4.42
419.738	4.36
420.1	4.46
420.461	4.4
420.822	4.38
421.184	4.26
421.545	4.45
421.906	4.39
422.267	4.33
422.629	4.3
422.99	4.24
423.351	4.3
423.712	4.26
424.073	4.35
424.434	4.38
424.795	4.42
425.155	4.37
425.516	4.36
425.877	4.42
426.238	4.36
426.598	4.27
426.959	4.3
427.32	4.38
427.68	4.48
428.041	4.57
428.401	4.28
428.761	4.56
429.122	4.41
429.482	4.65
429.842	4.57
430.202	4.57
430.563	4.69
430.923	4.58
431.283	4.46
431.643	4.36
432.003	4.62
432.363	4.51
432.722	4.67
433.082	4.64
433.442	4.64
433.802	4.78
434.161	4.55
434.521	4.4
434.881	4.67
435.24	4.47
435.6	4.41
435.959	4.55
436.319	4.44
436.678	4.53
437.037	4.52
437.396	4.63
437.756	4.54
438.115	4.47
438.474	4.46
438.833	4.45
439.192	4.7
439.551	4.41
439.91	4.45
440.269	4.49
440.628	4.6
440.987	4.54
441.345	4.51
441.704	4.5
442.063	4.49
442.421	4.45
442.78	4.37
443.138	4.54
443.497	4.52
443.855	4.51
444.214	4.35
444.572	4.68
444.93	4.57
445.288	4.59
445.647	4.63
446.005	4.69
446.363	4.6
446.721	4.57
447.079	4.64
447.437	4.48
447.795	4.52
448.153	4.43
448.51	4.53
448.868	4.55
449.226	4.51
449.584	4.47
449.941	4.54
450.299	4.47
450.656	4.52
451.014	4.66
451.371	4.61
451.729	4.61
452.086	4.61
452.443	4.56
452.801	4.62
453.158	4.62
453.515	4.58
453.872	4.55
454.229	4.59
454.586	4.51
454.943	4.78
455.3	4.67
455.657	4.67
456.014	4.78
456.371	4.73
456.727	4.78
457.084	4.47
457.441	4.7
457.797	4.62
458.154	4.76
458.51	4.73
458.867	4.57
459.223	4.81
459.58	4.75
459.936	4.62
460.292	4.67
460.648	4.57
461.005	4.57
461.361	4.53
461.717	4.52
462.073	4.66
462.429	4.57
462.785	4.64
463.141	4.6
463.496	4.69
463.852	4.74
464.208	4.77
464.564	4.82
464.919	4.57
465.275	4.66
465.631	4.68
465.986	4.99
466.342	4.7
466.697	4.64
467.052	4.79
467.408	4.92
467.763	4.76
468.118	4.74
468.473	4.74
468.829	4.73
469.184	4.75
469.539	4.83
469.894	4.73
470.249	4.72
470.603	4.72
470.958	4.69
471.313	4.84
471.668	4.92
472.023	4.81
472.377	4.89
472.732	4.6
473.086	4.66
473.441	4.92
473.795	4.71
474.15	4.66
474.504	4.87
474.859	4.83
475.213	4.9
475.567	4.9
475.921	4.82
476.275	4.83
476.63	4.75
476.984	4.86
477.338	4.84
477.692	4.65
478.045	4.89
478.399	5.03
478.753	4.66
479.107	4.86
479.461	4.79
479.814	4.76
480.168	4.82
480.521	4.77
480.875	4.91
481.228	4.79
481.582	4.82
481.935	4.76
482.289	4.7
482.642	4.72
482.995	4.74
483.348	4.72
483.701	4.74
484.055	4.69
484.408	4.72
484.761	4.61
485.114	4.51
485.466	4.45
485.819	4.41
486.172	4.49
486.525	4.59
486.878	4.65
487.23	4.6
487.583	4.67
487.936	4.61
488.288	4.74
488.641	4.57
488.993	4.6
489.345	4.56
489.698	4.62
490.05	4.59
490.402	4.61
490.754	4.73
491.107	4.73
491.459	4.7
491.811	4.79
492.163	4.77
492.515	4.73
492.866	4.67
493.218	4.59
493.57	4.61
493.922	4.69
494.274	4.75
494.625	4.77
494.977	4.86
495.328	4.87
495.68	4.94
496.031	4.79
496.383	4.93
496.734	4.95
497.086	4.89
497.437	4.85
497.788	4.88
498.139	4.98
498.49	4.83
498.842	4.77
499.193	4.96
499.544	5.04
499.894	4.93
500.245	4.95
500.596	4.98
500.947	4.87
501.298	4.97
501.648	4.98
501.999	4.97
502.35	5.13
502.7	4.94
503.051	5.05
503.401	4.98
503.752	4.88
504.102	4.85
504.452	5.18
504.803	4.98
505.153	5.09
505.503	4.97
505.853	5.04
506.203	5.04
506.553	4.87
506.903	4.94
507.253	5.02
507.603	5.12
507.953	5.04
508.303	4.95
508.652	5.02
509.002	5.09
509.352	5.09
509.701	5.14
510.051	5.08
510.4	5.09
510.75	5
511.099	5.03
511.449	5.1
511.798	5.03
512.147	4.99
512.496	4.95
512.846	5.19
513.195	5.08
513.544	5.05
513.893	5.03
514.242	5.01
514.591	5.09
514.939	5.19
515.288	5.06
515.637	5.11
515.986	5.12
516.334	5.09
516.683	5.25
517.032	5.19
517.38	5.13
517.729	5.29
518.077	5.14
518.426	5.25
518.774	5.11
519.122	5.23
519.47	5.16
519.819	5.2
520.167	5.05
520.515	5.08
520.863	5.15
521.211	5.15
521.559	5.12
521.907	5.2
522.255	5.11
522.602	5.23
522.95	5.13
523.298	5.29
523.645	5.25
523.993	5.26
524.341	5.46
524.688	5.34
525.036	5.28
525.383	5.4
525.73	5.21
526.078	5.17
526.425	5.17
526.772	5.24
527.119	5.14
527.466	5.25
527.814	5.28
528.161	5.26
528.508	5.17
528.854	5.24
529.201	5.2
529.548	5.06
529.895	5.07
530.242	4.98
530.588	5.07
530.935	5.08
531.282	5.21
531.628	5.15
531.975	5.23
532.321	5.24
532.667	5.34
533.014	5.28
533.36	5.29
533.706	5.41
534.052	5.35
534.399	5.32
534.745	5.25
535.091	5.29
535.437	5.29
535.783	5.31
536.129	5.36
536.474	5.49
536.82	5.36
537.166	5.4
537.512	5.38
537.857	5.38
538.203	5.4
538.549	5.48
538.894	5.42
539.239	5.5
539.585	5.55
539.93	5.55
540.276	5.7
540.621	5.57
540.966	5.66
541.311	5.66
541.656	5.68
542.001	5.52
542.346	5.49
542.691	5.45
543.036	5.36
543.381	5.39
543.726	5.38
544.071	5.49
544.415	5.5
544.76	5.64
545.105	5.49
545.449	5.5
545.794	5.61
546.138	5.71
546.483	5.71
546.827	5.74
547.171	5.79
547.516	5.66
547.86	5.61
548.204	5.73
548.548	5.73
548.892	5.77
549.236	5.7
549.58	5.84
549.924	5.91
550.268	5.89
550.612	5.95
550.956	5.98
551.3	5.95
551.643	5.85
551.987	6.08
552.33	6.03
552.674	5.92
553.017	6.09
553.361	6.17
553.704	6.23
554.048	5.97
554.391	5.97
554.734	6.14
555.077	6.05
555.42	6.06
555.764	6.13
556.107	6.16
556.45	6.23
556.793	6.22
557.135	6.14
557.478	6.3
557.821	6.26
558.164	6.15
558.507	6.16
558.849	6.2
559.192	6.16
559.534	6.38
559.877	6.49
560.219	6.36
560.562	6.28
560.904	6.37
561.246	6.23
561.589	6.41
561.931	6.12
562.273	6.36
562.615	6.25
562.957	6.4
563.299	6.38
563.641	6.2
563.983	6.3
564.325	6.4
564.667	6.48
565.008	6.52
565.35	6.5
565.692	6.34
566.033	6.31
566.375	6.57
566.716	6.5
567.058	6.49
567.399	6.69
567.741	6.54
568.082	6.51
568.423	6.61
568.764	6.74
569.105	6.52
569.447	6.7
569.788	6.76
570.129	6.56
570.47	6.63
570.811	6.76
571.151	6.89
571.492	6.76
571.833	6.73
572.174	6.91
572.514	6.71
572.855	6.69
573.195	6.48
573.536	6.86
573.876	6.83
574.217	6.89
574.557	6.76
574.898	6.95
575.238	6.87
575.578	6.86
575.918	7
576.258	7.03
576.598	7.02
576.938	6.96
577.278	6.88
577.618	6.86
577.958	7.05
578.298	7.14
578.638	7.06
578.977	7.3
579.317	7.06
579.657	7.21
579.996	7.32
580.336	7.28
580.675	7.36
581.014	7.15
581.354	7.09
581.693	7.39
582.032	7.12
582.372	7.41
582.711	7.32
583.05	7.39
583.389	7.54
583.728	7.19
584.067	7.48
584.406	7.62
584.745	7.62
585.083	7.4
585.422	7.31
585.761	7.73
586.1	7.77
586.438	7.49
586.777	7.68
587.115	7.51
587.454	7.57
587.792	7.82
588.13	7.47
588.469	7.44
588.807	7.8
589.145	7.81
589.483	8.03
589.821	7.66
590.159	7.8
590.497	8.09
590.835	7.76
591.173	7.79
591.511	7.78
591.849	7.78
592.187	7.86
592.524	7.87
592.862	7.88
593.2	8.05
593.537	8.03
593.875	7.98
594.212	8.07
594.55	8.19
594.887	8.05
595.224	8
595.561	7.99
595.899	8.06
596.236	8.12
596.573	8.22
596.91	8.23
597.247	7.95
597.584	8.23
597.921	8.25
598.258	8.06
598.594	8.25
598.931	8.14
599.268	7.96
599.604	8.25
599.941	8.32
600.277	8.47
600.614	8.49
600.95	8.21
601.287	8.52
601.623	8.75
601.959	8.63
602.296	8.47
602.632	8.48
602.968	8.53
603.304	8.66
603.64	8.81
603.976	8.58
604.312	8.55
604.648	8.53
604.984	8.62
605.319	8.67
605.655	8.81
605.991	8.69
606.326	8.71
606.662	8.62
606.998	8.6
607.333	8.78
607.668	8.61
608.004	8.9
608.339	9.05
608.674	9.14
609.01	9.08
609.345	9
609.68	8.89
610.015	9.04
610.35	8.88
610.685	9.04
611.02	8.94
611.355	9.01
611.689	8.92
612.024	8.93
612.359	8.9
612.694	9.1
613.028	8.84
613.363	9.27
613.697	9.3
614.032	9.57
614.366	9.23
614.7	9.11
615.035	9.42
615.369	9.24
615.703	9.32
616.037	9.74
616.371	9.51
616.705	9.78
617.039	9.7
617.373	9.4
617.707	9.61
618.041	9.84
618.375	9.41
618.709	9.63
619.042	9.84
619.376	9.7
619.71	9.81
620.043	9.99
620.377	9.72
620.71	9.61
621.043	9.91
621.377	9.78
621.71	9.84
622.043	10.04
622.376	10.17
622.709	9.79
623.043	9.99
623.376	10.46
623.709	10.17
624.041	10.04
624.374	9.94
624.707	10.19
625.04	10.07
625.373	10.38
625.705	9.97
626.038	10.06
626.37	10.21
626.703	10.06
627.035	10.13
627.368	10.29
627.7	10.08
628.032	10.53
628.365	10.36
628.697	10.24
629.029	10.47
629.361	10.35
629.693	10.71
630.025	10.26
630.357	10.4
630.689	10.38
631.021	10.42
631.353	10.79
631.684	10.36
632.016	10.79
632.348	10.62
632.679	10.43
633.011	10.85
633.342	10.9
633.674	10.59
634.005	10.72
634.336	11.07
634.668	11.03
634.999	11.21
635.33	10.71
635.661	11.2
635.992	11
636.323	11.22
636.654	11.23
636.985	11.1
637.316	11.05
637.647	11.53
637.977	11.37
638.308	11.34
638.639	11.13
638.969	11.16
639.3	11.57
639.63	11.53
639.961	11.6
640.291	11.4
640.622	11.62
640.952	11.36
641.282	11.55
641.612	11.72
641.943	11.8
642.273	11.49
642.603	11.52
642.933	11.87
643.263	11.48
643.592	11.69
643.922	11.78
644.252	11.77
644.582	12.03
644.911	11.88
645.241	11.68
645.571	11.72
645.9	11.93
646.23	12.58
646.559	11.99
646.888	12.19
647.218	11.62
647.547	11.78
647.876	11.84
648.205	12.17
648.534	12.11
648.863	11.99
649.192	12.07
649.521	11.99
649.85	12.13
650.179	11.92
650.508	12.54
650.837	12.39
651.165	11.98
651.494	12.53
651.822	12.11
652.151	12.03
652.479	11.9
652.808	12.12
653.136	11.87
653.465	12.43
653.793	12.63
654.121	12.64
654.449	12.17
654.777	12.62
655.105	12.58
655.433	12.48
655.761	12.35
656.089	12.42
656.417	12.37
656.745	13.04
657.073	12.66
657.4	12.73
657.728	12.76
658.056	12.74
658.383	12.49
658.711	13.1
659.038	13.1
659.365	12.55
659.693	12.44
660.02	13.28
660.347	13.13
660.674	12.82
661.001	13.15
661.329	12.91
661.656	12.8
661.982	13.44
662.309	13.54
662.636	13.46
662.963	13.45
663.29	12.99
663.616	12.96
663.943	13.02
664.27	13.61
664.596	13.81
664.923	13.54
665.249	13.86
665.576	13.91
665.902	13.99
666.228	13.65
666.554	13.49
666.881	13.94
667.207	13.69
667.533	13.26
667.859	13.74
668.185	13.9
668.511	13.79
668.837	14.24
669.162	13.45
669.488	13.17
669.814	13.57
670.139	14.07
670.465	13.47
670.791	14.04
671.116	14.12
671.442	14.14
671.767	14.18
672.092	14.58
672.418	14.07
672.743	14.19
673.068	14.18
673.393	14.29
673.718	13.84
674.043	13.8
674.368	14.33
674.693	13.9
675.018	14.23
675.343	14.55
675.667	15.14
675.992	15.38
676.317	14.62
676.641	14.35
676.966	14.76
677.29	13.97
677.615	14.45
677.939	14.52
678.264	14.62
678.588	14.75
678.912	14.54
679.236	14.46
679.56	15.31
679.885	14.78
680.209	14.41
680.532	15.53
680.856	15.27
681.18	14.65
681.504	14.85
681.828	15.02
682.152	15.11
682.475	15.01
682.799	14.5
683.122	15.19
683.446	15.26
683.769	14.9
684.093	14.9
684.416	15.08
684.739	14.89
685.062	15.4
685.386	14.89
685.709	15.07
686.032	14.74
686.355	15.56
686.678	15.64
687.001	15.35
687.324	15.62
687.646	15.2
687.969	15.63
688.292	15.94
688.614	15.75
