Data from 20-2_forehead_Reflection__1__41.txt Node

Date: Fri Nov 11 20:29:31 CST 2022
User: ToomeyLab
Spectrometer: FLMS14357
Trigger mode: 0
Integration Time (sec): 1.000000E-2
Scans to average: 100
Electric dark correction enabled: true
Nonlinearity correction enabled: false
Boxcar width: 0
XAxis mode: Wavelengths
Number of Pixels in Spectrum: 2048
>>>>>Begin Spectral Data<<<<<
189.047	-404.4
189.435	-404.4
189.823	-404.4
190.211	-78.26
190.599	-340.7
190.987	206.69
191.375	185.01
191.763	28.71
192.151	2.43
192.538	34.07
192.926	442.65
193.314	259.67
193.702	-56.75
194.089	118.56
194.477	-157.28
194.864	132.46
195.252	71.26
195.639	-22.45
196.027	102.69
196.414	62.77
196.801	508.5
197.189	226.57
197.576	71.51
197.963	75.05
198.351	-0.99
198.738	8.95
199.125	45.35
199.512	18.01
199.899	-2.18
200.286	-10.46
200.673	22.18
201.06	52.08
201.447	20.01
201.833	23.37
202.22	54.25
202.607	32.81
202.994	35.71
203.38	22.61
203.767	32.66
204.154	30.36
204.54	-1.66
204.927	36.09
205.313	20.17
205.699	-5.78
206.086	54.12
206.472	11.77
206.858	19.77
207.245	47.28
207.631	-15.88
208.017	20.46
208.403	7.09
208.789	32.15
209.175	34.22
209.561	49.57
209.947	12.83
210.333	8.7
210.719	19.95
211.105	63.38
211.491	14.28
211.876	33.31
212.262	37.84
212.648	-1.17
213.034	-20.25
213.419	-8
213.805	14.61
214.19	12.86
214.576	20.56
214.961	0.97
215.346	23.61
215.732	18.78
216.117	32.19
216.502	22.87
216.888	4.41
217.273	36.83
217.658	26.26
218.043	-2.49
218.428	6.78
218.813	10.49
219.198	20.24
219.583	14.95
219.968	29.53
220.353	26.68
220.738	29.41
221.122	14.43
221.507	16.33
221.892	-12.87
222.276	19.5
222.661	31.7
223.046	-6.88
223.43	6.03
223.815	11.16
224.199	9.75
224.583	6.96
224.968	7.74
225.352	10
225.736	2.83
226.121	-0.44
226.505	-0.1
226.889	-5.78
227.273	6.54
227.657	-0.95
228.041	1.05
228.425	4.95
228.809	4.76
229.193	6.63
229.577	3.71
229.961	3.64
230.344	2.33
230.728	0.47
231.112	1.8
231.495	1.88
231.879	2.2
232.263	2.05
232.646	1.49
233.03	1.95
233.413	2.95
233.797	2.34
234.18	2.42
234.563	3.3
234.946	2.11
235.33	2.98
235.713	2.82
236.096	1.65
236.479	1.23
236.862	4.1
237.245	2.24
237.628	3.5
238.011	2.33
238.394	3.24
238.777	3.05
239.16	4.86
239.543	0.79
239.925	3.69
240.308	1.98
240.691	4.31
241.073	2.28
241.456	1.86
241.838	2.99
242.221	1.81
242.603	2.8
242.986	1.7
243.368	1.94
243.75	2.05
244.133	2.33
244.515	1.93
244.897	2.42
245.279	2.21
245.661	1.76
246.043	2.69
246.425	3.32
246.807	1.81
247.189	1.95
247.571	1.69
247.953	2.57
248.335	2.01
248.717	2.13
249.098	2.44
249.48	1.82
249.862	2.36
250.243	2.27
250.625	2.46
251.006	3.39
251.388	2.76
251.769	2.97
252.151	2.37
252.532	1.98
252.913	3.35
253.295	1.94
253.676	1.65
254.057	1.65
254.438	2.51
254.819	1.44
255.2	3.48
255.581	2.5
255.962	2.31
256.343	1.8
256.724	2.74
257.105	3.08
257.486	2.2
257.867	2.51
258.247	1.39
258.628	2.17
259.009	2.08
259.389	2.33
259.77	2.46
260.15	2.55
260.531	2.02
260.911	1.93
261.292	2.06
261.672	1.83
262.052	2.02
262.432	2.09
262.813	1.99
263.193	2.04
263.573	2.15
263.953	2.85
264.333	1.77
264.713	2.45
265.093	2.64
265.473	1.74
265.853	2.15
266.233	2.66
266.612	2.16
266.992	2.4
267.372	2.43
267.752	1.5
268.131	2.09
268.511	2.27
268.89	1.81
269.27	2
269.649	1.85
270.029	2.49
270.408	1.98
270.787	2.24
271.167	1.93
271.546	2.24
271.925	2.32
272.304	2.01
272.683	1.91
273.062	2.02
273.441	1.94
273.82	1.73
274.199	2.08
274.578	1.67
274.957	2.34
275.336	2.69
275.715	1.89
276.093	2
276.472	2.02
276.851	1.86
277.229	2.13
277.608	2.11
277.986	2.72
278.365	1.64
278.743	2.11
279.122	2.41
279.5	1.95
279.878	2.55
280.257	2.2
280.635	2.2
281.013	2.18
281.391	2.06
281.769	2.04
282.147	2.47
282.525	1.61
282.903	2.01
283.281	2.21
283.659	2.04
284.037	2.36
284.415	1.74
284.792	2.2
285.17	1.86
285.548	2.08
285.925	1.57
286.303	1.84
286.68	2.46
287.058	2.22
287.435	2.15
287.813	2.14
288.19	1.9
288.567	1.84
288.945	2.17
289.322	2.73
289.699	1.89
290.076	2.43
290.453	2.03
290.83	1.98
291.207	2.33
291.584	2.45
291.961	2.16
292.338	2.15
292.715	2.45
293.092	2.56
293.469	2.1
293.845	2.57
294.222	2.5
294.599	2.91
294.975	3.08
295.352	2.78
295.728	2.36
296.105	2.05
296.481	2.51
296.858	2.13
297.234	2.87
297.61	2.31
297.986	2.71
298.363	2.83
298.739	2.76
299.115	2.7
299.491	3.01
299.867	2.52
300.243	2.6
300.619	2.86
300.995	2.83
301.371	3.11
301.746	3.14
302.122	3.05
302.498	3.07
302.874	2.88
303.249	2.78
303.625	2.55
304	2.37
304.376	3.4
304.751	2.6
305.127	3.24
305.502	3.11
305.878	3.54
306.253	3.19
306.628	3.26
307.003	3.34
307.378	3.56
307.754	3.64
308.129	3.29
308.504	3.54
308.879	3.57
309.254	3.72
309.629	3.65
310.003	3.5
310.378	3.45
310.753	4.21
311.128	4.24
311.502	3.54
311.877	3.22
312.252	3.45
312.626	3.84
313.001	3.4
313.375	3.42
313.75	4.02
314.124	3.58
314.498	3.97
314.873	3.5
315.247	3.8
315.621	3.93
315.995	4.19
316.369	4.02
316.743	3.84
317.117	4.3
317.491	4.21
317.865	4.02
318.239	4.32
318.613	4.49
318.987	4.32
319.361	4.03
319.734	4.48
320.108	4.45
320.482	4.61
320.855	4.59
321.229	4.83
321.602	4.45
321.976	4.13
322.349	5.03
322.723	4.9
323.096	5.07
323.469	5.23
323.843	4.81
324.216	4.79
324.589	5.02
324.962	5.54
325.335	5.12
325.708	4.87
326.081	4.91
326.454	4.59
326.827	5.05
327.2	5.54
327.573	5.61
327.945	4.69
328.318	5
328.691	5.14
329.063	5.42
329.436	5.35
329.809	4.85
330.181	5.05
330.553	4.81
330.926	5.22
331.298	5.37
331.671	4.8
332.043	4.98
332.415	5.13
332.787	5.26
333.159	5.23
333.532	5.22
333.904	5.49
334.276	4.61
334.648	4.96
335.02	5.77
335.391	6.09
335.763	5.35
336.135	5.29
336.507	5.53
336.879	5.51
337.25	5.77
337.622	5.95
337.993	5.91
338.365	5.66
338.736	6.17
339.108	5.71
339.479	5.54
339.851	5.77
340.222	5.48
340.593	5.96
340.964	5.56
341.336	5.87
341.707	5.72
342.078	5.51
342.449	6.08
342.82	6.36
343.191	6.25
343.562	5.66
343.933	6.05
344.303	5.77
344.674	5.96
345.045	6.11
345.416	6.16
345.786	5.45
346.157	5.96
346.527	6.24
346.898	5.82
347.268	6.16
347.639	6.47
348.009	6.1
348.38	6.49
348.75	6.4
349.12	7.14
349.49	6.49
349.861	6.36
350.231	6.7
350.601	6.48
350.971	6.78
351.341	6.71
351.711	6.73
352.081	6.9
352.45	6.56
352.82	6.62
353.19	7.16
353.56	6.42
353.929	6.73
354.299	7.03
354.669	7.21
355.038	6.65
355.408	6.84
355.777	7.2
356.147	6.76
356.516	7.01
356.885	6.79
357.254	6.75
357.624	6.65
357.993	6.75
358.362	7.17
358.731	6.59
359.1	6.9
359.469	6.76
359.838	6.75
360.207	7.01
360.576	7.08
360.945	7.07
361.314	6.8
361.682	7.01
362.051	6.98
362.42	7.26
362.788	7.33
363.157	6.94
363.525	7
363.894	7.27
364.262	7.35
364.631	7.46
364.999	7.11
365.367	7.23
365.735	7.38
366.104	7.21
366.472	7.44
366.84	7.06
367.208	7.28
367.576	7.96
367.944	7.45
368.312	7.57
368.68	7.52
369.048	7.86
369.416	7.67
369.783	7.77
370.151	7.76
370.519	7.77
370.886	7.48
371.254	7.89
371.621	7.68
371.989	7.78
372.356	8.09
372.724	8.21
373.091	8.13
373.458	7.9
373.826	7.97
374.193	7.63
374.56	7.96
374.927	7.73
375.294	8.28
375.661	8.18
376.028	7.64
376.395	8.08
376.762	7.93
377.129	7.79
377.496	8.06
377.863	8.27
378.229	8.24
378.596	8.05
378.963	8.31
379.329	8.18
379.696	8.25
380.062	8.63
380.429	8.42
380.795	8.59
381.161	8.63
381.528	8.33
381.894	8.33
382.26	8.53
382.626	8.4
382.993	8.52
383.359	8.8
383.725	8.56
384.091	8.68
384.457	8.71
384.823	8.45
385.188	8.58
385.554	8.45
385.92	8.73
386.286	8.83
386.651	8.82
387.017	8.62
387.383	8.98
387.748	8.64
388.114	8.74
388.479	8.57
388.845	8.75
389.21	8.72
389.575	8.89
389.94	8.93
390.306	8.83
390.671	9.11
391.036	9.19
391.401	9.09
391.766	9.06
392.131	8.92
392.496	9.2
392.861	8.94
393.226	8.99
393.591	9.14
393.956	9.03
394.32	9.2
394.685	9.19
395.05	9.42
395.414	9.28
395.779	9.32
396.143	9.04
396.508	9.44
396.872	9.29
397.236	9.41
397.601	9.31
397.965	9.34
398.329	9.5
398.694	9.5
399.058	9.27
399.422	9.32
399.786	9.16
400.15	9.62
400.514	9.58
400.878	9.69
401.242	9.58
401.605	9.82
401.969	9.85
402.333	9.48
402.697	9.82
403.06	9.83
403.424	9.4
403.787	9.88
404.151	9.7
404.514	9.83
404.878	9.77
405.241	9.61
405.604	9.54
405.968	9.89
406.331	9.51
406.694	9.74
407.057	9.85
407.42	10
407.783	9.98
408.146	10.03
408.509	9.95
408.872	9.93
409.235	10.02
409.598	10.04
409.961	10
410.323	10.13
410.686	10.24
411.049	10
411.411	10.17
411.774	10.2
412.136	10.12
412.499	10.17
412.861	10.12
413.223	10.03
413.586	10.31
413.948	10.29
414.31	10.17
414.672	10.7
415.035	10.46
415.397	10.34
415.759	10.3
416.121	10.25
416.483	10.26
416.845	10.38
417.206	10.28
417.568	10.5
417.93	10.4
418.292	10.36
418.653	10.42
419.015	10.53
419.377	10.46
419.738	10.41
420.1	10.46
420.461	10.62
420.822	10.54
421.184	10.47
421.545	10.41
421.906	10.54
422.267	10.43
422.629	10.4
422.99	10.47
423.351	10.6
423.712	10.57
424.073	10.61
424.434	10.86
424.795	10.8
425.155	10.65
425.516	10.66
425.877	10.72
426.238	10.72
426.598	10.66
426.959	10.72
427.32	10.94
427.68	11.03
428.041	11.07
428.401	11.05
428.761	11.2
429.122	11.13
429.482	11.29
429.842	11.25
430.202	11.42
430.563	11.57
430.923	11.3
431.283	11.21
431.643	11.46
432.003	11.58
432.363	11.58
432.722	11.61
433.082	11.52
433.442	11.59
433.802	11.74
434.161	11.54
434.521	11.49
434.881	11.75
435.24	11.57
435.6	11.6
435.959	11.83
436.319	11.67
436.678	11.72
437.037	11.84
437.396	12
437.756	11.78
438.115	11.91
438.474	11.91
438.833	11.93
439.192	12.02
439.551	12.04
439.91	12
440.269	11.99
440.628	12.06
440.987	11.99
441.345	12.05
441.704	12.02
442.063	12.03
442.421	12
442.78	11.92
443.138	12.19
443.497	12.07
443.855	12.3
444.214	12.3
444.572	12.34
444.93	12.33
445.288	12.4
445.647	12.52
446.005	12.47
446.363	12.38
446.721	12.44
447.079	12.4
447.437	12.29
447.795	12.52
448.153	12.29
448.51	12.39
448.868	12.42
449.226	12.47
449.584	12.61
449.941	12.58
450.299	12.61
450.656	12.68
451.014	12.88
451.371	12.81
451.729	12.76
452.086	12.86
452.443	12.93
452.801	12.93
453.158	12.89
453.515	12.99
453.872	12.9
454.229	13.03
454.586	13.15
454.943	13.18
455.3	13.13
455.657	13.22
456.014	13.26
456.371	13.25
456.727	13.27
457.084	13.15
457.441	13.57
457.797	13.4
458.154	13.19
458.51	13.39
458.867	13.33
459.223	13.46
459.58	13.61
459.936	13.37
460.292	13.52
460.648	13.52
461.005	13.34
461.361	13.22
461.717	13.22
462.073	13.44
462.429	13.55
462.785	13.59
463.141	13.55
463.496	13.7
463.852	13.71
464.208	13.87
464.564	13.75
464.919	13.93
465.275	14.02
465.631	14.02
465.986	13.97
466.342	13.93
466.697	13.95
467.052	14.09
467.408	14.13
467.763	14.01
468.118	13.98
468.473	14.18
468.829	14.13
469.184	14.2
469.539	14.19
469.894	14.29
470.249	14.31
470.603	14.27
470.958	14.41
471.313	14.52
471.668	14.54
472.023	14.2
472.377	14.55
472.732	14.48
473.086	14.4
473.441	14.56
473.795	14.55
474.15	14.62
474.504	14.54
474.859	14.6
475.213	14.85
475.567	14.82
475.921	14.75
476.275	14.81
476.63	14.89
476.984	15.07
477.338	14.91
477.692	14.74
478.045	14.75
478.399	14.86
478.753	14.57
479.107	14.88
479.461	14.81
479.814	14.87
480.168	14.98
480.521	15.05
480.875	15.04
481.228	14.97
481.582	15.07
481.935	15.04
482.289	14.98
482.642	15.17
482.995	14.94
483.348	15.01
483.701	14.85
484.055	14.85
484.408	14.76
484.761	14.55
485.114	14.32
485.466	14.25
485.819	14.3
486.172	14.48
486.525	14.61
486.878	14.81
487.23	14.92
487.583	15.01
487.936	14.99
488.288	14.93
488.641	14.82
488.993	14.65
489.345	14.7
489.698	14.78
490.05	14.91
490.402	15
490.754	15.13
491.107	15.27
491.459	15.26
491.811	15.48
492.163	15.49
492.515	15.42
492.866	15.15
493.218	14.98
493.57	15.05
493.922	15.3
494.274	15.5
494.625	15.64
494.977	15.82
495.328	15.87
495.68	16.06
496.031	16.06
496.383	16.09
496.734	16.18
497.086	16.15
497.437	16.24
497.788	16.07
498.139	16.14
498.49	15.93
498.842	15.98
499.193	16.21
499.544	16.33
499.894	16.24
500.245	16.29
500.596	16.45
500.947	16.54
501.298	16.52
501.648	16.43
501.999	16.58
502.35	16.77
502.7	16.62
503.051	16.68
503.401	16.81
503.752	16.58
504.102	16.76
504.452	16.94
504.803	16.83
505.153	16.72
505.503	16.77
505.853	16.78
506.203	17.02
506.553	16.87
506.903	16.9
507.253	17.08
507.603	17.05
507.953	16.96
508.303	16.94
508.652	17.1
509.002	17.17
509.352	17.16
509.701	17.03
510.051	17.19
510.4	17.04
510.75	17
511.099	17.09
511.449	17.17
511.798	17.18
512.147	17.11
512.496	17.22
512.846	17.39
513.195	17.28
513.544	17.36
513.893	17.34
514.242	17.19
514.591	17.51
514.939	17.54
515.288	17.47
515.637	17.54
515.986	17.58
516.334	17.55
516.683	17.65
517.032	17.71
517.38	17.83
517.729	17.76
518.077	17.86
518.426	17.72
518.774	17.74
519.122	17.66
519.47	17.69
519.819	17.71
520.167	17.42
520.515	17.54
520.863	17.65
521.211	17.74
521.559	17.77
521.907	17.93
522.255	17.94
522.602	18.03
522.95	18.1
523.298	18.29
523.645	18.14
523.993	18.23
524.341	18.38
524.688	18.35
525.036	18.29
525.383	18.28
525.73	18.24
526.078	18.24
526.425	18.09
526.772	18.15
527.119	18.07
527.466	17.97
527.814	18.13
528.161	18.22
528.508	18.2
528.854	18.21
529.201	18.09
529.548	17.89
529.895	17.61
530.242	17.58
530.588	17.67
530.935	17.85
531.282	17.98
531.628	18.22
531.975	18.3
532.321	18.47
532.667	18.51
533.014	18.51
533.36	18.66
533.706	18.66
534.052	18.53
534.399	18.44
534.745	18.28
535.091	18.33
535.437	18.4
535.783	18.54
536.129	18.73
536.474	18.94
536.82	18.84
537.166	18.99
537.512	18.89
537.857	18.97
538.203	18.81
538.549	18.87
538.894	18.97
539.239	19.13
539.585	19.13
539.93	19.28
540.276	19.48
540.621	19.37
540.966	19.56
541.311	19.55
541.656	19.46
542.001	19.23
542.346	19.12
542.691	18.86
543.036	18.75
543.381	18.87
543.726	18.95
544.071	19.21
544.415	19.39
544.76	19.38
545.105	19.42
545.449	19.43
545.794	19.63
546.138	19.8
546.483	19.85
546.827	19.86
547.171	19.86
547.516	19.8
547.86	19.85
548.204	19.83
548.548	19.82
548.892	19.83
549.236	19.94
549.58	20.35
549.924	20.35
550.268	20.38
550.612	20.5
550.956	20.78
551.3	20.71
551.643	20.73
551.987	20.71
552.33	20.83
552.674	20.78
553.017	20.84
553.361	20.86
553.704	20.81
554.048	20.72
554.391	20.81
554.734	20.57
555.077	20.94
555.42	21
555.764	20.9
556.107	20.96
556.45	21.06
556.793	21.18
557.135	21.07
557.478	21.17
557.821	21.15
558.164	21.2
558.507	21.19
558.849	21.21
559.192	21.18
559.534	21.51
559.877	21.6
560.219	21.43
560.562	21.38
560.904	21.69
561.246	21.41
561.589	21.52
561.931	21.36
562.273	21.46
562.615	21.53
562.957	21.57
563.299	21.67
563.641	21.65
563.983	21.82
564.325	21.72
564.667	21.85
565.008	21.91
565.35	21.91
565.692	21.75
566.033	21.73
566.375	21.73
566.716	21.87
567.058	21.82
567.399	21.9
567.741	21.95
568.082	21.92
568.423	21.95
568.764	22.1
569.105	22
569.447	22.25
569.788	22.09
570.129	22.28
570.47	22.17
570.811	22.29
571.151	22.3
571.492	22.23
571.833	22.44
572.174	22.67
572.514	22.27
572.855	22.42
573.195	22.16
573.536	22.27
573.876	22.13
574.217	22.41
574.557	22.32
574.898	22.43
575.238	22.47
575.578	22.53
575.918	22.63
576.258	22.57
576.598	22.61
576.938	22.75
577.278	22.68
577.618	22.75
577.958	22.71
578.298	22.78
578.638	23.13
578.977	22.95
579.317	22.98
579.657	23.26
579.996	23.2
580.336	23.11
580.675	23.15
581.014	23.19
581.354	23.1
581.693	23.4
582.032	23.25
582.372	23.55
582.711	23.35
583.05	23.58
583.389	23.43
583.728	23.73
584.067	23.61
584.406	23.73
584.745	23.79
585.083	23.93
585.422	23.82
585.761	23.62
586.1	23.66
586.438	23.7
586.777	23.8
587.115	23.99
587.454	23.96
587.792	24.01
588.13	23.83
588.469	24.01
588.807	23.98
589.145	23.96
589.483	24.2
589.821	24.1
590.159	24.28
590.497	24.17
590.835	23.83
591.173	24
591.511	24.22
591.849	24.03
592.187	24.17
592.524	24.25
592.862	24.21
593.2	24.59
593.537	24.26
593.875	24.56
594.212	24.4
594.55	24.2
594.887	24.22
595.224	24.34
595.561	24.3
595.899	24.28
596.236	24.56
596.573	24.31
596.91	24.4
597.247	24.61
597.584	24.38
597.921	24.37
598.258	24.44
598.594	24.31
598.931	24.3
599.268	24.34
599.604	24.73
599.941	24.69
600.277	24.74
600.614	25.1
600.95	24.77
601.287	24.75
601.623	25.19
601.959	25.07
602.296	25.07
602.632	25.03
602.968	25.09
603.304	24.85
603.64	25.13
603.976	25.17
604.312	25.17
604.648	25.08
604.984	25.18
605.319	25.08
605.655	25.02
605.991	24.71
606.326	25.05
606.662	24.71
606.998	25.07
607.333	25.25
607.668	25.27
608.004	25.49
608.339	25.45
608.674	25.56
609.01	25.48
609.345	25.37
609.68	25.44
610.015	25.58
610.35	25.42
610.685	25.35
611.02	25.33
611.355	25.3
611.689	25.49
612.024	25.47
612.359	25.36
612.694	25.73
613.028	25.77
613.363	25.45
613.697	26.21
614.032	26.18
614.366	25.77
614.7	25.93
615.035	25.68
615.369	26.07
615.703	26.3
616.037	26
616.371	26.26
616.705	26.25
617.039	26.26
617.373	26.34
617.707	26.11
618.041	26.6
618.375	26
618.709	26.48
619.042	26.07
619.376	26.74
619.71	26.48
620.043	26.74
620.377	26.7
620.71	26.68
621.043	26.53
621.377	26.7
621.71	26.27
622.043	26.67
622.376	26.7
622.709	26.36
623.043	26.88
623.376	26.46
623.709	27.09
624.041	26.72
624.374	26.71
624.707	26.76
625.04	26.83
625.373	26.57
625.705	26.67
626.038	26.78
626.37	26.83
626.703	27.12
627.035	26.8
627.368	26.67
627.7	27.01
628.032	26.98
628.365	26.94
628.697	26.92
629.029	27.04
629.361	26.78
629.693	27.02
630.025	27.44
630.357	27.14
630.689	27.15
631.021	27.29
631.353	27.2
631.684	27.36
632.016	27.23
632.348	27.24
632.679	27.4
633.011	27.33
633.342	27.54
633.674	27.53
634.005	27.43
634.336	27.55
634.668	27.75
634.999	27.32
635.33	27.27
635.661	27.73
635.992	27.27
636.323	27.49
636.654	27.91
636.985	27.8
637.316	27.74
637.647	28
637.977	27.66
638.308	27.63
638.639	27.75
638.969	27.75
639.3	28.01
639.63	27.95
639.961	28.16
640.291	28.54
640.622	28.42
640.952	27.86
641.282	27.94
641.612	27.88
641.943	28.36
642.273	28.24
642.603	27.58
642.933	28.28
643.263	28.11
643.592	28.06
643.922	28.79
644.252	28.53
644.582	28.14
644.911	28.16
645.241	27.92
645.571	28.6
645.9	28.42
646.23	28.47
646.559	28.85
646.888	28.84
647.218	28.78
647.547	28.5
647.876	28.79
648.205	28.36
648.534	28.52
648.863	28.69
649.192	28.48
649.521	29.06
649.85	28.78
650.179	28.72
650.508	29.05
650.837	28.7
651.165	28.63
651.494	29.05
651.822	29.25
652.151	28.75
652.479	28.88
652.808	28.72
653.136	28.65
653.465	28.86
653.793	29.14
654.121	28.67
654.449	28.57
654.777	29.43
655.105	29.44
655.433	29.44
655.761	29.22
656.089	29.19
656.417	29.37
656.745	29.77
657.073	29.2
657.4	29.5
657.728	28.86
658.056	29.43
658.383	29.16
658.711	28.86
659.038	29.32
659.365	29.35
659.693	29.1
660.02	29.27
660.347	29.5
660.674	29.04
661.001	29.16
661.329	29.07
661.656	29.57
661.982	29.3
662.309	29.31
662.636	29.59
662.963	29.58
663.29	29.8
663.616	29.51
663.943	30.08
664.27	29.94
664.596	29.85
664.923	29.58
665.249	30.25
665.576	30.05
665.902	30.3
666.228	29.66
666.554	30.31
666.881	29.65
667.207	29.92
667.533	30.8
667.859	30.22
668.185	29.74
668.511	30.17
668.837	30.25
669.162	30.58
669.488	30.56
669.814	30.4
670.139	29.75
670.465	30.07
670.791	29.83
671.116	30.1
671.442	30.09
671.767	30.64
672.092	30.35
672.418	30.42
672.743	30.57
673.068	30.44
673.393	30.64
673.718	30.02
674.043	30.7
674.368	30.77
674.693	30.12
675.018	30.45
675.343	30.71
