Data from 20-2_chest_Reflection__1__31.txt Node

Date: Fri Nov 11 20:26:48 CST 2022
User: ToomeyLab
Spectrometer: FLMS14357
Trigger mode: 0
Integration Time (sec): 1.000000E-2
Scans to average: 100
Electric dark correction enabled: true
Nonlinearity correction enabled: false
Boxcar width: 0
XAxis mode: Wavelengths
Number of Pixels in Spectrum: 2048
>>>>>Begin Spectral Data<<<<<
189.047	803.2
189.435	803.2
189.823	803.2
190.211	103.66
190.599	129.2
190.987	-41.43
191.375	-279.09
191.763	-42.89
192.151	39.98
192.538	76.86
192.926	244.62
193.314	172.39
193.702	-317.11
194.089	80.25
194.477	-290.36
194.864	105.72
195.252	223
195.639	50.16
196.027	69.72
196.414	24.7
196.801	1465.61
197.189	156.58
197.576	34.89
197.963	-20.3
198.351	-20.72
198.738	-19.81
199.125	14.02
199.512	19.82
199.899	-75.16
200.286	18.51
200.673	26.5
201.06	24.34
201.447	24.49
201.833	-3.05
202.22	-16.9
202.607	22.88
202.994	27.71
203.38	23.62
203.767	-9.8
204.154	27.29
204.54	0.31
204.927	14.07
205.313	14.67
205.699	-69.71
206.086	42.57
206.472	25.35
206.858	49.26
207.245	36.26
207.631	-16.5
208.017	7.34
208.403	3.24
208.789	27.53
209.175	35.58
209.561	34.14
209.947	33.17
210.333	-6.83
210.719	40.22
211.105	22.69
211.491	6.72
211.876	17.86
212.262	18.79
212.648	-14.58
213.034	-12.12
213.419	-34.66
213.805	36.74
214.19	3.75
214.576	38.85
214.961	-34.75
215.346	-1.26
215.732	-31.1
216.117	45.05
216.502	2.14
216.888	27.41
217.273	17.23
217.658	14.72
218.043	25.58
218.428	19.98
218.813	26.05
219.198	26
219.583	9.14
219.968	-2.44
220.353	-22.84
220.738	6.93
221.122	12.09
221.507	-0.4
221.892	-16.24
222.276	19.99
222.661	25.19
223.046	-9.17
223.43	6.78
223.815	-2.3
224.199	12.16
224.583	14.42
224.968	-8.47
225.352	4.89
225.736	7.38
226.121	-1.34
226.505	-0.58
226.889	-3.7
227.273	3.36
227.657	-0.19
228.041	-2.12
228.425	2.25
228.809	3.83
229.193	4.34
229.577	3.52
229.961	2.43
230.344	2.35
230.728	1.62
231.112	1.21
231.495	2.51
231.879	2.23
232.263	0.8
232.646	0.84
233.03	3.86
233.413	2.76
233.797	2.58
234.18	2.9
234.563	3.44
234.946	1.49
235.33	2.8
235.713	1.22
236.096	1.09
236.479	2.35
236.862	2.49
237.245	1.34
237.628	1.79
238.011	3.09
238.394	2.1
238.777	1.85
239.16	3.56
239.543	0.4
239.925	3.48
240.308	2.52
240.691	3.04
241.073	1.81
241.456	1.59
241.838	3.25
242.221	1.59
242.603	2.41
242.986	2.01
243.368	1.53
243.75	1.78
244.133	2.08
244.515	1.64
244.897	2.01
245.279	1.24
245.661	1.23
246.043	2.18
246.425	1.76
246.807	1.64
247.189	1.38
247.571	1.95
247.953	1.65
248.335	2.01
248.717	1.88
249.098	2.06
249.48	1.78
249.862	2.16
250.243	1.56
250.625	1.77
251.006	3.24
251.388	2.47
251.769	3.04
252.151	2.38
252.532	1.67
252.913	2.38
253.295	1.74
253.676	1.66
254.057	1.65
254.438	1.65
254.819	1.08
255.2	1.8
255.581	1.92
255.962	1.84
256.343	2.21
256.724	1.74
257.105	1.12
257.486	1.59
257.867	2.63
258.247	1.8
258.628	2.07
259.009	1.71
259.389	1.47
259.77	1.66
260.15	2.26
260.531	2.08
260.911	1.93
261.292	1.9
261.672	1.69
262.052	1.67
262.432	1.85
262.813	2.18
263.193	1.72
263.573	1.99
263.953	2.17
264.333	1.43
264.713	1.63
265.093	2.67
265.473	1.11
265.853	1.3
266.233	1.76
266.612	1.67
266.992	1.56
267.372	2.58
267.752	1.84
268.131	1.34
268.511	1.99
268.89	1.62
269.27	1.6
269.649	1.47
270.029	2.16
270.408	1.96
270.787	1.49
271.167	0.81
271.546	2.24
271.925	2.24
272.304	1.78
272.683	1.55
273.062	1.26
273.441	1.64
273.82	1.22
274.199	1.64
274.578	1.28
274.957	2
275.336	1.7
275.715	2.06
276.093	1.51
276.472	1.64
276.851	1.58
277.229	1.8
277.608	2.03
277.986	2.24
278.365	1.19
278.743	1.24
279.122	2.25
279.5	1.63
279.878	1.48
280.257	2.06
280.635	1.19
281.013	1.6
281.391	1.87
281.769	1.52
282.147	1.36
282.525	1.17
282.903	1.1
283.281	1.59
283.659	1.86
284.037	1.88
284.415	1.39
284.792	2.07
285.17	1.75
285.548	1.55
285.925	1.36
286.303	1.77
286.68	2.1
287.058	1.84
287.435	1.79
287.813	1.88
288.19	1.43
288.567	1.52
288.945	1.84
289.322	1.96
289.699	1.19
290.076	2.03
290.453	1.48
290.83	1.74
291.207	1.59
291.584	1.63
291.961	1.37
292.338	1.52
292.715	1.84
293.092	1.94
293.469	1.59
293.845	1.6
294.222	1.53
294.599	1.86
294.975	1.64
295.352	2
295.728	1.49
296.105	1.9
296.481	1.13
296.858	1.61
297.234	1.89
297.61	1.37
297.986	1.85
298.363	1.6
298.739	1.77
299.115	1.87
299.491	1.93
299.867	1.69
300.243	1.78
300.619	1.67
300.995	1.97
301.371	2.25
301.746	1.97
302.122	1.94
302.498	1.8
302.874	1.83
303.249	1.65
303.625	2.06
304	1.34
304.376	1.84
304.751	1.54
305.127	1.68
305.502	2.29
305.878	2.31
306.253	1.64
306.628	1.45
307.003	2.01
307.378	1.98
307.754	2.56
308.129	2.05
308.504	2.19
308.879	1.6
309.254	2.31
309.629	1.79
310.003	2.1
310.378	1.93
310.753	2.22
311.128	2.3
311.502	2.1
311.877	1.97
312.252	2.08
312.626	1.61
313.001	1.41
313.375	1.79
313.75	1.87
314.124	1.9
314.498	1.84
314.873	2.22
315.247	2.08
315.621	2.09
315.995	2.39
316.369	1.97
316.743	1.85
317.117	1.7
317.491	2.04
317.865	1.4
318.239	2.11
318.613	2.17
318.987	1.49
319.361	2.09
319.734	2.31
320.108	1.56
320.482	2.01
320.855	1.88
321.229	1.45
321.602	2.06
321.976	2.05
322.349	2.21
322.723	2.61
323.096	2.67
323.469	1.81
323.843	1.99
324.216	1.56
324.589	2.05
324.962	2.05
325.335	2.09
325.708	2.39
326.081	2.09
326.454	1.88
326.827	1.77
327.2	2.46
327.573	2.65
327.945	2.09
328.318	2.1
328.691	2.57
329.063	2.51
329.436	1.76
329.809	2.17
330.181	2.19
330.553	1.72
330.926	2.37
331.298	1.88
331.671	2.18
332.043	1.41
332.415	2.04
332.787	2.51
333.159	2.43
333.532	2.01
333.904	2.18
334.276	1.72
334.648	2.15
335.02	2.07
335.391	2.1
335.763	2.27
336.135	1.81
336.507	2
336.879	2.15
337.25	2.01
337.622	2.28
337.993	1.84
338.365	2.39
338.736	2.39
339.108	2.38
339.479	2.12
339.851	2.67
340.222	2.1
340.593	2.59
340.964	2.14
341.336	2.37
341.707	1.85
342.078	1.55
342.449	2.25
342.82	2.34
343.191	2.65
343.562	2.31
343.933	2.13
344.303	1.94
344.674	2.08
345.045	1.75
345.416	2.62
345.786	1.6
346.157	2.07
346.527	2.31
346.898	1.56
347.268	2.29
347.639	2.26
348.009	1.95
348.38	2.4
348.75	2.05
349.12	2.76
349.49	2.77
349.861	2.41
350.231	2.31
350.601	2.37
350.971	1.97
351.341	2.89
351.711	2.01
352.081	2.47
352.45	2.06
352.82	1.75
353.19	2.19
353.56	2.02
353.929	2.24
354.299	2.14
354.669	2.13
355.038	1.89
355.408	2.43
355.777	2.13
356.147	2.37
356.516	2.53
356.885	2.26
357.254	2.04
357.624	1.78
357.993	2.54
358.362	2.05
358.731	1.59
359.1	2.12
359.469	1.86
359.838	1.89
360.207	2.49
360.576	2.29
360.945	2.25
361.314	1.92
361.682	2.04
362.051	2.05
362.42	2.29
362.788	2.19
363.157	2.04
363.525	2.06
363.894	2.03
364.262	2.24
364.631	2.12
364.999	2.15
365.367	2.18
365.735	2.06
366.104	1.92
366.472	2.11
366.84	1.9
367.208	2.08
367.576	2.24
367.944	2.62
368.312	2.31
368.68	2.01
369.048	2.11
369.416	2.41
369.783	2.6
370.151	2.26
370.519	2.34
370.886	2.09
371.254	2.7
371.621	2.34
371.989	2.11
372.356	2.14
372.724	2.39
373.091	2.34
373.458	2.51
373.826	2.06
374.193	2.2
374.56	2.02
374.927	2.22
375.294	2.16
375.661	2.46
376.028	2.04
376.395	2.09
376.762	2.49
377.129	2.14
377.496	2.19
377.863	2.15
378.229	2.04
378.596	2.16
378.963	2.1
379.329	2.47
379.696	2.09
380.062	2.16
380.429	2.05
380.795	2.63
381.161	2.35
381.528	2.08
381.894	2.13
382.26	2.51
382.626	2.18
382.993	2.22
383.359	2.37
383.725	1.99
384.091	2.34
384.457	2.02
384.823	2.3
385.188	2.4
385.554	2.21
385.92	2.21
386.286	2.29
386.651	2.24
387.017	2.09
387.383	2.33
387.748	2.05
388.114	1.96
388.479	2.11
388.845	2.23
389.21	2.09
389.575	2.34
389.94	2.42
390.306	2.16
390.671	2.23
391.036	2.38
391.401	2.22
391.766	2.28
392.131	2.12
392.496	2.36
392.861	2.34
393.226	2.3
393.591	2.05
393.956	2.13
394.32	2.06
394.685	2.32
395.05	2.29
395.414	2.17
395.779	2.22
396.143	2.28
396.508	2.43
396.872	2.47
397.236	2.07
397.601	2.21
397.965	2.19
398.329	2.27
398.694	2.36
399.058	2.25
399.422	2.34
399.786	2.12
400.15	2.33
400.514	2.39
400.878	2.3
401.242	2.14
401.605	2.44
401.969	2.42
402.333	2.02
402.697	2.45
403.06	2.53
403.424	2
403.787	2.23
404.151	2.16
404.514	2.39
404.878	2.32
405.241	2.29
405.604	2.05
405.968	2.15
406.331	2.15
406.694	2.19
407.057	2.25
407.42	2.63
407.783	2.18
408.146	2.37
408.509	2.42
408.872	2.43
409.235	2.26
409.598	2.28
409.961	2.45
410.323	2.22
410.686	2.39
411.049	2.17
411.411	2.12
411.774	2.38
412.136	2.15
412.499	2.35
412.861	2.28
413.223	2.12
413.586	2.33
413.948	2.63
414.31	2.31
414.672	2.28
415.035	2.22
415.397	2.25
415.759	2.2
416.121	2.22
416.483	2.19
416.845	2.3
417.206	2.13
417.568	2.2
417.93	2.31
418.292	2.2
418.653	2.41
419.015	2.24
419.377	2.32
419.738	2.3
420.1	2.36
420.461	2.21
420.822	2.29
421.184	2.14
421.545	2.2
421.906	2.23
422.267	2.16
422.629	2.14
422.99	2.24
423.351	2.24
423.712	2.22
424.073	2.33
424.434	2.18
424.795	2.27
425.155	2.22
425.516	2.27
425.877	2.28
426.238	2.19
426.598	2.18
426.959	2.16
427.32	2.21
427.68	2.24
428.041	2.34
428.401	2.19
428.761	2.38
429.122	2.21
429.482	2.42
429.842	2.15
430.202	2.27
430.563	2.59
430.923	2.34
431.283	2.23
431.643	2.14
432.003	2.44
432.363	2.23
432.722	2.36
433.082	2.34
433.442	2.46
433.802	2.4
434.161	2.35
434.521	2.35
434.881	2.53
435.24	2.26
435.6	2.31
435.959	2.37
436.319	2.26
436.678	2.38
437.037	2.36
437.396	2.46
437.756	2.4
438.115	2.37
438.474	2.35
438.833	2.3
439.192	2.4
439.551	2.27
439.91	2.35
440.269	2.37
440.628	2.35
440.987	2.33
441.345	2.28
441.704	2.33
442.063	2.35
442.421	2.31
442.78	2.2
443.138	2.38
443.497	2.25
443.855	2.31
444.214	2.34
444.572	2.36
444.93	2.42
445.288	2.26
445.647	2.47
446.005	2.5
446.363	2.42
446.721	2.41
447.079	2.33
447.437	2.35
447.795	2.42
448.153	2.29
448.51	2.33
448.868	2.35
449.226	2.38
449.584	2.37
449.941	2.41
450.299	2.36
450.656	2.45
451.014	2.51
451.371	2.4
451.729	2.38
452.086	2.36
452.443	2.42
452.801	2.47
453.158	2.43
453.515	2.38
453.872	2.29
454.229	2.34
454.586	2.46
454.943	2.43
455.3	2.42
455.657	2.57
456.014	2.49
456.371	2.44
456.727	2.6
457.084	2.11
457.441	2.47
457.797	2.51
458.154	2.46
458.51	2.44
458.867	2.25
459.223	2.44
459.58	2.38
459.936	2.33
460.292	2.5
460.648	2.36
461.005	2.34
461.361	2.37
461.717	2.39
462.073	2.38
462.429	2.38
462.785	2.42
463.141	2.37
463.496	2.39
463.852	2.42
464.208	2.3
464.564	2.54
464.919	2.43
465.275	2.52
465.631	2.38
465.986	2.66
466.342	2.42
466.697	2.4
467.052	2.52
467.408	2.54
467.763	2.29
468.118	2.47
468.473	2.57
468.829	2.56
469.184	2.49
469.539	2.41
469.894	2.6
470.249	2.58
470.603	2.52
470.958	2.43
471.313	2.58
471.668	2.61
472.023	2.39
472.377	2.68
472.732	2.42
473.086	2.44
473.441	2.63
473.795	2.46
474.15	2.63
474.504	2.6
474.859	2.53
475.213	2.54
475.567	2.61
475.921	2.5
476.275	2.55
476.63	2.55
476.984	2.67
477.338	2.57
477.692	2.46
478.045	2.35
478.399	2.53
478.753	2.57
479.107	2.45
479.461	2.57
479.814	2.54
480.168	2.5
480.521	2.52
480.875	2.65
481.228	2.41
481.582	2.55
481.935	2.42
482.289	2.39
482.642	2.49
482.995	2.47
483.348	2.47
483.701	2.5
484.055	2.42
484.408	2.44
484.761	2.38
485.114	2.36
485.466	2.31
485.819	2.32
486.172	2.34
486.525	2.38
486.878	2.44
487.23	2.39
487.583	2.45
487.936	2.47
488.288	2.5
488.641	2.41
488.993	2.4
489.345	2.38
489.698	2.39
490.05	2.43
490.402	2.45
490.754	2.49
491.107	2.42
491.459	2.41
491.811	2.52
492.163	2.51
492.515	2.53
492.866	2.5
493.218	2.45
493.57	2.43
493.922	2.47
494.274	2.51
494.625	2.49
494.977	2.56
495.328	2.58
495.68	2.61
496.031	2.54
496.383	2.68
496.734	2.69
497.086	2.66
497.437	2.64
497.788	2.56
498.139	2.66
498.49	2.54
498.842	2.51
499.193	2.67
499.544	2.64
499.894	2.52
500.245	2.63
500.596	2.74
500.947	2.71
501.298	2.61
501.648	2.6
501.999	2.64
502.35	2.73
502.7	2.68
503.051	2.57
503.401	2.63
503.752	2.59
504.102	2.61
504.452	2.66
504.803	2.57
505.153	2.58
505.503	2.62
505.853	2.66
506.203	2.74
506.553	2.67
506.903	2.58
507.253	2.6
507.603	2.7
507.953	2.66
508.303	2.65
508.652	2.68
509.002	2.72
509.352	2.71
509.701	2.77
510.051	2.63
510.4	2.74
510.75	2.63
511.099	2.66
511.449	2.68
511.798	2.65
512.147	2.58
512.496	2.65
512.846	2.84
513.195	2.78
513.544	2.73
513.893	2.65
514.242	2.72
514.591	2.74
514.939	2.75
515.288	2.82
515.637	2.84
515.986	2.75
516.334	2.68
516.683	2.71
517.032	2.84
517.38	2.74
517.729	2.8
518.077	2.76
518.426	2.83
518.774	2.84
519.122	2.77
519.47	2.74
519.819	2.76
520.167	2.74
520.515	2.77
520.863	2.8
521.211	2.76
521.559	2.78
521.907	2.84
522.255	2.84
522.602	2.81
522.95	2.8
523.298	2.84
523.645	2.85
523.993	2.89
524.341	2.87
524.688	2.92
525.036	2.99
525.383	2.84
525.73	2.76
526.078	2.79
526.425	2.82
526.772	2.88
527.119	2.85
527.466	2.87
527.814	2.86
528.161	2.87
528.508	2.89
528.854	2.82
529.201	2.75
529.548	2.77
529.895	2.79
530.242	2.7
530.588	2.78
530.935	2.78
531.282	2.8
531.628	2.84
531.975	2.88
532.321	2.84
532.667	2.93
533.014	2.89
533.36	2.88
533.706	3
534.052	2.94
534.399	2.92
534.745	2.86
535.091	2.89
535.437	2.88
535.783	2.9
536.129	2.99
536.474	2.98
536.82	2.92
537.166	2.92
537.512	2.91
537.857	3
538.203	3.02
538.549	3.04
538.894	2.98
539.239	3.01
539.585	3.03
539.93	3.06
540.276	3.19
540.621	3.15
540.966	3.25
541.311	3.09
541.656	3.09
542.001	3.19
542.346	3.07
542.691	3.01
543.036	2.97
543.381	2.98
543.726	2.97
544.071	3.06
544.415	3.03
544.76	3.07
545.105	3.05
545.449	3.09
545.794	3.08
546.138	3.16
546.483	3.19
546.827	3.28
547.171	3.27
547.516	3.12
547.86	3.14
548.204	3.27
548.548	3.19
548.892	3.18
549.236	3.26
549.58	3.28
549.924	3.36
550.268	3.37
550.612	3.36
550.956	3.46
551.3	3.28
551.643	3.43
551.987	3.43
552.33	3.44
552.674	3.48
553.017	3.55
553.361	3.47
553.704	3.45
554.048	3.6
554.391	3.51
554.734	3.42
555.077	3.65
555.42	3.33
555.764	3.64
556.107	3.62
556.45	3.69
556.793	3.37
557.135	3.65
557.478	3.57
557.821	3.63
558.164	3.77
558.507	3.59
558.849	3.69
559.192	3.55
559.534	3.7
559.877	3.84
560.219	3.67
560.562	3.72
560.904	3.72
561.246	3.52
561.589	3.6
561.931	3.73
562.273	3.7
562.615	3.7
562.957	3.6
563.299	3.66
563.641	3.81
563.983	3.6
564.325	3.89
564.667	3.83
565.008	3.92
565.35	3.92
565.692	3.52
566.033	3.88
566.375	3.86
566.716	3.83
567.058	3.71
567.399	3.89
567.741	3.94
568.082	3.86
568.423	3.9
568.764	4.02
569.105	3.97
569.447	4.05
569.788	3.93
570.129	3.83
570.47	3.99
570.811	4.07
571.151	4.12
571.492	4.11
571.833	4
572.174	4.06
572.514	4.12
572.855	4.05
573.195	3.89
573.536	3.95
573.876	4.16
574.217	4.22
574.557	4.11
574.898	4.23
575.238	4.16
575.578	4.19
575.918	4.26
576.258	4.12
576.598	4.21
576.938	4.16
577.278	4.03
577.618	4.13
577.958	4.2
578.298	4.18
578.638	4.44
578.977	4.44
579.317	4.55
579.657	4.38
579.996	4.26
580.336	4.28
580.675	4.61
581.014	4.48
581.354	4.31
581.693	4.53
582.032	4.25
582.372	4.34
582.711	4.52
583.05	4.47
583.389	4.55
583.728	4.6
584.067	4.81
584.406	4.67
584.745	4.81
585.083	4.4
585.422	4.73
585.761	4.77
586.1	4.52
586.438	4.73
586.777	4.69
587.115	4.77
587.454	4.67
587.792	4.75
588.13	4.9
588.469	4.59
588.807	4.79
589.145	4.53
589.483	4.84
589.821	4.84
590.159	5.01
590.497	5
590.835	4.85
591.173	5
591.511	4.81
591.849	4.82
592.187	5.05
592.524	4.68
592.862	4.93
593.2	5.09
593.537	4.9
593.875	5.33
594.212	5.02
594.55	5.28
594.887	5
595.224	5.02
595.561	4.99
595.899	4.88
596.236	5.15
596.573	5.06
596.91	5.17
597.247	5.2
597.584	5.26
597.921	5.12
598.258	5.27
598.594	5.3
598.931	5.23
599.268	5.31
599.604	5.29
599.941	5.27
600.277	5.35
600.614	5.56
600.95	5.15
601.287	5.65
601.623	5.82
601.959	5.81
602.296	5.59
602.632	5.44
602.968	5.68
603.304	5.56
603.64	5.88
603.976	5.82
604.312	5.6
604.648	5.69
604.984	5.62
605.319	5.56
605.655	5.64
605.991	5.6
606.326	5.94
606.662	5.62
606.998	5.59
607.333	5.59
607.668	5.73
608.004	5.73
608.339	5.72
608.674	5.76
609.01	5.9
609.345	5.84
609.68	5.84
610.015	5.77
610.35	5.56
610.685	5.85
611.02	5.79
611.355	5.9
611.689	5.95
612.024	5.96
612.359	5.71
612.694	5.91
613.028	6.14
613.363	6.09
613.697	6.24
614.032	6.11
614.366	5.97
614.7	6.31
615.035	5.97
615.369	6.16
615.703	6.27
616.037	6.62
616.371	6.41
616.705	6.68
617.039	6.32
617.373	6.17
617.707	6.4
618.041	6.61
618.375	6.19
618.709	6.68
619.042	6.62
619.376	6.55
619.71	6.74
620.043	6.81
620.377	6.46
620.71	6.39
621.043	6.64
621.377	6.62
621.71	6.74
622.043	6.77
622.376	6.82
622.709	6.56
623.043	6.58
623.376	6.72
623.709	7.01
624.041	7.29
624.374	6.52
624.707	6.78
625.04	6.97
625.373	6.92
625.705	6.82
626.038	6.83
626.37	6.82
626.703	7.01
627.035	7.19
627.368	6.99
627.7	6.66
628.032	7.17
628.365	7.26
628.697	7.12
629.029	7.07
629.361	6.79
629.693	7.12
630.025	7.07
630.357	7.14
630.689	7.09
631.021	7.18
631.353	7.24
631.684	7.1
632.016	7.35
632.348	7.23
632.679	7.07
633.011	7.32
633.342	7.66
633.674	7.47
634.005	7.65
634.336	7.48
634.668	7.77
634.999	7.62
635.33	7.57
635.661	7.79
635.992	7.71
636.323	7.43
636.654	7.6
636.985	7.87
637.316	7.73
637.647	7.98
637.977	7.71
638.308	7.85
638.639	7.65
638.969	7.5
639.3	8.22
639.63	8.1
639.961	7.94
640.291	8.14
640.622	8.05
640.952	7.85
641.282	7.55
641.612	8.02
641.943	8.42
642.273	8.16
642.603	8.02
642.933	8.13
643.263	7.79
643.592	8.13
643.922	8.24
644.252	8.57
644.582	8.23
644.911	8.06
645.241	8.55
645.571	8.75
645.9	8.26
646.23	8.62
646.559	8.58
646.888	8.39
647.218	8.19
647.547	8.55
647.876	8.2
648.205	8.84
648.534	8.42
648.863	8.71
649.192	8.26
649.521	8.38
649.85	9.38
650.179	8.59
650.508	8.54
650.837	8.86
651.165	8.44
651.494	8.76
651.822	8.5
652.151	8.66
652.479	8.65
652.808	8.51
653.136	8.62
653.465	8.79
653.793	9.21
654.121	9.05
654.449	8.98
654.777	9.57
655.105	8.88
655.433	8.91
655.761	9.27
656.089	9.21
656.417	8.96
656.745	9.64
657.073	8.85
657.4	8.71
657.728	9.03
658.056	9.49
658.383	9.54
658.711	9.21
659.038	9.28
659.365	8.86
659.693	9.36
660.02	9.93
660.347	9.35
660.674	9.65
661.001	9.13
661.329	9.18
661.656	9.34
661.982	9.46
662.309	9.45
662.636	9.6
662.963	9.5
663.29	9.35
663.616	9.13
663.943	9.38
664.27	10.16
664.596	10.06
664.923	10.15
665.249	9.92
665.576	10.27
665.902	10.05
666.228	9.71
666.554	9.78
666.881	10.17
667.207	10.28
667.533	10.13
667.859	10.4
668.185	10.38
668.511	10.24
668.837	10.5
669.162	10.44
669.488	9.95
669.814	10.49
670.139	9.85
670.465	9.4
670.791	10.41
671.116	10.32
671.442	10.34
671.767	10.71
672.092	10.21
672.418	10.01
672.743	9.96
673.068	10.78
673.393	10.94
673.718	10.39
674.043	10.81
674.368	10.46
674.693	9.91
675.018	10.48
675.343	10.63
675.667	10.84
675.992	11.73
676.317	11.07
676.641	10.49
676.966	11.39
677.29	11.04
677.615	10.81
677.939	10.79
678.264	11.03
678.588	10.47
678.912	10.79
679.236	10.33
679.56	11.14
679.885	11
680.209	11.07
680.532	10.75
680.856	11.52
681.18	11.5
681.504	11.04
681.828	10.73
682.152	11.28
682.475	11.13
682.799	10.92
683.122	11.06
683.446	11.71
683.769	11.25
684.093	11.59
684.416	11.31
684.739	12.21
685.062	11.18
685.386	11.75
685.709	11.38
686.032	11.43
686.355	11.49
686.678	11.38
687.001	11.25
687.324	11.29
687.646	10.83
687.969	12.4
688.292	12.41
688.614	11.71
688.937	11.64
689.26	11.17
689.582	11.57
689.904	11.62
690.227	11.82
690.549	11.94
690.871	11.52
