Data from 20-2_crown_Reflection__3__38.txt Node

Date: Fri Nov 11 20:28:40 CST 2022
User: ToomeyLab
Spectrometer: FLMS14357
Trigger mode: 0
Integration Time (sec): 1.000000E-2
Scans to average: 100
Electric dark correction enabled: true
Nonlinearity correction enabled: false
Boxcar width: 0
XAxis mode: Wavelengths
Number of Pixels in Spectrum: 2048
>>>>>Begin Spectral Data<<<<<
189.047	-495.2
189.435	-495.2
189.823	-495.2
190.211	128.11
190.599	428.68
190.987	640.87
191.375	-226.45
191.763	-66.08
192.151	-19.11
192.538	70.46
192.926	265.88
193.314	45.62
193.702	-67.03
194.089	171.94
194.477	-631.48
194.864	39.48
195.252	249.18
195.639	-2.04
196.027	-54.86
196.414	20.37
196.801	106.32
197.189	331.06
197.576	-146.59
197.963	32.12
198.351	-13.41
198.738	-1.38
199.125	-1.68
199.512	12.21
199.899	-100.94
200.286	5.35
200.673	30.58
201.06	6.72
201.447	28.34
201.833	6.03
202.22	-23.78
202.607	-9.27
202.994	22.63
203.38	39.9
203.767	18.19
204.154	8.98
204.54	2.07
204.927	-8.76
205.313	-7.25
205.699	-50.87
206.086	16.49
206.472	10.44
206.858	-1.29
207.245	39.12
207.631	9.24
208.017	32.15
208.403	6.05
208.789	25.25
209.175	-11.11
209.561	37.56
209.947	9.88
210.333	-11.49
210.719	-6.84
211.105	25.99
211.491	23.27
211.876	15.42
212.262	6.87
212.648	-17.92
213.034	2.98
213.419	-58.07
213.805	-2.76
214.19	26.96
214.576	3.95
214.961	-41.26
215.346	-12.47
215.732	-33.5
216.117	24.93
216.502	2.35
216.888	-6.11
217.273	-1.38
217.658	-11.79
218.043	19.02
218.428	6.27
218.813	4.54
219.198	-7.57
219.583	5.7
219.968	7.73
220.353	-33.71
220.738	-21.43
221.122	14.69
221.507	-18.13
221.892	-2.05
222.276	19.84
222.661	0.83
223.046	-21.93
223.43	-1.68
223.815	6.5
224.199	12.77
224.583	-7.48
224.968	0.66
225.352	-4.95
225.736	-0.21
226.121	2.48
226.505	4.75
226.889	-3.73
227.273	4.55
227.657	-10.91
228.041	-1.12
228.425	1.78
228.809	0.26
229.193	2.19
229.577	2.34
229.961	2.36
230.344	3.43
230.728	1.01
231.112	1.29
231.495	2.56
231.879	1.78
232.263	2.72
232.646	1.04
233.03	1.93
233.413	3.55
233.797	3.13
234.18	2.81
234.563	2.91
234.946	3.49
235.33	1.81
235.713	0.7
236.096	1.34
236.479	2.03
236.862	1.74
237.245	2.35
237.628	2.92
238.011	2.69
238.394	3.85
238.777	2.45
239.16	2.73
239.543	0.59
239.925	3.3
240.308	1.6
240.691	2.74
241.073	1.56
241.456	1.79
241.838	2.72
242.221	1.77
242.603	2.25
242.986	2.36
243.368	2.35
243.75	1.75
244.133	1.79
244.515	2.09
244.897	2.55
245.279	1.88
245.661	2.7
246.043	1.47
246.425	2.64
246.807	2.15
247.189	1.9
247.571	1.8
247.953	2.05
248.335	1.97
248.717	2.09
249.098	2.2
249.48	1.91
249.862	2.55
250.243	1.92
250.625	2.1
251.006	2.77
251.388	2.56
251.769	1.66
252.151	0.46
252.532	1.7
252.913	2.73
253.295	2.03
253.676	1.15
254.057	1.68
254.438	1.84
254.819	1.66
255.2	1.76
255.581	1.62
255.962	1.12
256.343	0.92
256.724	1.51
257.105	1.78
257.486	1.32
257.867	2.31
258.247	1.35
258.628	1.92
259.009	1.26
259.389	1.8
259.77	2.83
260.15	1.88
260.531	1.66
260.911	1.86
261.292	2.06
261.672	1.8
262.052	1.86
262.432	1.91
262.813	1.95
263.193	1.08
263.573	2.08
263.953	2.55
264.333	1.16
264.713	1.26
265.093	1.56
265.473	1.08
265.853	1.51
266.233	1.68
266.612	2.05
266.992	1.43
267.372	2.36
267.752	2.04
268.131	1.56
268.511	1.6
268.89	1.48
269.27	1.64
269.649	1.33
270.029	2.03
270.408	1.98
270.787	1.78
271.167	1.18
271.546	2.27
271.925	2.22
272.304	1.71
272.683	2.14
273.062	1.39
273.441	1.83
273.82	1.76
274.199	1.54
274.578	1.36
274.957	1.99
275.336	2.05
275.715	1.91
276.093	1.73
276.472	1.65
276.851	1.83
277.229	1.47
277.608	1.42
277.986	2.02
278.365	1.63
278.743	1.43
279.122	2.81
279.5	1.38
279.878	1.64
280.257	1.98
280.635	1.67
281.013	1.48
281.391	1.6
281.769	1.78
282.147	1.52
282.525	1.43
282.903	1.21
283.281	1.62
283.659	1.57
284.037	1.97
284.415	1.17
284.792	1.85
285.17	1.66
285.548	1.35
285.925	1.27
286.303	1.82
286.68	2.01
287.058	1.99
287.435	1.6
287.813	1.96
288.19	1.73
288.567	1.64
288.945	1.92
289.322	2.12
289.699	1.26
290.076	1.69
290.453	1.57
290.83	1.51
291.207	1.46
291.584	2.16
291.961	1.61
292.338	1.7
292.715	1.4
293.092	1.91
293.469	1.62
293.845	1.65
294.222	1.02
294.599	2.05
294.975	1.47
295.352	1.78
295.728	1.76
296.105	1.54
296.481	1.51
296.858	1.59
297.234	2.13
297.61	1.62
297.986	1.89
298.363	1.91
298.739	1.59
299.115	1.87
299.491	1.99
299.867	1.76
300.243	1.66
300.619	1.75
300.995	1.86
301.371	2.13
301.746	2.14
302.122	1.74
302.498	1.95
302.874	1.67
303.249	1.47
303.625	1.46
304	1.35
304.376	1.68
304.751	1.65
305.127	1.84
305.502	1.86
305.878	2.33
306.253	1.58
306.628	1.44
307.003	1.49
307.378	1.29
307.754	2.36
308.129	2.23
308.504	1.88
308.879	1.92
309.254	1.85
309.629	1.5
310.003	1.47
310.378	1.77
310.753	1.72
311.128	2.24
311.502	1.95
311.877	1.6
312.252	2.04
312.626	1.57
313.001	1.39
313.375	1.8
313.75	2
314.124	1.59
314.498	1.63
314.873	1.93
315.247	2.08
315.621	1.84
315.995	1.94
316.369	1.93
316.743	1.59
317.117	1.76
317.491	1.61
317.865	1.44
318.239	1.72
318.613	1.81
318.987	2.05
319.361	1.72
319.734	1.34
320.108	1.85
320.482	2.05
320.855	1.65
321.229	1.65
321.602	1.45
321.976	1.47
322.349	1.71
322.723	2.11
323.096	1.74
323.469	1.76
323.843	1.91
324.216	1.22
324.589	1.97
324.962	2.47
325.335	1.79
325.708	1.83
326.081	1.74
326.454	1.36
326.827	1.58
327.2	2.24
327.573	2.61
327.945	1.78
328.318	1.66
328.691	1.92
329.063	2.01
329.436	1.78
329.809	1.57
330.181	1.58
330.553	1.68
330.926	1.96
331.298	1.96
331.671	1.73
332.043	1.77
332.415	2.19
332.787	1.87
333.159	1.92
333.532	1.85
333.904	2.12
334.276	1.43
334.648	1.87
335.02	2.06
335.391	2.27
335.763	1.78
336.135	1.57
336.507	1.42
336.879	1.96
337.25	1.52
337.622	2.06
337.993	2.25
338.365	2.14
338.736	1.77
339.108	1.99
339.479	1.83
339.851	2.18
340.222	1.78
340.593	2.19
340.964	1.96
341.336	2.32
341.707	1.67
342.078	1.55
342.449	1.72
342.82	2.03
343.191	1.95
343.562	1.95
343.933	1.77
344.303	1.66
344.674	2.14
345.045	1.8
345.416	1.86
345.786	1.87
346.157	1.63
346.527	1.79
346.898	1.4
347.268	1.48
347.639	1.87
348.009	1.72
348.38	2.11
348.75	1.69
349.12	2.18
349.49	1.97
349.861	2.13
350.231	1.77
350.601	2.32
350.971	2.33
351.341	2.29
351.711	1.61
352.081	2.11
352.45	1.6
352.82	1.73
353.19	2
353.56	1.85
353.929	1.65
354.299	1.53
354.669	1.89
355.038	1.93
355.408	1.49
355.777	2.05
356.147	2.06
356.516	2.24
356.885	2.05
357.254	1.84
357.624	1.71
357.993	1.98
358.362	1.98
358.731	1.79
359.1	1.89
359.469	1.4
359.838	1.79
360.207	1.99
360.576	2.14
360.945	1.95
361.314	1.48
361.682	1.65
362.051	1.96
362.42	2.05
362.788	1.95
363.157	1.89
363.525	1.75
363.894	1.94
364.262	1.94
364.631	2.04
364.999	1.87
365.367	1.92
365.735	1.93
366.104	1.98
366.472	1.72
366.84	1.5
367.208	1.89
367.576	2.06
367.944	2.49
368.312	1.72
368.68	1.96
369.048	1.81
369.416	2.14
369.783	2.05
370.151	1.69
370.519	2.14
370.886	1.9
371.254	2.06
371.621	1.81
371.989	2.03
372.356	1.92
372.724	2.15
373.091	2.12
373.458	2.09
373.826	2.05
374.193	1.64
374.56	2.09
374.927	2.03
375.294	2.26
375.661	2.09
376.028	1.64
376.395	2.12
376.762	2.09
377.129	1.9
377.496	2.03
377.863	2.03
378.229	2.03
378.596	1.77
378.963	1.87
379.329	2.05
379.696	2.06
380.062	1.96
380.429	1.65
380.795	2.13
381.161	1.95
381.528	1.9
381.894	2.32
382.26	2.19
382.626	2.19
382.993	1.89
383.359	1.91
383.725	1.75
384.091	2.18
384.457	1.91
384.823	1.76
385.188	1.95
385.554	2.03
385.92	1.94
386.286	1.8
386.651	2.19
387.017	1.85
387.383	1.87
387.748	1.71
388.114	1.99
388.479	1.89
388.845	1.95
389.21	1.97
389.575	1.86
389.94	2
390.306	1.83
390.671	1.88
391.036	2.2
391.401	1.98
391.766	1.94
392.131	1.89
392.496	2.05
392.861	1.99
393.226	2.07
393.591	1.88
393.956	2
394.32	1.99
394.685	1.97
395.05	2.22
395.414	1.99
395.779	2.14
396.143	1.92
396.508	2.13
396.872	2.33
397.236	1.89
397.601	1.93
397.965	2.21
398.329	2.08
398.694	2.15
399.058	1.97
399.422	2.19
399.786	1.82
400.15	2.11
400.514	2.06
400.878	1.96
401.242	1.86
401.605	2.02
401.969	2.08
402.333	1.68
402.697	2.18
403.06	2.18
403.424	1.72
403.787	2
404.151	1.98
404.514	2.12
404.878	2.05
405.241	2.02
405.604	2.01
405.968	2.06
406.331	1.84
406.694	2.08
407.057	2.01
407.42	2.11
407.783	2.02
408.146	2.16
408.509	2.13
408.872	2.05
409.235	2.31
409.598	2.03
409.961	2.59
410.323	2.1
410.686	2.08
411.049	1.89
411.411	2.1
411.774	2.08
412.136	2.16
412.499	2.01
412.861	2.2
413.223	2.01
413.586	1.97
413.948	2.31
414.31	2.21
414.672	2.14
415.035	1.91
415.397	1.91
415.759	1.95
416.121	2
416.483	1.99
416.845	1.95
417.206	1.93
417.568	1.96
417.93	1.94
418.292	1.9
418.653	2.08
419.015	2.15
419.377	2
419.738	2.11
420.1	2.05
420.461	2.12
420.822	2.1
421.184	2.01
421.545	2.02
421.906	2.01
422.267	1.94
422.629	1.98
422.99	2.05
423.351	1.97
423.712	1.94
424.073	2.1
424.434	2.13
424.795	2.19
425.155	1.99
425.516	2.03
425.877	1.94
426.238	1.96
426.598	2.02
426.959	2.03
427.32	2.13
427.68	2.1
428.041	2.25
428.401	1.92
428.761	2.11
429.122	1.91
429.482	2.1
429.842	1.99
430.202	2.01
430.563	2.19
430.923	2.01
431.283	1.99
431.643	2.08
432.003	2.13
432.363	1.95
432.722	2.2
433.082	2.1
433.442	2.09
433.802	2.18
434.161	2.12
434.521	2.08
434.881	2.14
435.24	2.14
435.6	2.11
435.959	2.17
436.319	2
436.678	2.08
437.037	2.11
437.396	2.14
437.756	2.1
438.115	1.99
438.474	2.01
438.833	2.1
439.192	2.06
439.551	2.05
439.91	2.08
440.269	2.26
440.628	2.2
440.987	2.13
441.345	2
441.704	2.16
442.063	2.14
442.421	2.03
442.78	2
443.138	2.11
443.497	2.05
443.855	2.1
444.214	2.04
444.572	2.27
444.93	2.14
445.288	2.19
445.647	2.18
446.005	2.19
446.363	2.16
446.721	2.17
447.079	2.25
447.437	2.06
447.795	2.19
448.153	2.08
448.51	2.11
448.868	2.17
449.226	2.09
449.584	2.14
449.941	2.08
450.299	2.08
450.656	2.13
451.014	2.24
451.371	2.04
451.729	2.07
452.086	2.16
452.443	2.05
452.801	2.23
453.158	2.08
453.515	2.14
453.872	2.13
454.229	2.16
454.586	2.15
454.943	2.07
455.3	2.22
455.657	2.26
456.014	2.21
456.371	2.11
456.727	2.36
457.084	2.02
457.441	2.26
457.797	2.06
458.154	2.27
458.51	2.2
458.867	2.11
459.223	2.41
459.58	2.14
459.936	2.06
460.292	2.24
460.648	2.14
461.005	2.13
461.361	2.17
461.717	2.03
462.073	2.13
462.429	2.14
462.785	2.07
463.141	1.99
463.496	2.15
463.852	2.13
464.208	2.15
464.564	2.1
464.919	2.18
465.275	2
465.631	2.16
465.986	2.28
466.342	2.17
466.697	2.09
467.052	2.21
467.408	2.29
467.763	2.23
468.118	2.31
468.473	2.23
468.829	2.22
469.184	2.13
469.539	2.27
469.894	2.32
470.249	2.28
470.603	2.15
470.958	2.17
471.313	2.36
471.668	2.3
472.023	1.98
472.377	2.28
472.732	2.16
473.086	2.11
473.441	2.26
473.795	2.14
474.15	2.12
474.504	2.27
474.859	2.13
475.213	2.35
475.567	2.24
475.921	2.33
476.275	2.17
476.63	2.25
476.984	2.29
477.338	2.27
477.692	2.12
478.045	2.09
478.399	2.26
478.753	2.09
479.107	2.3
479.461	2.13
479.814	2.21
480.168	2.2
480.521	2.36
480.875	2.32
481.228	2.18
481.582	2.3
481.935	2.08
482.289	2.12
482.642	2.19
482.995	2.26
483.348	2.14
483.701	2.18
484.055	2.11
484.408	2.09
484.761	2.11
485.114	2.04
485.466	2.01
485.819	2.01
486.172	2.07
486.525	2.12
486.878	2.13
487.23	2.12
487.583	2.16
487.936	2.13
488.288	2.14
488.641	2.06
488.993	2.11
489.345	2.03
489.698	2.11
490.05	2.12
490.402	2.09
490.754	2.14
491.107	2.1
491.459	2.18
491.811	2.24
492.163	2.25
492.515	2.22
492.866	2.09
493.218	2.07
493.57	2.07
493.922	2.12
494.274	2.19
494.625	2.23
494.977	2.32
495.328	2.34
495.68	2.28
496.031	2.23
496.383	2.23
496.734	2.21
497.086	2.25
497.437	2.22
497.788	2.13
498.139	2.28
498.49	2.2
498.842	2.16
499.193	2.25
499.544	2.31
499.894	2.23
500.245	2.27
500.596	2.41
500.947	2.26
501.298	2.17
501.648	2.25
501.999	2.35
502.35	2.38
502.7	2.29
503.051	2.35
503.401	2.2
503.752	2.2
504.102	2.19
504.452	2.28
504.803	2.31
505.153	2.19
505.503	2.24
505.853	2.25
506.203	2.3
506.553	2.1
506.903	2.18
507.253	2.24
507.603	2.3
507.953	2.23
508.303	2.17
508.652	2.28
509.002	2.33
509.352	2.28
509.701	2.28
510.051	2.24
510.4	2.37
510.75	2.35
511.099	2.17
511.449	2.19
511.798	2.26
512.147	2.23
512.496	2.21
512.846	2.28
513.195	2.27
513.544	2.19
513.893	2.22
514.242	2.27
514.591	2.35
514.939	2.38
515.288	2.38
515.637	2.36
515.986	2.31
516.334	2.3
516.683	2.27
517.032	2.38
517.38	2.28
517.729	2.39
518.077	2.27
518.426	2.36
518.774	2.39
519.122	2.39
519.47	2.3
519.819	2.21
520.167	2.26
520.515	2.26
520.863	2.3
521.211	2.25
521.559	2.28
521.907	2.3
522.255	2.12
522.602	2.33
522.95	2.3
523.298	2.36
523.645	2.36
523.993	2.37
524.341	2.41
524.688	2.32
525.036	2.32
525.383	2.2
525.73	2.23
526.078	2.2
526.425	2.26
526.772	2.28
527.119	2.14
527.466	2.22
527.814	2.21
528.161	2.29
528.508	2.31
528.854	2.25
529.201	2.21
529.548	2.22
529.895	2.15
530.242	2.13
530.588	2.16
530.935	2.14
531.282	2.23
531.628	2.22
531.975	2.26
532.321	2.22
532.667	2.29
533.014	2.23
533.36	2.31
533.706	2.29
534.052	2.24
534.399	2.28
534.745	2.17
535.091	2.2
535.437	2.22
535.783	2.26
536.129	2.24
536.474	2.3
536.82	2.24
537.166	2.3
537.512	2.3
537.857	2.22
538.203	2.19
538.549	2.35
538.894	2.28
539.239	2.24
539.585	2.25
539.93	2.36
540.276	2.44
540.621	2.37
540.966	2.48
541.311	2.43
541.656	2.36
542.001	2.33
542.346	2.27
542.691	2.28
543.036	2.19
543.381	2.18
543.726	2.16
544.071	2.28
544.415	2.3
544.76	2.28
545.105	2.24
545.449	2.23
545.794	2.32
546.138	2.34
546.483	2.36
546.827	2.39
547.171	2.36
547.516	2.26
547.86	2.27
548.204	2.31
548.548	2.27
548.892	2.36
549.236	2.29
549.58	2.43
549.924	2.44
550.268	2.47
550.612	2.37
550.956	2.53
551.3	2.33
551.643	2.45
551.987	2.47
552.33	2.38
552.674	2.24
553.017	2.61
553.361	2.51
553.704	2.38
554.048	2.37
554.391	2.26
554.734	2.33
555.077	2.53
555.42	2.42
555.764	2.39
556.107	2.47
556.45	2.38
556.793	2.26
557.135	2.42
557.478	2.35
557.821	2.52
558.164	2.37
558.507	2.4
558.849	2.46
559.192	2.53
559.534	2.47
559.877	2.51
560.219	2.42
560.562	2.3
560.904	2.41
561.246	2.36
561.589	2.49
561.931	2.24
562.273	2.5
562.615	2.3
562.957	2.37
563.299	2.34
563.641	2.21
563.983	2.32
564.325	2.44
564.667	2.39
565.008	2.57
565.35	2.48
565.692	2.21
566.033	2.44
566.375	2.6
566.716	2.39
567.058	2.51
567.399	2.46
567.741	2.45
568.082	2.47
568.423	2.45
568.764	2.57
569.105	2.34
569.447	2.59
569.788	2.57
570.129	2.41
570.47	2.49
570.811	2.53
571.151	2.59
571.492	2.66
571.833	2.44
572.174	2.5
572.514	2.5
572.855	2.5
573.195	2.27
573.536	2.44
573.876	2.6
574.217	2.53
574.557	2.41
574.898	2.48
575.238	2.41
575.578	2.52
575.918	2.55
576.258	2.56
576.598	2.38
576.938	2.44
577.278	2.33
577.618	2.44
577.958	2.47
578.298	2.52
578.638	2.57
578.977	2.57
579.317	2.5
579.657	2.55
579.996	2.51
580.336	2.54
580.675	2.43
581.014	2.56
581.354	2.52
581.693	2.4
582.032	2.59
582.372	2.62
582.711	2.61
583.05	2.36
583.389	2.54
583.728	2.46
584.067	2.74
584.406	2.32
584.745	2.75
585.083	2.34
585.422	2.48
585.761	2.66
586.1	2.63
586.438	2.53
586.777	2.47
587.115	2.55
587.454	2.44
587.792	2.63
588.13	2.71
588.469	2.48
588.807	2.51
589.145	2.59
589.483	2.55
589.821	2.49
590.159	2.71
590.497	2.66
590.835	2.67
591.173	2.57
591.511	2.49
591.849	2.42
592.187	2.54
592.524	2.51
592.862	2.44
593.2	2.58
593.537	2.56
593.875	2.79
594.212	2.48
594.55	2.61
594.887	2.49
595.224	2.48
595.561	2.47
595.899	2.2
596.236	2.51
596.573	2.73
596.91	2.62
597.247	2.45
597.584	2.41
597.921	2.69
598.258	2.66
598.594	2.49
598.931	2.26
599.268	2.56
599.604	2.56
599.941	2.44
600.277	2.7
600.614	2.62
600.95	2.38
601.287	2.68
601.623	2.94
601.959	2.66
602.296	2.46
602.632	2.46
602.968	2.54
603.304	2.73
603.64	2.71
603.976	2.54
604.312	2.43
604.648	2.19
604.984	2.68
605.319	2.65
605.655	2.5
605.991	2.43
606.326	2.74
606.662	2.64
606.998	2.51
607.333	2.66
607.668	2.4
608.004	2.67
608.339	2.45
608.674	2.66
609.01	2.77
609.345	2.44
609.68	2.42
610.015	2.66
610.35	2.52
610.685	2.63
611.02	2.34
611.355	2.32
611.689	2.55
612.024	2.64
612.359	2.41
612.694	2.55
613.028	2.65
613.363	2.61
613.697	2.77
614.032	2.69
614.366	2.4
614.7	2.52
615.035	2.35
615.369	2.43
615.703	2.73
616.037	2.99
616.371	2.71
616.705	2.79
617.039	2.57
617.373	2.4
617.707	2.56
618.041	2.49
618.375	2.47
618.709	2.83
619.042	2.81
619.376	2.73
619.71	2.45
620.043	2.82
620.377	2.76
620.71	2.48
621.043	2.42
621.377	2.56
621.71	2.37
622.043	2.56
622.376	2.79
622.709	2.54
623.043	2.47
623.376	2.75
623.709	2.65
624.041	3.07
624.374	2.26
624.707	2.97
625.04	2.53
625.373	2.42
625.705	2.59
626.038	2.68
626.37	2.41
626.703	2.58
627.035	2.75
627.368	2.38
627.7	2.61
628.032	2.59
628.365	2.79
628.697	2.44
629.029	2.87
629.361	2.45
629.693	2.46
630.025	2.82
630.357	2.37
630.689	2.52
631.021	2.69
631.353	2.89
631.684	2.33
632.016	2.46
632.348	2.74
632.679	2.67
633.011	2.95
633.342	2.96
633.674	2.78
634.005	2.65
634.336	2.73
634.668	2.46
634.999	2.51
635.33	2.63
635.661	2.77
635.992	2.85
636.323	2.47
636.654	2.67
636.985	2.69
637.316	2.58
637.647	3
637.977	2.79
638.308	2.63
638.639	2.33
638.969	2.62
639.3	3.08
639.63	3.11
639.961	2.33
640.291	2.92
640.622	2.9
640.952	2.79
641.282	2.47
641.612	2.51
641.943	2.94
642.273	2.36
642.603	2.39
642.933	2.68
643.263	2.52
643.592	3.17
643.922	2.79
644.252	3.04
644.582	2.7
644.911	2.66
645.241	2.9
645.571	2.44
645.9	2.93
646.23	2.89
646.559	2.81
646.888	2.93
647.218	2.76
647.547	2.76
647.876	2.83
648.205	2.69
648.534	3.25
648.863	2.7
649.192	2.65
649.521	2.88
649.85	3.2
650.179	2.74
650.508	2.86
650.837	2.73
651.165	2.81
651.494	2.78
651.822	2.64
652.151	2.68
652.479	2.23
652.808	2.47
653.136	2.48
653.465	3.17
653.793	2.78
654.121	2.55
654.449	2.34
654.777	3.19
655.105	2.74
655.433	2.71
655.761	2.91
656.089	3.01
656.417	2.59
656.745	2.77
657.073	2.59
657.4	2.72
657.728	3.09
658.056	3.12
658.383	2.84
658.711	2.97
659.038	2.95
659.365	2.51
659.693	2.82
660.02	3.54
660.347	2.79
660.674	2.86
661.001	2.73
661.329	2.67
661.656	2.83
661.982	2.93
662.309	2.83
662.636	3.03
662.963	2.94
663.29	2.78
663.616	2.45
663.943	3.18
664.27	2.58
664.596	3.11
664.923	2.84
665.249	3.56
665.576	2.89
665.902	3.59
666.228	3.45
666.554	2.71
666.881	3.07
667.207	2.91
667.533	3.1
667.859	3.15
668.185	2.83
668.511	2.66
668.837	3.26
669.162	2.81
669.488	2.77
669.814	2.38
670.139	2.61
670.465	2.91
670.791	2.49
671.116	2.84
671.442	3.02
671.767	3.47
672.092	3.03
672.418	3.26
672.743	2.69
673.068	3.22
673.393	3.63
673.718	2.94
674.043	3.24
674.368	2.98
674.693	2.24
675.018	3.31
675.343	3.53
675.667	2.78
675.992	3.57
676.317	2.71
676.641	2.34
676.966	2.8
677.29	2.7
677.615	2.43
677.939	2.75
678.264	2.75
678.588	2.61
678.912	2.77
679.236	3.37
679.56	3.18
679.885	2.7
680.209	3.08
680.532	3.66
680.856	3.56
681.18	2.84
681.504	2.65
681.828	3.11
682.152	3.12
682.475	2.77
682.799	2.96
683.122	2.8
683.446	3.33
683.769	3.19
684.093	2.77
684.416	2.74
684.739	3.87
685.062	2.97
685.386	2.93
685.709	2.64
686.032	2.66
686.355	3.13
686.678	2.77
687.001	2.81
687.324	2.87
687.646	2.92
687.969	3.21
688.292	4.21
688.614	3.25
688.937	3.04
689.26	2.48
689.582	3.41
689.904	3.03
690.227	3.34
690.549	3.32
690.871	2.57
691.194	2.71
691.516	2.37
691.838	3.43
692.16	2.81
