Data from 0389_forehead_Reflection__4__75.txt Node

Date: Fri Dec 15 16:53:29 CST 2023
User: ToomeyLab
Spectrometer: FLMS14357
Trigger mode: 0
Integration Time (sec): 1.000000E-2
Scans to average: 100
Electric dark correction enabled: true
Nonlinearity correction enabled: false
Boxcar width: 0
XAxis mode: Wavelengths
Number of Pixels in Spectrum: 2048
>>>>>Begin Spectral Data<<<<<
189.047	59.68
189.435	59.68
189.823	59.68
190.211	62.9
190.599	-3.84
190.987	69.16
191.375	2501.69
191.763	68.58
192.151	79.9
192.538	97.29
192.926	49.23
193.314	157.73
193.702	-707.42
194.089	83.05
194.477	22.82
194.864	541.51
195.252	85.52
195.639	86.16
196.027	661.18
196.414	95.3
196.801	142.47
197.189	86.42
197.576	-481.36
197.963	-17.67
198.351	11.56
198.738	16.71
199.125	52.98
199.512	-0.97
199.899	28.34
200.286	98.05
200.673	18.71
201.06	91.18
201.447	-23.66
201.833	15.26
202.22	34.54
202.607	30.77
202.994	-13.73
203.38	62.86
203.767	22.36
204.154	38.85
204.54	61.82
204.927	15.1
205.313	7.47
205.699	43.08
206.086	56.82
206.472	46.19
206.858	31
207.245	-0.44
207.631	34.77
208.017	46.52
208.403	20.62
208.789	26.74
209.175	67.75
209.561	25.98
209.947	0.97
210.333	11.87
210.719	48.72
211.105	69.07
211.491	21.47
211.876	24.07
212.262	17.4
212.648	32.49
213.034	42.94
213.419	49.92
213.805	57.98
214.19	19.92
214.576	0.39
214.961	4.39
215.346	-8.93
215.732	13.53
216.117	17.35
216.502	8.05
216.888	27.46
217.273	50.04
217.658	10.38
218.043	26.32
218.428	-0.52
218.813	-25.33
219.198	19.39
219.583	16.22
219.968	10.24
220.353	2.17
220.738	35.86
221.122	24.36
221.507	3.47
221.892	-20.31
222.276	25.23
222.661	17.23
223.046	14.64
223.43	15.26
223.815	22.2
224.199	3.93
224.583	11.64
224.968	8.86
225.352	13.11
225.736	7.58
226.121	-4.55
226.505	8.53
226.889	7.19
227.273	0.76
227.657	10.68
228.041	5.05
228.425	6.96
228.809	9.66
229.193	10.37
229.577	3.11
229.961	5.4
230.344	4.73
230.728	5.32
231.112	4.68
231.495	4.55
231.879	4.15
232.263	6.67
232.646	5.05
233.03	5.42
233.413	3.51
233.797	5.09
234.18	5.03
234.563	6.46
234.946	3.71
235.33	6.38
235.713	4.83
236.096	4.26
236.479	7.88
236.862	4.25
237.245	8.06
237.628	3.34
238.011	6.33
238.394	7.8
238.777	4.46
239.16	5.12
239.543	7.46
239.925	5.48
240.308	7.41
240.691	7.71
241.073	6.92
241.456	4.36
241.838	5.18
242.221	4.54
242.603	4.64
242.986	4.54
243.368	5.41
243.75	5.6
244.133	4.77
244.515	5.59
244.897	5.29
245.279	5.19
245.661	5.25
246.043	4.35
246.425	4.51
246.807	6.66
247.189	5.43
247.571	5.98
247.953	5.95
248.335	5.15
248.717	5.03
249.098	4.57
249.48	4.92
249.862	5
250.243	5.11
250.625	4.93
251.006	5.14
251.388	4.88
251.769	5.39
252.151	6.93
252.532	5.09
252.913	5.09
253.295	4.27
253.676	5.13
254.057	5.52
254.438	5.37
254.819	5.16
255.2	4.6
255.581	5.8
255.962	5.32
256.343	5.4
256.724	5.73
257.105	5.19
257.486	6.22
257.867	6.09
258.247	5.27
258.628	5.14
259.009	5.45
259.389	5.66
259.77	4.96
260.15	4.76
260.531	4.55
260.911	5.44
261.292	4.96
261.672	5.18
262.052	4.9
262.432	5.19
262.813	5.28
263.193	4.85
263.573	4.78
263.953	4.7
264.333	5.09
264.713	5.89
265.093	5.32
265.473	4.99
265.853	3.73
266.233	4.49
266.612	3.94
266.992	3.89
267.372	5.19
267.752	5.36
268.131	5.52
268.511	5.52
268.89	5.38
269.27	4.69
269.649	4.9
270.029	4.26
270.408	5.89
270.787	5.6
271.167	5.79
271.546	5.41
271.925	4.36
272.304	4.66
272.683	5.31
273.062	4.44
273.441	5.48
273.82	4.62
274.199	4.8
274.578	4.73
274.957	4.5
275.336	4.93
275.715	4.57
276.093	4.67
276.472	5.25
276.851	4.81
277.229	4.27
277.608	4.83
277.986	5.43
278.365	5.02
278.743	4.43
279.122	4.81
279.5	4.87
279.878	5.23
280.257	4.59
280.635	4.53
281.013	4.06
281.391	6.07
281.769	5.02
282.147	4.97
282.525	5.14
282.903	4.83
283.281	5.05
283.659	4.95
284.037	4.94
284.415	5.07
284.792	4.87
285.17	4.5
285.548	5.04
285.925	4.36
286.303	4.76
286.68	4.25
287.058	4.82
287.435	5.12
287.813	4.91
288.19	4.75
288.567	4.75
288.945	4.88
289.322	5.18
289.699	4.83
290.076	5.03
290.453	5.07
290.83	4.86
291.207	4.83
291.584	5.26
291.961	5.38
292.338	4.72
292.715	5.63
293.092	5.33
293.469	5.38
293.845	5.32
294.222	5.04
294.599	4.97
294.975	5.39
295.352	5.7
295.728	4.92
296.105	5.05
296.481	6.09
296.858	5.19
297.234	5.64
297.61	5.71
297.986	5.88
298.363	5.81
298.739	5.56
299.115	5.44
299.491	5.51
299.867	5.58
300.243	5.84
300.619	5.36
300.995	6
301.371	6.21
301.746	5.93
302.122	6.45
302.498	6.27
302.874	6.27
303.249	6.46
303.625	6.8
304	6.57
304.376	6.81
304.751	6.39
305.127	7.32
305.502	6.1
305.878	6.12
306.253	6.46
306.628	6.63
307.003	6.58
307.378	7.08
307.754	7.18
308.129	6.68
308.504	6.82
308.879	6.65
309.254	8.08
309.629	7.26
310.003	7.61
310.378	7.47
310.753	7.32
311.128	7.55
311.502	7.91
311.877	8.15
312.252	7.35
312.626	7.36
313.001	7.48
313.375	8.02
313.75	8.1
314.124	8.4
314.498	8.27
314.873	8.17
315.247	8.3
315.621	8.39
315.995	8.04
316.369	8.51
316.743	8.57
317.117	8.88
317.491	8.96
317.865	9.27
318.239	9.48
318.613	9.96
318.987	9.57
319.361	9.2
319.734	9.85
320.108	10
320.482	9.13
320.855	10.1
321.229	9.7
321.602	9.97
321.976	10.21
322.349	10.32
322.723	10.49
323.096	10.25
323.469	9.8
323.843	9.9
324.216	11.51
324.589	10.16
324.962	10.65
325.335	10.5
325.708	10.87
326.081	10.92
326.454	11.23
326.827	11.05
327.2	11.53
327.573	11.44
327.945	11.08
328.318	10.9
328.691	11.2
329.063	11.62
329.436	11.5
329.809	11.64
330.181	11.3
330.553	11.89
330.926	12.24
331.298	12.43
331.671	11.99
332.043	12.56
332.415	12.58
332.787	12.57
333.159	13.03
333.532	12.68
333.904	12.64
334.276	12.45
334.648	12.46
335.02	12.63
335.391	13.04
335.763	12.7
336.135	12.75
336.507	14.27
336.879	13.32
337.25	13.12
337.622	13.19
337.993	13.69
338.365	13.74
338.736	13.6
339.108	13.35
339.479	13.78
339.851	13.98
340.222	13.56
340.593	13.78
340.964	14.12
341.336	14.17
341.707	13.79
342.078	14.19
342.449	14.7
342.82	14.45
343.191	14.41
343.562	14.24
343.933	14.64
344.303	14.96
344.674	14.69
345.045	14.7
345.416	15.27
345.786	14.66
346.157	15.31
346.527	14.59
346.898	14.7
347.268	14.58
347.639	15.39
348.009	15.36
348.38	15.28
348.75	15.18
349.12	15.15
349.49	15.4
349.861	15.22
350.231	15.98
350.601	15.84
350.971	16.05
351.341	16.06
351.711	15.63
352.081	16.08
352.45	16.08
352.82	16.39
353.19	16.11
353.56	16.13
353.929	16.45
354.299	16.59
354.669	16.25
355.038	16.74
355.408	16.37
355.777	16.67
356.147	16.88
356.516	16.95
356.885	17.08
357.254	16.92
357.624	17.47
357.993	17.42
358.362	16.54
358.731	16.83
359.1	17.17
359.469	17.4
359.838	17.5
360.207	17.47
360.576	17.23
360.945	17.89
361.314	18.2
361.682	17.9
362.051	17.91
362.42	18.07
362.788	17.85
363.157	18.28
363.525	18.08
363.894	18.07
364.262	18.1
364.631	18.23
364.999	18.55
365.367	17.84
365.735	18.97
366.104	18.69
366.472	18.67
366.84	18.56
367.208	18.89
367.576	18.83
367.944	19
368.312	18.86
368.68	18.63
369.048	19.42
369.416	19.06
369.783	19
370.151	19.61
370.519	19.54
370.886	19.92
371.254	19.1
371.621	20.04
371.989	19.8
372.356	19.48
372.724	19.97
373.091	19.93
373.458	19.84
373.826	20.05
374.193	19.99
374.56	20.38
374.927	20.1
375.294	20.52
375.661	20.18
376.028	20.38
376.395	20.65
376.762	20.83
377.129	20.63
377.496	20.79
377.863	20.46
378.229	20.38
378.596	20.91
378.963	20.95
379.329	20.97
379.696	21.2
380.062	21.41
380.429	21.01
380.795	21.37
381.161	21.72
381.528	21.73
381.894	21.72
382.26	21.53
382.626	21.36
382.993	21.23
383.359	22.3
383.725	21.72
384.091	21.84
384.457	22.09
384.823	22.33
385.188	22.39
385.554	22.03
385.92	21.97
386.286	22.45
386.651	22.56
387.017	22.58
387.383	22.61
387.748	22.29
388.114	22.68
388.479	22.34
388.845	23.24
389.21	22.52
389.575	23.15
389.94	23.24
390.306	22.95
390.671	23.13
391.036	22.86
391.401	23.2
391.766	23.25
392.131	23.45
392.496	23.51
392.861	23.39
393.226	23.66
393.591	23.53
393.956	23.36
394.32	23.51
394.685	23.51
395.05	23.69
395.414	23.92
395.779	23.97
396.143	23.76
396.508	23.88
396.872	24.28
397.236	24.15
397.601	24.07
397.965	24.27
398.329	24.59
398.694	24.26
399.058	24.38
399.422	24.33
399.786	24.32
400.15	24.75
400.514	24.69
400.878	24.89
401.242	24.93
401.605	25.02
401.969	24.85
402.333	25.15
402.697	25.36
403.06	24.97
403.424	25.44
403.787	25.03
404.151	25.37
404.514	25.41
404.878	25.1
405.241	25.13
405.604	25.32
405.968	25.47
406.331	25.59
406.694	25.44
407.057	25.53
407.42	25.43
407.783	25.41
408.146	25.64
408.509	25.59
408.872	25.78
409.235	25.88
409.598	26.09
409.961	26.06
410.323	25.99
410.686	26.01
411.049	26.24
411.411	25.98
411.774	26.15
412.136	26.23
412.499	25.98
412.861	26.46
413.223	26.49
413.586	26.62
413.948	26.37
414.31	26.67
414.672	26.49
415.035	26.45
415.397	26.97
415.759	26.43
416.121	27.02
416.483	26.75
416.845	26.95
417.206	26.82
417.568	27.13
417.93	26.95
418.292	27.05
418.653	27.25
419.015	27.56
419.377	27.03
419.738	27.23
420.1	27.45
420.461	27.26
420.822	27.21
421.184	27.09
421.545	27.35
421.906	27.2
422.267	27.38
422.629	27.35
422.99	27.39
423.351	27.48
423.712	27.68
424.073	27.52
424.434	27.7
424.795	27.98
425.155	27.98
425.516	27.92
425.877	27.91
426.238	28.06
426.598	28.23
426.959	28.22
427.32	28.3
427.68	28.53
428.041	28.57
428.401	28.84
428.761	28.82
429.122	28.84
429.482	28.94
429.842	29.3
430.202	29.32
430.563	29.48
430.923	29.5
431.283	29.74
431.643	29.58
432.003	29.9
432.363	29.74
432.722	29.9
433.082	30.16
433.442	29.9
433.802	29.89
434.161	30.23
434.521	30.27
434.881	30.2
435.24	30.13
435.6	30.17
435.959	30.46
436.319	30.38
436.678	30.5
437.037	30.72
437.396	30.53
437.756	30.93
438.115	30.85
438.474	30.99
438.833	30.71
439.192	30.98
439.551	31.2
439.91	31.12
440.269	31.11
440.628	31.25
440.987	31.17
441.345	30.96
441.704	31.24
442.063	31.29
442.421	31.29
442.78	31.31
443.138	31.44
443.497	31.55
443.855	31.53
444.214	31.76
444.572	32.1
444.93	32.01
445.288	31.97
445.647	32.17
446.005	32.05
446.363	32.21
446.721	32.21
447.079	32.14
447.437	32.09
447.795	32.37
448.153	32.21
448.51	31.98
448.868	32.24
449.226	32.38
449.584	32.37
449.941	32.63
450.299	32.69
450.656	32.7
451.014	32.85
451.371	33.28
451.729	33.12
452.086	33.34
452.443	33.32
452.801	33.44
453.158	33.53
453.515	33.35
453.872	33.6
454.229	33.46
454.586	33.56
454.943	33.71
455.3	33.89
455.657	33.96
456.014	33.96
456.371	33.93
456.727	34.08
457.084	34.39
457.441	34.3
457.797	34.44
458.154	34.59
458.51	34.36
458.867	34.51
459.223	34.64
459.58	34.34
459.936	34.73
460.292	34.5
460.648	34.65
461.005	34.57
461.361	34.57
461.717	34.29
462.073	34.47
462.429	34.55
462.785	34.78
463.141	34.82
463.496	35.05
463.852	35.24
464.208	35.34
464.564	35.43
464.919	35.65
465.275	35.62
465.631	35.75
465.986	35.86
466.342	35.68
466.697	35.8
467.052	35.82
467.408	36
467.763	35.77
468.118	36.17
468.473	36.01
468.829	36.07
469.184	35.81
469.539	36.18
469.894	36.11
470.249	36.55
470.603	36.58
470.958	36.79
471.313	36.61
471.668	36.75
472.023	36.66
472.377	36.9
472.732	36.78
473.086	36.88
473.441	36.69
473.795	37.28
474.15	37.25
474.504	36.94
474.859	37.12
475.213	37.1
475.567	37.08
475.921	37.36
476.275	37.35
476.63	37.8
476.984	37.53
477.338	37.43
477.692	37.58
478.045	37.52
478.399	37.92
478.753	37.71
479.107	37.68
479.461	37.71
479.814	37.77
480.168	37.94
480.521	38.03
480.875	37.55
481.228	37.75
481.582	37.99
481.935	37.79
482.289	38.3
482.642	38.03
482.995	37.92
483.348	38.15
483.701	37.99
484.055	38
484.408	37.85
484.761	37.65
485.114	37.45
485.466	37.09
485.819	37.31
486.172	37.28
486.525	37.38
486.878	37.23
487.23	37.34
487.583	37.72
487.936	38.04
488.288	38.13
488.641	38.19
488.993	37.92
489.345	37.82
489.698	37.74
490.05	37.82
490.402	37.76
490.754	38.1
491.107	38.3
491.459	38.54
491.811	38.72
492.163	38.94
492.515	38.86
492.866	38.83
493.218	38.81
493.57	38.55
493.922	38.53
494.274	38.61
494.625	38.81
494.977	39.2
495.328	39.28
495.68	39.47
496.031	39.89
496.383	39.91
496.734	40.17
497.086	40.28
497.437	40.23
497.788	40.29
498.139	40.25
498.49	40.23
498.842	40.12
499.193	40.13
499.544	40.32
499.894	40.4
500.245	40.57
500.596	40.42
500.947	40.77
501.298	40.64
501.648	40.75
501.999	40.72
502.35	40.82
502.7	40.92
503.051	40.91
503.401	41.15
503.752	41.3
504.102	41.42
504.452	41.24
504.803	41.24
505.153	41.22
505.503	41.35
505.853	41.45
506.203	41.49
506.553	41.59
506.903	41.47
507.253	41.57
507.603	41.65
507.953	41.82
508.303	42.08
508.652	41.62
509.002	41.75
509.352	41.8
509.701	41.97
510.051	41.76
510.4	41.82
510.75	41.71
511.099	41.86
511.449	41.79
511.798	41.92
512.147	41.89
512.496	41.94
512.846	42.21
513.195	41.91
513.544	42.13
513.893	42.25
514.242	42.24
514.591	42.43
514.939	42.43
515.288	42.36
515.637	42.41
515.986	42.71
516.334	42.65
516.683	42.78
517.032	42.74
517.38	42.86
517.729	42.85
518.077	42.87
518.426	42.96
518.774	42.94
519.122	42.92
519.47	42.66
519.819	42.76
520.167	42.73
520.515	42.54
520.863	42.48
521.211	42.5
521.559	42.53
521.907	42.98
522.255	43.01
522.602	43.1
522.95	43.31
523.298	43.23
523.645	43.38
523.993	43.19
524.341	43.54
524.688	43.72
525.036	43.66
525.383	43.55
525.73	43.54
526.078	43.86
526.425	43.44
526.772	43.79
527.119	43.59
527.466	43.22
527.814	43.34
528.161	43.28
528.508	43.55
528.854	43.47
529.201	43.38
529.548	43.48
529.895	43.14
530.242	42.95
530.588	43.04
530.935	43.08
531.282	42.96
531.628	42.8
531.975	43.01
532.321	43.34
532.667	43.47
533.014	43.78
533.36	44.05
533.706	43.95
534.052	44.01
534.399	43.99
534.745	43.99
535.091	43.63
535.437	43.85
535.783	43.89
536.129	43.97
536.474	43.99
536.82	44.37
537.166	44.33
537.512	44.63
537.857	44.74
538.203	44.65
538.549	44.58
538.894	44.77
539.239	44.55
539.585	44.61
539.93	44.74
540.276	45.14
540.621	44.97
540.966	45.24
541.311	45.25
541.656	45.12
542.001	45.38
542.346	45.13
542.691	44.85
543.036	44.7
543.381	44.56
543.726	44.58
544.071	44.69
544.415	44.86
544.76	44.89
545.105	45.01
545.449	45.22
545.794	45.28
546.138	45.47
546.483	45.75
546.827	45.83
547.171	45.91
547.516	45.95
547.86	45.91
548.204	46.02
548.548	46.15
548.892	46.03
549.236	46.04
549.58	45.98
549.924	46.07
550.268	46.63
550.612	46.42
550.956	46.89
551.3	46.67
551.643	46.97
551.987	47.18
552.33	46.84
552.674	47.06
553.017	47.26
553.361	46.85
553.704	46.88
554.048	47.18
554.391	47.05
554.734	47.07
555.077	47.07
555.42	47.09
555.764	46.96
556.107	47.04
556.45	47.54
556.793	47.51
557.135	47.41
557.478	47.78
557.821	47.68
558.164	47.8
558.507	47.59
558.849	47.91
559.192	47.78
559.534	47.75
559.877	48.23
560.219	47.93
560.562	48.26
560.904	47.99
561.246	48.2
561.589	47.95
561.931	48.53
562.273	48.26
562.615	48.29
562.957	48.07
563.299	48.12
563.641	48.31
563.983	48.34
564.325	48.18
564.667	48.57
565.008	48.2
565.35	48.65
565.692	48.3
566.033	48.63
566.375	48.54
566.716	48.71
567.058	48.56
567.399	48.57
567.741	48.71
568.082	48.69
568.423	48.79
568.764	48.48
569.105	48.63
569.447	48.66
569.788	49.13
570.129	48.75
570.47	48.9
570.811	48.99
571.151	48.96
571.492	49.25
571.833	48.94
572.174	49.13
572.514	49.66
572.855	49.2
573.195	49.31
573.536	49.2
573.876	49.35
574.217	49.2
574.557	49.3
574.898	49.37
575.238	49.3
575.578	49.25
575.918	49.28
576.258	49.51
576.598	49.39
576.938	49.36
577.278	49.53
577.618	49.42
577.958	49.73
578.298	49.79
578.638	49.94
578.977	49.76
579.317	49.96
579.657	50.24
579.996	50.09
580.336	50.42
580.675	50.17
581.014	50.32
581.354	50.52
581.693	50.81
582.032	50.78
582.372	50.57
582.711	50.57
583.05	50.49
583.389	51.14
583.728	50.33
584.067	50.59
584.406	51.27
584.745	50.76
585.083	50.63
585.422	51
585.761	51.17
586.1	50.95
586.438	50.52
586.777	51.11
587.115	51.14
587.454	51.44
587.792	50.88
588.13	51.25
588.469	51.33
588.807	51.23
589.145	51.47
589.483	51.24
589.821	51.5
590.159	51.19
590.497	51.2
590.835	51.44
591.173	51.1
591.511	51.48
591.849	51.15
592.187	51.4
592.524	51.6
592.862	51.26
593.2	51.84
593.537	51.66
593.875	52.12
594.212	51.73
594.55	52.13
594.887	52.19
595.224	52.1
595.561	51.8
595.899	51.84
596.236	51.91
596.573	52.27
596.91	51.95
597.247	51.87
597.584	52.2
597.921	52.02
598.258	52.15
598.594	51.85
598.931	52.03
599.268	52.17
599.604	52.03
599.941	52.03
600.277	52.09
600.614	52.03
600.95	52.31
601.287	52.22
601.623	52.1
601.959	52.39
602.296	52.31
602.632	52.59
602.968	52.49
603.304	52.8
603.64	52.77
603.976	52.74
604.312	52.82
604.648	53.07
604.984	52.41
605.319	52.65
605.655	52.61
605.991	52.64
606.326	52.33
606.662	52.29
606.998	52.9
607.333	52.6
607.668	52.4
608.004	53.01
608.339	53.04
608.674	52.88
609.01	52.93
609.345	52.92
609.68	53.23
610.015	53.3
610.35	53.22
610.685	53.24
611.02	53.47
611.355	53.21
611.689	53.37
612.024	53.32
612.359	53.22
612.694	53.64
613.028	53.18
613.363	53.46
613.697	53.6
614.032	53.46
614.366	53.71
614.7	54
615.035	54.15
615.369	54.1
615.703	54.15
616.037	53.96
616.371	54.15
616.705	53.96
617.039	54.32
617.373	54.3
617.707	54.11
618.041	54.23
618.375	54.09
618.709	54.43
619.042	54.34
619.376	54.63
619.71	54.42
620.043	54.66
620.377	54.21
620.71	55.1
621.043	53.85
621.377	54.56
621.71	54.73
622.043	54.79
622.376	54.64
622.709	54.71
623.043	55.09
623.376	54.68
623.709	54.52
624.041	55.29
624.374	55.12
624.707	54.83
625.04	55.35
625.373	54.92
625.705	55.2
626.038	55.48
626.37	55.27
626.703	54.98
627.035	54.68
627.368	55.49
627.7	55.17
628.032	54.92
628.365	55.08
628.697	55.17
629.029	55.16
629.361	55.12
629.693	55
630.025	55.28
630.357	55.18
630.689	55.51
631.021	55.45
631.353	55.54
631.684	54.72
632.016	55.12
632.348	56.07
632.679	55.61
633.011	55.83
633.342	55.65
633.674	55.6
634.005	56.22
634.336	55.68
634.668	55.64
634.999	55.57
635.33	55.87
635.661	55.92
635.992	55.86
636.323	55.81
636.654	56.4
636.985	55.87
637.316	55.98
637.647	56.18
637.977	56.2
638.308	56.5
638.639	55.97
638.969	56.07
639.3	56
639.63	56.45
639.961	55.97
640.291	56.44
640.622	56.86
640.952	56.28
641.282	56.87
641.612	56.6
641.943	56.15
642.273	56.53
642.603	56.59
642.933	56.4
643.263	56.7
643.592	56.91
643.922	56.75
644.252	57.03
644.582	56.78
644.911	56.6
645.241	56.54
645.571	56.31
645.9	57.54
646.23	56.74
646.559	57.51
646.888	57.05
647.218	57.05
647.547	57.3
647.876	57.17
648.205	57.04
648.534	56.98
648.863	56.74
649.192	57.52
649.521	56.97
649.85	57.21
650.179	57.16
650.508	57.08
650.837	57.33
651.165	57.44
651.494	57.52
651.822	57.46
652.151	57.1
652.479	58.02
652.808	57.57
653.136	57.38
653.465	57.84
653.793	57.42
654.121	57.55
654.449	57.91
654.777	58.21
655.105	58.17
655.433	57.44
655.761	57.88
656.089	58.17
656.417	58.02
656.745	58.26
657.073	57.84
657.4	58.25
657.728	58.33
658.056	57.65
658.383	57.89
658.711	58.26
659.038	58.15
659.365	57.71
659.693	57.96
660.02	58.16
660.347	58.14
660.674	58.03
661.001	58.46
661.329	57.89
661.656	58.77
661.982	58.05
662.309	58.24
662.636	58.5
662.963	58.11
663.29	58.24
663.616	58.43
663.943	58.4
664.27	58.04
664.596	58.46
664.923	58.24
665.249	58.63
665.576	58.89
665.902	58.78
666.228	58.81
666.554	58.53
666.881	59.24
667.207	58.36
667.533	58.07
667.859	59.28
668.185	58.63
668.511	59.14
668.837	58.59
669.162	59.62
669.488	59.19
669.814	58.8
