Data from 0389_chest_Reflection__3__64.txt Node

Date: Fri Dec 15 16:50:37 CST 2023
User: ToomeyLab
Spectrometer: FLMS14357
Trigger mode: 0
Integration Time (sec): 1.000000E-2
Scans to average: 100
Electric dark correction enabled: true
Nonlinearity correction enabled: false
Boxcar width: 0
XAxis mode: Wavelengths
Number of Pixels in Spectrum: 2048
>>>>>Begin Spectral Data<<<<<
189.047	-257.63
189.435	-257.63
189.823	-257.63
190.211	-57.48
190.599	248.62
190.987	87.65
191.375	4308.47
191.763	-34.29
192.151	135.31
192.538	54.93
192.926	-31.18
193.314	184.51
193.702	-991.27
194.089	32.3
194.477	-97.86
194.864	170.58
195.252	40.66
195.639	107.85
196.027	-69.41
196.414	123.52
196.801	24.68
197.189	94.21
197.576	-3067.8
197.963	-0.08
198.351	-45.05
198.738	-43.97
199.125	18.23
199.512	-25.55
199.899	16.92
200.286	35.63
200.673	26.85
201.06	24.32
201.447	-10.52
201.833	-0.03
202.22	46.9
202.607	10.57
202.994	-27.71
203.38	77.78
203.767	36.71
204.154	5.81
204.54	39.3
204.927	-3.48
205.313	-22.31
205.699	-5.08
206.086	38.92
206.472	-2.52
206.858	30.57
207.245	-59.15
207.631	39.39
208.017	44.62
208.403	6.03
208.789	24.91
209.175	28.8
209.561	-57.35
209.947	81.09
210.333	-6.96
210.719	23.73
211.105	31.28
211.491	0.8
211.876	37.27
212.262	34.99
212.648	6.26
213.034	20.5
213.419	5.45
213.805	13.51
214.19	3
214.576	4.73
214.961	10.63
215.346	-40.43
215.732	12.31
216.117	4.82
216.502	4.1
216.888	10.51
217.273	17.58
217.658	6.89
218.043	24.5
218.428	-16.58
218.813	-16.09
219.198	-0.18
219.583	0.37
219.968	5.98
220.353	-14.08
220.738	27.06
221.122	-3.08
221.507	-7.19
221.892	1.31
222.276	-11.69
222.661	0.81
223.046	11.6
223.43	9.06
223.815	12.55
224.199	-11.57
224.583	4.63
224.968	8.64
225.352	11.95
225.736	6.19
226.121	-2.58
226.505	8.71
226.889	12.63
227.273	6.82
227.657	3.89
228.041	0.19
228.425	4.04
228.809	5.86
229.193	7.97
229.577	2.8
229.961	1.69
230.344	2.05
230.728	2.44
231.112	2.17
231.495	2.02
231.879	2.44
232.263	3.45
232.646	2.44
233.03	2.97
233.413	1.6
233.797	2.63
234.18	4.32
234.563	1.99
234.946	0.74
235.33	2.77
235.713	4.33
236.096	3.25
236.479	3.42
236.862	2.22
237.245	3.9
237.628	3.37
238.011	2.75
238.394	2.71
238.777	3.32
239.16	0.46
239.543	3.58
239.925	3.99
240.308	3.03
240.691	3.82
241.073	2.76
241.456	2.79
241.838	2.26
242.221	0.95
242.603	2.83
242.986	2.48
243.368	2.34
243.75	2.73
244.133	1.8
244.515	2.71
244.897	2.36
245.279	2.35
245.661	1.73
246.043	2.34
246.425	1.47
246.807	2.84
247.189	2.17
247.571	2.09
247.953	2.55
248.335	1.91
248.717	2.46
249.098	2.19
249.48	2.5
249.862	2.13
250.243	2.29
250.625	2.25
251.006	2.7
251.388	1.18
251.769	2.99
252.151	3.08
252.532	2.55
252.913	2.55
253.295	1.25
253.676	2.1
254.057	2.34
254.438	2.43
254.819	1.96
255.2	1.39
255.581	2.7
255.962	0.97
256.343	2.18
256.724	1.68
257.105	2.8
257.486	1.42
257.867	3.23
258.247	2.65
258.628	1.93
259.009	2.13
259.389	2.51
259.77	2.48
260.15	1.24
260.531	1.35
260.911	2.72
261.292	1.93
261.672	2.4
262.052	2.05
262.432	2.32
262.813	2.52
263.193	2.46
263.573	2.36
263.953	1.96
264.333	2.83
264.713	1.98
265.093	1.97
265.473	3.17
265.853	1.54
266.233	1.99
266.612	0.55
266.992	1.01
267.372	2.86
267.752	1.78
268.131	1.75
268.511	2.67
268.89	2.44
269.27	1.44
269.649	1.07
270.029	1.67
270.408	2.96
270.787	2.38
271.167	2.52
271.546	2.67
271.925	2.11
272.304	2.34
272.683	2.77
273.062	1.58
273.441	2.17
273.82	1.53
274.199	1.88
274.578	2.01
274.957	2.04
275.336	2.26
275.715	1.62
276.093	1.83
276.472	1.86
276.851	1.83
277.229	1.76
277.608	1.44
277.986	3.03
278.365	2.47
278.743	2.22
279.122	1.89
279.5	1.87
279.878	2.75
280.257	2.16
280.635	2.32
281.013	2.13
281.391	2.5
281.769	2.06
282.147	2.45
282.525	2.18
282.903	1.56
283.281	2.31
283.659	1.99
284.037	2.38
284.415	1.91
284.792	2.52
285.17	1.24
285.548	1.62
285.925	2.38
286.303	2.42
286.68	1.63
287.058	1.81
287.435	2.08
287.813	1.89
288.19	2.04
288.567	1.93
288.945	2.75
289.322	1.9
289.699	1.96
290.076	2.75
290.453	1.97
290.83	1.79
291.207	2.12
291.584	2.12
291.961	2.13
292.338	2.23
292.715	2.43
293.092	2.34
293.469	2.15
293.845	2.18
294.222	1.46
294.599	1.66
294.975	1.73
295.352	2.36
295.728	2.12
296.105	2.29
296.481	2.58
296.858	2.22
297.234	1.95
297.61	2.28
297.986	2
298.363	2.37
298.739	2.32
299.115	1.88
299.491	1.68
299.867	1.78
300.243	2.16
300.619	1.88
300.995	2.2
301.371	2.09
301.746	1.74
302.122	2.86
302.498	1.48
302.874	2.33
303.249	2.49
303.625	2.14
304	2.15
304.376	2.31
304.751	1.85
305.127	2.66
305.502	1.86
305.878	1.57
306.253	2.16
306.628	3.03
307.003	2.05
307.378	2.62
307.754	2.3
308.129	1.68
308.504	2.11
308.879	1.72
309.254	2.61
309.629	2.74
310.003	2.1
310.378	2.59
310.753	2.46
311.128	2.19
311.502	2.19
311.877	2.12
312.252	1.5
312.626	1.93
313.001	1.98
313.375	2.63
313.75	1.98
314.124	2.04
314.498	2.17
314.873	2.23
315.247	1.9
315.621	2.18
315.995	1.5
316.369	2.25
316.743	2.08
317.117	2.47
317.491	2.02
317.865	2.51
318.239	2.34
318.613	2.33
318.987	2.77
319.361	1.76
319.734	3.08
320.108	2.49
320.482	2.3
320.855	2.92
321.229	2.15
321.602	1.97
321.976	2.25
322.349	1.93
322.723	2.21
323.096	2.84
323.469	1.57
323.843	2.33
324.216	2.75
324.589	2.45
324.962	2.45
325.335	2.31
325.708	2.19
326.081	2.04
326.454	2
326.827	2.12
327.2	2.33
327.573	2.43
327.945	2.22
328.318	2.32
328.691	1.73
329.063	2.08
329.436	1.74
329.809	2.54
330.181	1.86
330.553	2.18
330.926	2.47
331.298	3.03
331.671	2.19
332.043	2.94
332.415	2.11
332.787	1.98
333.159	3.04
333.532	2.42
333.904	2.76
334.276	2.39
334.648	2.15
335.02	2.2
335.391	2.13
335.763	2.12
336.135	2.36
336.507	3.02
336.879	1.96
337.25	2.49
337.622	2.45
337.993	2.22
338.365	2.56
338.736	2.45
339.108	2.71
339.479	1.88
339.851	2.42
340.222	1.91
340.593	2.08
340.964	2.02
341.336	2.94
341.707	1.81
342.078	2.67
342.449	2.75
342.82	2.59
343.191	2.33
343.562	2.37
343.933	2.06
344.303	2.37
344.674	2.5
345.045	2.66
345.416	2.42
345.786	2.05
346.157	2.66
346.527	2.16
346.898	1.94
347.268	2.64
347.639	2.19
348.009	2.44
348.38	2.26
348.75	2.58
349.12	2.4
349.49	2.71
349.861	1.81
350.231	2.21
350.601	2.36
350.971	1.94
351.341	2.16
351.711	2.02
352.081	2.49
352.45	2.1
352.82	1.97
353.19	2.42
353.56	1.89
353.929	2.4
354.299	2.41
354.669	2.46
355.038	2.77
355.408	2.14
355.777	2.41
356.147	2.45
356.516	1.96
356.885	2.44
357.254	2.18
357.624	2.51
357.993	2.3
358.362	1.88
358.731	1.92
359.1	2.27
359.469	2.47
359.838	2.57
360.207	2.41
360.576	2.46
360.945	2.21
361.314	2.49
361.682	2.21
362.051	2.11
362.42	2.37
362.788	2.25
363.157	2.26
363.525	2.6
363.894	2.43
364.262	2.08
364.631	2.08
364.999	2.42
365.367	2.02
365.735	3.01
366.104	2.39
366.472	2.38
366.84	2.33
367.208	2.39
367.576	2.57
367.944	2.5
368.312	2.17
368.68	1.96
369.048	2.65
369.416	2.31
369.783	2.28
370.151	2.59
370.519	2.95
370.886	2.37
371.254	1.98
371.621	2.51
371.989	2.28
372.356	2.08
372.724	2.65
373.091	2.14
373.458	2.05
373.826	2.44
374.193	2.46
374.56	2.42
374.927	2.71
375.294	2.28
375.661	2.31
376.028	2.36
376.395	2.12
376.762	2.74
377.129	2.74
377.496	2.55
377.863	2.52
378.229	2.06
378.596	2.41
378.963	2.37
379.329	2.54
379.696	2.79
380.062	2.41
380.429	2.36
380.795	2
381.161	2.36
381.528	2.65
381.894	2.12
382.26	2.37
382.626	2.39
382.993	1.83
383.359	2.71
383.725	2.42
384.091	2.57
384.457	2.73
384.823	2.57
385.188	2.42
385.554	2.37
385.92	2.55
386.286	2.81
386.651	2.42
387.017	2.66
387.383	2.68
387.748	2.38
388.114	2.58
388.479	2.3
388.845	2.96
389.21	2.6
389.575	2.57
389.94	2.32
390.306	2.46
390.671	2.64
391.036	2.35
391.401	2.2
391.766	2.49
392.131	2.28
392.496	2.64
392.861	2.26
393.226	2.58
393.591	2.69
393.956	2.56
394.32	2.62
394.685	2.2
395.05	2.16
395.414	2.24
395.779	2.25
396.143	2.25
396.508	2.32
396.872	2.59
397.236	2.78
397.601	2.25
397.965	2.33
398.329	2.52
398.694	2.73
399.058	2.46
399.422	2.23
399.786	2.62
400.15	2.65
400.514	2.46
400.878	2.72
401.242	2.88
401.605	2.54
401.969	2.53
402.333	2.31
402.697	2.59
403.06	2.6
403.424	2.58
403.787	2.47
404.151	2.67
404.514	2.45
404.878	2.57
405.241	2.57
405.604	2.49
405.968	2.48
406.331	2.57
406.694	2.92
407.057	2.57
407.42	2.54
407.783	2.53
408.146	2.63
408.509	2.67
408.872	2.38
409.235	2.58
409.598	2.7
409.961	2.63
410.323	2.73
410.686	2.58
411.049	2.55
411.411	2.37
411.774	2.64
412.136	2.56
412.499	2.61
412.861	2.45
413.223	2.61
413.586	2.6
413.948	2.49
414.31	2.74
414.672	2.44
415.035	2.27
415.397	2.82
415.759	2.15
416.121	2.82
416.483	2.29
416.845	2.53
417.206	2.36
417.568	2.77
417.93	2.38
418.292	2.58
418.653	2.49
419.015	2.59
419.377	2.7
419.738	2.63
420.1	2.55
420.461	2.58
420.822	2.52
421.184	2.5
421.545	2.46
421.906	2.47
422.267	2.54
422.629	2.44
422.99	2.56
423.351	2.4
423.712	2.52
424.073	2.48
424.434	2.44
424.795	2.43
425.155	2.55
425.516	2.4
425.877	2.51
426.238	2.46
426.598	2.52
426.959	2.49
427.32	2.55
427.68	2.47
428.041	2.47
428.401	2.62
428.761	2.6
429.122	2.69
429.482	2.54
429.842	2.68
430.202	2.56
430.563	2.71
430.923	2.57
431.283	2.67
431.643	2.52
432.003	2.68
432.363	2.81
432.722	2.43
433.082	2.71
433.442	2.55
433.802	2.67
434.161	2.59
434.521	2.8
434.881	2.57
435.24	2.51
435.6	2.66
435.959	2.56
436.319	2.72
436.678	2.55
437.037	2.52
437.396	2.59
437.756	2.68
438.115	2.47
438.474	2.76
438.833	2.48
439.192	2.59
439.551	2.7
439.91	2.65
440.269	2.8
440.628	2.66
440.987	2.71
441.345	2.34
441.704	2.72
442.063	2.56
442.421	2.64
442.78	2.64
443.138	2.56
443.497	2.76
443.855	2.58
444.214	2.66
444.572	2.66
444.93	2.66
445.288	2.68
445.647	2.7
446.005	2.7
446.363	2.67
446.721	2.65
447.079	2.46
447.437	2.49
447.795	2.62
448.153	2.56
448.51	2.62
448.868	2.7
449.226	2.63
449.584	2.53
449.941	2.67
450.299	2.74
450.656	2.66
451.014	2.61
451.371	2.5
451.729	2.72
452.086	2.84
452.443	2.7
452.801	2.7
453.158	2.72
453.515	2.66
453.872	2.76
454.229	2.53
454.586	2.73
454.943	2.67
455.3	2.67
455.657	2.71
456.014	2.77
456.371	2.75
456.727	2.81
457.084	2.86
457.441	2.7
457.797	2.77
458.154	2.72
458.51	2.75
458.867	2.92
459.223	2.79
459.58	2.83
459.936	2.87
460.292	2.73
460.648	2.76
461.005	2.71
461.361	2.76
461.717	2.7
462.073	2.63
462.429	2.67
462.785	2.87
463.141	2.76
463.496	2.8
463.852	2.9
464.208	2.66
464.564	2.75
464.919	2.82
465.275	2.84
465.631	3
465.986	2.82
466.342	2.77
466.697	2.78
467.052	2.7
467.408	2.81
467.763	2.95
468.118	2.91
468.473	2.76
468.829	2.74
469.184	2.69
469.539	2.94
469.894	2.64
470.249	2.91
470.603	2.89
470.958	2.74
471.313	3.03
471.668	2.94
472.023	2.9
472.377	2.72
472.732	2.9
473.086	2.78
473.441	2.81
473.795	2.94
474.15	3.01
474.504	2.94
474.859	2.97
475.213	2.76
475.567	2.76
475.921	2.83
476.275	2.7
476.63	2.97
476.984	2.86
477.338	2.91
477.692	2.75
478.045	2.79
478.399	3.04
478.753	2.81
479.107	2.88
479.461	2.78
479.814	2.76
480.168	2.86
480.521	2.89
480.875	2.77
481.228	2.86
481.582	2.9
481.935	2.9
482.289	2.8
482.642	2.91
482.995	2.85
483.348	2.89
483.701	2.77
484.055	2.89
484.408	2.99
484.761	2.75
485.114	2.85
485.466	2.66
485.819	2.66
486.172	2.66
486.525	2.74
486.878	2.77
487.23	2.81
487.583	2.89
487.936	2.83
488.288	2.86
488.641	2.87
488.993	2.79
489.345	2.76
489.698	2.74
490.05	2.75
490.402	2.83
490.754	2.8
491.107	2.92
491.459	2.84
491.811	2.87
492.163	2.9
492.515	2.9
492.866	2.89
493.218	2.88
493.57	2.83
493.922	2.86
494.274	2.93
494.625	2.98
494.977	2.94
495.328	3.09
495.68	2.94
496.031	3.05
496.383	2.9
496.734	3.15
497.086	3.05
497.437	3.03
497.788	3.07
498.139	2.97
498.49	3.03
498.842	2.91
499.193	2.97
499.544	3.15
499.894	3.16
500.245	2.99
500.596	2.95
500.947	3.1
501.298	3.09
501.648	3.09
501.999	3.2
502.35	3.03
502.7	3.04
503.051	2.83
503.401	3.14
503.752	3.08
504.102	3.06
504.452	3.24
504.803	3.02
505.153	2.98
505.503	3.06
505.853	3.13
506.203	3.06
506.553	3.07
506.903	3.11
507.253	3.12
507.603	2.99
507.953	3.26
508.303	3.3
508.652	3.14
509.002	3.18
509.352	3.1
509.701	3.15
510.051	3.17
510.4	3.04
510.75	3.18
511.099	3.22
511.449	3.13
511.798	3.08
512.147	3.18
512.496	3.07
512.846	3.2
513.195	3.14
513.544	3.16
513.893	3.17
514.242	3.21
514.591	3.36
514.939	3.26
515.288	3.25
515.637	3.31
515.986	3.32
516.334	3.35
516.683	3.29
517.032	3.23
517.38	3.41
517.729	3.4
518.077	3.13
518.426	3.3
518.774	3.39
519.122	3.26
519.47	3.29
519.819	3.25
520.167	3.21
520.515	3.19
520.863	3.25
521.211	3.33
521.559	3.28
521.907	3.24
522.255	3.31
522.602	3.38
522.95	3.27
523.298	3.26
523.645	3.41
523.993	3.28
524.341	3.44
524.688	3.34
525.036	3.37
525.383	3.47
525.73	3.46
526.078	3.37
526.425	3.44
526.772	3.48
527.119	3.4
527.466	3.3
527.814	3.4
528.161	3.3
528.508	3.42
528.854	3.39
529.201	3.35
529.548	3.34
529.895	3.38
530.242	3.26
530.588	3.24
530.935	3.33
531.282	3.36
531.628	3.39
531.975	3.47
532.321	3.48
532.667	3.42
533.014	3.55
533.36	3.45
533.706	3.51
534.052	3.49
534.399	3.42
534.745	3.38
535.091	3.38
535.437	3.45
535.783	3.48
536.129	3.57
536.474	3.53
536.82	3.59
537.166	3.6
537.512	3.65
537.857	3.6
538.203	3.63
538.549	3.5
538.894	3.59
539.239	3.65
539.585	3.64
539.93	3.66
540.276	3.67
540.621	3.81
540.966	3.76
541.311	3.69
541.656	3.78
542.001	3.63
542.346	3.73
542.691	3.62
543.036	3.58
543.381	3.54
543.726	3.59
544.071	3.75
544.415	3.78
544.76	3.75
545.105	3.78
545.449	3.68
545.794	3.82
546.138	3.85
546.483	3.82
546.827	3.84
547.171	3.9
547.516	4.12
547.86	3.91
548.204	3.77
548.548	3.87
548.892	3.93
549.236	3.91
549.58	3.91
549.924	4.09
550.268	4.13
550.612	4.22
550.956	4.15
551.3	4.02
551.643	4.16
551.987	4.06
552.33	4.05
552.674	4.09
553.017	4.12
553.361	3.9
553.704	4.19
554.048	4.12
554.391	4.1
554.734	4.02
555.077	4.3
555.42	3.97
555.764	4.12
556.107	4
556.45	3.97
556.793	4.17
557.135	4.23
557.478	4.43
557.821	4.39
558.164	4.31
558.507	4.26
558.849	4.31
559.192	4.4
559.534	4.36
559.877	4.42
560.219	4.46
560.562	4.5
560.904	4.37
561.246	4.5
561.589	4.42
561.931	4.41
562.273	4.25
562.615	4.46
562.957	4.64
563.299	4.25
563.641	4.54
563.983	4.53
564.325	4.57
564.667	4.53
565.008	4.69
565.35	4.61
565.692	4.3
566.033	4.67
566.375	4.82
566.716	4.78
567.058	4.51
567.399	4.61
567.741	4.42
568.082	4.59
568.423	4.76
568.764	4.48
569.105	4.83
569.447	4.87
569.788	4.69
570.129	4.95
570.47	4.64
570.811	4.74
571.151	5.05
571.492	4.79
571.833	4.87
572.174	4.9
572.514	4.9
572.855	4.9
573.195	4.85
573.536	4.85
573.876	4.79
574.217	4.85
574.557	4.94
574.898	4.92
575.238	5.14
575.578	4.86
575.918	5.11
576.258	5.23
576.598	5.13
576.938	5.1
577.278	5.09
577.618	5.02
577.958	5.03
578.298	5.19
578.638	5.04
578.977	5.28
579.317	5.11
579.657	5.44
579.996	5.08
580.336	5.48
580.675	5.19
581.014	5.19
581.354	5.34
581.693	5.51
582.032	5.05
582.372	5.3
582.711	5.27
583.05	5.47
583.389	5.43
583.728	5.06
584.067	5.65
584.406	5.51
584.745	5.69
585.083	5.6
585.422	5.67
585.761	5.79
586.1	5.79
586.438	5.57
586.777	5.71
587.115	5.69
587.454	5.83
587.792	5.67
588.13	5.78
588.469	5.74
588.807	6
589.145	5.6
589.483	5.65
589.821	5.75
590.159	6.04
590.497	6.02
590.835	6.43
591.173	5.74
591.511	6.2
591.849	5.97
592.187	6.07
592.524	6.04
592.862	6.12
593.2	6.05
593.537	6.08
593.875	6.12
594.212	6.04
594.55	6.22
594.887	6.31
595.224	6.19
595.561	6.31
595.899	6.12
596.236	6.23
596.573	6.31
596.91	5.81
597.247	6.07
597.584	6.6
597.921	6.42
598.258	6.23
598.594	6.33
598.931	6.27
599.268	6.32
599.604	6.3
599.941	6.55
600.277	6.54
600.614	6.4
600.95	6.32
601.287	6.67
601.623	6.36
601.959	6.42
602.296	6.87
602.632	6.58
602.968	6.76
603.304	6.85
603.64	6.75
603.976	6.95
604.312	6.77
604.648	6.8
604.984	6.62
605.319	6.55
605.655	6.69
605.991	6.9
606.326	6.94
606.662	6.71
606.998	6.73
607.333	6.77
607.668	6.89
608.004	7.23
608.339	7.25
608.674	7.06
609.01	6.94
609.345	6.9
609.68	7.28
610.015	7.1
610.35	6.99
610.685	7.04
611.02	7.11
611.355	7.36
611.689	7.2
612.024	7.33
612.359	7.06
612.694	7.5
613.028	7.06
613.363	7.46
613.697	7.59
614.032	7.46
614.366	7.17
614.7	7.65
615.035	7.54
615.369	7.52
615.703	7.76
616.037	7.88
616.371	7.25
616.705	7.69
617.039	7.81
617.373	7.5
617.707	7.68
618.041	7.55
618.375	7.57
618.709	8.1
619.042	7.58
619.376	8.07
619.71	8.1
620.043	7.85
620.377	7.95
620.71	8.34
621.043	7.88
621.377	8.08
621.71	7.92
622.043	7.92
622.376	7.76
622.709	8.31
623.043	8.34
623.376	8.47
623.709	8.26
624.041	8.49
624.374	8.28
624.707	8.01
625.04	8.37
625.373	8.21
625.705	8.54
626.038	8.3
626.37	8.29
626.703	8.31
627.035	8.37
627.368	8.4
627.7	8.42
628.032	8.34
628.365	8.47
628.697	8.71
629.029	8.46
629.361	8.62
629.693	8.56
630.025	8.65
630.357	8.82
630.689	8.68
631.021	8.81
631.353	9.06
631.684	9.05
632.016	8.52
632.348	9.15
632.679	8.73
633.011	8.82
633.342	9.71
633.674	9.09
634.005	9.04
634.336	8.81
634.668	9.54
634.999	8.75
635.33	9.34
635.661	9.41
635.992	9.27
636.323	9.74
636.654	9.43
636.985	9.21
637.316	9.07
637.647	9.29
637.977	9.42
638.308	9.54
638.639	9.22
638.969	9.23
639.3	9.62
639.63	9.21
639.961	9.52
640.291	9.56
640.622	9.86
640.952	9.43
641.282	9.88
641.612	10.12
641.943	9.47
642.273	10.03
642.603	10.23
642.933	9.88
643.263	9.95
643.592	9.8
643.922	9.79
644.252	9.93
644.582	10.09
644.911	10
645.241	9.73
645.571	10.06
645.9	9.96
646.23	9.98
646.559	10.4
646.888	10.26
647.218	9.95
647.547	10.18
647.876	9.93
648.205	10.47
648.534	10.44
648.863	9.87
649.192	10.57
649.521	10.37
649.85	9.99
650.179	10.59
650.508	10.6
650.837	10.63
651.165	10.28
651.494	10.42
651.822	10.92
652.151	11.12
652.479	10.89
652.808	10.18
653.136	10.69
653.465	10.62
653.793	10.54
654.121	10.58
654.449	10.71
654.777	11.24
655.105	11.11
655.433	10.75
655.761	11.13
656.089	11.75
656.417	11.47
656.745	10.86
657.073	10.87
657.4	11.08
657.728	11.54
658.056	10.96
658.383	11.23
658.711	11.09
659.038	11.33
659.365	11.55
659.693	11.85
660.02	11.63
660.347	11.55
660.674	11.26
661.001	11.34
661.329	10.86
661.656	11.61
661.982	11.79
662.309	11.69
662.636	11.36
662.963	12.05
663.29	12.03
663.616	12.45
663.943	11.76
664.27	11.66
664.596	11.8
664.923	11.94
665.249	12.32
665.576	12.13
665.902	12.72
666.228	12.43
666.554	12.48
666.881	11.87
667.207	12.45
667.533	12.41
667.859	12.55
668.185	12.29
668.511	12.01
668.837	12.25
669.162	12.67
669.488	11.66
669.814	12.64
670.139	12.34
670.465	12.61
670.791	13.32
671.116	13.23
671.442	12.82
671.767	13.15
672.092	13
672.418	12.58
672.743	13.32
673.068	12.61
673.393	12.6
673.718	12.78
674.043	12.64
674.368	12.98
674.693	13.85
675.018	13.16
675.343	12.95
675.667	12.86
675.992	13.8
676.317	13.04
676.641	13.59
676.966	13.42
677.29	13.44
677.615	13.8
677.939	13.33
678.264	13.87
678.588	13.93
678.912	13.51
679.236	14.45
679.56	12.94
679.885	14.03
680.209	13.49
680.532	13.41
680.856	13.8
681.18	13.14
681.504	13.58
681.828	13.25
682.152	13.59
682.475	13.76
682.799	14.25
683.122	13.88
683.446	13.89
683.769	14.82
684.093	13.4
684.416	14.25
684.739	13.86
685.062	13.79
685.386	14.57
685.709	13.93
686.032	14.13
686.355	14.61
686.678	14.16
687.001	14.28
687.324	15.09
687.646	13.53
687.969	13.71
688.292	13.72
688.614	14.38
688.937	15.13
689.26	13.42
