Data from 0389_crown_Reflection__3__69.txt Node

Date: Fri Dec 15 16:52:13 CST 2023
User: ToomeyLab
Spectrometer: FLMS14357
Trigger mode: 0
Integration Time (sec): 1.000000E-2
Scans to average: 100
Electric dark correction enabled: true
Nonlinearity correction enabled: false
Boxcar width: 0
XAxis mode: Wavelengths
Number of Pixels in Spectrum: 2048
>>>>>Begin Spectral Data<<<<<
189.047	-189.09
189.435	-189.09
189.823	-189.09
190.211	97.96
190.599	135.76
190.987	108.54
191.375	-362.71
191.763	-87.54
192.151	-26.07
192.538	37.76
192.926	166.09
193.314	127.81
193.702	-1730.13
194.089	276.63
194.477	-17.09
194.864	-183.19
195.252	37.22
195.639	83.48
196.027	355.27
196.414	57.01
196.801	-45.41
197.189	126.18
197.576	-3318.64
197.963	33.58
198.351	-7.19
198.738	24.99
199.125	27.22
199.512	-0.92
199.899	34.8
200.286	51.93
200.673	35.13
201.06	82.63
201.447	-4.03
201.833	38.71
202.22	36.32
202.607	29.81
202.994	61.73
203.38	33.39
203.767	27.28
204.154	46.82
204.54	61.74
204.927	-1.3
205.313	13.22
205.699	46.7
206.086	30.3
206.472	33.08
206.858	5.94
207.245	15.89
207.631	42.95
208.017	16.22
208.403	-19.59
208.789	48.24
209.175	46.44
209.561	55.63
209.947	67.25
210.333	-19.31
210.719	30.56
211.105	32.87
211.491	0.07
211.876	19.97
212.262	28.89
212.648	22.34
213.034	28.8
213.419	0.34
213.805	4.32
214.19	8.99
214.576	25.32
214.961	15.71
215.346	-29.74
215.732	16.43
216.117	1.66
216.502	-2.95
216.888	29.56
217.273	44.64
217.658	32.34
218.043	23.92
218.428	-9.31
218.813	-23.57
219.198	-3.13
219.583	11.96
219.968	7.64
220.353	-7.84
220.738	27.68
221.122	7.92
221.507	7.73
221.892	-27.08
222.276	-14.35
222.661	-0.08
223.046	13.06
223.43	17.41
223.815	18.96
224.199	6.29
224.583	9.51
224.968	7.17
225.352	14.37
225.736	-1.43
226.121	-11.85
226.505	4.99
226.889	11.64
227.273	-2.93
227.657	11.3
228.041	6.93
228.425	9.97
228.809	9.6
229.193	5.17
229.577	7.43
229.961	7.25
230.344	5.47
230.728	5.47
231.112	5.51
231.495	6.21
231.879	5.06
232.263	7.03
232.646	6.64
233.03	5.87
233.413	5.4
233.797	5.78
234.18	5.29
234.563	8.35
234.946	6.18
235.33	5.94
235.713	5.67
236.096	5.94
236.479	7.48
236.862	4.9
237.245	6.71
237.628	7.6
238.011	5.49
238.394	6.59
238.777	6.01
239.16	4.62
239.543	4.47
239.925	9.25
240.308	6.4
240.691	7.34
241.073	6.76
241.456	7.24
241.838	4.82
242.221	5.59
242.603	6.31
242.986	5.45
243.368	6.03
243.75	6.27
244.133	5.54
244.515	5.9
244.897	5.82
245.279	5.72
245.661	5.03
246.043	5.1
246.425	5.25
246.807	6.43
247.189	6
247.571	4.94
247.953	5.61
248.335	5.57
248.717	5.36
249.098	5.32
249.48	5.44
249.862	5.96
250.243	5.37
250.625	5.72
251.006	5.56
251.388	4.02
251.769	5.77
252.151	5.88
252.532	6.68
252.913	4.52
253.295	5.27
253.676	5.37
254.057	5.35
254.438	5.09
254.819	4.63
255.2	3.7
255.581	6.01
255.962	4.52
256.343	6.89
256.724	4.77
257.105	5.44
257.486	5.98
257.867	5.25
258.247	5.98
258.628	4.49
259.009	4.62
259.389	5.06
259.77	4.81
260.15	4.44
260.531	4.39
260.911	5.21
261.292	5.22
261.672	5.18
262.052	5.01
262.432	5.12
262.813	5.06
263.193	4.99
263.573	4.86
263.953	4.76
264.333	5.16
264.713	4.98
265.093	4.72
265.473	4.82
265.853	3.44
266.233	5.4
266.612	3.23
266.992	4.58
267.372	5.04
267.752	4.56
268.131	4.58
268.511	5.47
268.89	5.59
269.27	4.15
269.649	4.46
270.029	4.83
270.408	5.63
270.787	5.49
271.167	5.23
271.546	4.72
271.925	4.51
272.304	4.07
272.683	5.49
273.062	4.93
273.441	5.32
273.82	4.71
274.199	5.12
274.578	4.83
274.957	4.65
275.336	4.97
275.715	4.41
276.093	4.29
276.472	4.41
276.851	4.51
277.229	4.54
277.608	4.45
277.986	4.77
278.365	4.7
278.743	4.38
279.122	4.75
279.5	4.85
279.878	5.03
280.257	4.56
280.635	4.62
281.013	4.53
281.391	5.09
281.769	4.84
282.147	5.05
282.525	4.82
282.903	4.23
283.281	4.93
283.659	5.04
284.037	4.88
284.415	4.89
284.792	4.66
285.17	3.99
285.548	4.46
285.925	4.73
286.303	4.82
286.68	4.73
287.058	4.52
287.435	4.5
287.813	4.61
288.19	4.27
288.567	4.25
288.945	4.52
289.322	4.66
289.699	4.2
290.076	4.74
290.453	4.6
290.83	4.68
291.207	4.27
291.584	4.57
291.961	4.59
292.338	4.51
292.715	5.03
293.092	4.5
293.469	4.53
293.845	4.02
294.222	4.08
294.599	4.49
294.975	4.2
295.352	5.07
295.728	4.11
296.105	4.48
296.481	4.38
296.858	4.72
297.234	4.15
297.61	3.76
297.986	4.49
298.363	4.13
298.739	4.44
299.115	4.49
299.491	4.47
299.867	4.39
300.243	4.49
300.619	3.74
300.995	4.34
301.371	5.04
301.746	3.75
302.122	5.03
302.498	4.26
302.874	4.51
303.249	4.11
303.625	4.68
304	4.4
304.376	3.82
304.751	3.98
305.127	5.09
305.502	4.18
305.878	3.57
306.253	4.11
306.628	5.05
307.003	4.18
307.378	4.7
307.754	4.57
308.129	3.64
308.504	4.6
308.879	3.86
309.254	4.6
309.629	4.46
310.003	4.15
310.378	4.89
310.753	4.11
311.128	4.39
311.502	3.99
311.877	4.66
312.252	3.87
312.626	3.85
313.001	3.92
313.375	4.3
313.75	3.78
314.124	4.37
314.498	3.87
314.873	3.46
315.247	4.38
315.621	3.96
315.995	3.64
316.369	4.24
316.743	3.91
317.117	4.24
317.491	3.77
317.865	4.27
318.239	3.98
318.613	4.5
318.987	4.4
319.361	3.26
319.734	4.25
320.108	4.33
320.482	3.29
320.855	4.8
321.229	4.08
321.602	3.61
321.976	4.47
322.349	3.73
322.723	4.29
323.096	4.25
323.469	3.27
323.843	4.05
324.216	4.49
324.589	3.44
324.962	4.32
325.335	3.71
325.708	3.88
326.081	3.66
326.454	4.02
326.827	4.01
327.2	3.96
327.573	4.77
327.945	4.4
328.318	3.59
328.691	3.99
329.063	4.17
329.436	3.63
329.809	4.69
330.181	3.59
330.553	4.29
330.926	4.55
331.298	4.29
331.671	4.09
332.043	4.58
332.415	4.23
332.787	4.77
333.159	5.14
333.532	4.03
333.904	4.33
334.276	4.51
334.648	4.31
335.02	4.51
335.391	4.25
335.763	3.25
336.135	3.72
336.507	3.74
336.879	4
337.25	4.31
337.622	3.63
337.993	4.26
338.365	4.27
338.736	4.92
339.108	4.21
339.479	3.58
339.851	4.41
340.222	4.24
340.593	3.9
340.964	3.92
341.336	4.27
341.707	3.58
342.078	4.46
342.449	4.69
342.82	3.78
343.191	4.38
343.562	4.09
343.933	4.39
344.303	4.39
344.674	4.02
345.045	4.3
345.416	4.37
345.786	3.85
346.157	3.8
346.527	3.33
346.898	4.14
347.268	4.41
347.639	4.26
348.009	4.41
348.38	4.27
348.75	4.2
349.12	3.86
349.49	4.53
349.861	4.25
350.231	4.23
350.601	3.98
350.971	4.26
351.341	4.31
351.711	3.86
352.081	4.32
352.45	4.32
352.82	4.36
353.19	4.3
353.56	3.78
353.929	4.47
354.299	3.9
354.669	3.96
355.038	4.64
355.408	4.21
355.777	4.34
356.147	4.18
356.516	4.06
356.885	4.25
357.254	4.24
357.624	4.58
357.993	3.75
358.362	4.2
358.731	3.68
359.1	4.47
359.469	4.14
359.838	4.49
360.207	3.97
360.576	4.4
360.945	4.16
361.314	4.35
361.682	4.14
362.051	4.19
362.42	4.32
362.788	4.24
363.157	4.36
363.525	4.48
363.894	4.35
364.262	4.45
364.631	4.37
364.999	4.51
365.367	4.18
365.735	4.78
366.104	4.29
366.472	4.43
366.84	4.39
367.208	4.05
367.576	4.29
367.944	4.77
368.312	4.39
368.68	4.2
369.048	4.34
369.416	4.25
369.783	3.87
370.151	4.5
370.519	4.67
370.886	4.56
371.254	4.16
371.621	4.38
371.989	4.83
372.356	3.64
372.724	4.75
373.091	4.39
373.458	4.41
373.826	4.26
374.193	4.35
374.56	4.53
374.927	4.42
375.294	4.31
375.661	4.1
376.028	4.17
376.395	4.09
376.762	4.43
377.129	4.47
377.496	4.37
377.863	4.36
378.229	4.31
378.596	4.3
378.963	4.13
379.329	3.82
379.696	4.5
380.062	4.31
380.429	4.11
380.795	4.31
381.161	4.26
381.528	4.69
381.894	4.41
382.26	4
382.626	4.32
382.993	4.32
383.359	4.86
383.725	4.21
384.091	4.43
384.457	4.38
384.823	4.39
385.188	4.1
385.554	4.32
385.92	4.63
386.286	4.49
386.651	5.01
387.017	4.78
387.383	4.28
387.748	4.16
388.114	4.65
388.479	4.42
388.845	4.73
389.21	4.69
389.575	4.6
389.94	4.48
390.306	4.57
390.671	4.67
391.036	4.34
391.401	4.21
391.766	4.44
392.131	4.32
392.496	4.59
392.861	4.55
393.226	4.78
393.591	4.55
393.956	4.33
394.32	4.59
394.685	4.19
395.05	4.31
395.414	4.53
395.779	4.31
396.143	4.54
396.508	4.35
396.872	4.5
397.236	4.84
397.601	4.38
397.965	4.62
398.329	4.68
398.694	4.85
399.058	4.59
399.422	4.4
399.786	4.82
400.15	4.76
400.514	4.74
400.878	4.52
401.242	4.73
401.605	4.66
401.969	4.62
402.333	4.73
402.697	4.62
403.06	4.7
403.424	4.67
403.787	4.64
404.151	4.52
404.514	4.85
404.878	4.59
405.241	4.72
405.604	4.56
405.968	4.68
406.331	4.66
406.694	4.8
407.057	4.71
407.42	4.82
407.783	4.55
408.146	4.71
408.509	4.49
408.872	4.47
409.235	4.61
409.598	4.89
409.961	4.75
410.323	4.91
410.686	4.65
411.049	4.35
411.411	4.77
411.774	4.67
412.136	4.89
412.499	4.47
412.861	4.62
413.223	4.75
413.586	4.94
413.948	4.71
414.31	4.7
414.672	4.7
415.035	4.61
415.397	4.98
415.759	4.4
416.121	4.85
416.483	4.76
416.845	4.91
417.206	4.68
417.568	4.8
417.93	4.52
418.292	4.61
418.653	4.72
419.015	4.78
419.377	4.54
419.738	4.47
420.1	4.52
420.461	4.75
420.822	4.74
421.184	4.73
421.545	4.64
421.906	4.6
422.267	4.63
422.629	4.59
422.99	4.65
423.351	4.52
423.712	4.69
424.073	4.67
424.434	4.67
424.795	4.55
425.155	4.72
425.516	4.62
425.877	4.64
426.238	4.61
426.598	4.72
426.959	4.77
427.32	4.57
427.68	4.61
428.041	4.53
428.401	4.75
428.761	4.65
429.122	4.73
429.482	4.71
429.842	4.94
430.202	4.89
430.563	4.88
430.923	4.68
431.283	4.74
431.643	4.79
432.003	4.84
432.363	4.94
432.722	4.82
433.082	4.7
433.442	4.71
433.802	4.69
434.161	4.77
434.521	4.87
434.881	4.84
435.24	4.62
435.6	4.6
435.959	4.77
436.319	4.85
436.678	4.87
437.037	4.69
437.396	4.95
437.756	4.79
438.115	4.64
438.474	4.78
438.833	4.65
439.192	4.86
439.551	4.84
439.91	4.75
440.269	4.89
440.628	4.69
440.987	4.79
441.345	4.65
441.704	4.81
442.063	4.69
442.421	4.79
442.78	4.68
443.138	4.72
443.497	4.68
443.855	4.72
444.214	4.81
444.572	4.94
444.93	4.84
445.288	4.78
445.647	4.94
446.005	4.74
446.363	4.81
446.721	4.76
447.079	4.75
447.437	4.82
447.795	4.74
448.153	4.65
448.51	4.72
448.868	4.76
449.226	4.74
449.584	4.65
449.941	4.78
450.299	4.83
450.656	4.95
451.014	4.99
451.371	4.86
451.729	4.89
452.086	5.02
452.443	4.87
452.801	4.81
453.158	4.88
453.515	4.81
453.872	4.95
454.229	4.8
454.586	4.72
454.943	4.73
455.3	5.01
455.657	4.93
456.014	4.78
456.371	4.76
456.727	4.89
457.084	5.24
457.441	4.72
457.797	4.9
458.154	5.01
458.51	4.89
458.867	5.01
459.223	5.04
459.58	4.91
459.936	5.01
460.292	4.97
460.648	4.88
461.005	4.83
461.361	4.85
461.717	4.86
462.073	4.75
462.429	4.86
462.785	4.74
463.141	4.93
463.496	4.85
463.852	5.15
464.208	4.89
464.564	5.22
464.919	4.88
465.275	5.01
465.631	5.15
465.986	5.02
466.342	4.98
466.697	4.79
467.052	5.03
467.408	4.89
467.763	4.97
468.118	5.03
468.473	5
468.829	5.07
469.184	4.91
469.539	5.1
469.894	4.74
470.249	5.08
470.603	5.09
470.958	5.03
471.313	5.34
471.668	5
472.023	4.92
472.377	4.91
472.732	5
473.086	5.08
473.441	4.79
473.795	5.22
474.15	5.07
474.504	4.92
474.859	4.96
475.213	4.9
475.567	5.07
475.921	4.85
476.275	5.06
476.63	5.03
476.984	5.16
477.338	5.11
477.692	4.93
478.045	4.95
478.399	4.99
478.753	5.1
479.107	4.98
479.461	5.03
479.814	5
480.168	4.97
480.521	5.1
480.875	4.95
481.228	4.85
481.582	4.84
481.935	5.02
482.289	5.02
482.642	5.07
482.995	4.85
483.348	4.84
483.701	4.93
484.055	5.09
484.408	4.96
484.761	4.79
485.114	4.78
485.466	4.68
485.819	4.65
486.172	4.66
486.525	4.75
486.878	4.74
487.23	4.74
487.583	4.81
487.936	4.91
488.288	4.81
488.641	4.87
488.993	4.78
489.345	4.71
489.698	4.77
490.05	4.76
490.402	4.83
490.754	4.84
491.107	4.94
491.459	4.94
491.811	4.95
492.163	4.98
492.515	4.93
492.866	4.99
493.218	4.91
493.57	4.79
493.922	4.82
494.274	4.9
494.625	4.88
494.977	4.9
495.328	5.11
495.68	5.1
496.031	5.21
496.383	5.07
496.734	5.23
497.086	5.21
497.437	4.98
497.788	5.02
498.139	5
498.49	5.14
498.842	5.05
499.193	5.1
499.544	5.09
499.894	4.99
500.245	5.08
500.596	4.94
500.947	5.1
501.298	4.96
501.648	5.13
501.999	5.23
502.35	5.1
502.7	5.16
503.051	5
503.401	5.04
503.752	5.2
504.102	5.17
504.452	5.24
504.803	5.17
505.153	5
505.503	5.2
505.853	5.16
506.203	5.06
506.553	5.04
506.903	5.19
507.253	5.06
507.603	5.1
507.953	5.17
508.303	5.32
508.652	5
509.002	5.22
509.352	5.22
509.701	5.11
510.051	4.98
510.4	5.08
510.75	5.1
511.099	5.08
511.449	5.07
511.798	5.05
512.147	5.1
512.496	5.11
512.846	5.13
513.195	5.17
513.544	5.15
513.893	5.13
514.242	5.05
514.591	5.32
514.939	5.17
515.288	5.02
515.637	5.18
515.986	5.24
516.334	5.23
516.683	5.15
517.032	5.06
517.38	5.27
517.729	5.25
518.077	5.04
518.426	5.22
518.774	5.29
519.122	5.14
519.47	5.16
519.819	5.07
520.167	5.12
520.515	5.05
520.863	5.16
521.211	5.11
521.559	5.11
521.907	5.07
522.255	5.14
522.602	5.06
522.95	5.18
523.298	5.12
523.645	5.3
523.993	5.15
524.341	5.26
524.688	5.33
525.036	5.15
525.383	5.21
525.73	5.25
526.078	5.2
526.425	5.19
526.772	5.29
527.119	5.12
527.466	5.16
527.814	5.09
528.161	5.19
528.508	5.14
528.854	5.11
529.201	5.05
529.548	5
529.895	5.01
530.242	4.92
530.588	4.95
530.935	4.99
531.282	5
531.628	4.99
531.975	5.05
532.321	5.07
532.667	5.04
533.014	5.25
533.36	5.16
533.706	5.11
534.052	5.16
534.399	5.09
534.745	5.12
535.091	5.05
535.437	5.09
535.783	5.08
536.129	5.09
536.474	5.1
536.82	5.13
537.166	5.22
537.512	5.24
537.857	5.25
538.203	5.26
538.549	5.11
538.894	5.13
539.239	5.22
539.585	5.16
539.93	5.17
540.276	5.34
540.621	5.29
540.966	5.26
541.311	5.11
541.656	5.15
542.001	5.24
542.346	5.32
542.691	5.12
543.036	5.08
543.381	5.09
543.726	5.11
544.071	5.16
544.415	5.13
544.76	5.14
545.105	5.26
545.449	5.19
545.794	5.32
546.138	5.25
546.483	5.3
546.827	5.41
547.171	5.34
547.516	5.48
547.86	5.26
548.204	5.26
548.548	5.26
548.892	5.29
549.236	5.24
549.58	5.29
549.924	5.3
550.268	5.37
550.612	5.37
550.956	5.63
551.3	5.48
551.643	5.56
551.987	5.37
552.33	5.4
552.674	5.37
553.017	5.48
553.361	5.28
553.704	5.46
554.048	5.23
554.391	5.39
554.734	5.44
555.077	5.44
555.42	5.22
555.764	5.44
556.107	5.21
556.45	5.19
556.793	5.45
557.135	5.53
557.478	5.62
557.821	5.52
558.164	5.2
558.507	5.54
558.849	5.47
559.192	5.56
559.534	5.55
559.877	5.5
560.219	5.37
560.562	5.69
560.904	5.58
561.246	5.42
561.589	5.5
561.931	5.54
562.273	5.39
562.615	5.49
562.957	5.54
563.299	5.05
563.641	5.43
563.983	5.44
564.325	5.27
564.667	5.38
565.008	5.23
565.35	5.49
565.692	5.17
566.033	5.41
566.375	5.59
566.716	5.76
567.058	5.35
567.399	5.46
567.741	5.42
568.082	5.47
568.423	5.51
568.764	5.3
569.105	5.41
569.447	5.39
569.788	5.33
570.129	5.62
570.47	5.44
570.811	5.38
571.151	5.4
571.492	5.44
571.833	5.31
572.174	5.21
572.514	5.48
572.855	5.42
573.195	5.58
573.536	5.42
573.876	5.24
574.217	5.27
574.557	5.52
574.898	5.55
575.238	5.52
575.578	5.39
575.918	5.56
576.258	5.47
576.598	5.6
576.938	5.56
577.278	5.41
577.618	5.38
577.958	5.41
578.298	5.46
578.638	5.33
578.977	5.31
579.317	5.42
579.657	5.36
579.996	5.31
580.336	5.68
580.675	5.26
581.014	5.37
581.354	5.6
581.693	5.55
582.032	5.52
582.372	5.52
582.711	5.47
583.05	5.44
583.389	5.33
583.728	5.37
584.067	5.51
584.406	5.56
584.745	5.56
585.083	5.69
585.422	5.43
585.761	5.6
586.1	5.44
586.438	5.29
586.777	5.59
587.115	5.72
587.454	5.43
587.792	5.31
588.13	5.71
588.469	5.57
588.807	5.8
589.145	5.34
589.483	5.72
589.821	5.19
590.159	5.55
590.497	5.82
590.835	5.57
591.173	5.34
591.511	5.94
591.849	5.75
592.187	5.54
592.524	5.58
592.862	5.47
593.2	5.5
593.537	5.44
593.875	5.53
594.212	5.55
594.55	5.55
594.887	5.63
595.224	5.33
595.561	5.63
595.899	5.5
596.236	5.51
596.573	5.73
596.91	5.32
597.247	5.51
597.584	5.66
597.921	5.52
598.258	5.15
598.594	5.45
598.931	5.32
599.268	5.53
599.604	5.41
599.941	5.67
600.277	5.41
600.614	5.5
600.95	5.33
601.287	5.41
601.623	5.63
601.959	5.38
602.296	5.44
602.632	5.5
602.968	5.62
603.304	5.35
603.64	5.43
603.976	5.63
604.312	5.27
604.648	5.48
604.984	5.45
605.319	5.56
605.655	5.44
605.991	5.63
606.326	5.45
606.662	5.49
606.998	5.39
607.333	5.55
607.668	5.54
608.004	5.63
608.339	5.61
608.674	5.66
609.01	5.24
609.345	5.51
609.68	5.58
610.015	5.46
610.35	5.22
610.685	5.43
611.02	5.44
611.355	5.76
611.689	5.43
612.024	5.51
612.359	5.49
612.694	5.6
613.028	5.23
613.363	5.72
613.697	5.61
614.032	5.56
614.366	5.51
614.7	5.49
615.035	5.47
615.369	5.48
615.703	5.95
616.037	5.72
616.371	5.4
616.705	5.6
617.039	5.63
617.373	5.3
617.707	5.42
618.041	5.41
618.375	5.95
618.709	5.78
619.042	5.35
619.376	5.51
619.71	5.64
620.043	5.81
620.377	5.52
620.71	5.69
621.043	5.29
621.377	5.3
621.71	5.65
622.043	5.5
622.376	5.35
622.709	5.45
623.043	5.73
623.376	5.67
623.709	5.49
624.041	5.83
624.374	5.64
624.707	5.43
625.04	5.61
625.373	5.08
625.705	5.88
626.038	5.66
626.37	5.64
626.703	5.28
627.035	5.42
627.368	6.02
627.7	5.44
628.032	5.54
628.365	5.74
628.697	5.59
629.029	5.53
629.361	5.58
629.693	5.5
630.025	5.48
630.357	5.87
630.689	5.49
631.021	5.47
631.353	5.57
631.684	5.69
632.016	5.2
632.348	5.9
632.679	5.69
633.011	6.13
633.342	5.97
633.674	5.68
634.005	6.11
634.336	5.74
634.668	5.93
634.999	5.8
635.33	5.5
635.661	5.82
635.992	5.95
636.323	5.92
636.654	6.04
636.985	5.6
637.316	5.74
637.647	5.09
637.977	5.7
638.308	5.9
638.639	5.52
638.969	5.52
639.3	5.66
639.63	5.02
639.961	5.81
640.291	5.44
640.622	5.91
640.952	5.52
641.282	6.13
641.612	5.75
641.943	5.82
642.273	5.34
642.603	5.84
642.933	5.92
643.263	5.65
643.592	5.35
643.922	5.91
644.252	5.24
644.582	5.81
644.911	5.31
645.241	5.71
645.571	5.95
645.9	5.27
646.23	5.34
646.559	6.11
646.888	5.22
647.218	5.14
647.547	6.05
647.876	5.53
648.205	5.53
648.534	5.39
648.863	5.57
649.192	5.64
649.521	5.44
649.85	5.44
650.179	5.54
650.508	5.43
650.837	5.21
651.165	5.43
651.494	5.77
651.822	5.72
652.151	5.72
652.479	6.03
652.808	5.37
653.136	5.68
653.465	4.98
653.793	5.51
654.121	5.39
654.449	5.95
654.777	5.57
655.105	5.89
655.433	5.64
655.761	5.99
656.089	5.96
656.417	5.58
656.745	5.5
657.073	5.4
657.4	6.06
657.728	5.55
658.056	5.48
658.383	5.99
658.711	5.92
659.038	5.81
659.365	6.23
659.693	5.72
660.02	5.8
660.347	6.19
660.674	5.83
661.001	5.7
661.329	5.16
661.656	5.73
661.982	5.48
662.309	5.71
662.636	5.5
662.963	5.86
663.29	5.85
663.616	6
663.943	5.26
664.27	6.21
664.596	5.66
664.923	5.83
665.249	6.1
665.576	6.1
665.902	6.45
666.228	5.95
666.554	6.14
666.881	5.61
667.207	5.62
667.533	5.07
667.859	6.11
668.185	6.13
668.511	5.59
668.837	4.42
669.162	5.77
669.488	5.55
669.814	5.96
670.139	6.47
670.465	6.44
670.791	5.59
671.116	6.42
671.442	5.39
671.767	5.87
672.092	5.98
672.418	6.29
672.743	6.15
673.068	5.64
673.393	6.08
673.718	5.26
674.043	5.73
674.368	5.46
674.693	5.58
675.018	5.36
675.343	5.99
675.667	5.44
675.992	6.06
676.317	6.11
676.641	5.74
676.966	5.49
677.29	5.5
677.615	6.12
677.939	6.31
678.264	6.02
678.588	6.07
678.912	5.84
679.236	6.82
679.56	5.73
679.885	6.26
680.209	6.13
680.532	5.98
680.856	6.51
681.18	5.67
681.504	5.77
681.828	5.76
682.152	5.42
682.475	5.57
682.799	5.86
683.122	5.93
683.446	5.35
683.769	5.82
684.093	5.91
684.416	6.15
684.739	6.03
685.062	5.42
685.386	6.31
685.709	5.58
686.032	6.17
686.355	6.18
686.678	6.02
687.001	6.55
687.324	6.89
687.646	5.47
687.969	6.06
688.292	5.92
688.614	5.52
688.937	7.34
689.26	5.87
689.582	5.92
689.904	5.77
690.227	5.75
690.549	6.34
690.871	6.15
691.194	5.58
691.516	5.8
691.838	6.46
692.16	5.34
692.482	5.59
