Data from 0389_chest_Reflection__1__62.txt Node

Date: Fri Dec 15 16:50:11 CST 2023
User: ToomeyLab
Spectrometer: FLMS14357
Trigger mode: 0
Integration Time (sec): 1.000000E-2
Scans to average: 100
Electric dark correction enabled: true
Nonlinearity correction enabled: false
Boxcar width: 0
XAxis mode: Wavelengths
Number of Pixels in Spectrum: 2048
>>>>>Begin Spectral Data<<<<<
189.047	70.08
189.435	70.08
189.823	70.08
190.211	44.55
190.599	84.58
190.987	53.04
191.375	3189.83
191.763	142.49
192.151	60.74
192.538	149.25
192.926	-90.12
193.314	63.15
193.702	-1373.8
194.089	72.82
194.477	66.47
194.864	478.11
195.252	83.56
195.639	88.89
196.027	676.09
196.414	43.83
196.801	136.58
197.189	120
197.576	-6545.76
197.963	-135.46
198.351	-16.24
198.738	-98.96
199.125	9.5
199.512	-5.53
199.899	8.14
200.286	21.93
200.673	45.49
201.06	61.61
201.447	4.77
201.833	-17.94
202.22	38.68
202.607	23.9
202.994	40.44
203.38	17.07
203.767	30.94
204.154	29.16
204.54	23.22
204.927	7.45
205.313	-1.32
205.699	21.34
206.086	50.67
206.472	6.8
206.858	24.04
207.245	-18.59
207.631	55.31
208.017	14.56
208.403	-6.08
208.789	40.87
209.175	29.94
209.561	-13.85
209.947	12.62
210.333	-16.47
210.719	20.98
211.105	37.11
211.491	5.87
211.876	3.6
212.262	14.82
212.648	17.52
213.034	32.41
213.419	-25.06
213.805	44.78
214.19	29.12
214.576	15.36
214.961	9.75
215.346	-32.68
215.732	11.95
216.117	28.97
216.502	-2.75
216.888	-22.52
217.273	48.69
217.658	3.41
218.043	17.34
218.428	-23.44
218.813	-6.95
219.198	-10.79
219.583	9.17
219.968	4.15
220.353	8.98
220.738	32.22
221.122	11.57
221.507	-9.87
221.892	-25.34
222.276	-4.35
222.661	0.04
223.046	13.47
223.43	5.46
223.815	20.37
224.199	0.35
224.583	14.48
224.968	12.36
225.352	13.6
225.736	7.53
226.121	-1.6
226.505	5.51
226.889	12.5
227.273	0.75
227.657	9.4
228.041	2.39
228.425	1.98
228.809	7.87
229.193	4.86
229.577	1.57
229.961	5.28
230.344	4.92
230.728	4.22
231.112	4.23
231.495	4.01
231.879	3.64
232.263	4.32
232.646	5.82
233.03	3.77
233.413	3.07
233.797	6.07
234.18	5.07
234.563	6.39
234.946	7
235.33	7.61
235.713	4.74
236.096	4.14
236.479	5.2
236.862	3.92
237.245	5.46
237.628	2.35
238.011	6.44
238.394	5.66
238.777	4.04
239.16	2.48
239.543	5.52
239.925	6.77
240.308	4.14
240.691	6.91
241.073	5.9
241.456	3.86
241.838	4.35
242.221	3.56
242.603	4.41
242.986	5.12
243.368	5.14
243.75	5
244.133	4.1
244.515	4.39
244.897	4.85
245.279	4.56
245.661	4.45
246.043	3.71
246.425	3.99
246.807	5.6
247.189	5.51
247.571	4.49
247.953	4.13
248.335	4.37
248.717	4.22
249.098	4.04
249.48	4.12
249.862	4.6
250.243	4.39
250.625	4.21
251.006	4.35
251.388	3.77
251.769	4.35
252.151	5.25
252.532	5.39
252.913	4.22
253.295	3.8
253.676	4.04
254.057	4.4
254.438	4.22
254.819	3.54
255.2	2.69
255.581	3.76
255.962	3.53
256.343	4.12
256.724	4.26
257.105	3.3
257.486	4.53
257.867	4.35
258.247	4.48
258.628	4.11
259.009	4.39
259.389	4.1
259.77	3.7
260.15	3.14
260.531	3.22
260.911	4.17
261.292	4.13
261.672	3.86
262.052	3.78
262.432	4.03
262.813	3.95
263.193	3.78
263.573	4.11
263.953	3.86
264.333	4.26
264.713	4.03
265.093	3.5
265.473	4.56
265.853	3.03
266.233	4.34
266.612	3.52
266.992	3.5
267.372	4.1
267.752	3.66
268.131	3.99
268.511	4.74
268.89	4.08
269.27	3.95
269.649	3.6
270.029	3.4
270.408	4.69
270.787	3.74
271.167	4.22
271.546	4.17
271.925	3.61
272.304	3.75
272.683	4.39
273.062	3.68
273.441	3.75
273.82	2.98
274.199	4.07
274.578	4.15
274.957	3.76
275.336	3.77
275.715	3.47
276.093	3.51
276.472	3.89
276.851	3.75
277.229	3.79
277.608	3.54
277.986	3.67
278.365	3.82
278.743	3.36
279.122	4.14
279.5	3.98
279.878	4.01
280.257	3.61
280.635	3.22
281.013	3.17
281.391	4.31
281.769	4.05
282.147	3.96
282.525	3.85
282.903	3.57
283.281	4.24
283.659	4.29
284.037	4.1
284.415	3.52
284.792	4.26
285.17	3.56
285.548	3.5
285.925	3.73
286.303	4.06
286.68	3.51
287.058	3.66
287.435	3.66
287.813	3.74
288.19	3.65
288.567	3.84
288.945	3.95
289.322	3.75
289.699	3.52
290.076	3.67
290.453	3.33
290.83	3.27
291.207	3.75
291.584	3.57
291.961	3.57
292.338	3.7
292.715	3.93
293.092	3.6
293.469	3.6
293.845	3.99
294.222	3.39
294.599	3.78
294.975	3.67
295.352	3.87
295.728	3.49
296.105	3.76
296.481	4.15
296.858	3.84
297.234	3.29
297.61	3.8
297.986	4
298.363	3.89
298.739	3.76
299.115	3.69
299.491	2.95
299.867	3.72
300.243	3.96
300.619	3.32
300.995	3.35
301.371	3.5
301.746	3.57
302.122	4.22
302.498	3.59
302.874	3.57
303.249	3.86
303.625	4.16
304	3.8
304.376	3.64
304.751	2.99
305.127	4.52
305.502	3.05
305.878	3.35
306.253	3.41
306.628	3.94
307.003	3.82
307.378	4.09
307.754	3.63
308.129	3.35
308.504	3.63
308.879	3.65
309.254	4.26
309.629	4.08
310.003	3.74
310.378	3.9
310.753	4.2
311.128	3.99
311.502	3.83
311.877	3.91
312.252	3.43
312.626	3.72
313.001	3.64
313.375	4.19
313.75	3.78
314.124	3.69
314.498	3.61
314.873	3.68
315.247	3.49
315.621	3.39
315.995	2.87
316.369	3.5
316.743	3.36
317.117	3.84
317.491	3.17
317.865	4.2
318.239	3.62
318.613	4.05
318.987	3.87
319.361	2.98
319.734	4.06
320.108	4.47
320.482	3.67
320.855	4.48
321.229	3.5
321.602	3.94
321.976	3.91
322.349	3.77
322.723	3.71
323.096	4.54
323.469	3.14
323.843	4.11
324.216	4.29
324.589	3.23
324.962	4.11
325.335	3.8
325.708	3.88
326.081	3.48
326.454	3.56
326.827	3.83
327.2	3.68
327.573	4.57
327.945	4.18
328.318	3.52
328.691	3.34
329.063	3.85
329.436	4.05
329.809	4.49
330.181	3.75
330.553	3.61
330.926	4.38
331.298	4.26
331.671	3.55
332.043	3.96
332.415	4.13
332.787	3.31
333.159	4.43
333.532	4.04
333.904	4
334.276	3.91
334.648	4.13
335.02	3.64
335.391	3.53
335.763	3.43
336.135	4.28
336.507	3.98
336.879	3.57
337.25	4
337.622	3.58
337.993	3.08
338.365	4.01
338.736	3.91
339.108	3.64
339.479	3.44
339.851	4.23
340.222	3.62
340.593	4.04
340.964	3.58
341.336	4.05
341.707	3.61
342.078	4.31
342.449	3.92
342.82	4.09
343.191	3.86
343.562	3.84
343.933	4.34
344.303	3.72
344.674	3.52
345.045	3.79
345.416	4.09
345.786	3.48
346.157	3.76
346.527	3.32
346.898	3.08
347.268	4.09
347.639	3.96
348.009	3.86
348.38	3.74
348.75	3.66
349.12	3.48
349.49	4.37
349.861	3.68
350.231	3.39
350.601	4.23
350.971	3.87
351.341	3.85
351.711	3.77
352.081	3.65
352.45	3.59
352.82	3.99
353.19	4.16
353.56	3.99
353.929	4.06
354.299	3.92
354.669	3.3
355.038	4.46
355.408	4.04
355.777	3.63
356.147	3.56
356.516	3.75
356.885	4.04
357.254	3.56
357.624	4.25
357.993	3.75
358.362	3.62
358.731	3.45
359.1	3.88
359.469	3.83
359.838	4.01
360.207	3.37
360.576	3.53
360.945	3.79
361.314	4.11
361.682	3.65
362.051	3.65
362.42	4.07
362.788	3.63
363.157	3.85
363.525	3.88
363.894	3.86
364.262	3.88
364.631	3.9
364.999	3.77
365.367	3.54
365.735	4.55
366.104	3.94
366.472	3.81
366.84	3.83
367.208	3.82
367.576	3.99
367.944	3.96
368.312	3.91
368.68	3.75
369.048	3.9
369.416	4.01
369.783	3.65
370.151	3.82
370.519	3.99
370.886	4.22
371.254	3.99
371.621	3.97
371.989	4.03
372.356	3.27
372.724	4.24
373.091	4.02
373.458	4.04
373.826	3.83
374.193	3.77
374.56	3.86
374.927	4.05
375.294	3.7
375.661	3.77
376.028	3.62
376.395	3.45
376.762	3.89
377.129	4.2
377.496	3.76
377.863	3.85
378.229	3.3
378.596	3.92
378.963	3.94
379.329	3.85
379.696	4.07
380.062	3.95
380.429	3.86
380.795	3.88
381.161	3.98
381.528	4.2
381.894	3.73
382.26	3.73
382.626	3.95
382.993	3.84
383.359	4.37
383.725	3.8
384.091	3.97
384.457	4.09
384.823	3.94
385.188	3.94
385.554	4.3
385.92	4.05
386.286	4.16
386.651	4.06
387.017	4.38
387.383	3.88
387.748	3.75
388.114	3.88
388.479	3.84
388.845	4.28
389.21	3.89
389.575	4.02
389.94	4.13
390.306	4.1
390.671	3.9
391.036	3.54
391.401	4.01
391.766	4.13
392.131	4.03
392.496	3.86
392.861	3.92
393.226	4.44
393.591	3.9
393.956	3.99
394.32	4.04
394.685	3.69
395.05	4.04
395.414	4.2
395.779	3.84
396.143	3.87
396.508	4.09
396.872	3.99
397.236	4.07
397.601	3.87
397.965	4.01
398.329	4.07
398.694	4.16
399.058	3.92
399.422	3.89
399.786	4.23
400.15	4.05
400.514	3.93
400.878	4.07
401.242	4.2
401.605	4.17
401.969	3.93
402.333	4.17
402.697	3.9
403.06	4.22
403.424	4.01
403.787	4.15
404.151	4.23
404.514	3.93
404.878	3.95
405.241	4.21
405.604	4.05
405.968	4.16
406.331	3.99
406.694	4.26
407.057	4.05
407.42	4.09
407.783	3.86
408.146	4.27
408.509	3.99
408.872	3.81
409.235	4.18
409.598	4.36
409.961	4.1
410.323	4.19
410.686	4.12
411.049	4.03
411.411	4.09
411.774	4.27
412.136	4.28
412.499	4.16
412.861	4.01
413.223	4.16
413.586	4.09
413.948	4.36
414.31	4.07
414.672	4.02
415.035	3.83
415.397	4.34
415.759	3.68
416.121	4.12
416.483	3.9
416.845	4.15
417.206	4.08
417.568	4.01
417.93	4
418.292	4.19
418.653	4.02
419.015	4.14
419.377	3.98
419.738	4.1
420.1	4
420.461	4.08
420.822	4.21
421.184	4.07
421.545	3.97
421.906	3.98
422.267	4.07
422.629	4
422.99	4.08
423.351	3.99
423.712	3.99
424.073	3.92
424.434	4.04
424.795	3.98
425.155	4.08
425.516	3.95
425.877	4.02
426.238	4.04
426.598	4.14
426.959	3.97
427.32	4.02
427.68	4.01
428.041	3.96
428.401	4.05
428.761	3.98
429.122	4.23
429.482	3.96
429.842	4.15
430.202	4.15
430.563	4.22
430.923	4.11
431.283	4.17
431.643	4.14
432.003	4.13
432.363	4.04
432.722	4.04
433.082	4.06
433.442	3.96
433.802	4.06
434.161	4.18
434.521	4.27
434.881	4.15
435.24	4.05
435.6	4.16
435.959	4.08
436.319	3.96
436.678	4.18
437.037	4.19
437.396	4.28
437.756	4.45
438.115	4.2
438.474	4.37
438.833	4.11
439.192	4.13
439.551	4.03
439.91	4.16
440.269	4.17
440.628	3.98
440.987	4.17
441.345	4.03
441.704	4.22
442.063	4.15
442.421	4.14
442.78	4.21
443.138	4.07
443.497	4.11
443.855	4.02
444.214	4.13
444.572	4.27
444.93	4.27
445.288	4.33
445.647	4.32
446.005	4.21
446.363	4.19
446.721	4.17
447.079	4.08
447.437	4.19
447.795	4.25
448.153	4.11
448.51	4.22
448.868	4.06
449.226	4.11
449.584	4.15
449.941	4.23
450.299	4.2
450.656	4.13
451.014	4.23
451.371	4.19
451.729	4.22
452.086	4.41
452.443	4.16
452.801	4.28
453.158	4.14
453.515	4.09
453.872	4.36
454.229	4.2
454.586	4.17
454.943	4.08
455.3	4.32
455.657	4.32
456.014	4.15
456.371	4.22
456.727	4.31
457.084	4.53
457.441	4.24
457.797	4.23
458.154	4.39
458.51	4.43
458.867	4.38
459.223	4.48
459.58	4.48
459.936	4.34
460.292	4.32
460.648	4.1
461.005	4.26
461.361	4.32
461.717	4.23
462.073	4.18
462.429	4.19
462.785	4.21
463.141	4.21
463.496	4.27
463.852	4.36
464.208	4.27
464.564	4.51
464.919	4.36
465.275	4.56
465.631	4.51
465.986	4.35
466.342	4.32
466.697	4.16
467.052	4.41
467.408	4.48
467.763	4.43
468.118	4.22
468.473	4.33
468.829	4.29
469.184	4.26
469.539	4.36
469.894	4.15
470.249	4.39
470.603	4.45
470.958	4.42
471.313	4.42
471.668	4.49
472.023	4.45
472.377	4.5
472.732	4.47
473.086	4.38
473.441	4.28
473.795	4.43
474.15	4.5
474.504	4.37
474.859	4.38
475.213	4.36
475.567	4.39
475.921	4.43
476.275	4.4
476.63	4.37
476.984	4.57
477.338	4.53
477.692	4.48
478.045	4.37
478.399	4.4
478.753	4.42
479.107	4.38
479.461	4.36
479.814	4.42
480.168	4.44
480.521	4.4
480.875	4.45
481.228	4.51
481.582	4.39
481.935	4.38
482.289	4.33
482.642	4.23
482.995	4.27
483.348	4.32
483.701	4.5
484.055	4.46
484.408	4.45
484.761	4.24
485.114	4.29
485.466	4.16
485.819	4.13
486.172	4.12
486.525	4.17
486.878	4.17
487.23	4.17
487.583	4.3
487.936	4.26
488.288	4.31
488.641	4.38
488.993	4.29
489.345	4.25
489.698	4.25
490.05	4.23
490.402	4.27
490.754	4.27
491.107	4.37
491.459	4.39
491.811	4.42
492.163	4.44
492.515	4.41
492.866	4.51
493.218	4.36
493.57	4.34
493.922	4.36
494.274	4.41
494.625	4.4
494.977	4.5
495.328	4.46
495.68	4.47
496.031	4.56
496.383	4.49
496.734	4.58
497.086	4.59
497.437	4.5
497.788	4.53
498.139	4.51
498.49	4.53
498.842	4.43
499.193	4.46
499.544	4.54
499.894	4.59
500.245	4.53
500.596	4.54
500.947	4.72
501.298	4.51
501.648	4.7
501.999	4.82
502.35	4.67
502.7	4.53
503.051	4.46
503.401	4.48
503.752	4.72
504.102	4.66
504.452	4.67
504.803	4.58
505.153	4.61
505.503	4.6
505.853	4.69
506.203	4.69
506.553	4.6
506.903	4.67
507.253	4.64
507.603	4.68
507.953	4.76
508.303	4.75
508.652	4.65
509.002	4.58
509.352	4.82
509.701	4.78
510.051	4.61
510.4	4.71
510.75	4.7
511.099	4.68
511.449	4.58
511.798	4.73
512.147	4.71
512.496	4.68
512.846	4.65
513.195	4.7
513.544	4.75
513.893	4.79
514.242	4.72
514.591	4.86
514.939	4.7
515.288	4.73
515.637	4.72
515.986	4.81
516.334	4.92
516.683	4.81
517.032	4.85
517.38	5.02
517.729	4.88
518.077	4.71
518.426	4.93
518.774	4.92
519.122	4.86
519.47	4.83
519.819	4.78
520.167	4.77
520.515	4.84
520.863	4.79
521.211	4.85
521.559	4.93
521.907	4.92
522.255	4.88
522.602	4.81
522.95	4.78
523.298	4.97
523.645	4.97
523.993	4.92
524.341	4.95
524.688	4.92
525.036	4.92
525.383	5.03
525.73	5.11
526.078	4.95
526.425	5
526.772	5.08
527.119	4.95
527.466	5.05
527.814	5.04
528.161	4.89
528.508	5.01
528.854	4.94
529.201	4.93
529.548	4.91
529.895	4.9
530.242	4.8
530.588	4.81
530.935	4.85
531.282	4.83
531.628	4.86
531.975	4.92
532.321	4.97
532.667	5.08
533.014	5.08
533.36	5.1
533.706	5.01
534.052	5.09
534.399	5.02
534.745	5.1
535.091	5.04
535.437	5.01
535.783	5.07
536.129	5.05
536.474	5.09
536.82	5.14
537.166	5.11
537.512	5.22
537.857	5.22
538.203	5.28
538.549	5.16
538.894	5.15
539.239	5.23
539.585	5.12
539.93	5.14
540.276	5.26
540.621	5.39
540.966	5.38
541.311	5.36
541.656	5.35
542.001	5.42
542.346	5.4
542.691	5.31
543.036	5.18
543.381	5.19
543.726	5.28
544.071	5.31
544.415	5.35
544.76	5.31
545.105	5.4
545.449	5.39
545.794	5.46
546.138	5.43
546.483	5.46
546.827	5.43
547.171	5.56
547.516	5.65
547.86	5.56
548.204	5.56
548.548	5.53
548.892	5.54
549.236	5.62
549.58	5.61
549.924	5.63
550.268	5.78
550.612	5.84
550.956	5.92
551.3	5.64
551.643	5.97
551.987	5.96
552.33	5.87
552.674	5.84
553.017	5.68
553.361	5.87
553.704	6.03
554.048	5.78
554.391	5.85
554.734	5.89
555.077	6.09
555.42	5.67
555.764	5.77
556.107	5.6
556.45	5.92
556.793	5.92
557.135	5.86
557.478	6.08
557.821	6.03
558.164	5.87
558.507	6.01
558.849	5.97
559.192	6.04
559.534	5.97
559.877	5.96
560.219	6.09
560.562	6.19
560.904	6.06
561.246	6.29
561.589	6.41
561.931	6.2
562.273	6.27
562.615	6.44
562.957	6.38
563.299	5.96
563.641	6.3
563.983	6.32
564.325	6.31
564.667	6.24
565.008	6.28
565.35	6.33
565.692	6.04
566.033	6.41
566.375	6.54
566.716	6.53
567.058	6.32
567.399	6.31
567.741	6.32
568.082	6.6
568.423	6.57
568.764	6.46
569.105	6.56
569.447	6.55
569.788	6.55
570.129	6.66
570.47	6.42
570.811	6.64
571.151	6.71
571.492	6.79
571.833	6.67
572.174	6.74
572.514	6.86
572.855	6.87
573.195	6.75
573.536	6.79
573.876	6.62
574.217	6.75
574.557	6.98
574.898	7.08
575.238	7.02
575.578	6.8
575.918	7.2
576.258	6.97
576.598	7.07
576.938	6.84
577.278	7.04
577.618	7.02
577.958	6.89
578.298	7.03
578.638	7.16
578.977	7.11
579.317	6.99
579.657	6.92
579.996	7.19
580.336	7.09
580.675	7.08
581.014	7.23
581.354	7.18
581.693	7.49
582.032	7.25
582.372	7.33
582.711	7.55
583.05	7.11
583.389	7.49
583.728	7.38
584.067	7.65
584.406	7.64
584.745	7.67
585.083	7.71
585.422	7.8
585.761	7.72
586.1	7.61
586.438	7.58
586.777	7.79
587.115	7.9
587.454	7.82
587.792	7.72
588.13	7.92
588.469	7.86
588.807	7.97
589.145	7.57
589.483	7.85
589.821	7.56
590.159	7.85
590.497	8.35
590.835	8.15
591.173	8.04
591.511	8.12
591.849	8.2
592.187	8.32
592.524	8.15
592.862	8.04
593.2	8.37
593.537	8.25
593.875	8.53
594.212	8.09
594.55	8.13
594.887	8.48
595.224	8.55
595.561	8.32
595.899	8.35
596.236	8.3
596.573	8.72
596.91	8.06
597.247	8.29
597.584	8.75
597.921	8.44
598.258	8.4
598.594	8.63
598.931	8.5
599.268	8.47
599.604	8.42
599.941	8.65
600.277	8.56
600.614	8.63
600.95	8.63
601.287	8.71
601.623	8.69
601.959	8.91
602.296	8.97
602.632	8.71
602.968	8.99
603.304	8.97
603.64	8.92
603.976	8.97
604.312	8.78
604.648	9.09
604.984	9.09
605.319	9.24
605.655	9.21
605.991	9.23
606.326	9.24
606.662	9
606.998	8.84
607.333	9.16
607.668	9.26
608.004	9.33
608.339	9.44
608.674	9.3
609.01	9.31
609.345	9.14
609.68	9.38
610.015	9.17
610.35	9.68
610.685	9.33
611.02	9.72
611.355	9.71
611.689	9.61
612.024	9.66
612.359	9.51
612.694	9.76
613.028	9.78
613.363	9.77
613.697	9.68
614.032	9.6
614.366	9.98
614.7	9.93
615.035	10.01
615.369	9.74
615.703	10.15
616.037	9.89
616.371	9.88
616.705	9.77
617.039	10.18
617.373	10.06
617.707	9.82
618.041	10.06
618.375	10.25
618.709	10.4
619.042	10.36
619.376	10.22
619.71	10.29
620.043	10.33
620.377	10.07
620.71	10.48
621.043	10.71
621.377	10.53
621.71	10.64
622.043	10.46
622.376	10.43
622.709	10.54
623.043	10.88
623.376	10.69
623.709	10.69
624.041	11.04
624.374	10.99
624.707	10.61
625.04	11
625.373	10.78
625.705	10.86
626.038	10.76
626.37	11.02
626.703	11.05
627.035	10.96
627.368	11.36
627.7	11.16
628.032	11.19
628.365	11.11
628.697	11.48
629.029	11.09
629.361	11.25
629.693	11.1
630.025	11.28
630.357	11.47
630.689	11.2
631.021	11.51
631.353	11.69
631.684	11.35
632.016	11.23
632.348	11.69
632.679	11.79
633.011	11.62
633.342	11.91
633.674	11.6
634.005	11.86
634.336	11.77
634.668	12.27
634.999	11.68
635.33	11.75
635.661	11.88
635.992	11.85
636.323	12.06
636.654	12.04
636.985	12.19
637.316	12.27
637.647	11.98
637.977	12.08
638.308	11.92
638.639	11.74
638.969	11.93
639.3	11.85
639.63	11.86
639.961	12.06
640.291	12.5
640.622	12.8
640.952	12.08
641.282	13.02
641.612	12.42
641.943	12.42
642.273	12.45
642.603	12.76
642.933	13.05
643.263	13.15
643.592	12.49
643.922	12.53
644.252	12.78
644.582	12.74
644.911	12.41
645.241	12.59
645.571	12.95
645.9	12.46
646.23	12.83
646.559	12.96
646.888	12.81
647.218	12.88
647.547	13.02
647.876	12.63
648.205	13.2
648.534	12.51
648.863	13.17
649.192	13.56
649.521	13.36
649.85	13.05
650.179	13.39
650.508	13.16
650.837	13.42
651.165	13.26
651.494	13.34
651.822	13.43
652.151	13.45
652.479	13.79
652.808	13.28
653.136	14.04
653.465	12.91
653.793	13
654.121	13.35
654.449	13.45
654.777	14
655.105	14.15
655.433	13.47
655.761	14.02
656.089	14.22
656.417	14.32
656.745	14.24
657.073	14.45
657.4	14.66
657.728	14.12
658.056	13.55
658.383	13.83
658.711	14.16
659.038	14.62
659.365	14.68
659.693	13.89
660.02	14.4
660.347	14.34
660.674	14.5
661.001	14.41
661.329	13.85
661.656	14.59
661.982	14.67
662.309	14.69
662.636	14.17
662.963	14.89
663.29	15.32
663.616	14.92
663.943	14.68
664.27	14.44
664.596	14.89
664.923	14.85
665.249	14.98
665.576	15.09
665.902	15.5
666.228	15.38
666.554	15.6
666.881	15.25
667.207	15.24
667.533	15.36
667.859	15.04
668.185	15.79
668.511	14.64
668.837	14.79
669.162	15.37
669.488	14.96
669.814	15.74
670.139	16.09
670.465	15.63
670.791	15.3
671.116	16.37
671.442	15.65
671.767	15.7
672.092	15.53
672.418	15.78
672.743	16.02
673.068	15.63
673.393	16.03
673.718	16.25
674.043	16.23
674.368	15.89
674.693	16.43
675.018	15.98
675.343	15.93
675.667	15.7
675.992	16.7
676.317	16
676.641	16.19
676.966	16.48
677.29	16.59
677.615	16.25
677.939	16.74
678.264	17.82
678.588	16.21
678.912	16.75
679.236	17.2
679.56	16.57
679.885	17.23
680.209	16.64
680.532	16.29
680.856	17.07
681.18	17.03
681.504	16.79
681.828	16.94
682.152	16.45
682.475	16.81
682.799	16.97
683.122	17.21
683.446	16.39
683.769	17.59
684.093	16.85
684.416	17.48
684.739	17.51
685.062	17.13
685.386	17.07
685.709	17.21
686.032	17.56
686.355	17.87
686.678	17.1
687.001	17.66
687.324	17.84
687.646	16.83
