Data from 0389_chest_Reflection__0__61.txt Node

Date: Fri Dec 15 16:50:03 CST 2023
User: ToomeyLab
Spectrometer: FLMS14357
Trigger mode: 0
Integration Time (sec): 1.000000E-2
Scans to average: 100
Electric dark correction enabled: true
Nonlinearity correction enabled: false
Boxcar width: 0
XAxis mode: Wavelengths
Number of Pixels in Spectrum: 2048
>>>>>Begin Spectral Data<<<<<
189.047	-20.97
189.435	-20.97
189.823	-20.97
190.211	147.26
190.599	-45.68
190.987	28.46
191.375	-559.32
191.763	142.07
192.151	28.39
192.538	145.03
192.926	-13.43
193.314	125.91
193.702	-659.39
194.089	-145.04
194.477	-49.92
194.864	522.24
195.252	49.28
195.639	71.62
196.027	72.49
196.414	99.41
196.801	153.62
197.189	132.48
197.576	1908.47
197.963	10.68
198.351	-66.22
198.738	-0.82
199.125	39.88
199.512	-13.78
199.899	46.26
200.286	70.42
200.673	6.83
201.06	13.47
201.447	69.45
201.833	28.96
202.22	13.33
202.607	7.2
202.994	49.68
203.38	24.86
203.767	31.77
204.154	9.67
204.54	36.16
204.927	-61.96
205.313	53.01
205.699	41.1
206.086	45.49
206.472	32.19
206.858	9.48
207.245	18.27
207.631	37.56
208.017	31.93
208.403	18.93
208.789	34.24
209.175	32.05
209.561	-26.46
209.947	56.9
210.333	17.42
210.719	39.54
211.105	27.19
211.491	-17.46
211.876	9.43
212.262	23.57
212.648	48.23
213.034	30.82
213.419	44.21
213.805	16.32
214.19	-3.45
214.576	11.9
214.961	2.49
215.346	-5.73
215.732	15.39
216.117	41.37
216.502	12.88
216.888	13.26
217.273	55.39
217.658	3.6
218.043	26.62
218.428	-41.47
218.813	3.06
219.198	1.93
219.583	37.72
219.968	16.24
220.353	1.92
220.738	34.16
221.122	21.36
221.507	12.89
221.892	-23.21
222.276	-1.81
222.661	2.3
223.046	17.16
223.43	13.3
223.815	6.88
224.199	-6.13
224.583	5.21
224.968	-0.51
225.352	22.36
225.736	3.78
226.121	-3.94
226.505	5.47
226.889	5.99
227.273	3.08
227.657	7
228.041	6.66
228.425	7.83
228.809	5.54
229.193	6.3
229.577	4.16
229.961	5.41
230.344	5.07
230.728	4.58
231.112	5.05
231.495	4.9
231.879	5.17
232.263	7.26
232.646	5.32
233.03	4.95
233.413	4.77
233.797	6.07
234.18	6.37
234.563	6.86
234.946	5.3
235.33	6.93
235.713	5.38
236.096	4.04
236.479	4.8
236.862	3.09
237.245	6.06
237.628	5.54
238.011	5.25
238.394	6.13
238.777	6.53
239.16	4.54
239.543	5.02
239.925	6.38
240.308	5.97
240.691	5.29
241.073	5.37
241.456	5.03
241.838	5.19
242.221	3.73
242.603	6.61
242.986	5.49
243.368	5.25
243.75	5.51
244.133	5
244.515	5.29
244.897	5.14
245.279	5.32
245.661	4.63
246.043	3.84
246.425	5.02
246.807	5.75
247.189	5.45
247.571	6.27
247.953	5.18
248.335	5.16
248.717	4.78
249.098	4.85
249.48	5.02
249.862	4.68
250.243	4.88
250.625	5.19
251.006	5.14
251.388	4.33
251.769	5.71
252.151	5.69
252.532	4.6
252.913	5.21
253.295	4.67
253.676	4.69
254.057	5.06
254.438	4.87
254.819	4.78
255.2	5.48
255.581	4.42
255.962	4.15
256.343	5.11
256.724	3.92
257.105	4.58
257.486	4.95
257.867	5.93
258.247	5.18
258.628	5.15
259.009	4.69
259.389	4.38
259.77	4.93
260.15	4.05
260.531	3.84
260.911	5.51
261.292	4.38
261.672	4.86
262.052	4.47
262.432	4.76
262.813	4.75
263.193	4.29
263.573	3.98
263.953	4.65
264.333	4.57
264.713	4.91
265.093	4.66
265.473	4.87
265.853	4.37
266.233	5.33
266.612	3.25
266.992	3.84
267.372	4.94
267.752	4.06
268.131	4.49
268.511	5.26
268.89	5.05
269.27	4.1
269.649	4.24
270.029	4.37
270.408	5.66
270.787	4.47
271.167	4.75
271.546	5.34
271.925	4.38
272.304	4.18
272.683	5.47
273.062	4.7
273.441	4.35
273.82	3.67
274.199	4.84
274.578	4.68
274.957	4.64
275.336	4.4
275.715	3.76
276.093	4.57
276.472	4.31
276.851	4.2
277.229	3.92
277.608	4.22
277.986	4.32
278.365	5
278.743	4.11
279.122	4.57
279.5	4.3
279.878	4.91
280.257	3.89
280.635	4.34
281.013	4.4
281.391	4.79
281.769	4.81
282.147	4.63
282.525	4.68
282.903	4.57
283.281	4.56
283.659	4.68
284.037	5.31
284.415	4.86
284.792	4.68
285.17	3.9
285.548	4.37
285.925	4.68
286.303	4.95
286.68	4.37
287.058	4.41
287.435	4.44
287.813	4.29
288.19	4.44
288.567	4.35
288.945	4.77
289.322	4.23
289.699	4.44
290.076	3.98
290.453	4.8
290.83	4.25
291.207	4.17
291.584	4.87
291.961	4.42
292.338	4.66
292.715	4.85
293.092	4.47
293.469	4.76
293.845	4.79
294.222	4.17
294.599	5.07
294.975	4.61
295.352	4.7
295.728	4.61
296.105	4.85
296.481	4.77
296.858	4.84
297.234	4.7
297.61	4.95
297.986	4.66
298.363	4.79
298.739	4.78
299.115	5.02
299.491	4.54
299.867	4.68
300.243	5.02
300.619	4.46
300.995	4.81
301.371	4.71
301.746	4.72
302.122	5.2
302.498	4.62
302.874	4.99
303.249	4.89
303.625	5.06
304	5.19
304.376	5.09
304.751	4.55
305.127	5.41
305.502	4.16
305.878	4.23
306.253	4.64
306.628	5.66
307.003	4.71
307.378	4.93
307.754	4.52
308.129	5.18
308.504	4.66
308.879	4.89
309.254	5.27
309.629	5.62
310.003	4.83
310.378	5.73
310.753	5.1
311.128	4.71
311.502	4.96
311.877	5.36
312.252	4.89
312.626	5.05
313.001	4.98
313.375	4.88
313.75	4.8
314.124	5.07
314.498	4.83
314.873	5.02
315.247	4.9
315.621	4.6
315.995	4.57
316.369	5.05
316.743	5.03
317.117	5.08
317.491	5.04
317.865	4.99
318.239	5.01
318.613	5.51
318.987	5.44
319.361	5.1
319.734	5.6
320.108	5.62
320.482	5.29
320.855	5.75
321.229	4.99
321.602	5.25
321.976	5.3
322.349	5.16
322.723	5.74
323.096	5.72
323.469	4.34
323.843	5.18
324.216	5.65
324.589	4.8
324.962	5.51
325.335	4.79
325.708	5.76
326.081	4.63
326.454	4.94
326.827	5.22
327.2	5.12
327.573	5.34
327.945	5.38
328.318	5.06
328.691	5.03
329.063	5.47
329.436	5.26
329.809	5.15
330.181	5.06
330.553	5.57
330.926	5.05
331.298	5.71
331.671	5.04
332.043	5.73
332.415	5.44
332.787	5.29
333.159	6.1
333.532	5.58
333.904	4.99
334.276	4.9
334.648	5.46
335.02	5.13
335.391	5.14
335.763	5.08
336.135	5.11
336.507	5.44
336.879	5.34
337.25	5.08
337.622	5.51
337.993	5.11
338.365	5.5
338.736	5.35
339.108	5.28
339.479	5.01
339.851	5.39
340.222	5.45
340.593	5.33
340.964	5.16
341.336	5.81
341.707	4.8
342.078	6
342.449	5.59
342.82	5.25
343.191	5.43
343.562	5.06
343.933	5.58
344.303	5.24
344.674	5.51
345.045	5.22
345.416	5.98
345.786	4.72
346.157	5.66
346.527	5.18
346.898	4.86
347.268	5.42
347.639	5.12
348.009	5.59
348.38	4.77
348.75	5.37
349.12	5
349.49	5.45
349.861	5.14
350.231	5.48
350.601	5.41
350.971	5.95
351.341	5.05
351.711	5.56
352.081	5.4
352.45	5.01
352.82	5.41
353.19	5.33
353.56	5.04
353.929	5.44
354.299	5.34
354.669	5.1
355.038	5.49
355.408	5.28
355.777	4.94
356.147	5.16
356.516	5.21
356.885	5.78
357.254	5.43
357.624	5.47
357.993	5.09
358.362	5.23
358.731	5.34
359.1	5.15
359.469	5.41
359.838	5.55
360.207	5.18
360.576	5.1
360.945	5.28
361.314	6.03
361.682	5.2
362.051	5.27
362.42	5.31
362.788	5.48
363.157	5.58
363.525	5.47
363.894	5.54
364.262	5.17
364.631	5.58
364.999	5.48
365.367	5.11
365.735	5.8
366.104	5.49
366.472	5.76
366.84	5.12
367.208	5.09
367.576	5.58
367.944	5.92
368.312	5.31
368.68	5.14
369.048	5.59
369.416	5.34
369.783	5.42
370.151	5.25
370.519	6.14
370.886	5.95
371.254	5.14
371.621	5.88
371.989	5.48
372.356	5.22
372.724	5.8
373.091	5.02
373.458	5.53
373.826	5.42
374.193	5.24
374.56	5.6
374.927	5.4
375.294	5.26
375.661	5.52
376.028	5.43
376.395	5.59
376.762	5.36
377.129	5.36
377.496	5.47
377.863	5.59
378.229	5.03
378.596	5.37
378.963	5.56
379.329	5.35
379.696	5.61
380.062	5.44
380.429	5.35
380.795	5.24
381.161	5.59
381.528	5.61
381.894	5.66
382.26	5.24
382.626	5.97
382.993	5.09
383.359	5.69
383.725	5.3
384.091	5.49
384.457	5.76
384.823	5.47
385.188	5.52
385.554	5.52
385.92	5.67
386.286	5.48
386.651	5.61
387.017	5.52
387.383	5.48
387.748	5.4
388.114	5.73
388.479	5.47
388.845	5.68
389.21	5.94
389.575	5.75
389.94	5.58
390.306	5.61
390.671	5.6
391.036	5.28
391.401	5.5
391.766	6.11
392.131	5.28
392.496	5.5
392.861	5.58
393.226	5.46
393.591	5.6
393.956	5.33
394.32	5.35
394.685	5.54
395.05	5.36
395.414	5.48
395.779	5.28
396.143	5.85
396.508	5.64
396.872	5.76
397.236	5.52
397.601	5.47
397.965	5.58
398.329	5.45
398.694	5.73
399.058	5.65
399.422	5.54
399.786	6.06
400.15	5.49
400.514	5.88
400.878	5.63
401.242	5.92
401.605	5.83
401.969	6.02
402.333	5.5
402.697	5.48
403.06	5.79
403.424	5.67
403.787	5.48
404.151	5.63
404.514	5.62
404.878	5.61
405.241	5.78
405.604	5.73
405.968	5.91
406.331	5.47
406.694	5.86
407.057	5.73
407.42	5.84
407.783	5.37
408.146	5.8
408.509	5.68
408.872	5.6
409.235	5.83
409.598	6
409.961	5.53
410.323	5.96
410.686	5.75
411.049	5.61
411.411	5.72
411.774	5.7
412.136	5.83
412.499	5.75
412.861	5.69
413.223	5.45
413.586	5.87
413.948	5.76
414.31	6.01
414.672	5.65
415.035	5.69
415.397	6.07
415.759	5.57
416.121	5.91
416.483	5.49
416.845	5.79
417.206	5.83
417.568	5.83
417.93	5.39
418.292	5.63
418.653	6.02
419.015	5.73
419.377	5.68
419.738	5.8
420.1	5.8
420.461	5.79
420.822	5.78
421.184	5.59
421.545	5.77
421.906	5.67
422.267	5.72
422.629	5.76
422.99	5.57
423.351	5.68
423.712	5.72
424.073	5.66
424.434	5.68
424.795	5.76
425.155	5.69
425.516	5.57
425.877	5.61
426.238	5.51
426.598	5.72
426.959	5.69
427.32	5.63
427.68	5.62
428.041	5.79
428.401	5.65
428.761	5.76
429.122	5.65
429.482	5.81
429.842	5.79
430.202	5.92
430.563	5.96
430.923	5.75
431.283	5.86
431.643	5.92
432.003	5.78
432.363	6
432.722	5.83
433.082	6.02
433.442	5.97
433.802	5.71
434.161	5.79
434.521	6.12
434.881	5.94
435.24	5.78
435.6	5.86
435.959	5.94
436.319	5.83
436.678	5.92
437.037	5.82
437.396	6.07
437.756	6.09
438.115	6.02
438.474	5.98
438.833	5.83
439.192	5.77
439.551	6
439.91	5.85
440.269	5.78
440.628	5.84
440.987	6.02
441.345	5.74
441.704	6.06
442.063	5.85
442.421	5.77
442.78	5.89
443.138	5.9
443.497	5.89
443.855	5.81
444.214	5.96
444.572	6.11
444.93	6.01
445.288	6.08
445.647	6.04
446.005	5.86
446.363	6.17
446.721	5.97
447.079	5.91
447.437	5.93
447.795	5.97
448.153	5.91
448.51	5.83
448.868	5.86
449.226	5.88
449.584	5.85
449.941	6.05
450.299	6.07
450.656	6.18
451.014	6.03
451.371	5.9
451.729	5.96
452.086	6.21
452.443	6.07
452.801	6.03
453.158	6.13
453.515	5.99
453.872	6.2
454.229	6.17
454.586	6.19
454.943	5.97
455.3	6.22
455.657	5.92
456.014	6.07
456.371	6.07
456.727	6.15
457.084	6.07
457.441	6.17
457.797	6.1
458.154	6.3
458.51	6.19
458.867	6.2
459.223	6.21
459.58	6.28
459.936	6.25
460.292	6.19
460.648	6.18
461.005	6.11
461.361	6.15
461.717	6.1
462.073	5.95
462.429	6.04
462.785	6.09
463.141	6
463.496	6.1
463.852	6.04
464.208	6.05
464.564	6.27
464.919	6.28
465.275	6.23
465.631	6.48
465.986	6.27
466.342	6.09
466.697	5.98
467.052	6.38
467.408	6.46
467.763	6.3
468.118	6.34
468.473	6.23
468.829	6.39
469.184	6.31
469.539	6.33
469.894	6.11
470.249	6.41
470.603	6.39
470.958	6.36
471.313	6.34
471.668	6.35
472.023	6.3
472.377	6.4
472.732	6.36
473.086	6.29
473.441	6.3
473.795	6.33
474.15	6.24
474.504	6.36
474.859	6.37
475.213	6.27
475.567	6.15
475.921	6.18
476.275	6.33
476.63	6.47
476.984	6.44
477.338	6.52
477.692	6.26
478.045	6.29
478.399	6.3
478.753	6.43
479.107	6.44
479.461	6.56
479.814	6.37
480.168	6.42
480.521	6.36
480.875	6.33
481.228	6.4
481.582	6.42
481.935	6.38
482.289	6.49
482.642	6.45
482.995	6.31
483.348	6.39
483.701	6.47
484.055	6.38
484.408	6.37
484.761	6.31
485.114	6.38
485.466	6.17
485.819	6.13
486.172	6.05
486.525	6.05
486.878	6.03
487.23	6.13
487.583	6.18
487.936	6.33
488.288	6.26
488.641	6.36
488.993	6.28
489.345	6.28
489.698	6.19
490.05	6.22
490.402	6.23
490.754	6.23
491.107	6.28
491.459	6.39
491.811	6.39
492.163	6.42
492.515	6.52
492.866	6.54
493.218	6.48
493.57	6.36
493.922	6.35
494.274	6.34
494.625	6.39
494.977	6.47
495.328	6.5
495.68	6.49
496.031	6.63
496.383	6.56
496.734	6.75
497.086	6.64
497.437	6.63
497.788	6.63
498.139	6.77
498.49	6.75
498.842	6.61
499.193	6.63
499.544	6.61
499.894	6.69
500.245	6.73
500.596	6.6
500.947	6.75
501.298	6.65
501.648	6.76
501.999	6.77
502.35	6.76
502.7	6.85
503.051	6.64
503.401	6.73
503.752	6.98
504.102	6.77
504.452	6.81
504.803	6.7
505.153	6.77
505.503	6.84
505.853	6.69
506.203	6.69
506.553	6.85
506.903	6.83
507.253	6.69
507.603	6.87
507.953	6.99
508.303	7.07
508.652	6.81
509.002	6.93
509.352	7
509.701	6.95
510.051	6.93
510.4	6.93
510.75	6.9
511.099	7.02
511.449	6.83
511.798	6.87
512.147	6.96
512.496	6.8
512.846	6.96
513.195	6.99
513.544	6.98
513.893	7.09
514.242	6.99
514.591	7.14
514.939	7.15
515.288	6.98
515.637	7.08
515.986	7.09
516.334	7.21
516.683	7.17
517.032	7.14
517.38	7.24
517.729	7.23
518.077	7.11
518.426	7.19
518.774	7.13
519.122	7.07
519.47	7.14
519.819	7.02
520.167	7.16
520.515	7.12
520.863	7.09
521.211	7.16
521.559	7.15
521.907	7.07
522.255	7.2
522.602	7.17
522.95	7.15
523.298	7.25
523.645	7.39
523.993	7.37
524.341	7.41
524.688	7.47
525.036	7.42
525.383	7.48
525.73	7.52
526.078	7.38
526.425	7.38
526.772	7.44
527.119	7.4
527.466	7.4
527.814	7.39
528.161	7.31
528.508	7.38
528.854	7.38
529.201	7.42
529.548	7.38
529.895	7.36
530.242	7.28
530.588	7.24
530.935	7.19
531.282	7.17
531.628	7.15
531.975	7.23
532.321	7.37
532.667	7.37
533.014	7.48
533.36	7.61
533.706	7.59
534.052	7.54
534.399	7.54
534.745	7.57
535.091	7.46
535.437	7.49
535.783	7.46
536.129	7.52
536.474	7.51
536.82	7.62
537.166	7.69
537.512	7.7
537.857	7.85
538.203	7.88
538.549	7.72
538.894	7.76
539.239	7.8
539.585	7.66
539.93	7.84
540.276	7.95
540.621	7.89
540.966	7.95
541.311	7.96
541.656	7.98
542.001	8.05
542.346	8.11
542.691	7.9
543.036	7.9
543.381	7.76
543.726	7.81
544.071	7.82
544.415	7.81
544.76	7.88
545.105	7.9
545.449	8.07
545.794	8.16
546.138	7.98
546.483	8.1
546.827	8.15
547.171	8.26
547.516	8.38
547.86	8.23
548.204	8.24
548.548	8.34
548.892	8.39
549.236	8.25
549.58	8.23
549.924	8.28
550.268	8.44
550.612	8.46
550.956	8.55
551.3	8.43
551.643	8.53
551.987	8.74
552.33	8.52
552.674	8.63
553.017	8.54
553.361	8.53
553.704	8.71
554.048	8.52
554.391	8.76
554.734	8.69
555.077	8.87
555.42	8.63
555.764	8.64
556.107	8.76
556.45	8.54
556.793	8.95
557.135	8.86
557.478	9.21
557.821	9.07
558.164	8.93
558.507	8.96
558.849	8.91
559.192	9.15
559.534	9.08
559.877	9.24
560.219	8.95
560.562	9.15
560.904	9.11
561.246	9.18
561.589	9.3
561.931	9.51
562.273	9.25
562.615	9.29
562.957	9.28
563.299	9.11
563.641	9.33
563.983	9.39
564.325	9.2
564.667	9.29
565.008	9.26
565.35	9.38
565.692	9.37
566.033	9.44
566.375	9.56
566.716	9.75
567.058	9.41
567.399	9.61
567.741	9.47
568.082	9.7
568.423	9.55
568.764	9.53
569.105	9.65
569.447	9.65
569.788	9.7
570.129	9.96
570.47	9.83
570.811	9.88
571.151	9.86
571.492	9.86
571.833	9.99
572.174	9.87
572.514	9.86
572.855	9.9
573.195	9.89
573.536	10.13
573.876	9.93
574.217	10.01
574.557	10.13
574.898	10.03
575.238	10.08
575.578	9.9
575.918	10.14
576.258	10.28
576.598	10.29
576.938	10.12
577.278	10.19
577.618	10.31
577.958	10.4
578.298	10.3
578.638	10.38
578.977	10.46
579.317	10.36
579.657	10.35
579.996	10.44
580.336	10.48
580.675	10.6
581.014	10.65
581.354	10.58
581.693	10.71
582.032	10.75
582.372	10.67
582.711	10.88
583.05	11.08
583.389	10.9
583.728	10.7
584.067	10.93
584.406	10.9
584.745	11.02
585.083	10.98
585.422	11.19
585.761	11.39
586.1	11.34
586.438	11.19
586.777	11.43
587.115	11.08
587.454	11.2
587.792	11.07
588.13	11.5
588.469	11.38
588.807	11.51
589.145	11.24
589.483	11.46
589.821	11.36
590.159	11.42
590.497	11.64
590.835	11.64
591.173	11.26
591.511	11.64
591.849	11.7
592.187	11.72
592.524	11.78
592.862	11.57
593.2	11.91
593.537	11.64
593.875	11.88
594.212	11.58
594.55	11.87
594.887	12.18
595.224	11.84
595.561	12.01
595.899	11.97
596.236	11.86
596.573	12.37
596.91	12.04
597.247	11.96
597.584	12.35
597.921	12.13
598.258	12.26
598.594	12.3
598.931	12.26
599.268	12.28
599.604	12.23
599.941	12.41
600.277	12.15
600.614	12.21
600.95	12.13
601.287	12.69
601.623	12.4
601.959	12.56
602.296	12.86
602.632	12.53
602.968	12.6
603.304	12.82
603.64	12.61
603.976	12.79
604.312	12.76
604.648	12.69
604.984	13
605.319	12.86
605.655	12.85
605.991	13.01
606.326	12.85
606.662	12.95
606.998	12.74
607.333	12.88
607.668	12.91
608.004	13.06
608.339	13.22
608.674	13.06
609.01	13.1
609.345	13.21
609.68	13.27
610.015	13.38
610.35	13.35
610.685	13.25
611.02	13.32
611.355	13.45
611.689	13.42
612.024	13.55
612.359	13.4
612.694	13.45
613.028	13.56
613.363	13.95
613.697	13.92
614.032	13.91
614.366	13.73
614.7	14.06
615.035	13.95
615.369	13.77
615.703	13.9
616.037	14.17
616.371	13.92
616.705	13.97
617.039	14.43
617.373	14.22
617.707	13.98
618.041	14.32
618.375	14.15
618.709	14.43
619.042	14.1
619.376	14.71
619.71	14.54
620.043	14.6
620.377	14.25
620.71	14.61
621.043	14.67
621.377	14.63
621.71	14.49
622.043	14.39
622.376	14.14
622.709	14.81
623.043	14.93
623.376	14.76
623.709	14.46
624.041	15.04
624.374	15.2
624.707	14.63
625.04	15.8
625.373	14.82
625.705	15.36
626.038	14.84
626.37	15.19
626.703	15.16
627.035	14.89
627.368	15.58
627.7	15.18
628.032	15
628.365	15.4
628.697	15.45
629.029	15.3
629.361	15.43
629.693	15.27
630.025	15.27
630.357	15.67
630.689	15.86
631.021	15.41
631.353	15.85
631.684	15.75
632.016	15.14
632.348	15.86
632.679	16.09
633.011	16.05
633.342	16.09
633.674	16.08
634.005	16.01
634.336	15.73
634.668	16.11
634.999	15.9
635.33	16.23
635.661	16.62
635.992	16.03
636.323	16.28
636.654	16.39
636.985	16.23
637.316	16.13
637.647	16.24
637.977	16.68
638.308	16.27
638.639	16.15
638.969	16.49
639.3	16.28
639.63	16.48
639.961	16.11
640.291	16.94
640.622	17
640.952	16.17
641.282	16.99
641.612	17.05
641.943	16.8
642.273	16.91
642.603	16.81
642.933	16.79
643.263	17.22
643.592	16.9
643.922	17.08
644.252	16.63
644.582	17.16
644.911	16.49
645.241	17.38
645.571	16.79
645.9	16.89
646.23	17.06
646.559	17.68
646.888	17.05
647.218	17.52
647.547	17.73
647.876	17.57
648.205	18.07
648.534	17.28
648.863	17.14
649.192	17.99
649.521	17.79
649.85	17.77
650.179	17.62
650.508	17.8
650.837	17.88
651.165	17.24
651.494	17.85
651.822	18.27
652.151	17.73
652.479	18.08
652.808	17.76
653.136	18.32
653.465	17.78
653.793	17.81
654.121	18.01
654.449	18.58
654.777	18.66
655.105	18.73
655.433	17.68
655.761	18.2
656.089	18.49
656.417	18.88
656.745	18.14
657.073	18.72
657.4	19.25
657.728	19.13
658.056	18.77
658.383	18.37
658.711	18.94
659.038	19.18
659.365	19.72
659.693	18.85
660.02	19
660.347	18.99
660.674	19.21
661.001	19.19
661.329	18.47
661.656	18.95
661.982	19.14
662.309	18.69
662.636	18.78
662.963	19.08
663.29	19.22
663.616	19.63
663.943	19.16
664.27	19.24
664.596	19.63
664.923	19.42
665.249	19.47
665.576	19.75
665.902	20.23
666.228	19.89
666.554	20.17
666.881	19.52
667.207	19.44
667.533	19.69
667.859	19.93
668.185	19.61
668.511	19.4
668.837	18.81
669.162	20.14
669.488	20.1
669.814	19.88
670.139	19.9
670.465	19.7
670.791	20.74
671.116	20.47
671.442	19.94
671.767	20.35
672.092	20.03
672.418	20.59
672.743	20.65
673.068	19.83
673.393	20.51
673.718	20.31
674.043	20.18
674.368	21.16
674.693	21.07
675.018	20.5
675.343	20.73
675.667	20.11
675.992	20.62
676.317	21.06
676.641	20.92
676.966	20.92
677.29	20.5
677.615	21.28
677.939	21.52
678.264	21.5
678.588	21.22
678.912	20.84
679.236	21.38
679.56	21.17
679.885	20.69
680.209	21.07
680.532	21.23
680.856	21.68
681.18	21.31
681.504	21.25
681.828	21.9
682.152	21.47
682.475	21.59
682.799	21.45
683.122	21.72
683.446	21.43
683.769	22.18
684.093	21.6
684.416	22.06
684.739	21.79
685.062	22
