Data from 0389_chest_Reflection__2__63.txt Node

Date: Fri Dec 15 16:50:20 CST 2023
User: ToomeyLab
Spectrometer: FLMS14357
Trigger mode: 0
Integration Time (sec): 1.000000E-2
Scans to average: 100
Electric dark correction enabled: true
Nonlinearity correction enabled: false
Boxcar width: 0
XAxis mode: Wavelengths
Number of Pixels in Spectrum: 2048
>>>>>Begin Spectral Data<<<<<
189.047	-311.68
189.435	-311.68
189.823	-311.68
190.211	-29.06
190.599	-67.05
190.987	81.93
191.375	5247.46
191.763	193.4
192.151	-39.08
192.538	205.22
192.926	-17.75
193.314	16.39
193.702	646.29
194.089	69.81
194.477	103.39
194.864	553.42
195.252	78.68
195.639	91.07
196.027	705.4
196.414	87.58
196.801	54.46
197.189	157.62
197.576	-8230.51
197.963	93.74
198.351	-38.54
198.738	-42.2
199.125	10.54
199.512	-1.18
199.899	3.36
200.286	63.37
200.673	31.66
201.06	-71.24
201.447	40.09
201.833	70.2
202.22	39.03
202.607	40.47
202.994	0.4
203.38	45.91
203.767	21.53
204.154	8.28
204.54	54.23
204.927	-23.29
205.313	-29.64
205.699	18.35
206.086	50.83
206.472	19.41
206.858	45.69
207.245	-44.23
207.631	14.55
208.017	8.13
208.403	-0.05
208.789	31.91
209.175	27.7
209.561	-31.09
209.947	51.78
210.333	-53.42
210.719	24.63
211.105	38.51
211.491	-7.13
211.876	30.16
212.262	21.77
212.648	30.78
213.034	10.87
213.419	11.4
213.805	25.49
214.19	2.59
214.576	34.2
214.961	20.49
215.346	-10.31
215.732	-25.79
216.117	14.92
216.502	-11.39
216.888	25.23
217.273	66.27
217.658	-0.06
218.043	26.25
218.428	-14.72
218.813	0.49
219.198	-0.3
219.583	21.29
219.968	21.76
220.353	7.42
220.738	24.26
221.122	16.05
221.507	-3.77
221.892	-13.01
222.276	-33.57
222.661	2.48
223.046	15.98
223.43	17.32
223.815	11.35
224.199	-10.09
224.583	6.8
224.968	3.29
225.352	7.79
225.736	-2.64
226.121	-6.94
226.505	7.94
226.889	8.82
227.273	3.86
227.657	9.99
228.041	8.15
228.425	3.48
228.809	8.44
229.193	6.06
229.577	4.24
229.961	4.55
230.344	4.39
230.728	4.12
231.112	4.75
231.495	4.39
231.879	3.38
232.263	5.11
232.646	4.8
233.03	5.48
233.413	1.74
233.797	5.26
234.18	3.86
234.563	5.16
234.946	2.92
235.33	6.73
235.713	6.33
236.096	5.34
236.479	5.5
236.862	2.92
237.245	6.36
237.628	5.28
238.011	5.23
238.394	7.05
238.777	5.72
239.16	3.82
239.543	4.97
239.925	5.53
240.308	5.17
240.691	5.67
241.073	5.39
241.456	5.86
241.838	3.43
242.221	4.66
242.603	5.98
242.986	4.19
243.368	4.81
243.75	4.79
244.133	4.85
244.515	5.04
244.897	3.9
245.279	4.1
245.661	4.06
246.043	3.66
246.425	3.02
246.807	5.86
247.189	5.33
247.571	4
247.953	4.43
248.335	3.99
248.717	4.36
249.098	4.55
249.48	4.1
249.862	3.96
250.243	3.89
250.625	4.15
251.006	4.54
251.388	2.96
251.769	4.52
252.151	4.49
252.532	4.53
252.913	4.17
253.295	4.07
253.676	3.43
254.057	4.34
254.438	4.24
254.819	3.25
255.2	4.37
255.581	3.46
255.962	2.44
256.343	3.68
256.724	4.85
257.105	4.47
257.486	4.66
257.867	5.7
258.247	4.85
258.628	4.2
259.009	3.47
259.389	4.49
259.77	3.72
260.15	3.14
260.531	3.41
260.911	4.18
261.292	3.91
261.672	4.21
262.052	3.89
262.432	3.77
262.813	3.54
263.193	3.63
263.573	4.23
263.953	3.55
264.333	4.59
264.713	3.89
265.093	3.27
265.473	3.74
265.853	3.06
266.233	4.64
266.612	2.03
266.992	2.78
267.372	4.26
267.752	4.32
268.131	4.44
268.511	4.59
268.89	4.27
269.27	3.62
269.649	2.74
270.029	3.41
270.408	4.71
270.787	3.65
271.167	3.66
271.546	4.09
271.925	2.89
272.304	4.02
272.683	4.41
273.062	3.49
273.441	3.82
273.82	3.46
274.199	3.51
274.578	3.82
274.957	3.58
275.336	3.71
275.715	2.96
276.093	3.99
276.472	4.1
276.851	3.62
277.229	3.57
277.608	3.45
277.986	3.76
278.365	4.41
278.743	3.39
279.122	3.11
279.5	4.16
279.878	3.99
280.257	3.58
280.635	3.26
281.013	3.77
281.391	4.06
281.769	3.78
282.147	3.62
282.525	3.86
282.903	3.6
283.281	4.28
283.659	3.54
284.037	3.57
284.415	4.02
284.792	3.58
285.17	2.92
285.548	3.38
285.925	3.86
286.303	3.93
286.68	3.12
287.058	3.52
287.435	3.52
287.813	3.58
288.19	3.52
288.567	3.21
288.945	3.67
289.322	3.05
289.699	3.83
290.076	3.84
290.453	3.55
290.83	3.45
291.207	3.19
291.584	3.92
291.961	4.14
292.338	3.57
292.715	3.74
293.092	3.74
293.469	3.81
293.845	3.93
294.222	3.22
294.599	3.81
294.975	2.59
295.352	3.63
295.728	2.69
296.105	3.26
296.481	3.61
296.858	3.89
297.234	3.27
297.61	3.66
297.986	3.32
298.363	3.49
298.739	3.52
299.115	3.23
299.491	3.29
299.867	3.7
300.243	3.58
300.619	2.93
300.995	3.23
301.371	3.5
301.746	3.35
302.122	3.37
302.498	3.63
302.874	3.38
303.249	3.36
303.625	3.13
304	3.69
304.376	3.51
304.751	3.1
305.127	3.67
305.502	3.15
305.878	3.12
306.253	3.46
306.628	3.87
307.003	3.2
307.378	4.26
307.754	3.47
308.129	2.29
308.504	3.57
308.879	2.98
309.254	4.41
309.629	3.62
310.003	3.71
310.378	3.59
310.753	3.85
311.128	3.71
311.502	3.08
311.877	3.78
312.252	3.26
312.626	3.61
313.001	3.26
313.375	4.06
313.75	3.09
314.124	3.27
314.498	3.41
314.873	3.66
315.247	3.36
315.621	3.42
315.995	3.21
316.369	3.3
316.743	2.57
317.117	3.38
317.491	3.02
317.865	3.16
318.239	3.9
318.613	3.82
318.987	3.7
319.361	2.69
319.734	3.58
320.108	3.67
320.482	3.42
320.855	3.7
321.229	3.28
321.602	3.8
321.976	4.07
322.349	3.65
322.723	3.84
323.096	4.35
323.469	2.81
323.843	3.75
324.216	3.87
324.589	3.35
324.962	3.96
325.335	3.49
325.708	3.7
326.081	3.36
326.454	3.25
326.827	3.21
327.2	3.7
327.573	3.74
327.945	3.74
328.318	3.11
328.691	2.93
329.063	3.36
329.436	2.95
329.809	3.5
330.181	2.86
330.553	3.23
330.926	3.86
331.298	3.77
331.671	3.52
332.043	3.61
332.415	4.09
332.787	3.74
333.159	4.27
333.532	3.88
333.904	3.08
334.276	3.57
334.648	3.63
335.02	3.28
335.391	3.13
335.763	3.54
336.135	3.69
336.507	3.72
336.879	4.08
337.25	3.11
337.622	3.59
337.993	3.35
338.365	3.7
338.736	4.17
339.108	3.58
339.479	3.42
339.851	3.05
340.222	3.82
340.593	3.71
340.964	3.42
341.336	4.32
341.707	3.42
342.078	3.65
342.449	4.08
342.82	3.75
343.191	3.12
343.562	3.89
343.933	3.77
344.303	2.93
344.674	3.82
345.045	3.5
345.416	4.02
345.786	2.92
346.157	3.86
346.527	3.4
346.898	3.12
347.268	3.66
347.639	3.53
348.009	3.47
348.38	3.38
348.75	3.24
349.12	3.41
349.49	3.91
349.861	4
350.231	3.49
350.601	3.72
350.971	3.8
351.341	3.67
351.711	3.57
352.081	3.54
352.45	3.28
352.82	3.74
353.19	3.37
353.56	3.59
353.929	3.99
354.299	3.67
354.669	3.3
355.038	4.29
355.408	3.86
355.777	3.56
356.147	3.63
356.516	3.32
356.885	3.72
357.254	3.23
357.624	4.09
357.993	3.76
358.362	3.21
358.731	3.59
359.1	3.51
359.469	3.42
359.838	3.53
360.207	3.7
360.576	3.57
360.945	3.71
361.314	4.08
361.682	3.46
362.051	3.35
362.42	3.65
362.788	3.55
363.157	3.73
363.525	3.56
363.894	3.72
364.262	3.68
364.631	3.4
364.999	3.83
365.367	3.29
365.735	4.32
366.104	3.71
366.472	4.1
366.84	3.32
367.208	3.55
367.576	3.5
367.944	3.66
368.312	3.45
368.68	3.22
369.048	3.91
369.416	3.45
369.783	3.44
370.151	4
370.519	3.89
370.886	3.62
371.254	3.16
371.621	3.95
371.989	4
372.356	3.4
372.724	3.85
373.091	3.4
373.458	3.82
373.826	3.61
374.193	3.81
374.56	3.57
374.927	3.72
375.294	3.73
375.661	3.54
376.028	3.63
376.395	3.37
376.762	3.59
377.129	3.6
377.496	3.67
377.863	3.58
378.229	3.5
378.596	3.49
378.963	3.81
379.329	3.55
379.696	3.61
380.062	3.71
380.429	3.59
380.795	3.6
381.161	3.53
381.528	3.82
381.894	3.52
382.26	3.63
382.626	3.8
382.993	3.49
383.359	4.07
383.725	3.63
384.091	3.44
384.457	4.06
384.823	3.56
385.188	3.71
385.554	3.54
385.92	3.77
386.286	3.86
386.651	3.93
387.017	3.86
387.383	3.85
387.748	3.61
388.114	3.84
388.479	3.55
388.845	3.92
389.21	4.09
389.575	3.88
389.94	3.51
390.306	4.1
390.671	3.82
391.036	3.41
391.401	3.65
391.766	3.74
392.131	3.61
392.496	3.63
392.861	3.7
393.226	3.85
393.591	3.86
393.956	3.6
394.32	3.92
394.685	3.53
395.05	3.71
395.414	3.84
395.779	3.42
396.143	3.72
396.508	3.73
396.872	3.85
397.236	3.82
397.601	3.47
397.965	3.77
398.329	3.87
398.694	3.78
399.058	3.8
399.422	3.5
399.786	3.96
400.15	3.97
400.514	3.9
400.878	4.01
401.242	3.92
401.605	3.73
401.969	3.91
402.333	3.74
402.697	3.78
403.06	3.93
403.424	4.06
403.787	3.63
404.151	3.88
404.514	4.16
404.878	3.67
405.241	4
405.604	3.8
405.968	4.05
406.331	3.81
406.694	3.93
407.057	3.77
407.42	4.09
407.783	3.8
408.146	3.88
408.509	3.65
408.872	3.84
409.235	3.92
409.598	3.82
409.961	3.85
410.323	3.84
410.686	3.79
411.049	3.67
411.411	3.65
411.774	3.81
412.136	3.58
412.499	3.76
412.861	3.72
413.223	3.92
413.586	3.87
413.948	3.81
414.31	3.83
414.672	3.72
415.035	3.57
415.397	4.1
415.759	3.6
416.121	3.84
416.483	3.77
416.845	3.85
417.206	3.82
417.568	3.88
417.93	3.72
418.292	3.78
418.653	4.02
419.015	3.87
419.377	3.81
419.738	3.76
420.1	3.77
420.461	3.9
420.822	3.89
421.184	3.73
421.545	3.79
421.906	3.71
422.267	3.84
422.629	3.71
422.99	3.8
423.351	3.67
423.712	3.68
424.073	3.67
424.434	3.64
424.795	3.81
425.155	3.82
425.516	3.69
425.877	3.73
426.238	3.74
426.598	3.81
426.959	3.79
427.32	3.7
427.68	3.77
428.041	3.61
428.401	3.93
428.761	3.88
429.122	3.71
429.482	3.69
429.842	3.94
430.202	3.85
430.563	3.9
430.923	3.62
431.283	3.86
431.643	3.81
432.003	3.91
432.363	3.73
432.722	3.89
433.082	3.82
433.442	3.68
433.802	3.73
434.161	3.88
434.521	4.04
434.881	3.92
435.24	3.75
435.6	3.89
435.959	3.93
436.319	3.8
436.678	3.83
437.037	3.9
437.396	3.83
437.756	3.97
438.115	3.82
438.474	3.99
438.833	3.58
439.192	3.75
439.551	3.92
439.91	3.81
440.269	3.82
440.628	3.67
440.987	3.87
441.345	3.87
441.704	3.89
442.063	3.84
442.421	3.88
442.78	3.82
443.138	3.89
443.497	3.87
443.855	3.83
444.214	3.86
444.572	3.92
444.93	3.84
445.288	4.05
445.647	4.04
446.005	3.87
446.363	4
446.721	4.07
447.079	3.92
447.437	3.9
447.795	3.87
448.153	3.78
448.51	3.9
448.868	3.92
449.226	3.74
449.584	3.93
449.941	3.96
450.299	3.89
450.656	3.88
451.014	3.99
451.371	3.92
451.729	3.75
452.086	4.07
452.443	3.89
452.801	3.98
453.158	4.01
453.515	3.85
453.872	4.01
454.229	3.7
454.586	3.69
454.943	3.98
455.3	3.97
455.657	3.86
456.014	3.82
456.371	3.93
456.727	4.04
457.084	4.17
457.441	3.91
457.797	4.01
458.154	4.22
458.51	3.97
458.867	4.06
459.223	4.09
459.58	3.82
459.936	4.09
460.292	4.05
460.648	3.95
461.005	3.88
461.361	3.93
461.717	3.9
462.073	3.71
462.429	3.8
462.785	3.85
463.141	3.8
463.496	3.84
463.852	3.99
464.208	4
464.564	4.18
464.919	3.98
465.275	3.96
465.631	4.06
465.986	4.08
466.342	3.98
466.697	3.8
467.052	3.93
467.408	3.98
467.763	3.99
468.118	4
468.473	3.88
468.829	4
469.184	3.87
469.539	3.79
469.894	3.82
470.249	4
470.603	4.1
470.958	4.03
471.313	4.04
471.668	4.03
472.023	4.1
472.377	4.04
472.732	3.99
473.086	3.85
473.441	3.82
473.795	4.05
474.15	3.94
474.504	4.04
474.859	4.05
475.213	3.88
475.567	3.9
475.921	3.88
476.275	3.95
476.63	4.14
476.984	4.06
477.338	4
477.692	3.89
478.045	4.13
478.399	4.08
478.753	4.1
479.107	4.05
479.461	3.95
479.814	4.04
480.168	4.08
480.521	4.01
480.875	3.88
481.228	4.07
481.582	4.13
481.935	3.99
482.289	4.02
482.642	4.04
482.995	3.93
483.348	3.94
483.701	4.01
484.055	3.94
484.408	4.1
484.761	3.91
485.114	3.92
485.466	3.79
485.819	3.8
486.172	3.76
486.525	3.77
486.878	3.73
487.23	3.74
487.583	3.87
487.936	3.87
488.288	3.93
488.641	3.91
488.993	3.87
489.345	3.85
489.698	3.8
490.05	3.79
490.402	3.88
490.754	3.85
491.107	3.91
491.459	3.9
491.811	3.99
492.163	3.95
492.515	3.99
492.866	4.07
493.218	4
493.57	3.91
493.922	3.87
494.274	3.92
494.625	3.97
494.977	4.08
495.328	4.06
495.68	3.95
496.031	4.22
496.383	4.02
496.734	4.19
497.086	4.04
497.437	4.05
497.788	4.15
498.139	4.06
498.49	4.11
498.842	3.98
499.193	4
499.544	4.14
499.894	4.2
500.245	4.09
500.596	4.04
500.947	4.17
501.298	4.07
501.648	4.2
501.999	4.08
502.35	4.04
502.7	4.17
503.051	4.09
503.401	4.19
503.752	4.24
504.102	4.1
504.452	4.1
504.803	4.13
505.153	4.17
505.503	4.28
505.853	4.14
506.203	4.06
506.553	4
506.903	4.07
507.253	4.09
507.603	4.11
507.953	4.21
508.303	4.42
508.652	4.04
509.002	4.25
509.352	4.24
509.701	4.01
510.051	4.16
510.4	4.22
510.75	4.19
511.099	4.15
511.449	4.12
511.798	4.21
512.147	4.23
512.496	4.15
512.846	4.27
513.195	4.16
513.544	4.11
513.893	4.17
514.242	4.15
514.591	4.34
514.939	4.21
515.288	4.19
515.637	4.31
515.986	4.3
516.334	4.21
516.683	4.31
517.032	4.18
517.38	4.28
517.729	4.28
518.077	4.17
518.426	4.28
518.774	4.31
519.122	4.22
519.47	4.23
519.819	4.14
520.167	4.25
520.515	4.25
520.863	4.38
521.211	4.23
521.559	4.28
521.907	4.23
522.255	4.19
522.602	4.25
522.95	4.2
523.298	4.26
523.645	4.37
523.993	4.15
524.341	4.23
524.688	4.36
525.036	4.25
525.383	4.4
525.73	4.35
526.078	4.23
526.425	4.26
526.772	4.42
527.119	4.29
527.466	4.27
527.814	4.32
528.161	4.23
528.508	4.29
528.854	4.28
529.201	4.31
529.548	4.26
529.895	4.23
530.242	4.21
530.588	4.13
530.935	4.17
531.282	4.21
531.628	4.14
531.975	4.28
532.321	4.31
532.667	4.33
533.014	4.47
533.36	4.34
533.706	4.34
534.052	4.37
534.399	4.23
534.745	4.25
535.091	4.31
535.437	4.4
535.783	4.35
536.129	4.34
536.474	4.32
536.82	4.35
537.166	4.46
537.512	4.43
537.857	4.44
538.203	4.55
538.549	4.44
538.894	4.46
539.239	4.48
539.585	4.45
539.93	4.4
540.276	4.52
540.621	4.66
540.966	4.52
541.311	4.36
541.656	4.62
542.001	4.55
542.346	4.63
542.691	4.48
543.036	4.45
543.381	4.39
543.726	4.45
544.071	4.51
544.415	4.49
544.76	4.47
545.105	4.54
545.449	4.56
545.794	4.66
546.138	4.56
546.483	4.62
546.827	4.67
547.171	4.6
547.516	4.82
547.86	4.62
548.204	4.55
548.548	4.66
548.892	4.64
549.236	4.65
549.58	4.66
549.924	4.73
550.268	4.89
550.612	4.8
550.956	4.99
551.3	4.7
551.643	4.78
551.987	4.85
552.33	4.84
552.674	4.95
553.017	4.83
553.361	4.84
553.704	5.03
554.048	4.86
554.391	4.88
554.734	4.86
555.077	4.79
555.42	4.72
555.764	4.88
556.107	4.75
556.45	4.78
556.793	4.87
557.135	5.01
557.478	5.06
557.821	4.98
558.164	5.08
558.507	5.01
558.849	4.89
559.192	4.95
559.534	5.09
559.877	5.13
560.219	5.04
560.562	5.18
560.904	5.03
561.246	5.17
561.589	5.1
561.931	4.99
562.273	4.98
562.615	5.02
562.957	5.18
563.299	5.03
563.641	5.15
563.983	5.12
564.325	5.08
564.667	5.15
565.008	5.14
565.35	5.16
565.692	5.11
566.033	5
566.375	5.36
566.716	5.29
567.058	5.34
567.399	5.23
567.741	5.24
568.082	5.32
568.423	5.3
568.764	5.28
569.105	5.31
569.447	5.35
569.788	5.27
570.129	5.3
570.47	5.43
570.811	5.41
571.151	5.51
571.492	5.53
571.833	5.29
572.174	5.42
572.514	5.51
572.855	5.37
573.195	5.55
573.536	5.5
573.876	5.49
574.217	5.4
574.557	5.52
574.898	5.57
575.238	5.69
575.578	5.45
575.918	5.64
576.258	5.75
576.598	5.55
576.938	5.79
577.278	5.67
577.618	5.5
577.958	5.59
578.298	5.68
578.638	5.59
578.977	5.72
579.317	5.75
579.657	5.65
579.996	5.76
580.336	5.59
580.675	5.89
581.014	5.79
581.354	5.69
581.693	5.98
582.032	5.87
582.372	5.76
582.711	5.85
583.05	5.98
583.389	5.92
583.728	5.67
584.067	6
584.406	6.04
584.745	5.71
585.083	6.14
585.422	6.08
585.761	6.08
586.1	6.14
586.438	6.08
586.777	6.27
587.115	6.18
587.454	6.15
587.792	6.06
588.13	6.31
588.469	6.08
588.807	6.12
589.145	5.76
589.483	6.33
589.821	5.93
590.159	6.26
590.497	6.36
590.835	6.36
591.173	6.27
591.511	6.7
591.849	6.18
592.187	6.43
592.524	6.05
592.862	6.27
593.2	6.51
593.537	6.32
593.875	6.3
594.212	6.34
594.55	6.34
594.887	6.77
595.224	6.33
595.561	6.4
595.899	6.41
596.236	6.32
596.573	6.46
596.91	6.21
597.247	6.41
597.584	6.87
597.921	6.4
598.258	6.49
598.594	6.52
598.931	6.47
599.268	6.66
599.604	6.47
599.941	6.77
600.277	6.61
600.614	6.66
600.95	6.58
601.287	6.7
601.623	6.83
601.959	6.74
602.296	6.94
602.632	7
602.968	6.92
603.304	6.95
603.64	7
603.976	6.72
604.312	6.91
604.648	7.04
604.984	6.92
605.319	6.87
605.655	6.96
605.991	7.1
606.326	6.92
606.662	6.99
606.998	6.86
607.333	6.95
607.668	6.99
608.004	7.21
608.339	7.22
608.674	7.23
609.01	6.95
609.345	6.79
609.68	7.14
610.015	7.23
610.35	7.1
610.685	6.95
611.02	7.15
611.355	7.3
611.689	7.23
612.024	7.39
612.359	7.49
612.694	7.18
613.028	7.31
613.363	7.27
613.697	7.42
614.032	7.67
614.366	7.46
614.7	7.47
615.035	7.55
615.369	7.49
615.703	7.21
616.037	7.73
616.371	7.41
616.705	7.32
617.039	7.73
617.373	7.54
617.707	7.42
618.041	7.58
618.375	7.87
618.709	7.52
619.042	7.66
619.376	7.42
619.71	7.93
620.043	8.2
620.377	7.81
620.71	8.02
621.043	7.8
621.377	7.86
621.71	7.77
622.043	7.64
622.376	7.25
622.709	8.2
623.043	8.19
623.376	8.1
623.709	7.95
624.041	8.51
624.374	8.27
624.707	7.71
625.04	7.91
625.373	7.67
625.705	8.37
626.038	7.87
626.37	8.27
626.703	7.99
627.035	8.17
627.368	8.41
627.7	8.14
628.032	8.28
628.365	8.65
628.697	8.39
629.029	8.2
629.361	8.13
629.693	8.63
630.025	8.17
630.357	8.48
630.689	8.86
631.021	8.49
631.353	8.27
631.684	8.31
632.016	8.36
632.348	8.55
632.679	8.64
633.011	8.44
633.342	8.68
633.674	8.63
634.005	8.89
634.336	8.92
634.668	9.11
634.999	8.44
635.33	8.74
635.661	8.81
635.992	8.81
636.323	8.92
636.654	9.15
636.985	9.11
637.316	8.87
637.647	8.81
637.977	8.75
638.308	8.68
638.639	8.4
638.969	9.02
639.3	8.81
639.63	8.62
639.961	9.03
640.291	9.24
640.622	8.99
640.952	8.79
641.282	9.17
641.612	9.57
641.943	8.89
642.273	9.1
642.603	9.47
642.933	8.95
643.263	9.4
643.592	9.13
643.922	9.05
644.252	9.13
644.582	9.32
644.911	8.83
645.241	9.28
645.571	9.63
645.9	8.72
646.23	9.29
646.559	9.96
646.888	8.67
647.218	9.05
647.547	9.86
647.876	9.5
648.205	9.43
648.534	9.61
648.863	9.3
649.192	9.41
649.521	9.4
649.85	9.26
650.179	9.98
650.508	9.57
650.837	9.41
651.165	9.43
651.494	9.6
651.822	9.82
652.151	9.64
652.479	9.87
652.808	9.33
653.136	10
653.465	9.13
653.793	9.62
654.121	9.9
654.449	10.19
654.777	9.61
655.105	10.25
655.433	9.59
655.761	10.04
656.089	10.61
656.417	10.32
656.745	9.64
657.073	9.92
657.4	10.93
657.728	10.66
658.056	10.33
658.383	10.24
658.711	9.87
659.038	10.17
659.365	10.74
659.693	10.47
660.02	10.13
660.347	9.94
660.674	10.3
661.001	10.36
661.329	9.69
661.656	10.13
661.982	10.13
662.309	10.31
662.636	10.35
662.963	11.01
663.29	10.34
663.616	10.94
663.943	10.42
664.27	10.29
664.596	11.03
664.923	10.81
665.249	10.34
665.576	10.16
665.902	11.64
666.228	10.76
666.554	10.54
666.881	10.75
667.207	11.3
667.533	10.41
667.859	11.17
668.185	10.54
668.511	10.09
668.837	9.74
669.162	10.83
669.488	10.84
669.814	11.3
670.139	11.09
670.465	11.35
670.791	11.1
671.116	11.74
671.442	10.68
671.767	11.72
672.092	11.29
672.418	11.1
672.743	11.24
673.068	11.21
673.393	11.31
673.718	10.92
674.043	11.15
674.368	11.46
674.693	11.96
675.018	11.05
675.343	11.19
675.667	11.44
675.992	11.6
676.317	11.64
676.641	11.77
676.966	12.28
677.29	11.56
677.615	11.64
677.939	11.54
678.264	11.96
678.588	11.53
678.912	12.16
679.236	12.62
679.56	11.33
679.885	12.17
680.209	11.76
680.532	11.6
680.856	12.75
681.18	11.51
681.504	11.91
681.828	12.28
682.152	11.97
682.475	11.52
682.799	11.82
683.122	11.89
683.446	11.27
683.769	12.19
684.093	12.11
684.416	12.37
684.739	11.97
685.062	12.03
685.386	12.73
685.709	11.8
686.032	12.44
686.355	12.05
686.678	11.85
687.001	12.81
687.324	12.46
687.646	12.46
687.969	12.19
688.292	12.36
688.614	11.02
688.937	12.86
689.26	12.65
689.582	13.18
689.904	11.99
690.227	13.33
690.549	12.33
