Data from 0389_forehead_Reflection__0__71.txt Node

Date: Fri Dec 15 16:52:50 CST 2023
User: ToomeyLab
Spectrometer: FLMS14357
Trigger mode: 0
Integration Time (sec): 1.000000E-2
Scans to average: 100
Electric dark correction enabled: true
Nonlinearity correction enabled: false
Boxcar width: 0
XAxis mode: Wavelengths
Number of Pixels in Spectrum: 2048
>>>>>Begin Spectral Data<<<<<
189.047	282.52
189.435	282.52
189.823	282.52
190.211	-4.41
190.599	-139.35
190.987	127.81
191.375	-3094.92
191.763	-22.36
192.151	73.12
192.538	93.05
192.926	20.36
193.314	133.76
193.702	-1438.43
194.089	-202.01
194.477	38.07
194.864	226.62
195.252	96.17
195.639	121.6
196.027	0.51
196.414	121.44
196.801	-6.94
197.189	149.84
197.576	-4396.61
197.963	7.3
198.351	-38.94
198.738	57.7
199.125	13.3
199.512	-3.63
199.899	17.6
200.286	33.43
200.673	32.86
201.06	14.97
201.447	37.59
201.833	33.48
202.22	61.67
202.607	31.36
202.994	3.66
203.38	82.36
203.767	57.57
204.154	50.55
204.54	61.91
204.927	-0.43
205.313	3.93
205.699	26.54
206.086	69.42
206.472	26.1
206.858	45.1
207.245	-17.1
207.631	42.17
208.017	53.63
208.403	9.34
208.789	24.13
209.175	31.23
209.561	-5.7
209.947	7.7
210.333	-4.28
210.719	45.22
211.105	47.73
211.491	1.03
211.876	35.55
212.262	32.23
212.648	12.81
213.034	32.29
213.419	38.8
213.805	33.47
214.19	24.09
214.576	50.95
214.961	-0.76
215.346	-7.91
215.732	18.05
216.117	36.27
216.502	29.69
216.888	28.86
217.273	35.27
217.658	28.47
218.043	26.76
218.428	-29.54
218.813	-8.97
219.198	-7.93
219.583	8.51
219.968	6.31
220.353	12
220.738	31.61
221.122	5.76
221.507	9.48
221.892	-28.03
222.276	-5.45
222.661	8.98
223.046	14.16
223.43	15.54
223.815	20.41
224.199	-1.87
224.583	9.41
224.968	9.37
225.352	13.86
225.736	7.2
226.121	1.41
226.505	14.12
226.889	17.93
227.273	9.64
227.657	6.65
228.041	4.49
228.425	4.2
228.809	9.22
229.193	7.2
229.577	3.26
229.961	5.63
230.344	2.39
230.728	3.96
231.112	4.7
231.495	4.48
231.879	4.24
232.263	6.88
232.646	6.96
233.03	4.33
233.413	3.61
233.797	3.38
234.18	6.35
234.563	9.16
234.946	4.82
235.33	5.7
235.713	5.74
236.096	4.08
236.479	4.69
236.862	3.19
237.245	4.19
237.628	4.27
238.011	4.68
238.394	6.69
238.777	5.54
239.16	3.23
239.543	4.63
239.925	6.77
240.308	6.43
240.691	6.13
241.073	5.77
241.456	4.94
241.838	5.49
242.221	4.85
242.603	5.16
242.986	4.59
243.368	4.57
243.75	4.87
244.133	4.37
244.515	4.27
244.897	4.65
245.279	4.43
245.661	4
246.043	2.91
246.425	2.88
246.807	5.38
247.189	5.61
247.571	5.43
247.953	4.65
248.335	4
248.717	4.18
249.098	3.83
249.48	4.17
249.862	4.2
250.243	3.98
250.625	4.24
251.006	5.64
251.388	4.06
251.769	4.12
252.151	5.32
252.532	5.5
252.913	3.72
253.295	3.91
253.676	4.45
254.057	4.11
254.438	4.72
254.819	3.37
255.2	3.4
255.581	5.32
255.962	5.48
256.343	5.1
256.724	4.49
257.105	4.86
257.486	4.94
257.867	5.16
258.247	4.68
258.628	4.99
259.009	4.45
259.389	4.52
259.77	4.23
260.15	4.28
260.531	3.87
260.911	4.86
261.292	4.15
261.672	4.38
262.052	4.12
262.432	4.48
262.813	4.35
263.193	3.82
263.573	3.93
263.953	4.21
264.333	5.34
264.713	4.38
265.093	4.32
265.473	3.65
265.853	3.81
266.233	4.06
266.612	2.58
266.992	4.33
267.372	4.55
267.752	4.49
268.131	4.18
268.511	4.96
268.89	4.6
269.27	4.39
269.649	3.69
270.029	3.45
270.408	5.18
270.787	4.7
271.167	4.9
271.546	4.53
271.925	3.77
272.304	4.13
272.683	4.65
273.062	3.7
273.441	3.94
273.82	3.87
274.199	3.91
274.578	4.26
274.957	3.68
275.336	4.17
275.715	4.08
276.093	4.06
276.472	4.27
276.851	4.22
277.229	4.01
277.608	3.52
277.986	4.29
278.365	3.84
278.743	3.56
279.122	4.24
279.5	4.41
279.878	4.06
280.257	4.4
280.635	3.75
281.013	4.43
281.391	4.04
281.769	4.45
282.147	4.08
282.525	5.03
282.903	4
283.281	4.5
283.659	4.61
284.037	4.37
284.415	4.32
284.792	4.42
285.17	3.26
285.548	3.97
285.925	4.22
286.303	4.47
286.68	3.81
287.058	3.92
287.435	3.92
287.813	4.36
288.19	3.86
288.567	4.18
288.945	4.25
289.322	4.11
289.699	4.05
290.076	3.94
290.453	4.5
290.83	4.05
291.207	3.85
291.584	4.26
291.961	4.4
292.338	4.41
292.715	4.6
293.092	4.55
293.469	4.68
293.845	4.81
294.222	4.08
294.599	4.54
294.975	4.31
295.352	5.19
295.728	4.21
296.105	4.48
296.481	5.04
296.858	5.08
297.234	4.7
297.61	4.62
297.986	4.98
298.363	4.95
298.739	4.72
299.115	4.74
299.491	4.83
299.867	4.83
300.243	4.93
300.619	4.67
300.995	4.81
301.371	5.69
301.746	4.52
302.122	5.51
302.498	5.61
302.874	5.49
303.249	5.39
303.625	5.66
304	5.69
304.376	5.4
304.751	5.37
305.127	5.84
305.502	5.34
305.878	5.46
306.253	5.76
306.628	6.42
307.003	6.23
307.378	6.62
307.754	5.85
308.129	5.43
308.504	6.41
308.879	6.26
309.254	7.07
309.629	6.62
310.003	6.54
310.378	7.14
310.753	6.99
311.128	7.08
311.502	6.44
311.877	7.18
312.252	6.43
312.626	7.2
313.001	7.03
313.375	7.48
313.75	6.66
314.124	7.74
314.498	7.76
314.873	7.18
315.247	7.69
315.621	7.78
315.995	6.49
316.369	7.15
316.743	7.44
317.117	8.65
317.491	8.07
317.865	7.89
318.239	8.76
318.613	8.83
318.987	8.63
319.361	8.1
319.734	8.94
320.108	9.3
320.482	8.68
320.855	9.36
321.229	9.18
321.602	8.59
321.976	9.61
322.349	8.75
322.723	9.41
323.096	9.43
323.469	9.21
323.843	9.42
324.216	9.95
324.589	9.32
324.962	9.59
325.335	9.6
325.708	9.52
326.081	9.63
326.454	10.11
326.827	10.24
327.2	10.29
327.573	10.79
327.945	10.2
328.318	10.18
328.691	9.94
329.063	10.13
329.436	9.72
329.809	10.03
330.181	10.78
330.553	10.63
330.926	10.99
331.298	10.91
331.671	10.22
332.043	11.45
332.415	11.28
332.787	11.12
333.159	11.36
333.532	10.99
333.904	11.58
334.276	11.32
334.648	11.54
335.02	11.7
335.391	12.11
335.763	11.69
336.135	11.7
336.507	11.37
336.879	11.61
337.25	11.94
337.622	12.15
337.993	11.94
338.365	12.19
338.736	12.41
339.108	12.54
339.479	12.06
339.851	12.45
340.222	12.39
340.593	12.04
340.964	12.6
341.336	13.08
341.707	12.15
342.078	12.68
342.449	12.59
342.82	12.94
343.191	12.97
343.562	12.94
343.933	13.39
344.303	13.08
344.674	13.5
345.045	13.18
345.416	13.56
345.786	12.99
346.157	13.67
346.527	13.49
346.898	13.08
347.268	13.7
347.639	13.8
348.009	13.38
348.38	13.56
348.75	13.79
349.12	13.93
349.49	14.46
349.861	14.04
350.231	14.09
350.601	14.65
350.971	15.2
351.341	14.18
351.711	14.39
352.081	14.51
352.45	14.31
352.82	14.76
353.19	14.72
353.56	14.49
353.929	14.85
354.299	14.82
354.669	14.76
355.038	15.5
355.408	15.06
355.777	14.84
356.147	14.83
356.516	15.41
356.885	15.38
357.254	15.28
357.624	15.9
357.993	15.41
358.362	15.19
358.731	15.43
359.1	15.56
359.469	15.82
359.838	15.98
360.207	15.68
360.576	15.9
360.945	15.69
361.314	16.57
361.682	15.74
362.051	16.31
362.42	16.32
362.788	16.04
363.157	16.76
363.525	16.53
363.894	16.43
364.262	16.67
364.631	16.65
364.999	16.68
365.367	16.36
365.735	17.06
366.104	17.05
366.472	17.35
366.84	16.76
367.208	16.86
367.576	17.31
367.944	17.22
368.312	16.99
368.68	17.49
369.048	17.56
369.416	17.55
369.783	17.16
370.151	17.5
370.519	18.45
370.886	17.95
371.254	17.5
371.621	17.81
371.989	17.92
372.356	17.98
372.724	18.4
373.091	18.02
373.458	18.25
373.826	18.64
374.193	18.35
374.56	18.38
374.927	18.89
375.294	18.48
375.661	18.7
376.028	18.64
376.395	19.12
376.762	18.71
377.129	18.91
377.496	18.82
377.863	19.19
378.229	18.73
378.596	19.33
378.963	19.09
379.329	18.96
379.696	19.49
380.062	19.72
380.429	19.78
380.795	19.48
381.161	19.56
381.528	20.05
381.894	19.72
382.26	19.67
382.626	20.23
382.993	19.56
383.359	20.12
383.725	20.11
384.091	19.99
384.457	20.43
384.823	20.28
385.188	20.51
385.554	20.56
385.92	20.62
386.286	20.89
386.651	20.81
387.017	20.76
387.383	21.4
387.748	20.73
388.114	21.1
388.479	20.71
388.845	21.22
389.21	21.12
389.575	21.07
389.94	21.44
390.306	21.28
390.671	21.4
391.036	21.08
391.401	21.45
391.766	21.69
392.131	21.63
392.496	21.52
392.861	21.67
393.226	22.15
393.591	21.65
393.956	21.99
394.32	21.8
394.685	22
395.05	22.02
395.414	22.07
395.779	21.95
396.143	21.92
396.508	22.04
396.872	22.37
397.236	22.59
397.601	22.27
397.965	22.85
398.329	22.82
398.694	22.57
399.058	23.03
399.422	22.79
399.786	22.73
400.15	22.85
400.514	23.19
400.878	23.14
401.242	23.13
401.605	23.09
401.969	23.19
402.333	23.03
402.697	23.37
403.06	23.42
403.424	23.24
403.787	23.2
404.151	23.73
404.514	23.59
404.878	23.48
405.241	23.56
405.604	23.57
405.968	23.71
406.331	23.63
406.694	23.73
407.057	23.82
407.42	23.93
407.783	23.93
408.146	23.53
408.509	23.93
408.872	23.7
409.235	24.09
409.598	24.38
409.961	24.17
410.323	24.39
410.686	24.24
411.049	24.4
411.411	24.22
411.774	24.11
412.136	24.26
412.499	24.51
412.861	24.68
413.223	24.64
413.586	24.58
413.948	24.77
414.31	24.86
414.672	24.59
415.035	24.76
415.397	25.23
415.759	24.81
416.121	24.94
416.483	25.31
416.845	25.1
417.206	25.26
417.568	25.22
417.93	24.99
418.292	25.08
418.653	25.28
419.015	25.3
419.377	25.19
419.738	25.38
420.1	25.61
420.461	25.56
420.822	25.46
421.184	25.59
421.545	25.55
421.906	25.64
422.267	25.7
422.629	25.58
422.99	25.52
423.351	25.66
423.712	25.86
424.073	25.78
424.434	25.9
424.795	26.02
425.155	26.36
425.516	26.19
425.877	26.21
426.238	26.24
426.598	26.42
426.959	26.42
427.32	26.59
427.68	26.66
428.041	26.78
428.401	27.04
428.761	26.87
429.122	27.3
429.482	27.29
429.842	27.53
430.202	27.55
430.563	27.38
430.923	27.74
431.283	27.77
431.643	27.83
432.003	27.9
432.363	27.9
432.722	28.19
433.082	28.12
433.442	28.29
433.802	28.07
434.161	28.34
434.521	28.51
434.881	28.47
435.24	28.33
435.6	28.43
435.959	28.74
436.319	28.6
436.678	28.77
437.037	28.65
437.396	29.05
437.756	29.01
438.115	28.95
438.474	29.19
438.833	29.08
439.192	29.24
439.551	29.33
439.91	29.28
440.269	29.36
440.628	29.5
440.987	29.53
441.345	29.3
441.704	29.38
442.063	29.47
442.421	29.45
442.78	29.6
443.138	29.53
443.497	29.77
443.855	29.78
444.214	30.1
444.572	30.09
444.93	30.2
445.288	30.22
445.647	30.33
446.005	30.31
446.363	30.5
446.721	30.36
447.079	30.33
447.437	30.3
447.795	30.46
448.153	30.33
448.51	30.39
448.868	30.41
449.226	30.61
449.584	30.57
449.941	30.73
450.299	30.86
450.656	30.89
451.014	30.9
451.371	31.17
451.729	31.32
452.086	31.67
452.443	31.55
452.801	31.75
453.158	31.78
453.515	31.62
453.872	31.72
454.229	31.56
454.586	31.84
454.943	31.86
455.3	32.24
455.657	32.04
456.014	32.14
456.371	32.28
456.727	32.58
457.084	32.55
457.441	32.53
457.797	32.63
458.154	32.58
458.51	32.68
458.867	32.88
459.223	32.8
459.58	32.75
459.936	32.87
460.292	32.99
460.648	32.98
461.005	32.87
461.361	32.74
461.717	32.68
462.073	32.51
462.429	32.76
462.785	33.04
463.141	33.02
463.496	33.18
463.852	33.37
464.208	33.62
464.564	33.5
464.919	33.9
465.275	33.97
465.631	33.96
465.986	34.01
466.342	33.8
466.697	33.74
467.052	33.96
467.408	34.36
467.763	34.39
468.118	34.34
468.473	34.23
468.829	34.34
469.184	34.14
469.539	34.46
469.894	34.39
470.249	34.8
470.603	34.74
470.958	34.89
471.313	34.67
471.668	34.98
472.023	34.92
472.377	34.93
472.732	35.11
473.086	34.97
473.441	34.76
473.795	35.52
474.15	35.36
474.504	35.36
474.859	35.33
475.213	35.26
475.567	35.4
475.921	35.59
476.275	35.53
476.63	35.66
476.984	35.97
477.338	35.78
477.692	35.9
478.045	36
478.399	35.89
478.753	35.74
479.107	35.66
479.461	35.93
479.814	35.97
480.168	36.02
480.521	36.21
480.875	36.1
481.228	35.97
481.582	36.2
481.935	36.17
482.289	36.4
482.642	36.32
482.995	36.08
483.348	36.28
483.701	36.57
484.055	36.21
484.408	36.02
484.761	35.75
485.114	35.62
485.466	35.16
485.819	35.42
486.172	35.4
486.525	35.6
486.878	35.63
487.23	35.85
487.583	36
487.936	36.15
488.288	36.29
488.641	36.24
488.993	36.02
489.345	36
489.698	35.96
490.05	36.15
490.402	36.08
490.754	36.46
491.107	36.74
491.459	36.87
491.811	36.9
492.163	37.16
492.515	37.16
492.866	36.83
493.218	36.99
493.57	36.66
493.922	36.7
494.274	37.08
494.625	37.26
494.977	37.5
495.328	37.73
495.68	37.82
496.031	38.34
496.383	38.17
496.734	38.45
497.086	38.55
497.437	38.3
497.788	38.62
498.139	38.58
498.49	38.49
498.842	38.33
499.193	38.38
499.544	38.4
499.894	38.66
500.245	38.77
500.596	38.7
500.947	38.79
501.298	38.83
501.648	39.01
501.999	39.11
502.35	39.28
502.7	39.15
503.051	39.11
503.401	39.1
503.752	39.43
504.102	39.65
504.452	39.52
504.803	39.62
505.153	39.57
505.503	39.42
505.853	39.7
506.203	39.7
506.553	39.54
506.903	39.75
507.253	39.88
507.603	39.87
507.953	39.98
508.303	40.16
508.652	40.08
509.002	39.98
509.352	40.32
509.701	40.07
510.051	40.05
510.4	39.68
510.75	40.08
511.099	40.04
511.449	40.01
511.798	40.15
512.147	40.17
512.496	40.29
512.846	40.22
513.195	40.1
513.544	40.23
513.893	40.39
514.242	40.39
514.591	40.64
514.939	40.68
515.288	40.95
515.637	40.72
515.986	40.88
516.334	40.61
516.683	40.82
517.032	40.99
517.38	41.08
517.729	41.17
518.077	41.09
518.426	41.38
518.774	41.29
519.122	40.96
519.47	40.84
519.819	40.73
520.167	40.62
520.515	40.74
520.863	40.78
521.211	40.78
521.559	40.94
521.907	41.03
522.255	41.29
522.602	41.26
522.95	41.5
523.298	41.55
523.645	41.94
523.993	41.63
524.341	41.89
524.688	41.7
525.036	41.89
525.383	41.66
525.73	41.77
526.078	42
526.425	41.84
526.772	42.04
527.119	41.69
527.466	41.58
527.814	41.59
528.161	41.46
528.508	41.55
528.854	41.36
529.201	41.63
529.548	41.48
529.895	41.31
530.242	40.98
530.588	41.09
530.935	41.21
531.282	41.16
531.628	41.31
531.975	41.43
532.321	41.66
532.667	41.74
533.014	42.11
533.36	42.13
533.706	42.15
534.052	42.3
534.399	42.23
534.745	42.25
535.091	41.76
535.437	42.04
535.783	42.12
536.129	42.23
536.474	42.49
536.82	42.54
537.166	42.54
537.512	42.8
537.857	42.88
538.203	42.84
538.549	42.72
538.894	42.84
539.239	42.83
539.585	43.03
539.93	43.08
540.276	43.22
540.621	43.35
540.966	43.44
541.311	43.42
541.656	43.42
542.001	43.36
542.346	43.32
542.691	42.99
543.036	42.82
543.381	42.67
543.726	42.72
544.071	43
544.415	43.11
544.76	43.07
545.105	43.23
545.449	43.48
545.794	43.68
546.138	43.62
546.483	43.83
546.827	44.02
547.171	43.93
547.516	43.95
547.86	44.09
548.204	43.99
548.548	44.23
548.892	44.28
549.236	44.11
549.58	43.99
549.924	44.42
550.268	44.61
550.612	44.79
550.956	44.78
551.3	45.01
551.643	45.46
551.987	45.5
552.33	45.21
552.674	45.34
553.017	45.2
553.361	45.26
553.704	45.38
554.048	45.24
554.391	45.04
554.734	45.22
555.077	45.1
555.42	45.27
555.764	45.4
556.107	45.29
556.45	45.56
556.793	45.73
557.135	45.67
557.478	45.8
557.821	46.07
558.164	45.8
558.507	45.66
558.849	45.82
559.192	45.95
559.534	45.97
559.877	46.17
560.219	45.97
560.562	46.19
560.904	46.08
561.246	46.25
561.589	46.37
561.931	46.34
562.273	46.39
562.615	46.27
562.957	46.34
563.299	46.24
563.641	46.61
563.983	46.34
564.325	46.64
564.667	46.61
565.008	46.48
565.35	46.52
565.692	46.41
566.033	46.62
566.375	46.84
566.716	46.81
567.058	46.66
567.399	46.71
567.741	46.65
568.082	46.69
568.423	46.74
568.764	46.43
569.105	46.66
569.447	46.66
569.788	47.16
570.129	46.81
570.47	46.83
570.811	47.09
571.151	47.2
571.492	47.15
571.833	47.02
572.174	47.08
572.514	47.18
572.855	47.01
573.195	47.15
573.536	47.13
573.876	47.17
574.217	46.74
574.557	47.22
574.898	47.47
575.238	47.51
575.578	47.12
575.918	47.29
576.258	47.65
576.598	47.67
576.938	47.48
577.278	47.66
577.618	47.58
577.958	47.6
578.298	47.53
578.638	47.81
578.977	47.63
579.317	47.9
579.657	48.28
579.996	48.29
580.336	48.1
580.675	48.29
581.014	48.45
581.354	48.18
581.693	48.56
582.032	48.92
582.372	48.69
582.711	48.47
583.05	48.67
583.389	48.59
583.728	48.56
584.067	48.67
584.406	49.01
584.745	48.83
585.083	48.74
585.422	48.8
585.761	49.21
586.1	49.11
586.438	48.85
586.777	48.94
587.115	49.24
587.454	49.31
587.792	48.98
588.13	48.99
588.469	49.37
588.807	49.24
589.145	49.46
589.483	49.06
589.821	49.34
590.159	49.43
590.497	49.52
590.835	49.49
591.173	49.05
591.511	49.67
591.849	49.9
592.187	49.45
592.524	49.27
592.862	49.59
593.2	49.99
593.537	49.57
593.875	49.44
594.212	49.8
594.55	49.64
594.887	49.84
595.224	49.81
595.561	49.87
595.899	49.68
596.236	49.96
596.573	50.02
596.91	49.77
597.247	49.73
597.584	50.26
597.921	49.48
598.258	49.8
598.594	49.82
598.931	49.51
599.268	49.66
599.604	49.93
599.941	50.16
600.277	49.97
600.614	50.19
600.95	50.55
601.287	50.46
601.623	49.93
601.959	50.6
602.296	50.67
602.632	50.76
602.968	50.77
603.304	50.59
603.64	50.89
603.976	50.65
604.312	50.6
604.648	50.65
604.984	50.66
605.319	50.2
605.655	50.77
605.991	50.71
606.326	50.41
606.662	50.68
606.998	50.57
607.333	50.74
607.668	50.4
608.004	50.72
608.339	50.82
608.674	50.9
609.01	50.57
609.345	50.59
609.68	51.13
610.015	50.55
610.35	50.8
610.685	51.01
611.02	50.83
611.355	51.31
611.689	51.07
612.024	51.29
612.359	51.24
612.694	51.49
613.028	51.31
613.363	51.49
613.697	51.69
614.032	51.4
614.366	51.35
614.7	51.8
615.035	51.86
615.369	51.39
615.703	51.59
616.037	51.67
616.371	52.09
616.705	52.29
617.039	52.38
617.373	51.97
617.707	51.81
618.041	51.99
618.375	51.95
618.709	52.1
619.042	52.12
619.376	52.4
619.71	52.34
620.043	52.17
620.377	52.4
620.71	52.21
621.043	52.02
621.377	52.03
621.71	52.28
622.043	52.43
622.376	52.37
622.709	52.24
623.043	52.68
623.376	53.18
623.709	52.96
624.041	52.74
624.374	52.27
624.707	52.93
625.04	52.63
625.373	52.98
625.705	52.86
626.038	53.09
626.37	52.98
626.703	52.82
627.035	52.28
627.368	53.1
627.7	52.69
628.032	53.26
628.365	53.13
628.697	52.67
629.029	52.84
629.361	53.16
629.693	52.73
630.025	53.11
630.357	53.41
630.689	52.92
631.021	53.04
631.353	53.22
631.684	53.4
632.016	53.12
632.348	53.63
632.679	53.22
633.011	53.82
633.342	53.33
633.674	53.63
634.005	53.92
634.336	53.97
634.668	53.74
634.999	53.23
635.33	53.35
635.661	53.76
635.992	53.94
636.323	53.91
636.654	53.78
636.985	54.25
637.316	53.33
637.647	53.71
637.977	54.06
638.308	54.25
638.639	54.07
638.969	53.81
639.3	53.8
639.63	54.56
639.961	53.89
640.291	54
640.622	54.54
640.952	54.31
641.282	54.62
641.612	54.47
641.943	54.31
642.273	54.12
642.603	54.38
642.933	54.33
643.263	54.84
643.592	54.46
643.922	54.39
644.252	54.71
644.582	54.06
644.911	54.39
645.241	54.32
645.571	54.73
645.9	54.62
646.23	54.33
646.559	54.71
646.888	54.62
647.218	54.87
647.547	54.3
647.876	54.5
648.205	55.49
648.534	54.02
648.863	54.72
649.192	55.15
649.521	54.78
649.85	54.73
650.179	55.15
650.508	54.93
650.837	55.03
651.165	54.86
651.494	54.71
651.822	55.27
652.151	54.83
652.479	55.33
652.808	54.34
653.136	55.07
653.465	55.13
653.793	54.97
654.121	55.43
654.449	55.37
654.777	55.29
655.105	56.16
655.433	54.63
655.761	55.46
656.089	55.44
656.417	56.06
656.745	55.61
657.073	55.11
657.4	55.43
657.728	55.43
658.056	55.38
658.383	55.12
658.711	55.66
659.038	55.77
659.365	56.53
659.693	55.68
660.02	55.79
660.347	55.62
660.674	55.83
661.001	55.95
661.329	55.6
661.656	55.67
661.982	55.86
662.309	55.93
662.636	55.83
662.963	56.15
663.29	55.9
663.616	56.28
663.943	56.14
664.27	55.91
664.596	56.62
664.923	55.38
665.249	55.78
665.576	56.09
665.902	56.5
666.228	56.77
666.554	56.32
666.881	56.75
667.207	55.82
667.533	55.64
667.859	56.73
668.185	56.21
668.511	55.83
668.837	55.92
669.162	57.23
669.488	56.33
669.814	56.26
670.139	56.79
