Data from 0389_chest_Reflection__4__65.txt Node

Date: Fri Dec 15 16:50:49 CST 2023
User: ToomeyLab
Spectrometer: FLMS14357
Trigger mode: 0
Integration Time (sec): 1.000000E-2
Scans to average: 100
Electric dark correction enabled: true
Nonlinearity correction enabled: false
Boxcar width: 0
XAxis mode: Wavelengths
Number of Pixels in Spectrum: 2048
>>>>>Begin Spectral Data<<<<<
189.047	-278.86
189.435	-278.86
189.823	-278.86
190.211	31.39
190.599	72.1
190.987	91.36
191.375	3347.46
191.763	51.86
192.151	26.42
192.538	110.05
192.926	4.1
193.314	141.65
193.702	-1232.75
194.089	209.53
194.477	-24.48
194.864	903.5
195.252	111.27
195.639	72.23
196.027	491.77
196.414	48.06
196.801	117.04
197.189	10.25
197.576	-5601.69
197.963	64.2
198.351	-28.52
198.738	-80.82
199.125	20.28
199.512	-11.16
199.899	7.54
200.286	66.19
200.673	-23.61
201.06	24.84
201.447	-0.36
201.833	2.52
202.22	19.54
202.607	38.22
202.994	29.52
203.38	47.65
203.767	53.49
204.154	11.58
204.54	60.11
204.927	-33.27
205.313	-4.67
205.699	6.71
206.086	40.86
206.472	25.46
206.858	14.84
207.245	-20.23
207.631	14.9
208.017	15.58
208.403	-13.94
208.789	56.94
209.175	11.3
209.561	-23
209.947	0.63
210.333	-31.02
210.719	37.2
211.105	32.75
211.491	-21.51
211.876	-9.35
212.262	27.13
212.648	18.77
213.034	17.81
213.419	-21.44
213.805	9.63
214.19	-2.96
214.576	7.87
214.961	-9.64
215.346	-19.27
215.732	0.71
216.117	12.08
216.502	-2.26
216.888	-5.09
217.273	22.15
217.658	57.13
218.043	27.75
218.428	-30.12
218.813	-9.02
219.198	-2.29
219.583	9.23
219.968	18.33
220.353	-19.18
220.738	13.28
221.122	5.86
221.507	7
221.892	-11
222.276	-1.81
222.661	-21.27
223.046	17.57
223.43	17.48
223.815	11.68
224.199	-7.63
224.583	6
224.968	2.52
225.352	12.38
225.736	10.78
226.121	-10.06
226.505	7.56
226.889	5.21
227.273	-1.55
227.657	12.06
228.041	6.3
228.425	5.45
228.809	8.52
229.193	7.45
229.577	5.27
229.961	4.05
230.344	5.3
230.728	4.84
231.112	4.28
231.495	4.99
231.879	4.25
232.263	6.67
232.646	4.21
233.03	5.35
233.413	3.05
233.797	5.5
234.18	4.74
234.563	2.78
234.946	5.06
235.33	4.73
235.713	5.03
236.096	4.14
236.479	4.98
236.862	4.53
237.245	5.82
237.628	4.27
238.011	5
238.394	6.69
238.777	5.48
239.16	4.45
239.543	5.6
239.925	6.14
240.308	5.24
240.691	6.6
241.073	4.78
241.456	5.96
241.838	4.94
242.221	4.07
242.603	4.99
242.986	4.43
243.368	5.64
243.75	5.34
244.133	4.76
244.515	4.59
244.897	4.96
245.279	4.43
245.661	4.47
246.043	3.35
246.425	4.69
246.807	5.28
247.189	5.53
247.571	5.04
247.953	4.18
248.335	4.4
248.717	4.49
249.098	4.25
249.48	4.64
249.862	4.05
250.243	4.24
250.625	4.31
251.006	5.06
251.388	3.74
251.769	3.95
252.151	5.27
252.532	4.11
252.913	3.91
253.295	3.58
253.676	4.2
254.057	4.37
254.438	4.31
254.819	4.08
255.2	4.08
255.581	4.31
255.962	3.99
256.343	5.06
256.724	3.61
257.105	5.47
257.486	3.88
257.867	4.04
258.247	3.47
258.628	4.18
259.009	4.68
259.389	4.36
259.77	3.6
260.15	3.54
260.531	4.15
260.911	4.32
261.292	4.24
261.672	4.33
262.052	4.21
262.432	4.24
262.813	4.07
263.193	4.74
263.573	3.92
263.953	3.93
264.333	4.67
264.713	4.3
265.093	3.8
265.473	4.25
265.853	3.9
266.233	4.49
266.612	3.8
266.992	2.75
267.372	3.82
267.752	4.53
268.131	3.58
268.511	4.67
268.89	4.51
269.27	3.95
269.649	4.04
270.029	3.77
270.408	4.48
270.787	4.23
271.167	4.48
271.546	4.65
271.925	3.2
272.304	4.32
272.683	4.24
273.062	3.97
273.441	3.88
273.82	3.56
274.199	3.88
274.578	4.33
274.957	3.91
275.336	3.88
275.715	3.81
276.093	4.31
276.472	4.28
276.851	4.39
277.229	3.46
277.608	3.62
277.986	3.88
278.365	3.88
278.743	3.43
279.122	3.76
279.5	4.28
279.878	4.39
280.257	3.79
280.635	3.63
281.013	4.14
281.391	4.05
281.769	3.5
282.147	4.3
282.525	4.27
282.903	4.54
283.281	3.75
283.659	4.06
284.037	3.65
284.415	3.74
284.792	4.39
285.17	3.31
285.548	3.47
285.925	4.07
286.303	4.16
286.68	3.73
287.058	3.93
287.435	3.58
287.813	4.04
288.19	3.38
288.567	3.54
288.945	4.4
289.322	3.78
289.699	3.74
290.076	3.92
290.453	3.63
290.83	3.73
291.207	3.93
291.584	3.59
291.961	4.27
292.338	3.44
292.715	3.91
293.092	3.93
293.469	3.7
293.845	4.33
294.222	3.47
294.599	3.54
294.975	3.35
295.352	3.86
295.728	3.54
296.105	3.88
296.481	3.78
296.858	4.48
297.234	3.85
297.61	3.88
297.986	3.94
298.363	3.98
298.739	3.85
299.115	3.72
299.491	3.59
299.867	3.77
300.243	3.63
300.619	3.18
300.995	3.42
301.371	3.88
301.746	3.43
302.122	3.93
302.498	3.84
302.874	4.21
303.249	3.64
303.625	3.7
304	4.05
304.376	3.94
304.751	3.58
305.127	4.58
305.502	3.54
305.878	3.42
306.253	3.94
306.628	4.28
307.003	4.13
307.378	4.01
307.754	3.99
308.129	2.55
308.504	3.64
308.879	3.36
309.254	4.48
309.629	4.21
310.003	3.79
310.378	4.16
310.753	4.12
311.128	3.86
311.502	3.83
311.877	4.21
312.252	3.48
312.626	4
313.001	3.79
313.375	4.35
313.75	3.64
314.124	4.07
314.498	3.5
314.873	3.48
315.247	3.88
315.621	3.92
315.995	3.38
316.369	3.8
316.743	3.58
317.117	4.03
317.491	3.91
317.865	3.92
318.239	3.96
318.613	4
318.987	4.36
319.361	3.67
319.734	4.13
320.108	4.75
320.482	3.95
320.855	4.83
321.229	3.94
321.602	3.46
321.976	3.96
322.349	3.77
322.723	3.71
323.096	4.57
323.469	3.53
323.843	3.83
324.216	4.48
324.589	4.31
324.962	3.65
325.335	3.94
325.708	4.02
326.081	3.56
326.454	4.13
326.827	4.22
327.2	4.05
327.573	3.9
327.945	4.28
328.318	3.75
328.691	3.46
329.063	3.81
329.436	3.48
329.809	4.76
330.181	3.32
330.553	3.95
330.926	3.92
331.298	4.15
331.671	3.46
332.043	4.24
332.415	4.33
332.787	3.86
333.159	4.27
333.532	4.2
333.904	3.47
334.276	3.98
334.648	3.87
335.02	3.76
335.391	3.64
335.763	3.61
336.135	3.92
336.507	4.68
336.879	3.71
337.25	4
337.622	3.75
337.993	3.32
338.365	4.3
338.736	4.15
339.108	3.96
339.479	3.9
339.851	3.87
340.222	3.6
340.593	4.31
340.964	3.89
341.336	4.44
341.707	3.56
342.078	3.96
342.449	4.19
342.82	3.59
343.191	3.93
343.562	3.91
343.933	4.04
344.303	4.12
344.674	4.05
345.045	4.16
345.416	4.15
345.786	3.62
346.157	4.01
346.527	3.78
346.898	3.88
347.268	3.99
347.639	4.09
348.009	4.16
348.38	4.2
348.75	4.04
349.12	3.82
349.49	4.49
349.861	4.19
350.231	3.93
350.601	3.7
350.971	3.94
351.341	4.08
351.711	3.87
352.081	4.53
352.45	4.08
352.82	4.06
353.19	4.48
353.56	3.9
353.929	4.12
354.299	3.96
354.669	3.96
355.038	3.89
355.408	3.79
355.777	4.1
356.147	3.6
356.516	3.94
356.885	4.17
357.254	4.02
357.624	4.3
357.993	4.03
358.362	3.8
358.731	3.76
359.1	3.87
359.469	3.91
359.838	4.09
360.207	3.88
360.576	3.69
360.945	4.2
361.314	4.15
361.682	3.8
362.051	3.72
362.42	4.15
362.788	3.84
363.157	4.13
363.525	4.28
363.894	4.17
364.262	3.93
364.631	3.91
364.999	4.02
365.367	3.81
365.735	4.64
366.104	3.87
366.472	4.05
366.84	3.68
367.208	4.24
367.576	4.05
367.944	4.22
368.312	3.9
368.68	3.72
369.048	3.87
369.416	4.16
369.783	4.11
370.151	3.76
370.519	4.28
370.886	4.23
371.254	3.93
371.621	4.11
371.989	4.6
372.356	3.76
372.724	4.12
373.091	4.14
373.458	3.84
373.826	4.13
374.193	4.1
374.56	4.14
374.927	4.33
375.294	4.06
375.661	3.82
376.028	3.73
376.395	4.15
376.762	4.15
377.129	4.01
377.496	4.08
377.863	4.29
378.229	3.83
378.596	4.05
378.963	4.07
379.329	3.7
379.696	4.19
380.062	4.25
380.429	3.79
380.795	3.75
381.161	4.14
381.528	4.2
381.894	3.77
382.26	3.85
382.626	4.12
382.993	3.89
383.359	4.36
383.725	4.16
384.091	3.89
384.457	4.25
384.823	3.96
385.188	4.12
385.554	3.99
385.92	4.3
386.286	4.32
386.651	4.3
387.017	4.52
387.383	4.15
387.748	4.24
388.114	4.22
388.479	4.12
388.845	4.41
389.21	4.39
389.575	4.13
389.94	4.41
390.306	4.28
390.671	4.4
391.036	4
391.401	3.97
391.766	4.32
392.131	4.17
392.496	4.54
392.861	4.12
393.226	4.46
393.591	4.25
393.956	4.09
394.32	4
394.685	4.1
395.05	3.86
395.414	3.85
395.779	4.06
396.143	4.28
396.508	4.26
396.872	4.26
397.236	4.18
397.601	4.07
397.965	4.14
398.329	4.39
398.694	4.38
399.058	4.3
399.422	4.14
399.786	4.28
400.15	4.33
400.514	4.11
400.878	4.23
401.242	4.54
401.605	4.22
401.969	4.28
402.333	4.26
402.697	4.24
403.06	4.44
403.424	4.54
403.787	4.09
404.151	4.03
404.514	4.19
404.878	4.18
405.241	4.2
405.604	4.18
405.968	4.26
406.331	4.28
406.694	4.44
407.057	4.27
407.42	4.48
407.783	4.26
408.146	4.38
408.509	4.33
408.872	4.06
409.235	4.21
409.598	4.73
409.961	4.31
410.323	4.59
410.686	4.52
411.049	4.26
411.411	4.06
411.774	4.18
412.136	4.18
412.499	4.24
412.861	4.19
413.223	4.24
413.586	4.43
413.948	4.26
414.31	4.2
414.672	4.45
415.035	4.27
415.397	4.84
415.759	4.02
416.121	4.27
416.483	4.3
416.845	4.33
417.206	4.18
417.568	4.31
417.93	4.14
418.292	4.28
418.653	4.19
419.015	4.22
419.377	4.21
419.738	4.28
420.1	4.24
420.461	4.37
420.822	4.35
421.184	4.16
421.545	4.12
421.906	4.16
422.267	4.16
422.629	4.19
422.99	4.23
423.351	4.11
423.712	4.26
424.073	4.26
424.434	4.17
424.795	4.25
425.155	4.2
425.516	4.17
425.877	4.22
426.238	4.13
426.598	4.25
426.959	4.16
427.32	4.16
427.68	4.19
428.041	4.16
428.401	4.38
428.761	4.32
429.122	4.35
429.482	4.2
429.842	4.48
430.202	4.2
430.563	4.31
430.923	4.06
431.283	4.58
431.643	4.37
432.003	4.29
432.363	4.33
432.722	4.31
433.082	4.44
433.442	4.2
433.802	4.17
434.161	4.35
434.521	4.36
434.881	4.44
435.24	4.29
435.6	4.26
435.959	4.13
436.319	4.32
436.678	4.32
437.037	4.22
437.396	4.4
437.756	4.3
438.115	4.3
438.474	4.39
438.833	4.23
439.192	4.37
439.551	4.51
439.91	4.32
440.269	4.44
440.628	4.25
440.987	4.42
441.345	4.21
441.704	4.35
442.063	4.3
442.421	4.37
442.78	4.2
443.138	4.27
443.497	4.27
443.855	4.25
444.214	4.42
444.572	4.36
444.93	4.43
445.288	4.47
445.647	4.67
446.005	4.24
446.363	4.37
446.721	4.45
447.079	4.13
447.437	4.27
447.795	4.42
448.153	4.17
448.51	4.3
448.868	4.28
449.226	4.33
449.584	4.31
449.941	4.37
450.299	4.35
450.656	4.37
451.014	4.48
451.371	4.36
451.729	4.33
452.086	4.59
452.443	4.39
452.801	4.38
453.158	4.5
453.515	4.36
453.872	4.57
454.229	4.22
454.586	4.25
454.943	4.34
455.3	4.4
455.657	4.39
456.014	4.41
456.371	4.4
456.727	4.4
457.084	4.37
457.441	4.38
457.797	4.54
458.154	4.56
458.51	4.61
458.867	4.53
459.223	4.59
459.58	4.53
459.936	4.38
460.292	4.46
460.648	4.36
461.005	4.3
461.361	4.45
461.717	4.42
462.073	4.26
462.429	4.34
462.785	4.34
463.141	4.45
463.496	4.42
463.852	4.51
464.208	4.53
464.564	4.63
464.919	4.56
465.275	4.48
465.631	4.68
465.986	4.58
466.342	4.36
466.697	4.29
467.052	4.42
467.408	4.46
467.763	4.39
468.118	4.5
468.473	4.46
468.829	4.51
469.184	4.47
469.539	4.52
469.894	4.36
470.249	4.63
470.603	4.47
470.958	4.58
471.313	4.65
471.668	4.57
472.023	4.59
472.377	4.56
472.732	4.34
473.086	4.38
473.441	4.35
473.795	4.73
474.15	4.77
474.504	4.53
474.859	4.53
475.213	4.31
475.567	4.58
475.921	4.49
476.275	4.34
476.63	4.47
476.984	4.58
477.338	4.51
477.692	4.45
478.045	4.42
478.399	4.75
478.753	4.67
479.107	4.49
479.461	4.46
479.814	4.49
480.168	4.53
480.521	4.52
480.875	4.46
481.228	4.51
481.582	4.55
481.935	4.5
482.289	4.41
482.642	4.52
482.995	4.44
483.348	4.55
483.701	4.42
484.055	4.56
484.408	4.53
484.761	4.36
485.114	4.41
485.466	4.21
485.819	4.27
486.172	4.22
486.525	4.27
486.878	4.32
487.23	4.33
487.583	4.44
487.936	4.41
488.288	4.45
488.641	4.38
488.993	4.35
489.345	4.27
489.698	4.34
490.05	4.3
490.402	4.37
490.754	4.37
491.107	4.44
491.459	4.54
491.811	4.5
492.163	4.56
492.515	4.52
492.866	4.45
493.218	4.48
493.57	4.34
493.922	4.31
494.274	4.53
494.625	4.46
494.977	4.54
495.328	4.6
495.68	4.56
496.031	4.74
496.383	4.59
496.734	4.59
497.086	4.54
497.437	4.53
497.788	4.64
498.139	4.56
498.49	4.66
498.842	4.43
499.193	4.59
499.544	4.6
499.894	4.57
500.245	4.62
500.596	4.51
500.947	4.69
501.298	4.55
501.648	4.65
501.999	4.74
502.35	4.7
502.7	4.63
503.051	4.46
503.401	4.49
503.752	4.69
504.102	4.68
504.452	4.72
504.803	4.6
505.153	4.72
505.503	4.7
505.853	4.71
506.203	4.73
506.553	4.66
506.903	4.66
507.253	4.68
507.603	4.68
507.953	4.69
508.303	4.81
508.652	4.59
509.002	4.76
509.352	4.82
509.701	4.68
510.051	4.65
510.4	4.6
510.75	4.61
511.099	4.62
511.449	4.62
511.798	4.71
512.147	4.74
512.496	4.54
512.846	4.77
513.195	4.7
513.544	4.54
513.893	4.71
514.242	4.71
514.591	4.83
514.939	4.71
515.288	4.69
515.637	4.86
515.986	4.79
516.334	4.73
516.683	4.79
517.032	4.82
517.38	4.81
517.729	4.76
518.077	4.72
518.426	4.84
518.774	5.01
519.122	4.89
519.47	4.75
519.819	4.72
520.167	4.69
520.515	4.76
520.863	4.77
521.211	4.88
521.559	4.78
521.907	4.76
522.255	4.72
522.602	4.78
522.95	4.81
523.298	4.97
523.645	4.96
523.993	4.85
524.341	5.12
524.688	5.06
525.036	4.88
525.383	4.93
525.73	4.89
526.078	4.95
526.425	4.89
526.772	4.88
527.119	4.97
527.466	4.8
527.814	4.8
528.161	4.87
528.508	4.8
528.854	4.84
529.201	4.89
529.548	4.79
529.895	4.8
530.242	4.7
530.588	4.69
530.935	4.75
531.282	4.82
531.628	4.74
531.975	4.83
532.321	4.85
532.667	4.91
533.014	4.98
533.36	4.96
533.706	4.96
534.052	4.94
534.399	4.88
534.745	4.88
535.091	4.86
535.437	4.85
535.783	4.91
536.129	4.93
536.474	4.97
536.82	5.01
537.166	5.07
537.512	5.05
537.857	5.08
538.203	5.11
538.549	5.06
538.894	5
539.239	5.09
539.585	4.99
539.93	5.08
540.276	5.19
540.621	5.23
540.966	5.18
541.311	5.1
541.656	5.15
542.001	5.17
542.346	5.27
542.691	5.09
543.036	5.05
543.381	4.95
543.726	4.98
544.071	5.11
544.415	5.14
544.76	5.09
545.105	5.15
545.449	5.12
545.794	5.24
546.138	5.26
546.483	5.29
546.827	5.31
547.171	5.33
547.516	5.42
547.86	5.22
548.204	5.33
548.548	5.22
548.892	5.45
549.236	5.26
549.58	5.17
549.924	5.29
550.268	5.5
550.612	5.55
550.956	5.59
551.3	5.52
551.643	5.64
551.987	5.71
552.33	5.58
552.674	5.66
553.017	5.54
553.361	5.56
553.704	5.72
554.048	5.53
554.391	5.56
554.734	5.41
555.077	5.81
555.42	5.53
555.764	5.46
556.107	5.5
556.45	5.57
556.793	5.63
557.135	5.76
557.478	5.75
557.821	5.69
558.164	5.6
558.507	5.73
558.849	5.71
559.192	5.67
559.534	5.81
559.877	5.97
560.219	5.72
560.562	5.94
560.904	5.89
561.246	5.9
561.589	5.71
561.931	5.78
562.273	5.65
562.615	5.87
562.957	5.9
563.299	5.7
563.641	5.95
563.983	5.92
564.325	5.93
564.667	5.72
565.008	5.8
565.35	6.07
565.692	5.78
566.033	5.9
566.375	6.01
566.716	6.16
567.058	6.02
567.399	6.13
567.741	5.97
568.082	6.12
568.423	6.08
568.764	6.05
569.105	6.12
569.447	6.2
569.788	6.09
570.129	6.07
570.47	6.13
570.811	6.19
571.151	6.21
571.492	6.08
571.833	6.49
572.174	6.2
572.514	6.42
572.855	6.21
573.195	6.37
573.536	6.41
573.876	6.14
574.217	6.3
574.557	6.36
574.898	6.4
575.238	6.35
575.578	6.32
575.918	6.64
576.258	6.55
576.598	6.37
576.938	6.33
577.278	6.46
577.618	6.53
577.958	6.44
578.298	6.31
578.638	6.53
578.977	6.41
579.317	6.61
579.657	6.63
579.996	6.58
580.336	6.87
580.675	6.33
581.014	6.81
581.354	6.56
581.693	6.87
582.032	6.67
582.372	6.92
582.711	6.81
583.05	6.55
583.389	6.7
583.728	6.56
584.067	6.8
584.406	6.79
584.745	7.09
585.083	6.76
585.422	6.86
585.761	7.09
586.1	7.05
586.438	6.83
586.777	7.37
587.115	7.15
587.454	7.14
587.792	6.88
588.13	7.23
588.469	7
588.807	6.89
589.145	7.2
589.483	7.15
589.821	7.27
590.159	7.46
590.497	7.53
590.835	7.35
591.173	7.14
591.511	7.29
591.849	7.39
592.187	7.32
592.524	7.24
592.862	7.06
593.2	7.47
593.537	7.09
593.875	7.34
594.212	7.28
594.55	7.52
594.887	7.4
595.224	7.16
595.561	7.64
595.899	7.62
596.236	7.41
596.573	7.55
596.91	7.27
597.247	7.39
597.584	7.64
597.921	7.48
598.258	7.48
598.594	7.73
598.931	7.51
599.268	7.63
599.604	7.6
599.941	7.7
600.277	7.67
600.614	7.72
600.95	7.55
601.287	7.9
601.623	7.84
601.959	7.57
602.296	7.69
602.632	7.61
602.968	8.06
603.304	8.25
603.64	7.66
603.976	7.95
604.312	7.97
604.648	7.94
604.984	8.24
605.319	7.88
605.655	8.02
605.991	8.14
606.326	8.08
606.662	8.07
606.998	7.96
607.333	8.11
607.668	8.16
608.004	8.33
608.339	8.34
608.674	8.35
609.01	8.23
609.345	7.99
609.68	8.68
610.015	8.65
610.35	8.09
610.685	8.18
611.02	8.48
611.355	8.52
611.689	8.35
612.024	8.29
612.359	8.27
612.694	8.49
613.028	8.46
613.363	8.9
613.697	8.77
614.032	8.9
614.366	8.85
614.7	8.75
615.035	8.79
615.369	8.71
615.703	8.42
616.037	8.75
616.371	8.85
616.705	8.79
617.039	9.22
617.373	8.8
617.707	8.72
618.041	9.01
618.375	9
618.709	8.62
619.042	8.96
619.376	9.28
619.71	9.18
620.043	9.01
620.377	9.17
620.71	9.31
621.043	8.68
621.377	8.83
621.71	9.35
622.043	8.94
622.376	8.84
622.709	9.37
623.043	9.62
623.376	9.5
623.709	9.46
624.041	9.7
624.374	9.37
624.707	9.25
625.04	9.44
625.373	9.21
625.705	9.38
626.038	9.55
626.37	9.31
626.703	9.33
627.035	9.6
627.368	9.65
627.7	9.46
628.032	9.53
628.365	9.64
628.697	9.56
629.029	9.7
629.361	9.63
629.693	9.82
630.025	9.68
630.357	10.16
630.689	9.84
631.021	9.75
631.353	9.92
631.684	9.72
632.016	10.01
632.348	10.14
632.679	10.03
633.011	10.13
633.342	10.05
633.674	9.96
634.005	10.31
634.336	9.84
634.668	10.71
634.999	9.86
635.33	10
635.661	10.5
635.992	10.35
636.323	10.48
636.654	10.44
636.985	10.17
637.316	10.12
637.647	10.13
637.977	10.43
638.308	10.32
638.639	10.09
638.969	10.19
639.3	10.4
639.63	10.27
639.961	10.61
640.291	10.77
640.622	10.7
640.952	10.1
641.282	10.83
641.612	10.78
641.943	10.46
642.273	10.64
642.603	10.87
642.933	10.63
643.263	11.02
643.592	10.81
643.922	10.75
644.252	10.64
644.582	10.73
644.911	10.92
645.241	11.13
645.571	10.99
645.9	10.64
646.23	10.95
646.559	11.46
646.888	11.01
647.218	11.02
647.547	11.25
647.876	11.24
648.205	11.05
648.534	11.1
648.863	11.34
649.192	11.44
649.521	11.81
649.85	10.95
650.179	11.26
650.508	11.21
650.837	10.89
651.165	11.48
651.494	11.69
651.822	12.07
652.151	10.97
652.479	11.49
652.808	11.02
653.136	11.89
653.465	10.89
653.793	11.21
654.121	11.32
654.449	11.75
654.777	11.85
655.105	12.09
655.433	11.74
655.761	11.75
656.089	11.96
656.417	12.1
656.745	11.58
657.073	11.54
657.4	12.22
657.728	11.79
658.056	11.87
658.383	11.94
658.711	11.91
659.038	12.25
659.365	12.09
659.693	12.06
660.02	12.08
660.347	12.08
660.674	12.71
661.001	12.2
661.329	11.57
661.656	12.38
661.982	12.28
662.309	12.46
662.636	12.49
662.963	12.68
663.29	12.46
663.616	12.66
663.943	12.43
664.27	12.87
664.596	12.8
664.923	12.3
665.249	12.42
665.576	13.14
665.902	13.32
666.228	13.1
666.554	12.88
666.881	12.83
667.207	12.71
667.533	12.81
667.859	13.19
668.185	12.87
668.511	12.19
668.837	12.07
669.162	13.21
669.488	12.59
669.814	13.06
670.139	13.31
670.465	13.23
670.791	13.34
671.116	13.43
671.442	12.68
671.767	13.24
672.092	13.23
672.418	13.36
672.743	13.55
673.068	13.57
673.393	13.63
673.718	12.95
674.043	13.48
674.368	13.26
674.693	14.36
675.018	13.73
675.343	13.31
675.667	12.74
675.992	14.55
676.317	13.52
676.641	13.87
676.966	13.76
677.29	13.66
677.615	13.11
677.939	13.54
678.264	14.92
678.588	13.94
678.912	13.73
679.236	15.07
679.56	13.85
679.885	14.01
680.209	13.73
680.532	13.91
680.856	14.57
681.18	14.08
681.504	14.1
681.828	14.27
682.152	13.94
682.475	14.48
682.799	14.09
683.122	14.16
683.446	13.92
683.769	14.76
684.093	14.21
684.416	14.68
684.739	14.22
685.062	14.48
685.386	14.15
685.709	14.62
686.032	14.43
686.355	14.53
686.678	14.59
687.001	14.44
687.324	15.19
687.646	14.4
687.969	14.16
688.292	14.88
688.614	14.14
