Data from 0389_crown_Reflection__1__67.txt Node

Date: Fri Dec 15 16:51:56 CST 2023
User: ToomeyLab
Spectrometer: FLMS14357
Trigger mode: 0
Integration Time (sec): 1.000000E-2
Scans to average: 100
Electric dark correction enabled: true
Nonlinearity correction enabled: false
Boxcar width: 0
XAxis mode: Wavelengths
Number of Pixels in Spectrum: 2048
>>>>>Begin Spectral Data<<<<<
189.047	69.82
189.435	69.82
189.823	69.82
190.211	-14.17
190.599	-56.49
190.987	68.15
191.375	2191.53
191.763	204.15
192.151	49.16
192.538	107.55
192.926	-52.6
193.314	195.26
193.702	-529.69
194.089	-282.15
194.477	-116.75
194.864	-101.4
195.252	47.32
195.639	48.23
196.027	301.03
196.414	175.92
196.801	28.94
197.189	171.26
197.576	-8384.75
197.963	-265.66
198.351	-45.07
198.738	-8.84
199.125	9.52
199.512	-2.14
199.899	8.93
200.286	-1.6
200.673	9.44
201.06	33.64
201.447	-12.37
201.833	-31.34
202.22	11.15
202.607	3.48
202.994	35.67
203.38	2.54
203.767	24.38
204.154	0.38
204.54	43.31
204.927	-89.32
205.313	-10.46
205.699	9.92
206.086	41.32
206.472	6.21
206.858	-0.92
207.245	-12.92
207.631	1.06
208.017	38.92
208.403	-14.28
208.789	19.65
209.175	17.25
209.561	16.57
209.947	-45.28
210.333	27.9
210.719	13.68
211.105	25.52
211.491	-12.77
211.876	6.25
212.262	12.78
212.648	5.26
213.034	19.88
213.419	-22.17
213.805	29.36
214.19	-13.88
214.576	10.05
214.961	7.54
215.346	-35.14
215.732	-23.14
216.117	13.41
216.502	-22.09
216.888	19.05
217.273	22.55
217.658	-7.25
218.043	1.3
218.428	-26.58
218.813	7.53
219.198	-25.75
219.583	-9.06
219.968	9
220.353	11.39
220.738	8.82
221.122	7.48
221.507	1.93
221.892	-15.48
222.276	-28.98
222.661	-3.16
223.046	9.68
223.43	22.68
223.815	6.79
224.199	-12.06
224.583	4.25
224.968	2.12
225.352	15.01
225.736	1.37
226.121	-0.43
226.505	9.17
226.889	4.09
227.273	-3.23
227.657	10.8
228.041	3.49
228.425	5.33
228.809	8.12
229.193	10.01
229.577	5.26
229.961	6.68
230.344	6.98
230.728	6.87
231.112	6.47
231.495	6.87
231.879	5.53
232.263	6.86
232.646	6.47
233.03	6.27
233.413	6.16
233.797	7.15
234.18	5.98
234.563	6.03
234.946	5.73
235.33	6.54
235.713	5.48
236.096	6.66
236.479	7.15
236.862	4.72
237.245	6.61
237.628	3.67
238.011	6.68
238.394	6.4
238.777	7.11
239.16	5.42
239.543	6.04
239.925	5.78
240.308	7.01
240.691	8.39
241.073	9.28
241.456	6.67
241.838	5.74
242.221	5.63
242.603	6.89
242.986	7.11
243.368	6.59
243.75	6.35
244.133	5.84
244.515	6.01
244.897	6.34
245.279	6.89
245.661	5.25
246.043	5.54
246.425	5.04
246.807	6.91
247.189	6.53
247.571	5.95
247.953	6.03
248.335	6.09
248.717	6.16
249.098	5.89
249.48	6.26
249.862	5.89
250.243	5.83
250.625	6.06
251.006	6.28
251.388	4.71
251.769	4.98
252.151	6.53
252.532	6.12
252.913	5.59
253.295	5.57
253.676	5.37
254.057	5.58
254.438	5.6
254.819	5.26
255.2	5.65
255.581	5.06
255.962	4.42
256.343	6.61
256.724	6.48
257.105	4.88
257.486	4.55
257.867	6.73
258.247	6.61
258.628	5
259.009	5.52
259.389	6.14
259.77	5.71
260.15	5.54
260.531	4.48
260.911	6.21
261.292	5.6
261.672	5.64
262.052	5.47
262.432	5.53
262.813	5.41
263.193	5.45
263.573	4.7
263.953	4.96
264.333	6.61
264.713	4.93
265.093	4.22
265.473	5.32
265.853	4.71
266.233	4.88
266.612	3.33
266.992	5.23
267.372	5.39
267.752	5.37
268.131	5.14
268.511	5.52
268.89	5.84
269.27	5.31
269.649	4.96
270.029	4.56
270.408	6.05
270.787	5.22
271.167	5.53
271.546	5.65
271.925	4.76
272.304	5.13
272.683	5.38
273.062	4.81
273.441	5.03
273.82	4.73
274.199	5.16
274.578	5.19
274.957	5.04
275.336	5.01
275.715	4.98
276.093	5.61
276.472	5.57
276.851	4.31
277.229	4.92
277.608	4.12
277.986	5.2
278.365	5.07
278.743	4.78
279.122	4.83
279.5	5.05
279.878	5.13
280.257	5.33
280.635	4.96
281.013	5.65
281.391	5.24
281.769	5.31
282.147	5.04
282.525	5.57
282.903	4.76
283.281	5.05
283.659	5.51
284.037	5.32
284.415	5.06
284.792	5.31
285.17	4.36
285.548	4.16
285.925	5.03
286.303	4.87
286.68	4.88
287.058	5.01
287.435	4.73
287.813	4.95
288.19	4.93
288.567	4.83
288.945	5.27
289.322	5.23
289.699	4.64
290.076	4.92
290.453	4.87
290.83	5.1
291.207	4.45
291.584	4.97
291.961	5.07
292.338	5.1
292.715	5.25
293.092	4.94
293.469	4.79
293.845	4.83
294.222	4.63
294.599	4.47
294.975	5.03
295.352	4.79
295.728	4.56
296.105	4.25
296.481	4.97
296.858	4.98
297.234	4.7
297.61	4.54
297.986	4.93
298.363	4.93
298.739	4.98
299.115	4.35
299.491	4.55
299.867	4.51
300.243	4.61
300.619	4.57
300.995	4.5
301.371	5.01
301.746	4.89
302.122	4.46
302.498	4
302.874	5.07
303.249	4.33
303.625	4.83
304	4.32
304.376	4.59
304.751	4.05
305.127	5.39
305.502	4.46
305.878	4.03
306.253	4.3
306.628	4.97
307.003	4.36
307.378	4.71
307.754	4.08
308.129	3.83
308.504	4.77
308.879	4.12
309.254	5.3
309.629	4.88
310.003	4.56
310.378	5.07
310.753	5.04
311.128	4.96
311.502	4.88
311.877	5.01
312.252	3.74
312.626	4.55
313.001	4.26
313.375	5
313.75	4.31
314.124	4.62
314.498	4.27
314.873	4.17
315.247	4
315.621	4.57
315.995	3.55
316.369	4.55
316.743	4.24
317.117	4.8
317.491	4.55
317.865	4.57
318.239	4.19
318.613	5.39
318.987	4.34
319.361	4.3
319.734	5
320.108	4.31
320.482	4.06
320.855	4.83
321.229	4.06
321.602	4.42
321.976	5
322.349	4.3
322.723	4.53
323.096	4.56
323.469	4.09
323.843	4.28
324.216	5.1
324.589	4.03
324.962	4.6
325.335	4.13
325.708	4.71
326.081	4.59
326.454	4.56
326.827	4.01
327.2	4.51
327.573	5.01
327.945	4.24
328.318	3.95
328.691	3.89
329.063	4.31
329.436	4.33
329.809	4.68
330.181	4.12
330.553	4.42
330.926	4.48
331.298	4.6
331.671	4.27
332.043	5.12
332.415	4.85
332.787	4.75
333.159	5.21
333.532	4.6
333.904	4.35
334.276	4.08
334.648	4.63
335.02	4.55
335.391	4.69
335.763	4.48
336.135	4.93
336.507	5.1
336.879	4.32
337.25	3.7
337.622	4.48
337.993	4.62
338.365	4.81
338.736	4.8
339.108	4.79
339.479	4.9
339.851	4.71
340.222	4.34
340.593	4.79
340.964	4.52
341.336	5.43
341.707	4.73
342.078	5
342.449	5.07
342.82	4.53
343.191	4.66
343.562	4.91
343.933	4.74
344.303	4.5
344.674	4.97
345.045	4.84
345.416	5.23
345.786	4.34
346.157	4.54
346.527	4.37
346.898	4.28
347.268	4.71
347.639	4.42
348.009	4.69
348.38	4.48
348.75	4.58
349.12	4.78
349.49	5.27
349.861	4.42
350.231	4.32
350.601	4.79
350.971	4.87
351.341	4.56
351.711	4.44
352.081	4.68
352.45	4.3
352.82	4.98
353.19	4.69
353.56	4.69
353.929	4.6
354.299	4.53
354.669	4.33
355.038	4.95
355.408	4.9
355.777	4.71
356.147	4.76
356.516	4.85
356.885	4.54
357.254	4.99
357.624	5.08
357.993	4.94
358.362	4.51
358.731	4.63
359.1	4.57
359.469	4.92
359.838	4.73
360.207	4.54
360.576	4.47
360.945	4.73
361.314	4.98
361.682	4.57
362.051	4.52
362.42	5.12
362.788	4.77
363.157	5
363.525	5.07
363.894	4.76
364.262	4.76
364.631	4.84
364.999	4.93
365.367	4.41
365.735	5.44
366.104	4.73
366.472	4.92
366.84	4.58
367.208	4.94
367.576	4.94
367.944	5.12
368.312	4.78
368.68	4.51
369.048	5.09
369.416	4.9
369.783	4.41
370.151	5.1
370.519	5.34
370.886	4.99
371.254	4.63
371.621	4.96
371.989	5.08
372.356	4.44
372.724	4.92
373.091	4.54
373.458	4.92
373.826	4.96
374.193	4.96
374.56	4.94
374.927	5.06
375.294	4.96
375.661	4.53
376.028	4.9
376.395	4.84
376.762	4.77
377.129	4.8
377.496	4.95
377.863	5.05
378.229	4.5
378.596	5.15
378.963	4.87
379.329	4.85
379.696	5.16
380.062	4.85
380.429	4.98
380.795	5
381.161	5.11
381.528	5.25
381.894	4.8
382.26	4.68
382.626	5.27
382.993	4.78
383.359	5.21
383.725	4.48
384.091	5.09
384.457	5.38
384.823	4.9
385.188	5.04
385.554	4.91
385.92	5.01
386.286	5.09
386.651	5.26
387.017	5.35
387.383	5.32
387.748	4.97
388.114	5.08
388.479	5.06
388.845	5.43
389.21	5.18
389.575	5.21
389.94	4.97
390.306	5.22
390.671	5.36
391.036	4.64
391.401	4.77
391.766	5.12
392.131	5.14
392.496	5.11
392.861	5.01
393.226	4.88
393.591	5.15
393.956	5.05
394.32	5.25
394.685	4.91
395.05	5.02
395.414	5.06
395.779	4.88
396.143	5.19
396.508	5.04
396.872	5.01
397.236	5.18
397.601	4.93
397.965	5.11
398.329	5.31
398.694	5.27
399.058	5.41
399.422	4.96
399.786	5.26
400.15	5.34
400.514	5.14
400.878	5.32
401.242	5.32
401.605	5.17
401.969	5.34
402.333	5.16
402.697	5.37
403.06	5.24
403.424	5.46
403.787	5.2
404.151	5.37
404.514	5.41
404.878	5.33
405.241	5.29
405.604	5.11
405.968	5.3
406.331	5.29
406.694	5.22
407.057	5.25
407.42	5.43
407.783	5.08
408.146	5.36
408.509	4.98
408.872	5.05
409.235	5.31
409.598	5.28
409.961	5.34
410.323	5.47
410.686	5.06
411.049	5.27
411.411	5.18
411.774	5.34
412.136	5.29
412.499	5.28
412.861	5.33
413.223	5.28
413.586	5.38
413.948	5.25
414.31	5.34
414.672	5.05
415.035	5.01
415.397	5.54
415.759	5.12
416.121	5.51
416.483	5.24
416.845	5.21
417.206	5.49
417.568	5.53
417.93	5.25
418.292	5.3
418.653	5.32
419.015	5.26
419.377	5.25
419.738	5.34
420.1	5.31
420.461	5.37
420.822	5.36
421.184	5.28
421.545	5.25
421.906	5.14
422.267	5.29
422.629	5.17
422.99	5.11
423.351	5.12
423.712	5.23
424.073	5.23
424.434	5.24
424.795	5.08
425.155	5.23
425.516	5.09
425.877	5.32
426.238	5.29
426.598	5.28
426.959	5.33
427.32	5.25
427.68	5.24
428.041	5.31
428.401	5.35
428.761	5.38
429.122	5.35
429.482	5.27
429.842	5.44
430.202	5.23
430.563	5.24
430.923	5.41
431.283	5.47
431.643	5.35
432.003	5.47
432.363	5.28
432.722	5.3
433.082	5.45
433.442	5.42
433.802	5.03
434.161	5.31
434.521	5.67
434.881	5.52
435.24	5.28
435.6	5.41
435.959	5.25
436.319	5.23
436.678	5.45
437.037	5.26
437.396	5.53
437.756	5.52
438.115	5.36
438.474	5.59
438.833	5.44
439.192	5.41
439.551	5.46
439.91	5.3
440.269	5.45
440.628	5.34
440.987	5.49
441.345	5.37
441.704	5.37
442.063	5.24
442.421	5.46
442.78	5.22
443.138	5.36
443.497	5.38
443.855	5.41
444.214	5.44
444.572	5.53
444.93	5.51
445.288	5.34
445.647	5.55
446.005	5.35
446.363	5.5
446.721	5.46
447.079	5.21
447.437	5.32
447.795	5.46
448.153	5.28
448.51	5.39
448.868	5.38
449.226	5.4
449.584	5.28
449.941	5.5
450.299	5.39
450.656	5.34
451.014	5.34
451.371	5.35
451.729	5.34
452.086	5.52
452.443	5.29
452.801	5.57
453.158	5.47
453.515	5.33
453.872	5.43
454.229	5.4
454.586	5.36
454.943	5.37
455.3	5.55
455.657	5.43
456.014	5.27
456.371	5.45
456.727	5.35
457.084	5.61
457.441	5.42
457.797	5.56
458.154	5.56
458.51	5.55
458.867	5.46
459.223	5.53
459.58	5.51
459.936	5.46
460.292	5.45
460.648	5.54
461.005	5.37
461.361	5.39
461.717	5.41
462.073	5.29
462.429	5.31
462.785	5.42
463.141	5.41
463.496	5.4
463.852	5.51
464.208	5.38
464.564	5.52
464.919	5.57
465.275	5.5
465.631	5.45
465.986	5.49
466.342	5.5
466.697	5.44
467.052	5.49
467.408	5.72
467.763	5.44
468.118	5.46
468.473	5.36
468.829	5.4
469.184	5.37
469.539	5.62
469.894	5.34
470.249	5.52
470.603	5.54
470.958	5.48
471.313	5.55
471.668	5.58
472.023	5.46
472.377	5.37
472.732	5.39
473.086	5.32
473.441	5.27
473.795	5.67
474.15	5.61
474.504	5.15
474.859	5.51
475.213	5.22
475.567	5.38
475.921	5.54
476.275	5.5
476.63	5.54
476.984	5.61
477.338	5.64
477.692	5.42
478.045	5.52
478.399	5.54
478.753	5.5
479.107	5.38
479.461	5.45
479.814	5.42
480.168	5.43
480.521	5.58
480.875	5.52
481.228	5.41
481.582	5.38
481.935	5.41
482.289	5.45
482.642	5.43
482.995	5.39
483.348	5.27
483.701	5.44
484.055	5.43
484.408	5.34
484.761	5.3
485.114	5.27
485.466	5.15
485.819	5.16
486.172	5.14
486.525	5.16
486.878	5.25
487.23	5.24
487.583	5.33
487.936	5.34
488.288	5.32
488.641	5.34
488.993	5.19
489.345	5.19
489.698	5.18
490.05	5.18
490.402	5.27
490.754	5.34
491.107	5.3
491.459	5.35
491.811	5.44
492.163	5.38
492.515	5.38
492.866	5.39
493.218	5.36
493.57	5.29
493.922	5.23
494.274	5.36
494.625	5.4
494.977	5.4
495.328	5.52
495.68	5.53
496.031	5.49
496.383	5.36
496.734	5.64
497.086	5.64
497.437	5.42
497.788	5.5
498.139	5.4
498.49	5.48
498.842	5.32
499.193	5.37
499.544	5.48
499.894	5.4
500.245	5.48
500.596	5.39
500.947	5.42
501.298	5.42
501.648	5.52
501.999	5.66
502.35	5.54
502.7	5.47
503.051	5.32
503.401	5.42
503.752	5.64
504.102	5.5
504.452	5.49
504.803	5.35
505.153	5.5
505.503	5.52
505.853	5.42
506.203	5.33
506.553	5.4
506.903	5.5
507.253	5.37
507.603	5.62
507.953	5.59
508.303	5.61
508.652	5.46
509.002	5.48
509.352	5.64
509.701	5.49
510.051	5.48
510.4	5.46
510.75	5.46
511.099	5.53
511.449	5.37
511.798	5.48
512.147	5.38
512.496	5.51
512.846	5.46
513.195	5.43
513.544	5.49
513.893	5.51
514.242	5.55
514.591	5.62
514.939	5.51
515.288	5.36
515.637	5.59
515.986	5.58
516.334	5.54
516.683	5.51
517.032	5.3
517.38	5.59
517.729	5.54
518.077	5.4
518.426	5.57
518.774	5.63
519.122	5.5
519.47	5.49
519.819	5.43
520.167	5.49
520.515	5.38
520.863	5.41
521.211	5.44
521.559	5.47
521.907	5.4
522.255	5.43
522.602	5.45
522.95	5.53
523.298	5.46
523.645	5.5
523.993	5.46
524.341	5.52
524.688	5.5
525.036	5.41
525.383	5.53
525.73	5.57
526.078	5.49
526.425	5.36
526.772	5.48
527.119	5.45
527.466	5.32
527.814	5.43
528.161	5.43
528.508	5.46
528.854	5.39
529.201	5.38
529.548	5.38
529.895	5.3
530.242	5.22
530.588	5.23
530.935	5.23
531.282	5.25
531.628	5.19
531.975	5.27
532.321	5.33
532.667	5.43
533.014	5.48
533.36	5.49
533.706	5.39
534.052	5.42
534.399	5.37
534.745	5.37
535.091	5.33
535.437	5.31
535.783	5.4
536.129	5.39
536.474	5.36
536.82	5.42
537.166	5.48
537.512	5.58
537.857	5.48
538.203	5.45
538.549	5.32
538.894	5.42
539.239	5.46
539.585	5.39
539.93	5.33
540.276	5.55
540.621	5.55
540.966	5.49
541.311	5.45
541.656	5.45
542.001	5.41
542.346	5.62
542.691	5.31
543.036	5.32
543.381	5.26
543.726	5.24
544.071	5.38
544.415	5.35
544.76	5.26
545.105	5.43
545.449	5.54
545.794	5.47
546.138	5.38
546.483	5.45
546.827	5.57
547.171	5.4
547.516	5.59
547.86	5.44
548.204	5.38
548.548	5.36
548.892	5.52
549.236	5.43
549.58	5.43
549.924	5.5
550.268	5.58
550.612	5.46
550.956	5.76
551.3	5.48
551.643	5.74
551.987	5.62
552.33	5.53
552.674	5.71
553.017	5.44
553.361	5.45
553.704	5.7
554.048	5.52
554.391	5.46
554.734	5.55
555.077	5.45
555.42	5.27
555.764	5.53
556.107	5.33
556.45	5.31
556.793	5.37
557.135	5.51
557.478	5.74
557.821	5.5
558.164	5.47
558.507	5.48
558.849	5.34
559.192	5.66
559.534	5.68
559.877	5.52
560.219	5.25
560.562	5.64
560.904	5.69
561.246	5.58
561.589	5.46
561.931	5.45
562.273	5.29
562.615	5.54
562.957	5.46
563.299	5.42
563.641	5.6
563.983	5.34
564.325	5.37
564.667	5.39
565.008	5.41
565.35	5.54
565.692	5.14
566.033	5.52
566.375	5.54
566.716	5.74
567.058	5.31
567.399	5.42
567.741	5.15
568.082	5.44
568.423	5.34
568.764	5.31
569.105	5.56
569.447	5.51
569.788	5.5
570.129	5.47
570.47	5.58
570.811	5.45
571.151	5.49
571.492	5.49
571.833	5.57
572.174	5.6
572.514	5.6
572.855	5.35
573.195	5.5
573.536	5.52
573.876	5.33
574.217	5.26
574.557	5.43
574.898	5.5
575.238	5.5
575.578	5.39
575.918	5.62
576.258	5.51
576.598	5.59
576.938	5.56
577.278	5.31
577.618	5.23
577.958	5.42
578.298	5.37
578.638	5.28
578.977	5.5
579.317	5.25
579.657	5.46
579.996	5.31
580.336	5.57
580.675	5.58
581.014	5.38
581.354	5.49
581.693	5.57
582.032	5.31
582.372	5.33
582.711	5.44
583.05	5.23
583.389	5.43
583.728	5.18
584.067	5.54
584.406	5.46
584.745	5.44
585.083	5.47
585.422	5.37
585.761	5.66
586.1	5.33
586.438	5.32
586.777	5.29
587.115	5.37
587.454	5.56
587.792	5.39
588.13	5.32
588.469	5.31
588.807	5.46
589.145	5.28
589.483	5.25
589.821	5.55
590.159	5.41
590.497	5.57
590.835	5.61
591.173	5.39
591.511	5.59
591.849	5.42
592.187	5.5
592.524	5.49
592.862	5.31
593.2	5.55
593.537	5.26
593.875	5.26
594.212	5.08
594.55	5.46
594.887	5.6
595.224	5.26
595.561	5.33
595.899	5.47
596.236	5.34
596.573	5.45
596.91	4.96
597.247	5.33
597.584	5.74
597.921	5.32
598.258	5.08
598.594	5.46
598.931	5.33
599.268	5.48
599.604	5.25
599.941	5.46
600.277	5.26
600.614	5.14
600.95	5.09
601.287	5.32
601.623	5.25
601.959	5.07
602.296	5.53
602.632	5.54
602.968	5.48
603.304	5.08
603.64	5.15
603.976	5.12
604.312	5.19
604.648	5.26
604.984	5.46
605.319	5.48
605.655	5.3
605.991	5.2
606.326	5.21
606.662	5.4
606.998	5.02
607.333	5.27
607.668	5.27
608.004	5.49
608.339	5.38
608.674	5.4
609.01	5.23
609.345	5.11
609.68	5.42
610.015	5.41
610.35	5.3
610.685	5.23
611.02	5.31
611.355	5.43
611.689	5.15
612.024	5.42
612.359	5.35
612.694	5.32
613.028	5.31
613.363	5.4
613.697	5.42
614.032	5.45
614.366	5.31
614.7	5.29
615.035	5.33
615.369	5.09
615.703	5.41
616.037	5.36
616.371	4.9
616.705	5.3
617.039	5.35
617.373	5.05
617.707	4.97
618.041	5.3
618.375	5.47
618.709	5.3
619.042	5.23
619.376	5.7
619.71	5.54
620.043	5.26
620.377	5.27
620.71	5.46
621.043	5.16
621.377	5.02
621.71	4.92
622.043	4.86
622.376	4.93
622.709	5.38
623.043	5.05
623.376	5.15
623.709	5.08
624.041	5.59
624.374	5.26
624.707	5.22
625.04	5.02
625.373	4.93
625.705	5.44
626.038	5.3
626.37	5.03
626.703	5.04
627.035	5.1
627.368	5.24
627.7	5.17
628.032	5.17
628.365	5.41
628.697	5.3
629.029	4.94
629.361	5.15
629.693	5.48
630.025	5.14
630.357	5.39
630.689	5.27
631.021	5.05
631.353	5.32
631.684	5.06
632.016	5.04
632.348	5.4
632.679	5.5
633.011	5.41
633.342	5.75
633.674	5.32
634.005	5.74
634.336	5.21
634.668	5.54
634.999	5.4
635.33	4.91
635.661	5.52
635.992	5.28
636.323	5.08
636.654	5.28
636.985	5.2
637.316	5.14
637.647	5.38
637.977	5.08
638.308	5.14
638.639	4.73
638.969	5.11
639.3	4.85
639.63	5.19
639.961	5.52
640.291	5.05
640.622	5.27
640.952	5.2
641.282	5.73
641.612	5.04
641.943	5.1
642.273	5.35
642.603	5.64
642.933	5.39
643.263	5.54
643.592	4.85
643.922	5.04
644.252	5.03
644.582	5.6
644.911	5.12
645.241	5.51
645.571	5.16
645.9	4.88
646.23	5.02
646.559	5.55
646.888	5.22
647.218	4.85
647.547	5.95
647.876	4.94
648.205	5.01
648.534	4.89
648.863	4.89
649.192	5.42
649.521	5.03
649.85	5.05
650.179	5.25
650.508	5.3
650.837	5.34
651.165	4.98
651.494	5.4
651.822	4.99
652.151	4.89
652.479	5.32
652.808	4.91
653.136	5.33
653.465	4.94
653.793	4.72
654.121	5.1
654.449	5.38
654.777	5.18
655.105	5.13
655.433	5.07
655.761	5.57
656.089	5.17
656.417	5.51
656.745	5.22
657.073	5.28
657.4	5.91
657.728	5.24
658.056	4.96
658.383	5.35
658.711	5.36
659.038	5.01
659.365	5.33
659.693	5.11
660.02	4.93
660.347	5.8
660.674	5.15
661.001	5.37
661.329	4.56
661.656	5.13
661.982	5.51
662.309	4.88
662.636	4.99
662.963	5.66
663.29	5.22
663.616	5.24
663.943	5.3
664.27	4.95
664.596	5.79
664.923	4.94
665.249	5.28
665.576	4.94
665.902	5.89
666.228	5.62
666.554	5.2
666.881	4.55
667.207	4.75
667.533	5.21
667.859	5.67
668.185	5.36
668.511	4.78
668.837	4.07
669.162	5.52
669.488	4.57
669.814	5.18
670.139	5.56
670.465	5.27
670.791	5.71
671.116	5.57
671.442	4.73
671.767	5.29
672.092	5.2
672.418	5.6
672.743	5.62
673.068	4.77
673.393	5.27
673.718	4.71
674.043	4.89
674.368	5.31
674.693	6
675.018	5.27
675.343	4.65
675.667	5.06
675.992	5.57
676.317	5.38
676.641	5.21
676.966	5.68
677.29	4.83
677.615	5.48
677.939	6.03
678.264	5.86
678.588	5.41
678.912	5.14
679.236	6.36
679.56	4.79
679.885	5.35
680.209	5.66
680.532	5.53
680.856	5.74
681.18	5.02
681.504	5.2
681.828	5.96
682.152	4.96
682.475	5.38
682.799	5.46
683.122	5.7
683.446	4.61
683.769	5.91
684.093	5.22
684.416	5.82
684.739	5.6
685.062	4.95
685.386	5.2
685.709	4.48
686.032	5.56
686.355	5.95
686.678	5.21
687.001	5.71
687.324	5.94
687.646	4.55
687.969	5.32
688.292	4.96
688.614	5.48
688.937	5.56
689.26	5.26
689.582	5.86
689.904	5.04
690.227	5.53
690.549	5.4
690.871	5.83
691.194	4.81
691.516	5.35
691.838	5.1
692.16	5.03
692.482	5.36
