Data from 0389_crown_Reflection__4__70.txt Node

Date: Fri Dec 15 16:52:21 CST 2023
User: ToomeyLab
Spectrometer: FLMS14357
Trigger mode: 0
Integration Time (sec): 1.000000E-2
Scans to average: 100
Electric dark correction enabled: true
Nonlinearity correction enabled: false
Boxcar width: 0
XAxis mode: Wavelengths
Number of Pixels in Spectrum: 2048
>>>>>Begin Spectral Data<<<<<
189.047	-204.09
189.435	-204.09
189.823	-204.09
190.211	55.64
190.599	7.81
190.987	79.9
191.375	6308.47
191.763	-36.42
192.151	52.09
192.538	57.72
192.926	56.21
193.314	203.26
193.702	-1541.48
194.089	347.24
194.477	-16.7
194.864	251.14
195.252	85.93
195.639	63.09
196.027	244.22
196.414	54.24
196.801	219.5
197.189	122.38
197.576	450.85
197.963	78.45
198.351	-2.54
198.738	68.29
199.125	43.58
199.512	-4.91
199.899	15.63
200.286	64.81
200.673	2.77
201.06	8.55
201.447	19.39
201.833	27.25
202.22	27.51
202.607	24.7
202.994	22.03
203.38	44.85
203.767	36.19
204.154	5.68
204.54	68.29
204.927	-40.96
205.313	16.69
205.699	24.22
206.086	52.13
206.472	34.55
206.858	51.31
207.245	22.01
207.631	47.07
208.017	19.33
208.403	3.65
208.789	16.16
209.175	36.93
209.561	-17.7
209.947	18.32
210.333	-33.83
210.719	44.07
211.105	37.01
211.491	-12.56
211.876	59.88
212.262	11.27
212.648	0.6
213.034	19.73
213.419	-27.92
213.805	12.39
214.19	14.54
214.576	3.99
214.961	22.31
215.346	-35.28
215.732	12.29
216.117	21.45
216.502	18.22
216.888	22.63
217.273	48.32
217.658	-2.49
218.043	17.62
218.428	0.24
218.813	-15.47
219.198	7.63
219.583	43.61
219.968	-10.25
220.353	-6.29
220.738	24.21
221.122	16.96
221.507	7.81
221.892	6.56
222.276	-1.95
222.661	15.09
223.046	12.69
223.43	21.08
223.815	6.04
224.199	1.12
224.583	2.85
224.968	5.74
225.352	15.74
225.736	11.06
226.121	5.92
226.505	6.16
226.889	9.51
227.273	6.31
227.657	12.66
228.041	7.22
228.425	7.94
228.809	6.68
229.193	8.37
229.577	6.34
229.961	6.64
230.344	7.44
230.728	5.89
231.112	6.88
231.495	6.99
231.879	6.56
232.263	7.29
232.646	8.35
233.03	7.58
233.413	6.68
233.797	6.83
234.18	7.63
234.563	9.12
234.946	6.66
235.33	8.27
235.713	7.47
236.096	5.83
236.479	7.23
236.862	6.65
237.245	8.32
237.628	7.24
238.011	8.26
238.394	7.45
238.777	5.62
239.16	6.04
239.543	8.03
239.925	9.03
240.308	6.92
240.691	8.79
241.073	7.8
241.456	6.9
241.838	6
242.221	4.73
242.603	8.44
242.986	7.12
243.368	6.42
243.75	6.52
244.133	5.55
244.515	6.57
244.897	6.22
245.279	7.05
245.661	5.71
246.043	5.24
246.425	4.63
246.807	6.69
247.189	6.49
247.571	6.52
247.953	5.97
248.335	5.98
248.717	5.86
249.098	5.76
249.48	5.81
249.862	5.86
250.243	5.9
250.625	5.89
251.006	5.95
251.388	5.28
251.769	6.09
252.151	6.79
252.532	6.26
252.913	5.62
253.295	5.38
253.676	5.75
254.057	5.74
254.438	5.61
254.819	5.46
255.2	6.3
255.581	6.18
255.962	5.36
256.343	5.76
256.724	4.42
257.105	5.48
257.486	5.61
257.867	5.85
258.247	5.38
258.628	4.77
259.009	5.58
259.389	5.63
259.77	5.46
260.15	4.73
260.531	5.06
260.911	5.56
261.292	5.72
261.672	5.54
262.052	5.44
262.432	5.65
262.813	5.62
263.193	5.55
263.573	5.46
263.953	5.07
264.333	6.52
264.713	5.51
265.093	5.22
265.473	4.98
265.853	5.23
266.233	5.12
266.612	4.13
266.992	5.32
267.372	5.53
267.752	5.39
268.131	5.84
268.511	5.75
268.89	5.73
269.27	4.92
269.649	5.36
270.029	4.91
270.408	6.22
270.787	5.76
271.167	6.16
271.546	5.12
271.925	4.9
272.304	4.85
272.683	5.11
273.062	5.01
273.441	5.1
273.82	5.06
274.199	5.14
274.578	5.51
274.957	5.27
275.336	5.12
275.715	4.57
276.093	5.32
276.472	5.33
276.851	5.26
277.229	4.97
277.608	4.7
277.986	5.3
278.365	5.51
278.743	4.97
279.122	5.17
279.5	5.04
279.878	5.57
280.257	5.07
280.635	4.14
281.013	4.7
281.391	5.81
281.769	5.05
282.147	5.71
282.525	5.81
282.903	5.41
283.281	5.43
283.659	4.81
284.037	5.47
284.415	5.04
284.792	5.27
285.17	4.56
285.548	5.16
285.925	4.9
286.303	5.08
286.68	4.79
287.058	4.79
287.435	4.8
287.813	5.03
288.19	5.02
288.567	4.96
288.945	5.04
289.322	4.91
289.699	4.97
290.076	4.79
290.453	4.62
290.83	5.07
291.207	4.91
291.584	5.19
291.961	5
292.338	4.84
292.715	5.4
293.092	4.78
293.469	5.23
293.845	5.06
294.222	4.94
294.599	5.05
294.975	4.6
295.352	5.34
295.728	4.97
296.105	5.32
296.481	4.51
296.858	4.69
297.234	4.94
297.61	4.43
297.986	4.59
298.363	5
298.739	4.72
299.115	4.66
299.491	4.66
299.867	4.53
300.243	5.05
300.619	4.67
300.995	4.79
301.371	4.64
301.746	4.75
302.122	4.63
302.498	4.81
302.874	4.97
303.249	4.74
303.625	5.2
304	5.65
304.376	4.54
304.751	4.23
305.127	5.43
305.502	4.56
305.878	4.1
306.253	4.63
306.628	5.06
307.003	4.74
307.378	4.73
307.754	4.5
308.129	4.52
308.504	4.54
308.879	3.8
309.254	5.14
309.629	4.85
310.003	4.33
310.378	4.83
310.753	4.75
311.128	4.91
311.502	4.65
311.877	4.5
312.252	4.12
312.626	4.59
313.001	4.6
313.375	4.9
313.75	4.15
314.124	4.77
314.498	4.17
314.873	4.47
315.247	4.85
315.621	4.4
315.995	4.09
316.369	4.77
316.743	4.11
317.117	4.83
317.491	4.56
317.865	4.21
318.239	4.72
318.613	4.67
318.987	4.81
319.361	4.15
319.734	5.2
320.108	4.81
320.482	4.5
320.855	4.59
321.229	4.09
321.602	4.22
321.976	4.91
322.349	4.61
322.723	4.66
323.096	4.92
323.469	4.09
323.843	4.31
324.216	4.84
324.589	3.96
324.962	4.62
325.335	4.41
325.708	4.52
326.081	4.34
326.454	4.81
326.827	4.28
327.2	4.44
327.573	5.2
327.945	4.86
328.318	4.22
328.691	4.04
329.063	4.65
329.436	4.74
329.809	4.85
330.181	4.59
330.553	4.37
330.926	4.38
331.298	4.52
331.671	4.32
332.043	4.87
332.415	4.57
332.787	4.12
333.159	5.12
333.532	3.96
333.904	4.45
334.276	4.31
334.648	4.4
335.02	4.88
335.391	4.25
335.763	3.88
336.135	4.32
336.507	4.68
336.879	4.36
337.25	4
337.622	4.28
337.993	4.65
338.365	5.04
338.736	4.62
339.108	4.44
339.479	4.52
339.851	4.35
340.222	4.44
340.593	4.59
340.964	4.67
341.336	4.93
341.707	4.07
342.078	5.04
342.449	4.79
342.82	4.35
343.191	4.79
343.562	4.52
343.933	4.73
344.303	4.63
344.674	4.75
345.045	4.57
345.416	5
345.786	4.07
346.157	4.26
346.527	3.72
346.898	4.1
347.268	4.69
347.639	4.56
348.009	4.57
348.38	4.33
348.75	4.68
349.12	4.4
349.49	4.84
349.861	4.49
350.231	4.59
350.601	4.88
350.971	4.41
351.341	4.54
351.711	4.51
352.081	4.86
352.45	4.32
352.82	4.88
353.19	4.56
353.56	4.72
353.929	4.39
354.299	4.71
354.669	4.55
355.038	4.92
355.408	4.36
355.777	4.58
356.147	4.21
356.516	4.71
356.885	4.83
357.254	4.58
357.624	5.03
357.993	4.64
358.362	4.03
358.731	4.1
359.1	4.36
359.469	4.68
359.838	4.94
360.207	4.69
360.576	4.19
360.945	4.48
361.314	5.01
361.682	4.47
362.051	4.72
362.42	4.29
362.788	4.44
363.157	4.92
363.525	4.63
363.894	4.68
364.262	4.58
364.631	4.79
364.999	4.59
365.367	4.37
365.735	5.42
366.104	4.72
366.472	4.78
366.84	4.42
367.208	4.68
367.576	4.84
367.944	5.1
368.312	4.82
368.68	4.25
369.048	4.74
369.416	4.54
369.783	4.65
370.151	4.68
370.519	5.37
370.886	4.92
371.254	4.59
371.621	4.54
371.989	5
372.356	4.38
372.724	4.98
373.091	4.77
373.458	4.66
373.826	4.9
374.193	4.76
374.56	5.12
374.927	4.85
375.294	4.83
375.661	4.81
376.028	4.65
376.395	4.73
376.762	5.04
377.129	4.82
377.496	4.64
377.863	4.89
378.229	4.27
378.596	4.95
378.963	4.88
379.329	4.5
379.696	5.29
380.062	4.96
380.429	4.67
380.795	4.42
381.161	4.72
381.528	5.2
381.894	4.91
382.26	4.46
382.626	5.05
382.993	4.29
383.359	5.13
383.725	4.62
384.091	4.85
384.457	5.13
384.823	4.52
385.188	5.07
385.554	4.81
385.92	5.16
386.286	5.08
386.651	5.12
387.017	5.06
387.383	4.92
387.748	4.56
388.114	5.03
388.479	4.73
388.845	5.34
389.21	5.06
389.575	4.85
389.94	5.34
390.306	4.84
390.671	5.02
391.036	4.93
391.401	4.85
391.766	5.02
392.131	4.65
392.496	5.21
392.861	4.78
393.226	5.15
393.591	5.05
393.956	4.91
394.32	5.01
394.685	4.63
395.05	4.72
395.414	5
395.779	5.02
396.143	4.96
396.508	4.9
396.872	5.16
397.236	4.84
397.601	4.87
397.965	5.09
398.329	5.19
398.694	5.13
399.058	5.23
399.422	4.51
399.786	5.22
400.15	4.84
400.514	5.11
400.878	5.27
401.242	5.12
401.605	5.07
401.969	5.03
402.333	4.98
402.697	5.04
403.06	5.13
403.424	5.09
403.787	4.81
404.151	5.38
404.514	5.2
404.878	4.98
405.241	5.28
405.604	5.1
405.968	5.28
406.331	4.89
406.694	5.06
407.057	5.06
407.42	5.06
407.783	5.09
408.146	5.15
408.509	5.03
408.872	5.11
409.235	5
409.598	5.25
409.961	5.05
410.323	5.05
410.686	5.18
411.049	4.96
411.411	5.21
411.774	5.35
412.136	5.1
412.499	5
412.861	4.86
413.223	5.01
413.586	5.17
413.948	5.26
414.31	5.23
414.672	4.95
415.035	4.99
415.397	5.15
415.759	4.83
416.121	5.24
416.483	5.1
416.845	5.17
417.206	4.81
417.568	5.37
417.93	5.15
418.292	5.03
418.653	5.13
419.015	5.14
419.377	5.07
419.738	5.19
420.1	5.06
420.461	5.21
420.822	5.09
421.184	5.04
421.545	5.05
421.906	5.05
422.267	5.04
422.629	5.11
422.99	5.03
423.351	5.03
423.712	5.13
424.073	5.07
424.434	5.02
424.795	5.08
425.155	5.06
425.516	5.06
425.877	5.02
426.238	4.99
426.598	5.02
426.959	5.02
427.32	4.96
427.68	4.94
428.041	5.06
428.401	5.12
428.761	5.04
429.122	5.21
429.482	5.08
429.842	5.25
430.202	5.07
430.563	5.18
430.923	5.09
431.283	5.09
431.643	5.08
432.003	5.23
432.363	5.2
432.722	5.36
433.082	5.15
433.442	5.07
433.802	5.05
434.161	5.14
434.521	5.35
434.881	5.38
435.24	5.13
435.6	5.16
435.959	5.27
436.319	5.24
436.678	5.21
437.037	5.23
437.396	5.25
437.756	5.44
438.115	5.19
438.474	5.34
438.833	5.17
439.192	5.2
439.551	5.29
439.91	5.14
440.269	5.19
440.628	5.13
440.987	5.18
441.345	5.13
441.704	5.03
442.063	5.12
442.421	5.23
442.78	5.05
443.138	5.17
443.497	5.23
443.855	5.26
444.214	5.28
444.572	5.28
444.93	5.24
445.288	5.27
445.647	5.35
446.005	5.21
446.363	5.37
446.721	5.33
447.079	5.01
447.437	5.05
447.795	5.26
448.153	5.03
448.51	5.1
448.868	5.2
449.226	5.09
449.584	5.22
449.941	5.3
450.299	5.22
450.656	5.25
451.014	5.23
451.371	5.17
451.729	5.11
452.086	5.54
452.443	5.02
452.801	5.37
453.158	5.32
453.515	5.14
453.872	5.4
454.229	5.28
454.586	5.18
454.943	5.29
455.3	5.4
455.657	5.2
456.014	5.23
456.371	5.32
456.727	5.34
457.084	5.45
457.441	5.3
457.797	5.36
458.154	5.53
458.51	5.4
458.867	5.34
459.223	5.56
459.58	5.24
459.936	5.38
460.292	5.3
460.648	5.3
461.005	5.15
461.361	5.32
461.717	5.19
462.073	5.12
462.429	5.3
462.785	5.31
463.141	5.27
463.496	5.29
463.852	5.46
464.208	5.31
464.564	5.5
464.919	5.28
465.275	5.15
465.631	5.44
465.986	5.3
466.342	5.29
466.697	5.23
467.052	5.52
467.408	5.39
467.763	5.37
468.118	5.32
468.473	5.37
468.829	5.51
469.184	5.29
469.539	5.49
469.894	5.17
470.249	5.56
470.603	5.43
470.958	5.52
471.313	5.64
471.668	5.41
472.023	5.23
472.377	5.17
472.732	5.55
473.086	5.28
473.441	5.19
473.795	5.46
474.15	5.45
474.504	5.38
474.859	5.34
475.213	5.44
475.567	5.31
475.921	5.45
476.275	5.43
476.63	5.31
476.984	5.47
477.338	5.38
477.692	5.29
478.045	5.29
478.399	5.33
478.753	5.46
479.107	5.44
479.461	5.28
479.814	5.4
480.168	5.36
480.521	5.33
480.875	5.46
481.228	5.38
481.582	5.33
481.935	5.36
482.289	5.3
482.642	5.42
482.995	5.23
483.348	5.15
483.701	5.43
484.055	5.32
484.408	5.38
484.761	5.14
485.114	5.14
485.466	5.01
485.819	5.01
486.172	4.97
486.525	5.04
486.878	5.04
487.23	5.11
487.583	5.22
487.936	5.25
488.288	5.19
488.641	5.19
488.993	5.13
489.345	5.09
489.698	5.09
490.05	5.04
490.402	5.13
490.754	5.17
491.107	5.13
491.459	5.29
491.811	5.39
492.163	5.19
492.515	5.23
492.866	5.33
493.218	5.23
493.57	5.15
493.922	5.19
494.274	5.24
494.625	5.26
494.977	5.37
495.328	5.4
495.68	5.35
496.031	5.49
496.383	5.39
496.734	5.53
497.086	5.32
497.437	5.48
497.788	5.47
498.139	5.25
498.49	5.42
498.842	5.27
499.193	5.33
499.544	5.36
499.894	5.4
500.245	5.39
500.596	5.39
500.947	5.38
501.298	5.35
501.648	5.5
501.999	5.46
502.35	5.51
502.7	5.51
503.051	5.24
503.401	5.35
503.752	5.52
504.102	5.36
504.452	5.54
504.803	5.31
505.153	5.42
505.503	5.34
505.853	5.43
506.203	5.37
506.553	5.39
506.903	5.29
507.253	5.33
507.603	5.44
507.953	5.56
508.303	5.56
508.652	5.31
509.002	5.61
509.352	5.41
509.701	5.33
510.051	5.34
510.4	5.36
510.75	5.34
511.099	5.4
511.449	5.4
511.798	5.37
512.147	5.43
512.496	5.31
512.846	5.44
513.195	5.27
513.544	5.42
513.893	5.44
514.242	5.35
514.591	5.63
514.939	5.35
515.288	5.33
515.637	5.45
515.986	5.4
516.334	5.49
516.683	5.47
517.032	5.46
517.38	5.42
517.729	5.45
518.077	5.39
518.426	5.41
518.774	5.49
519.122	5.41
519.47	5.41
519.819	5.17
520.167	5.3
520.515	5.3
520.863	5.34
521.211	5.35
521.559	5.47
521.907	5.36
522.255	5.35
522.602	5.38
522.95	5.4
523.298	5.45
523.645	5.52
523.993	5.35
524.341	5.53
524.688	5.5
525.036	5.38
525.383	5.48
525.73	5.56
526.078	5.42
526.425	5.42
526.772	5.39
527.119	5.38
527.466	5.25
527.814	5.38
528.161	5.28
528.508	5.34
528.854	5.27
529.201	5.35
529.548	5.31
529.895	5.26
530.242	5.14
530.588	5.13
530.935	5.18
531.282	5.23
531.628	5.18
531.975	5.22
532.321	5.31
532.667	5.31
533.014	5.42
533.36	5.42
533.706	5.37
534.052	5.36
534.399	5.3
534.745	5.27
535.091	5.22
535.437	5.35
535.783	5.33
536.129	5.32
536.474	5.33
536.82	5.4
537.166	5.46
537.512	5.52
537.857	5.31
538.203	5.38
538.549	5.42
538.894	5.36
539.239	5.4
539.585	5.32
539.93	5.32
540.276	5.61
540.621	5.51
540.966	5.49
541.311	5.25
541.656	5.41
542.001	5.39
542.346	5.44
542.691	5.25
543.036	5.22
543.381	5.16
543.726	5.15
544.071	5.28
544.415	5.31
544.76	5.22
545.105	5.33
545.449	5.3
545.794	5.33
546.138	5.37
546.483	5.43
546.827	5.39
547.171	5.48
547.516	5.48
547.86	5.35
548.204	5.31
548.548	5.33
548.892	5.46
549.236	5.29
549.58	5.32
549.924	5.45
550.268	5.52
550.612	5.48
550.956	5.64
551.3	5.54
551.643	5.55
551.987	5.67
552.33	5.54
552.674	5.51
553.017	5.58
553.361	5.32
553.704	5.65
554.048	5.58
554.391	5.45
554.734	5.33
555.077	5.54
555.42	5.31
555.764	5.33
556.107	5.37
556.45	5.37
556.793	5.53
557.135	5.47
557.478	5.67
557.821	5.68
558.164	5.71
558.507	5.38
558.849	5.44
559.192	5.56
559.534	5.41
559.877	5.53
560.219	5.58
560.562	5.67
560.904	5.47
561.246	5.65
561.589	5.5
561.931	5.53
562.273	5.43
562.615	5.66
562.957	5.42
563.299	5.3
563.641	5.48
563.983	5.43
564.325	5.26
564.667	5.3
565.008	5.29
565.35	5.53
565.692	5.26
566.033	5.51
566.375	5.58
566.716	5.7
567.058	5.52
567.399	5.58
567.741	5.39
568.082	5.4
568.423	5.45
568.764	5.37
569.105	5.54
569.447	5.49
569.788	5.52
570.129	5.62
570.47	5.49
570.811	5.52
571.151	5.37
571.492	5.66
571.833	5.48
572.174	5.35
572.514	5.49
572.855	5.47
573.195	5.37
573.536	5.35
573.876	5.35
574.217	5.33
574.557	5.5
574.898	5.54
575.238	5.53
575.578	5.33
575.918	5.58
576.258	5.47
576.598	5.68
576.938	5.45
577.278	5.55
577.618	5.31
577.958	5.44
578.298	5.52
578.638	5.46
578.977	5.53
579.317	5.46
579.657	5.38
579.996	5.37
580.336	5.43
580.675	5.51
581.014	5.51
581.354	5.31
581.693	5.51
582.032	5.43
582.372	5.48
582.711	5.64
583.05	5.38
583.389	5.33
583.728	5.27
584.067	5.76
584.406	5.48
584.745	5.38
585.083	5.29
585.422	5.28
585.761	5.41
586.1	5.71
586.438	5.43
586.777	5.55
587.115	5.69
587.454	5.52
587.792	5.41
588.13	5.41
588.469	5.32
588.807	5.47
589.145	5.49
589.483	5.55
589.821	5.47
590.159	5.43
590.497	5.7
590.835	5.93
591.173	5.46
591.511	5.58
591.849	5.37
592.187	5.46
592.524	5.53
592.862	5.31
593.2	5.43
593.537	5.41
593.875	5.24
594.212	5.44
594.55	5.29
594.887	5.5
595.224	5.34
595.561	5.48
595.899	5.37
596.236	5.19
596.573	5.44
596.91	5.17
597.247	5.35
597.584	5.7
597.921	5.28
598.258	5.27
598.594	5.26
598.931	5.28
599.268	5.43
599.604	5.17
599.941	5.6
600.277	5.41
600.614	5.27
600.95	5.17
601.287	5.53
601.623	5.46
601.959	5.25
602.296	5.39
602.632	5.34
602.968	5.44
603.304	5.49
603.64	5.48
603.976	5.27
604.312	5.16
604.648	5.34
604.984	5.62
605.319	5.33
605.655	5.41
605.991	5.31
606.326	5.48
606.662	5.44
606.998	5.22
607.333	5.28
607.668	5.19
608.004	5.3
608.339	5.47
608.674	5.64
609.01	5.34
609.345	5.29
609.68	5.44
610.015	5.42
610.35	5.28
610.685	5.19
611.02	5.39
611.355	5.43
611.689	5.33
612.024	5.4
612.359	5.31
612.694	5.41
613.028	5.06
613.363	5.24
613.697	5.4
614.032	5.46
614.366	5.16
614.7	5.66
615.035	5.53
615.369	5.3
615.703	5.57
616.037	5.15
616.371	5.06
616.705	5.2
617.039	5.39
617.373	5.31
617.707	5.02
618.041	5.29
618.375	5.22
618.709	5.44
619.042	5.09
619.376	5.43
619.71	5.57
620.043	5.53
620.377	5.35
620.71	5.52
621.043	5.29
621.377	5.44
621.71	5.64
622.043	5.09
622.376	5.33
622.709	5.36
623.043	5.5
623.376	5.21
623.709	5.39
624.041	5.61
624.374	5.41
624.707	5.49
625.04	5.37
625.373	5.04
625.705	5.45
626.038	5.36
626.37	5.21
626.703	5.25
627.035	5.4
627.368	5.85
627.7	5.51
628.032	4.94
628.365	5.16
628.697	5.28
629.029	5.15
629.361	5.14
629.693	5.52
630.025	5.34
630.357	5.46
630.689	5.52
631.021	4.97
631.353	5.25
631.684	5.13
632.016	4.77
632.348	5.46
632.679	5.24
633.011	5.49
633.342	5.55
633.674	5.25
634.005	5.93
634.336	5.35
634.668	5.8
634.999	5.14
635.33	5.58
635.661	5.41
635.992	5.08
636.323	5.2
636.654	5.46
636.985	4.92
637.316	5.46
637.647	5.03
637.977	5.47
638.308	5.61
638.639	4.67
638.969	5.03
639.3	5.06
639.63	4.91
639.961	5.42
640.291	5.04
640.622	5.39
640.952	5.35
641.282	5.8
641.612	5.6
641.943	4.79
642.273	5.16
642.603	5.51
642.933	5.46
643.263	5.66
643.592	5.4
643.922	5.37
644.252	5.56
644.582	5.21
644.911	4.79
645.241	5.09
645.571	5.27
645.9	4.98
646.23	5.08
646.559	5.62
646.888	5.25
647.218	5.2
647.547	5.74
647.876	4.94
648.205	5.72
648.534	4.83
648.863	5.15
649.192	5.67
649.521	5
649.85	5.11
650.179	5.46
650.508	5.27
650.837	5.07
651.165	5.11
651.494	5.14
651.822	5.29
652.151	5.1
652.479	5.15
652.808	5.18
653.136	5.06
653.465	4.63
653.793	4.78
654.121	4.76
654.449	5.2
654.777	5.57
655.105	5.93
655.433	5.1
655.761	5.53
656.089	5.67
656.417	5.45
656.745	5.04
657.073	5.25
657.4	6.02
657.728	5.37
658.056	5.28
658.383	5.52
658.711	5.69
659.038	5.9
659.365	5.95
659.693	5.24
660.02	5
660.347	5.22
660.674	5.31
661.001	5.42
661.329	4.71
661.656	5.17
661.982	5.56
662.309	5.45
662.636	5.01
662.963	5.49
663.29	5.43
663.616	5.4
663.943	4.88
664.27	5.12
664.596	5.43
664.923	4.97
665.249	5.23
665.576	5
665.902	5.56
666.228	5.53
666.554	5.57
666.881	5.43
667.207	5.27
667.533	5.59
667.859	5.48
668.185	5.45
668.511	4.51
668.837	4.06
669.162	5.25
669.488	4.93
669.814	5.55
670.139	5.29
670.465	5.81
670.791	5.38
671.116	5.54
671.442	4.38
671.767	5.65
672.092	5.61
672.418	4.92
672.743	5.66
673.068	4.65
673.393	5.19
673.718	5.09
674.043	5.18
674.368	5.28
674.693	5.89
675.018	5.53
675.343	4.76
675.667	5.4
675.992	5.81
676.317	5.35
676.641	6.04
676.966	5.31
677.29	4.9
677.615	5.29
677.939	5.77
678.264	5.71
678.588	5.65
678.912	5.56
679.236	5.91
679.56	4.65
679.885	6.07
680.209	5.41
680.532	5.28
680.856	5.84
681.18	5.45
681.504	5.98
681.828	5.62
682.152	4.79
682.475	5.58
682.799	5.56
683.122	5.44
683.446	5.35
683.769	5.77
684.093	5.39
684.416	5.57
684.739	5.56
685.062	5.27
685.386	6.28
685.709	4.87
686.032	5.28
686.355	6
686.678	5.6
687.001	6.38
687.324	5.96
687.646	5.04
687.969	4.93
688.292	5.02
688.614	5.25
688.937	5.65
689.26	5.19
689.582	5.76
689.904	5.67
690.227	5.47
690.549	5.38
690.871	5.71
691.194	5.86
691.516	4.64
691.838	5.64
692.16	5.17
692.482	5.06
