Data from 0389_forehead_Reflection__1__72.txt Node

Date: Fri Dec 15 16:53:00 CST 2023
User: ToomeyLab
Spectrometer: FLMS14357
Trigger mode: 0
Integration Time (sec): 1.000000E-2
Scans to average: 100
Electric dark correction enabled: true
Nonlinearity correction enabled: false
Boxcar width: 0
XAxis mode: Wavelengths
Number of Pixels in Spectrum: 2048
>>>>>Begin Spectral Data<<<<<
189.047	-32.57
189.435	-32.57
189.823	-32.57
190.211	86.63
190.599	202.56
190.987	96.81
191.375	-4803.39
191.763	507.56
192.151	44.19
192.538	58.3
192.926	-1.52
193.314	120.29
193.702	-1333.62
194.089	46.74
194.477	-47.03
194.864	436.78
195.252	59.17
195.639	91.32
196.027	1349.61
196.414	-73.14
196.801	129.38
197.189	148.89
197.576	-4505.08
197.963	114.87
198.351	11.22
198.738	81.86
199.125	43.61
199.512	11.2
199.899	5.83
200.286	70.19
200.673	25.57
201.06	155.12
201.447	33.19
201.833	51.11
202.22	59.44
202.607	56.55
202.994	42.08
203.38	59.31
203.767	34.39
204.154	39.92
204.54	32.22
204.927	38.21
205.313	0.3
205.699	38.77
206.086	61.35
206.472	33.01
206.858	47.39
207.245	44.12
207.631	39.21
208.017	44.62
208.403	32.67
208.789	33.96
209.175	57.33
209.561	42.11
209.947	77.96
210.333	-12.49
210.719	52.25
211.105	27.04
211.491	21.08
211.876	47.68
212.262	38.39
212.648	21.63
213.034	34.74
213.419	5.85
213.805	32.1
214.19	51.57
214.576	59.37
214.961	43.94
215.346	-15.92
215.732	31.31
216.117	26.61
216.502	12.23
216.888	34.26
217.273	40.42
217.658	21.02
218.043	23.38
218.428	21.51
218.813	14.77
219.198	11.01
219.583	29.76
219.968	29.99
220.353	5.48
220.738	29.71
221.122	22.48
221.507	13.43
221.892	-14.57
222.276	6.39
222.661	7.75
223.046	19.24
223.43	22.85
223.815	10.7
224.199	-1.26
224.583	18.03
224.968	3.83
225.352	18.33
225.736	4.88
226.121	-3.04
226.505	12.14
226.889	12.14
227.273	6.67
227.657	5.78
228.041	6.27
228.425	5.2
228.809	10.08
229.193	6.44
229.577	4.28
229.961	3.71
230.344	2.88
230.728	3.54
231.112	4.46
231.495	3.77
231.879	2.84
232.263	4.52
232.646	4.06
233.03	5.68
233.413	3.51
233.797	5.93
234.18	3.33
234.563	7.21
234.946	4.4
235.33	6.92
235.713	5.75
236.096	4.73
236.479	6.38
236.862	2.57
237.245	7.58
237.628	3.89
238.011	5.62
238.394	6.79
238.777	5.22
239.16	5.46
239.543	6.37
239.925	5.41
240.308	4.2
240.691	6.99
241.073	5.77
241.456	4.64
241.838	4.01
242.221	4.29
242.603	3.68
242.986	3.69
243.368	3.88
243.75	4.68
244.133	4.22
244.515	5.02
244.897	4.38
245.279	5.02
245.661	4.7
246.043	4.32
246.425	3.91
246.807	6.31
247.189	5.39
247.571	4.44
247.953	4.65
248.335	3.91
248.717	4.44
249.098	3.8
249.48	4.27
249.862	4.15
250.243	4.3
250.625	4.56
251.006	4.86
251.388	3.23
251.769	4.68
252.151	5.69
252.532	4.33
252.913	4.34
253.295	3.11
253.676	4.29
254.057	4.53
254.438	4.09
254.819	3.6
255.2	3.86
255.581	4.91
255.962	4.41
256.343	4.1
256.724	4.21
257.105	4.92
257.486	4.96
257.867	4.64
258.247	4.8
258.628	4.8
259.009	4.61
259.389	5.06
259.77	4.39
260.15	4.8
260.531	3.36
260.911	4.26
261.292	3.72
261.672	4.07
262.052	3.95
262.432	4.16
262.813	4.72
263.193	4.31
263.573	3.57
263.953	4.65
264.333	5.06
264.713	4.78
265.093	3.65
265.473	4.44
265.853	4.24
266.233	4.82
266.612	3.04
266.992	3.94
267.372	4.1
267.752	4.06
268.131	4.59
268.511	4.46
268.89	4.36
269.27	3.8
269.649	3.45
270.029	3.86
270.408	5.83
270.787	4.25
271.167	5.26
271.546	4.53
271.925	3.66
272.304	4.33
272.683	4.07
273.062	4.09
273.441	4.29
273.82	3.48
274.199	3.72
274.578	4.04
274.957	3.91
275.336	4.06
275.715	3.34
276.093	4.29
276.472	4.67
276.851	4.25
277.229	4.14
277.608	3.38
277.986	4.17
278.365	3.89
278.743	3.67
279.122	3.99
279.5	4.28
279.878	4.4
280.257	3.99
280.635	4.15
281.013	3.93
281.391	4.38
281.769	4.87
282.147	4.3
282.525	4.51
282.903	4.06
283.281	4.33
283.659	4.68
284.037	4.61
284.415	4.43
284.792	4.28
285.17	3.9
285.548	3.97
285.925	3.96
286.303	3.91
286.68	4.09
287.058	3.92
287.435	4.19
287.813	4.39
288.19	3.45
288.567	3.9
288.945	4.3
289.322	4.22
289.699	4.41
290.076	4.44
290.453	4.31
290.83	4.08
291.207	4.02
291.584	4.43
291.961	4.44
292.338	4.15
292.715	4.91
293.092	4.76
293.469	4.32
293.845	4.89
294.222	4.13
294.599	4.28
294.975	4.68
295.352	5
295.728	4.48
296.105	4.73
296.481	5.38
296.858	4.85
297.234	5.19
297.61	4.73
297.986	4.58
298.363	5.05
298.739	4.61
299.115	4.69
299.491	4.71
299.867	5.03
300.243	4.99
300.619	4.76
300.995	5.09
301.371	5.37
301.746	5.41
302.122	6.2
302.498	5.02
302.874	5.52
303.249	5.65
303.625	6.29
304	5.48
304.376	5.91
304.751	5
305.127	6.2
305.502	5.26
305.878	5.58
306.253	6.02
306.628	6.76
307.003	6.16
307.378	6.3
307.754	5.92
308.129	5.86
308.504	7
308.879	6.51
309.254	7.18
309.629	6.65
310.003	6.66
310.378	6.98
310.753	6.91
311.128	6.79
311.502	6.59
311.877	7.35
312.252	6.77
312.626	6.98
313.001	6.81
313.375	7.51
313.75	6.92
314.124	7.28
314.498	6.99
314.873	7.38
315.247	7.5
315.621	7.36
315.995	7.37
316.369	7.85
316.743	7.38
317.117	8.07
317.491	7.68
317.865	7.55
318.239	8.54
318.613	8.25
318.987	8.21
319.361	7.93
319.734	8.36
320.108	8.29
320.482	8.59
320.855	8.88
321.229	8.31
321.602	8.43
321.976	8.98
322.349	8.91
322.723	9.44
323.096	9.42
323.469	8.71
323.843	9.47
324.216	9.73
324.589	9.28
324.962	9.29
325.335	9.83
325.708	9
326.081	9.22
326.454	9.42
326.827	9.79
327.2	9.96
327.573	9.78
327.945	10.02
328.318	9.48
328.691	9.45
329.063	10.18
329.436	9.93
329.809	9.96
330.181	9.98
330.553	10.05
330.926	10.15
331.298	10.65
331.671	10.11
332.043	10.71
332.415	10.99
332.787	11
333.159	11.31
333.532	10.21
333.904	10.72
334.276	10.88
334.648	10.78
335.02	10.5
335.391	10.86
335.763	10.74
336.135	11.05
336.507	12.07
336.879	11.08
337.25	11.16
337.622	11.05
337.993	11.48
338.365	11.9
338.736	11.56
339.108	11.23
339.479	11.45
339.851	11.83
340.222	11.78
340.593	11.63
340.964	11.65
341.336	12.62
341.707	11.54
342.078	11.8
342.449	12.27
342.82	11.9
343.191	12.17
343.562	12.06
343.933	12.38
344.303	12.81
344.674	12.15
345.045	12.36
345.416	12.59
345.786	12.17
346.157	12.7
346.527	11.94
346.898	12.51
347.268	12.88
347.639	12.95
348.009	12.68
348.38	12.44
348.75	12.81
349.12	13.04
349.49	13.61
349.861	13.2
350.231	13.08
350.601	13.39
350.971	13.24
351.341	13.32
351.711	13.21
352.081	13.12
352.45	13.28
352.82	13.38
353.19	13.81
353.56	13.49
353.929	13.7
354.299	13.76
354.669	13.48
355.038	13.96
355.408	13.46
355.777	13.99
356.147	14.07
356.516	14.16
356.885	13.81
357.254	14.23
357.624	14.52
357.993	14.15
358.362	14.15
358.731	14
359.1	14.33
359.469	14.57
359.838	14.69
360.207	14.5
360.576	14.56
360.945	14.64
361.314	14.85
361.682	14.72
362.051	14.47
362.42	14.83
362.788	14.56
363.157	14.86
363.525	14.7
363.894	14.75
364.262	15.03
364.631	15.21
364.999	15.38
365.367	14.93
365.735	16.06
366.104	15.53
366.472	15.61
366.84	15.46
367.208	15.52
367.576	15.93
367.944	15.83
368.312	15.49
368.68	15.54
369.048	15.56
369.416	16.04
369.783	15.56
370.151	16.2
370.519	16.27
370.886	16.53
371.254	15.76
371.621	16.28
371.989	16.42
372.356	16.2
372.724	16.61
373.091	16.55
373.458	16.6
373.826	16.44
374.193	16.78
374.56	16.9
374.927	16.5
375.294	16.99
375.661	16.85
376.028	16.65
376.395	17.22
376.762	16.73
377.129	16.71
377.496	16.82
377.863	17.19
378.229	16.5
378.596	16.9
378.963	16.98
379.329	17.45
379.696	17.81
380.062	17.62
380.429	17.46
380.795	17.37
381.161	17.93
381.528	18.02
381.894	17.59
382.26	17.47
382.626	17.7
382.993	17.64
383.359	18.09
383.725	18.09
384.091	18.05
384.457	18.47
384.823	18.22
385.188	18.47
385.554	18.18
385.92	18.26
386.286	18.52
386.651	18.51
387.017	18.72
387.383	18.45
387.748	18.74
388.114	18.78
388.479	18.48
388.845	18.71
389.21	18.85
389.575	18.92
389.94	19.23
390.306	18.93
390.671	19.01
391.036	18.58
391.401	18.84
391.766	18.99
392.131	19.03
392.496	19.47
392.861	18.95
393.226	19.32
393.591	18.99
393.956	19.07
394.32	19.38
394.685	19.18
395.05	19.34
395.414	19.42
395.779	19.44
396.143	19.38
396.508	19.55
396.872	19.57
397.236	19.77
397.601	19.59
397.965	19.83
398.329	19.95
398.694	20.14
399.058	20.08
399.422	20.1
399.786	20.1
400.15	20.33
400.514	20.19
400.878	20.29
401.242	20.22
401.605	20.47
401.969	20.47
402.333	20.32
402.697	20.34
403.06	20.59
403.424	20.68
403.787	20.45
404.151	20.45
404.514	20.78
404.878	20.65
405.241	20.69
405.604	20.59
405.968	20.77
406.331	20.86
406.694	21.11
407.057	20.69
407.42	20.97
407.783	20.69
408.146	20.99
408.509	21.04
408.872	21.08
409.235	21.37
409.598	21.6
409.961	21.25
410.323	21.53
410.686	21.09
411.049	21.43
411.411	21.38
411.774	21.25
412.136	21.37
412.499	21.42
412.861	21.43
413.223	21.54
413.586	21.71
413.948	21.56
414.31	21.71
414.672	21.84
415.035	21.53
415.397	22.02
415.759	21.83
416.121	21.76
416.483	21.85
416.845	22.04
417.206	22.01
417.568	22.16
417.93	21.89
418.292	21.77
418.653	22.17
419.015	22.11
419.377	22.07
419.738	22.16
420.1	22.18
420.461	22.28
420.822	22.39
421.184	22.38
421.545	22.18
421.906	22.22
422.267	22.24
422.629	22.1
422.99	22.26
423.351	22.29
423.712	22.54
424.073	22.59
424.434	22.69
424.795	22.7
425.155	22.83
425.516	22.88
425.877	22.76
426.238	22.92
426.598	23.14
426.959	23.06
427.32	23.22
427.68	23.33
428.041	23.35
428.401	23.68
428.761	23.58
429.122	23.77
429.482	23.79
429.842	24.18
430.202	24.21
430.563	24.18
430.923	23.98
431.283	24.41
431.643	24.43
432.003	24.37
432.363	24.33
432.722	24.65
433.082	24.49
433.442	24.6
433.802	24.39
434.161	24.64
434.521	24.93
434.881	24.77
435.24	24.61
435.6	24.73
435.959	24.8
436.319	25.04
436.678	25.16
437.037	25.24
437.396	25.26
437.756	25.54
438.115	25.39
438.474	25.78
438.833	25.38
439.192	25.57
439.551	25.67
439.91	25.59
440.269	25.62
440.628	25.49
440.987	25.9
441.345	25.55
441.704	25.77
442.063	25.43
442.421	25.65
442.78	25.7
443.138	25.81
443.497	25.88
443.855	26.12
444.214	26.24
444.572	26.29
444.93	26.23
445.288	26.29
445.647	26.57
446.005	26.3
446.363	26.52
446.721	26.41
447.079	26.46
447.437	26.41
447.795	26.41
448.153	26.38
448.51	26.46
448.868	26.52
449.226	26.59
449.584	26.84
449.941	26.91
450.299	26.91
450.656	27.06
451.014	27.14
451.371	27.26
451.729	27.38
452.086	27.66
452.443	27.59
452.801	27.76
453.158	27.47
453.515	27.73
453.872	27.63
454.229	27.64
454.586	27.63
454.943	27.97
455.3	28.12
455.657	28.06
456.014	27.98
456.371	28.07
456.727	28.33
457.084	28.37
457.441	28.25
457.797	28.56
458.154	28.55
458.51	28.56
458.867	28.65
459.223	28.65
459.58	28.77
459.936	28.7
460.292	28.73
460.648	28.5
461.005	28.44
461.361	28.37
461.717	28.11
462.073	28.33
462.429	28.5
462.785	28.74
463.141	28.83
463.496	29.01
463.852	29.38
464.208	29.26
464.564	29.38
464.919	29.24
465.275	29.7
465.631	29.78
465.986	29.63
466.342	29.68
466.697	29.43
467.052	29.97
467.408	29.83
467.763	29.86
468.118	29.86
468.473	29.96
468.829	29.92
469.184	29.67
469.539	30.36
469.894	29.92
470.249	30.3
470.603	30.39
470.958	30.55
471.313	30.39
471.668	30.46
472.023	30.3
472.377	30.6
472.732	30.77
473.086	30.55
473.441	30.24
473.795	30.98
474.15	30.84
474.504	30.65
474.859	30.6
475.213	30.78
475.567	30.93
475.921	30.86
476.275	31.05
476.63	31.04
476.984	31.37
477.338	31.52
477.692	31.1
478.045	31.15
478.399	31.08
478.753	31.18
479.107	31.29
479.461	31.31
479.814	31.25
480.168	31.35
480.521	31.22
480.875	31.61
481.228	31.78
481.582	31.6
481.935	31.57
482.289	31.76
482.642	31.53
482.995	31.4
483.348	31.23
483.701	31.49
484.055	31.39
484.408	31.27
484.761	30.91
485.114	30.61
485.466	30.12
485.819	30.35
486.172	30.66
486.525	30.91
486.878	31.04
487.23	31.4
487.583	31.53
487.936	31.51
488.288	31.5
488.641	31.25
488.993	31.1
489.345	31.1
489.698	31.17
490.05	31.23
490.402	31.42
490.754	31.71
491.107	31.91
491.459	32.29
491.811	32.21
492.163	32.36
492.515	32.31
492.866	32.02
493.218	31.7
493.57	31.61
493.922	31.86
494.274	32.3
494.625	32.52
494.977	32.8
495.328	33.07
495.68	33.26
496.031	33.34
496.383	33.53
496.734	33.56
497.086	33.57
497.437	33.35
497.788	33.35
498.139	33.37
498.49	33.31
498.842	33.31
499.193	33.31
499.544	33.62
499.894	33.64
500.245	33.69
500.596	33.69
500.947	33.84
501.298	33.86
501.648	33.97
501.999	34.15
502.35	33.98
502.7	34.04
503.051	34.17
503.401	34.26
503.752	34.59
504.102	34.4
504.452	34.49
504.803	34.61
505.153	34.54
505.503	34.46
505.853	34.48
506.203	34.45
506.553	34.44
506.903	34.7
507.253	34.78
507.603	34.73
507.953	35.04
508.303	34.97
508.652	34.91
509.002	35.03
509.352	35.24
509.701	34.94
510.051	34.78
510.4	34.87
510.75	34.91
511.099	34.87
511.449	34.76
511.798	35.04
512.147	34.91
512.496	34.99
512.846	35.19
513.195	35.27
513.544	35.11
513.893	35.19
514.242	35.33
514.591	35.47
514.939	35.65
515.288	35.51
515.637	35.56
515.986	35.64
516.334	35.64
516.683	35.81
517.032	35.76
517.38	36.09
517.729	35.95
518.077	35.84
518.426	35.95
518.774	35.85
519.122	35.84
519.47	35.71
519.819	35.62
520.167	35.42
520.515	35.33
520.863	35.36
521.211	35.72
521.559	35.84
521.907	35.81
522.255	36.01
522.602	35.83
522.95	36.27
523.298	36.42
523.645	36.5
523.993	36.49
524.341	36.48
524.688	36.39
525.036	36.75
525.383	36.64
525.73	36.56
526.078	36.47
526.425	36.49
526.772	36.61
527.119	36.26
527.466	36.02
527.814	36.07
528.161	36.22
528.508	36.36
528.854	36.32
529.201	36.4
529.548	35.98
529.895	35.77
530.242	35.43
530.588	35.33
530.935	35.74
531.282	36.05
531.628	36.17
531.975	36.36
532.321	36.62
532.667	36.69
533.014	36.78
533.36	36.94
533.706	37.02
534.052	36.89
534.399	36.8
534.745	36.51
535.091	36.15
535.437	36.43
535.783	36.74
536.129	36.95
536.474	37.02
536.82	37.25
537.166	37.35
537.512	37.64
537.857	37.38
538.203	37.36
538.549	37.16
538.894	37.33
539.239	37.41
539.585	37.67
539.93	37.87
540.276	37.8
540.621	38.26
540.966	38.08
541.311	38.11
541.656	38.14
542.001	37.97
542.346	37.87
542.691	37.26
543.036	37.05
543.381	37.06
543.726	37.27
544.071	37.52
544.415	37.65
544.76	37.91
545.105	37.84
545.449	38.07
545.794	38.19
546.138	38.25
546.483	38.38
546.827	38.39
547.171	38.59
547.516	38.64
547.86	38.58
548.204	38.69
548.548	38.57
548.892	38.53
549.236	38.57
549.58	38.66
549.924	38.93
550.268	39.24
550.612	39.19
550.956	39.48
551.3	39.52
551.643	39.68
551.987	39.6
552.33	39.58
552.674	39.64
553.017	39.76
553.361	39.65
553.704	39.67
554.048	39.67
554.391	39.49
554.734	39.53
555.077	39.6
555.42	39.48
555.764	39.77
556.107	39.81
556.45	39.7
556.793	39.88
557.135	40.27
557.478	40.09
557.821	40.59
558.164	40.1
558.507	40.44
558.849	40.32
559.192	40.32
559.534	40.45
559.877	40.62
560.219	40.33
560.562	40.64
560.904	40.53
561.246	40.85
561.589	40.49
561.931	40.75
562.273	40.5
562.615	40.66
562.957	40.7
563.299	40.5
563.641	40.84
563.983	40.85
564.325	40.78
564.667	41.05
565.008	40.84
565.35	40.92
565.692	40.71
566.033	40.61
566.375	41.45
566.716	40.77
567.058	40.99
567.399	40.78
567.741	40.99
568.082	41.09
568.423	40.81
568.764	40.89
569.105	41.26
569.447	40.98
569.788	41.3
570.129	41.4
570.47	41.26
570.811	41.34
571.151	41.3
571.492	41.57
571.833	41.37
572.174	41.28
572.514	41.62
572.855	41.24
573.195	41.55
573.536	41.36
573.876	41.25
574.217	41.18
574.557	41.58
574.898	41.71
575.238	41.8
575.578	41.71
575.918	41.53
576.258	41.89
576.598	41.69
576.938	41.89
577.278	41.88
577.618	41.72
577.958	41.98
578.298	42.14
578.638	41.94
578.977	42.29
579.317	42.19
579.657	42.4
579.996	42.33
580.336	42.36
580.675	42.68
581.014	42.76
581.354	42.73
581.693	42.86
582.032	43.12
582.372	42.89
582.711	42.9
583.05	42.74
583.389	42.89
583.728	42.96
584.067	42.93
584.406	43.13
584.745	43.22
585.083	42.89
585.422	42.87
585.761	43.16
586.1	42.99
586.438	43.08
586.777	43.25
587.115	43.35
587.454	43.31
587.792	43.22
588.13	43.59
588.469	43.77
588.807	43.44
589.145	43.18
589.483	43.3
589.821	43.4
590.159	43.66
590.497	43.87
590.835	43.53
591.173	43.53
591.511	43.74
591.849	43.25
592.187	43.6
592.524	43.61
592.862	43.57
593.2	43.67
593.537	43.64
593.875	43.82
594.212	43.73
594.55	43.73
594.887	44.13
595.224	43.89
595.561	43.79
595.899	43.92
596.236	44.21
596.573	44.02
596.91	43.69
597.247	44
597.584	44.15
597.921	43.96
598.258	43.65
598.594	43.69
598.931	43.42
599.268	43.78
599.604	43.8
599.941	44.14
600.277	44.21
600.614	44.01
600.95	44.44
601.287	44.61
601.623	44.28
601.959	44.55
602.296	44.48
602.632	44.56
602.968	44.86
603.304	44.84
603.64	44.81
603.976	44.63
604.312	44.62
604.648	44.72
604.984	44.81
605.319	44.26
605.655	44.6
605.991	44.67
606.326	43.96
606.662	43.99
606.998	44.32
607.333	44.29
607.668	44.59
608.004	44.83
608.339	44.94
608.674	44.89
609.01	44.95
609.345	45.23
609.68	45.42
610.015	45.28
610.35	45.12
610.685	44.87
611.02	44.93
611.355	44.95
611.689	45.06
612.024	45.03
612.359	45.19
612.694	45.46
613.028	45.17
613.363	45.43
613.697	44.98
614.032	45.81
614.366	45.66
614.7	45.75
615.035	45.95
615.369	45.83
615.703	45.69
616.037	45.9
616.371	45.86
616.705	46.03
617.039	46.24
617.373	45.73
617.707	45.72
618.041	45.75
618.375	45.94
618.709	46.23
619.042	46.12
619.376	46.66
619.71	46.21
620.043	46.22
620.377	45.98
620.71	46.35
621.043	46.07
621.377	46.16
621.71	46.66
622.043	46.12
622.376	46.32
622.709	46.66
623.043	47.1
623.376	46.54
623.709	46.43
624.041	46.5
624.374	46.98
624.707	46.54
625.04	46.41
625.373	46.49
625.705	46.69
626.038	46.72
626.37	47.25
626.703	46.35
627.035	46.53
627.368	46.87
627.7	46.07
628.032	46.73
628.365	46.75
628.697	46.59
629.029	46.79
629.361	46.63
629.693	46.78
630.025	46.85
630.357	47.21
630.689	47.05
631.021	47.18
631.353	47.19
631.684	46.83
632.016	46.92
632.348	47.44
632.679	47.2
633.011	47.6
633.342	47.72
633.674	47.3
634.005	47.41
634.336	47.26
634.668	47.44
634.999	46.91
635.33	47.09
635.661	47.45
635.992	47.71
636.323	47.58
636.654	47.17
636.985	47.4
637.316	47.17
637.647	47.27
637.977	47.55
638.308	48.19
638.639	47.85
638.969	47.81
639.3	47.46
639.63	47.55
639.961	48.04
640.291	47.82
640.622	48.33
640.952	47.81
641.282	48.11
641.612	48.12
641.943	48.25
642.273	47.67
642.603	48.38
642.933	47.56
643.263	48.32
643.592	48.12
643.922	48.16
644.252	47.88
644.582	47.71
644.911	48
645.241	48.16
645.571	48.53
645.9	48.52
646.23	48.33
646.559	48.77
646.888	48.44
647.218	48.8
647.547	48.67
647.876	48.29
648.205	48.6
648.534	48.3
648.863	48.72
649.192	48.76
649.521	48.32
649.85	48.19
650.179	48.71
650.508	47.92
650.837	48.49
651.165	48.77
651.494	48.82
651.822	48.75
652.151	48.52
652.479	49.07
652.808	48.39
653.136	48.8
653.465	48.59
653.793	48.76
654.121	48.67
654.449	49.1
654.777	48.68
655.105	49.54
655.433	48.56
655.761	48.76
656.089	49.46
656.417	49.55
656.745	48.97
657.073	48.9
657.4	49.34
657.728	49.34
658.056	49.26
658.383	49.26
658.711	49.86
659.038	49.11
659.365	50.12
659.693	48.68
660.02	49.01
660.347	49.49
660.674	48.86
661.001	48.81
661.329	48.56
661.656	49.54
661.982	49.48
662.309	49.6
662.636	49.56
662.963	50.12
663.29	49.34
663.616	50.04
663.943	49.4
664.27	49.16
664.596	49.92
664.923	49.58
665.249	49.81
665.576	49.52
665.902	50.3
666.228	49.77
666.554	50.24
666.881	49.99
667.207	48.93
667.533	49.48
667.859	51.04
668.185	50.05
668.511	49.89
668.837	49.5
669.162	50.76
669.488	50.17
