Data from 1805-1_crown_Reflection__4__70.txt Node

Date: Fri Sep 30 18:17:36 CDT 2022
User: ToomeyLab
Spectrometer: FLMS14357
Trigger mode: 0
Integration Time (sec): 1.000000E-2
Scans to average: 100
Electric dark correction enabled: true
Nonlinearity correction enabled: false
Boxcar width: 0
XAxis mode: Wavelengths
Number of Pixels in Spectrum: 2048
>>>>>Begin Spectral Data<<<<<
189.047	12.68
189.435	12.68
189.823	12.68
190.211	-147.25
190.599	525.66
190.987	133.5
191.375	251.39
191.763	15.29
192.151	33.05
192.538	-0.82
192.926	22.38
193.314	175.92
193.702	47.06
194.089	676.21
194.477	425.2
194.864	-317.6
195.252	259.31
195.639	-103.88
196.027	72.41
196.414	-279.19
196.801	72.9
197.189	-36.32
197.576	-3.98
197.963	-143.76
198.351	-19.25
198.738	-3.13
199.125	41.01
199.512	13.13
199.899	1.22
200.286	-37.57
200.673	23.87
201.06	21.77
201.447	21.8
201.833	20.03
202.22	29.39
202.607	33.5
202.994	43.23
203.38	39.9
203.767	18.97
204.154	63.17
204.54	47.21
204.927	16.52
205.313	-18.47
205.699	17.32
206.086	-28.26
206.472	2.79
206.858	18.62
207.245	45.38
207.631	-13.42
208.017	-39.08
208.403	12.81
208.789	27.31
209.175	6.29
209.561	2.1
209.947	-10.49
210.333	17.76
210.719	-3.88
211.105	-2.91
211.491	30.22
211.876	9.66
212.262	23.57
212.648	28.21
213.034	22.53
213.419	7.05
213.805	-1.02
214.19	1.64
214.576	7.32
214.961	-0.21
215.346	5.18
215.732	26.14
216.117	13.06
216.502	28.34
216.888	17.43
217.273	-10.4
217.658	6.29
218.043	-5.72
218.428	2.25
218.813	8.08
219.198	17.11
219.583	10.67
219.968	5.87
220.353	17.71
220.738	16.22
221.122	19.65
221.507	11.16
221.892	9.5
222.276	-6.77
222.661	10.52
223.046	7.46
223.43	0.25
223.815	6.97
224.199	11.29
224.583	-1.04
224.968	-0.32
225.352	8.42
225.736	7.27
226.121	9.25
226.505	3.37
226.889	2.32
227.273	-3.11
227.657	9.03
228.041	4.8
228.425	4.43
228.809	5.66
229.193	5.34
229.577	3.13
229.961	3.92
230.344	4.07
230.728	4.14
231.112	5.47
231.495	3.59
231.879	6.32
232.263	4.85
232.646	2.75
233.03	4.82
233.413	4.38
233.797	4.9
234.18	2.66
234.563	3.97
234.946	4.48
235.33	5.13
235.713	6.16
236.096	3.15
236.479	4.96
236.862	4.99
237.245	5.27
237.628	5.1
238.011	5.15
238.394	5.35
238.777	3.27
239.16	3.35
239.543	5.14
239.925	3.81
240.308	1.79
240.691	5.64
241.073	5.21
241.456	4.15
241.838	4.29
242.221	4.64
242.603	4.62
242.986	5.16
243.368	3.81
243.75	4.01
244.133	4.23
244.515	4.26
244.897	4.52
245.279	4.45
245.661	4.11
246.043	4.15
246.425	4.38
246.807	4.83
247.189	4.45
247.571	4.35
247.953	4.78
248.335	4.26
248.717	4.17
249.098	4.41
249.48	4.12
249.862	4.1
250.243	4.32
250.625	4.4
251.006	4.34
251.388	3.6
251.769	4.93
252.151	5.07
252.532	5.43
252.913	4.46
253.295	3.88
253.676	3.86
254.057	4.56
254.438	4.1
254.819	5.44
255.2	4.61
255.581	4.7
255.962	4.6
256.343	4.37
256.724	5.84
257.105	4.31
257.486	5.05
257.867	5.14
258.247	3.96
258.628	4.28
259.009	5.2
259.389	4.37
259.77	4.16
260.15	3.75
260.531	4.68
260.911	4.26
261.292	3.93
261.672	4.06
262.052	4.01
262.432	4.07
262.813	4.75
263.193	4.16
263.573	4.4
263.953	4.18
264.333	4.68
264.713	3.9
265.093	4.35
265.473	5.06
265.853	4.18
266.233	4.21
266.612	3.94
266.992	3.97
267.372	3.99
267.752	3.58
268.131	3.67
268.511	3.62
268.89	4.04
269.27	4.1
269.649	3.99
270.029	4.15
270.408	4.12
270.787	3.82
271.167	3.84
271.546	3.94
271.925	4.39
272.304	4.51
272.683	4.06
273.062	3.91
273.441	3.49
273.82	3.6
274.199	3.78
274.578	3.67
274.957	4.21
275.336	3.72
275.715	3.62
276.093	3.87
276.472	4.03
276.851	4
277.229	3.56
277.608	3.91
277.986	3.79
278.365	4.22
278.743	3.75
279.122	3.52
279.5	4.37
279.878	3.69
280.257	3.93
280.635	4.37
281.013	4.6
281.391	3.75
281.769	4.12
282.147	4.23
282.525	4.09
282.903	3.62
283.281	3.75
283.659	4.11
284.037	3.38
284.415	4.28
284.792	4.12
285.17	3.29
285.548	4.28
285.925	3.71
286.303	3.73
286.68	3.77
287.058	3.74
287.435	3.85
287.813	3.52
288.19	3.86
288.567	3.75
288.945	3.26
289.322	3.73
289.699	3.65
290.076	3.86
290.453	4.01
290.83	3.79
291.207	3.67
291.584	3.82
291.961	3.64
292.338	3.98
292.715	4.16
293.092	3.5
293.469	4.31
293.845	4.46
294.222	3.4
294.599	4.95
294.975	4.65
295.352	3.82
295.728	4.06
296.105	4.01
296.481	4.19
296.858	4.3
297.234	4.01
297.61	4.11
297.986	3.62
298.363	3.81
298.739	3.62
299.115	3.64
299.491	4.05
299.867	4.23
300.243	3.98
300.619	3.97
300.995	4.09
301.371	4.23
301.746	3.78
302.122	4.41
302.498	4.11
302.874	4.06
303.249	4.34
303.625	4.19
304	4.33
304.376	3.81
304.751	4.17
305.127	4.04
305.502	3.72
305.878	4.14
306.253	4.01
306.628	3.82
307.003	3.94
307.378	4.14
307.754	4.2
308.129	4.07
308.504	3.83
308.879	4.03
309.254	3.97
309.629	4.23
310.003	4.01
310.378	4.01
310.753	4.13
311.128	3.85
311.502	4.14
311.877	4.17
312.252	4.23
312.626	4.07
313.001	3.93
313.375	4.11
313.75	4.32
314.124	4.18
314.498	4.36
314.873	4.24
315.247	3.67
315.621	4.77
315.995	4.56
316.369	4.14
316.743	4.52
317.117	4.21
317.491	4.67
317.865	4.35
318.239	4.57
318.613	4.8
318.987	3.66
319.361	4.01
319.734	3.94
320.108	4.4
320.482	4.23
320.855	4.33
321.229	4.6
321.602	4.35
321.976	4.37
322.349	4.23
322.723	3.89
323.096	4.73
323.469	4.42
323.843	5.05
324.216	4.16
324.589	4.94
324.962	4.64
325.335	4.27
325.708	4.28
326.081	4.7
326.454	4.49
326.827	4.37
327.2	4.49
327.573	4.69
327.945	4.18
328.318	4.42
328.691	4.14
329.063	4.69
329.436	4.23
329.809	4.62
330.181	4.3
330.553	4.51
330.926	4.55
331.298	4
331.671	4.4
332.043	4.76
332.415	4.29
332.787	4.15
333.159	4.35
333.532	4.26
333.904	4.32
334.276	4.74
334.648	4.48
335.02	4.91
335.391	4.74
335.763	4.39
336.135	4.36
336.507	4.73
336.879	4.9
337.25	3.97
337.622	4.32
337.993	4.27
338.365	4.61
338.736	4.83
339.108	4.38
339.479	4.73
339.851	4.06
340.222	4.97
340.593	4.53
340.964	4.49
341.336	4.27
341.707	4.28
342.078	4.23
342.449	4.79
342.82	4.5
343.191	4.67
343.562	4.72
343.933	4.53
344.303	4.74
344.674	4.52
345.045	4.52
345.416	5.03
345.786	4.34
346.157	4.85
346.527	4.68
346.898	4.51
347.268	4.48
347.639	4.47
348.009	4.73
348.38	4.89
348.75	5.11
349.12	4.89
349.49	4.8
349.861	4.15
350.231	4.59
350.601	5.08
350.971	4.42
351.341	4.5
351.711	4.57
352.081	4.65
352.45	4.83
352.82	4.47
353.19	4.74
353.56	4.77
353.929	4.26
354.299	4.52
354.669	4.5
355.038	4.48
355.408	4.9
355.777	4.52
356.147	4.57
356.516	4.51
356.885	4.33
357.254	4.88
357.624	4.74
357.993	4.36
358.362	4.82
358.731	4.69
359.1	4.76
359.469	4.42
359.838	4.9
360.207	4.6
360.576	4.56
360.945	4.65
361.314	4.62
361.682	4.81
362.051	4.8
362.42	4.83
362.788	4.59
363.157	4.64
363.525	4.34
363.894	4.73
364.262	4.81
364.631	5.2
364.999	4.59
365.367	4.97
365.735	4.81
366.104	4.42
366.472	5.06
366.84	4.59
367.208	4.91
367.576	5.1
367.944	4.99
368.312	4.64
368.68	4.58
369.048	4.48
369.416	4.75
369.783	5.03
370.151	4.92
370.519	4.88
370.886	4.86
371.254	4.88
371.621	5.08
371.989	4.87
372.356	5
372.724	5.03
373.091	4.7
373.458	4.71
373.826	5.06
374.193	5.11
374.56	5.01
374.927	5.5
375.294	5.2
375.661	4.99
376.028	4.63
376.395	4.93
376.762	4.97
377.129	5.22
377.496	5.37
377.863	4.72
378.229	5.26
378.596	5.15
378.963	5.07
379.329	4.91
379.696	5.02
380.062	5.5
380.429	5.1
380.795	5.1
381.161	4.87
381.528	5.19
381.894	4.93
382.26	4.91
382.626	5.12
382.993	5.22
383.359	5.13
383.725	4.92
384.091	5.09
384.457	5.33
384.823	5.13
385.188	5.09
385.554	5.21
385.92	5.22
386.286	5.1
386.651	5.21
387.017	5.12
387.383	5.31
387.748	4.74
388.114	5.04
388.479	5.05
388.845	4.91
389.21	5.18
389.575	5.01
389.94	5.04
390.306	5.23
390.671	5.48
391.036	5.05
391.401	4.77
391.766	5.16
392.131	4.89
392.496	5.18
392.861	5.29
393.226	4.98
393.591	5.11
393.956	5.23
394.32	5.21
394.685	4.93
395.05	5.2
395.414	5.24
395.779	5.02
396.143	5.47
396.508	5.2
396.872	5.46
397.236	5.32
397.601	5.52
397.965	5.41
398.329	5.22
398.694	5.19
399.058	5.17
399.422	5.41
399.786	5.11
400.15	5.15
400.514	5.03
400.878	5.45
401.242	5.01
401.605	5.44
401.969	5.31
402.333	5.01
402.697	5.5
403.06	5.24
403.424	5.51
403.787	5.47
404.151	5.57
404.514	5.65
404.878	5.26
405.241	5.21
405.604	5.3
405.968	5.32
406.331	5.37
406.694	5.31
407.057	5.32
407.42	5.37
407.783	5.29
408.146	5.3
408.509	5.35
408.872	5.43
409.235	5.47
409.598	5.41
409.961	5.33
410.323	5.61
410.686	5.5
411.049	5.39
411.411	5.36
411.774	5.61
412.136	5.56
412.499	5.33
412.861	5.44
413.223	5.32
413.586	5.15
413.948	5.69
414.31	5.57
414.672	5.45
415.035	5.51
415.397	5.41
415.759	5.37
416.121	5.41
416.483	5.34
416.845	5.4
417.206	5.5
417.568	5.52
417.93	5.41
418.292	5.43
418.653	5.33
419.015	5.41
419.377	5.45
419.738	5.32
420.1	5.43
420.461	5.41
420.822	5.39
421.184	5.36
421.545	5.32
421.906	5.22
422.267	5.37
422.629	5.32
422.99	5.27
423.351	5.45
423.712	5.37
424.073	5.42
424.434	5.53
424.795	5.37
425.155	5.4
425.516	5.34
425.877	5.49
426.238	5.39
426.598	5.48
426.959	5.49
427.32	5.51
427.68	5.57
428.041	5.57
428.401	5.56
428.761	5.73
429.122	5.54
429.482	5.69
429.842	5.64
430.202	5.54
430.563	5.55
430.923	5.6
431.283	5.38
431.643	5.63
432.003	5.59
432.363	5.78
432.722	5.45
433.082	5.62
433.442	5.67
433.802	5.56
434.161	5.46
434.521	5.64
434.881	5.54
435.24	5.56
435.6	5.68
435.959	5.71
436.319	5.72
436.678	5.68
437.037	5.83
437.396	5.7
437.756	5.59
438.115	5.69
438.474	5.7
438.833	5.79
439.192	5.62
439.551	5.7
439.91	5.7
440.269	5.43
440.628	5.7
440.987	5.66
441.345	5.66
441.704	5.65
442.063	5.69
442.421	5.68
442.78	5.7
443.138	5.62
443.497	5.83
443.855	5.86
444.214	5.87
444.572	5.86
444.93	5.73
445.288	5.85
445.647	5.78
446.005	5.73
446.363	5.82
446.721	5.58
447.079	5.76
447.437	5.78
447.795	5.64
448.153	5.7
448.51	5.71
448.868	5.71
449.226	5.8
449.584	5.79
449.941	5.82
450.299	5.73
450.656	5.99
451.014	6.01
451.371	5.91
451.729	5.97
452.086	6
452.443	6.02
452.801	6.03
453.158	5.78
453.515	5.82
453.872	5.92
454.229	5.93
454.586	6.08
454.943	5.98
455.3	5.87
455.657	6.17
456.014	5.86
456.371	5.9
456.727	5.93
457.084	5.76
457.441	5.97
457.797	5.89
458.154	5.89
458.51	5.89
458.867	6.12
459.223	6.03
459.58	6
459.936	6.07
460.292	5.92
460.648	5.79
461.005	5.89
461.361	5.83
461.717	5.8
462.073	5.92
462.429	6.01
462.785	6.08
463.141	6.1
463.496	5.99
463.852	5.97
464.208	6.16
464.564	6.11
464.919	6.13
465.275	6.09
465.631	6.24
465.986	6.13
466.342	6.13
466.697	6.02
467.052	6.22
467.408	6.1
467.763	6.01
468.118	6.06
468.473	6.1
468.829	6.06
469.184	6.08
469.539	6.17
469.894	6.21
470.249	6.13
470.603	6.18
470.958	6.24
471.313	6.06
471.668	6.12
472.023	6.17
472.377	6.13
472.732	6.45
473.086	6.16
473.441	6.18
473.795	6.17
474.15	6.11
474.504	6.11
474.859	6.29
475.213	6.24
475.567	6.29
475.921	6.16
476.275	6
476.63	6.21
476.984	6.34
477.338	6.13
477.692	6.29
478.045	6.03
478.399	6.22
478.753	6.41
479.107	6.03
479.461	6.13
479.814	6.15
480.168	6.29
480.521	6.15
480.875	6.39
481.228	6.35
481.582	6.42
481.935	6.23
482.289	6.41
482.642	6.19
482.995	6.17
483.348	6.24
483.701	6.28
484.055	6.16
484.408	6.05
484.761	5.95
485.114	5.8
485.466	5.75
485.819	5.82
486.172	6.01
486.525	6.18
486.878	6.27
487.23	6.28
487.583	6.28
487.936	6.25
488.288	6.17
488.641	5.92
488.993	6.03
489.345	6.03
489.698	6.02
490.05	6.15
490.402	6.22
490.754	6.27
491.107	6.26
491.459	6.4
491.811	6.31
492.163	6.36
492.515	6.26
492.866	6.08
493.218	5.99
493.57	6.07
493.922	6.21
494.274	6.3
494.625	6.47
494.977	6.5
495.328	6.61
495.68	6.5
496.031	6.45
496.383	6.45
496.734	6.47
497.086	6.47
497.437	6.47
497.788	6.58
498.139	6.44
498.49	6.31
498.842	6.48
499.193	6.43
499.544	6.44
499.894	6.52
500.245	6.38
500.596	6.45
500.947	6.43
501.298	6.67
501.648	6.46
501.999	6.45
502.35	6.58
502.7	6.57
503.051	6.53
503.401	6.53
503.752	6.56
504.102	6.69
504.452	6.59
504.803	6.49
505.153	6.66
505.503	6.57
505.853	6.52
506.203	6.39
506.553	6.52
506.903	6.62
507.253	6.66
507.603	6.68
507.953	6.61
508.303	6.81
508.652	6.64
509.002	6.56
509.352	6.64
509.701	6.59
510.051	6.66
510.4	6.59
510.75	6.6
511.099	6.49
511.449	6.62
511.798	6.55
512.147	6.58
512.496	6.6
512.846	6.67
513.195	6.7
513.544	6.64
513.893	6.68
514.242	6.61
514.591	6.65
514.939	6.61
515.288	6.86
515.637	6.65
515.986	6.87
516.334	6.81
516.683	6.69
517.032	6.7
517.38	6.71
517.729	6.91
518.077	6.71
518.426	6.69
518.774	6.68
519.122	6.59
519.47	6.7
519.819	6.7
520.167	6.7
520.515	6.62
520.863	6.68
521.211	6.81
521.559	6.72
521.907	6.79
522.255	6.76
522.602	6.8
522.95	6.76
523.298	6.9
523.645	6.77
523.993	6.87
524.341	7.03
524.688	6.9
525.036	6.67
525.383	6.77
525.73	6.78
526.078	6.96
526.425	6.65
526.772	6.84
527.119	6.6
527.466	6.6
527.814	6.64
528.161	6.75
528.508	6.73
528.854	6.65
529.201	6.66
529.548	6.56
529.895	6.44
530.242	6.39
530.588	6.52
530.935	6.63
531.282	6.74
531.628	6.83
531.975	6.84
532.321	6.78
532.667	6.87
533.014	6.9
533.36	6.82
533.706	6.9
534.052	6.85
534.399	6.81
534.745	6.67
535.091	6.61
535.437	6.76
535.783	6.87
536.129	6.9
536.474	6.96
536.82	6.96
537.166	7.14
537.512	6.88
537.857	6.87
538.203	6.81
538.549	6.75
538.894	6.89
539.239	6.99
539.585	7.03
539.93	7.03
540.276	7.02
540.621	7.05
540.966	7.06
541.311	7.11
541.656	6.96
542.001	6.91
542.346	6.92
542.691	6.69
543.036	6.71
543.381	6.74
543.726	6.88
544.071	7.01
544.415	7.04
544.76	7.03
545.105	6.92
545.449	7.06
545.794	7.06
546.138	7.1
546.483	7.16
546.827	7.11
547.171	7.13
547.516	7.08
547.86	7.11
548.204	7.11
548.548	6.94
548.892	7.04
549.236	7.14
549.58	7.21
549.924	7.2
550.268	7.37
550.612	7.48
550.956	7.47
551.3	7.31
551.643	7.42
551.987	7.22
552.33	7.28
552.674	7.26
553.017	7.2
553.361	7.26
553.704	7.33
554.048	7.18
554.391	7.29
554.734	7.11
555.077	7.22
555.42	7.36
555.764	7.32
556.107	7.16
556.45	7.24
556.793	7.24
557.135	7.47
557.478	7.46
557.821	7.37
558.164	7.42
558.507	7.57
558.849	7.46
559.192	7.54
559.534	7.48
559.877	7.48
560.219	7.45
560.562	7.39
560.904	7.33
561.246	7.28
561.589	7.28
561.931	7.43
562.273	7.49
562.615	7.48
562.957	7.35
563.299	7.47
563.641	7.26
563.983	7.31
564.325	7.42
564.667	7.61
565.008	7.25
565.35	7.44
565.692	7.62
566.033	7.41
566.375	7.29
566.716	7.45
567.058	7.57
567.399	7.37
567.741	7.36
568.082	7.55
568.423	7.46
568.764	7.42
569.105	7.52
569.447	7.46
569.788	7.54
570.129	7.48
570.47	7.42
570.811	7.42
571.151	7.47
571.492	7.72
571.833	7.44
572.174	7.37
572.514	7.57
572.855	7.49
573.195	7.55
573.536	7.41
573.876	7.65
574.217	7.49
574.557	7.59
574.898	7.48
575.238	7.78
575.578	7.72
575.918	7.43
576.258	7.67
576.598	7.68
576.938	7.56
577.278	7.78
577.618	7.65
577.958	7.69
578.298	7.79
578.638	7.83
578.977	7.62
579.317	7.67
579.657	7.61
579.996	7.57
580.336	7.92
580.675	7.78
581.014	7.85
581.354	7.78
581.693	7.79
582.032	7.94
582.372	7.82
582.711	7.78
583.05	7.71
583.389	7.58
583.728	7.89
584.067	7.95
584.406	7.67
584.745	7.74
585.083	7.83
585.422	7.75
585.761	7.84
586.1	7.79
586.438	7.89
586.777	8.07
587.115	8.21
587.454	7.89
587.792	7.71
588.13	7.89
588.469	7.6
588.807	7.98
589.145	7.7
589.483	8
589.821	7.79
590.159	8.09
590.497	7.83
590.835	7.88
591.173	7.95
591.511	7.7
591.849	8.02
592.187	7.99
592.524	7.89
592.862	8.04
593.2	7.88
593.537	7.89
593.875	7.97
594.212	7.83
594.55	7.82
594.887	8.1
595.224	7.78
595.561	7.72
595.899	7.76
596.236	8.11
596.573	7.96
596.91	8.01
597.247	7.84
597.584	7.94
597.921	7.73
598.258	7.68
598.594	7.78
598.931	8.02
599.268	7.86
599.604	7.98
599.941	7.87
600.277	7.93
600.614	8.25
600.95	8.41
601.287	7.83
601.623	8.14
601.959	7.93
602.296	8.01
602.632	8.06
602.968	8.3
603.304	8
603.64	8.04
603.976	7.85
604.312	7.91
604.648	8.1
604.984	8.17
605.319	8.05
605.655	8.06
605.991	8.01
606.326	7.96
606.662	7.98
606.998	7.89
607.333	7.96
607.668	8.01
608.004	8.22
608.339	8.21
608.674	8.41
609.01	8.33
609.345	7.82
609.68	8.19
610.015	8.25
610.35	8.15
610.685	8.02
611.02	8
611.355	7.87
611.689	7.98
612.024	8.16
612.359	8.29
612.694	8.33
613.028	8.32
613.363	8.43
613.697	8.13
614.032	8.26
614.366	8.2
614.7	8.29
615.035	8.67
615.369	8.19
615.703	8.35
616.037	8.18
616.371	8.13
616.705	8.48
617.039	8.33
617.373	8.43
617.707	8.15
618.041	8.34
618.375	8.21
618.709	8.38
619.042	8.21
619.376	8.55
619.71	8.31
620.043	8.29
620.377	8.4
620.71	8.15
621.043	8.55
621.377	8.16
621.71	8.22
622.043	8.3
622.376	8.1
622.709	8.29
623.043	8.35
623.376	8.02
623.709	8.57
624.041	8.08
624.374	8.41
624.707	8.19
625.04	8.25
625.373	8.67
625.705	8.12
626.038	8.11
626.37	8.43
626.703	8.72
627.035	8.23
627.368	8.7
627.7	8.65
628.032	8.51
628.365	8.2
628.697	8.34
629.029	8.35
629.361	8.66
629.693	8.67
630.025	8.5
630.357	8.36
630.689	8.57
631.021	8.23
631.353	8.52
631.684	8.52
632.016	8.52
632.348	8.68
632.679	8.2
633.011	8.68
633.342	8.74
633.674	9.04
634.005	8.82
634.336	8.26
634.668	8.83
634.999	8.41
635.33	8.83
635.661	8.74
635.992	8.31
636.323	8.62
636.654	8.45
636.985	8.07
637.316	8.89
637.647	8.77
637.977	9.24
638.308	8.52
638.639	8.5
638.969	8.82
639.3	8.67
639.63	8.24
639.961	8.88
640.291	8.94
640.622	8.73
640.952	8.88
641.282	8.68
641.612	8.91
641.943	9
642.273	8.87
642.603	8.55
642.933	9.07
643.263	8.71
643.592	8.95
643.922	8.38
644.252	8.89
644.582	8.93
644.911	8.6
645.241	9.09
645.571	8.65
645.9	8.82
646.23	8.59
646.559	8.65
646.888	8.61
647.218	8.66
647.547	8.84
647.876	8.68
648.205	8.58
648.534	8.73
648.863	8.74
649.192	7.8
649.521	8.69
649.85	8.79
650.179	8.58
650.508	8.99
650.837	9.07
651.165	8.72
651.494	8.88
651.822	9.02
652.151	8.78
652.479	9.44
652.808	9.3
653.136	8.97
653.465	8.99
653.793	8.93
654.121	8.59
654.449	9
654.777	8.99
655.105	9.32
655.433	8.95
655.761	9.54
656.089	8.96
656.417	8.94
656.745	8.71
657.073	8.87
657.4	9.09
657.728	8.74
658.056	9.05
658.383	9.02
658.711	9.15
659.038	8.58
659.365	8.81
659.693	8.7
660.02	9.06
660.347	9.25
660.674	8.92
661.001	9.26
661.329	9.17
661.656	8.93
661.982	9.21
662.309	9.65
662.636	9.14
662.963	9.24
663.29	8.74
663.616	8.9
663.943	9.12
664.27	9.01
664.596	9.12
664.923	9.11
665.249	9.2
665.576	8.62
665.902	9.42
666.228	9.9
666.554	9.31
666.881	9.33
667.207	8.82
667.533	8.69
667.859	9.04
668.185	9.64
668.511	9.73
668.837	8.93
669.162	9.81
669.488	9.14
669.814	9.71
670.139	8.88
670.465	9.65
670.791	9.08
671.116	8.92
671.442	9.41
671.767	9.52
672.092	9.05
672.418	9.2
672.743	9.21
673.068	9.66
673.393	9.37
673.718	9.11
674.043	9.42
674.368	9.73
674.693	9.26
675.018	8.75
675.343	9.45
675.667	10.03
675.992	9.84
676.317	9.8
676.641	9.38
676.966	8.7
677.29	8.87
677.615	9.11
677.939	9
678.264	9.49
678.588	9.5
678.912	9.62
679.236	8.92
679.56	9.08
679.885	9.44
680.209	9.23
680.532	9.57
680.856	9.64
681.18	9.42
681.504	9.35
681.828	9.12
682.152	9.04
682.475	9.5
682.799	9.35
683.122	10.12
683.446	9.86
683.769	10.12
684.093	10.17
684.416	10
684.739	9.51
685.062	10
685.386	10.45
685.709	9.32
686.032	9.66
686.355	10.01
686.678	9.71
687.001	10
687.324	10.16
687.646	9.37
687.969	9.34
688.292	10.15
688.614	9.62
688.937	9.77
689.26	9.34
689.582	9.81
689.904	9.72
690.227	9.24
690.549	8.52
690.871	10.07
691.194	10.09
691.516	10.44
691.838	9.2
692.16	9.52
692.482	10.05
692.804	10.56
