Data from 1805-1_crown_Reflection__2__68.txt Node

Date: Fri Sep 30 18:17:16 CDT 2022
User: ToomeyLab
Spectrometer: FLMS14357
Trigger mode: 0
Integration Time (sec): 1.000000E-2
Scans to average: 100
Electric dark correction enabled: true
Nonlinearity correction enabled: false
Boxcar width: 0
XAxis mode: Wavelengths
Number of Pixels in Spectrum: 2048
>>>>>Begin Spectral Data<<<<<
189.047	-95.6
189.435	-95.6
189.823	-95.6
190.211	26.38
190.599	-1425.96
190.987	113.91
191.375	44.5
191.763	-4.98
192.151	6.61
192.538	75.12
192.926	-150.6
193.314	110.53
193.702	83.08
194.089	920.3
194.477	-916.86
194.864	-33.44
195.252	-287.28
195.639	115.97
196.027	51.15
196.414	41.61
196.801	69.01
197.189	-63.43
197.576	163.42
197.963	-39.3
198.351	12.93
198.738	-8.84
199.125	22.5
199.512	22.87
199.899	27.21
200.286	38.41
200.673	36.85
201.06	31.48
201.447	40.17
201.833	32.26
202.22	42.67
202.607	33.12
202.994	44.62
203.38	12.36
203.767	-11.77
204.154	46.27
204.54	21.07
204.927	26.3
205.313	-31.58
205.699	-1.51
206.086	-9.34
206.472	21.28
206.858	29.61
207.245	43.09
207.631	-6.85
208.017	-4.42
208.403	-14.29
208.789	35.78
209.175	22.77
209.561	53.6
209.947	12.5
210.333	-31.3
210.719	15.35
211.105	-13.19
211.491	9.61
211.876	25.71
212.262	10.36
212.648	19.48
213.034	-44.7
213.419	26.44
213.805	22.28
214.19	10.13
214.576	-1.27
214.961	7.31
215.346	23.5
215.732	14.51
216.117	-5.08
216.502	19.38
216.888	9.06
217.273	18.74
217.658	16.52
218.043	11.75
218.428	-13.57
218.813	-7.29
219.198	17.28
219.583	9.08
219.968	6.15
220.353	18.59
220.738	22.08
221.122	12.73
221.507	12.44
221.892	13.97
222.276	1.11
222.661	17.76
223.046	5.82
223.43	3.87
223.815	6.74
224.199	13.83
224.583	9.19
224.968	3.43
225.352	15.18
225.736	11.28
226.121	13.64
226.505	7.05
226.889	10.47
227.273	-4.41
227.657	11.39
228.041	4.98
228.425	8.31
228.809	9.62
229.193	6.48
229.577	5.61
229.961	7.31
230.344	6.04
230.728	5.82
231.112	5.86
231.495	6.22
231.879	8.2
232.263	6.54
232.646	5.92
233.03	7.17
233.413	6.93
233.797	6.68
234.18	5.96
234.563	7.09
234.946	8.49
235.33	5.63
235.713	8.31
236.096	7.15
236.479	7.31
236.862	7.07
237.245	7.03
237.628	6.33
238.011	8.56
238.394	6.77
238.777	5.55
239.16	8.04
239.543	6.54
239.925	6.54
240.308	4.88
240.691	7.43
241.073	6.25
241.456	5.26
241.838	6.9
242.221	6.93
242.603	6.84
242.986	6.89
243.368	5.52
243.75	6.29
244.133	6.55
244.515	6.29
244.897	6.48
245.279	6.5
245.661	6.36
246.043	6
246.425	6.21
246.807	6.64
247.189	6.44
247.571	7.09
247.953	6.22
248.335	6.19
248.717	6.13
249.098	6.06
249.48	5.94
249.862	6.04
250.243	5.89
250.625	6.21
251.006	5.87
251.388	4.7
251.769	6.9
252.151	6.47
252.532	6.56
252.913	6.33
253.295	6
253.676	5.84
254.057	5.83
254.438	5.37
254.819	6.88
255.2	6.17
255.581	6.9
255.962	6.4
256.343	6.13
256.724	6.57
257.105	6.35
257.486	7.29
257.867	5.96
258.247	5.17
258.628	5.44
259.009	6.56
259.389	5.44
259.77	6.58
260.15	5.82
260.531	6.06
260.911	5.78
261.292	5.74
261.672	5.51
262.052	5.41
262.432	5.62
262.813	6.1
263.193	5.9
263.573	5.61
263.953	5.97
264.333	5.97
264.713	5.31
265.093	4.81
265.473	5.21
265.853	5.68
266.233	5.55
266.612	5.56
266.992	5.13
267.372	5.14
267.752	5.17
268.131	5.52
268.511	5.31
268.89	5.16
269.27	5.44
269.649	5.44
270.029	5.21
270.408	5.1
270.787	5.18
271.167	5.51
271.546	5.77
271.925	6.05
272.304	5.54
272.683	5.13
273.062	5.39
273.441	5.46
273.82	5.09
274.199	5.38
274.578	5.18
274.957	5.22
275.336	5.25
275.715	5.58
276.093	5.1
276.472	4.73
276.851	5.05
277.229	5.35
277.608	5.45
277.986	5.05
278.365	5.33
278.743	5.19
279.122	5.32
279.5	5.7
279.878	5.2
280.257	5.72
280.635	5.71
281.013	5.84
281.391	4.99
281.769	5.56
282.147	4.77
282.525	5.52
282.903	5.66
283.281	5.09
283.659	5.29
284.037	5
284.415	5.48
284.792	4.92
285.17	4.63
285.548	5.06
285.925	5.08
286.303	4.94
286.68	4.69
287.058	5.06
287.435	5.12
287.813	5.32
288.19	4.97
288.567	4.93
288.945	4.31
289.322	4.67
289.699	5.3
290.076	5.13
290.453	5.13
290.83	5.13
291.207	4.8
291.584	4.79
291.961	5.06
292.338	5.07
292.715	4.9
293.092	4.65
293.469	5.07
293.845	5.23
294.222	4.94
294.599	5.61
294.975	5.37
295.352	4.65
295.728	5.16
296.105	4.92
296.481	5.37
296.858	5.1
297.234	5.27
297.61	4.48
297.986	4.59
298.363	5.06
298.739	4.57
299.115	4.89
299.491	4.6
299.867	4.74
300.243	4.93
300.619	4.44
300.995	5.44
301.371	4.96
301.746	5.1
302.122	5.09
302.498	5.08
302.874	4.8
303.249	5.02
303.625	5.04
304	4.93
304.376	5.16
304.751	4.89
305.127	4.71
305.502	4.98
305.878	4.89
306.253	4.51
306.628	4.41
307.003	4.69
307.378	5.38
307.754	4.61
308.129	5.2
308.504	4.81
308.879	5.39
309.254	4.64
309.629	5.16
310.003	4.94
310.378	5.1
310.753	4.84
311.128	4.72
311.502	4.98
311.877	4.95
312.252	4.98
312.626	5.31
313.001	4.61
313.375	4.68
313.75	5.08
314.124	4.87
314.498	4.9
314.873	4.72
315.247	4.55
315.621	5.14
315.995	5.25
316.369	4.38
316.743	5.13
317.117	5.3
317.491	5.22
317.865	5.49
318.239	5.22
318.613	5.43
318.987	5.08
319.361	4.65
319.734	4.57
320.108	5.28
320.482	5.03
320.855	5.29
321.229	5.75
321.602	5.03
321.976	4.89
322.349	4.3
322.723	4.61
323.096	4.91
323.469	5.02
323.843	5.35
324.216	4.78
324.589	5.12
324.962	5.15
325.335	4.74
325.708	4.64
326.081	5.01
326.454	5.19
326.827	4.86
327.2	4.9
327.573	5.28
327.945	5.04
328.318	4.71
328.691	5.29
329.063	4.97
329.436	5.02
329.809	5.14
330.181	5.37
330.553	5.25
330.926	5.03
331.298	4.61
331.671	4.93
332.043	4.79
332.415	5.21
332.787	4.39
333.159	4.89
333.532	5.27
333.904	5.09
334.276	5.02
334.648	4.88
335.02	5.15
335.391	5.07
335.763	4.99
336.135	5.16
336.507	5.71
336.879	4.97
337.25	4.77
337.622	4.86
337.993	4.62
338.365	5.34
338.736	5.16
339.108	5.05
339.479	5.61
339.851	5.21
340.222	5.51
340.593	4.85
340.964	5.04
341.336	4.94
341.707	5.11
342.078	4.96
342.449	5.34
342.82	5.15
343.191	5.2
343.562	5.46
343.933	5.11
344.303	5.17
344.674	5.05
345.045	4.95
345.416	5.27
345.786	5.08
346.157	5.44
346.527	5.13
346.898	5.32
347.268	5.2
347.639	5.07
348.009	5.17
348.38	5.51
348.75	5.69
349.12	5.44
349.49	5.64
349.861	4.93
350.231	5.46
350.601	5.82
350.971	5.28
351.341	5.44
351.711	5.25
352.081	5.38
352.45	5.47
352.82	5.42
353.19	5.18
353.56	5.37
353.929	4.71
354.299	5.54
354.669	5.39
355.038	5.48
355.408	5.43
355.777	5.21
356.147	5.29
356.516	5.56
356.885	5.02
357.254	5.54
357.624	5.29
357.993	4.87
358.362	5.76
358.731	5.22
359.1	5.55
359.469	4.87
359.838	5.44
360.207	5.45
360.576	5.39
360.945	5.25
361.314	5.62
361.682	5.85
362.051	5.38
362.42	5.53
362.788	5.4
363.157	5.55
363.525	5.12
363.894	5.57
364.262	5.53
364.631	5.86
364.999	5.58
365.367	5.69
365.735	5.31
366.104	5.34
366.472	5.67
366.84	5.4
367.208	5.66
367.576	6.2
367.944	5.43
368.312	5.25
368.68	5.27
369.048	5.37
369.416	5.79
369.783	5.51
370.151	5.42
370.519	5.76
370.886	5.87
371.254	5.68
371.621	5.36
371.989	5.71
372.356	5.29
372.724	5.87
373.091	5.43
373.458	5.46
373.826	5.68
374.193	5.86
374.56	5.51
374.927	6.01
375.294	5.61
375.661	5.31
376.028	5.38
376.395	5.54
376.762	5.56
377.129	5.89
377.496	5.76
377.863	5.61
378.229	5.8
378.596	5.96
378.963	6.13
379.329	5.65
379.696	5.96
380.062	5.98
380.429	5.8
380.795	5.68
381.161	5.61
381.528	5.98
381.894	5.81
382.26	5.62
382.626	5.78
382.993	6
383.359	5.67
383.725	5.56
384.091	5.47
384.457	5.9
384.823	5.85
385.188	5.77
385.554	6.16
385.92	5.99
386.286	5.85
386.651	6.05
387.017	5.69
387.383	5.5
387.748	5.15
388.114	5.74
388.479	5.68
388.845	5.51
389.21	5.88
389.575	5.76
389.94	5.85
390.306	6.03
390.671	5.63
391.036	5.99
391.401	5.63
391.766	6.13
392.131	5.94
392.496	5.92
392.861	6.08
393.226	6
393.591	5.81
393.956	5.96
394.32	6
394.685	5.94
395.05	5.98
395.414	6.13
395.779	5.9
396.143	6.2
396.508	6
396.872	6.13
397.236	6.1
397.601	5.98
397.965	6.1
398.329	5.56
398.694	6.2
399.058	6.16
399.422	6.11
399.786	6
400.15	6.02
400.514	5.99
400.878	6.04
401.242	5.99
401.605	6.15
401.969	6.01
402.333	5.99
402.697	6.14
403.06	6.06
403.424	6.18
403.787	6.26
404.151	6.19
404.514	6.3
404.878	5.98
405.241	6.27
405.604	6.28
405.968	6.2
406.331	5.87
406.694	5.91
407.057	6.03
407.42	6.17
407.783	6.13
408.146	5.92
408.509	6.3
408.872	6.14
409.235	6.24
409.598	6.17
409.961	6.23
410.323	6.18
410.686	6.19
411.049	6.18
411.411	6.21
411.774	6.31
412.136	6.29
412.499	6.02
412.861	5.92
413.223	5.9
413.586	6.15
413.948	6.25
414.31	6.16
414.672	6.28
415.035	6.26
415.397	6.38
415.759	6.12
416.121	6.1
416.483	6.18
416.845	6.07
417.206	6.35
417.568	6.31
417.93	6.14
418.292	6.16
418.653	5.98
419.015	6.13
419.377	6.23
419.738	6.18
420.1	6.23
420.461	6.2
420.822	6.09
421.184	6.2
421.545	6.18
421.906	5.93
422.267	6.08
422.629	6.13
422.99	6.04
423.351	6.11
423.712	6.03
424.073	6.1
424.434	6.16
424.795	6.12
425.155	6.1
425.516	6.24
425.877	6.17
426.238	6.12
426.598	6.17
426.959	6.1
427.32	6.12
427.68	6.21
428.041	5.98
428.401	6.31
428.761	6.41
429.122	6.36
429.482	6.22
429.842	6.16
430.202	6.38
430.563	6.41
430.923	6.2
431.283	6.22
431.643	6.37
432.003	6.16
432.363	6.37
432.722	6.46
433.082	6.47
433.442	6.4
433.802	6.45
434.161	6.29
434.521	6.46
434.881	6.31
435.24	6.3
435.6	6.49
435.959	6.39
436.319	6.38
436.678	6.5
437.037	6.53
437.396	6.54
437.756	6.45
438.115	6.29
438.474	6.55
438.833	6.35
439.192	6.28
439.551	6.24
439.91	6.34
440.269	6.26
440.628	6.36
440.987	6.51
441.345	6.54
441.704	6.38
442.063	6.47
442.421	6.32
442.78	6.38
443.138	6.23
443.497	6.41
443.855	6.58
444.214	6.42
444.572	6.41
444.93	6.24
445.288	6.42
445.647	6.36
446.005	6.34
446.363	6.6
446.721	6.42
447.079	6.27
447.437	6.44
447.795	6.32
448.153	6.29
448.51	6.24
448.868	6.25
449.226	6.41
449.584	6.35
449.941	6.34
450.299	6.44
450.656	6.31
451.014	6.68
451.371	6.48
451.729	6.59
452.086	6.49
452.443	6.51
452.801	6.48
453.158	6.57
453.515	6.45
453.872	6.66
454.229	6.46
454.586	6.68
454.943	6.61
455.3	6.55
455.657	6.51
456.014	6.55
456.371	6.52
456.727	6.43
457.084	6.5
457.441	6.57
457.797	6.46
458.154	6.29
458.51	6.5
458.867	6.68
459.223	6.55
459.58	6.64
459.936	6.52
460.292	6.61
460.648	6.49
461.005	6.51
461.361	6.38
461.717	6.38
462.073	6.43
462.429	6.45
462.785	6.5
463.141	6.63
463.496	6.57
463.852	6.49
464.208	6.55
464.564	6.51
464.919	6.61
465.275	6.64
465.631	6.74
465.986	6.49
466.342	6.79
466.697	6.7
467.052	6.6
467.408	6.5
467.763	6.56
468.118	6.65
468.473	6.68
468.829	6.64
469.184	6.64
469.539	6.69
469.894	6.67
470.249	6.65
470.603	6.77
470.958	6.63
471.313	6.74
471.668	6.66
472.023	6.46
472.377	6.55
472.732	6.72
473.086	6.66
473.441	6.78
473.795	6.57
474.15	6.62
474.504	6.73
474.859	6.76
475.213	6.7
475.567	6.71
475.921	6.6
476.275	6.62
476.63	6.77
476.984	6.86
477.338	6.61
477.692	6.73
478.045	6.59
478.399	6.75
478.753	6.75
479.107	6.68
479.461	6.7
479.814	6.62
480.168	6.76
480.521	6.75
480.875	6.79
481.228	6.62
481.582	6.84
481.935	6.64
482.289	6.79
482.642	6.67
482.995	6.66
483.348	6.48
483.701	6.68
484.055	6.67
484.408	6.56
484.761	6.5
485.114	6.42
485.466	6.35
485.819	6.29
486.172	6.34
486.525	6.37
486.878	6.41
487.23	6.41
487.583	6.4
487.936	6.57
488.288	6.48
488.641	6.48
488.993	6.44
489.345	6.38
489.698	6.48
490.05	6.45
490.402	6.46
490.754	6.57
491.107	6.56
491.459	6.54
491.811	6.61
492.163	6.72
492.515	6.58
492.866	6.62
493.218	6.45
493.57	6.49
493.922	6.48
494.274	6.46
494.625	6.58
494.977	6.62
495.328	6.68
495.68	6.68
496.031	6.83
496.383	6.7
496.734	6.78
497.086	6.76
497.437	6.91
497.788	6.83
498.139	6.72
498.49	6.73
498.842	6.71
499.193	6.71
499.544	6.72
499.894	6.76
500.245	6.72
500.596	6.74
500.947	6.74
501.298	6.96
501.648	6.76
501.999	6.74
502.35	6.82
502.7	6.85
503.051	6.8
503.401	6.94
503.752	6.86
504.102	6.94
504.452	6.8
504.803	6.82
505.153	7
505.503	6.73
505.853	6.88
506.203	6.75
506.553	6.93
506.903	6.85
507.253	6.86
507.603	6.92
507.953	6.86
508.303	6.94
508.652	6.92
509.002	6.96
509.352	6.92
509.701	6.92
510.051	6.89
510.4	6.82
510.75	6.78
511.099	6.71
511.449	6.79
511.798	6.76
512.147	6.89
512.496	6.81
512.846	6.91
513.195	6.9
513.544	6.93
513.893	6.95
514.242	6.84
514.591	6.86
514.939	6.86
515.288	6.95
515.637	6.77
515.986	6.98
516.334	6.84
516.683	6.81
517.032	6.89
517.38	6.79
517.729	6.86
518.077	6.8
518.426	6.95
518.774	6.87
519.122	6.78
519.47	6.84
519.819	6.91
520.167	6.87
520.515	6.74
520.863	6.78
521.211	6.84
521.559	6.9
521.907	6.83
522.255	6.79
522.602	6.8
522.95	6.93
523.298	6.95
523.645	6.85
523.993	6.97
524.341	7.01
524.688	7.1
525.036	6.98
525.383	6.96
525.73	7.01
526.078	7
526.425	6.82
526.772	6.98
527.119	6.88
527.466	6.74
527.814	6.75
528.161	6.78
528.508	6.86
528.854	6.82
529.201	6.74
529.548	6.77
529.895	6.72
530.242	6.68
530.588	6.64
530.935	6.67
531.282	6.66
531.628	6.7
531.975	6.77
532.321	6.8
532.667	6.81
533.014	6.9
533.36	6.9
533.706	7
534.052	6.89
534.399	6.88
534.745	6.84
535.091	6.75
535.437	6.79
535.783	6.88
536.129	6.93
536.474	6.85
536.82	6.9
537.166	7
537.512	6.93
537.857	7.03
538.203	6.91
538.549	6.82
538.894	6.98
539.239	6.83
539.585	6.95
539.93	6.98
540.276	7
540.621	7.09
540.966	7.05
541.311	7.01
541.656	7.02
542.001	6.96
542.346	7.05
542.691	6.79
543.036	6.81
543.381	6.77
543.726	6.79
544.071	6.93
544.415	6.9
544.76	6.9
545.105	6.9
545.449	6.9
545.794	6.88
546.138	6.91
546.483	7.03
546.827	7.01
547.171	7.12
547.516	6.98
547.86	6.98
548.204	6.99
548.548	7.02
548.892	7.01
549.236	7.04
549.58	7.04
549.924	7.02
550.268	7.22
550.612	7.27
550.956	7.17
551.3	7.16
551.643	7.15
551.987	6.99
552.33	7.16
552.674	7.33
553.017	6.92
553.361	7.13
553.704	7.24
554.048	7.06
554.391	7.15
554.734	7.06
555.077	7.27
555.42	7.11
555.764	7.08
556.107	7.14
556.45	7.11
556.793	7.01
557.135	7.14
557.478	7.13
557.821	7.17
558.164	7.21
558.507	7.27
558.849	7.11
559.192	7.41
559.534	7.27
559.877	7.39
560.219	7.26
560.562	7.22
560.904	7.08
561.246	7.36
561.589	7.21
561.931	7.37
562.273	7.26
562.615	7.31
562.957	7.08
563.299	7.21
563.641	7.22
563.983	7.22
564.325	7.14
564.667	7.5
565.008	7.18
565.35	7.38
565.692	7.34
566.033	6.92
566.375	7.1
566.716	7.28
567.058	7.08
567.399	7.17
567.741	7.21
568.082	7.33
568.423	7.23
568.764	7.19
569.105	7.17
569.447	7.24
569.788	7.29
570.129	7.35
570.47	7.28
570.811	7.24
571.151	7.3
571.492	7.26
571.833	7.29
572.174	7.03
572.514	7.35
572.855	7.26
573.195	7.3
573.536	7.36
573.876	7.37
574.217	7.2
574.557	7.25
574.898	7.25
575.238	7.39
575.578	7.36
575.918	7.15
576.258	7.31
576.598	7.3
576.938	7.19
577.278	7.24
577.618	7.26
577.958	7.36
578.298	7.36
578.638	7.57
578.977	7.39
579.317	7.46
579.657	7.34
579.996	7.09
580.336	7.17
580.675	7.42
581.014	7.34
581.354	7.49
581.693	7.23
582.032	7.49
582.372	7.26
582.711	7.29
583.05	7.3
583.389	7.28
583.728	7.25
584.067	7.47
584.406	7.41
584.745	7.55
585.083	7.14
585.422	7.52
585.761	7.33
586.1	7.44
586.438	7.4
586.777	7.77
587.115	7.53
587.454	7.32
587.792	7.18
588.13	7.54
588.469	7.25
588.807	7.47
589.145	7.24
589.483	7.42
589.821	7.24
590.159	7.34
590.497	7.34
590.835	7.34
591.173	7.46
591.511	7.33
591.849	7.38
592.187	7.47
592.524	7.33
592.862	7.53
593.2	7.36
593.537	7.4
593.875	7.47
594.212	7.32
594.55	7.3
594.887	7.69
595.224	7.4
595.561	7.49
595.899	7.4
596.236	7.49
596.573	7.28
596.91	7.55
597.247	7.31
597.584	7.56
597.921	7.51
598.258	7.27
598.594	7.19
598.931	7.52
599.268	7.27
599.604	7.44
599.941	7.07
600.277	7.19
600.614	7.28
600.95	7.57
601.287	7.32
601.623	7.23
601.959	7.44
602.296	7.49
602.632	7.36
602.968	7.58
603.304	7.59
603.64	7.47
603.976	7.45
604.312	7.36
604.648	7.38
604.984	7.5
605.319	7.52
605.655	7.58
605.991	7.3
606.326	7.47
606.662	7.39
606.998	7.18
607.333	7.56
607.668	7.3
608.004	7.59
608.339	7.36
608.674	7.55
609.01	7.33
609.345	7.27
609.68	7.52
610.015	7.55
610.35	7.29
610.685	7.23
611.02	7.25
611.355	7.16
611.689	7.11
612.024	7.55
612.359	7.58
612.694	7.63
613.028	7.33
613.363	7.48
613.697	7.36
614.032	7.48
614.366	7.35
614.7	7.23
615.035	7.62
615.369	7.46
615.703	7.43
616.037	7.35
616.371	7.41
616.705	7.25
617.039	7.28
617.373	7.63
617.707	7.36
618.041	7.45
618.375	7.28
618.709	7.81
619.042	7.61
619.376	7.58
619.71	7.57
620.043	7.51
620.377	7.46
620.71	7.47
621.043	7.73
621.377	7.75
621.71	7.54
622.043	7.36
622.376	7.55
622.709	7.46
623.043	7.61
623.376	7.53
623.709	7.6
624.041	7.6
624.374	7.74
624.707	7.2
625.04	7.66
625.373	7.48
625.705	7.42
626.038	7.45
626.37	7.56
626.703	7.93
627.035	7.89
627.368	7.67
627.7	7.44
628.032	7.34
628.365	7.27
628.697	7.51
629.029	7.25
629.361	7.34
629.693	7.6
630.025	7.38
630.357	7.81
630.689	7.75
631.021	7.25
631.353	7.66
631.684	7.21
632.016	7.79
632.348	7.4
632.679	7.05
633.011	7.27
633.342	7.48
633.674	7.71
634.005	7.8
634.336	7.37
634.668	7.72
634.999	7.71
635.33	7.84
635.661	7.58
635.992	7.67
636.323	7.59
636.654	7.4
636.985	7.19
637.316	7.84
637.647	7.72
637.977	7.85
638.308	7.2
638.639	7.32
638.969	7.72
639.3	7.56
639.63	7.21
639.961	8
640.291	7.49
640.622	7.51
640.952	7.72
641.282	7.91
641.612	8.02
641.943	7.55
642.273	7.82
642.603	7.62
642.933	7.1
643.263	7.92
643.592	7.99
643.922	7.39
644.252	7.74
644.582	7.71
644.911	8.03
645.241	7.78
645.571	7.23
645.9	7.44
646.23	7.75
646.559	7.5
646.888	7.82
647.218	7.3
647.547	7.42
647.876	7.91
648.205	8.22
648.534	7.68
648.863	8.24
649.192	7.52
649.521	7.59
649.85	7.79
650.179	7.97
650.508	7.63
650.837	7.89
651.165	7.36
651.494	8.1
651.822	7.92
652.151	7.98
652.479	7.97
652.808	7.97
653.136	7.96
653.465	7.24
653.793	7.51
654.121	7.38
654.449	8
654.777	7.87
655.105	8.18
655.433	7.66
655.761	8
656.089	7.7
656.417	7.98
656.745	7.88
657.073	7.87
657.4	8.04
657.728	7.69
658.056	7.61
658.383	8.06
658.711	8.13
659.038	7.16
659.365	7.5
659.693	7.79
660.02	7.85
660.347	8.04
660.674	7.81
661.001	7.98
661.329	7.98
661.656	7.74
661.982	7.64
662.309	8.15
662.636	7.8
662.963	7.87
663.29	7.59
663.616	7.37
663.943	7.83
664.27	7.67
664.596	7.42
664.923	8.03
665.249	8.22
665.576	8.36
665.902	7.9
666.228	7.94
666.554	8.14
666.881	8.59
667.207	7.94
667.533	7.7
667.859	8.45
668.185	8.27
668.511	8.02
668.837	8.26
669.162	8.34
669.488	7.9
669.814	8.04
670.139	7.82
670.465	7.9
670.791	8.15
671.116	7.89
671.442	8.31
671.767	8.27
672.092	7.68
672.418	7.64
672.743	7.74
673.068	8.25
673.393	7.92
673.718	7.6
674.043	8.1
674.368	8.05
674.693	7.37
675.018	7.86
675.343	7.9
675.667	8.12
675.992	7.85
676.317	8.03
676.641	8.19
676.966	7.86
677.29	7.39
677.615	7.51
677.939	8.04
678.264	7.82
678.588	7.5
678.912	8.42
679.236	8.04
679.56	7.95
679.885	8.16
680.209	7.77
680.532	8.16
680.856	8.23
681.18	8.34
681.504	8.06
681.828	8
682.152	8
682.475	8.21
682.799	8.14
683.122	8.29
683.446	8.31
683.769	8.04
684.093	8.47
684.416	8.83
684.739	8.18
685.062	8.12
685.386	8.68
685.709	8.07
686.032	8.68
686.355	7.8
686.678	8.15
687.001	8.01
687.324	8.79
687.646	7.49
687.969	8.22
688.292	8.61
688.614	7.73
688.937	7.81
689.26	7.96
689.582	8.1
689.904	8.61
690.227	7.81
690.549	7.33
690.871	8.17
691.194	7.88
691.516	8.22
691.838	8.16
692.16	8.41
692.482	8.41
692.804	9.02
693.126	8.1
693.448	7.65
