Data from 1805-1_forehead_Reflection__4__75.txt Node

Date: Fri Sep 30 18:19:11 CDT 2022
User: ToomeyLab
Spectrometer: FLMS14357
Trigger mode: 0
Integration Time (sec): 1.000000E-2
Scans to average: 100
Electric dark correction enabled: true
Nonlinearity correction enabled: false
Boxcar width: 0
XAxis mode: Wavelengths
Number of Pixels in Spectrum: 2048
>>>>>Begin Spectral Data<<<<<
189.047	-116.5
189.435	-116.5
189.823	-116.5
190.211	-28.14
190.599	-1075.81
190.987	166.1
191.375	122.55
191.763	76.37
192.151	60.28
192.538	16.18
192.926	-197.55
193.314	98.17
193.702	57.82
194.089	113.7
194.477	-175.29
194.864	-202.73
195.252	9.52
195.639	7.86
196.027	-11.1
196.414	-434.34
196.801	85.21
197.189	25.99
197.576	111.94
197.963	-64.12
198.351	-2.16
198.738	5.32
199.125	45.35
199.512	25.03
199.899	62.78
200.286	-1.33
200.673	67.06
201.06	23.66
201.447	50.06
201.833	67.43
202.22	56.99
202.607	30.59
202.994	57.34
203.38	74.75
203.767	13.63
204.154	36.81
204.54	32.59
204.927	45.13
205.313	-5.11
205.699	25.74
206.086	-39.01
206.472	-1.86
206.858	41.43
207.245	10.3
207.631	12.18
208.017	-7.58
208.403	20.47
208.789	10.4
209.175	31.57
209.561	19.4
209.947	9.48
210.333	-19.71
210.719	16.46
211.105	-1.16
211.491	30.59
211.876	-1.45
212.262	32.11
212.648	28.96
213.034	4.96
213.419	19.42
213.805	29.09
214.19	20.56
214.576	-8.23
214.961	12.02
215.346	22
215.732	4.68
216.117	20.37
216.502	40.72
216.888	16.97
217.273	26.71
217.658	31.87
218.043	5.83
218.428	7.16
218.813	27.31
219.198	12.79
219.583	23.72
219.968	7.25
220.353	11.49
220.738	22.95
221.122	12.01
221.507	24.46
221.892	-1.42
222.276	11.25
222.661	11.39
223.046	2.19
223.43	2.42
223.815	8.75
224.199	15.98
224.583	7.5
224.968	6.97
225.352	3.6
225.736	9.92
226.121	10.8
226.505	-0.98
226.889	3.47
227.273	2.55
227.657	9.08
228.041	-0.59
228.425	4.04
228.809	4.51
229.193	4.63
229.577	0.42
229.961	1.92
230.344	-0.07
230.728	0.76
231.112	1.03
231.495	1.09
231.879	3.14
232.263	0.41
232.646	1.68
233.03	2.71
233.413	1.58
233.797	2.16
234.18	2.4
234.563	3.92
234.946	2.68
235.33	0.14
235.713	2.94
236.096	2.18
236.479	1.84
236.862	0.07
237.245	3.24
237.628	1.78
238.011	5.07
238.394	1.54
238.777	-0.2
239.16	2.04
239.543	3.21
239.925	2.22
240.308	1.91
240.691	3.37
241.073	1.68
241.456	1.43
241.838	0.85
242.221	0.75
242.603	1.99
242.986	1.81
243.368	0.96
243.75	1.03
244.133	1.33
244.515	0.76
244.897	1.55
245.279	1.98
245.661	1.38
246.043	0.61
246.425	0.59
246.807	2.18
247.189	1.74
247.571	1.87
247.953	1.42
248.335	1
248.717	0.93
249.098	1.29
249.48	1
249.862	1.13
250.243	1.31
250.625	1.48
251.006	1.33
251.388	1.23
251.769	2.09
252.151	1.74
252.532	1.51
252.913	0.93
253.295	1.43
253.676	0.67
254.057	1.31
254.438	1.35
254.819	1.8
255.2	1.59
255.581	1.91
255.962	1.1
256.343	1.78
256.724	1.55
257.105	2.74
257.486	2.33
257.867	2.27
258.247	2.06
258.628	1.75
259.009	2.08
259.389	1.62
259.77	2
260.15	1.41
260.531	1.56
260.911	1.2
261.292	1.25
261.672	0.99
262.052	1.15
262.432	1.14
262.813	2
263.193	0.93
263.573	0.94
263.953	1.36
264.333	1.93
264.713	1.35
265.093	1.22
265.473	1.14
265.853	1.54
266.233	1.19
266.612	0.85
266.992	1.08
267.372	1.07
267.752	0.84
268.131	1.12
268.511	1.14
268.89	1.21
269.27	1.65
269.649	1.23
270.029	1.66
270.408	1.42
270.787	1.28
271.167	1.69
271.546	1.39
271.925	1.87
272.304	1.26
272.683	1.71
273.062	1.48
273.441	1.02
273.82	0.69
274.199	1
274.578	1.4
274.957	1.17
275.336	0.98
275.715	1.38
276.093	1.15
276.472	1.13
276.851	1.7
277.229	1.4
277.608	0.68
277.986	1.08
278.365	1.59
278.743	0.89
279.122	1.38
279.5	1.23
279.878	1.42
280.257	1.3
280.635	1.85
281.013	1.66
281.391	1.24
281.769	1.06
282.147	0.8
282.525	1.92
282.903	1.12
283.281	0.87
283.659	1.52
284.037	1.46
284.415	1.28
284.792	1.4
285.17	0.81
285.548	1.55
285.925	1.13
286.303	0.9
286.68	1.13
287.058	1.29
287.435	1.2
287.813	1.35
288.19	1.21
288.567	1.19
288.945	0.87
289.322	0.87
289.699	1.22
290.076	0.94
290.453	1.21
290.83	0.94
291.207	1.21
291.584	1.25
291.961	1.48
292.338	1.57
292.715	1.42
293.092	1.48
293.469	1.7
293.845	1.95
294.222	1.21
294.599	2.42
294.975	1.72
295.352	1.33
295.728	1.61
296.105	1.68
296.481	1.59
296.858	1.74
297.234	1.79
297.61	1.4
297.986	1.52
298.363	1.81
298.739	1.59
299.115	1.36
299.491	1.72
299.867	1.65
300.243	1.64
300.619	1.81
300.995	2.37
301.371	1.67
301.746	1.48
302.122	1.96
302.498	1.77
302.874	2.03
303.249	2.05
303.625	2.12
304	1.53
304.376	1.82
304.751	2.26
305.127	2.1
305.502	1.71
305.878	2.22
306.253	1.93
306.628	1.98
307.003	2.18
307.378	2.66
307.754	2.58
308.129	2.07
308.504	2.05
308.879	2.57
309.254	2.08
309.629	2.47
310.003	1.76
310.378	2.28
310.753	2.38
311.128	2.13
311.502	2.53
311.877	2.41
312.252	2.74
312.626	2.53
313.001	2.16
313.375	2.44
313.75	2.7
314.124	2.64
314.498	2.44
314.873	2.85
315.247	2.85
315.621	2.7
315.995	3.07
316.369	2.44
316.743	3.09
317.117	3.33
317.491	3.93
317.865	3.71
318.239	3.24
318.613	3.48
318.987	3.11
319.361	2.99
319.734	2.62
320.108	3.59
320.482	3.16
320.855	3.34
321.229	3.36
321.602	3.23
321.976	3.43
322.349	3.67
322.723	3.51
323.096	3.89
323.469	3.57
323.843	3.58
324.216	3.71
324.589	3.92
324.962	3.74
325.335	3.85
325.708	3.84
326.081	4.36
326.454	3.95
326.827	4.23
327.2	3.51
327.573	3.71
327.945	3.13
328.318	3.96
328.691	4.32
329.063	4.15
329.436	3.95
329.809	4.8
330.181	3.95
330.553	4.32
330.926	4.37
331.298	4.13
331.671	4.26
332.043	4.33
332.415	4.33
332.787	4.52
333.159	4.53
333.532	4.72
333.904	3.9
334.276	4.56
334.648	4.29
335.02	4.94
335.391	4.94
335.763	4.54
336.135	4.38
336.507	5.09
336.879	4.54
337.25	3.92
337.622	4.51
337.993	4.49
338.365	4.43
338.736	4.82
339.108	5.01
339.479	5.02
339.851	4.98
340.222	5.36
340.593	4.73
340.964	4.98
341.336	5.11
341.707	4.94
342.078	5.12
342.449	5.27
342.82	5.05
343.191	5.38
343.562	4.93
343.933	4.59
344.303	5.31
344.674	5.38
345.045	4.94
345.416	5.66
345.786	5.55
346.157	5.59
346.527	5.2
346.898	5.17
347.268	5.21
347.639	5.37
348.009	5.39
348.38	5.67
348.75	5.92
349.12	5.82
349.49	5.99
349.861	5.3
350.231	5.7
350.601	5.89
350.971	5.65
351.341	5.97
351.711	4.92
352.081	6.08
352.45	5.84
352.82	5.97
353.19	5.83
353.56	5.93
353.929	5.83
354.299	5.62
354.669	5.58
355.038	5.93
355.408	6.16
355.777	5.66
356.147	6.02
356.516	6.56
356.885	5.89
357.254	6.37
357.624	6.05
357.993	5.65
358.362	6.31
358.731	6.28
359.1	6.18
359.469	6.04
359.838	6.72
360.207	6.49
360.576	6.4
360.945	6.57
361.314	6.12
361.682	6.28
362.051	6.47
362.42	6.33
362.788	6.47
363.157	6.38
363.525	6.08
363.894	6.44
364.262	6.54
364.631	6.91
364.999	6.75
365.367	6.84
365.735	6.39
366.104	6.67
366.472	7.1
366.84	6.85
367.208	6.54
367.576	7.41
367.944	6.79
368.312	6.64
368.68	7.02
369.048	6.87
369.416	7.08
369.783	6.87
370.151	6.81
370.519	7.22
370.886	6.85
371.254	7.15
371.621	7.48
371.989	7.36
372.356	7.22
372.724	7.17
373.091	7.05
373.458	7.14
373.826	7.52
374.193	7.49
374.56	7.41
374.927	7.84
375.294	7.88
375.661	7.08
376.028	7.22
376.395	7.55
376.762	7.38
377.129	7.87
377.496	7.92
377.863	7.47
378.229	8.07
378.596	7.82
378.963	7.93
379.329	7.5
379.696	7.8
380.062	7.94
380.429	7.69
380.795	7.69
381.161	7.43
381.528	8.01
381.894	7.95
382.26	7.71
382.626	7.93
382.993	8.09
383.359	8.13
383.725	8.05
384.091	7.97
384.457	8.31
384.823	8.32
385.188	8.34
385.554	8.28
385.92	8.2
386.286	8.56
386.651	8.46
387.017	8.45
387.383	8.28
387.748	8.14
388.114	8.24
388.479	8.37
388.845	8.16
389.21	8.36
389.575	8.33
389.94	8.6
390.306	8.54
390.671	8.59
391.036	8.49
391.401	8.52
391.766	8.74
392.131	8.74
392.496	8.64
392.861	8.99
393.226	8.6
393.591	8.47
393.956	8.74
394.32	8.72
394.685	8.8
395.05	9.04
395.414	8.75
395.779	8.66
396.143	8.82
396.508	8.83
396.872	9.16
397.236	8.85
397.601	9.24
397.965	9.09
398.329	8.79
398.694	9.41
399.058	9.23
399.422	9.12
399.786	9.13
400.15	9.49
400.514	9.13
400.878	9.27
401.242	9.21
401.605	9.1
401.969	9.54
402.333	9.49
402.697	9.68
403.06	9.47
403.424	9.56
403.787	9.43
404.151	9.55
404.514	9.54
404.878	9.53
405.241	9.66
405.604	9.48
405.968	9.64
406.331	9.36
406.694	9.61
407.057	9.73
407.42	9.78
407.783	9.59
408.146	9.48
408.509	9.65
408.872	9.66
409.235	9.81
409.598	10.04
409.961	9.7
410.323	10.04
410.686	10.1
411.049	9.83
411.411	9.98
411.774	10.06
412.136	9.89
412.499	9.79
412.861	9.87
413.223	9.86
413.586	10.12
413.948	10.28
414.31	10.26
414.672	10.19
415.035	10.32
415.397	10.33
415.759	10.22
416.121	10.09
416.483	10.23
416.845	10.23
417.206	10.35
417.568	10.11
417.93	10.34
418.292	10.22
418.653	10.21
419.015	10.26
419.377	10.25
419.738	10.23
420.1	10.34
420.461	10.32
420.822	10.22
421.184	10.29
421.545	10.31
421.906	10.09
422.267	10.2
422.629	10.26
422.99	10.26
423.351	10.35
423.712	10.36
424.073	10.5
424.434	10.4
424.795	10.66
425.155	10.42
425.516	10.48
425.877	10.58
426.238	10.47
426.598	10.59
426.959	10.52
427.32	10.75
427.68	10.76
428.041	10.61
428.401	10.85
428.761	11
429.122	11.08
429.482	11
429.842	11.08
430.202	11.08
430.563	10.95
430.923	11.13
431.283	11.12
431.643	11.26
432.003	11.02
432.363	11.2
432.722	11.34
433.082	11.33
433.442	11.3
433.802	11.33
434.161	11.18
434.521	11.25
434.881	11.18
435.24	11.33
435.6	11.38
435.959	11.34
436.319	11.51
436.678	11.54
437.037	11.63
437.396	11.52
437.756	11.53
438.115	11.57
438.474	11.7
438.833	11.58
439.192	11.62
439.551	11.56
439.91	11.62
440.269	11.51
440.628	11.59
440.987	11.78
441.345	11.84
441.704	11.63
442.063	11.9
442.421	11.74
442.78	11.83
443.138	11.76
443.497	11.89
443.855	11.96
444.214	11.95
444.572	12.19
444.93	12.05
445.288	12.04
445.647	12.1
446.005	12.09
446.363	11.99
446.721	11.96
447.079	12.09
447.437	12.06
447.795	11.93
448.153	11.94
448.51	12
448.868	12.02
449.226	12.1
449.584	12.14
449.941	12.24
450.299	12.34
450.656	12.34
451.014	12.65
451.371	12.5
451.729	12.62
452.086	12.49
452.443	12.69
452.801	12.69
453.158	12.56
453.515	12.4
453.872	12.63
454.229	12.61
454.586	12.86
454.943	12.79
455.3	12.63
455.657	12.89
456.014	12.68
456.371	12.76
456.727	12.91
457.084	12.75
457.441	12.99
457.797	12.98
458.154	12.76
458.51	12.81
458.867	13.06
459.223	12.94
459.58	13.04
459.936	13.07
460.292	13.05
460.648	12.71
461.005	12.93
461.361	12.8
461.717	12.76
462.073	12.96
462.429	12.96
462.785	13.16
463.141	13.27
463.496	13.29
463.852	13.45
464.208	13.38
464.564	13.28
464.919	13.41
465.275	13.42
465.631	13.52
465.986	13.45
466.342	13.49
466.697	13.55
467.052	13.62
467.408	13.73
467.763	13.6
468.118	13.73
468.473	13.6
468.829	13.62
469.184	13.69
469.539	13.7
469.894	13.68
470.249	13.8
470.603	13.94
470.958	13.89
471.313	13.93
471.668	14
472.023	13.88
472.377	13.83
472.732	13.84
473.086	13.8
473.441	14.15
473.795	14.04
474.15	14.02
474.504	14.12
474.859	14.11
475.213	13.95
475.567	14.3
475.921	14.22
476.275	13.99
476.63	14.2
476.984	14.1
477.338	14.26
477.692	14.25
478.045	14.21
478.399	14.17
478.753	14.45
479.107	14.34
479.461	14.33
479.814	14.18
480.168	14.38
480.521	14.38
480.875	14.4
481.228	14.4
481.582	14.46
481.935	14.43
482.289	14.38
482.642	14.6
482.995	14.39
483.348	14.34
483.701	14.39
484.055	14.29
484.408	14.17
484.761	13.84
485.114	13.72
485.466	13.57
485.819	13.63
486.172	13.79
486.525	14.01
486.878	14.04
487.23	14.26
487.583	14.28
487.936	14.34
488.288	14.24
488.641	14.14
488.993	14.05
489.345	13.99
489.698	14.03
490.05	14.19
490.402	14.28
490.754	14.46
491.107	14.49
491.459	14.73
491.811	14.69
492.163	14.78
492.515	14.54
492.866	14.39
493.218	14.25
493.57	14.36
493.922	14.48
494.274	14.73
494.625	14.87
494.977	15
495.328	15.09
495.68	15.1
496.031	15.29
496.383	15.26
496.734	15.45
497.086	15.42
497.437	15.47
497.788	15.44
498.139	15.19
498.49	15.16
498.842	15.19
499.193	15.26
499.544	15.29
499.894	15.37
500.245	15.24
500.596	15.38
500.947	15.66
501.298	15.54
501.648	15.72
501.999	15.59
502.35	15.71
502.7	15.72
503.051	15.83
503.401	15.8
503.752	15.68
504.102	15.87
504.452	15.87
504.803	15.85
505.153	15.99
505.503	15.75
505.853	15.92
506.203	15.8
506.553	15.95
506.903	16.09
507.253	16.12
507.603	16.3
507.953	16.07
508.303	15.99
508.652	16.05
509.002	16.1
509.352	16.21
509.701	15.99
510.051	16.1
510.4	15.97
510.75	15.91
511.099	15.92
511.449	16.11
511.798	16.07
512.147	16.13
512.496	16.14
512.846	16.17
513.195	16.21
513.544	16.32
513.893	16.24
514.242	16.08
514.591	16.29
514.939	16.25
515.288	16.32
515.637	16.35
515.986	16.5
516.334	16.38
516.683	16.57
517.032	16.52
517.38	16.67
517.729	16.69
518.077	16.46
518.426	16.66
518.774	16.51
519.122	16.34
519.47	16.36
519.819	16.4
520.167	16.31
520.515	16.19
520.863	16.27
521.211	16.53
521.559	16.42
521.907	16.57
522.255	16.51
522.602	16.77
522.95	16.79
523.298	16.93
523.645	16.78
523.993	16.96
524.341	16.9
524.688	17.05
525.036	16.93
525.383	16.88
525.73	16.84
526.078	16.97
526.425	16.87
526.772	16.66
527.119	16.54
527.466	16.55
527.814	16.64
528.161	16.59
528.508	16.73
528.854	16.73
529.201	16.68
529.548	16.47
529.895	16.29
530.242	16.18
530.588	16.26
530.935	16.35
531.282	16.51
531.628	16.67
531.975	16.79
532.321	16.81
532.667	16.99
533.014	17.14
533.36	17.01
533.706	17.06
534.052	17.05
534.399	16.9
534.745	16.78
535.091	16.66
535.437	16.88
535.783	16.94
536.129	17.13
536.474	17.22
536.82	17.38
537.166	17.35
537.512	17.29
537.857	17.29
538.203	17.13
538.549	17.11
538.894	17.29
539.239	17.41
539.585	17.52
539.93	17.6
540.276	17.71
540.621	17.75
540.966	17.92
541.311	17.74
541.656	17.65
542.001	17.57
542.346	17.4
542.691	17.18
543.036	17
543.381	17.04
543.726	17.14
544.071	17.47
544.415	17.4
544.76	17.67
545.105	17.58
545.449	17.68
545.794	17.71
546.138	17.86
546.483	17.95
546.827	17.89
547.171	18.01
547.516	17.81
547.86	17.96
548.204	17.84
548.548	17.85
548.892	17.95
549.236	17.98
549.58	18.21
549.924	18.17
550.268	18.38
550.612	18.54
550.956	18.54
551.3	18.52
551.643	18.69
551.987	18.39
552.33	18.43
552.674	18.53
553.017	18.42
553.361	18.49
553.704	18.64
554.048	18.64
554.391	18.67
554.734	18.63
555.077	18.7
555.42	18.57
555.764	18.81
556.107	18.77
556.45	18.72
556.793	18.73
557.135	18.96
557.478	18.86
557.821	18.91
558.164	18.83
558.507	19.14
558.849	19.02
559.192	18.89
559.534	19.12
559.877	19.01
560.219	19.11
560.562	19.15
560.904	18.89
561.246	19.25
561.589	19
561.931	19.05
562.273	19.1
562.615	19.05
562.957	19.14
563.299	19.22
563.641	19.19
563.983	19.06
564.325	19.19
564.667	19.61
565.008	19.21
565.35	19.3
565.692	19.62
566.033	19.2
566.375	19.18
566.716	19.34
567.058	19.41
567.399	19.21
567.741	19.3
568.082	19.13
568.423	19.43
568.764	19.36
569.105	19.34
569.447	19.67
569.788	19.4
570.129	19.45
570.47	19.47
570.811	19.47
571.151	19.5
571.492	19.72
571.833	19.62
572.174	19.41
572.514	19.61
572.855	19.5
573.195	19.7
573.536	19.66
573.876	19.74
574.217	19.56
574.557	19.72
574.898	19.71
575.238	19.69
575.578	19.89
575.918	19.73
576.258	19.67
576.598	19.79
576.938	19.88
577.278	19.76
577.618	19.86
577.958	20.02
578.298	19.95
578.638	19.8
578.977	20.03
579.317	20.08
579.657	19.78
579.996	19.96
580.336	20.09
580.675	20.3
581.014	20.38
581.354	20.2
581.693	20.34
582.032	20.3
582.372	20.3
582.711	20.36
583.05	20.28
583.389	19.81
583.728	20.08
584.067	20.2
584.406	20.41
584.745	20.46
585.083	20.37
585.422	20.42
585.761	20.52
586.1	20.46
586.438	20.38
586.777	20.64
587.115	20.53
587.454	20.32
587.792	20.54
588.13	20.39
588.469	20.66
588.807	20.42
589.145	20.51
589.483	20.66
589.821	20.59
590.159	20.5
590.497	20.42
590.835	20.35
591.173	20.73
591.511	20.52
591.849	20.68
592.187	20.87
592.524	20.63
592.862	20.92
593.2	20.8
593.537	20.64
593.875	20.75
594.212	20.77
594.55	20.87
594.887	20.98
595.224	20.92
595.561	20.9
595.899	20.64
596.236	20.88
596.573	20.9
596.91	20.87
597.247	20.89
597.584	20.86
597.921	20.78
598.258	20.57
598.594	20.53
598.931	20.74
599.268	20.77
599.604	20.84
599.941	20.87
600.277	20.95
600.614	21.02
600.95	21.27
601.287	21.08
601.623	21.42
601.959	21.17
602.296	21.21
602.632	21.14
602.968	21.53
603.304	21.25
603.64	21.25
603.976	21.33
604.312	21.24
604.648	21.36
604.984	21.38
605.319	21.03
605.655	21.22
605.991	21.13
606.326	21.2
606.662	21.11
606.998	21.07
607.333	21.36
607.668	21.19
608.004	21.39
608.339	21.54
608.674	21.75
609.01	21.69
609.345	21.23
609.68	21.51
610.015	21.61
610.35	21.22
610.685	21.32
611.02	21.26
611.355	21.26
611.689	21.36
612.024	21.4
612.359	21.81
612.694	21.38
613.028	21.9
613.363	21.84
613.697	21.65
614.032	21.84
614.366	21.62
614.7	21.8
615.035	21.99
615.369	21.72
615.703	21.8
616.037	21.83
616.371	21.83
616.705	22.11
617.039	22.02
617.373	22.47
617.707	21.83
618.041	22.14
618.375	21.99
618.709	22.09
619.042	21.75
619.376	22.37
619.71	22.41
620.043	22.24
620.377	22.36
620.71	22.09
621.043	21.93
621.377	22.64
621.71	21.89
622.043	22.39
622.376	21.95
622.709	21.9
623.043	22.29
623.376	22.37
623.709	22.31
624.041	22.54
624.374	21.92
624.707	22.45
625.04	22.5
625.373	22.58
625.705	21.93
626.038	22.14
626.37	22.42
626.703	22.68
627.035	22.59
627.368	22.81
627.7	22.59
628.032	22.58
628.365	22.3
628.697	22.66
629.029	22.26
629.361	22.41
629.693	22.46
630.025	22.46
630.357	22.37
630.689	22.41
631.021	22.75
631.353	22.46
631.684	22.7
632.016	23.18
632.348	23.05
632.679	22.65
633.011	22.51
633.342	22.7
633.674	22.83
634.005	22.68
634.336	22.89
634.668	22.93
634.999	23.04
635.33	22.98
635.661	22.86
635.992	22.59
636.323	23
636.654	22.8
636.985	22.73
637.316	23.07
637.647	22.86
637.977	23.1
638.308	22.75
638.639	23.07
638.969	23.28
639.3	22.86
639.63	22.65
639.961	23.27
640.291	23.21
640.622	22.94
640.952	23.35
641.282	23.2
641.612	23.24
641.943	23.14
642.273	23.26
642.603	23.01
642.933	23
643.263	23.38
643.592	23.39
643.922	23.12
644.252	23.44
644.582	23.43
644.911	23.65
645.241	23.46
645.571	23.05
645.9	23.32
646.23	23.31
646.559	23.47
646.888	23.39
647.218	23.4
647.547	23.64
647.876	23.1
648.205	23.63
648.534	23.58
648.863	23.51
649.192	23.15
649.521	23.3
649.85	23.19
650.179	23.44
650.508	23.41
650.837	23.72
651.165	22.89
651.494	23.53
651.822	23.28
652.151	23.58
652.479	24.14
652.808	23.61
653.136	23.86
653.465	23.38
653.793	23.48
654.121	23.51
654.449	24
654.777	24.16
655.105	24.09
655.433	23.17
655.761	24.15
656.089	24.23
656.417	23.26
656.745	23.42
657.073	23.68
657.4	23.72
657.728	24.33
658.056	24.25
658.383	24.09
658.711	23.9
659.038	23.6
659.365	23.79
659.693	24.57
660.02	23.92
660.347	24.21
660.674	23.77
661.001	24
661.329	24.02
661.656	23.76
661.982	23.83
662.309	24.5
662.636	24.09
662.963	23.56
663.29	23.7
663.616	23.73
663.943	24.49
664.27	23.73
664.596	23.99
664.923	24.02
665.249	24.52
665.576	24.68
665.902	24.57
666.228	24.45
666.554	24.02
666.881	24.69
667.207	24.45
667.533	24.5
667.859	24.2
668.185	24.67
668.511	24.6
668.837	24.36
669.162	24.98
669.488	24.36
669.814	24.78
670.139	24.46
670.465	25
670.791	24.58
671.116	24.73
671.442	25.14
671.767	24.98
672.092	24.58
672.418	24.64
672.743	24.8
673.068	25.01
673.393	24.77
673.718	24.49
674.043	24.6
674.368	25.05
674.693	24.55
675.018	25.01
675.343	24.91
