Data from 1805-1_chest_Reflection__1__62.txt Node

Date: Fri Sep 30 18:15:11 CDT 2022
User: ToomeyLab
Spectrometer: FLMS14357
Trigger mode: 0
Integration Time (sec): 1.000000E-2
Scans to average: 100
Electric dark correction enabled: true
Nonlinearity correction enabled: false
Boxcar width: 0
XAxis mode: Wavelengths
Number of Pixels in Spectrum: 2048
>>>>>Begin Spectral Data<<<<<
189.047	28.43
189.435	28.43
189.823	28.43
190.211	-139.88
190.599	-241.59
190.987	20.06
191.375	218.5
191.763	77.9
192.151	31.55
192.538	71.05
192.926	-112.13
193.314	95.46
193.702	83.81
194.089	246.7
194.477	465.63
194.864	204.26
195.252	53.66
195.639	124.23
196.027	-32.1
196.414	-196.76
196.801	21.51
197.189	20.8
197.576	184.88
197.963	-27.24
198.351	23.52
198.738	-17.68
199.125	37.47
199.512	-17.72
199.899	-23.11
200.286	-1.44
200.673	49.2
201.06	25.21
201.447	59.78
201.833	64.52
202.22	41.8
202.607	36.91
202.994	41.84
203.38	14.86
203.767	9.94
204.154	56.89
204.54	34.85
204.927	20.21
205.313	-80.73
205.699	21.28
206.086	-23.29
206.472	0.51
206.858	48.77
207.245	10.04
207.631	-38.8
208.017	3.7
208.403	13.01
208.789	0.3
209.175	13.3
209.561	-47.49
209.947	-37.2
210.333	-10.33
210.719	-3.36
211.105	-16.17
211.491	3.44
211.876	27.88
212.262	38.23
212.648	24.36
213.034	3.26
213.419	14.87
213.805	-10.34
214.19	23.4
214.576	24.22
214.961	-28.22
215.346	23.27
215.732	-12.1
216.117	1.19
216.502	44.46
216.888	28.28
217.273	-3.69
217.658	23.78
218.043	8.44
218.428	14.27
218.813	21.15
219.198	7.94
219.583	7.31
219.968	14.02
220.353	8.53
220.738	11.31
221.122	14.5
221.507	7.83
221.892	-1.13
222.276	-4.39
222.661	-2.83
223.046	-6.08
223.43	0.79
223.815	4.94
224.199	6.5
224.583	2.13
224.968	0.22
225.352	0.38
225.736	13.11
226.121	12.07
226.505	-3.05
226.889	4.46
227.273	0
227.657	5.92
228.041	0.16
228.425	3.64
228.809	2.09
229.193	3.55
229.577	0.96
229.961	2.97
230.344	0.86
230.728	1.22
231.112	1.6
231.495	1.28
231.879	3.49
232.263	0.25
232.646	0.18
233.03	3.01
233.413	1.92
233.797	3.19
234.18	1.96
234.563	2.29
234.946	3.92
235.33	-0.49
235.713	3.76
236.096	1.67
236.479	3.04
236.862	3.13
237.245	1.93
237.628	1.13
238.011	4.17
238.394	2.81
238.777	-1.03
239.16	0.84
239.543	1.6
239.925	2.85
240.308	2.03
240.691	2.51
241.073	2.16
241.456	2.35
241.838	3.08
242.221	1.69
242.603	1.74
242.986	1.77
243.368	0.96
243.75	1.53
244.133	2.4
244.515	1.69
244.897	2.09
245.279	2.35
245.661	2.64
246.043	1.67
246.425	1.72
246.807	2.08
247.189	2.21
247.571	2.45
247.953	2.31
248.335	1.56
248.717	1.73
249.098	1.99
249.48	1.87
249.862	1.56
250.243	1.35
250.625	1.99
251.006	1.42
251.388	0.99
251.769	2.43
252.151	2.25
252.532	1.52
252.913	1.65
253.295	1.81
253.676	1.56
254.057	2.4
254.438	1.27
254.819	2.74
255.2	1.72
255.581	2.16
255.962	2.06
256.343	2.92
256.724	2.49
257.105	2.76
257.486	2.38
257.867	2.09
258.247	1.52
258.628	1.86
259.009	2.11
259.389	1.72
259.77	2.44
260.15	1.44
260.531	2.05
260.911	1.77
261.292	1.37
261.672	1.63
262.052	1.57
262.432	1.5
262.813	2.32
263.193	1.47
263.573	1.1
263.953	1.46
264.333	2.61
264.713	1.29
265.093	0.96
265.473	1.71
265.853	1.7
266.233	1.21
266.612	2.21
266.992	1.45
267.372	1.28
267.752	1.51
268.131	1.9
268.511	1.6
268.89	1.9
269.27	1.63
269.649	1.75
270.029	2.1
270.408	1.5
270.787	1.63
271.167	1.79
271.546	1.71
271.925	2.45
272.304	1.94
272.683	1.88
273.062	1.94
273.441	1.31
273.82	1.02
274.199	1.56
274.578	1.66
274.957	1.65
275.336	1.51
275.715	1.9
276.093	1.57
276.472	1.88
276.851	2.11
277.229	1.31
277.608	1.68
277.986	1.45
278.365	1.48
278.743	0.97
279.122	1.7
279.5	1.89
279.878	2.18
280.257	1.59
280.635	2.17
281.013	2.11
281.391	1.55
281.769	1.92
282.147	1.22
282.525	1.96
282.903	1.46
283.281	1.5
283.659	1.52
284.037	1.99
284.415	1.64
284.792	1.97
285.17	1.12
285.548	1.71
285.925	1.57
286.303	1.41
286.68	1.43
287.058	1.48
287.435	1.58
287.813	1.69
288.19	1.66
288.567	1.58
288.945	1.34
289.322	1.69
289.699	1.89
290.076	1.62
290.453	1.83
290.83	1.2
291.207	1.95
291.584	1.39
291.961	1.45
292.338	1.9
292.715	2.07
293.092	1.86
293.469	2.28
293.845	2.35
294.222	1.29
294.599	2.6
294.975	2.68
295.352	2.01
295.728	1.88
296.105	1.73
296.481	1.88
296.858	2.49
297.234	2.09
297.61	1.9
297.986	1.5
298.363	1.64
298.739	1.82
299.115	1.61
299.491	1.79
299.867	2.11
300.243	1.69
300.619	1.76
300.995	2.24
301.371	1.87
301.746	2
302.122	2.52
302.498	2.35
302.874	1.71
303.249	1.97
303.625	2.14
304	2.26
304.376	2.08
304.751	2.09
305.127	1.98
305.502	1.85
305.878	2.11
306.253	1.73
306.628	2.15
307.003	2.09
307.378	2.01
307.754	2.21
308.129	2.08
308.504	1.96
308.879	2.23
309.254	1.74
309.629	1.92
310.003	2.1
310.378	2
310.753	1.74
311.128	2.18
311.502	2.4
311.877	2.12
312.252	2.11
312.626	2.09
313.001	1.97
313.375	2.29
313.75	2.41
314.124	1.95
314.498	1.5
314.873	2.14
315.247	2.27
315.621	2
315.995	2.69
316.369	2.11
316.743	2.08
317.117	2.6
317.491	3.47
317.865	2.98
318.239	2.52
318.613	2.34
318.987	2.68
319.361	2.61
319.734	1.64
320.108	1.99
320.482	2.38
320.855	2.35
321.229	2.74
321.602	2.54
321.976	2.4
322.349	2.28
322.723	2.35
323.096	2.99
323.469	2.46
323.843	2.37
324.216	2.71
324.589	3.22
324.962	2.65
325.335	2.54
325.708	2.66
326.081	2.42
326.454	2.61
326.827	2.35
327.2	2.34
327.573	2.01
327.945	2.16
328.318	2.37
328.691	2.67
329.063	2.62
329.436	2.19
329.809	3.28
330.181	2.18
330.553	2.8
330.926	2.59
331.298	2.64
331.671	2.6
332.043	2.31
332.415	2.32
332.787	2.7
333.159	2.32
333.532	2.92
333.904	2.4
334.276	2.53
334.648	2.35
335.02	2.87
335.391	2.44
335.763	2.72
336.135	2.58
336.507	2.63
336.879	2.41
337.25	2.15
337.622	2.68
337.993	2.82
338.365	2.75
338.736	2.23
339.108	2.46
339.479	2.85
339.851	2.71
340.222	2.97
340.593	2.14
340.964	2.44
341.336	2.49
341.707	2.18
342.078	2.56
342.449	2.92
342.82	2.37
343.191	2.65
343.562	2.44
343.933	2.33
344.303	2.35
344.674	2.64
345.045	2.83
345.416	2.67
345.786	2.65
346.157	3.19
346.527	2.31
346.898	2.69
347.268	2.42
347.639	2.26
348.009	2.31
348.38	2.82
348.75	2.85
349.12	2.86
349.49	2.86
349.861	2.31
350.231	2.14
350.601	2.69
350.971	2.56
351.341	2.67
351.711	2.83
352.081	2.48
352.45	2.61
352.82	2.85
353.19	2.55
353.56	2.46
353.929	2.19
354.299	2.61
354.669	2.33
355.038	2.68
355.408	2.81
355.777	2.58
356.147	2.41
356.516	2.85
356.885	2.24
357.254	3
357.624	2.41
357.993	2.28
358.362	2.7
358.731	2.58
359.1	2.63
359.469	2.24
359.838	2.82
360.207	2.53
360.576	2.35
360.945	2.5
361.314	2.57
361.682	2.68
362.051	2.57
362.42	2.45
362.788	2.39
363.157	2.29
363.525	2.23
363.894	2.33
364.262	2.49
364.631	2.73
364.999	2.62
365.367	2.68
365.735	2.29
366.104	2.41
366.472	2.74
366.84	2.76
367.208	2.96
367.576	2.83
367.944	2.82
368.312	2.42
368.68	2.58
369.048	2.21
369.416	2.81
369.783	2.66
370.151	2.78
370.519	2.81
370.886	2.75
371.254	2.46
371.621	2.75
371.989	2.94
372.356	2.61
372.724	2.53
373.091	2.62
373.458	2.68
373.826	2.73
374.193	2.87
374.56	2.86
374.927	2.98
375.294	2.96
375.661	2.38
376.028	2.65
376.395	2.73
376.762	2.7
377.129	2.98
377.496	3.09
377.863	2.26
378.229	2.86
378.596	2.64
378.963	2.81
379.329	2.59
379.696	2.83
380.062	2.95
380.429	2.84
380.795	2.49
381.161	2.42
381.528	2.9
381.894	2.71
382.26	2.61
382.626	2.63
382.993	2.83
383.359	2.6
383.725	2.58
384.091	2.64
384.457	2.81
384.823	2.61
385.188	2.77
385.554	2.88
385.92	3.01
386.286	2.77
386.651	2.9
387.017	2.9
387.383	2.68
387.748	2.49
388.114	2.52
388.479	2.61
388.845	2.55
389.21	2.8
389.575	2.61
389.94	2.88
390.306	2.86
390.671	2.95
391.036	3
391.401	2.64
391.766	2.77
392.131	2.61
392.496	2.81
392.861	2.74
393.226	2.73
393.591	2.84
393.956	2.68
394.32	2.99
394.685	2.51
395.05	2.88
395.414	2.79
395.779	2.75
396.143	3.01
396.508	2.81
396.872	2.82
397.236	2.79
397.601	2.74
397.965	2.8
398.329	2.72
398.694	2.9
399.058	2.82
399.422	2.92
399.786	2.99
400.15	2.88
400.514	2.68
400.878	2.99
401.242	2.66
401.605	3.07
401.969	2.71
402.333	2.71
402.697	3.03
403.06	2.87
403.424	2.77
403.787	2.87
404.151	2.76
404.514	3.07
404.878	2.99
405.241	2.94
405.604	2.99
405.968	2.78
406.331	2.84
406.694	2.62
407.057	3
407.42	3.01
407.783	2.96
408.146	2.93
408.509	2.85
408.872	2.86
409.235	2.87
409.598	3
409.961	2.76
410.323	3.09
410.686	3.2
411.049	2.72
411.411	2.99
411.774	3.03
412.136	3.13
412.499	2.92
412.861	2.8
413.223	3.03
413.586	2.8
413.948	3.11
414.31	3.06
414.672	2.86
415.035	2.96
415.397	2.7
415.759	3
416.121	2.87
416.483	2.75
416.845	2.83
417.206	3.11
417.568	2.89
417.93	2.82
418.292	2.95
418.653	2.78
419.015	2.96
419.377	3.12
419.738	2.94
420.1	2.98
420.461	2.96
420.822	2.85
421.184	2.85
421.545	2.76
421.906	2.74
422.267	2.87
422.629	2.86
422.99	2.84
423.351	2.79
423.712	2.88
424.073	2.96
424.434	2.98
424.795	2.94
425.155	2.84
425.516	2.94
425.877	2.92
426.238	2.83
426.598	3.02
426.959	2.96
427.32	2.9
427.68	2.96
428.041	2.79
428.401	2.97
428.761	3.15
429.122	3.01
429.482	3.02
429.842	3.06
430.202	3.06
430.563	3.08
430.923	3.01
431.283	2.95
431.643	3.19
432.003	2.94
432.363	3.15
432.722	3.02
433.082	3.23
433.442	2.98
433.802	3.1
434.161	2.99
434.521	3.05
434.881	3.03
435.24	3.07
435.6	2.99
435.959	3.11
436.319	3.13
436.678	3.07
437.037	3.09
437.396	3.18
437.756	2.99
438.115	3.03
438.474	3.04
438.833	3.08
439.192	3.05
439.551	3.11
439.91	3.01
440.269	2.82
440.628	2.93
440.987	3.24
441.345	3.06
441.704	3.09
442.063	3.28
442.421	3.07
442.78	3.04
443.138	2.96
443.497	3.19
443.855	3.19
444.214	3.1
444.572	3.23
444.93	3.1
445.288	3.27
445.647	3.1
446.005	3.06
446.363	3.21
446.721	3.01
447.079	3.08
447.437	3.13
447.795	3.08
448.153	3.01
448.51	3
448.868	3
449.226	3.11
449.584	3.13
449.941	3.08
450.299	3.14
450.656	3.23
451.014	3.37
451.371	3.18
451.729	3.26
452.086	3.4
452.443	3.29
452.801	3.27
453.158	3.15
453.515	3.22
453.872	3.3
454.229	3.15
454.586	3.39
454.943	3.36
455.3	3.21
455.657	3.39
456.014	3.08
456.371	3.11
456.727	3.19
457.084	3.14
457.441	3.22
457.797	3.25
458.154	3.24
458.51	3.36
458.867	3.33
459.223	3.33
459.58	3.3
459.936	3.32
460.292	3.31
460.648	3.18
461.005	3.2
461.361	3.21
461.717	3.1
462.073	3.25
462.429	3.26
462.785	3.22
463.141	3.31
463.496	3.27
463.852	3.38
464.208	3.39
464.564	3.18
464.919	3.27
465.275	3.52
465.631	3.39
465.986	3.23
466.342	3.41
466.697	3.4
467.052	3.41
467.408	3.3
467.763	3.33
468.118	3.42
468.473	3.24
468.829	3.31
469.184	3.44
469.539	3.49
469.894	3.4
470.249	3.5
470.603	3.44
470.958	3.46
471.313	3.58
471.668	3.49
472.023	3.35
472.377	3.28
472.732	3.41
473.086	3.4
473.441	3.52
473.795	3.39
474.15	3.44
474.504	3.43
474.859	3.46
475.213	3.52
475.567	3.52
475.921	3.45
476.275	3.34
476.63	3.45
476.984	3.47
477.338	3.42
477.692	3.53
478.045	3.52
478.399	3.43
478.753	3.55
479.107	3.48
479.461	3.52
479.814	3.41
480.168	3.39
480.521	3.48
480.875	3.61
481.228	3.43
481.582	3.62
481.935	3.45
482.289	3.52
482.642	3.47
482.995	3.46
483.348	3.42
483.701	3.55
484.055	3.46
484.408	3.41
484.761	3.32
485.114	3.25
485.466	3.2
485.819	3.21
486.172	3.28
486.525	3.38
486.878	3.41
487.23	3.4
487.583	3.35
487.936	3.53
488.288	3.51
488.641	3.34
488.993	3.35
489.345	3.34
489.698	3.35
490.05	3.44
490.402	3.5
490.754	3.49
491.107	3.51
491.459	3.61
491.811	3.54
492.163	3.61
492.515	3.49
492.866	3.54
493.218	3.38
493.57	3.48
493.922	3.48
494.274	3.51
494.625	3.62
494.977	3.7
495.328	3.74
495.68	3.58
496.031	3.72
496.383	3.63
496.734	3.75
497.086	3.61
497.437	3.78
497.788	3.66
498.139	3.59
498.49	3.63
498.842	3.73
499.193	3.85
499.544	3.74
499.894	3.74
500.245	3.79
500.596	3.76
500.947	3.72
501.298	3.85
501.648	3.75
501.999	3.79
502.35	3.89
502.7	3.77
503.051	3.82
503.401	3.9
503.752	3.77
504.102	3.92
504.452	3.9
504.803	3.85
505.153	3.92
505.503	3.89
505.853	4.01
506.203	3.67
506.553	3.83
506.903	3.93
507.253	3.86
507.603	4.03
507.953	4.03
508.303	3.98
508.652	3.95
509.002	4.01
509.352	3.98
509.701	3.95
510.051	4.13
510.4	3.9
510.75	4.03
511.099	3.83
511.449	3.93
511.798	3.88
512.147	3.92
512.496	3.95
512.846	4.03
513.195	3.99
513.544	4.01
513.893	4.04
514.242	3.97
514.591	4.09
514.939	4.02
515.288	4.1
515.637	4.01
515.986	4.17
516.334	4.1
516.683	4.11
517.032	3.99
517.38	4.15
517.729	4.15
518.077	4.03
518.426	4.14
518.774	4.23
519.122	3.99
519.47	4.15
519.819	4.07
520.167	4.14
520.515	4.02
520.863	4.15
521.211	4.1
521.559	4.29
521.907	4.25
522.255	4.11
522.602	4.29
522.95	4.23
523.298	4.35
523.645	4.25
523.993	4.3
524.341	4.38
524.688	4.29
525.036	4.29
525.383	4.27
525.73	4.31
526.078	4.38
526.425	4.31
526.772	4.27
527.119	4.23
527.466	4.2
527.814	4.24
528.161	4.23
528.508	4.28
528.854	4.27
529.201	4.19
529.548	4.2
529.895	4.14
530.242	4.17
530.588	4.17
530.935	4.22
531.282	4.29
531.628	4.28
531.975	4.39
532.321	4.33
532.667	4.42
533.014	4.43
533.36	4.49
533.706	4.47
534.052	4.46
534.399	4.42
534.745	4.42
535.091	4.38
535.437	4.48
535.783	4.46
536.129	4.5
536.474	4.51
536.82	4.5
537.166	4.63
537.512	4.58
537.857	4.65
538.203	4.61
538.549	4.56
538.894	4.56
539.239	4.64
539.585	4.82
539.93	4.79
540.276	4.74
540.621	4.83
540.966	4.79
541.311	4.87
541.656	4.68
542.001	4.77
542.346	4.8
542.691	4.65
543.036	4.61
543.381	4.65
543.726	4.68
544.071	4.81
544.415	4.82
544.76	4.88
545.105	4.77
545.449	4.87
545.794	4.83
546.138	4.97
546.483	5.08
546.827	4.97
547.171	5.05
547.516	4.97
547.86	4.95
548.204	5.01
548.548	4.98
548.892	5.04
549.236	5.07
549.58	5.27
549.924	5.14
550.268	5.27
550.612	5.35
550.956	5.44
551.3	5.35
551.643	5.35
551.987	5.31
552.33	5.25
552.674	5.46
553.017	5.23
553.361	5.26
553.704	5.49
554.048	5.46
554.391	5.58
554.734	5.45
555.077	5.51
555.42	5.5
555.764	5.51
556.107	5.4
556.45	5.49
556.793	5.41
557.135	5.73
557.478	5.62
557.821	5.7
558.164	5.71
558.507	5.74
558.849	5.68
559.192	5.72
559.534	5.65
559.877	5.91
560.219	5.94
560.562	5.82
560.904	5.79
561.246	5.86
561.589	5.77
561.931	5.85
562.273	5.76
562.615	5.87
562.957	5.88
563.299	5.95
563.641	5.92
563.983	5.84
564.325	5.91
564.667	6.18
565.008	5.9
565.35	6.03
565.692	6.09
566.033	5.97
566.375	6.05
566.716	6.23
567.058	6.25
567.399	6.08
567.741	6.29
568.082	6.2
568.423	6.15
568.764	6.33
569.105	6.21
569.447	6.34
569.788	6.3
570.129	6.38
570.47	6.43
570.811	6.24
571.151	6.37
571.492	6.47
571.833	6.46
572.174	6.31
572.514	6.49
572.855	6.42
573.195	6.45
573.536	6.47
573.876	6.67
574.217	6.48
574.557	6.62
574.898	6.49
575.238	6.82
575.578	6.69
575.918	6.57
576.258	6.68
576.598	6.77
576.938	6.68
577.278	6.92
577.618	6.94
577.958	6.88
578.298	6.84
578.638	7.1
578.977	7.02
579.317	6.84
579.657	7.01
579.996	7.03
580.336	7.3
580.675	6.91
581.014	7.27
581.354	7.13
581.693	7.24
582.032	7.23
582.372	7.34
582.711	7.18
583.05	7.17
583.389	7.13
583.728	7.45
584.067	7.38
584.406	7.32
584.745	7.42
585.083	7.3
585.422	7.53
585.761	7.54
586.1	7.67
586.438	7.59
586.777	7.68
587.115	7.78
587.454	7.57
587.792	7.45
588.13	7.53
588.469	7.36
588.807	7.7
589.145	7.7
589.483	7.9
589.821	7.78
590.159	8.1
590.497	7.73
590.835	7.74
591.173	7.87
591.511	7.79
591.849	8
592.187	8.02
592.524	8.05
592.862	8.01
593.2	8.03
593.537	7.91
593.875	8.03
594.212	8.19
594.55	8.12
594.887	8.35
595.224	8.34
595.561	8.07
595.899	8.04
596.236	8.26
596.573	8.45
596.91	8.17
597.247	8.17
597.584	8.25
597.921	8.16
598.258	8.32
598.594	8.21
598.931	8.27
599.268	8.08
599.604	8.46
599.941	8.37
600.277	8.27
600.614	8.82
600.95	8.91
601.287	8.7
601.623	8.53
601.959	8.63
602.296	8.72
602.632	8.71
602.968	8.82
603.304	8.81
603.64	8.88
603.976	8.66
604.312	8.88
604.648	8.76
604.984	8.76
605.319	8.82
605.655	9.03
605.991	8.87
606.326	9.03
606.662	8.96
606.998	9.01
607.333	9.04
607.668	9.07
608.004	9.41
608.339	9.37
608.674	9.22
609.01	9.18
609.345	9.11
609.68	9.27
610.015	9.59
610.35	9.23
610.685	9.17
611.02	9.31
611.355	9.27
611.689	9.39
612.024	9.66
612.359	9.47
612.694	9.55
613.028	9.72
613.363	9.61
613.697	9.48
614.032	9.77
614.366	9.67
614.7	9.58
615.035	10.27
615.369	10
615.703	10.04
616.037	10.27
616.371	9.96
616.705	9.93
617.039	9.72
617.373	9.94
617.707	9.92
618.041	10.1
618.375	10.38
618.709	10.16
619.042	10.21
619.376	10.41
619.71	10.11
620.043	10.39
620.377	10.26
620.71	10.34
621.043	10.66
621.377	10.45
621.71	10.27
622.043	10.64
622.376	10.6
622.709	10.21
623.043	10.53
623.376	10.47
623.709	10.44
624.041	10.51
624.374	10.63
624.707	10.51
625.04	10.88
625.373	10.87
625.705	10.79
626.038	10.74
626.37	10.78
626.703	11.08
627.035	11.01
627.368	10.71
627.7	10.97
628.032	10.86
628.365	10.91
628.697	11.01
629.029	10.9
629.361	11.05
629.693	11.26
630.025	11
630.357	11.07
630.689	11.08
631.021	11.08
631.353	11.27
631.684	11.37
632.016	11.74
632.348	11.23
632.679	11.27
633.011	11.31
633.342	11.18
633.674	11.54
634.005	11.89
634.336	11.52
634.668	11.52
634.999	11.56
635.33	11.83
635.661	11.7
635.992	12.02
636.323	11.87
636.654	11.47
636.985	11.78
637.316	12.24
637.647	11.84
637.977	12.01
638.308	11.66
638.639	11.6
638.969	12.06
639.3	12.12
639.63	11.78
639.961	12.13
640.291	11.96
640.622	12.32
640.952	12.21
641.282	12.22
641.612	12.3
641.943	12.41
642.273	12.28
642.603	12.16
642.933	11.89
643.263	12.47
643.592	12.4
643.922	12.29
644.252	12.6
644.582	12.77
644.911	12.5
645.241	12.5
645.571	12.37
645.9	12.4
646.23	12.4
646.559	12.54
646.888	12.73
647.218	12.76
647.547	12.73
647.876	12.57
648.205	12.84
648.534	12.72
648.863	12.71
649.192	12.53
649.521	13.05
649.85	13.05
650.179	12.99
650.508	12.78
650.837	13.5
651.165	13.09
651.494	13.39
651.822	13.36
652.151	13.4
652.479	13.33
652.808	13.51
653.136	13.14
653.465	13.17
653.793	13.19
654.121	13.38
654.449	13.64
654.777	13.34
655.105	13.72
655.433	13.67
655.761	13.65
656.089	13.86
656.417	13.06
656.745	13.02
657.073	13.48
657.4	13.86
657.728	14.03
658.056	13.63
658.383	13.87
658.711	14.32
659.038	13.58
659.365	13.55
659.693	13.92
660.02	14.39
660.347	13.97
660.674	13.87
661.001	13.84
661.329	13.87
661.656	13.85
661.982	14.24
662.309	14.27
662.636	14.45
662.963	14.05
663.29	14.05
663.616	13.97
663.943	14.2
664.27	14.08
664.596	14.13
664.923	14.54
665.249	14.58
665.576	14.75
665.902	14.58
666.228	14.56
666.554	14.48
666.881	14.69
667.207	14.7
667.533	14.74
667.859	14.84
668.185	14.73
668.511	14.82
668.837	14.6
669.162	15.41
669.488	15.01
669.814	14.96
670.139	14.93
670.465	15.22
670.791	15.05
671.116	14.24
671.442	14.89
671.767	15.55
672.092	15.05
672.418	14.84
672.743	15.08
673.068	14.74
673.393	15.19
673.718	14.62
674.043	15.94
674.368	15.07
674.693	15.08
675.018	15.38
675.343	15.1
675.667	15.69
675.992	15.26
676.317	15.9
676.641	15.59
676.966	15.62
677.29	14.62
677.615	15.62
677.939	15.21
678.264	15.82
678.588	15.23
678.912	15.59
679.236	16.12
679.56	15.82
679.885	15.48
680.209	15.79
680.532	15.69
680.856	16.13
681.18	15.2
681.504	15.98
681.828	15.78
682.152	15.35
682.475	15.73
682.799	16.02
683.122	16.59
683.446	16.87
683.769	16.56
684.093	16.61
684.416	16.95
684.739	16.08
685.062	16.29
685.386	17.17
685.709	16.61
686.032	16.09
686.355	16.79
686.678	16.26
687.001	16.88
687.324	17.36
687.646	15.77
687.969	16.52
