Data from 1805-1_chest_Reflection__2__63.txt Node

Date: Fri Sep 30 18:15:23 CDT 2022
User: ToomeyLab
Spectrometer: FLMS14357
Trigger mode: 0
Integration Time (sec): 1.000000E-2
Scans to average: 100
Electric dark correction enabled: true
Nonlinearity correction enabled: false
Boxcar width: 0
XAxis mode: Wavelengths
Number of Pixels in Spectrum: 2048
>>>>>Begin Spectral Data<<<<<
189.047	-2.63
189.435	-2.63
189.823	-2.63
190.211	117.86
190.599	-203.24
190.987	35.57
191.375	140.82
191.763	33.02
192.151	55.97
192.538	127.12
192.926	-28.58
193.314	322.01
193.702	17.05
194.089	382.44
194.477	-358.92
194.864	517.49
195.252	103.71
195.639	-63.11
196.027	-11.77
196.414	-251.04
196.801	72.02
197.189	112.01
197.576	101.51
197.963	88.15
198.351	3.06
198.738	17.6
199.125	42.45
199.512	28.96
199.899	5.09
200.286	-11.91
200.673	32.57
201.06	34.02
201.447	-8.5
201.833	49.62
202.22	21.46
202.607	24.04
202.994	48.91
203.38	-0.28
203.767	11.68
204.154	15.78
204.54	21.71
204.927	32.23
205.313	-32.01
205.699	22.22
206.086	-25.32
206.472	15.72
206.858	25.59
207.245	16.96
207.631	-30.77
208.017	-36
208.403	23.81
208.789	15.05
209.175	28.72
209.561	-9.88
209.947	13.58
210.333	-34.22
210.719	-27.17
211.105	11.95
211.491	9.35
211.876	40.2
212.262	32.02
212.648	24.56
213.034	-8.74
213.419	6.56
213.805	12
214.19	31.25
214.576	20.22
214.961	1.88
215.346	13.85
215.732	-5.21
216.117	25.64
216.502	29.69
216.888	21.15
217.273	-12.07
217.658	25.56
218.043	-1.87
218.428	23.45
218.813	15.72
219.198	8.67
219.583	29.82
219.968	15.88
220.353	14.69
220.738	19.25
221.122	8.37
221.507	3.56
221.892	5.64
222.276	-3.4
222.661	3.06
223.046	-1.12
223.43	-0.7
223.815	2.05
224.199	5.17
224.583	0
224.968	0.92
225.352	2.29
225.736	8.55
226.121	8.58
226.505	-3.24
226.889	0.56
227.273	-6.35
227.657	9.98
228.041	0.15
228.425	5.47
228.809	1.1
229.193	5.68
229.577	1.19
229.961	1.65
230.344	2.02
230.728	0.93
231.112	2.06
231.495	1.21
231.879	2.93
232.263	1.92
232.646	0.36
233.03	3.11
233.413	2.28
233.797	2.57
234.18	-0.11
234.563	4.24
234.946	2.65
235.33	1.15
235.713	4.12
236.096	1.91
236.479	2.11
236.862	2.21
237.245	2.55
237.628	0.55
238.011	4.85
238.394	2.02
238.777	0.52
239.16	2.1
239.543	1.95
239.925	2.67
240.308	1.49
240.691	3.09
241.073	3.88
241.456	2.31
241.838	1.51
242.221	1.83
242.603	2.77
242.986	2.02
243.368	1.26
243.75	1.62
244.133	2.16
244.515	1.67
244.897	2.12
245.279	2.82
245.661	2.44
246.043	0.94
246.425	1.63
246.807	2.68
247.189	3.31
247.571	2.53
247.953	2.15
248.335	1.83
248.717	2.01
249.098	2.08
249.48	1.88
249.862	1.92
250.243	1.52
250.625	2
251.006	1.87
251.388	1.44
251.769	2.21
252.151	2.3
252.532	1.98
252.913	1.84
253.295	2.29
253.676	1.78
254.057	2.06
254.438	1.43
254.819	2.49
255.2	2.6
255.581	2.91
255.962	2.49
256.343	2.5
256.724	3.07
257.105	1.67
257.486	1.6
257.867	1.4
258.247	1.07
258.628	2.97
259.009	2.86
259.389	2.17
259.77	2.09
260.15	1.51
260.531	2.21
260.911	1.82
261.292	1.72
261.672	1.88
262.052	1.73
262.432	1.96
262.813	2.51
263.193	1.46
263.573	2.19
263.953	1.63
264.333	2.94
264.713	1.12
265.093	1.71
265.473	1.78
265.853	2.2
266.233	1.98
266.612	1.67
266.992	1.88
267.372	1.24
267.752	1.42
268.131	1.82
268.511	2.17
268.89	1.43
269.27	1.77
269.649	1.42
270.029	2.14
270.408	1.99
270.787	1.98
271.167	2.42
271.546	2.32
271.925	2.11
272.304	1.92
272.683	2.08
273.062	1.93
273.441	1.75
273.82	1.34
274.199	1.86
274.578	1.7
274.957	1.78
275.336	1.92
275.715	2.16
276.093	1.95
276.472	1.79
276.851	2.16
277.229	2.04
277.608	1.63
277.986	1.54
278.365	2.23
278.743	1.57
279.122	1.79
279.5	1.77
279.878	1.54
280.257	1.77
280.635	2.16
281.013	2.47
281.391	1.75
281.769	2.15
282.147	1.44
282.525	2.13
282.903	1.69
283.281	1.34
283.659	1.7
284.037	1.85
284.415	2.15
284.792	1.73
285.17	1.13
285.548	1.88
285.925	1.79
286.303	1.81
286.68	1.52
287.058	1.72
287.435	1.54
287.813	1.67
288.19	1.43
288.567	1.82
288.945	1.45
289.322	1.43
289.699	1.63
290.076	1.48
290.453	1.88
290.83	1.95
291.207	1.43
291.584	1.99
291.961	1.78
292.338	2
292.715	1.97
293.092	1.32
293.469	2.12
293.845	2.24
294.222	2.07
294.599	2.27
294.975	2.46
295.352	2.06
295.728	2.17
296.105	2.06
296.481	2.09
296.858	2.06
297.234	2.3
297.61	2.1
297.986	1.48
298.363	2.01
298.739	1.87
299.115	1.96
299.491	1.82
299.867	2
300.243	2
300.619	1.82
300.995	2.63
301.371	1.73
301.746	1.65
302.122	2.14
302.498	2.16
302.874	1.78
303.249	2.23
303.625	2.3
304	2.28
304.376	1.92
304.751	2.46
305.127	2.04
305.502	2.44
305.878	1.85
306.253	2.57
306.628	1.83
307.003	2.18
307.378	2.43
307.754	2.01
308.129	2.11
308.504	2.11
308.879	2.12
309.254	1.74
309.629	2.38
310.003	1.54
310.378	2.05
310.753	2.22
311.128	2.25
311.502	2.13
311.877	2.38
312.252	2.36
312.626	2.19
313.001	2.43
313.375	2.27
313.75	2.51
314.124	2.38
314.498	2.16
314.873	2.05
315.247	2.34
315.621	2.39
315.995	2.62
316.369	2.3
316.743	2.44
317.117	2.85
317.491	3.13
317.865	3.11
318.239	2.66
318.613	2.43
318.987	2.4
319.361	2.78
319.734	2.44
320.108	2.31
320.482	2.71
320.855	2.47
321.229	2.46
321.602	2.28
321.976	2.48
322.349	2.62
322.723	2.3
323.096	2.62
323.469	2.63
323.843	3.24
324.216	2.48
324.589	3.08
324.962	2.73
325.335	1.97
325.708	2.25
326.081	2.9
326.454	2.66
326.827	2.42
327.2	2.62
327.573	2.17
327.945	2.67
328.318	2.46
328.691	2.82
329.063	2.81
329.436	2.53
329.809	3.32
330.181	2.47
330.553	2.51
330.926	3.2
331.298	2.86
331.671	2.76
332.043	2.34
332.415	2.51
332.787	2.44
333.159	2.69
333.532	2.57
333.904	2.69
334.276	3.05
334.648	2.81
335.02	3.03
335.391	2.91
335.763	2.65
336.135	2.98
336.507	2.96
336.879	2.91
337.25	2.31
337.622	2.98
337.993	2.45
338.365	2.66
338.736	2.85
339.108	2.56
339.479	2.94
339.851	2.58
340.222	2.78
340.593	2.46
340.964	2.27
341.336	2.5
341.707	2.81
342.078	2.97
342.449	2.81
342.82	2.74
343.191	2.78
343.562	2.77
343.933	2.81
344.303	3.01
344.674	2.66
345.045	2.51
345.416	2.99
345.786	2.24
346.157	3.42
346.527	2.62
346.898	2.85
347.268	2.38
347.639	2.52
348.009	2.62
348.38	3.03
348.75	3.18
349.12	2.85
349.49	3.18
349.861	2.21
350.231	2.92
350.601	2.96
350.971	2.58
351.341	2.72
351.711	2.66
352.081	2.96
352.45	3.01
352.82	2.76
353.19	2.74
353.56	2.45
353.929	2.41
354.299	2.36
354.669	2.72
355.038	2.77
355.408	3.01
355.777	2.34
356.147	2.82
356.516	3.06
356.885	2.24
357.254	2.95
357.624	2.71
357.993	2.45
358.362	2.82
358.731	2.92
359.1	2.44
359.469	2.57
359.838	2.94
360.207	2.65
360.576	2.95
360.945	2.83
361.314	2.92
361.682	2.67
362.051	2.74
362.42	2.51
362.788	2.55
363.157	2.67
363.525	2.34
363.894	2.73
364.262	2.91
364.631	2.97
364.999	2.82
365.367	3.11
365.735	2.53
366.104	2.43
366.472	2.94
366.84	2.9
367.208	2.97
367.576	3.48
367.944	2.63
368.312	2.45
368.68	2.37
369.048	2.64
369.416	3.06
369.783	2.81
370.151	2.97
370.519	2.96
370.886	2.79
371.254	2.6
371.621	2.87
371.989	2.88
372.356	2.83
372.724	2.7
373.091	2.61
373.458	2.86
373.826	3.12
374.193	2.85
374.56	2.91
374.927	3.68
375.294	3.19
375.661	2.51
376.028	2.77
376.395	2.83
376.762	2.98
377.129	3.03
377.496	2.88
377.863	3.16
378.229	2.94
378.596	2.79
378.963	3.3
379.329	2.9
379.696	3.3
380.062	3.15
380.429	2.8
380.795	2.85
381.161	2.9
381.528	3.17
381.894	2.72
382.26	2.76
382.626	2.9
382.993	3.11
383.359	2.75
383.725	2.5
384.091	2.65
384.457	3.03
384.823	3.15
385.188	3.1
385.554	3.03
385.92	3.12
386.286	3.08
386.651	3.22
387.017	3.13
387.383	2.88
387.748	2.7
388.114	2.96
388.479	3.08
388.845	2.64
389.21	2.86
389.575	2.82
389.94	2.97
390.306	3.27
390.671	3.01
391.036	3.25
391.401	2.8
391.766	3.16
392.131	3.01
392.496	3.24
392.861	3.05
393.226	3.11
393.591	2.88
393.956	3.11
394.32	3.04
394.685	2.87
395.05	3.03
395.414	3.17
395.779	2.9
396.143	3.28
396.508	2.95
396.872	3
397.236	3.07
397.601	3.11
397.965	2.9
398.329	3.07
398.694	3.17
399.058	3.08
399.422	2.94
399.786	3.17
400.15	3.27
400.514	2.78
400.878	3
401.242	3.06
401.605	2.96
401.969	3.16
402.333	3.23
402.697	3.21
403.06	3.08
403.424	3.1
403.787	3.32
404.151	3.44
404.514	3.23
404.878	3.16
405.241	3.2
405.604	3.25
405.968	3.06
406.331	3.11
406.694	3.22
407.057	3.04
407.42	3.25
407.783	2.94
408.146	2.85
408.509	3.29
408.872	2.93
409.235	3.11
409.598	3.26
409.961	3.04
410.323	3.15
410.686	3.39
411.049	2.97
411.411	3.23
411.774	3.15
412.136	3.31
412.499	2.94
412.861	3.05
413.223	2.87
413.586	2.95
413.948	3.3
414.31	3.18
414.672	3.05
415.035	3.36
415.397	3.22
415.759	3.25
416.121	3.12
416.483	3.13
416.845	3.14
417.206	3.09
417.568	3.25
417.93	3.02
418.292	3.14
418.653	3.15
419.015	3.14
419.377	3.16
419.738	3
420.1	3.11
420.461	3.17
420.822	3.18
421.184	3.19
421.545	3.03
421.906	2.94
422.267	3
422.629	3.15
422.99	3.05
423.351	2.96
423.712	2.96
424.073	3.17
424.434	3.18
424.795	3.17
425.155	3.14
425.516	3.08
425.877	3.17
426.238	3.08
426.598	3.12
426.959	3.09
427.32	3.17
427.68	3.1
428.041	3.03
428.401	3.16
428.761	3.21
429.122	3.39
429.482	3.19
429.842	3.26
430.202	3.06
430.563	3.37
430.923	3.2
431.283	3.2
431.643	3.32
432.003	3.19
432.363	3.27
432.722	3.25
433.082	3.29
433.442	3.13
433.802	3.3
434.161	3.21
434.521	3.21
434.881	3.26
435.24	3.1
435.6	3.39
435.959	3.2
436.319	3.26
436.678	3.24
437.037	3.31
437.396	3.41
437.756	3.18
438.115	3.3
438.474	3.23
438.833	3.33
439.192	3.31
439.551	3.22
439.91	3.18
440.269	3.02
440.628	3.18
440.987	3.27
441.345	3.23
441.704	3.26
442.063	3.33
442.421	3.14
442.78	3.27
443.138	3.11
443.497	3.22
443.855	3.38
444.214	3.22
444.572	3.33
444.93	3.11
445.288	3.29
445.647	3.28
446.005	3.33
446.363	3.27
446.721	3.1
447.079	3.18
447.437	3.27
447.795	3.24
448.153	3.29
448.51	3.26
448.868	3.22
449.226	3.26
449.584	3.23
449.941	3.27
450.299	3.35
450.656	3.34
451.014	3.47
451.371	3.41
451.729	3.42
452.086	3.49
452.443	3.49
452.801	3.45
453.158	3.29
453.515	3.36
453.872	3.41
454.229	3.4
454.586	3.45
454.943	3.36
455.3	3.14
455.657	3.39
456.014	3.28
456.371	3.39
456.727	3.34
457.084	3.37
457.441	3.43
457.797	3.48
458.154	3.23
458.51	3.25
458.867	3.4
459.223	3.32
459.58	3.5
459.936	3.55
460.292	3.43
460.648	3.4
461.005	3.41
461.361	3.33
461.717	3.28
462.073	3.33
462.429	3.39
462.785	3.44
463.141	3.43
463.496	3.45
463.852	3.31
464.208	3.37
464.564	3.29
464.919	3.66
465.275	3.53
465.631	3.77
465.986	3.39
466.342	3.36
466.697	3.45
467.052	3.53
467.408	3.6
467.763	3.36
468.118	3.48
468.473	3.64
468.829	3.46
469.184	3.5
469.539	3.55
469.894	3.57
470.249	3.54
470.603	3.68
470.958	3.53
471.313	3.58
471.668	3.57
472.023	3.39
472.377	3.44
472.732	3.53
473.086	3.48
473.441	3.69
473.795	3.5
474.15	3.53
474.504	3.59
474.859	3.58
475.213	3.56
475.567	3.53
475.921	3.48
476.275	3.52
476.63	3.53
476.984	3.47
477.338	3.68
477.692	3.57
478.045	3.52
478.399	3.46
478.753	3.6
479.107	3.51
479.461	3.53
479.814	3.52
480.168	3.62
480.521	3.59
480.875	3.63
481.228	3.52
481.582	3.55
481.935	3.58
482.289	3.69
482.642	3.55
482.995	3.5
483.348	3.51
483.701	3.55
484.055	3.53
484.408	3.4
484.761	3.43
485.114	3.33
485.466	3.31
485.819	3.31
486.172	3.39
486.525	3.48
486.878	3.48
487.23	3.48
487.583	3.51
487.936	3.48
488.288	3.51
488.641	3.39
488.993	3.43
489.345	3.4
489.698	3.39
490.05	3.46
490.402	3.5
490.754	3.57
491.107	3.5
491.459	3.61
491.811	3.57
492.163	3.56
492.515	3.54
492.866	3.45
493.218	3.44
493.57	3.44
493.922	3.5
494.274	3.58
494.625	3.7
494.977	3.71
495.328	3.78
495.68	3.66
496.031	3.8
496.383	3.73
496.734	3.67
497.086	3.8
497.437	3.77
497.788	3.74
498.139	3.61
498.49	3.64
498.842	3.72
499.193	3.64
499.544	3.71
499.894	3.82
500.245	3.65
500.596	3.69
500.947	3.79
501.298	3.82
501.648	3.61
501.999	3.78
502.35	3.82
502.7	3.91
503.051	3.75
503.401	3.77
503.752	3.72
504.102	3.89
504.452	3.85
504.803	3.84
505.153	3.88
505.503	3.74
505.853	3.83
506.203	3.8
506.553	3.79
506.903	3.88
507.253	3.84
507.603	3.95
507.953	3.98
508.303	4.11
508.652	3.82
509.002	3.81
509.352	3.9
509.701	3.83
510.051	3.89
510.4	3.78
510.75	3.88
511.099	3.81
511.449	3.82
511.798	3.8
512.147	3.86
512.496	3.85
512.846	3.9
513.195	3.92
513.544	3.95
513.893	3.9
514.242	3.93
514.591	3.96
514.939	3.92
515.288	4.02
515.637	3.87
515.986	4.05
516.334	3.92
516.683	3.96
517.032	3.92
517.38	3.92
517.729	4.1
518.077	4.02
518.426	4.04
518.774	4.06
519.122	3.91
519.47	3.91
519.819	4.03
520.167	3.94
520.515	3.88
520.863	3.97
521.211	3.97
521.559	4
521.907	4.06
522.255	3.95
522.602	4.04
522.95	4.1
523.298	4.07
523.645	4.1
523.993	4.22
524.341	4.21
524.688	4.15
525.036	4.05
525.383	3.96
525.73	4.13
526.078	4.29
526.425	3.99
526.772	4.13
527.119	3.93
527.466	4.05
527.814	4.07
528.161	4.04
528.508	4.12
528.854	4.11
529.201	4.06
529.548	4.01
529.895	3.98
530.242	3.95
530.588	3.95
530.935	4.03
531.282	4.07
531.628	4.09
531.975	4.14
532.321	4.2
532.667	4.21
533.014	4.2
533.36	4.15
533.706	4.22
534.052	4.18
534.399	4.13
534.745	4.13
535.091	4.08
535.437	4.19
535.783	4.17
536.129	4.33
536.474	4.17
536.82	4.3
537.166	4.35
537.512	4.35
537.857	4.45
538.203	4.28
538.549	4.26
538.894	4.34
539.239	4.34
539.585	4.37
539.93	4.43
540.276	4.65
540.621	4.49
540.966	4.53
541.311	4.45
541.656	4.48
542.001	4.41
542.346	4.3
542.691	4.26
543.036	4.24
543.381	4.25
543.726	4.33
544.071	4.4
544.415	4.39
544.76	4.45
545.105	4.38
545.449	4.44
545.794	4.44
546.138	4.57
546.483	4.57
546.827	4.54
547.171	4.61
547.516	4.62
547.86	4.49
548.204	4.6
548.548	4.61
548.892	4.58
549.236	4.63
549.58	4.71
549.924	4.61
550.268	4.79
550.612	4.91
550.956	4.78
551.3	4.84
551.643	4.78
551.987	4.65
552.33	4.74
552.674	4.69
553.017	4.73
553.361	4.81
553.704	5
554.048	4.83
554.391	4.93
554.734	4.7
555.077	4.95
555.42	4.86
555.764	4.79
556.107	4.83
556.45	4.97
556.793	4.96
557.135	5.11
557.478	5.03
557.821	5.05
558.164	5.09
558.507	5.12
558.849	5.01
559.192	5.06
559.534	5.05
559.877	5.03
560.219	4.99
560.562	4.99
560.904	5.02
561.246	5.15
561.589	5.08
561.931	5.2
562.273	5.18
562.615	5.14
562.957	5.13
563.299	5.2
563.641	5.07
563.983	5.22
564.325	5.22
564.667	5.43
565.008	5.11
565.35	5.03
565.692	5.43
566.033	5.13
566.375	5.21
566.716	5.39
567.058	5.23
567.399	5.27
567.741	5.29
568.082	5.44
568.423	5.39
568.764	5.45
569.105	5.44
569.447	5.39
569.788	5.52
570.129	5.44
570.47	5.49
570.811	5.45
571.151	5.55
571.492	5.49
571.833	5.64
572.174	5.35
572.514	5.49
572.855	5.46
573.195	5.71
573.536	5.47
573.876	5.62
574.217	5.47
574.557	5.65
574.898	5.56
575.238	5.73
575.578	5.69
575.918	5.58
576.258	5.86
576.598	5.69
576.938	5.63
577.278	5.67
577.618	5.84
577.958	5.77
578.298	5.9
578.638	5.98
578.977	5.75
579.317	5.85
579.657	5.82
579.996	5.76
580.336	6.06
580.675	6.02
581.014	5.84
581.354	5.96
581.693	5.85
582.032	5.91
582.372	5.96
582.711	6.1
583.05	6.03
583.389	6.06
583.728	6.1
584.067	6.15
584.406	6.03
584.745	6.3
585.083	6.01
585.422	6.25
585.761	6.01
586.1	6.19
586.438	6.29
586.777	6.32
587.115	6.3
587.454	6.17
587.792	5.97
588.13	6.35
588.469	6.17
588.807	6.47
589.145	6.3
589.483	6.63
589.821	6.4
590.159	6.59
590.497	6.38
590.835	6.38
591.173	6.34
591.511	6.23
591.849	6.59
592.187	6.53
592.524	6.52
592.862	6.46
593.2	6.35
593.537	6.39
593.875	6.54
594.212	6.42
594.55	6.56
594.887	6.67
595.224	6.64
595.561	6.59
595.899	6.52
596.236	6.73
596.573	6.7
596.91	6.49
597.247	6.54
597.584	6.64
597.921	6.85
598.258	6.47
598.594	6.63
598.931	6.72
599.268	6.53
599.604	6.81
599.941	6.54
600.277	6.76
600.614	6.77
600.95	7.02
601.287	6.81
601.623	6.84
601.959	6.89
602.296	6.99
602.632	6.96
602.968	7.25
603.304	6.64
603.64	7.18
603.976	6.74
604.312	6.97
604.648	7.23
604.984	7.06
605.319	6.89
605.655	6.99
605.991	7.2
606.326	7
606.662	7.04
606.998	7.02
607.333	7.23
607.668	7.19
608.004	7.35
608.339	7.15
608.674	7.39
609.01	7.34
609.345	7.06
609.68	7.4
610.015	7.54
610.35	7.05
610.685	7.22
611.02	7.29
611.355	7.18
611.689	7.1
612.024	7.55
612.359	7.5
612.694	7.68
613.028	7.69
613.363	7.43
613.697	7.52
614.032	7.5
614.366	7.67
614.7	7.44
615.035	7.81
615.369	7.49
615.703	7.84
616.037	7.59
616.371	7.59
616.705	7.55
617.039	7.81
617.373	7.68
617.707	7.58
618.041	7.8
618.375	8.09
618.709	8.18
619.042	7.43
619.376	8.11
619.71	8.07
620.043	7.76
620.377	8.15
620.71	7.9
621.043	8.15
621.377	8.11
621.71	7.8
622.043	7.96
622.376	7.99
622.709	8.04
623.043	8.19
623.376	7.84
623.709	8.29
624.041	8.4
624.374	8.05
624.707	7.89
625.04	8.29
625.373	7.98
625.705	8.1
626.038	7.94
626.37	8.53
626.703	8.42
627.035	8.57
627.368	8.25
627.7	8.42
628.032	8.23
628.365	8.41
628.697	8.38
629.029	8.26
629.361	8.32
629.693	8.63
630.025	8.54
630.357	8.69
630.689	8.5
631.021	8.49
631.353	8.7
631.684	8.67
632.016	8.77
632.348	8.35
632.679	8.32
633.011	8.49
633.342	8.67
633.674	8.9
634.005	9.17
634.336	8.47
634.668	8.64
634.999	8.73
635.33	9.03
635.661	8.69
635.992	8.73
636.323	8.76
636.654	8.38
636.985	8.9
637.316	9.02
637.647	8.63
637.977	9.18
638.308	8.71
638.639	8.65
638.969	9.41
639.3	8.91
639.63	8.82
639.961	9.07
640.291	9.01
640.622	9.3
640.952	9.29
641.282	9.12
641.612	9.09
641.943	9.11
642.273	9.28
642.603	8.93
642.933	9.14
643.263	9.09
643.592	9.21
643.922	9.03
644.252	9.56
644.582	9.64
644.911	9.54
645.241	9.6
645.571	9.45
645.9	9.14
646.23	9.32
646.559	9.24
646.888	9.36
647.218	9.08
647.547	9.21
647.876	9.24
648.205	9.73
648.534	9.27
648.863	9.33
649.192	9.69
649.521	9.82
649.85	9.78
650.179	9.67
650.508	9.62
650.837	9.58
651.165	9.46
651.494	9.53
651.822	9.92
652.151	10.09
652.479	10.2
652.808	10.04
653.136	9.68
653.465	9.72
653.793	9.76
654.121	9.68
654.449	9.65
654.777	9.31
655.105	10.23
655.433	9.86
655.761	10.42
656.089	10.46
656.417	9.85
656.745	9.95
657.073	9.7
657.4	10.19
657.728	10.19
658.056	9.85
658.383	10.53
658.711	10.27
659.038	9.67
659.365	10.01
659.693	9.95
660.02	10.26
660.347	10.54
660.674	9.73
661.001	9.89
661.329	10.36
661.656	10.09
661.982	10.28
662.309	10.35
662.636	10.68
662.963	10.19
663.29	9.97
663.616	10.57
663.943	10.24
664.27	10.11
664.596	10.29
664.923	10.86
665.249	10.91
665.576	10.4
665.902	10.44
666.228	10.8
666.554	10.74
666.881	10.74
667.207	10.54
667.533	10.4
667.859	11.24
668.185	10.76
668.511	10.31
668.837	10.34
669.162	11.09
669.488	10.9
669.814	10.87
670.139	10.65
670.465	11.08
670.791	10.6
671.116	10.63
671.442	10.91
671.767	11.06
672.092	10.54
672.418	10.68
672.743	10.91
673.068	11.55
673.393	11.1
673.718	10.38
674.043	11.95
674.368	11.14
674.693	10.75
675.018	10.84
675.343	10.51
675.667	11.56
675.992	11.63
676.317	11.59
676.641	11.1
676.966	10.98
677.29	11.03
677.615	10.9
677.939	11.22
678.264	10.79
678.588	10.88
678.912	11.08
679.236	11.04
679.56	11.21
679.885	11.23
680.209	11.27
680.532	11.27
680.856	11.49
681.18	11.71
681.504	10.94
681.828	11.33
682.152	11.18
682.475	11.29
682.799	11.02
683.122	11.48
683.446	11.99
683.769	11.68
684.093	12.22
684.416	12.26
684.739	11.6
685.062	11.64
685.386	12.8
685.709	11.11
686.032	11.95
686.355	11.53
686.678	11.01
687.001	11.69
687.324	11.97
687.646	11.43
687.969	11.9
688.292	12.47
688.614	11.08
688.937	11.35
689.26	11.45
689.582	11.93
689.904	11.57
690.227	12.23
690.549	11.58
