Data from 1805-1_chest_Reflection__0__61.txt Node

Date: Fri Sep 30 18:14:28 CDT 2022
User: ToomeyLab
Spectrometer: FLMS14357
Trigger mode: 0
Integration Time (sec): 1.000000E-2
Scans to average: 100
Electric dark correction enabled: true
Nonlinearity correction enabled: false
Boxcar width: 0
XAxis mode: Wavelengths
Number of Pixels in Spectrum: 2048
>>>>>Begin Spectral Data<<<<<
189.047	-59.54
189.435	-59.54
189.823	-59.54
190.211	-371.44
190.599	993.22
190.987	20.65
191.375	72.03
191.763	94.89
192.151	33.02
192.538	-50.74
192.926	-76.01
193.314	123.49
193.702	38.52
194.089	-124.66
194.477	108.51
194.864	-9.73
195.252	279.61
195.639	140.17
196.027	-41.97
196.414	-121.45
196.801	57.15
197.189	88.87
197.576	242.23
197.963	10.39
198.351	9.24
198.738	-39.71
199.125	7.79
199.512	9.64
199.899	22.95
200.286	-27.57
200.673	48.07
201.06	28.47
201.447	40.34
201.833	32.88
202.22	22.39
202.607	25.18
202.994	47.06
203.38	12.42
203.767	13.18
204.154	40.76
204.54	23.27
204.927	11.37
205.313	-21.31
205.699	23.32
206.086	-30.86
206.472	18.89
206.858	-5.06
207.245	5.3
207.631	-1.83
208.017	-21.13
208.403	17.11
208.789	-1.37
209.175	-0.77
209.561	-3.51
209.947	-23.95
210.333	-22.41
210.719	11.9
211.105	6.84
211.491	7.42
211.876	16.86
212.262	42.91
212.648	4.79
213.034	-6.31
213.419	15.02
213.805	-11.29
214.19	-1.4
214.576	-4.99
214.961	-15.36
215.346	14.35
215.732	16.85
216.117	6.63
216.502	29.28
216.888	13.42
217.273	-15.92
217.658	-2.83
218.043	-2.48
218.428	-10.41
218.813	0.78
219.198	14.26
219.583	26.39
219.968	28
220.353	15.08
220.738	7.04
221.122	3.1
221.507	4.24
221.892	5.94
222.276	-11.7
222.661	1.96
223.046	3.47
223.43	-3.55
223.815	-7.3
224.199	4.99
224.583	-8
224.968	-3.99
225.352	4.91
225.736	-1.41
226.121	2.1
226.505	-4.25
226.889	-1.25
227.273	-2.14
227.657	4.19
228.041	-0.51
228.425	3.48
228.809	0.93
229.193	2.39
229.577	-1.75
229.961	0.89
230.344	1.42
230.728	1.47
231.112	1.52
231.495	0.83
231.879	1.97
232.263	1.09
232.646	0.59
233.03	2.7
233.413	1.18
233.797	1.37
234.18	-0.69
234.563	0.63
234.946	1.18
235.33	2.1
235.713	2.2
236.096	1.07
236.479	1.49
236.862	2.8
237.245	0.91
237.628	0.01
238.011	2.98
238.394	0.99
238.777	-1.3
239.16	0.46
239.543	1.15
239.925	1.24
240.308	0.74
240.691	3.53
241.073	1.9
241.456	1.49
241.838	2.27
242.221	1.42
242.603	1.64
242.986	1.77
243.368	1.11
243.75	0.99
244.133	1.86
244.515	1.22
244.897	1.51
245.279	1.59
245.661	0.87
246.043	1.02
246.425	-0
246.807	2.1
247.189	2.06
247.571	1.95
247.953	1.45
248.335	1.46
248.717	1.31
249.098	1.5
249.48	1.06
249.862	1.49
250.243	1.18
250.625	1.75
251.006	1.55
251.388	-0.16
251.769	1.87
252.151	2.29
252.532	0.96
252.913	1.26
253.295	1.8
253.676	1.14
254.057	1.22
254.438	1.54
254.819	1.64
255.2	1.61
255.581	2.49
255.962	1.56
256.343	1.31
256.724	0.61
257.105	1.58
257.486	1.33
257.867	1.55
258.247	0.64
258.628	1.7
259.009	1.87
259.389	1.15
259.77	1.88
260.15	1.55
260.531	1.73
260.911	1.9
261.292	1.28
261.672	1.28
262.052	1.45
262.432	1.26
262.813	1.48
263.193	1.77
263.573	1.65
263.953	1.07
264.333	1.91
264.713	1.02
265.093	1.27
265.473	1.32
265.853	0.84
266.233	0.8
266.612	1.07
266.992	0.36
267.372	0.68
267.752	1.04
268.131	0.47
268.511	1.17
268.89	0.94
269.27	1.37
269.649	0.95
270.029	1.55
270.408	0.75
270.787	1.09
271.167	1.31
271.546	1.19
271.925	1.9
272.304	1.43
272.683	1.34
273.062	1.34
273.441	1
273.82	0.93
274.199	1.21
274.578	1.24
274.957	1.05
275.336	1.02
275.715	1.39
276.093	1.43
276.472	0.8
276.851	1.14
277.229	1.26
277.608	0.99
277.986	0.91
278.365	1.79
278.743	0.44
279.122	1.03
279.5	1.38
279.878	0.63
280.257	1.36
280.635	1.44
281.013	2.01
281.391	1.17
281.769	1.36
282.147	1.18
282.525	1.2
282.903	1.22
283.281	1.13
283.659	1.36
284.037	0.84
284.415	1.34
284.792	1.37
285.17	0.97
285.548	1.48
285.925	1.06
286.303	0.88
286.68	0.87
287.058	0.61
287.435	0.99
287.813	1.04
288.19	1.33
288.567	1.23
288.945	0.7
289.322	0.87
289.699	1.24
290.076	1.5
290.453	0.97
290.83	1.08
291.207	1.28
291.584	1.26
291.961	1.17
292.338	1.46
292.715	1.29
293.092	1.16
293.469	1.14
293.845	1.89
294.222	1.18
294.599	2.23
294.975	1.92
295.352	1.55
295.728	1.82
296.105	1.45
296.481	1.06
296.858	1.63
297.234	1.47
297.61	1.24
297.986	1.23
298.363	1.39
298.739	1.5
299.115	1.27
299.491	1.17
299.867	1.43
300.243	1.23
300.619	1.13
300.995	1.69
301.371	1.28
301.746	1.49
302.122	1.56
302.498	1.19
302.874	1.39
303.249	1.2
303.625	1.38
304	1.58
304.376	1.46
304.751	1.58
305.127	1.09
305.502	1.29
305.878	1.43
306.253	1.42
306.628	1.41
307.003	2.03
307.378	1.78
307.754	1.4
308.129	1.46
308.504	1.22
308.879	1.09
309.254	0.86
309.629	1.45
310.003	1.09
310.378	0.81
310.753	1.27
311.128	1.49
311.502	1.61
311.877	1.37
312.252	1.37
312.626	1.32
313.001	1.31
313.375	1.25
313.75	1.39
314.124	1.55
314.498	0.96
314.873	1.01
315.247	1.05
315.621	1.81
315.995	1.92
316.369	1.13
316.743	1.71
317.117	1.96
317.491	2.48
317.865	2
318.239	1.97
318.613	1.39
318.987	1.15
319.361	1.64
319.734	1.33
320.108	1.21
320.482	1.17
320.855	1.48
321.229	1.87
321.602	1.32
321.976	1.98
322.349	1.65
322.723	0.96
323.096	1.58
323.469	2.14
323.843	2.04
324.216	1.12
324.589	1.84
324.962	2.08
325.335	1.86
325.708	1.45
326.081	2.27
326.454	1.8
326.827	1.15
327.2	1.74
327.573	1.32
327.945	1.57
328.318	1.65
328.691	1.94
329.063	1.89
329.436	1.62
329.809	2.41
330.181	1.55
330.553	1.54
330.926	1.67
331.298	1.33
331.671	1.62
332.043	1.34
332.415	1.36
332.787	1.82
333.159	1.47
333.532	1.87
333.904	1.77
334.276	1.7
334.648	1.18
335.02	1.81
335.391	1.84
335.763	1.98
336.135	1.55
336.507	2.02
336.879	1.62
337.25	1
337.622	1.83
337.993	1.87
338.365	1.67
338.736	1.58
339.108	1.86
339.479	1.94
339.851	1.55
340.222	2.24
340.593	1.43
340.964	1.98
341.336	1.51
341.707	1.46
342.078	1.94
342.449	1.6
342.82	1.9
343.191	1.77
343.562	1.57
343.933	1.3
344.303	1.82
344.674	1.6
345.045	1.67
345.416	2.16
345.786	1.57
346.157	2.22
346.527	1.76
346.898	2.11
347.268	1.6
347.639	1.6
348.009	2.02
348.38	2.17
348.75	2.16
349.12	2.28
349.49	1.73
349.861	1.89
350.231	1.57
350.601	1.89
350.971	1.75
351.341	1.53
351.711	1.57
352.081	1.7
352.45	1.68
352.82	2.1
353.19	2
353.56	1.66
353.929	1.47
354.299	1.76
354.669	1.73
355.038	1.65
355.408	1.98
355.777	1.69
356.147	1.65
356.516	2.23
356.885	1.23
357.254	1.9
357.624	1.7
357.993	1.35
358.362	1.87
358.731	1.83
359.1	1.73
359.469	1.8
359.838	1.78
360.207	1.64
360.576	1.83
360.945	1.73
361.314	1.55
361.682	1.61
362.051	1.95
362.42	1.78
362.788	1.79
363.157	1.84
363.525	1.75
363.894	1.84
364.262	1.99
364.631	1.91
364.999	1.82
365.367	2.07
365.735	1.8
366.104	1.67
366.472	1.95
366.84	2.04
367.208	1.9
367.576	2.52
367.944	1.84
368.312	1.91
368.68	1.51
369.048	1.56
369.416	1.79
369.783	2.03
370.151	1.66
370.519	2.1
370.886	2.08
371.254	1.87
371.621	2.06
371.989	1.9
372.356	1.93
372.724	1.76
373.091	1.75
373.458	1.77
373.826	2.19
374.193	2.24
374.56	2.03
374.927	2.28
375.294	2.17
375.661	1.57
376.028	2.02
376.395	2.09
376.762	1.97
377.129	2.29
377.496	2.19
377.863	1.66
378.229	2.12
378.596	2.17
378.963	2.1
379.329	1.83
379.696	2.02
380.062	2.26
380.429	1.98
380.795	2.02
381.161	1.66
381.528	2.25
381.894	1.75
382.26	1.78
382.626	1.98
382.993	2.16
383.359	1.72
383.725	1.65
384.091	1.66
384.457	2.27
384.823	1.85
385.188	2.2
385.554	1.94
385.92	1.96
386.286	2.17
386.651	2.13
387.017	2.1
387.383	1.82
387.748	1.63
388.114	2.03
388.479	2.06
388.845	1.6
389.21	1.87
389.575	2.21
389.94	1.96
390.306	2.1
390.671	1.93
391.036	1.97
391.401	1.94
391.766	1.97
392.131	1.96
392.496	1.88
392.861	2.05
393.226	1.92
393.591	2.03
393.956	2.14
394.32	1.99
394.685	1.96
395.05	2.02
395.414	2.32
395.779	2.16
396.143	2.18
396.508	2.08
396.872	2.4
397.236	1.9
397.601	2.18
397.965	2.36
398.329	2.03
398.694	2.21
399.058	2.06
399.422	2.12
399.786	2.13
400.15	2.09
400.514	2.21
400.878	2.11
401.242	1.88
401.605	2.18
401.969	2.04
402.333	2.14
402.697	2.13
403.06	2.1
403.424	2.22
403.787	2.31
404.151	2.08
404.514	2.18
404.878	2.03
405.241	2.37
405.604	2.13
405.968	2.06
406.331	2.21
406.694	2.24
407.057	2.16
407.42	2.07
407.783	2.1
408.146	2.13
408.509	1.96
408.872	2.17
409.235	1.83
409.598	2.21
409.961	2.09
410.323	2.34
410.686	2.44
411.049	2.06
411.411	2.2
411.774	2.46
412.136	2.2
412.499	2.08
412.861	1.98
413.223	1.83
413.586	2.08
413.948	2.3
414.31	2.29
414.672	2.17
415.035	2.28
415.397	2.17
415.759	2.26
416.121	2.16
416.483	1.92
416.845	2.14
417.206	2.23
417.568	2.27
417.93	2.02
418.292	2.23
418.653	2.14
419.015	2.22
419.377	2.31
419.738	2.08
420.1	2.17
420.461	2.12
420.822	2.25
421.184	2.04
421.545	2.02
421.906	1.97
422.267	2.15
422.629	2.13
422.99	2.1
423.351	2.01
423.712	2.17
424.073	2.14
424.434	2.09
424.795	2.11
425.155	2.16
425.516	2.11
425.877	2.18
426.238	2.15
426.598	2.2
426.959	2.16
427.32	2.18
427.68	2.29
428.041	2.2
428.401	2.18
428.761	2.4
429.122	2.29
429.482	2.19
429.842	2.34
430.202	2.06
430.563	2.25
430.923	2.14
431.283	2.11
431.643	2.41
432.003	2.12
432.363	2.41
432.722	2.37
433.082	2.4
433.442	2.13
433.802	2.22
434.161	2.34
434.521	2.21
434.881	2.12
435.24	2.3
435.6	2.4
435.959	2.2
436.319	2.26
436.678	2.17
437.037	2.43
437.396	2.4
437.756	2.25
438.115	2.2
438.474	2.25
438.833	2.35
439.192	2.25
439.551	2.23
439.91	2.19
440.269	1.98
440.628	2.2
440.987	2.27
441.345	2.26
441.704	2.23
442.063	2.3
442.421	2.32
442.78	2.3
443.138	2.15
443.497	2.25
443.855	2.28
444.214	2.34
444.572	2.2
444.93	2.18
445.288	2.44
445.647	2.28
446.005	2.45
446.363	2.44
446.721	2.28
447.079	2.16
447.437	2.28
447.795	2.23
448.153	2.2
448.51	2.29
448.868	2.33
449.226	2.27
449.584	2.33
449.941	2.23
450.299	2.3
450.656	2.4
451.014	2.31
451.371	2.36
451.729	2.42
452.086	2.32
452.443	2.36
452.801	2.32
453.158	2.31
453.515	2.28
453.872	2.39
454.229	2.34
454.586	2.42
454.943	2.39
455.3	2.28
455.657	2.53
456.014	2.43
456.371	2.33
456.727	2.41
457.084	2.22
457.441	2.4
457.797	2.39
458.154	2.26
458.51	2.25
458.867	2.49
459.223	2.29
459.58	2.43
459.936	2.47
460.292	2.34
460.648	2.32
461.005	2.38
461.361	2.39
461.717	2.19
462.073	2.3
462.429	2.39
462.785	2.32
463.141	2.39
463.496	2.33
463.852	2.36
464.208	2.44
464.564	2.26
464.919	2.4
465.275	2.38
465.631	2.47
465.986	2.48
466.342	2.44
466.697	2.56
467.052	2.38
467.408	2.36
467.763	2.24
468.118	2.6
468.473	2.49
468.829	2.4
469.184	2.45
469.539	2.47
469.894	2.48
470.249	2.43
470.603	2.57
470.958	2.35
471.313	2.51
471.668	2.53
472.023	2.48
472.377	2.52
472.732	2.63
473.086	2.37
473.441	2.68
473.795	2.45
474.15	2.4
474.504	2.55
474.859	2.57
475.213	2.45
475.567	2.55
475.921	2.5
476.275	2.32
476.63	2.58
476.984	2.45
477.338	2.47
477.692	2.57
478.045	2.62
478.399	2.38
478.753	2.47
479.107	2.4
479.461	2.41
479.814	2.42
480.168	2.44
480.521	2.46
480.875	2.54
481.228	2.44
481.582	2.53
481.935	2.51
482.289	2.64
482.642	2.56
482.995	2.5
483.348	2.42
483.701	2.57
484.055	2.46
484.408	2.4
484.761	2.36
485.114	2.35
485.466	2.31
485.819	2.32
486.172	2.41
486.525	2.44
486.878	2.43
487.23	2.45
487.583	2.4
487.936	2.48
488.288	2.49
488.641	2.36
488.993	2.39
489.345	2.42
489.698	2.4
490.05	2.45
490.402	2.47
490.754	2.47
491.107	2.45
491.459	2.56
491.811	2.52
492.163	2.59
492.515	2.5
492.866	2.45
493.218	2.41
493.57	2.45
493.922	2.46
494.274	2.49
494.625	2.57
494.977	2.64
495.328	2.66
495.68	2.5
496.031	2.7
496.383	2.57
496.734	2.55
497.086	2.55
497.437	2.68
497.788	2.61
498.139	2.5
498.49	2.49
498.842	2.66
499.193	2.63
499.544	2.65
499.894	2.62
500.245	2.62
500.596	2.56
500.947	2.59
501.298	2.8
501.648	2.61
501.999	2.61
502.35	2.71
502.7	2.64
503.051	2.75
503.401	2.68
503.752	2.64
504.102	2.78
504.452	2.68
504.803	2.74
505.153	2.74
505.503	2.67
505.853	2.72
506.203	2.56
506.553	2.64
506.903	2.83
507.253	2.75
507.603	2.78
507.953	2.81
508.303	2.92
508.652	2.82
509.002	2.84
509.352	2.72
509.701	2.66
510.051	2.79
510.4	2.71
510.75	2.77
511.099	2.6
511.449	2.68
511.798	2.64
512.147	2.84
512.496	2.81
512.846	2.82
513.195	2.82
513.544	2.77
513.893	2.76
514.242	2.76
514.591	2.8
514.939	2.8
515.288	2.87
515.637	2.61
515.986	2.87
516.334	2.8
516.683	2.75
517.032	2.75
517.38	2.82
517.729	2.91
518.077	2.92
518.426	2.82
518.774	2.9
519.122	2.78
519.47	2.85
519.819	2.85
520.167	2.88
520.515	2.77
520.863	2.82
521.211	2.91
521.559	2.95
521.907	2.93
522.255	2.78
522.602	2.87
522.95	2.97
523.298	3
523.645	2.87
523.993	2.87
524.341	2.92
524.688	2.9
525.036	2.85
525.383	2.79
525.73	2.95
526.078	2.9
526.425	2.84
526.772	2.85
527.119	2.85
527.466	2.8
527.814	2.89
528.161	2.77
528.508	2.9
528.854	2.94
529.201	2.87
529.548	2.87
529.895	2.82
530.242	2.77
530.588	2.8
530.935	2.84
531.282	2.88
531.628	2.88
531.975	2.91
532.321	2.88
532.667	2.95
533.014	2.93
533.36	2.96
533.706	2.96
534.052	2.88
534.399	2.92
534.745	2.94
535.091	2.87
535.437	2.94
535.783	2.95
536.129	3.04
536.474	3.04
536.82	3.08
537.166	3.12
537.512	3.02
537.857	3.05
538.203	3.02
538.549	2.98
538.894	3.03
539.239	3.17
539.585	3.05
539.93	3.04
540.276	3.11
540.621	3.22
540.966	3.21
541.311	3.13
541.656	3.14
542.001	3.14
542.346	3.11
542.691	3.07
543.036	3.06
543.381	3.05
543.726	3.09
544.071	3.18
544.415	3.13
544.76	3.18
545.105	3.18
545.449	3.25
545.794	3.24
546.138	3.18
546.483	3.33
546.827	3.24
547.171	3.42
547.516	3.23
547.86	3.29
548.204	3.32
548.548	3.29
548.892	3.3
549.236	3.38
549.58	3.38
549.924	3.32
550.268	3.52
550.612	3.51
550.956	3.48
551.3	3.39
551.643	3.48
551.987	3.4
552.33	3.58
552.674	3.52
553.017	3.46
553.361	3.4
553.704	3.44
554.048	3.48
554.391	3.62
554.734	3.46
555.077	3.59
555.42	3.53
555.764	3.52
556.107	3.56
556.45	3.69
556.793	3.62
557.135	3.7
557.478	3.68
557.821	3.79
558.164	3.79
558.507	3.81
558.849	3.65
559.192	3.79
559.534	3.56
559.877	3.61
560.219	3.68
560.562	3.8
560.904	3.61
561.246	3.81
561.589	3.63
561.931	3.73
562.273	3.85
562.615	3.75
562.957	3.8
563.299	4
563.641	3.71
563.983	3.58
564.325	3.8
564.667	4
565.008	3.94
565.35	3.73
565.692	4
566.033	3.77
566.375	3.71
566.716	4.03
567.058	3.98
567.399	3.74
567.741	3.93
568.082	4.03
568.423	3.94
568.764	4.01
569.105	3.99
569.447	3.98
569.788	3.99
570.129	3.98
570.47	3.91
570.811	3.95
571.151	4.09
571.492	4.18
571.833	4.01
572.174	3.97
572.514	4.27
572.855	3.86
573.195	4.21
573.536	4.15
573.876	4.3
574.217	4.08
574.557	4.27
574.898	4.16
575.238	4.26
575.578	4.38
575.918	4.08
576.258	4.37
576.598	4.3
576.938	4.26
577.278	4.42
577.618	4.43
577.958	4.33
578.298	4.21
578.638	4.45
578.977	4.4
579.317	4.38
579.657	4.48
579.996	4.3
580.336	4.51
580.675	4.39
581.014	4.34
581.354	4.41
581.693	4.61
582.032	4.43
582.372	4.47
582.711	4.49
583.05	4.64
583.389	4.48
583.728	4.56
584.067	4.76
584.406	4.63
584.745	4.74
585.083	4.49
585.422	4.6
585.761	4.69
586.1	4.72
586.438	5.06
586.777	4.94
587.115	4.91
587.454	4.89
587.792	4.54
588.13	4.96
588.469	4.68
588.807	4.84
589.145	4.76
589.483	5.18
589.821	4.91
590.159	4.93
590.497	4.92
590.835	4.93
591.173	4.82
591.511	5.01
591.849	5.05
592.187	5.28
592.524	4.99
592.862	5.26
593.2	5.2
593.537	4.99
593.875	5.2
594.212	5.09
594.55	5.13
594.887	5.58
595.224	5.25
595.561	5.07
595.899	5.25
596.236	5.5
596.573	5.05
596.91	5.26
597.247	5.2
597.584	5.29
597.921	5.17
598.258	5.22
598.594	5.25
598.931	5.27
599.268	5.13
599.604	5.34
599.941	5.31
600.277	5.38
600.614	5.57
600.95	5.53
601.287	5.59
601.623	5.54
601.959	5.52
602.296	5.56
602.632	5.69
602.968	5.71
603.304	5.48
603.64	5.81
603.976	5.53
604.312	5.54
604.648	5.78
604.984	5.66
605.319	5.79
605.655	5.77
605.991	5.57
606.326	5.77
606.662	5.84
606.998	5.76
607.333	5.82
607.668	5.92
608.004	5.99
608.339	5.87
608.674	6.25
609.01	5.83
609.345	5.68
609.68	6.05
610.015	6.09
610.35	5.75
610.685	5.77
611.02	5.85
611.355	5.9
611.689	5.79
612.024	6.06
612.359	6.25
612.694	6.21
613.028	6.18
613.363	6.01
613.697	6.07
614.032	6.36
614.366	6.43
614.7	6.11
615.035	6.31
615.369	6.34
615.703	6.51
616.037	6.28
616.371	6.47
616.705	6.43
617.039	6.45
617.373	6.73
617.707	6.21
618.041	6.57
618.375	6.63
618.709	6.68
619.042	6.2
619.376	6.8
619.71	6.84
620.043	6.99
620.377	6.92
620.71	6.7
621.043	6.89
621.377	6.79
621.71	6.4
622.043	6.71
622.376	6.49
622.709	6.79
623.043	6.83
623.376	6.54
623.709	7
624.041	7.19
624.374	6.95
624.707	6.56
625.04	6.93
625.373	7.08
625.705	7.24
626.038	6.75
626.37	7.1
626.703	7.43
627.035	7.21
627.368	7.36
627.7	7.28
628.032	7.18
628.365	7.08
628.697	7.26
629.029	7.1
629.361	7.28
629.693	7.47
630.025	7.21
630.357	7.28
630.689	7.36
631.021	7.14
631.353	6.96
631.684	7.7
632.016	7.9
632.348	7.68
632.679	7.42
633.011	7.44
633.342	7.51
633.674	7.66
634.005	7.7
634.336	7.65
634.668	7.63
634.999	7.78
635.33	8
635.661	7.86
635.992	7.63
636.323	7.8
636.654	7.52
636.985	7.52
637.316	8.18
637.647	7.8
637.977	8.24
638.308	8.06
638.639	7.79
638.969	7.97
639.3	7.95
639.63	7.46
639.961	8.08
640.291	8.43
640.622	7.9
640.952	8.26
641.282	8.03
641.612	8.39
641.943	8.47
642.273	8.55
642.603	8.33
642.933	8.62
643.263	8.34
643.592	8.62
643.922	7.68
644.252	8.33
644.582	8.51
644.911	8.68
645.241	8.57
645.571	8.46
645.9	8.25
646.23	8.75
646.559	8.61
646.888	8.82
647.218	8.3
647.547	8.63
647.876	8.47
648.205	8.66
648.534	8.99
648.863	9.18
649.192	8.58
649.521	8.89
649.85	9.05
650.179	8.91
650.508	8.76
650.837	9.16
651.165	8.65
651.494	9.01
651.822	9.09
652.151	9.15
652.479	9.23
652.808	9.24
653.136	9.11
653.465	8.94
653.793	8.81
654.121	8.82
654.449	9.11
654.777	8.96
655.105	9.26
655.433	9.4
655.761	9.71
656.089	9.68
656.417	9.2
656.745	9.2
657.073	9.2
657.4	9.52
657.728	9.91
658.056	9.69
658.383	10.21
658.711	9.69
659.038	9.28
659.365	9.55
659.693	9.42
660.02	10.01
660.347	10.02
660.674	9.45
661.001	9.82
661.329	9.91
661.656	9.71
661.982	9.97
662.309	9.87
662.636	10.16
662.963	9.89
663.29	9.49
663.616	9.55
663.943	9.72
664.27	9.99
664.596	9.88
664.923	10.1
665.249	10.57
665.576	10.38
665.902	9.9
666.228	10.03
666.554	9.91
666.881	10.13
667.207	10.28
667.533	10.5
667.859	10.99
668.185	10.5
668.511	10.98
668.837	10.65
669.162	11.12
669.488	9.71
669.814	10.34
670.139	10.44
670.465	11.2
670.791	10.71
671.116	10.28
671.442	10.7
671.767	10.89
672.092	10.66
672.418	10.54
672.743	10.8
673.068	11.33
673.393	11.18
673.718	10.32
674.043	10.84
674.368	10.93
674.693	10.8
675.018	10.81
675.343	11.32
675.667	11.3
675.992	11.23
676.317	11.11
676.641	10.95
676.966	10.8
677.29	10.71
677.615	11.16
677.939	11.29
678.264	10.82
678.588	11.18
678.912	11.53
679.236	11.55
679.56	11.16
679.885	11.56
680.209	11.52
680.532	11.24
680.856	11.8
681.18	11.54
681.504	11.41
681.828	11.51
682.152	11.54
682.475	11.93
682.799	11.29
683.122	11.79
683.446	11.3
683.769	12
684.093	11.9
684.416	12.18
684.739	12.21
685.062	12.33
685.386	12.05
685.709	11.79
686.032	11.87
686.355	11.86
686.678	11.74
687.001	12.31
687.324	12.53
687.646	11.48
687.969	11.69
688.292	13.04
688.614	11.94
688.937	12.39
689.26	12.03
689.582	11.86
689.904	11.92
690.227	12.39
690.549	12.32
690.871	12.71
691.194	12.98
