Data from 1805-1_forehead_Reflection__3__74.txt Node

Date: Fri Sep 30 18:18:59 CDT 2022
User: ToomeyLab
Spectrometer: FLMS14357
Trigger mode: 0
Integration Time (sec): 1.000000E-2
Scans to average: 100
Electric dark correction enabled: true
Nonlinearity correction enabled: false
Boxcar width: 0
XAxis mode: Wavelengths
Number of Pixels in Spectrum: 2048
>>>>>Begin Spectral Data<<<<<
189.047	-83.81
189.435	-83.81
189.823	-83.81
190.211	-237.18
190.599	-130.97
190.987	66.95
191.375	60.89
191.763	37.57
192.151	62.82
192.538	98.01
192.926	-166.74
193.314	67.39
193.702	46.4
194.089	634.12
194.477	487.73
194.864	-302.08
195.252	-247.68
195.639	1.04
196.027	34.58
196.414	-307.85
196.801	33.57
197.189	47.95
197.576	7.1
197.963	-82.94
198.351	22.01
198.738	26.31
199.125	53.6
199.512	30.99
199.899	4.29
200.286	-13.57
200.673	50.81
201.06	24.83
201.447	70.59
201.833	58.16
202.22	63.57
202.607	32
202.994	42.59
203.38	64.15
203.767	14.34
204.154	66.69
204.54	36.9
204.927	38.62
205.313	39.21
205.699	57.66
206.086	29.04
206.472	13.54
206.858	42.21
207.245	39.12
207.631	-4.65
208.017	13.49
208.403	28.25
208.789	11.05
209.175	30.9
209.561	-6.7
209.947	-1.35
210.333	-17.97
210.719	18.24
211.105	-0.03
211.491	11.21
211.876	21.12
212.262	49.79
212.648	36.51
213.034	19.09
213.419	35.87
213.805	8.61
214.19	38.29
214.576	16.36
214.961	32.13
215.346	40.5
215.732	16.34
216.117	13.23
216.502	46.99
216.888	14.63
217.273	24.41
217.658	34.37
218.043	25.26
218.428	33.46
218.813	28.79
219.198	47.45
219.583	39.79
219.968	40.04
220.353	27.57
220.738	18
221.122	10.47
221.507	22.65
221.892	18.92
222.276	8.89
222.661	5.11
223.046	9.03
223.43	9.03
223.815	8.34
224.199	17.13
224.583	14.07
224.968	15.93
225.352	3.1
225.736	10.87
226.121	3.49
226.505	-1.21
226.889	7.49
227.273	-0.46
227.657	5.55
228.041	1.07
228.425	7.8
228.809	6.8
229.193	4.59
229.577	0.36
229.961	1.7
230.344	1.12
230.728	1.15
231.112	1.78
231.495	1.59
231.879	5.07
232.263	1.24
232.646	0.19
233.03	2.57
233.413	2.58
233.797	3.08
234.18	0.47
234.563	2.08
234.946	2.8
235.33	2.25
235.713	3.94
236.096	3.25
236.479	3.2
236.862	3.27
237.245	4.66
237.628	3.28
238.011	2.71
238.394	2.76
238.777	1.33
239.16	4.04
239.543	1.24
239.925	1.82
240.308	-0.08
240.691	3.88
241.073	2.52
241.456	0.5
241.838	2.09
242.221	1.07
242.603	2.17
242.986	1.85
243.368	1
243.75	1.24
244.133	2.05
244.515	1.46
244.897	2.45
245.279	2.13
245.661	1.3
246.043	2.25
246.425	2.15
246.807	2.53
247.189	2.58
247.571	2.07
247.953	2.06
248.335	1.65
248.717	1.65
249.098	1.99
249.48	1.81
249.862	1.85
250.243	1.76
250.625	1.86
251.006	2.03
251.388	1.08
251.769	3.12
252.151	2.21
252.532	2.33
252.913	1.77
253.295	1.88
253.676	1.63
254.057	2.28
254.438	1.51
254.819	2.77
255.2	0.96
255.581	2.68
255.962	2.9
256.343	3.28
256.724	3.19
257.105	1.77
257.486	1.99
257.867	2.41
258.247	2.2
258.628	2.53
259.009	2.98
259.389	1.85
259.77	2.16
260.15	1.79
260.531	2.25
260.911	1.59
261.292	1.45
261.672	1.57
262.052	1.76
262.432	1.77
262.813	2.35
263.193	2.18
263.573	1.64
263.953	1.8
264.333	2.26
264.713	1.85
265.093	2.27
265.473	1.91
265.853	2.57
266.233	2.29
266.612	2.09
266.992	2.28
267.372	1.58
267.752	1.89
268.131	1.54
268.511	1.65
268.89	1.45
269.27	2.48
269.649	1.84
270.029	2.57
270.408	2.04
270.787	1.74
271.167	1.55
271.546	1.99
271.925	2.52
272.304	2.14
272.683	1.68
273.062	1.97
273.441	1.41
273.82	1.46
274.199	2.12
274.578	1.98
274.957	2.05
275.336	1.7
275.715	2.03
276.093	2.26
276.472	1.96
276.851	1.64
277.229	1.78
277.608	1.9
277.986	1.86
278.365	2.34
278.743	1.43
279.122	1.66
279.5	2.31
279.878	1.69
280.257	1.87
280.635	2.3
281.013	2.47
281.391	1.56
281.769	1.84
282.147	1.98
282.525	1.93
282.903	1.54
283.281	1.99
283.659	1.94
284.037	1.89
284.415	1.92
284.792	1.78
285.17	1.91
285.548	1.99
285.925	1.97
286.303	2.19
286.68	1.5
287.058	2.1
287.435	1.96
287.813	2.16
288.19	1.77
288.567	1.61
288.945	1.6
289.322	2.21
289.699	2.05
290.076	1.86
290.453	1.95
290.83	1.93
291.207	2.19
291.584	1.68
291.961	2.17
292.338	2.28
292.715	2.11
293.092	1.85
293.469	2.03
293.845	2.54
294.222	2.22
294.599	2.14
294.975	2.44
295.352	2.25
295.728	2.62
296.105	2.74
296.481	2.58
296.858	2.09
297.234	2.49
297.61	2.21
297.986	1.78
298.363	1.98
298.739	2.1
299.115	1.92
299.491	2.49
299.867	2.74
300.243	2.73
300.619	2.47
300.995	3.09
301.371	2.48
301.746	2.51
302.122	2.67
302.498	2.67
302.874	3.21
303.249	3.46
303.625	2.85
304	2.97
304.376	3.26
304.751	3.15
305.127	3.06
305.502	3.16
305.878	2.95
306.253	2.84
306.628	2.9
307.003	2.93
307.378	3.27
307.754	3.5
308.129	2.73
308.504	3.59
308.879	3.58
309.254	2.92
309.629	3.74
310.003	3.43
310.378	3.08
310.753	3.38
311.128	3.01
311.502	3.41
311.877	3.4
312.252	3.93
312.626	3.71
313.001	3.64
313.375	3.65
313.75	4.16
314.124	4.03
314.498	3.52
314.873	3.93
315.247	3.95
315.621	4.2
315.995	4.17
316.369	3.89
316.743	4.05
317.117	4.66
317.491	5.23
317.865	5.22
318.239	4.73
318.613	4.48
318.987	4.55
319.361	5.2
319.734	4.72
320.108	5.02
320.482	4.8
320.855	5.1
321.229	4.91
321.602	5.01
321.976	5.23
322.349	5.2
322.723	4.89
323.096	5.87
323.469	5.62
323.843	5.29
324.216	5.1
324.589	5.76
324.962	5.85
325.335	5.49
325.708	5.35
326.081	5.82
326.454	5.83
326.827	5.92
327.2	5.75
327.573	5.69
327.945	5.32
328.318	5.72
328.691	6.36
329.063	6.05
329.436	5.48
329.809	6.38
330.181	6.38
330.553	6.59
330.926	6.41
331.298	5.99
331.671	6.27
332.043	6.9
332.415	6.41
332.787	6.62
333.159	6.24
333.532	7.05
333.904	6.64
334.276	6.46
334.648	6.34
335.02	7.05
335.391	7.14
335.763	6.73
336.135	7.25
336.507	7.51
336.879	7.53
337.25	7.23
337.622	7.01
337.993	7.4
338.365	6.83
338.736	7.21
339.108	7.23
339.479	7.74
339.851	7.22
340.222	7.67
340.593	7.44
340.964	7.11
341.336	7.71
341.707	7.4
342.078	7.45
342.449	7.62
342.82	7.35
343.191	7.88
343.562	7.25
343.933	7.85
344.303	7.82
344.674	7.91
345.045	7.54
345.416	8.23
345.786	8.31
346.157	8.3
346.527	8.19
346.898	7.63
347.268	8.01
347.639	7.79
348.009	8.11
348.38	9.04
348.75	8.81
349.12	8.32
349.49	8.87
349.861	8.44
350.231	8.52
350.601	8.66
350.971	8.53
351.341	8.97
351.711	8.85
352.081	8.6
352.45	8.88
352.82	8.94
353.19	8.97
353.56	8.8
353.929	8.62
354.299	9.27
354.669	9.02
355.038	9.28
355.408	9.64
355.777	8.91
356.147	9.3
356.516	9.31
356.885	9.03
357.254	9.38
357.624	8.98
357.993	9.04
358.362	9.53
358.731	9.17
359.1	9.61
359.469	9.29
359.838	9.61
360.207	9.5
360.576	9.62
360.945	9.63
361.314	9.95
361.682	9.71
362.051	9.73
362.42	9.75
362.788	9.59
363.157	9.9
363.525	9.57
363.894	9.86
364.262	10.25
364.631	10.25
364.999	9.98
365.367	10.32
365.735	10.04
366.104	10.21
366.472	11.05
366.84	10.49
367.208	10.34
367.576	10.67
367.944	10.2
368.312	10.39
368.68	10.72
369.048	10.53
369.416	10.7
369.783	10.66
370.151	10.56
370.519	10.71
370.886	10.93
371.254	10.8
371.621	11.3
371.989	11.24
372.356	10.87
372.724	11.26
373.091	10.84
373.458	10.89
373.826	11.32
374.193	11.21
374.56	11.39
374.927	11.74
375.294	11.42
375.661	11.11
376.028	11.47
376.395	11.52
376.762	11.31
377.129	11.73
377.496	11.66
377.863	11.41
378.229	11.78
378.596	11.9
378.963	11.74
379.329	11.77
379.696	12.04
380.062	12.09
380.429	11.93
380.795	11.87
381.161	12.2
381.528	12.39
381.894	12.07
382.26	11.96
382.626	12.15
382.993	12.42
383.359	12.25
383.725	12.36
384.091	12.33
384.457	12.37
384.823	12.78
385.188	12.69
385.554	12.81
385.92	12.62
386.286	12.91
386.651	12.55
387.017	12.6
387.383	12.53
387.748	12.47
388.114	12.8
388.479	12.93
388.845	12.73
389.21	12.7
389.575	13.33
389.94	12.99
390.306	13.21
390.671	13.1
391.036	13.07
391.401	12.95
391.766	13.22
392.131	13.33
392.496	13.23
392.861	13.45
393.226	13.27
393.591	13.13
393.956	13.47
394.32	13.41
394.685	13.6
395.05	13.62
395.414	13.59
395.779	13.59
396.143	13.84
396.508	13.54
396.872	13.81
397.236	13.61
397.601	14.1
397.965	13.95
398.329	14.1
398.694	14.21
399.058	14.2
399.422	14.06
399.786	14.17
400.15	14.02
400.514	14.22
400.878	14.36
401.242	14.1
401.605	14.33
401.969	14.38
402.333	14.59
402.697	14.64
403.06	14.3
403.424	14.54
403.787	14.69
404.151	14.71
404.514	14.75
404.878	14.53
405.241	14.55
405.604	14.69
405.968	14.54
406.331	14.62
406.694	14.72
407.057	14.82
407.42	14.96
407.783	14.77
408.146	14.7
408.509	14.88
408.872	15.05
409.235	15.27
409.598	15.21
409.961	15.11
410.323	15.41
410.686	15.33
411.049	15.09
411.411	15.08
411.774	15.39
412.136	15.43
412.499	15.22
412.861	15.17
413.223	15.37
413.586	15.48
413.948	15.58
414.31	15.64
414.672	15.56
415.035	15.95
415.397	15.74
415.759	15.67
416.121	15.81
416.483	15.59
416.845	15.93
417.206	15.84
417.568	15.8
417.93	15.81
418.292	15.79
418.653	15.74
419.015	16.07
419.377	15.89
419.738	15.79
420.1	16.01
420.461	15.92
420.822	15.94
421.184	15.97
421.545	15.94
421.906	15.72
422.267	15.96
422.629	15.92
422.99	15.85
423.351	16.01
423.712	16.08
424.073	16.03
424.434	16.28
424.795	16.34
425.155	16.19
425.516	16.24
425.877	16.37
426.238	16.31
426.598	16.51
426.959	16.53
427.32	16.57
427.68	16.64
428.041	16.76
428.401	16.93
428.761	17.03
429.122	17.02
429.482	17.04
429.842	17.15
430.202	17.03
430.563	17.1
430.923	17.21
431.283	17.23
431.643	17.34
432.003	17.08
432.363	17.32
432.722	17.53
433.082	17.57
433.442	17.4
433.802	17.37
434.161	17.43
434.521	17.51
434.881	17.45
435.24	17.51
435.6	17.63
435.959	17.63
436.319	17.64
436.678	17.77
437.037	17.87
437.396	18.08
437.756	17.79
438.115	18.07
438.474	18.23
438.833	18
439.192	18.02
439.551	18.14
439.91	18.13
440.269	17.93
440.628	18.28
440.987	18.35
441.345	18.15
441.704	18.22
442.063	18.19
442.421	18.28
442.78	18.02
443.138	18.21
443.497	18.44
443.855	18.59
444.214	18.5
444.572	18.57
444.93	18.69
445.288	18.73
445.647	18.74
446.005	18.74
446.363	18.89
446.721	18.55
447.079	18.73
447.437	18.64
447.795	18.38
448.153	18.56
448.51	18.57
448.868	18.53
449.226	18.66
449.584	18.87
449.941	18.89
450.299	19.12
450.656	19.23
451.014	19.31
451.371	19.49
451.729	19.38
452.086	19.52
452.443	19.69
452.801	19.66
453.158	19.41
453.515	19.5
453.872	19.68
454.229	19.81
454.586	19.76
454.943	19.82
455.3	19.67
455.657	19.89
456.014	19.65
456.371	19.77
456.727	19.67
457.084	19.84
457.441	20.05
457.797	19.91
458.154	19.92
458.51	20.09
458.867	20.34
459.223	20.05
459.58	20.22
459.936	20.28
460.292	20.22
460.648	20.11
461.005	20.11
461.361	19.77
461.717	19.7
462.073	19.99
462.429	20.01
462.785	20.38
463.141	20.67
463.496	20.48
463.852	20.67
464.208	20.75
464.564	20.79
464.919	20.79
465.275	20.94
465.631	21.03
465.986	20.83
466.342	21.06
466.697	21.17
467.052	21.18
467.408	20.9
467.763	20.96
468.118	21.16
468.473	21.17
468.829	21.08
469.184	21.11
469.539	21.24
469.894	21.42
470.249	21.3
470.603	21.41
470.958	21.29
471.313	21.51
471.668	21.4
472.023	21.64
472.377	21.57
472.732	21.53
473.086	21.72
473.441	21.87
473.795	21.66
474.15	21.67
474.504	21.75
474.859	21.68
475.213	21.74
475.567	21.99
475.921	21.93
476.275	21.89
476.63	22.04
476.984	22
477.338	22.19
477.692	22.08
478.045	22.09
478.399	22.21
478.753	22.16
479.107	22.06
479.461	22.1
479.814	22.11
480.168	22.32
480.521	22.13
480.875	22.35
481.228	22.33
481.582	22.35
481.935	22.33
482.289	22.41
482.642	22.33
482.995	22.27
483.348	22.3
483.701	22.32
484.055	22.13
484.408	22.01
484.761	21.79
485.114	21.57
485.466	21.41
485.819	21.47
486.172	21.65
486.525	21.87
486.878	21.91
487.23	22.18
487.583	22.2
487.936	22.25
488.288	22.2
488.641	22.06
488.993	22.05
489.345	22.06
489.698	22.03
490.05	22.22
490.402	22.31
490.754	22.48
491.107	22.67
491.459	22.9
491.811	22.82
492.163	22.88
492.515	22.79
492.866	22.66
493.218	22.41
493.57	22.49
493.922	22.58
494.274	22.75
494.625	23.06
494.977	23.36
495.328	23.42
495.68	23.62
496.031	23.65
496.383	23.64
496.734	23.92
497.086	23.9
497.437	23.92
497.788	23.81
498.139	23.56
498.49	23.61
498.842	23.67
499.193	23.88
499.544	23.95
499.894	23.81
500.245	23.92
500.596	24
500.947	24.13
501.298	24.2
501.648	24.2
501.999	24.3
502.35	24.37
502.7	24.41
503.051	24.2
503.401	24.38
503.752	24.38
504.102	24.46
504.452	24.6
504.803	24.68
505.153	24.6
505.503	24.49
505.853	24.57
506.203	24.5
506.553	24.56
506.903	24.91
507.253	24.77
507.603	24.83
507.953	24.8
508.303	24.81
508.652	24.95
509.002	25.07
509.352	24.84
509.701	24.78
510.051	24.94
510.4	24.83
510.75	24.9
511.099	24.89
511.449	24.99
511.798	25.01
512.147	25.21
512.496	25.02
512.846	25.11
513.195	25.17
513.544	25.16
513.893	25.25
514.242	25.08
514.591	25.18
514.939	25.33
515.288	25.4
515.637	25.42
515.986	25.55
516.334	25.6
516.683	25.53
517.032	25.68
517.38	25.79
517.729	25.88
518.077	25.63
518.426	25.87
518.774	25.71
519.122	25.72
519.47	25.59
519.819	25.56
520.167	25.42
520.515	25.45
520.863	25.51
521.211	25.64
521.559	25.74
521.907	25.86
522.255	25.91
522.602	26.1
522.95	26.08
523.298	26.08
523.645	26.17
523.993	26.36
524.341	26.34
524.688	26.31
525.036	26.4
525.383	26.3
525.73	26.51
526.078	26.27
526.425	26.26
526.772	26.21
527.119	26
527.466	25.86
527.814	26.1
528.161	25.97
528.508	26.15
528.854	26.11
529.201	26.07
529.548	25.93
529.895	25.69
530.242	25.56
530.588	25.63
530.935	25.85
531.282	25.81
531.628	26
531.975	26.05
532.321	26.28
532.667	26.4
533.014	26.5
533.36	26.61
533.706	26.49
534.052	26.65
534.399	26.53
534.745	26.3
535.091	26.25
535.437	26.47
535.783	26.44
536.129	26.69
536.474	26.79
536.82	26.91
537.166	27.02
537.512	26.97
537.857	26.99
538.203	26.88
538.549	26.82
538.894	26.95
539.239	27.28
539.585	27.22
539.93	27.36
540.276	27.55
540.621	27.59
540.966	27.72
541.311	27.55
541.656	27.55
542.001	27.38
542.346	27.16
542.691	27.06
543.036	26.73
543.381	26.98
543.726	26.99
544.071	27.09
544.415	27.26
544.76	27.32
545.105	27.3
545.449	27.57
545.794	27.66
546.138	27.79
546.483	27.93
546.827	27.95
547.171	27.98
547.516	27.91
547.86	27.97
548.204	27.95
548.548	27.83
548.892	27.86
549.236	28.16
549.58	28.35
549.924	28.51
550.268	28.58
550.612	28.74
550.956	28.74
551.3	28.78
551.643	28.8
551.987	28.61
552.33	28.9
552.674	28.91
553.017	28.86
553.361	28.79
553.704	29.02
554.048	28.64
554.391	28.78
554.734	28.81
555.077	28.7
555.42	29.22
555.764	28.85
556.107	29.06
556.45	29.14
556.793	29.13
557.135	29.11
557.478	29.1
557.821	29.42
558.164	29.22
558.507	29.21
558.849	29.65
559.192	29.46
559.534	29.5
559.877	29.51
560.219	29.56
560.562	29.63
560.904	29.36
561.246	29.42
561.589	29.64
561.931	29.67
562.273	29.55
562.615	29.74
562.957	29.83
563.299	29.64
563.641	29.83
563.983	29.93
564.325	30
564.667	30.19
565.008	29.76
565.35	29.81
565.692	30.26
566.033	29.98
566.375	29.71
566.716	30.18
567.058	30.16
567.399	29.93
567.741	29.88
568.082	29.99
568.423	29.87
568.764	29.76
569.105	29.89
569.447	30.06
569.788	30.19
570.129	30.34
570.47	30.31
570.811	30.3
571.151	30.42
571.492	30.38
571.833	30.53
572.174	30.3
572.514	30.29
572.855	30.38
573.195	30.45
573.536	30.35
573.876	30.53
574.217	30.25
574.557	30.41
574.898	30.4
575.238	30.6
575.578	30.68
575.918	30.56
576.258	30.63
576.598	30.58
576.938	30.64
577.278	30.77
577.618	31
577.958	30.78
578.298	30.78
578.638	30.9
578.977	30.99
579.317	31.06
579.657	31.07
579.996	30.97
580.336	31.19
580.675	31.29
581.014	31.06
581.354	31.47
581.693	31.37
582.032	31.47
582.372	31.63
582.711	31.61
583.05	31.39
583.389	31.5
583.728	31.63
584.067	31.41
584.406	31.68
584.745	31.68
585.083	31.39
585.422	31.89
585.761	31.42
586.1	31.65
586.438	32.09
586.777	32
587.115	31.89
587.454	31.79
587.792	32.04
588.13	31.86
588.469	31.92
588.807	31.81
589.145	32.02
589.483	32.16
589.821	31.96
590.159	32.27
590.497	32.28
590.835	32.1
591.173	32.15
591.511	31.96
591.849	31.98
592.187	32.14
592.524	32.16
592.862	32.44
593.2	32.28
593.537	31.99
593.875	32.33
594.212	31.97
594.55	31.96
594.887	32.4
595.224	32.76
595.561	32.38
595.899	32.59
596.236	32.27
596.573	32.37
596.91	32.62
597.247	32.49
597.584	32.47
597.921	32.26
598.258	32.02
598.594	32.12
598.931	32.09
599.268	32.29
599.604	32.58
599.941	32.18
600.277	32.42
600.614	32.48
600.95	32.63
601.287	32.74
601.623	33.3
601.959	32.87
602.296	33.22
602.632	33.21
602.968	33.08
603.304	33.08
603.64	33.26
603.976	32.97
604.312	32.71
604.648	33.04
604.984	33.17
605.319	33.06
605.655	32.91
605.991	32.89
606.326	32.74
606.662	32.82
606.998	32.9
607.333	32.82
607.668	32.99
608.004	32.86
608.339	33.08
608.674	33.47
609.01	33.04
609.345	33.03
609.68	33.31
610.015	33.51
610.35	33.26
610.685	33.2
611.02	33.32
611.355	32.96
611.689	33.11
612.024	33.37
612.359	33.55
612.694	33.37
613.028	33.48
613.363	33.71
613.697	33.62
614.032	33.86
614.366	33.98
614.7	33.51
615.035	33.95
615.369	33.96
615.703	34.08
616.037	33.74
616.371	34.06
616.705	33.97
617.039	34.04
617.373	34.29
617.707	33.84
618.041	34.27
618.375	33.94
618.709	34.29
619.042	34.22
619.376	34.17
619.71	33.96
620.043	34.33
620.377	34.03
620.71	34.35
621.043	34.86
621.377	34.2
621.71	34.24
622.043	34.11
622.376	34.25
622.709	34.26
623.043	34.72
623.376	34.27
623.709	34.55
624.041	35.02
624.374	34.19
624.707	34.29
625.04	34.7
625.373	34.35
625.705	34.63
626.038	34.44
626.37	34.72
626.703	35.04
627.035	34.94
627.368	34.52
627.7	34.42
628.032	34.67
628.365	34.56
628.697	34.84
629.029	34.55
629.361	34.81
629.693	35.05
630.025	34.83
630.357	34.77
630.689	34.69
631.021	34.85
631.353	35.01
631.684	34.67
632.016	35.17
632.348	34.72
632.679	34.84
633.011	34.89
633.342	35.13
633.674	35.55
634.005	35.52
634.336	35.2
634.668	35
634.999	34.97
635.33	35.32
635.661	35.24
635.992	35.28
636.323	35.46
636.654	35.36
636.985	35.04
637.316	35.67
637.647	35.61
637.977	35.52
638.308	35.03
638.639	35.17
638.969	35.59
639.3	35.34
639.63	35.32
639.961	35.47
640.291	35.57
640.622	35.76
640.952	35.67
641.282	35.48
641.612	35.08
641.943	35.28
642.273	35.68
642.603	35.38
642.933	35.31
643.263	35.72
643.592	35.74
643.922	35.52
644.252	35.63
644.582	35.53
644.911	36.55
645.241	36.04
645.571	35.62
645.9	35.66
646.23	35.83
646.559	36.38
646.888	36.18
647.218	35.49
647.547	35.77
647.876	36.02
648.205	35.98
648.534	35.77
648.863	36.21
649.192	36.01
649.521	36.17
649.85	36.27
650.179	36.08
650.508	35.85
650.837	36.82
651.165	35.72
651.494	36.39
651.822	36.24
652.151	36.61
652.479	36.61
652.808	36.44
653.136	36.33
653.465	36.32
653.793	35.93
654.121	36.07
654.449	36.32
654.777	35.75
655.105	36.91
655.433	36.22
655.761	36.8
656.089	36.98
656.417	36.37
656.745	36.41
657.073	36.75
657.4	37.19
657.728	36.61
658.056	36.69
658.383	36.57
658.711	37.01
659.038	36.78
659.365	36.58
659.693	36.63
660.02	37
660.347	37.56
660.674	36.75
661.001	37
661.329	36.68
661.656	36.11
661.982	37.11
662.309	36.71
662.636	37.14
662.963	36.88
663.29	36.9
663.616	36.82
663.943	37.14
664.27	37.02
664.596	37.13
664.923	37.2
665.249	37.98
665.576	37.46
665.902	37.13
666.228	36.99
666.554	37.17
666.881	37.29
667.207	37.32
667.533	38.19
667.859	37.12
668.185	38.09
668.511	37.73
668.837	37.39
669.162	37.78
669.488	37.91
669.814	37.7
670.139	37.26
670.465	37.73
670.791	37.37
671.116	37.6
671.442	37.5
671.767	37.55
672.092	37.99
