Data from 1805-1_chest_Reflection__3__64.txt Node

Date: Fri Sep 30 18:15:33 CDT 2022
User: ToomeyLab
Spectrometer: FLMS14357
Trigger mode: 0
Integration Time (sec): 1.000000E-2
Scans to average: 100
Electric dark correction enabled: true
Nonlinearity correction enabled: false
Boxcar width: 0
XAxis mode: Wavelengths
Number of Pixels in Spectrum: 2048
>>>>>Begin Spectral Data<<<<<
189.047	23.06
189.435	23.06
189.823	23.06
190.211	8.2
190.599	-736.58
190.987	142.33
191.375	65.34
191.763	14.37
192.151	-17.02
192.538	7.03
192.926	-119.88
193.314	0.5
193.702	107.54
194.089	-135.62
194.477	245.99
194.864	78.58
195.252	-13.56
195.639	-180.06
196.027	35.4
196.414	-452.63
196.801	44.28
197.189	68.81
197.576	56.75
197.963	130.2
198.351	-15.94
198.738	21.12
199.125	50.12
199.512	25.69
199.899	-16.51
200.286	-13.67
200.673	58.33
201.06	29.61
201.447	15.71
201.833	40.26
202.22	13.73
202.607	55.06
202.994	38.58
203.38	8.97
203.767	27.39
204.154	56.88
204.54	34.52
204.927	13.47
205.313	-21.81
205.699	7.25
206.086	-40.58
206.472	9.57
206.858	37.12
207.245	6.65
207.631	14.57
208.017	-33.08
208.403	25.92
208.789	19.03
209.175	23.14
209.561	-12.61
209.947	-9.72
210.333	8.09
210.719	-22.32
211.105	-24.91
211.491	7.55
211.876	34.28
212.262	57.75
212.648	10.91
213.034	5.52
213.419	23.03
213.805	16.19
214.19	10.35
214.576	14.62
214.961	-3.65
215.346	-0.23
215.732	9.73
216.117	28.85
216.502	16.31
216.888	19.78
217.273	6.76
217.658	27.72
218.043	25.21
218.428	3.97
218.813	3.99
219.198	9.15
219.583	10.84
219.968	23.75
220.353	21.21
220.738	29.02
221.122	13.2
221.507	11.43
221.892	25.66
222.276	-10.1
222.661	14.88
223.046	7.34
223.43	3.76
223.815	9.18
224.199	4.58
224.583	-3.08
224.968	6.03
225.352	0.13
225.736	17.4
226.121	16.64
226.505	3.01
226.889	3.74
227.273	3.83
227.657	5.8
228.041	5.23
228.425	7.6
228.809	7.57
229.193	3.52
229.577	2.43
229.961	3.69
230.344	2.76
230.728	2.76
231.112	3.12
231.495	3.49
231.879	5.42
232.263	3.5
232.646	3.48
233.03	4.26
233.413	3.04
233.797	7.68
234.18	3.5
234.563	4.2
234.946	4.17
235.33	3.26
235.713	6.43
236.096	3.75
236.479	4.62
236.862	4.21
237.245	4.8
237.628	3.19
238.011	5.95
238.394	4.04
238.777	0.86
239.16	2.03
239.543	4.98
239.925	2.72
240.308	2.46
240.691	4.63
241.073	4.88
241.456	3.22
241.838	3.36
242.221	3.36
242.603	3.95
242.986	4.1
243.368	2.62
243.75	3.28
244.133	3.68
244.515	3.34
244.897	3.58
245.279	3.78
245.661	3.5
246.043	2.89
246.425	2.71
246.807	3.54
247.189	3.45
247.571	3.9
247.953	3.78
248.335	3.03
248.717	3.24
249.098	3.22
249.48	3.23
249.862	3.35
250.243	3.25
250.625	3.21
251.006	3.41
251.388	2.51
251.769	4.39
252.151	3.61
252.532	4.42
252.913	3.15
253.295	3.62
253.676	3.31
254.057	3.17
254.438	2.68
254.819	4.18
255.2	3.97
255.581	4.25
255.962	3.91
256.343	4.06
256.724	4.58
257.105	4.18
257.486	2.64
257.867	2.7
258.247	3.09
258.628	4.09
259.009	4.01
259.389	3.74
259.77	3.12
260.15	3.13
260.531	3.78
260.911	2.98
261.292	3.03
261.672	3.07
262.052	3.15
262.432	3.11
262.813	3.18
263.193	3.5
263.573	3.44
263.953	2.92
264.333	3.5
264.713	2.65
265.093	2.95
265.473	3.13
265.853	2.75
266.233	3.29
266.612	3.32
266.992	2.96
267.372	2.64
267.752	2.7
268.131	2.97
268.511	2.99
268.89	2.85
269.27	2.66
269.649	2.92
270.029	3.15
270.408	2.8
270.787	3.43
271.167	3.51
271.546	3.46
271.925	3.64
272.304	3.34
272.683	3.32
273.062	3.21
273.441	3.19
273.82	2.65
274.199	3.13
274.578	2.64
274.957	3.18
275.336	3.21
275.715	3.29
276.093	3.34
276.472	3.05
276.851	2.87
277.229	3.1
277.608	3.24
277.986	2.63
278.365	3.35
278.743	2.53
279.122	3.23
279.5	3.8
279.878	3.64
280.257	3.1
280.635	3.31
281.013	3.87
281.391	2.5
281.769	3.35
282.147	2.71
282.525	2.92
282.903	3.1
283.281	2.4
283.659	3.51
284.037	2.89
284.415	3.47
284.792	3.56
285.17	2.53
285.548	2.9
285.925	3.16
286.303	2.84
286.68	2.17
287.058	2.97
287.435	2.95
287.813	3.15
288.19	3
288.567	2.79
288.945	2.67
289.322	2.77
289.699	3.05
290.076	2.82
290.453	3.18
290.83	2.89
291.207	2.71
291.584	2.88
291.961	2.88
292.338	2.99
292.715	3.55
293.092	2.44
293.469	3.34
293.845	3.54
294.222	2.86
294.599	3.05
294.975	3.13
295.352	2.91
295.728	3.23
296.105	3.13
296.481	2.96
296.858	2.83
297.234	3
297.61	2.91
297.986	2.48
298.363	2.76
298.739	2.74
299.115	2.95
299.491	2.9
299.867	2.78
300.243	3.21
300.619	2.79
300.995	3.24
301.371	3.07
301.746	3.33
302.122	2.84
302.498	2.95
302.874	2.95
303.249	3.01
303.625	3.18
304	2.96
304.376	3.1
304.751	3.39
305.127	2.78
305.502	3.61
305.878	2.8
306.253	2.96
306.628	2.37
307.003	3
307.378	2.75
307.754	2.76
308.129	2.83
308.504	3.14
308.879	3.34
309.254	2.81
309.629	3.41
310.003	2.58
310.378	2.85
310.753	2.99
311.128	3.02
311.502	3.29
311.877	3.04
312.252	2.97
312.626	3.05
313.001	2.85
313.375	2.77
313.75	3.35
314.124	3.3
314.498	3.01
314.873	3.24
315.247	2.71
315.621	3.34
315.995	3.43
316.369	2.91
316.743	3.56
317.117	3.57
317.491	3.69
317.865	3.52
318.239	3.24
318.613	3.66
318.987	3.03
319.361	3
319.734	2.78
320.108	2.93
320.482	3.1
320.855	3.09
321.229	3.43
321.602	2.8
321.976	3.58
322.349	2.77
322.723	2.8
323.096	3.7
323.469	3.66
323.843	3.02
324.216	3.02
324.589	3.5
324.962	3.19
325.335	3.36
325.708	3.17
326.081	3.22
326.454	3.34
326.827	3.04
327.2	3.18
327.573	3.26
327.945	3.11
328.318	3.4
328.691	3.71
329.063	3.08
329.436	3.2
329.809	4.02
330.181	3.48
330.553	3.38
330.926	3.34
331.298	2.96
331.671	3.61
332.043	3.02
332.415	3.74
332.787	3.41
333.159	3.29
333.532	3.42
333.904	3.62
334.276	3.31
334.648	3.06
335.02	3.54
335.391	3.12
335.763	3.03
336.135	3.63
336.507	3.44
336.879	3.34
337.25	2.97
337.622	3.58
337.993	3.56
338.365	3.36
338.736	3
339.108	3.28
339.479	3.51
339.851	2.88
340.222	3.8
340.593	3.22
340.964	3.34
341.336	3.05
341.707	2.97
342.078	3.39
342.449	3.14
342.82	3.28
343.191	3.16
343.562	3.25
343.933	3.55
344.303	3.46
344.674	3.39
345.045	3.07
345.416	3.56
345.786	3.51
346.157	3.84
346.527	3.01
346.898	3.19
347.268	3.1
347.639	2.87
348.009	3.23
348.38	3.78
348.75	3.94
349.12	3.28
349.49	3.47
349.861	3
350.231	3.34
350.601	3.5
350.971	3.3
351.341	3.24
351.711	3.14
352.081	3.33
352.45	3.4
352.82	3.54
353.19	3.51
353.56	3.09
353.929	2.96
354.299	3.45
354.669	2.99
355.038	3.33
355.408	3.67
355.777	3.36
356.147	3.3
356.516	3.59
356.885	3.15
357.254	3.43
357.624	3.39
357.993	2.63
358.362	3.37
358.731	3.17
359.1	3.1
359.469	3.25
359.838	3.44
360.207	3.08
360.576	3.12
360.945	3.2
361.314	3.11
361.682	3.15
362.051	3.17
362.42	3.14
362.788	3.19
363.157	3.29
363.525	2.81
363.894	3.01
364.262	3.39
364.631	3.85
364.999	3.23
365.367	3.55
365.735	3.14
366.104	3.12
366.472	3.49
366.84	3.51
367.208	3.14
367.576	3.64
367.944	3.36
368.312	2.96
368.68	3.31
369.048	3.36
369.416	3.62
369.783	3.42
370.151	3.01
370.519	3.39
370.886	3.21
371.254	3.35
371.621	3.39
371.989	3.36
372.356	3.47
372.724	3.5
373.091	3.08
373.458	3.28
373.826	3.42
374.193	3.65
374.56	3.4
374.927	3.74
375.294	3.65
375.661	3.18
376.028	3.26
376.395	3.69
376.762	3.35
377.129	3.58
377.496	3.48
377.863	3.22
378.229	3.7
378.596	3.4
378.963	3.52
379.329	3.28
379.696	3.6
380.062	3.61
380.429	3.29
380.795	3.42
381.161	3.28
381.528	3.58
381.894	3.23
382.26	3.3
382.626	3.32
382.993	3.49
383.359	3.48
383.725	3.02
384.091	3.26
384.457	3.5
384.823	3.58
385.188	3.73
385.554	3.65
385.92	3.84
386.286	3.72
386.651	3.56
387.017	3.19
387.383	3.33
387.748	3.26
388.114	3.28
388.479	3.42
388.845	3.24
389.21	3.34
389.575	3.56
389.94	3.45
390.306	3.61
390.671	3.61
391.036	3.67
391.401	3.25
391.766	3.65
392.131	3.3
392.496	3.5
392.861	3.68
393.226	3.53
393.591	3.39
393.956	3.58
394.32	3.44
394.685	3.3
395.05	3.62
395.414	3.29
395.779	3.31
396.143	3.69
396.508	3.41
396.872	3.42
397.236	3.41
397.601	3.53
397.965	3.61
398.329	3.34
398.694	3.73
399.058	3.58
399.422	3.63
399.786	3.37
400.15	3.58
400.514	3.41
400.878	3.4
401.242	3.24
401.605	3.39
401.969	3.53
402.333	3.61
402.697	3.64
403.06	3.53
403.424	3.44
403.787	3.67
404.151	3.7
404.514	3.61
404.878	3.53
405.241	3.5
405.604	3.71
405.968	3.4
406.331	3.5
406.694	3.35
407.057	3.6
407.42	3.82
407.783	3.48
408.146	3.57
408.509	3.53
408.872	3.53
409.235	3.48
409.598	3.7
409.961	3.55
410.323	3.6
410.686	3.65
411.049	3.42
411.411	3.57
411.774	3.79
412.136	3.77
412.499	3.52
412.861	3.49
413.223	3.33
413.586	3.39
413.948	3.72
414.31	3.76
414.672	3.59
415.035	3.92
415.397	3.64
415.759	3.71
416.121	3.53
416.483	3.51
416.845	3.46
417.206	3.77
417.568	3.59
417.93	3.51
418.292	3.53
418.653	3.31
419.015	3.7
419.377	3.52
419.738	3.47
420.1	3.66
420.461	3.55
420.822	3.6
421.184	3.46
421.545	3.42
421.906	3.26
422.267	3.47
422.629	3.6
422.99	3.39
423.351	3.48
423.712	3.53
424.073	3.53
424.434	3.62
424.795	3.53
425.155	3.51
425.516	3.46
425.877	3.54
426.238	3.51
426.598	3.54
426.959	3.46
427.32	3.53
427.68	3.48
428.041	3.5
428.401	3.62
428.761	3.65
429.122	3.69
429.482	3.78
429.842	3.71
430.202	3.7
430.563	3.71
430.923	3.68
431.283	3.5
431.643	3.57
432.003	3.58
432.363	3.8
432.722	3.63
433.082	3.79
433.442	3.51
433.802	3.64
434.161	3.47
434.521	3.57
434.881	3.49
435.24	3.6
435.6	3.79
435.959	3.53
436.319	3.68
436.678	3.63
437.037	3.76
437.396	3.78
437.756	3.72
438.115	3.6
438.474	3.76
438.833	3.74
439.192	3.66
439.551	3.77
439.91	3.63
440.269	3.55
440.628	3.79
440.987	3.82
441.345	3.61
441.704	3.73
442.063	3.68
442.421	3.59
442.78	3.62
443.138	3.52
443.497	3.63
443.855	3.76
444.214	3.6
444.572	3.62
444.93	3.71
445.288	3.79
445.647	3.77
446.005	3.75
446.363	3.76
446.721	3.57
447.079	3.5
447.437	3.71
447.795	3.59
448.153	3.63
448.51	3.57
448.868	3.58
449.226	3.58
449.584	3.7
449.941	3.61
450.299	3.66
450.656	3.69
451.014	3.91
451.371	3.8
451.729	3.83
452.086	3.79
452.443	3.92
452.801	3.86
453.158	3.57
453.515	3.81
453.872	3.81
454.229	3.69
454.586	3.89
454.943	3.89
455.3	3.8
455.657	3.73
456.014	3.67
456.371	3.8
456.727	3.75
457.084	3.73
457.441	3.67
457.797	3.76
458.154	3.53
458.51	3.7
458.867	3.7
459.223	3.61
459.58	3.74
459.936	3.89
460.292	3.72
460.648	3.69
461.005	3.77
461.361	3.6
461.717	3.64
462.073	3.69
462.429	3.77
462.785	3.78
463.141	3.72
463.496	3.72
463.852	3.78
464.208	3.89
464.564	3.67
464.919	3.85
465.275	3.88
465.631	3.92
465.986	3.8
466.342	3.94
466.697	3.86
467.052	3.92
467.408	3.93
467.763	3.67
468.118	3.86
468.473	3.8
468.829	3.93
469.184	3.84
469.539	3.75
469.894	3.86
470.249	3.78
470.603	3.92
470.958	3.9
471.313	3.87
471.668	3.83
472.023	3.81
472.377	3.98
472.732	3.96
473.086	3.88
473.441	3.92
473.795	3.66
474.15	3.89
474.504	4.06
474.859	3.88
475.213	3.89
475.567	3.81
475.921	3.75
476.275	3.78
476.63	3.94
476.984	3.87
477.338	3.86
477.692	3.85
478.045	3.97
478.399	3.78
478.753	4.04
479.107	3.89
479.461	3.87
479.814	3.85
480.168	3.95
480.521	3.86
480.875	3.99
481.228	3.79
481.582	3.84
481.935	3.89
482.289	3.97
482.642	3.9
482.995	3.83
483.348	3.81
483.701	3.93
484.055	3.79
484.408	3.76
484.761	3.73
485.114	3.63
485.466	3.55
485.819	3.6
486.172	3.66
486.525	3.77
486.878	3.74
487.23	3.76
487.583	3.7
487.936	3.8
488.288	3.8
488.641	3.7
488.993	3.69
489.345	3.69
489.698	3.68
490.05	3.73
490.402	3.8
490.754	3.86
491.107	3.85
491.459	3.84
491.811	3.9
492.163	3.97
492.515	3.9
492.866	3.77
493.218	3.69
493.57	3.73
493.922	3.77
494.274	3.83
494.625	3.89
494.977	4.01
495.328	4.03
495.68	3.9
496.031	3.99
496.383	3.85
496.734	3.97
497.086	3.97
497.437	3.99
497.788	4.04
498.139	3.87
498.49	3.88
498.842	3.99
499.193	3.94
499.544	4.02
499.894	3.99
500.245	3.94
500.596	3.94
500.947	3.9
501.298	4.15
501.648	4.05
501.999	3.96
502.35	4.04
502.7	4.08
503.051	4.1
503.401	3.98
503.752	3.97
504.102	4.17
504.452	4.08
504.803	4.06
505.153	4.2
505.503	4.02
505.853	4.2
506.203	3.93
506.553	4.12
506.903	4.14
507.253	4.12
507.603	4.18
507.953	4.13
508.303	4.16
508.652	4.18
509.002	4.2
509.352	4.14
509.701	4.05
510.051	4.15
510.4	4.07
510.75	4.13
511.099	3.98
511.449	4.09
511.798	4.06
512.147	4.13
512.496	4.11
512.846	4.13
513.195	4.19
513.544	4.24
513.893	4.07
514.242	4.17
514.591	4.16
514.939	4.1
515.288	4.19
515.637	4.04
515.986	4.36
516.334	4.2
516.683	4.13
517.032	4.12
517.38	4.16
517.729	4.23
518.077	4.11
518.426	4.26
518.774	4.13
519.122	4.16
519.47	4.2
519.819	4.25
520.167	4.21
520.515	4.11
520.863	4.18
521.211	4.22
521.559	4.23
521.907	4.29
522.255	4.13
522.602	4.3
522.95	4.27
523.298	4.4
523.645	4.17
523.993	4.38
524.341	4.35
524.688	4.29
525.036	4.15
525.383	4.28
525.73	4.27
526.078	4.39
526.425	4.25
526.772	4.31
527.119	4.18
527.466	4.19
527.814	4.22
528.161	4.16
528.508	4.26
528.854	4.24
529.201	4.24
529.548	4.17
529.895	4.23
530.242	4.1
530.588	4.21
530.935	4.23
531.282	4.25
531.628	4.31
531.975	4.3
532.321	4.29
532.667	4.36
533.014	4.43
533.36	4.36
533.706	4.54
534.052	4.46
534.399	4.39
534.745	4.32
535.091	4.28
535.437	4.4
535.783	4.37
536.129	4.42
536.474	4.5
536.82	4.43
537.166	4.59
537.512	4.5
537.857	4.56
538.203	4.4
538.549	4.41
538.894	4.52
539.239	4.57
539.585	4.56
539.93	4.57
540.276	4.6
540.621	4.7
540.966	4.68
541.311	4.66
541.656	4.7
542.001	4.71
542.346	4.62
542.691	4.46
543.036	4.44
543.381	4.44
543.726	4.54
544.071	4.59
544.415	4.63
544.76	4.63
545.105	4.65
545.449	4.74
545.794	4.72
546.138	4.77
546.483	4.76
546.827	4.66
547.171	4.72
547.516	4.73
547.86	4.81
548.204	4.76
548.548	4.75
548.892	4.77
549.236	4.82
549.58	4.91
549.924	4.86
550.268	4.98
550.612	5.08
550.956	5.03
551.3	5
551.643	5.1
551.987	4.91
552.33	5.14
552.674	5.22
553.017	5.05
553.361	5.13
553.704	5.23
554.048	4.9
554.391	5.09
554.734	5.01
555.077	5.06
555.42	5.19
555.764	5.11
556.107	5.24
556.45	5.19
556.793	5.09
557.135	5.28
557.478	5.2
557.821	5.11
558.164	5.29
558.507	5.34
558.849	5.29
559.192	5.17
559.534	5.25
559.877	5.37
560.219	5.27
560.562	5.4
560.904	5.26
561.246	5.4
561.589	5.28
561.931	5.48
562.273	5.46
562.615	5.4
562.957	5.3
563.299	5.42
563.641	5.42
563.983	5.32
564.325	5.42
564.667	5.59
565.008	5.61
565.35	5.51
565.692	5.5
566.033	5.36
566.375	5.59
566.716	5.6
567.058	5.55
567.399	5.39
567.741	5.61
568.082	5.73
568.423	5.75
568.764	5.8
569.105	5.73
569.447	5.69
569.788	5.78
570.129	5.68
570.47	5.78
570.811	5.63
571.151	5.85
571.492	5.89
571.833	5.8
572.174	5.79
572.514	5.85
572.855	5.73
573.195	5.84
573.536	5.76
573.876	5.81
574.217	5.69
574.557	5.95
574.898	5.84
575.238	6.1
575.578	6.18
575.918	5.88
576.258	5.99
576.598	5.94
576.938	6.07
577.278	6.12
577.618	6.13
577.958	6.16
578.298	6.13
578.638	6.32
578.977	6.07
579.317	6.1
579.657	6.23
579.996	6.07
580.336	6.3
580.675	6.41
581.014	6.15
581.354	6.4
581.693	6.34
582.032	6.43
582.372	6.45
582.711	6.47
583.05	6.34
583.389	6.24
583.728	6.22
584.067	6.57
584.406	6.21
584.745	6.65
585.083	6.4
585.422	6.63
585.761	6.4
586.1	6.68
586.438	6.66
586.777	6.73
587.115	6.76
587.454	6.61
587.792	6.52
588.13	6.6
588.469	6.66
588.807	6.63
589.145	6.53
589.483	6.68
589.821	6.87
590.159	6.85
590.497	6.71
590.835	6.71
591.173	6.67
591.511	6.66
591.849	6.93
592.187	7.14
592.524	6.99
592.862	6.94
593.2	6.99
593.537	6.75
593.875	6.86
594.212	6.94
594.55	7.21
594.887	7.51
595.224	7.11
595.561	6.98
595.899	7.09
596.236	7.08
596.573	7.01
596.91	7.2
597.247	7.13
597.584	7.44
597.921	7.19
598.258	7.09
598.594	7.09
598.931	7.23
599.268	7.23
599.604	7.07
599.941	7.26
600.277	7.16
600.614	7.28
600.95	7.62
601.287	7.5
601.623	7.44
601.959	7.63
602.296	7.65
602.632	7.62
602.968	7.72
603.304	7.47
603.64	7.7
603.976	7.44
604.312	7.68
604.648	7.7
604.984	7.94
605.319	7.58
605.655	7.69
605.991	7.59
606.326	7.77
606.662	7.5
606.998	7.58
607.333	7.97
607.668	7.74
608.004	7.99
608.339	7.88
608.674	8.11
609.01	7.84
609.345	7.66
609.68	8.11
610.015	8.03
610.35	8.06
610.685	7.97
611.02	8.01
611.355	7.71
611.689	7.85
612.024	8.12
612.359	8.17
612.694	8.17
613.028	8.36
613.363	8.27
613.697	8.3
614.032	8.49
614.366	8.45
614.7	8.14
615.035	8.57
615.369	8.3
615.703	8.56
616.037	8.42
616.371	8.47
616.705	8.61
617.039	8.69
617.373	8.53
617.707	8.54
618.041	8.74
618.375	8.7
618.709	8.92
619.042	8.58
619.376	8.89
619.71	8.65
620.043	9.06
620.377	8.92
620.71	8.4
621.043	8.96
621.377	9.05
621.71	8.85
622.043	8.79
622.376	8.64
622.709	8.83
623.043	8.86
623.376	8.83
623.709	8.98
624.041	9.02
624.374	8.98
624.707	9.04
625.04	9.08
625.373	9.11
625.705	9.19
626.038	9.08
626.37	9.29
626.703	9.47
627.035	9.53
627.368	9.55
627.7	9.3
628.032	9.07
628.365	9.14
628.697	9.47
629.029	9.2
629.361	9.52
629.693	9.74
630.025	9.55
630.357	9.5
630.689	9.8
631.021	9.65
631.353	9.65
631.684	9.63
632.016	9.95
632.348	9.46
632.679	9.6
633.011	9.94
633.342	9.66
633.674	10.15
634.005	9.77
634.336	9.94
634.668	9.76
634.999	9.78
635.33	10.27
635.661	9.7
635.992	10.03
636.323	10.03
636.654	10.18
636.985	10.06
637.316	10.06
637.647	10.22
637.977	10.49
638.308	9.95
638.639	9.93
638.969	10.28
639.3	10.4
639.63	10.25
639.961	10.39
640.291	10.29
640.622	10.95
640.952	10.51
641.282	10.39
641.612	10.49
641.943	10.74
642.273	10.49
642.603	10.53
642.933	10.53
643.263	10.62
643.592	10.56
643.922	10.47
644.252	10.95
644.582	11.08
644.911	10.86
645.241	10.93
645.571	11.1
645.9	10.87
646.23	10.85
646.559	10.87
646.888	11.14
647.218	10.64
647.547	10.48
647.876	10.64
648.205	10.86
648.534	10.84
648.863	11.46
649.192	10.91
649.521	11.52
649.85	11.27
650.179	11.05
650.508	11.01
650.837	11.61
651.165	10.64
651.494	11.52
651.822	11.6
652.151	11.49
652.479	11.74
652.808	11.78
653.136	11.45
653.465	11.41
653.793	11.2
654.121	11.5
654.449	11.35
654.777	11.19
655.105	11.66
655.433	11.78
655.761	12.55
656.089	11.68
656.417	11.49
656.745	11.48
657.073	11.54
657.4	12.14
657.728	11.63
658.056	11.5
658.383	12
658.711	11.82
659.038	11.34
659.365	11.88
659.693	12.07
660.02	12.3
660.347	12.12
660.674	12.17
661.001	12.07
661.329	12.22
661.656	11.98
661.982	12.42
662.309	12.64
662.636	12.32
662.963	11.77
663.29	12.06
663.616	12.49
663.943	12.11
664.27	12.23
664.596	12.23
664.923	12.48
665.249	13.23
665.576	12.58
665.902	12.95
666.228	12.9
666.554	12.99
666.881	12.59
667.207	12.46
667.533	12.94
667.859	12.85
668.185	12.5
668.511	12.45
668.837	12.65
669.162	13.13
669.488	13.34
669.814	12.82
670.139	12.63
670.465	13.59
670.791	13.26
671.116	12.76
671.442	12.91
671.767	13.28
672.092	13.19
672.418	13.22
672.743	13.16
673.068	13.27
673.393	13.54
673.718	13.21
674.043	13.77
674.368	13.94
674.693	13.23
675.018	13.28
675.343	13.39
675.667	14.11
675.992	12.92
676.317	13.46
676.641	13.42
676.966	13.59
677.29	12.97
677.615	13.36
677.939	13.8
678.264	13.72
678.588	13.63
678.912	13.67
679.236	14.17
679.56	13.54
679.885	13.86
680.209	13.5
680.532	14.44
680.856	14.3
681.18	13.9
681.504	13.4
681.828	13.98
682.152	13.89
682.475	13.71
682.799	14.07
683.122	14.37
683.446	14.41
683.769	14.37
684.093	14.68
684.416	14.71
684.739	13.85
685.062	14.72
685.386	14.48
685.709	14.41
686.032	14.26
686.355	14.24
686.678	14.15
687.001	14.32
687.324	14.84
687.646	13.94
687.969	14.59
688.292	15.05
688.614	14.39
688.937	14.31
689.26	14.73
689.582	14.59
