Data from 1805-1_forehead_Reflection__1__72.txt Node

Date: Fri Sep 30 18:18:32 CDT 2022
User: ToomeyLab
Spectrometer: FLMS14357
Trigger mode: 0
Integration Time (sec): 1.000000E-2
Scans to average: 100
Electric dark correction enabled: true
Nonlinearity correction enabled: false
Boxcar width: 0
XAxis mode: Wavelengths
Number of Pixels in Spectrum: 2048
>>>>>Begin Spectral Data<<<<<
189.047	-104.51
189.435	-104.51
189.823	-104.51
190.211	325.65
190.599	476.7
190.987	84.83
191.375	2.68
191.763	46.98
192.151	208.03
192.538	-0.5
192.926	-124.83
193.314	70.35
193.702	31.94
194.089	21.92
194.477	382.32
194.864	173.11
195.252	-208.93
195.639	48.35
196.027	34.67
196.414	-298.34
196.801	84.4
197.189	-28.22
197.576	18.93
197.963	107.47
198.351	-2.69
198.738	6.08
199.125	60.25
199.512	1.31
199.899	19.57
200.286	-30.16
200.673	38.59
201.06	17.22
201.447	15.94
201.833	47.81
202.22	51.88
202.607	24.46
202.994	55.2
203.38	66.69
203.767	8.16
204.154	48.89
204.54	33.55
204.927	23.68
205.313	-61.35
205.699	39.09
206.086	-25.04
206.472	-0.88
206.858	27.49
207.245	16.29
207.631	1.07
208.017	-20.98
208.403	19.99
208.789	-13.91
209.175	8.52
209.561	2.14
209.947	12.85
210.333	-60.37
210.719	-8.12
211.105	-19.41
211.491	24.43
211.876	19.94
212.262	29.31
212.648	24.95
213.034	-4.97
213.419	7.01
213.805	23.83
214.19	-25.17
214.576	8.31
214.961	-11.31
215.346	1.32
215.732	26.79
216.117	3.68
216.502	29.32
216.888	23.14
217.273	9.22
217.658	29.08
218.043	0.94
218.428	24.37
218.813	8.79
219.198	8.87
219.583	6.02
219.968	38.44
220.353	36.03
220.738	16.42
221.122	7.72
221.507	17.55
221.892	22.29
222.276	-5.76
222.661	32.03
223.046	1.16
223.43	5.21
223.815	9.62
224.199	12.13
224.583	6.06
224.968	9.08
225.352	14.89
225.736	14.48
226.121	9.54
226.505	4.54
226.889	-4.35
227.273	-3.83
227.657	8.08
228.041	1.22
228.425	5.25
228.809	4.33
229.193	6.54
229.577	2.14
229.961	2.6
230.344	1.88
230.728	2.1
231.112	2.64
231.495	1.72
231.879	3.61
232.263	2.28
232.646	2.53
233.03	4.32
233.413	2.48
233.797	5
234.18	2.7
234.563	3.66
234.946	3.04
235.33	1.46
235.713	3.42
236.096	1.38
236.479	2.15
236.862	3.17
237.245	3.06
237.628	2.32
238.011	3.49
238.394	1.8
238.777	-0.1
239.16	1.12
239.543	3.89
239.925	1.68
240.308	2.17
240.691	4.38
241.073	3.52
241.456	2.66
241.838	2.41
242.221	2.58
242.603	3.01
242.986	3.1
243.368	1.52
243.75	1.92
244.133	2.9
244.515	2.54
244.897	2.84
245.279	2.79
245.661	3.15
246.043	2.43
246.425	2.5
246.807	2.81
247.189	3.18
247.571	3.27
247.953	2.88
248.335	2.63
248.717	2.47
249.098	2.88
249.48	2.36
249.862	2.64
250.243	2.68
250.625	2.82
251.006	2.72
251.388	1.99
251.769	3.89
252.151	2.96
252.532	2.96
252.913	2.27
253.295	2.82
253.676	2.56
254.057	2.91
254.438	2.74
254.819	3.92
255.2	2.42
255.581	2.71
255.962	2.87
256.343	2.13
256.724	3.78
257.105	3.57
257.486	2.73
257.867	3.14
258.247	2.85
258.628	3.07
259.009	3.04
259.389	2.74
259.77	3.01
260.15	2.93
260.531	3.12
260.911	2.76
261.292	2.61
261.672	2.67
262.052	2.51
262.432	2.66
262.813	3.36
263.193	2.54
263.573	2.53
263.953	2.59
264.333	3.62
264.713	2.26
265.093	2.69
265.473	2.98
265.853	2.68
266.233	2.6
266.612	3.16
266.992	2.46
267.372	2.23
267.752	2.42
268.131	2.76
268.511	2.61
268.89	2.5
269.27	2.84
269.649	2.4
270.029	2.6
270.408	2.4
270.787	2.7
271.167	3.16
271.546	2.36
271.925	2.88
272.304	2.48
272.683	2.1
273.062	2.53
273.441	2.71
273.82	2.25
274.199	3.01
274.578	2.43
274.957	2.57
275.336	2.66
275.715	2.91
276.093	2.77
276.472	2.13
276.851	2.45
277.229	2.82
277.608	2.78
277.986	1.95
278.365	2.82
278.743	2.25
279.122	3
279.5	2.64
279.878	2.59
280.257	2.25
280.635	3.35
281.013	3.18
281.391	2.17
281.769	3.08
282.147	3.09
282.525	2.99
282.903	2.45
283.281	2.29
283.659	2.68
284.037	2.4
284.415	2.66
284.792	2.86
285.17	2.14
285.548	2.53
285.925	2.46
286.303	2.46
286.68	2.53
287.058	2.61
287.435	2.59
287.813	2.76
288.19	2.47
288.567	2.46
288.945	1.9
289.322	2.42
289.699	2.67
290.076	2.58
290.453	3.22
290.83	2.87
291.207	2.63
291.584	2.86
291.961	3.13
292.338	2.98
292.715	3
293.092	2.54
293.469	2.93
293.845	3.29
294.222	3.49
294.599	3.52
294.975	3.45
295.352	3.17
295.728	3.24
296.105	3.43
296.481	3.35
296.858	3.66
297.234	3
297.61	3.15
297.986	2.88
298.363	3.43
298.739	3.21
299.115	3.21
299.491	3.26
299.867	3.23
300.243	3.27
300.619	3.3
300.995	4.07
301.371	3.68
301.746	3.43
302.122	3.68
302.498	4.1
302.874	3.74
303.249	3.93
303.625	4.64
304	4.19
304.376	4.46
304.751	4.24
305.127	3.92
305.502	4.14
305.878	4.18
306.253	4.27
306.628	4.19
307.003	4.23
307.378	4.06
307.754	4.35
308.129	4.35
308.504	4.57
308.879	4.77
309.254	4.02
309.629	4.31
310.003	4.22
310.378	4.2
310.753	4.18
311.128	4.98
311.502	4.75
311.877	4.9
312.252	4.88
312.626	5.26
313.001	5.02
313.375	4.73
313.75	5.42
314.124	5.17
314.498	5.13
314.873	5.47
315.247	5.28
315.621	5.51
315.995	5.82
316.369	5.32
316.743	5.66
317.117	5.87
317.491	6.46
317.865	6.76
318.239	6.35
318.613	6.02
318.987	5.88
319.361	5.72
319.734	5.39
320.108	6.27
320.482	5.7
320.855	6.35
321.229	6.36
321.602	6.06
321.976	6.09
322.349	6.05
322.723	6.07
323.096	7.16
323.469	6.77
323.843	6.24
324.216	6.4
324.589	6.72
324.962	6.66
325.335	6.4
325.708	6.59
326.081	6.75
326.454	7.23
326.827	6.63
327.2	6.44
327.573	6.65
327.945	6.67
328.318	6.86
328.691	7.24
329.063	6.99
329.436	6.91
329.809	7.23
330.181	7.19
330.553	7.36
330.926	7.5
331.298	7.17
331.671	7.22
332.043	7.14
332.415	7.7
332.787	7.21
333.159	6.98
333.532	7.29
333.904	7.37
334.276	7.87
334.648	7.57
335.02	7.74
335.391	7.75
335.763	7.52
336.135	7.91
336.507	7.9
336.879	7.64
337.25	7.33
337.622	7.9
337.993	7.75
338.365	7.6
338.736	7.76
339.108	8.04
339.479	8.18
339.851	7.97
340.222	8.2
340.593	7.84
340.964	7.84
341.336	7.97
341.707	8.15
342.078	8.45
342.449	8.05
342.82	7.95
343.191	8.37
343.562	8.55
343.933	8.04
344.303	8.24
344.674	8.61
345.045	8.45
345.416	8.54
345.786	8.7
346.157	8.82
346.527	8.79
346.898	8.7
347.268	8.55
347.639	8.57
348.009	8.87
348.38	8.87
348.75	8.99
349.12	8.84
349.49	9.41
349.861	8.72
350.231	8.94
350.601	9.3
350.971	8.77
351.341	8.84
351.711	8.77
352.081	8.89
352.45	9.55
352.82	9.08
353.19	9.43
353.56	9.1
353.929	8.78
354.299	9.66
354.669	9.2
355.038	9.6
355.408	9.34
355.777	9.37
356.147	9.55
356.516	9.62
356.885	9.46
357.254	9.67
357.624	9.64
357.993	9.06
358.362	9.8
358.731	9.57
359.1	9.61
359.469	9.37
359.838	10.1
360.207	9.87
360.576	10.02
360.945	9.99
361.314	9.83
361.682	9.61
362.051	9.77
362.42	9.83
362.788	9.82
363.157	9.9
363.525	9.67
363.894	10.15
364.262	10.25
364.631	10.08
364.999	9.99
365.367	10.03
365.735	10.05
366.104	10.11
366.472	10.51
366.84	10.44
367.208	10.26
367.576	10.8
367.944	10.33
368.312	9.97
368.68	10.34
369.048	10.18
369.416	10.63
369.783	10.67
370.151	10.36
370.519	10.83
370.886	10.46
371.254	10.46
371.621	10.86
371.989	10.94
372.356	10.85
372.724	10.78
373.091	10.69
373.458	10.81
373.826	10.9
374.193	11.16
374.56	11.16
374.927	11.34
375.294	11.18
375.661	10.92
376.028	10.97
376.395	10.99
376.762	11
377.129	11.43
377.496	11.56
377.863	11.15
378.229	11.57
378.596	11.39
378.963	11.44
379.329	11.38
379.696	11.43
380.062	11.49
380.429	11.45
380.795	11.47
381.161	11.21
381.528	11.49
381.894	11.21
382.26	11.59
382.626	11.81
382.993	11.77
383.359	11.87
383.725	11.26
384.091	11.49
384.457	11.5
384.823	11.82
385.188	11.8
385.554	11.87
385.92	12.04
386.286	11.85
386.651	11.98
387.017	11.88
387.383	11.86
387.748	11.67
388.114	12.02
388.479	12.01
388.845	12.03
389.21	11.97
389.575	12.17
389.94	11.88
390.306	12.35
390.671	12.09
391.036	12.3
391.401	12.12
391.766	12.27
392.131	12.31
392.496	12.43
392.861	12.3
393.226	12.28
393.591	12.23
393.956	12.72
394.32	12.57
394.685	12.46
395.05	12.62
395.414	12.34
395.779	12.61
396.143	12.72
396.508	12.43
396.872	12.42
397.236	12.71
397.601	12.73
397.965	12.7
398.329	12.71
398.694	12.72
399.058	12.88
399.422	12.66
399.786	12.87
400.15	12.88
400.514	12.98
400.878	12.94
401.242	12.73
401.605	13.03
401.969	13.15
402.333	13.3
402.697	13.05
403.06	13.18
403.424	13.01
403.787	13.47
404.151	13.17
404.514	13.27
404.878	13.17
405.241	13.25
405.604	13.53
405.968	13.35
406.331	13.4
406.694	13.38
407.057	13.17
407.42	13.47
407.783	13.43
408.146	13.53
408.509	13.68
408.872	13.55
409.235	13.61
409.598	13.86
409.961	13.72
410.323	13.59
410.686	13.6
411.049	13.34
411.411	13.66
411.774	13.93
412.136	13.55
412.499	13.62
412.861	13.75
413.223	13.49
413.586	13.55
413.948	14.19
414.31	14.07
414.672	13.98
415.035	14.03
415.397	14.18
415.759	14.12
416.121	14.14
416.483	13.86
416.845	14
417.206	13.97
417.568	14.03
417.93	14.05
418.292	14.03
418.653	13.87
419.015	13.91
419.377	13.79
419.738	13.82
420.1	14.02
420.461	14.13
420.822	14.13
421.184	14.17
421.545	14.04
421.906	13.96
422.267	14
422.629	14.11
422.99	14.04
423.351	14.06
423.712	14.13
424.073	14.38
424.434	14.36
424.795	14.31
425.155	14.2
425.516	14.24
425.877	14.21
426.238	14.26
426.598	14.44
426.959	14.33
427.32	14.62
427.68	14.64
428.041	14.56
428.401	14.79
428.761	14.88
429.122	14.96
429.482	14.86
429.842	14.97
430.202	14.85
430.563	14.99
430.923	14.89
431.283	15.01
431.643	14.92
432.003	14.93
432.363	15.04
432.722	14.99
433.082	15.15
433.442	15.15
433.802	15.11
434.161	15.18
434.521	14.97
434.881	15.13
435.24	15.18
435.6	15.25
435.959	15.21
436.319	15.17
436.678	15.34
437.037	15.32
437.396	15.31
437.756	15.28
438.115	15.44
438.474	15.45
438.833	15.45
439.192	15.6
439.551	15.49
439.91	15.51
440.269	15.42
440.628	15.63
440.987	15.51
441.345	15.61
441.704	15.48
442.063	15.63
442.421	15.6
442.78	15.55
443.138	15.6
443.497	15.69
443.855	15.88
444.214	15.88
444.572	15.98
444.93	15.92
445.288	15.95
445.647	15.94
446.005	16.01
446.363	15.84
446.721	15.77
447.079	15.9
447.437	15.75
447.795	15.74
448.153	15.74
448.51	15.73
448.868	15.88
449.226	15.87
449.584	15.98
449.941	16.03
450.299	16.06
450.656	16.15
451.014	16.27
451.371	16.33
451.729	16.38
452.086	16.35
452.443	16.32
452.801	16.25
453.158	16.37
453.515	16.44
453.872	16.48
454.229	16.54
454.586	16.68
454.943	16.51
455.3	16.61
455.657	16.76
456.014	16.51
456.371	16.58
456.727	16.71
457.084	16.49
457.441	16.67
457.797	16.64
458.154	16.57
458.51	16.65
458.867	16.85
459.223	16.69
459.58	16.9
459.936	16.77
460.292	16.89
460.648	16.54
461.005	16.67
461.361	16.61
461.717	16.51
462.073	16.73
462.429	16.87
462.785	17
463.141	17.03
463.496	17.16
463.852	17.13
464.208	17.25
464.564	16.99
464.919	17.13
465.275	17.25
465.631	17.32
465.986	17.19
466.342	17.49
466.697	17.41
467.052	17.31
467.408	17.34
467.763	17.24
468.118	17.32
468.473	17.42
468.829	17.38
469.184	17.43
469.539	17.55
469.894	17.72
470.249	17.68
470.603	17.41
470.958	17.62
471.313	17.59
471.668	17.6
472.023	17.54
472.377	17.63
472.732	17.67
473.086	17.72
473.441	17.84
473.795	17.72
474.15	17.75
474.504	17.87
474.859	17.65
475.213	17.78
475.567	18.05
475.921	17.89
476.275	17.76
476.63	18.1
476.984	17.75
477.338	17.95
477.692	18.15
478.045	17.82
478.399	17.95
478.753	18.2
479.107	17.93
479.461	17.95
479.814	17.95
480.168	18.14
480.521	17.96
480.875	18.15
481.228	18.13
481.582	18.16
481.935	18.06
482.289	18.2
482.642	18.2
482.995	17.97
483.348	18
483.701	18.09
484.055	17.93
484.408	17.88
484.761	17.63
485.114	17.24
485.466	17.26
485.819	17.38
486.172	17.68
486.525	17.88
486.878	17.95
487.23	18
487.583	18.1
487.936	18.08
488.288	17.92
488.641	17.8
488.993	17.76
489.345	17.75
489.698	17.83
490.05	18.01
490.402	18.15
490.754	18.28
491.107	18.4
491.459	18.43
491.811	18.47
492.163	18.39
492.515	18.29
492.866	18.07
493.218	17.93
493.57	18.01
493.922	18.31
494.274	18.43
494.625	18.67
494.977	18.86
495.328	18.82
495.68	19.03
496.031	18.95
496.383	19.04
496.734	19.11
497.086	19.1
497.437	19.12
497.788	19.12
498.139	19.03
498.49	18.76
498.842	19.08
499.193	19.17
499.544	19
499.894	19.04
500.245	19.11
500.596	19.26
500.947	19.31
501.298	19.44
501.648	19.28
501.999	19.29
502.35	19.42
502.7	19.51
503.051	19.39
503.401	19.56
503.752	19.64
504.102	19.7
504.452	19.7
504.803	19.63
505.153	19.84
505.503	19.52
505.853	19.65
506.203	19.43
506.553	19.71
506.903	19.9
507.253	19.76
507.603	19.8
507.953	19.73
508.303	19.8
508.652	19.82
509.002	19.88
509.352	19.75
509.701	19.81
510.051	19.86
510.4	19.83
510.75	19.6
511.099	19.67
511.449	19.83
511.798	19.82
512.147	20.02
512.496	19.9
512.846	19.89
513.195	20.06
513.544	20.08
513.893	19.96
514.242	19.86
514.591	20.02
514.939	20.21
515.288	20.2
515.637	20.13
515.986	20.33
516.334	20.28
516.683	20.13
517.032	20.38
517.38	20.28
517.729	20.34
518.077	20.25
518.426	20.28
518.774	20.27
519.122	20.3
519.47	20.14
519.819	20.05
520.167	20.03
520.515	20.11
520.863	20.21
521.211	20.34
521.559	20.36
521.907	20.4
522.255	20.41
522.602	20.59
522.95	20.65
523.298	20.66
523.645	20.62
523.993	20.7
524.341	20.81
524.688	20.71
525.036	20.6
525.383	20.78
525.73	20.69
526.078	20.69
526.425	20.56
526.772	20.55
527.119	20.37
527.466	20.41
527.814	20.55
528.161	20.46
528.508	20.66
528.854	20.54
529.201	20.49
529.548	20.16
529.895	20.02
530.242	19.97
530.588	20.12
530.935	20.36
531.282	20.38
531.628	20.56
531.975	20.64
532.321	20.73
532.667	20.88
533.014	20.86
533.36	20.89
533.706	20.99
534.052	20.83
534.399	20.73
534.745	20.59
535.091	20.57
535.437	20.82
535.783	20.8
536.129	21.07
536.474	21.14
536.82	21.05
537.166	21.14
537.512	21.15
537.857	21.12
538.203	21.1
538.549	20.92
538.894	21.23
539.239	21.27
539.585	21.37
539.93	21.55
540.276	21.49
540.621	21.51
540.966	21.57
541.311	21.68
541.656	21.4
542.001	21.37
542.346	21.2
542.691	20.94
543.036	20.77
543.381	20.98
543.726	21.18
544.071	21.3
544.415	21.4
544.76	21.48
545.105	21.37
545.449	21.51
545.794	21.77
546.138	21.62
546.483	22.05
546.827	21.73
547.171	21.92
547.516	21.66
547.86	21.75
548.204	21.81
548.548	21.67
548.892	21.85
549.236	22.05
549.58	22.1
549.924	22.25
550.268	22.36
550.612	22.27
550.956	22.27
551.3	22.32
551.643	22.49
551.987	22.46
552.33	22.38
552.674	22.49
553.017	22.36
553.361	22.39
553.704	22.49
554.048	22.26
554.391	22.33
554.734	22.17
555.077	22.61
555.42	22.63
555.764	22.54
556.107	22.69
556.45	22.68
556.793	22.43
557.135	22.64
557.478	22.68
557.821	22.83
558.164	22.88
558.507	22.84
558.849	22.7
559.192	22.81
559.534	22.98
559.877	22.93
560.219	22.97
560.562	22.83
560.904	22.75
561.246	23.03
561.589	22.91
561.931	23.04
562.273	22.91
562.615	22.91
562.957	23.05
563.299	22.86
563.641	22.75
563.983	23.01
564.325	23.07
564.667	23.23
565.008	23.2
565.35	23.2
565.692	23.33
566.033	22.99
566.375	22.99
566.716	23.3
567.058	22.99
567.399	23.04
567.741	22.98
568.082	23.17
568.423	23.19
568.764	23.15
569.105	23.32
569.447	23.39
569.788	23.36
570.129	23.41
570.47	23.34
570.811	23.43
571.151	23.55
571.492	23.5
571.833	23.55
572.174	23.5
572.514	23.57
572.855	23.4
573.195	23.23
573.536	23.55
573.876	23.48
574.217	23.26
574.557	23.72
574.898	23.47
575.238	23.81
575.578	23.84
575.918	23.5
576.258	23.53
576.598	23.67
576.938	23.53
577.278	23.86
577.618	23.62
577.958	23.81
578.298	23.84
578.638	24.05
578.977	23.86
579.317	24.02
579.657	23.93
579.996	23.8
580.336	24.16
580.675	23.96
581.014	24.16
581.354	24
581.693	24.22
582.032	24.06
582.372	24.13
582.711	23.99
583.05	23.96
583.389	24.11
583.728	24.28
584.067	24.21
584.406	24.11
584.745	24.34
585.083	23.87
585.422	24.31
585.761	24.19
586.1	24.29
586.438	24.46
586.777	24.64
587.115	24.37
587.454	24.19
587.792	24.39
588.13	24.39
588.469	24.37
588.807	24.54
589.145	24.3
589.483	24.42
589.821	24.35
590.159	24.46
590.497	24.44
590.835	24.41
591.173	24.42
591.511	24.49
591.849	24.5
592.187	24.61
592.524	24.61
592.862	24.75
593.2	24.73
593.537	24.66
593.875	24.74
594.212	24.48
594.55	24.66
594.887	24.89
595.224	24.9
595.561	24.95
595.899	24.63
596.236	24.79
596.573	24.77
596.91	24.86
597.247	24.66
597.584	24.92
597.921	24.67
598.258	24.68
598.594	24.64
598.931	24.73
599.268	24.75
599.604	24.94
599.941	24.85
600.277	24.93
600.614	25
600.95	25.15
601.287	24.93
601.623	25.4
601.959	24.91
602.296	25.43
602.632	24.91
602.968	25.4
603.304	25.16
603.64	25.31
603.976	25.18
604.312	25.31
604.648	25.11
604.984	25.2
605.319	24.96
605.655	25.18
605.991	25.05
606.326	25.14
606.662	25.01
606.998	25.1
607.333	25.36
607.668	25.41
608.004	25.51
608.339	25.17
608.674	25.51
609.01	25.06
609.345	24.99
609.68	25.66
610.015	25.47
610.35	25.17
610.685	25.46
611.02	25.17
611.355	25.27
611.689	25.2
612.024	25.33
612.359	25.49
612.694	25.59
613.028	25.77
613.363	25.49
613.697	25.73
614.032	25.51
614.366	25.61
614.7	25.44
615.035	25.65
615.369	25.79
615.703	25.8
616.037	25.81
616.371	25.76
616.705	25.81
617.039	25.89
617.373	25.98
617.707	26.2
618.041	26.2
618.375	25.92
618.709	26.22
619.042	25.69
619.376	26.17
619.71	25.99
620.043	26.25
620.377	26.08
620.71	26.29
621.043	25.97
621.377	26.18
621.71	25.81
622.043	25.83
622.376	26.15
622.709	25.5
623.043	26.38
623.376	25.77
623.709	25.96
624.041	26.17
624.374	26.42
624.707	25.76
625.04	26.24
625.373	25.92
625.705	26.01
626.038	26.25
626.37	26.36
626.703	26.6
627.035	26.37
627.368	26.12
627.7	26.39
628.032	26.19
628.365	26.28
628.697	26.18
629.029	26.17
629.361	26.28
629.693	26.49
630.025	26.14
630.357	26.41
630.689	26.47
631.021	26.23
631.353	26.45
631.684	26.7
632.016	26.88
632.348	26.87
632.679	26.05
633.011	26.48
633.342	26.38
633.674	26.75
634.005	26.73
634.336	26.67
634.668	26.75
634.999	27.14
635.33	26.99
635.661	26.72
635.992	26.94
636.323	26.53
636.654	26.27
636.985	26.4
637.316	26.95
637.647	26.88
637.977	27.31
638.308	26.69
638.639	26.56
638.969	26.92
639.3	26.55
639.63	26.63
639.961	26.8
640.291	26.77
640.622	27.25
640.952	26.92
641.282	27.11
641.612	26.89
641.943	26.9
642.273	27.1
642.603	26.88
642.933	26.47
643.263	27.03
643.592	26.93
643.922	26.83
644.252	27.15
644.582	26.97
644.911	27.51
645.241	27.46
645.571	27.09
645.9	27.03
646.23	27.36
646.559	27.22
646.888	27.1
647.218	26.99
647.547	27.13
647.876	27.07
648.205	27.39
648.534	27.14
648.863	27.28
649.192	27.51
649.521	26.9
649.85	27.81
650.179	27.29
650.508	27.5
650.837	27.74
651.165	26.98
651.494	27.26
651.822	28.02
652.151	27.77
652.479	27.66
652.808	27.68
653.136	27.43
653.465	27.35
653.793	27.49
654.121	26.83
654.449	27.47
654.777	27.66
655.105	28.02
655.433	27.53
655.761	28.39
656.089	27.37
656.417	27.44
656.745	27.32
657.073	27.28
657.4	27.56
657.728	27.61
658.056	27.41
658.383	27.85
658.711	28.31
659.038	27.33
659.365	27.86
659.693	28.04
660.02	28
660.347	28.04
660.674	27.52
661.001	27.93
661.329	27.68
661.656	27.66
661.982	28.08
662.309	28.06
662.636	28.46
662.963	28.01
663.29	27.59
663.616	28.09
663.943	28.08
664.27	28.17
664.596	27.75
664.923	27.93
665.249	28.05
665.576	28.4
665.902	27.8
666.228	28.12
666.554	28.44
666.881	28.64
667.207	27.96
667.533	28.36
667.859	27.92
668.185	28.27
668.511	28.17
668.837	27.89
669.162	27.78
669.488	27.92
669.814	28.29
670.139	28.04
670.465	28.4
670.791	28.32
671.116	27.8
671.442	28.35
671.767	28.53
672.092	27.95
