Data from 1805-1_forehead_Reflection__2__73.txt Node

Date: Fri Sep 30 18:18:48 CDT 2022
User: ToomeyLab
Spectrometer: FLMS14357
Trigger mode: 0
Integration Time (sec): 1.000000E-2
Scans to average: 100
Electric dark correction enabled: true
Nonlinearity correction enabled: false
Boxcar width: 0
XAxis mode: Wavelengths
Number of Pixels in Spectrum: 2048
>>>>>Begin Spectral Data<<<<<
189.047	-76.7
189.435	-76.7
189.823	-76.7
190.211	259.5
190.599	737.17
190.987	97.48
191.375	41.65
191.763	139.09
192.151	9.1
192.538	-48.34
192.926	-10.57
193.314	73.09
193.702	101.77
194.089	711.71
194.477	68.58
194.864	-230.49
195.252	-50.97
195.639	-16.49
196.027	-32.23
196.414	-176.46
196.801	69.07
197.189	-73.71
197.576	-128.94
197.963	-152.32
198.351	41.02
198.738	18.43
199.125	54.2
199.512	30.34
199.899	-25.19
200.286	10.86
200.673	18.84
201.06	21.87
201.447	46.62
201.833	66.28
202.22	10.58
202.607	47.72
202.994	50.58
203.38	28.91
203.767	26.33
204.154	42.05
204.54	32.5
204.927	65.47
205.313	-38.56
205.699	24.3
206.086	6.45
206.472	-3.92
206.858	23.26
207.245	30.42
207.631	32.41
208.017	20.96
208.403	40.04
208.789	10.2
209.175	28.7
209.561	9.5
209.947	18.59
210.333	-53.57
210.719	10.01
211.105	-30.68
211.491	23.38
211.876	24.65
212.262	52.89
212.648	17.72
213.034	8.73
213.419	20.44
213.805	9.68
214.19	28.64
214.576	20.28
214.961	20.11
215.346	32.88
215.732	37.83
216.117	17.54
216.502	26.74
216.888	33.46
217.273	9.3
217.658	16.86
218.043	25.69
218.428	15.25
218.813	13.39
219.198	21.86
219.583	34.84
219.968	18.65
220.353	22.19
220.738	18.35
221.122	24.73
221.507	24
221.892	5.43
222.276	3.18
222.661	20.8
223.046	0.17
223.43	3.42
223.815	12.71
224.199	8.08
224.583	2.6
224.968	2.59
225.352	9.59
225.736	10.15
226.121	6.25
226.505	7.5
226.889	5.42
227.273	-3.89
227.657	6.21
228.041	6.78
228.425	5.25
228.809	2.38
229.193	6.02
229.577	1.42
229.961	3.48
230.344	2.22
230.728	2.81
231.112	2.75
231.495	2.22
231.879	4.29
232.263	2.43
232.646	1.38
233.03	3.96
233.413	2.02
233.797	4.29
234.18	3.14
234.563	4.39
234.946	5.99
235.33	1.31
235.713	2.84
236.096	2.22
236.479	3.91
236.862	1.43
237.245	3.65
237.628	3.06
238.011	5.15
238.394	3.98
238.777	1.7
239.16	3.55
239.543	2.38
239.925	1.89
240.308	0.06
240.691	4.11
241.073	2.31
241.456	3.62
241.838	3.53
242.221	2.44
242.603	3.08
242.986	3.46
243.368	2.04
243.75	2.47
244.133	2.82
244.515	2.42
244.897	3.14
245.279	3.03
245.661	2.43
246.043	2.3
246.425	3.08
246.807	3.21
247.189	3.56
247.571	2.99
247.953	2.93
248.335	2.44
248.717	2.45
249.098	2.73
249.48	2.32
249.862	2.89
250.243	2.51
250.625	2.96
251.006	2.72
251.388	1.76
251.769	3.78
252.151	3.73
252.532	3.38
252.913	3.07
253.295	3.05
253.676	2.1
254.057	2.93
254.438	2.67
254.819	3.41
255.2	2.51
255.581	3.91
255.962	3.98
256.343	2.76
256.724	4.51
257.105	4.13
257.486	4.13
257.867	4.67
258.247	2.35
258.628	3.91
259.009	3.36
259.389	2.38
259.77	3.55
260.15	2.39
260.531	3.75
260.911	2.81
261.292	2.7
261.672	2.53
262.052	2.62
262.432	2.53
262.813	3.03
263.193	2.85
263.573	2.82
263.953	3.06
264.333	3.77
264.713	2.4
265.093	3.38
265.473	2.88
265.853	3.02
266.233	2.7
266.612	2.73
266.992	2.38
267.372	2.45
267.752	2.12
268.131	2.53
268.511	2.65
268.89	2.26
269.27	2.6
269.649	2.55
270.029	3.13
270.408	2.88
270.787	3.08
271.167	2.57
271.546	3.36
271.925	3.65
272.304	3.14
272.683	2.48
273.062	2.69
273.441	2.59
273.82	2.53
274.199	2.99
274.578	2.44
274.957	2.91
275.336	2.35
275.715	2.94
276.093	2.91
276.472	2.44
276.851	3.23
277.229	2.92
277.608	2.83
277.986	2.84
278.365	2.9
278.743	2.42
279.122	2.49
279.5	2.99
279.878	3.16
280.257	3.2
280.635	3.11
281.013	3.66
281.391	2.79
281.769	2.85
282.147	2.12
282.525	2.56
282.903	2.7
283.281	2.55
283.659	2.66
284.037	2.46
284.415	3.07
284.792	2.96
285.17	2.49
285.548	2.92
285.925	3.09
286.303	2.17
286.68	2.11
287.058	2.49
287.435	2.77
287.813	2.57
288.19	2.45
288.567	2.76
288.945	2.11
289.322	2.53
289.699	2.96
290.076	2.97
290.453	3.11
290.83	3.12
291.207	2.74
291.584	2.54
291.961	3.13
292.338	3.36
292.715	3.38
293.092	3.19
293.469	3.27
293.845	3.56
294.222	3.21
294.599	3.95
294.975	3.54
295.352	3.53
295.728	3.32
296.105	3.34
296.481	3.55
296.858	3.38
297.234	3.5
297.61	3.3
297.986	3.13
298.363	3.44
298.739	3.12
299.115	3.41
299.491	3.54
299.867	3.44
300.243	3.37
300.619	3.4
300.995	4.21
301.371	3.9
301.746	3.15
302.122	3.98
302.498	3.73
302.874	3.9
303.249	3.48
303.625	4.09
304	3.9
304.376	3.68
304.751	4.28
305.127	4.22
305.502	4.35
305.878	4.08
306.253	3.91
306.628	3.87
307.003	4.71
307.378	4.24
307.754	4.68
308.129	4.47
308.504	4.7
308.879	4.73
309.254	4.19
309.629	4.6
310.003	4.69
310.378	4.58
310.753	4.71
311.128	4.51
311.502	4.9
311.877	4.98
312.252	5.09
312.626	4.87
313.001	4.98
313.375	4.95
313.75	5.5
314.124	5.44
314.498	4.76
314.873	5.29
315.247	5.26
315.621	5.45
315.995	5.78
316.369	5.2
316.743	5.35
317.117	6.52
317.491	6.93
317.865	7
318.239	6.19
318.613	6.29
318.987	6.39
319.361	6.29
319.734	5.7
320.108	6.55
320.482	6.31
320.855	6.43
321.229	7.09
321.602	6.56
321.976	6.48
322.349	6.42
322.723	6.57
323.096	6.78
323.469	7.13
323.843	6.58
324.216	7
324.589	7.36
324.962	7.35
325.335	6.91
325.708	6.97
326.081	7.29
326.454	7.19
326.827	7.14
327.2	7.25
327.573	7.1
327.945	6.97
328.318	7.33
328.691	7.7
329.063	7.27
329.436	7.44
329.809	8.21
330.181	7.57
330.553	7.71
330.926	7.88
331.298	7.68
331.671	7.76
332.043	7.69
332.415	7.55
332.787	8.16
333.159	8.22
333.532	8.39
333.904	8.56
334.276	8.31
334.648	8.09
335.02	8.41
335.391	8.29
335.763	8.39
336.135	8.61
336.507	8.73
336.879	8.11
337.25	8.29
337.622	8.9
337.993	8.36
338.365	8.76
338.736	8.5
339.108	8.59
339.479	8.95
339.851	8.9
340.222	9.31
340.593	8.77
340.964	8.59
341.336	9
341.707	8.99
342.078	9.18
342.449	9.48
342.82	9.11
343.191	9.15
343.562	9.03
343.933	9.48
344.303	9.28
344.674	9.18
345.045	9.32
345.416	9.62
345.786	9.4
346.157	9.8
346.527	9.7
346.898	9.59
347.268	9.49
347.639	9.51
348.009	9.61
348.38	9.92
348.75	9.93
349.12	9.87
349.49	10.02
349.861	9.48
350.231	9.95
350.601	10.38
350.971	10.06
351.341	10.25
351.711	10.31
352.081	10.39
352.45	10.57
352.82	10.31
353.19	10.79
353.56	10.39
353.929	10.39
354.299	10.31
354.669	10.18
355.038	10.31
355.408	10.9
355.777	10.24
356.147	10.69
356.516	11.21
356.885	10.45
357.254	11.06
357.624	10.73
357.993	10.38
358.362	10.89
358.731	10.48
359.1	10.68
359.469	10.72
359.838	10.89
360.207	11
360.576	11.1
360.945	11.16
361.314	11.37
361.682	11.1
362.051	11.1
362.42	11.35
362.788	11.41
363.157	11.3
363.525	10.95
363.894	11.35
364.262	11.44
364.631	11.61
364.999	11.59
365.367	11.92
365.735	11.45
366.104	11.2
366.472	11.75
366.84	11.95
367.208	11.8
367.576	12.3
367.944	11.89
368.312	11.56
368.68	11.87
369.048	11.86
369.416	12.26
369.783	12.03
370.151	11.98
370.519	12.16
370.886	12.38
371.254	12.29
371.621	12.54
371.989	12.36
372.356	12.28
372.724	12.51
373.091	12.27
373.458	12.35
373.826	12.6
374.193	12.68
374.56	12.89
374.927	13.39
375.294	13.28
375.661	12.5
376.028	12.61
376.395	12.75
376.762	12.9
377.129	13.27
377.496	13.28
377.863	12.92
378.229	13
378.596	13.26
378.963	13.04
379.329	13.03
379.696	13.31
380.062	13.3
380.429	13.32
380.795	13.25
381.161	13.12
381.528	13.2
381.894	13.08
382.26	13.27
382.626	13.53
382.993	13.51
383.359	13.4
383.725	13.33
384.091	13.22
384.457	14.06
384.823	13.62
385.188	13.83
385.554	13.76
385.92	14.01
386.286	13.94
386.651	14.06
387.017	13.88
387.383	13.9
387.748	13.58
388.114	14.02
388.479	14.03
388.845	13.9
389.21	14.16
389.575	13.9
389.94	14.08
390.306	14.3
390.671	14.3
391.036	14.35
391.401	14.18
391.766	14.25
392.131	14.46
392.496	14.51
392.861	14.49
393.226	14.23
393.591	14.4
393.956	14.68
394.32	14.76
394.685	14.34
395.05	14.7
395.414	14.62
395.779	14.66
396.143	14.75
396.508	14.55
396.872	14.84
397.236	14.82
397.601	14.9
397.965	15.1
398.329	14.82
398.694	15.38
399.058	15.11
399.422	14.92
399.786	15.01
400.15	15.3
400.514	15.07
400.878	15.21
401.242	15.13
401.605	15.39
401.969	15.48
402.333	15.35
402.697	15.51
403.06	15.41
403.424	15.39
403.787	15.76
404.151	15.68
404.514	15.49
404.878	15.42
405.241	15.71
405.604	15.67
405.968	15.53
406.331	15.76
406.694	15.81
407.057	15.55
407.42	15.75
407.783	15.49
408.146	15.67
408.509	15.96
408.872	15.93
409.235	15.99
409.598	15.97
409.961	16.15
410.323	16.28
410.686	16.49
411.049	16.1
411.411	16.11
411.774	16.23
412.136	16.25
412.499	16.02
412.861	16.2
413.223	16.07
413.586	16.21
413.948	16.52
414.31	16.56
414.672	16.47
415.035	16.65
415.397	16.65
415.759	16.42
416.121	16.46
416.483	16.51
416.845	16.63
417.206	16.69
417.568	16.52
417.93	16.43
418.292	16.47
418.653	16.38
419.015	16.68
419.377	16.61
419.738	16.56
420.1	16.6
420.461	16.55
420.822	16.6
421.184	16.77
421.545	16.63
421.906	16.51
422.267	16.73
422.629	16.54
422.99	16.61
423.351	16.71
423.712	16.73
424.073	16.89
424.434	16.94
424.795	16.93
425.155	16.76
425.516	16.94
425.877	16.84
426.238	16.86
426.598	16.88
426.959	17.04
427.32	17.2
427.68	17.28
428.041	17.37
428.401	17.51
428.761	17.64
429.122	17.47
429.482	17.59
429.842	17.74
430.202	17.63
430.563	17.55
430.923	17.55
431.283	17.69
431.643	17.88
432.003	17.85
432.363	18
432.722	18.15
433.082	17.91
433.442	18.18
433.802	18.09
434.161	17.79
434.521	17.86
434.881	17.85
435.24	17.91
435.6	18.1
435.959	18.04
436.319	18.03
436.678	18.36
437.037	18.35
437.396	18.42
437.756	18.3
438.115	18.13
438.474	18.38
438.833	18.42
439.192	18.53
439.551	18.46
439.91	18.48
440.269	18.47
440.628	18.41
440.987	18.38
441.345	18.41
441.704	18.39
442.063	18.51
442.421	18.53
442.78	18.53
443.138	18.56
443.497	18.61
443.855	18.68
444.214	18.67
444.572	18.91
444.93	18.98
445.288	18.99
445.647	18.98
446.005	18.9
446.363	18.93
446.721	18.86
447.079	18.79
447.437	18.78
447.795	18.77
448.153	18.83
448.51	18.71
448.868	18.83
449.226	18.85
449.584	18.98
449.941	19.09
450.299	19.22
450.656	19.4
451.014	19.56
451.371	19.47
451.729	19.51
452.086	19.66
452.443	19.45
452.801	19.74
453.158	19.53
453.515	19.66
453.872	19.46
454.229	19.53
454.586	19.87
454.943	19.72
455.3	19.71
455.657	19.82
456.014	19.69
456.371	19.75
456.727	19.7
457.084	19.66
457.441	20.01
457.797	20.07
458.154	19.94
458.51	20.04
458.867	20.07
459.223	20.02
459.58	20.3
459.936	20.13
460.292	20.16
460.648	19.89
461.005	19.9
461.361	19.83
461.717	19.76
462.073	19.9
462.429	20
462.785	20.22
463.141	20.38
463.496	20.47
463.852	20.42
464.208	20.63
464.564	20.44
464.919	20.47
465.275	20.49
465.631	20.76
465.986	20.81
466.342	20.91
466.697	20.76
467.052	20.91
467.408	20.81
467.763	20.83
468.118	20.69
468.473	20.85
468.829	20.69
469.184	20.91
469.539	20.78
469.894	20.9
470.249	21.18
470.603	21.04
470.958	21.07
471.313	21.23
471.668	21.2
472.023	21.27
472.377	21.08
472.732	21.32
473.086	21.36
473.441	21.51
473.795	21.19
474.15	21.36
474.504	21.43
474.859	21.47
475.213	21.5
475.567	21.36
475.921	21.22
476.275	21.41
476.63	21.45
476.984	21.53
477.338	21.61
477.692	21.53
478.045	21.5
478.399	21.57
478.753	21.54
479.107	21.69
479.461	21.69
479.814	21.65
480.168	21.74
480.521	21.64
480.875	21.89
481.228	21.69
481.582	21.97
481.935	21.8
482.289	21.82
482.642	21.78
482.995	21.78
483.348	21.81
483.701	21.72
484.055	21.6
484.408	21.5
484.761	21.12
485.114	21.05
485.466	20.92
485.819	20.97
486.172	21.09
486.525	21.32
486.878	21.34
487.23	21.43
487.583	21.6
487.936	21.72
488.288	21.71
488.641	21.5
488.993	21.38
489.345	21.47
489.698	21.46
490.05	21.54
490.402	21.66
490.754	21.81
491.107	21.96
491.459	22.01
491.811	22.1
492.163	22.22
492.515	22.12
492.866	21.88
493.218	21.7
493.57	21.74
493.922	21.86
494.274	22.08
494.625	22.23
494.977	22.56
495.328	22.67
495.68	22.78
496.031	22.79
496.383	22.84
496.734	22.9
497.086	22.91
497.437	23.07
497.788	22.86
498.139	22.6
498.49	22.7
498.842	22.78
499.193	22.9
499.544	22.92
499.894	22.8
500.245	22.95
500.596	22.97
500.947	23.02
501.298	23.32
501.648	23.13
501.999	23.29
502.35	23.37
502.7	23.25
503.051	23.39
503.401	23.3
503.752	23.4
504.102	23.57
504.452	23.33
504.803	23.44
505.153	23.58
505.503	23.51
505.853	23.72
506.203	23.52
506.553	23.63
506.903	23.82
507.253	23.6
507.603	23.93
507.953	23.89
508.303	23.87
508.652	23.81
509.002	23.95
509.352	23.69
509.701	23.76
510.051	23.76
510.4	23.68
510.75	23.67
511.099	23.59
511.449	23.87
511.798	23.72
512.147	23.87
512.496	23.94
512.846	23.97
513.195	24.08
513.544	23.78
513.893	24.02
514.242	24.1
514.591	23.95
514.939	24.1
515.288	24.2
515.637	24.17
515.986	24.18
516.334	24.38
516.683	24.16
517.032	24.26
517.38	24.52
517.729	24.51
518.077	24.38
518.426	24.48
518.774	24.3
519.122	24.24
519.47	24.32
519.819	24.24
520.167	24.17
520.515	24.13
520.863	24.21
521.211	24.29
521.559	24.45
521.907	24.47
522.255	24.42
522.602	24.53
522.95	24.75
523.298	24.83
523.645	24.76
523.993	24.82
524.341	25.04
524.688	24.97
525.036	24.85
525.383	24.79
525.73	25.01
526.078	24.96
526.425	24.71
526.772	24.77
527.119	24.55
527.466	24.48
527.814	24.54
528.161	24.48
528.508	24.67
528.854	24.6
529.201	24.78
529.548	24.49
529.895	24.21
530.242	24.14
530.588	24.26
530.935	24.33
531.282	24.33
531.628	24.5
531.975	24.63
532.321	24.73
532.667	24.96
533.014	25.12
533.36	25.02
533.706	25.16
534.052	25.09
534.399	25
534.745	24.7
535.091	24.71
535.437	24.81
535.783	24.82
536.129	25.09
536.474	25.13
536.82	25.3
537.166	25.47
537.512	25.44
537.857	25.42
538.203	25.2
538.549	25.2
538.894	25.41
539.239	25.55
539.585	25.41
539.93	25.71
540.276	25.69
540.621	25.72
540.966	25.94
541.311	25.85
541.656	25.92
542.001	25.71
542.346	25.6
542.691	25.36
543.036	25.16
543.381	25.19
543.726	25.36
544.071	25.41
544.415	25.5
544.76	25.65
545.105	25.66
545.449	25.7
545.794	25.93
546.138	25.97
546.483	26.07
546.827	26.07
547.171	26.12
547.516	26.22
547.86	26.19
548.204	26.12
548.548	25.98
548.892	26.15
549.236	26.22
549.58	26.35
549.924	26.41
550.268	26.73
550.612	26.64
550.956	26.71
551.3	26.9
551.643	26.85
551.987	26.59
552.33	26.78
552.674	26.97
553.017	26.76
553.361	26.84
553.704	26.87
554.048	26.81
554.391	26.72
554.734	26.62
555.077	26.7
555.42	26.99
555.764	26.72
556.107	26.91
556.45	26.95
556.793	26.98
557.135	27.33
557.478	27.03
557.821	27.36
558.164	27.37
558.507	27.39
558.849	27.32
559.192	27.38
559.534	27.33
559.877	27.38
560.219	27.34
560.562	27.61
560.904	27.48
561.246	27.54
561.589	27.39
561.931	27.61
562.273	27.41
562.615	27.47
562.957	27.54
563.299	27.48
563.641	27.54
563.983	27.5
564.325	27.61
564.667	27.82
565.008	27.68
565.35	27.68
565.692	27.82
566.033	27.78
566.375	27.63
566.716	28.08
567.058	27.53
567.399	27.59
567.741	27.58
568.082	27.69
568.423	27.7
568.764	27.76
569.105	27.78
569.447	27.84
569.788	27.88
570.129	27.97
570.47	27.96
570.811	27.85
571.151	27.93
571.492	27.98
571.833	28.01
572.174	27.95
572.514	28.14
572.855	27.87
573.195	27.99
573.536	28.18
573.876	28.16
574.217	28.11
574.557	28.01
574.898	27.91
575.238	28.22
575.578	28.19
575.918	27.86
576.258	28.24
576.598	28.11
576.938	28.15
577.278	28.26
577.618	28.5
577.958	28.43
578.298	28.47
578.638	28.73
578.977	28.42
579.317	28.6
579.657	28.69
579.996	28.53
580.336	28.55
580.675	28.77
581.014	28.69
581.354	28.86
581.693	28.81
582.032	28.72
582.372	28.62
582.711	28.93
583.05	28.68
583.389	28.9
583.728	28.89
584.067	28.81
584.406	28.91
584.745	29.03
585.083	28.8
585.422	29.15
585.761	29.2
586.1	29.2
586.438	28.95
586.777	29.25
587.115	29.28
587.454	29.08
587.792	29.33
588.13	28.96
588.469	29.31
588.807	29.29
589.145	29.14
589.483	29.39
589.821	29.33
590.159	29.41
590.497	29.27
590.835	29.33
591.173	29.3
591.511	29.42
591.849	29.05
592.187	29.5
592.524	29.5
592.862	29.49
593.2	29.55
593.537	29.4
593.875	29.27
594.212	29.26
594.55	29.3
594.887	29.96
595.224	29.7
595.561	29.53
595.899	29.59
596.236	29.48
596.573	29.68
596.91	29.24
597.247	29.49
597.584	29.64
597.921	29.39
598.258	29.47
598.594	29.37
598.931	29.51
599.268	29.26
599.604	29.69
599.941	29.67
600.277	29.61
600.614	29.82
600.95	30.05
601.287	29.84
601.623	29.88
601.959	30.1
602.296	29.82
602.632	29.85
602.968	30.08
603.304	29.8
603.64	30.02
603.976	30.04
604.312	30.04
604.648	30.09
604.984	30.18
605.319	29.92
605.655	29.98
605.991	29.87
606.326	29.83
606.662	29.96
606.998	29.63
607.333	29.98
607.668	29.98
608.004	30.04
608.339	30.1
608.674	30.58
609.01	30.16
609.345	30.23
609.68	30.51
610.015	30.53
610.35	30.07
610.685	30.48
611.02	30.28
611.355	30.18
611.689	30.27
612.024	30.47
612.359	30.37
612.694	30.55
613.028	30.6
613.363	30.45
613.697	30.36
614.032	30.82
614.366	31.06
614.7	30.71
615.035	30.5
615.369	30.89
615.703	30.46
616.037	30.51
616.371	30.69
616.705	30.78
617.039	30.74
617.373	31.18
617.707	30.6
618.041	31.18
618.375	30.55
618.709	30.63
619.042	30.51
619.376	30.83
619.71	31.01
620.043	30.97
620.377	30.98
620.71	30.95
621.043	30.99
621.377	31.16
621.71	30.99
622.043	30.56
622.376	30.85
622.709	30.71
623.043	31.24
623.376	31.01
623.709	31.43
624.041	31.25
624.374	31.3
624.707	31.19
625.04	30.95
625.373	30.87
625.705	31.16
626.038	31.21
626.37	31.37
626.703	31.5
627.035	31.53
627.368	31.54
627.7	31.17
628.032	31.22
628.365	31.09
628.697	31.34
629.029	31.24
629.361	31.35
629.693	31.46
630.025	31.25
630.357	31.39
630.689	31.54
631.021	31.62
631.353	31.51
631.684	31.94
632.016	31.9
632.348	31.58
632.679	31.33
633.011	31.59
633.342	31.6
633.674	31.48
634.005	31.98
634.336	31.82
634.668	31.73
634.999	31.91
635.33	31.97
635.661	31.46
635.992	31.95
636.323	31.54
636.654	31.59
636.985	31.77
637.316	31.65
637.647	31.64
637.977	32.07
638.308	31.91
638.639	31.73
638.969	32.04
639.3	31.43
639.63	31.51
639.961	31.92
640.291	31.86
640.622	31.64
640.952	32.06
641.282	32.12
641.612	31.71
641.943	32.15
642.273	32.07
642.603	31.85
642.933	31.45
643.263	31.91
643.592	32.05
643.922	31.78
644.252	32.05
644.582	32.29
644.911	32.66
645.241	32.54
645.571	32.15
645.9	31.87
646.23	32.45
646.559	32.21
646.888	32.13
647.218	31.81
647.547	32.27
647.876	32.65
648.205	32.21
648.534	32.08
648.863	32.08
649.192	32.15
649.521	32.16
649.85	32.46
650.179	32.42
650.508	32.54
650.837	32.63
651.165	32.13
651.494	32.52
651.822	32.83
652.151	32.38
652.479	32.7
652.808	32.96
653.136	32.52
653.465	32.42
653.793	32.62
654.121	32.76
654.449	32.99
654.777	32.64
655.105	33.11
655.433	32.39
655.761	32.5
656.089	32.74
656.417	32.07
656.745	33.08
657.073	32.68
657.4	33.27
657.728	32.92
658.056	32.63
658.383	33.06
658.711	32.93
659.038	32.72
659.365	32.72
659.693	32.81
660.02	32.84
660.347	33.18
660.674	32.8
661.001	33.06
661.329	33.07
661.656	32.87
661.982	33.11
662.309	32.97
662.636	32.94
662.963	33.08
663.29	33.05
663.616	32.56
663.943	33.34
664.27	33.09
664.596	33.11
664.923	33.71
665.249	33.52
665.576	33.45
665.902	33.3
666.228	33.33
666.554	33.08
666.881	33.41
667.207	33.31
667.533	33.66
667.859	33.53
668.185	33.52
668.511	33.25
668.837	32.98
669.162	33.56
669.488	33.35
669.814	33.54
670.139	32.63
670.465	34.16
670.791	34
671.116	33.23
671.442	33.88
