Data from 1897-1_crown_Reflection__1__42.txt Node

Date: Fri Sep 30 18:05:39 CDT 2022
User: ToomeyLab
Spectrometer: FLMS14357
Trigger mode: 0
Integration Time (sec): 1.000000E-2
Scans to average: 100
Electric dark correction enabled: true
Nonlinearity correction enabled: false
Boxcar width: 0
XAxis mode: Wavelengths
Number of Pixels in Spectrum: 2048
>>>>>Begin Spectral Data<<<<<
189.047	-199.89
189.435	-199.89
189.823	-199.89
190.211	-18.84
190.599	140.18
190.987	-327.2
191.375	161.56
191.763	38.44
192.151	34.42
192.538	-5.22
192.926	33.21
193.314	127.52
193.702	910.4
194.089	-361.45
194.477	-60.94
194.864	15.81
195.252	-104.14
195.639	24.53
196.027	-530.4
196.414	114.88
196.801	265.57
197.189	6.08
197.576	-5.69
197.963	-3.1
198.351	-30.1
198.738	-1.71
199.125	45.1
199.512	36.33
199.899	1.35
200.286	-7.7
200.673	39.12
201.06	32.42
201.447	15.9
201.833	53.86
202.22	28.43
202.607	44.55
202.994	38.33
203.38	17.27
203.767	20.15
204.154	23.48
204.54	29.75
204.927	46.83
205.313	11.31
205.699	37.35
206.086	2.01
206.472	0.38
206.858	20.19
207.245	14.16
207.631	4.14
208.017	-25.01
208.403	15.81
208.789	33.28
209.175	13
209.561	-9.32
209.947	32.78
210.333	-5.54
210.719	-9.89
211.105	-18.48
211.491	8.4
211.876	21.87
212.262	3.96
212.648	21.84
213.034	-1.93
213.419	18.02
213.805	-0.39
214.19	10.34
214.576	1.35
214.961	3.21
215.346	16.93
215.732	18.19
216.117	15.9
216.502	18.04
216.888	24.75
217.273	5.12
217.658	-2.74
218.043	12.03
218.428	0.06
218.813	24.61
219.198	3.05
219.583	22.05
219.968	2.73
220.353	19.99
220.738	2.53
221.122	5.91
221.507	25.28
221.892	-4.45
222.276	-0.82
222.661	-1.54
223.046	4.62
223.43	2.14
223.815	-0.44
224.199	5.2
224.583	-0.31
224.968	2.09
225.352	0.88
225.736	10.57
226.121	8.08
226.505	-0.92
226.889	3.07
227.273	-0.86
227.657	7.95
228.041	1.47
228.425	5.5
228.809	5.13
229.193	2.54
229.577	-0.48
229.961	1.39
230.344	0.96
230.728	0.13
231.112	1.38
231.495	1.27
231.879	3.13
232.263	0.14
232.646	0.48
233.03	3.05
233.413	1.39
233.797	2.06
234.18	0.41
234.563	1.92
234.946	0.81
235.33	0.29
235.713	2.36
236.096	0.7
236.479	1.2
236.862	2.23
237.245	1.11
237.628	0.96
238.011	3.57
238.394	0.14
238.777	0.64
239.16	0.16
239.543	1.68
239.925	0.82
240.308	-0.46
240.691	3.4
241.073	0.76
241.456	0.33
241.838	0.72
242.221	0.68
242.603	1.16
242.986	1.91
243.368	0.25
243.75	0.75
244.133	1.33
244.515	1.01
244.897	1.31
245.279	1.62
245.661	1.1
246.043	1.13
246.425	1.23
246.807	1.52
247.189	1.85
247.571	1.43
247.953	1.51
248.335	0.96
248.717	0.95
249.098	1.19
249.48	0.94
249.862	1.04
250.243	0.89
250.625	1.21
251.006	1.62
251.388	0.48
251.769	1.6
252.151	1.81
252.532	2.53
252.913	1.06
253.295	1.27
253.676	0.85
254.057	1.24
254.438	0.93
254.819	1.94
255.2	1.06
255.581	2.04
255.962	1.44
256.343	1.74
256.724	1.01
257.105	1.9
257.486	1.74
257.867	2.37
258.247	1.02
258.628	1.3
259.009	1.82
259.389	0.58
259.77	1.89
260.15	0.82
260.531	1.79
260.911	1.13
261.292	0.91
261.672	0.98
262.052	0.92
262.432	1.09
262.813	1.39
263.193	1.04
263.573	0.78
263.953	1.16
264.333	1.98
264.713	0.59
265.093	0.85
265.473	1.01
265.853	1.04
266.233	0.97
266.612	1.06
266.992	1.25
267.372	0.75
267.752	1.1
268.131	1.07
268.511	0.93
268.89	0.54
269.27	1.89
269.649	1.02
270.029	1.51
270.408	0.73
270.787	1.22
271.167	1.51
271.546	1.86
271.925	1.55
272.304	1.22
272.683	0.95
273.062	1.1
273.441	1.17
273.82	0.64
274.199	1.07
274.578	0.72
274.957	1.26
275.336	1.03
275.715	1.46
276.093	0.94
276.472	1.37
276.851	0.77
277.229	0.74
277.608	1.12
277.986	0.82
278.365	1.18
278.743	0.75
279.122	1.44
279.5	1.04
279.878	0.72
280.257	1.26
280.635	1.22
281.013	1.05
281.391	0.94
281.769	1.68
282.147	0.79
282.525	1.24
282.903	0.77
283.281	1
283.659	1.38
284.037	0.78
284.415	1.06
284.792	1.15
285.17	0.92
285.548	1.07
285.925	0.86
286.303	0.73
286.68	0.79
287.058	0.97
287.435	1.01
287.813	1.12
288.19	1.02
288.567	0.88
288.945	0.47
289.322	0.68
289.699	1.23
290.076	1.05
290.453	1.28
290.83	1.07
291.207	0.67
291.584	0.69
291.961	0.89
292.338	1.18
292.715	1.05
293.092	0.81
293.469	0.78
293.845	1.49
294.222	0.74
294.599	0.84
294.975	1.27
295.352	1.16
295.728	1.22
296.105	1.07
296.481	1.3
296.858	1.26
297.234	1.49
297.61	1.07
297.986	0.9
298.363	0.97
298.739	0.55
299.115	1.14
299.491	0.97
299.867	1.36
300.243	0.79
300.619	0.89
300.995	1.71
301.371	0.71
301.746	1.04
302.122	1.2
302.498	1.29
302.874	1.04
303.249	1.19
303.625	1.37
304	1.34
304.376	1.42
304.751	1.41
305.127	1.04
305.502	1.57
305.878	1.46
306.253	1.08
306.628	1.06
307.003	0.65
307.378	1.11
307.754	0.83
308.129	1.11
308.504	1.44
308.879	1.45
309.254	0.77
309.629	1.06
310.003	0.91
310.378	1.78
310.753	1.08
311.128	1.1
311.502	1.14
311.877	1.18
312.252	1.15
312.626	1.26
313.001	1.09
313.375	1.04
313.75	1.64
314.124	1.23
314.498	0.74
314.873	1.4
315.247	0.9
315.621	1.34
315.995	1.49
316.369	0.94
316.743	1.46
317.117	1.86
317.491	2.11
317.865	1.8
318.239	1.18
318.613	1.25
318.987	1.39
319.361	1.16
319.734	0.88
320.108	1.54
320.482	0.84
320.855	1.36
321.229	1.43
321.602	0.89
321.976	1.11
322.349	1.27
322.723	0.92
323.096	1.45
323.469	1.5
323.843	1.17
324.216	0.8
324.589	1.36
324.962	1.49
325.335	1.5
325.708	1.29
326.081	2.01
326.454	1.48
326.827	1.26
327.2	1.2
327.573	1.37
327.945	1.21
328.318	1.35
328.691	1.6
329.063	0.89
329.436	1.34
329.809	1.8
330.181	1.41
330.553	1.11
330.926	1.72
331.298	1.33
331.671	1.5
332.043	1.28
332.415	0.94
332.787	1.14
333.159	0.96
333.532	1.42
333.904	1.6
334.276	1.3
334.648	0.76
335.02	1.68
335.391	1.41
335.763	1.17
336.135	1.86
336.507	1.3
336.879	1.52
337.25	1.04
337.622	1.55
337.993	1.02
338.365	1.26
338.736	1.41
339.108	1.2
339.479	1.26
339.851	1.44
340.222	1.66
340.593	1.26
340.964	1.23
341.336	1.58
341.707	1.58
342.078	1.29
342.449	1.39
342.82	1.09
343.191	1.36
343.562	1.46
343.933	1.34
344.303	1.46
344.674	1.17
345.045	1.37
345.416	1.28
345.786	1.35
346.157	1.4
346.527	1.05
346.898	1.39
347.268	0.91
347.639	0.73
348.009	1
348.38	1.73
348.75	1.86
349.12	1.49
349.49	1.32
349.861	1.34
350.231	1.35
350.601	1.51
350.971	1.09
351.341	1.29
351.711	1.27
352.081	1.31
352.45	1.26
352.82	1.26
353.19	1.34
353.56	0.94
353.929	1.27
354.299	1.21
354.669	1.1
355.038	1.25
355.408	1.42
355.777	1.07
356.147	1.32
356.516	1.42
356.885	1.06
357.254	1.39
357.624	1.37
357.993	0.64
358.362	1.71
358.731	1.18
359.1	1.21
359.469	1.17
359.838	1.44
360.207	1.42
360.576	1.26
360.945	1.39
361.314	1.23
361.682	1.09
362.051	0.94
362.42	1.28
362.788	1.4
363.157	1.1
363.525	1.14
363.894	1.15
364.262	1.33
364.631	1.57
364.999	1.25
365.367	1.47
365.735	1.12
366.104	1.03
366.472	1.58
366.84	1.37
367.208	1.12
367.576	1.63
367.944	1.5
368.312	0.9
368.68	1.08
369.048	1.04
369.416	1.16
369.783	1.56
370.151	1.56
370.519	1.02
370.886	1.39
371.254	1.11
371.621	1.31
371.989	1.46
372.356	1.27
372.724	1.47
373.091	1.07
373.458	1.32
373.826	1.35
374.193	1.64
374.56	1.46
374.927	1.69
375.294	1.49
375.661	1.17
376.028	1.3
376.395	1.33
376.762	1.49
377.129	1.46
377.496	1.58
377.863	1
378.229	1.61
378.596	1.36
378.963	1.51
379.329	1.33
379.696	1.36
380.062	1.44
380.429	1.57
380.795	1.3
381.161	0.91
381.528	1.33
381.894	0.99
382.26	1.24
382.626	1.2
382.993	1.33
383.359	1.15
383.725	1.39
384.091	1.01
384.457	1.26
384.823	1.32
385.188	1.35
385.554	1.57
385.92	1.55
386.286	1.65
386.651	1.5
387.017	1.36
387.383	1.31
387.748	1.08
388.114	1.28
388.479	1.38
388.845	1.05
389.21	1.36
389.575	1.37
389.94	1.44
390.306	1.49
390.671	1.57
391.036	1.2
391.401	1.08
391.766	1.48
392.131	1.17
392.496	1.29
392.861	1.52
393.226	1.26
393.591	1.25
393.956	1.41
394.32	1.26
394.685	1.07
395.05	1.5
395.414	1.37
395.779	1.33
396.143	1.53
396.508	1.3
396.872	1.4
397.236	1.13
397.601	1.24
397.965	1.25
398.329	1.25
398.694	1.42
399.058	1.22
399.422	1.37
399.786	1.2
400.15	1.24
400.514	1.17
400.878	1.47
401.242	1.17
401.605	1.29
401.969	1.44
402.333	1.43
402.697	1.53
403.06	1.49
403.424	1.59
403.787	1.48
404.151	1.6
404.514	1.52
404.878	1.38
405.241	1.42
405.604	1.34
405.968	1.54
406.331	1.26
406.694	1.25
407.057	1.32
407.42	1.47
407.783	1.28
408.146	1.27
408.509	1.19
408.872	1.17
409.235	1.3
409.598	1.41
409.961	1.16
410.323	1.57
410.686	1.66
411.049	1.12
411.411	1.5
411.774	1.47
412.136	1.57
412.499	1.14
412.861	1.34
413.223	1.29
413.586	1.43
413.948	1.69
414.31	1.32
414.672	1.48
415.035	1.58
415.397	1.53
415.759	1.24
416.121	1.45
416.483	1.3
416.845	1.33
417.206	1.37
417.568	1.39
417.93	1.23
418.292	1.3
418.653	1.13
419.015	1.44
419.377	1.37
419.738	1.27
420.1	1.46
420.461	1.41
420.822	1.42
421.184	1.31
421.545	1.24
421.906	1.14
422.267	1.25
422.629	1.43
422.99	1.29
423.351	1.23
423.712	1.31
424.073	1.34
424.434	1.41
424.795	1.32
425.155	1.3
425.516	1.39
425.877	1.39
426.238	1.3
426.598	1.35
426.959	1.31
427.32	1.37
427.68	1.35
428.041	1.3
428.401	1.41
428.761	1.55
429.122	1.46
429.482	1.37
429.842	1.38
430.202	1.48
430.563	1.39
430.923	1.26
431.283	1.27
431.643	1.45
432.003	1.27
432.363	1.45
432.722	1.45
433.082	1.35
433.442	1.42
433.802	1.36
434.161	1.4
434.521	1.42
434.881	1.36
435.24	1.38
435.6	1.49
435.959	1.43
436.319	1.33
436.678	1.42
437.037	1.5
437.396	1.52
437.756	1.39
438.115	1.36
438.474	1.44
438.833	1.45
439.192	1.36
439.551	1.52
439.91	1.35
440.269	1.22
440.628	1.33
440.987	1.4
441.345	1.44
441.704	1.35
442.063	1.48
442.421	1.43
442.78	1.43
443.138	1.4
443.497	1.33
443.855	1.51
444.214	1.4
444.572	1.53
444.93	1.27
445.288	1.47
445.647	1.36
446.005	1.42
446.363	1.51
446.721	1.33
447.079	1.35
447.437	1.33
447.795	1.41
448.153	1.34
448.51	1.37
448.868	1.37
449.226	1.37
449.584	1.41
449.941	1.32
450.299	1.38
450.656	1.37
451.014	1.51
451.371	1.54
451.729	1.59
452.086	1.34
452.443	1.39
452.801	1.5
453.158	1.24
453.515	1.38
453.872	1.49
454.229	1.41
454.586	1.49
454.943	1.4
455.3	1.49
455.657	1.56
456.014	1.42
456.371	1.49
456.727	1.44
457.084	1.49
457.441	1.43
457.797	1.43
458.154	1.31
458.51	1.44
458.867	1.49
459.223	1.49
459.58	1.58
459.936	1.46
460.292	1.44
460.648	1.38
461.005	1.4
461.361	1.35
461.717	1.39
462.073	1.36
462.429	1.44
462.785	1.47
463.141	1.47
463.496	1.33
463.852	1.33
464.208	1.46
464.564	1.3
464.919	1.39
465.275	1.59
465.631	1.75
465.986	1.39
466.342	1.5
466.697	1.55
467.052	1.5
467.408	1.5
467.763	1.45
468.118	1.43
468.473	1.38
468.829	1.46
469.184	1.48
469.539	1.34
469.894	1.55
470.249	1.5
470.603	1.45
470.958	1.43
471.313	1.46
471.668	1.64
472.023	1.51
472.377	1.47
472.732	1.62
473.086	1.48
473.441	1.52
473.795	1.43
474.15	1.53
474.504	1.43
474.859	1.52
475.213	1.5
475.567	1.48
475.921	1.55
476.275	1.36
476.63	1.31
476.984	1.45
477.338	1.38
477.692	1.56
478.045	1.57
478.399	1.46
478.753	1.52
479.107	1.42
479.461	1.53
479.814	1.31
480.168	1.59
480.521	1.35
480.875	1.49
481.228	1.51
481.582	1.49
481.935	1.61
482.289	1.55
482.642	1.51
482.995	1.41
483.348	1.45
483.701	1.47
484.055	1.41
484.408	1.38
484.761	1.38
485.114	1.35
485.466	1.3
485.819	1.3
486.172	1.34
486.525	1.41
486.878	1.39
487.23	1.4
487.583	1.39
487.936	1.42
488.288	1.43
488.641	1.34
488.993	1.36
489.345	1.37
489.698	1.38
490.05	1.37
490.402	1.41
490.754	1.45
491.107	1.36
491.459	1.45
491.811	1.35
492.163	1.48
492.515	1.43
492.866	1.38
493.218	1.34
493.57	1.35
493.922	1.41
494.274	1.39
494.625	1.49
494.977	1.59
495.328	1.52
495.68	1.42
496.031	1.41
496.383	1.5
496.734	1.49
497.086	1.51
497.437	1.46
497.788	1.48
498.139	1.42
498.49	1.38
498.842	1.5
499.193	1.44
499.544	1.46
499.894	1.5
500.245	1.46
500.596	1.5
500.947	1.44
501.298	1.58
501.648	1.46
501.999	1.55
502.35	1.6
502.7	1.45
503.051	1.47
503.401	1.55
503.752	1.47
504.102	1.58
504.452	1.42
504.803	1.55
505.153	1.54
505.503	1.53
505.853	1.51
506.203	1.37
506.553	1.45
506.903	1.45
507.253	1.6
507.603	1.64
507.953	1.62
508.303	1.61
508.652	1.46
509.002	1.57
509.352	1.64
509.701	1.46
510.051	1.52
510.4	1.49
510.75	1.41
511.099	1.38
511.449	1.56
511.798	1.35
512.147	1.49
512.496	1.52
512.846	1.52
513.195	1.48
513.544	1.51
513.893	1.54
514.242	1.53
514.591	1.48
514.939	1.41
515.288	1.51
515.637	1.47
515.986	1.62
516.334	1.49
516.683	1.43
517.032	1.48
517.38	1.49
517.729	1.56
518.077	1.41
518.426	1.46
518.774	1.53
519.122	1.45
519.47	1.49
519.819	1.56
520.167	1.52
520.515	1.48
520.863	1.46
521.211	1.51
521.559	1.53
521.907	1.59
522.255	1.43
522.602	1.59
522.95	1.56
523.298	1.59
523.645	1.46
523.993	1.54
524.341	1.67
524.688	1.57
525.036	1.58
525.383	1.42
525.73	1.61
526.078	1.58
526.425	1.44
526.772	1.51
527.119	1.44
527.466	1.43
527.814	1.48
528.161	1.48
528.508	1.43
528.854	1.5
529.201	1.47
529.548	1.46
529.895	1.43
530.242	1.41
530.588	1.42
530.935	1.45
531.282	1.47
531.628	1.45
531.975	1.48
532.321	1.46
532.667	1.55
533.014	1.49
533.36	1.45
533.706	1.49
534.052	1.48
534.399	1.48
534.745	1.5
535.091	1.4
535.437	1.51
535.783	1.52
536.129	1.53
536.474	1.46
536.82	1.48
537.166	1.52
537.512	1.43
537.857	1.64
538.203	1.52
538.549	1.4
538.894	1.45
539.239	1.51
539.585	1.48
539.93	1.58
540.276	1.6
540.621	1.55
540.966	1.58
541.311	1.66
541.656	1.55
542.001	1.53
542.346	1.55
542.691	1.4
543.036	1.43
543.381	1.4
543.726	1.44
544.071	1.55
544.415	1.49
544.76	1.52
545.105	1.44
545.449	1.53
545.794	1.41
546.138	1.55
546.483	1.57
546.827	1.53
547.171	1.65
547.516	1.48
547.86	1.46
548.204	1.51
548.548	1.58
548.892	1.53
549.236	1.51
549.58	1.6
549.924	1.49
550.268	1.75
550.612	1.67
550.956	1.7
551.3	1.66
551.643	1.59
551.987	1.6
552.33	1.71
552.674	1.69
553.017	1.47
553.361	1.43
553.704	1.67
554.048	1.55
554.391	1.58
554.734	1.57
555.077	1.62
555.42	1.57
555.764	1.67
556.107	1.62
556.45	1.49
556.793	1.59
557.135	1.62
557.478	1.52
557.821	1.71
558.164	1.64
558.507	1.69
558.849	1.73
559.192	1.81
559.534	1.68
559.877	1.64
560.219	1.66
560.562	1.69
560.904	1.6
561.246	1.63
561.589	1.54
561.931	1.66
562.273	1.73
562.615	1.7
562.957	1.69
563.299	1.66
563.641	1.6
563.983	1.57
564.325	1.54
564.667	1.88
565.008	1.51
565.35	1.63
565.692	1.66
566.033	1.54
566.375	1.47
566.716	1.59
567.058	1.56
567.399	1.63
567.741	1.63
568.082	1.64
568.423	1.68
568.764	1.67
569.105	1.62
569.447	1.57
569.788	1.7
570.129	1.61
570.47	1.71
570.811	1.65
571.151	1.72
571.492	1.67
571.833	1.73
572.174	1.47
572.514	1.76
572.855	1.5
573.195	1.69
573.536	1.52
573.876	1.63
574.217	1.57
574.557	1.74
574.898	1.64
575.238	1.73
575.578	1.75
575.918	1.48
576.258	1.6
576.598	1.56
576.938	1.63
577.278	1.83
577.618	1.8
577.958	1.49
578.298	1.66
578.638	1.9
578.977	1.64
579.317	1.68
579.657	1.82
579.996	1.53
580.336	1.83
580.675	1.61
581.014	1.64
581.354	1.69
581.693	1.7
582.032	1.81
582.372	1.54
582.711	1.71
583.05	1.78
583.389	1.35
583.728	1.51
584.067	1.56
584.406	1.86
584.745	1.8
585.083	1.53
585.422	1.71
585.761	1.58
586.1	1.71
586.438	2.03
586.777	1.87
587.115	1.71
587.454	1.81
587.792	1.33
588.13	1.87
588.469	1.48
588.807	1.72
589.145	1.39
589.483	1.82
589.821	1.69
590.159	1.79
590.497	1.74
590.835	1.72
591.173	1.65
591.511	1.67
591.849	1.73
592.187	1.63
592.524	1.68
592.862	1.88
593.2	1.92
593.537	1.63
593.875	1.94
594.212	1.57
594.55	1.81
594.887	1.93
595.224	1.74
595.561	1.76
595.899	1.59
596.236	1.84
596.573	1.61
596.91	1.66
597.247	1.49
597.584	1.65
597.921	1.77
598.258	1.68
598.594	1.54
598.931	1.81
599.268	1.66
599.604	1.66
599.941	1.65
600.277	1.5
600.614	1.78
600.95	1.7
601.287	1.72
601.623	1.87
601.959	1.68
602.296	1.8
602.632	1.83
602.968	2
603.304	1.71
603.64	1.69
603.976	1.5
604.312	1.45
604.648	1.75
604.984	1.94
605.319	1.73
605.655	1.74
605.991	1.67
606.326	1.73
606.662	1.74
606.998	1.51
607.333	1.75
607.668	1.69
608.004	1.76
608.339	1.62
608.674	1.74
609.01	1.66
609.345	1.44
609.68	1.86
610.015	1.83
610.35	1.76
610.685	1.5
611.02	1.59
611.355	1.39
611.689	1.48
612.024	1.67
612.359	1.86
612.694	1.72
613.028	1.82
613.363	1.53
613.697	1.65
614.032	1.72
614.366	1.71
614.7	1.69
615.035	1.68
615.369	1.73
615.703	1.59
616.037	1.91
616.371	1.62
616.705	1.84
617.039	1.94
617.373	1.74
617.707	1.65
618.041	1.52
618.375	1.5
618.709	1.95
619.042	1.94
619.376	1.83
619.71	1.92
620.043	1.85
620.377	2.23
620.71	1.87
621.043	1.68
621.377	1.69
621.71	1.47
622.043	1.8
622.376	1.55
622.709	1.91
623.043	1.73
623.376	1.5
623.709	1.66
624.041	2.07
624.374	2.05
624.707	1.47
625.04	1.93
625.373	1.89
625.705	1.55
626.038	1.41
626.37	1.92
626.703	1.8
627.035	1.69
627.368	1.93
627.7	2.05
628.032	1.6
628.365	1.68
628.697	1.79
629.029	1.64
629.361	1.72
629.693	2.04
630.025	1.78
630.357	1.71
630.689	1.94
631.021	1.54
631.353	1.89
631.684	1.71
632.016	1.79
632.348	1.49
632.679	1.78
633.011	1.52
633.342	2.02
633.674	1.91
634.005	1.8
634.336	1.93
634.668	1.78
634.999	1.78
635.33	2.25
635.661	1.73
635.992	1.74
636.323	1.92
636.654	1.63
636.985	1.73
637.316	1.97
637.647	1.82
637.977	2.3
638.308	1.18
638.639	1.91
638.969	1.69
639.3	1.81
639.63	1.51
639.961	1.94
640.291	1.64
640.622	1.79
640.952	1.92
641.282	1.64
641.612	1.61
641.943	2
642.273	1.85
642.603	1.7
642.933	1.82
643.263	2.08
643.592	2.15
643.922	1.54
644.252	2.09
644.582	1.7
644.911	1.82
645.241	1.83
645.571	2.17
645.9	1.91
646.23	1.66
646.559	2.12
646.888	2.26
647.218	2.08
647.547	2.02
647.876	1.96
648.205	1.86
648.534	1.59
648.863	1.99
649.192	1.78
649.521	1.65
649.85	1.9
650.179	1.69
650.508	1.43
650.837	2.16
651.165	1.72
651.494	1.68
651.822	2.25
652.151	1.74
652.479	2.45
652.808	2.27
653.136	1.79
653.465	1.83
653.793	1.64
654.121	1.27
654.449	1.7
654.777	1.48
655.105	2.35
655.433	2.04
655.761	2.21
656.089	1.89
656.417	2.07
656.745	1.65
657.073	1.97
657.4	1.98
657.728	2.38
658.056	1.92
658.383	2.18
658.711	2.07
659.038	1.6
659.365	1.64
659.693	1.29
660.02	2.02
660.347	2.22
660.674	2.05
661.001	2.09
661.329	2.05
661.656	1.47
661.982	2.13
662.309	2.44
662.636	2.2
662.963	1.75
663.29	1.75
663.616	1.53
663.943	1.83
664.27	1.85
664.596	1.71
664.923	2.01
665.249	2.15
665.576	2.1
665.902	2
666.228	2.28
666.554	1.96
666.881	1.88
667.207	1.88
667.533	2.12
667.859	1.93
668.185	1.84
668.511	1.59
668.837	1.77
669.162	2.14
669.488	2.18
669.814	1.82
670.139	1.86
670.465	2.23
670.791	1.82
671.116	1.83
671.442	2.04
671.767	1.9
672.092	1.88
672.418	1.86
672.743	2.1
673.068	2.78
673.393	2.05
673.718	1.82
674.043	2.41
674.368	2.26
674.693	1.83
675.018	2.14
675.343	1.63
675.667	2.32
675.992	1.69
676.317	2.45
676.641	1.81
676.966	1.73
677.29	1.07
677.615	1.47
677.939	1.85
678.264	2.17
678.588	2.22
678.912	2.03
679.236	2.26
679.56	1.76
679.885	2.55
680.209	2.04
680.532	1.95
680.856	2.42
681.18	2.36
681.504	1.77
681.828	1.93
682.152	1.39
682.475	1.89
682.799	1.91
683.122	1.78
683.446	1.99
683.769	2.56
684.093	2.25
684.416	2.63
684.739	1.73
685.062	1.97
685.386	2.26
685.709	2.23
686.032	1.97
686.355	1.81
686.678	1.56
687.001	2.38
687.324	2.45
687.646	1.59
687.969	1.85
688.292	2.21
688.614	1.87
688.937	2.53
689.26	1.87
689.582	2.13
689.904	2.06
690.227	2.57
690.549	1.65
690.871	2.98
691.194	2.61
691.516	2.52
691.838	2.16
692.16	2.43
692.482	2.46
