Data from 1897-1_crown_Reflection__3__44.txt Node

Date: Fri Sep 30 18:05:59 CDT 2022
User: ToomeyLab
Spectrometer: FLMS14357
Trigger mode: 0
Integration Time (sec): 1.000000E-2
Scans to average: 100
Electric dark correction enabled: true
Nonlinearity correction enabled: false
Boxcar width: 0
XAxis mode: Wavelengths
Number of Pixels in Spectrum: 2048
>>>>>Begin Spectral Data<<<<<
189.047	668.18
189.435	668.18
189.823	668.18
190.211	153.42
190.599	63.91
190.987	101.09
191.375	50.18
191.763	217.53
192.151	4.55
192.538	23.9
192.926	534.38
193.314	67.54
193.702	-567.28
194.089	364.71
194.477	-9.46
194.864	86.51
195.252	488.21
195.639	13.64
196.027	174.77
196.414	119.8
196.801	167.63
197.189	23.56
197.576	233.31
197.963	-9.82
198.351	19.56
198.738	-68.21
199.125	80.16
199.512	27.31
199.899	31.26
200.286	-18.91
200.673	37.35
201.06	19.83
201.447	14.86
201.833	22.76
202.22	21.85
202.607	9.6
202.994	57.99
203.38	17.15
203.767	22.68
204.154	53.84
204.54	29.56
204.927	19.16
205.313	-33.31
205.699	35.36
206.086	-15.61
206.472	-0.56
206.858	30.36
207.245	29.27
207.631	19.67
208.017	14.89
208.403	0.91
208.789	18.56
209.175	-3.15
209.561	0.65
209.947	-20.66
210.333	-36.23
210.719	9.46
211.105	-22.37
211.491	6.82
211.876	40.64
212.262	34.35
212.648	29.41
213.034	-9.2
213.419	11.93
213.805	-16.6
214.19	8.37
214.576	1.18
214.961	18.84
215.346	18.03
215.732	5.14
216.117	11.99
216.502	16.87
216.888	5.48
217.273	-14.15
217.658	19.74
218.043	18.32
218.428	13.82
218.813	17.85
219.198	7.64
219.583	30.6
219.968	8.02
220.353	18.68
220.738	7.19
221.122	19.2
221.507	23.24
221.892	-4.94
222.276	8.03
222.661	14.43
223.046	-4.49
223.43	8.96
223.815	1.63
224.199	14.82
224.583	-0.75
224.968	14.72
225.352	10.74
225.736	14.98
226.121	7.4
226.505	1.91
226.889	8.32
227.273	2.52
227.657	9.88
228.041	6.19
228.425	8.96
228.809	7.97
229.193	7.88
229.577	5.79
229.961	7.04
230.344	5.76
230.728	5.81
231.112	6.22
231.495	6.15
231.879	6.77
232.263	5.92
232.646	5.7
233.03	6.26
233.413	5.92
233.797	6.69
234.18	5.29
234.563	6.24
234.946	7.41
235.33	4.81
235.713	7.73
236.096	6.74
236.479	4.97
236.862	5.72
237.245	7.08
237.628	4.49
238.011	7.32
238.394	5.97
238.777	4.07
239.16	4.34
239.543	5.96
239.925	6.95
240.308	5.22
240.691	7.76
241.073	7.24
241.456	6.17
241.838	6.98
242.221	5.57
242.603	5.93
242.986	6.79
243.368	5.29
243.75	5.81
244.133	6.3
244.515	6.18
244.897	6.15
245.279	6.41
245.661	5.83
246.043	5.64
246.425	5.15
246.807	5.86
247.189	6.68
247.571	6.55
247.953	6.23
248.335	5.79
248.717	5.94
249.098	6.08
249.48	5.8
249.862	5.73
250.243	5.65
250.625	5.86
251.006	5.93
251.388	4.89
251.769	6.43
252.151	5.18
252.532	6.91
252.913	5.58
253.295	6.09
253.676	5.68
254.057	5.99
254.438	5.61
254.819	5.91
255.2	5.87
255.581	6.51
255.962	6.99
256.343	6.06
256.724	7.07
257.105	6.3
257.486	6.44
257.867	6.51
258.247	5.85
258.628	5.86
259.009	6.77
259.389	5.83
259.77	6.21
260.15	5.22
260.531	5.91
260.911	5.95
261.292	5.5
261.672	5.65
262.052	5.53
262.432	5.4
262.813	6.04
263.193	5.89
263.573	5.41
263.953	5.28
264.333	6.44
264.713	5.25
265.093	5.63
265.473	5.92
265.853	5.92
266.233	5.11
266.612	5.74
266.992	5.76
267.372	5.35
267.752	5.1
268.131	5.7
268.511	5.56
268.89	4.92
269.27	5.29
269.649	5.38
270.029	5.8
270.408	5.33
270.787	5.37
271.167	5.39
271.546	5.29
271.925	6.17
272.304	5.53
272.683	5.42
273.062	5.66
273.441	5.14
273.82	5.02
274.199	5.74
274.578	5.1
274.957	5.51
275.336	5.66
275.715	5.67
276.093	5.99
276.472	5.49
276.851	5.81
277.229	5.68
277.608	5.16
277.986	5.01
278.365	5.59
278.743	5.28
279.122	5.04
279.5	5.31
279.878	5.26
280.257	5.38
280.635	5.92
281.013	5.96
281.391	5.3
281.769	5.36
282.147	5.48
282.525	5.05
282.903	5.26
283.281	4.89
283.659	5.15
284.037	5.01
284.415	5.44
284.792	5.78
285.17	4.81
285.548	5.44
285.925	5.39
286.303	5.48
286.68	4.93
287.058	4.9
287.435	5.3
287.813	5.27
288.19	5
288.567	4.98
288.945	5.09
289.322	5.08
289.699	5.43
290.076	5.4
290.453	5.35
290.83	4.95
291.207	4.99
291.584	5.74
291.961	5.14
292.338	5.32
292.715	5.11
293.092	4.94
293.469	5.09
293.845	5.78
294.222	5.09
294.599	5.84
294.975	5.02
295.352	5.33
295.728	5.4
296.105	5.18
296.481	5.49
296.858	5.49
297.234	5.57
297.61	5.29
297.986	4.88
298.363	5.32
298.739	4.74
299.115	5.11
299.491	4.84
299.867	5.07
300.243	4.87
300.619	4.71
300.995	5.59
301.371	4.7
301.746	4.85
302.122	5.46
302.498	4.85
302.874	5.37
303.249	5.26
303.625	5.17
304	4.96
304.376	5
304.751	4.99
305.127	5.36
305.502	5.03
305.878	5.35
306.253	4.89
306.628	4.86
307.003	4.95
307.378	5.25
307.754	4.99
308.129	5.57
308.504	5.34
308.879	5.39
309.254	5.04
309.629	4.99
310.003	4.88
310.378	5.11
310.753	4.79
311.128	5.05
311.502	5.13
311.877	5.24
312.252	5.1
312.626	5.41
313.001	4.97
313.375	4.74
313.75	5.26
314.124	4.93
314.498	4.83
314.873	5.02
315.247	4.99
315.621	5.41
315.995	5.52
316.369	4.69
316.743	4.64
317.117	5.26
317.491	5.93
317.865	5.49
318.239	5.41
318.613	4.56
318.987	4.8
319.361	5.21
319.734	5.06
320.108	5.26
320.482	5.08
320.855	4.8
321.229	5.04
321.602	4.7
321.976	4.97
322.349	4.85
322.723	4.56
323.096	5.3
323.469	5.13
323.843	5.11
324.216	4.5
324.589	5.32
324.962	5.11
325.335	4.84
325.708	5.12
326.081	5.22
326.454	5.27
326.827	4.66
327.2	4.76
327.573	4.96
327.945	4.95
328.318	4.91
328.691	5.03
329.063	4.52
329.436	4.88
329.809	6.06
330.181	4.9
330.553	4.78
330.926	5.32
331.298	5.06
331.671	4.89
332.043	4.54
332.415	5.08
332.787	5.21
333.159	4.81
333.532	5.27
333.904	5.36
334.276	5.19
334.648	4.46
335.02	5.03
335.391	4.89
335.763	4.71
336.135	4.93
336.507	5.03
336.879	4.98
337.25	4.55
337.622	4.99
337.993	4.68
338.365	4.73
338.736	5.13
339.108	5.09
339.479	5.37
339.851	4.92
340.222	5.27
340.593	4.79
340.964	4.69
341.336	4.79
341.707	5.13
342.078	5.08
342.449	4.8
342.82	4.69
343.191	4.73
343.562	5.06
343.933	4.64
344.303	4.74
344.674	4.9
345.045	4.52
345.416	5.17
345.786	4.9
346.157	5.11
346.527	4.87
346.898	4.5
347.268	4.42
347.639	4.69
348.009	4.95
348.38	5.56
348.75	5.18
349.12	4.58
349.49	5.12
349.861	4.51
350.231	4.78
350.601	4.77
350.971	4.68
351.341	5
351.711	4.71
352.081	5
352.45	4.81
352.82	4.77
353.19	5.1
353.56	4.65
353.929	4.74
354.299	5.02
354.669	4.69
355.038	4.92
355.408	4.98
355.777	4.54
356.147	4.77
356.516	5.25
356.885	4.48
357.254	5.08
357.624	5.07
357.993	4.51
358.362	4.95
358.731	4.89
359.1	4.95
359.469	4.52
359.838	5.02
360.207	4.62
360.576	4.85
360.945	4.89
361.314	4.97
361.682	4.8
362.051	4.95
362.42	4.76
362.788	4.84
363.157	4.61
363.525	4.69
363.894	4.63
364.262	4.94
364.631	5.03
364.999	4.64
365.367	5.13
365.735	4.49
366.104	4.71
366.472	5.16
366.84	5.22
367.208	5.06
367.576	5.1
367.944	4.9
368.312	4.45
368.68	4.48
369.048	4.84
369.416	5.03
369.783	4.9
370.151	5
370.519	4.71
370.886	5.06
371.254	4.92
371.621	5.31
371.989	4.98
372.356	4.9
372.724	4.93
373.091	4.87
373.458	4.76
373.826	5.04
374.193	4.81
374.56	5.03
374.927	5.19
375.294	5.03
375.661	4.99
376.028	4.82
376.395	4.75
376.762	4.93
377.129	5.28
377.496	5.24
377.863	4.67
378.229	5.08
378.596	4.97
378.963	5.41
379.329	4.95
379.696	5.24
380.062	5.17
380.429	5.27
380.795	5.04
381.161	4.8
381.528	5.18
381.894	4.96
382.26	4.96
382.626	4.9
382.993	5.13
383.359	4.76
383.725	4.76
384.091	5.02
384.457	5.14
384.823	5.21
385.188	5.1
385.554	5.11
385.92	5.21
386.286	5.23
386.651	5.04
387.017	5.12
387.383	5.03
387.748	4.61
388.114	5.17
388.479	5.2
388.845	4.82
389.21	5.07
389.575	5.26
389.94	4.95
390.306	5.28
390.671	5
391.036	5.31
391.401	4.82
391.766	5.16
392.131	4.94
392.496	5.17
392.861	5.37
393.226	4.96
393.591	5.04
393.956	5.23
394.32	5.32
394.685	5.12
395.05	5.32
395.414	4.91
395.779	5.07
396.143	5.23
396.508	5.07
396.872	5.4
397.236	5.37
397.601	5.3
397.965	5.53
398.329	5.06
398.694	5.23
399.058	5.01
399.422	5.5
399.786	5.05
400.15	5.28
400.514	5.29
400.878	5.24
401.242	5.15
401.605	5.25
401.969	5.31
402.333	5.23
402.697	5.68
403.06	5.28
403.424	5.03
403.787	5.37
404.151	5.62
404.514	5.51
404.878	5.28
405.241	5.21
405.604	5.3
405.968	5.21
406.331	5.3
406.694	5.32
407.057	5.26
407.42	5.32
407.783	5.12
408.146	5.31
408.509	5.43
408.872	5.21
409.235	5.45
409.598	5.58
409.961	5.32
410.323	5.45
410.686	5.5
411.049	5.36
411.411	5.5
411.774	5.5
412.136	5.52
412.499	5.37
412.861	5.18
413.223	5.3
413.586	5.26
413.948	5.35
414.31	5.42
414.672	5.29
415.035	5.39
415.397	5.29
415.759	5.51
416.121	5.38
416.483	5.21
416.845	5.26
417.206	5.63
417.568	5.46
417.93	5.37
418.292	5.34
418.653	5.36
419.015	5.52
419.377	5.45
419.738	5.31
420.1	5.48
420.461	5.3
420.822	5.34
421.184	5.38
421.545	5.23
421.906	5.13
422.267	5.37
422.629	5.37
422.99	5.31
423.351	5.3
423.712	5.3
424.073	5.37
424.434	5.41
424.795	5.39
425.155	5.31
425.516	5.25
425.877	5.47
426.238	5.27
426.598	5.42
426.959	5.33
427.32	5.43
427.68	5.48
428.041	5.45
428.401	5.44
428.761	5.61
429.122	5.43
429.482	5.6
429.842	5.61
430.202	5.61
430.563	5.46
430.923	5.31
431.283	5.53
431.643	5.64
432.003	5.46
432.363	5.47
432.722	5.71
433.082	5.65
433.442	5.58
433.802	5.59
434.161	5.47
434.521	5.5
434.881	5.49
435.24	5.51
435.6	5.58
435.959	5.55
436.319	5.61
436.678	5.51
437.037	5.67
437.396	5.66
437.756	5.48
438.115	5.48
438.474	5.6
438.833	5.66
439.192	5.62
439.551	5.52
439.91	5.54
440.269	5.58
440.628	5.55
440.987	5.67
441.345	5.74
441.704	5.66
442.063	5.7
442.421	5.61
442.78	5.57
443.138	5.43
443.497	5.66
443.855	5.68
444.214	5.61
444.572	5.58
444.93	5.63
445.288	5.71
445.647	5.7
446.005	5.75
446.363	5.85
446.721	5.62
447.079	5.55
447.437	5.61
447.795	5.63
448.153	5.59
448.51	5.51
448.868	5.53
449.226	5.61
449.584	5.62
449.941	5.57
450.299	5.64
450.656	5.77
451.014	5.77
451.371	5.79
451.729	5.81
452.086	5.79
452.443	5.84
452.801	5.67
453.158	5.69
453.515	5.64
453.872	5.82
454.229	5.76
454.586	5.81
454.943	5.65
455.3	5.73
455.657	5.83
456.014	5.74
456.371	5.71
456.727	5.84
457.084	5.67
457.441	5.72
457.797	5.73
458.154	5.62
458.51	5.82
458.867	5.85
459.223	5.79
459.58	5.75
459.936	5.9
460.292	5.91
460.648	5.71
461.005	5.91
461.361	5.72
461.717	5.68
462.073	5.72
462.429	5.69
462.785	5.71
463.141	5.74
463.496	5.82
463.852	5.71
464.208	5.86
464.564	5.79
464.919	5.88
465.275	6
465.631	5.91
465.986	5.82
466.342	5.86
466.697	5.93
467.052	5.86
467.408	5.9
467.763	5.73
468.118	5.88
468.473	5.85
468.829	5.8
469.184	6.01
469.539	5.84
469.894	5.83
470.249	5.85
470.603	6.09
470.958	6.03
471.313	5.98
471.668	5.76
472.023	5.84
472.377	6.05
472.732	5.99
473.086	5.9
473.441	6.15
473.795	5.86
474.15	5.87
474.504	5.94
474.859	5.99
475.213	5.87
475.567	6.01
475.921	5.83
476.275	5.79
476.63	6.03
476.984	5.96
477.338	5.9
477.692	6.02
478.045	5.92
478.399	6.07
478.753	6.1
479.107	5.93
479.461	6.03
479.814	5.91
480.168	6.1
480.521	5.9
480.875	6.02
481.228	5.94
481.582	5.95
481.935	6.03
482.289	6.06
482.642	6
482.995	5.99
483.348	5.86
483.701	5.98
484.055	5.94
484.408	5.92
484.761	5.83
485.114	5.73
485.466	5.72
485.819	5.64
486.172	5.66
486.525	5.68
486.878	5.74
487.23	5.74
487.583	5.69
487.936	5.89
488.288	5.87
488.641	5.82
488.993	5.88
489.345	5.78
489.698	5.8
490.05	5.8
490.402	5.78
490.754	5.87
491.107	5.85
491.459	5.96
491.811	5.99
492.163	5.98
492.515	5.97
492.866	5.96
493.218	5.87
493.57	5.82
493.922	5.85
494.274	5.87
494.625	5.9
494.977	6.02
495.328	6.04
495.68	5.96
496.031	6.06
496.383	5.98
496.734	6.04
497.086	6.16
497.437	6.19
497.788	6.15
498.139	6.02
498.49	6.03
498.842	6.1
499.193	6.01
499.544	5.99
499.894	6.11
500.245	6.04
500.596	6.12
500.947	6.04
501.298	6.1
501.648	6.03
501.999	6.18
502.35	6.09
502.7	6.25
503.051	6.24
503.401	6.23
503.752	6.14
504.102	6.25
504.452	5.99
504.803	6.23
505.153	6.29
505.503	6.15
505.853	6.25
506.203	6.13
506.553	6.14
506.903	6.17
507.253	6.18
507.603	6.22
507.953	6.15
508.303	6.26
508.652	6.12
509.002	6.16
509.352	6.25
509.701	6.21
510.051	6.27
510.4	6.06
510.75	6.11
511.099	6.08
511.449	6.13
511.798	6.2
512.147	6.15
512.496	6.15
512.846	6.2
513.195	6.29
513.544	6.24
513.893	6.18
514.242	6.18
514.591	6.32
514.939	6.13
515.288	6.22
515.637	6.07
515.986	6.24
516.334	6.28
516.683	6.11
517.032	6.16
517.38	6.25
517.729	6.29
518.077	6.35
518.426	6.25
518.774	6.28
519.122	6.11
519.47	6.28
519.819	6.24
520.167	6.25
520.515	6.13
520.863	6.14
521.211	6.25
521.559	6.18
521.907	6.28
522.255	6.2
522.602	6.26
522.95	6.22
523.298	6.27
523.645	6.36
523.993	6.38
524.341	6.37
524.688	6.27
525.036	6.19
525.383	6.18
525.73	6.32
526.078	6.48
526.425	6.23
526.772	6.41
527.119	6.21
527.466	6.13
527.814	6.15
528.161	6.08
528.508	6.09
528.854	6.21
529.201	6.2
529.548	6.17
529.895	6.13
530.242	6.1
530.588	6.08
530.935	6.09
531.282	6.06
531.628	6.07
531.975	6.1
532.321	6.19
532.667	6.2
533.014	6.2
533.36	6.25
533.706	6.3
534.052	6.28
534.399	6.29
534.745	6.26
535.091	6.2
535.437	6.27
535.783	6.17
536.129	6.15
536.474	6.13
536.82	6.24
537.166	6.38
537.512	6.28
537.857	6.39
538.203	6.31
538.549	6.22
538.894	6.24
539.239	6.2
539.585	6.25
539.93	6.38
540.276	6.33
540.621	6.42
540.966	6.46
541.311	6.39
541.656	6.41
542.001	6.43
542.346	6.42
542.691	6.26
543.036	6.24
543.381	6.14
543.726	6.18
544.071	6.31
544.415	6.2
544.76	6.24
545.105	6.25
545.449	6.29
545.794	6.33
546.138	6.4
546.483	6.46
546.827	6.39
547.171	6.48
547.516	6.46
547.86	6.36
548.204	6.38
548.548	6.48
548.892	6.43
549.236	6.47
549.58	6.48
549.924	6.35
550.268	6.63
550.612	6.55
550.956	6.52
551.3	6.51
551.643	6.59
551.987	6.56
552.33	6.42
552.674	6.54
553.017	6.31
553.361	6.57
553.704	6.65
554.048	6.51
554.391	6.57
554.734	6.42
555.077	6.47
555.42	6.52
555.764	6.46
556.107	6.56
556.45	6.5
556.793	6.42
557.135	6.49
557.478	6.75
557.821	6.61
558.164	6.67
558.507	6.72
558.849	6.83
559.192	6.51
559.534	6.62
559.877	6.6
560.219	6.65
560.562	6.66
560.904	6.56
561.246	6.67
561.589	6.61
561.931	6.53
562.273	6.66
562.615	6.48
562.957	6.72
563.299	6.64
563.641	6.53
563.983	6.61
564.325	6.5
564.667	6.82
565.008	6.63
565.35	6.64
565.692	6.82
566.033	6.55
566.375	6.56
566.716	6.6
567.058	6.5
567.399	6.61
567.741	6.45
568.082	6.75
568.423	6.63
568.764	6.68
569.105	6.5
569.447	6.53
569.788	6.76
570.129	6.49
570.47	6.67
570.811	6.55
571.151	6.62
571.492	6.74
571.833	6.59
572.174	6.58
572.514	6.62
572.855	6.54
573.195	6.64
573.536	6.64
573.876	6.79
574.217	6.51
574.557	6.78
574.898	6.55
575.238	6.95
575.578	6.74
575.918	6.57
576.258	6.76
576.598	6.66
576.938	6.77
577.278	6.71
577.618	6.76
577.958	6.77
578.298	6.8
578.638	6.98
578.977	6.86
579.317	6.84
579.657	6.79
579.996	6.57
580.336	7.06
580.675	6.81
581.014	6.46
581.354	6.78
581.693	6.78
582.032	6.82
582.372	6.71
582.711	6.66
583.05	6.69
583.389	6.59
583.728	6.78
584.067	6.78
584.406	6.71
584.745	6.72
585.083	6.66
585.422	6.88
585.761	6.83
586.1	6.62
586.438	6.9
586.777	7.09
587.115	6.92
587.454	6.75
587.792	6.47
588.13	6.66
588.469	6.73
588.807	6.75
589.145	6.56
589.483	6.96
589.821	6.83
590.159	6.82
590.497	6.73
590.835	6.76
591.173	6.71
591.511	6.78
591.849	6.93
592.187	6.84
592.524	6.81
592.862	6.95
593.2	6.51
593.537	6.76
593.875	6.95
594.212	6.65
594.55	6.72
594.887	6.9
595.224	6.91
595.561	6.73
595.899	6.79
596.236	7.06
596.573	6.69
596.91	6.77
597.247	6.58
597.584	6.72
597.921	6.92
598.258	6.77
598.594	6.74
598.931	6.85
599.268	6.84
599.604	6.77
599.941	6.67
600.277	6.64
600.614	6.81
600.95	6.97
601.287	6.75
601.623	6.97
601.959	6.84
602.296	6.94
602.632	6.92
602.968	6.84
603.304	6.8
603.64	7.04
603.976	6.7
604.312	6.64
604.648	6.9
604.984	7.09
605.319	6.86
605.655	6.78
605.991	6.87
606.326	6.91
606.662	6.88
606.998	6.61
607.333	7.01
607.668	6.8
608.004	6.97
608.339	6.82
608.674	6.83
609.01	6.68
609.345	6.6
609.68	7.15
610.015	6.92
610.35	6.83
610.685	6.69
611.02	6.66
611.355	6.59
611.689	6.67
612.024	6.91
612.359	6.91
612.694	6.92
613.028	7.09
613.363	6.96
613.697	6.98
614.032	6.95
614.366	7.14
614.7	6.7
615.035	7.09
615.369	6.8
615.703	7.14
616.037	6.88
616.371	6.98
616.705	6.95
617.039	7.24
617.373	7.1
617.707	6.78
618.041	6.99
618.375	6.88
618.709	7.19
619.042	6.72
619.376	7.22
619.71	6.86
620.043	7.15
620.377	7.39
620.71	6.81
621.043	7.08
621.377	6.99
621.71	6.91
622.043	6.76
622.376	6.61
622.709	7.02
623.043	7.07
623.376	6.8
623.709	6.97
624.041	7.16
624.374	6.98
624.707	6.55
625.04	7.08
625.373	7.27
625.705	6.95
626.038	6.89
626.37	6.91
626.703	7.39
627.035	7.21
627.368	7.14
627.7	7.02
628.032	6.92
628.365	7.08
628.697	6.88
629.029	6.88
629.361	6.94
629.693	7.22
630.025	7.03
630.357	7
630.689	6.98
631.021	7.04
631.353	6.81
631.684	7.01
632.016	7.44
632.348	6.95
632.679	6.73
633.011	7.06
633.342	7.08
633.674	7.12
634.005	7.02
634.336	7.08
634.668	7.11
634.999	6.97
635.33	7.25
635.661	7.08
635.992	7.02
636.323	6.98
636.654	6.65
636.985	7.15
637.316	7.19
637.647	6.95
637.977	7.24
638.308	6.88
638.639	6.77
638.969	7.07
639.3	7.2
639.63	6.66
639.961	7.49
640.291	6.86
640.622	7.2
640.952	7.36
641.282	6.82
641.612	7.37
641.943	7.11
642.273	6.96
642.603	6.77
642.933	6.92
643.263	7.5
643.592	7.08
643.922	7.07
644.252	7.06
644.582	7.56
644.911	7.37
645.241	7.21
645.571	6.5
645.9	6.84
646.23	7.17
646.559	6.99
646.888	7.33
647.218	6.87
647.547	6.79
647.876	6.81
648.205	6.7
648.534	6.79
648.863	7.15
649.192	7.11
649.521	7.21
649.85	6.94
650.179	7.56
650.508	6.99
650.837	7.53
651.165	6.85
651.494	7.15
651.822	7.47
652.151	7.1
652.479	7.61
652.808	7.29
653.136	7.25
653.465	7.11
653.793	6.97
654.121	6.94
654.449	7.29
654.777	7.09
655.105	7.19
655.433	7.42
655.761	7.43
656.089	7.67
656.417	7.13
656.745	6.96
657.073	7.42
657.4	7.21
657.728	7.14
658.056	7.12
658.383	7.25
658.711	7.45
659.038	6.67
659.365	7.21
659.693	7
660.02	7.19
660.347	7.13
660.674	7.02
661.001	7.26
661.329	7.28
661.656	7.19
661.982	7.19
662.309	7.75
662.636	7.4
662.963	7.04
663.29	6.93
663.616	7.04
663.943	7.18
664.27	7.07
664.596	7.12
664.923	6.87
665.249	7.06
665.576	7.34
665.902	7.43
666.228	7.44
666.554	7.23
666.881	7.36
667.207	7.61
667.533	7.35
667.859	7.37
668.185	7.07
668.511	6.96
668.837	7.43
669.162	7.34
669.488	6.86
669.814	7.34
670.139	6.8
670.465	7.47
670.791	6.7
671.116	7.04
671.442	7.55
671.767	7.84
672.092	7.4
672.418	7.37
672.743	7.19
673.068	7.71
673.393	7.31
673.718	7.16
674.043	7.64
674.368	7.62
674.693	6.95
675.018	6.66
675.343	7.18
675.667	7.25
675.992	6.99
676.317	6.94
676.641	7.15
676.966	7.06
677.29	6.59
677.615	7.22
677.939	7.62
678.264	6.87
678.588	7.05
678.912	7.27
679.236	7.17
679.56	7.14
679.885	7.25
680.209	7.06
680.532	7.55
680.856	7.62
681.18	7.29
681.504	7.45
681.828	7.02
682.152	7.16
682.475	7
682.799	7.14
683.122	7.16
683.446	7.63
683.769	8.09
684.093	7.56
684.416	7.6
684.739	7.29
685.062	6.77
685.386	7.21
685.709	7.32
686.032	6.93
686.355	7.51
686.678	7.49
687.001	7.68
687.324	7
687.646	6.66
687.969	6.79
688.292	7.77
688.614	6.96
688.937	7.6
689.26	7.21
689.582	6.95
689.904	7.32
690.227	7.06
690.549	6.82
690.871	7.47
691.194	7.26
691.516	7.62
691.838	7.59
692.16	7.33
692.482	7.51
692.804	8.45
