Data from 1897-1_crown_Reflection__0__41.txt Node

Date: Fri Sep 30 18:05:24 CDT 2022
User: ToomeyLab
Spectrometer: FLMS14357
Trigger mode: 0
Integration Time (sec): 1.000000E-2
Scans to average: 100
Electric dark correction enabled: true
Nonlinearity correction enabled: false
Boxcar width: 0
XAxis mode: Wavelengths
Number of Pixels in Spectrum: 2048
>>>>>Begin Spectral Data<<<<<
189.047	-49.28
189.435	-49.28
189.823	-49.28
190.211	98.41
190.599	67.03
190.987	-160.39
191.375	145.63
191.763	-5.6
192.151	-48.1
192.538	-67.85
192.926	182.72
193.314	-2.2
193.702	361.47
194.089	212.16
194.477	98.39
194.864	43.13
195.252	-168.98
195.639	-10.94
196.027	-524.62
196.414	94.54
196.801	186.75
197.189	-5.53
197.576	81.79
197.963	-6.77
198.351	25.3
198.738	7.9
199.125	39.42
199.512	29.71
199.899	-29.68
200.286	-11.37
200.673	26.71
201.06	18.82
201.447	7.03
201.833	27.85
202.22	18.07
202.607	31.12
202.994	67.63
203.38	14.43
203.767	-0.47
204.154	13.31
204.54	37.81
204.927	28.76
205.313	8.43
205.699	45.72
206.086	-26.18
206.472	20.45
206.858	26.99
207.245	4.68
207.631	32.3
208.017	-11.56
208.403	17.31
208.789	19.03
209.175	36.53
209.561	0.88
209.947	18.64
210.333	-28
210.719	-22.34
211.105	6.47
211.491	19.74
211.876	8.18
212.262	10.98
212.648	39.17
213.034	-21.96
213.419	31.49
213.805	-21.14
214.19	18.4
214.576	18.18
214.961	1.63
215.346	7.75
215.732	2.56
216.117	1.12
216.502	23.85
216.888	8.73
217.273	18.13
217.658	27.33
218.043	5.65
218.428	24.85
218.813	-0.82
219.198	11.57
219.583	26.31
219.968	10.78
220.353	7.52
220.738	1.03
221.122	30.4
221.507	19.14
221.892	0.58
222.276	0.82
222.661	1.37
223.046	-2.07
223.43	0.82
223.815	4.78
224.199	11.25
224.583	5.91
224.968	5.15
225.352	8.29
225.736	12.39
226.121	4.06
226.505	1.15
226.889	8.1
227.273	-1.2
227.657	6.52
228.041	6.49
228.425	6.76
228.809	6.1
229.193	5.32
229.577	4.96
229.961	5.36
230.344	4.57
230.728	4.48
231.112	5.06
231.495	4.37
231.879	5.85
232.263	5.09
232.646	3.4
233.03	5.49
233.413	5.22
233.797	6.09
234.18	4.6
234.563	5.52
234.946	6.02
235.33	3.63
235.713	5.51
236.096	6.45
236.479	5.9
236.862	5.34
237.245	6.84
237.628	4.37
238.011	5.92
238.394	4.26
238.777	5.34
239.16	3.44
239.543	5.33
239.925	5.55
240.308	5.02
240.691	6.01
241.073	5.66
241.456	3.74
241.838	5.11
242.221	5.13
242.603	5.28
242.986	5.3
243.368	3.8
243.75	4.55
244.133	4.84
244.515	4.84
244.897	5.11
245.279	4.99
245.661	4.79
246.043	4.45
246.425	4.14
246.807	4.73
247.189	4.72
247.571	4.78
247.953	4.8
248.335	4.14
248.717	4.66
249.098	4.73
249.48	4.41
249.862	4.84
250.243	4.57
250.625	5
251.006	4.65
251.388	4.4
251.769	5.21
252.151	5.1
252.532	5.17
252.913	4.99
253.295	4.61
253.676	4.2
254.057	4.66
254.438	4.42
254.819	5.58
255.2	4.42
255.581	5.06
255.962	5.38
256.343	3.63
256.724	5.51
257.105	5.12
257.486	5.17
257.867	4.67
258.247	3.89
258.628	5.26
259.009	5.9
259.389	4.62
259.77	5.32
260.15	3.91
260.531	4.88
260.911	4.28
261.292	4.03
261.672	4.1
262.052	4.52
262.432	4.27
262.813	4.73
263.193	4.17
263.573	4.31
263.953	4.3
264.333	4.99
264.713	3.74
265.093	4.43
265.473	4.08
265.853	4.71
266.233	4.32
266.612	3.59
266.992	3.66
267.372	3.89
267.752	3.76
268.131	3.97
268.511	4.23
268.89	3.91
269.27	4.4
269.649	4.22
270.029	4.22
270.408	4.1
270.787	4.63
271.167	3.98
271.546	4.74
271.925	4.26
272.304	3.96
272.683	3.82
273.062	3.97
273.441	4.17
273.82	3.7
274.199	4.2
274.578	4
274.957	3.9
275.336	4.22
275.715	4.09
276.093	4.11
276.472	3.89
276.851	4.38
277.229	3.91
277.608	4.06
277.986	3.81
278.365	4.18
278.743	3.74
279.122	4.2
279.5	4.42
279.878	4.42
280.257	4.16
280.635	4.28
281.013	4.79
281.391	4.63
281.769	4.16
282.147	4.02
282.525	4.6
282.903	4.37
283.281	3.84
283.659	3.68
284.037	3.81
284.415	4.41
284.792	4.17
285.17	3.6
285.548	4.13
285.925	4.1
286.303	3.61
286.68	3.76
287.058	4.25
287.435	3.62
287.813	3.97
288.19	3.78
288.567	3.65
288.945	3.74
289.322	3.75
289.699	4.21
290.076	3.94
290.453	4.04
290.83	3.93
291.207	4.03
291.584	3.74
291.961	3.67
292.338	3.95
292.715	4.26
293.092	3.29
293.469	4.38
293.845	4.47
294.222	3.84
294.599	4.39
294.975	4.06
295.352	3.95
295.728	4.09
296.105	3.73
296.481	4.22
296.858	4.15
297.234	4.12
297.61	3.72
297.986	3.23
298.363	3.8
298.739	3.64
299.115	3.66
299.491	3.75
299.867	3.85
300.243	3.52
300.619	3.58
300.995	4.52
301.371	4.18
301.746	3.54
302.122	3.95
302.498	3.77
302.874	3.69
303.249	3.53
303.625	3.86
304	4.29
304.376	3.91
304.751	3.76
305.127	3.84
305.502	3.98
305.878	4.13
306.253	3.46
306.628	3.83
307.003	3.49
307.378	3.88
307.754	3.79
308.129	3.49
308.504	3.91
308.879	4.27
309.254	3.31
309.629	3.82
310.003	3.82
310.378	3.7
310.753	3.35
311.128	3.58
311.502	3.85
311.877	3.78
312.252	3.84
312.626	3.72
313.001	3.62
313.375	3.2
313.75	3.78
314.124	4.07
314.498	3.21
314.873	3.56
315.247	3.61
315.621	3.77
315.995	3.87
316.369	3.62
316.743	3.7
317.117	3.96
317.491	4.45
317.865	4.01
318.239	4
318.613	3.45
318.987	3.77
319.361	3.72
319.734	3.62
320.108	3.89
320.482	3.63
320.855	3.71
321.229	3.93
321.602	3.88
321.976	3.68
322.349	3.52
322.723	3.34
323.096	4.45
323.469	4.17
323.843	3.45
324.216	3.62
324.589	4.38
324.962	4.16
325.335	3.47
325.708	3.61
326.081	3.83
326.454	3.61
326.827	3.74
327.2	3.5
327.573	3.2
327.945	3.45
328.318	3.54
328.691	4.28
329.063	4.05
329.436	3.64
329.809	3.96
330.181	3.74
330.553	3.88
330.926	4.27
331.298	3.72
331.671	4.05
332.043	3.55
332.415	3.52
332.787	3.57
333.159	3.45
333.532	3.86
333.904	3.98
334.276	3.96
334.648	3.37
335.02	4.04
335.391	4.06
335.763	3.74
336.135	3.75
336.507	3.73
336.879	3.53
337.25	3.31
337.622	3.62
337.993	3.43
338.365	3.34
338.736	3.28
339.108	3.65
339.479	3.6
339.851	3.29
340.222	3.62
340.593	3.6
340.964	3.6
341.336	3.74
341.707	3.58
342.078	3.54
342.449	3.37
342.82	3.28
343.191	3.57
343.562	3.46
343.933	3.79
344.303	3.7
344.674	3.6
345.045	3.63
345.416	3.74
345.786	3.58
346.157	3.8
346.527	3.72
346.898	3.7
347.268	3.56
347.639	3.52
348.009	3.81
348.38	4.01
348.75	4.16
349.12	3.95
349.49	3.89
349.861	3.53
350.231	3.27
350.601	4
350.971	3.68
351.341	3.68
351.711	3.47
352.081	3.61
352.45	3.77
352.82	3.67
353.19	3.74
353.56	3.24
353.929	3.33
354.299	3.75
354.669	3.66
355.038	3.89
355.408	3.82
355.777	3.41
356.147	3.56
356.516	3.82
356.885	3.38
357.254	3.52
357.624	3.84
357.993	3.33
358.362	3.75
358.731	3.65
359.1	3.5
359.469	3.43
359.838	3.97
360.207	3.44
360.576	3.31
360.945	3.58
361.314	3.44
361.682	3.97
362.051	3.62
362.42	3.77
362.788	3.66
363.157	3.75
363.525	3.41
363.894	3.66
364.262	3.77
364.631	4.07
364.999	3.67
365.367	3.7
365.735	3.37
366.104	3.45
366.472	3.93
366.84	4.11
367.208	3.75
367.576	4.02
367.944	3.75
368.312	3.5
368.68	3.62
369.048	3.32
369.416	3.65
369.783	3.51
370.151	3.72
370.519	3.28
370.886	4
371.254	3.49
371.621	3.9
371.989	3.48
372.356	3.87
372.724	3.64
373.091	3.45
373.458	3.63
373.826	3.8
374.193	4.08
374.56	3.9
374.927	4.25
375.294	4.12
375.661	3.41
376.028	3.7
376.395	3.82
376.762	3.45
377.129	4.06
377.496	4.02
377.863	3.6
378.229	4.21
378.596	3.77
378.963	3.96
379.329	3.68
379.696	4.03
380.062	4.07
380.429	4.04
380.795	3.95
381.161	3.83
381.528	3.99
381.894	3.73
382.26	3.92
382.626	3.83
382.993	3.85
383.359	3.74
383.725	3.47
384.091	3.58
384.457	3.73
384.823	4.15
385.188	3.97
385.554	3.76
385.92	4.17
386.286	3.98
386.651	4.02
387.017	3.88
387.383	3.78
387.748	3.63
388.114	3.97
388.479	3.83
388.845	3.65
389.21	3.75
389.575	3.88
389.94	3.9
390.306	3.94
390.671	4.03
391.036	3.96
391.401	3.41
391.766	4.15
392.131	3.69
392.496	4.12
392.861	3.98
393.226	3.96
393.591	4.04
393.956	4.07
394.32	3.86
394.685	3.87
395.05	3.99
395.414	3.71
395.779	3.76
396.143	4.19
396.508	3.83
396.872	4.25
397.236	3.88
397.601	4.06
397.965	4.07
398.329	4
398.694	4.17
399.058	4.11
399.422	4.25
399.786	3.72
400.15	3.96
400.514	3.93
400.878	4.07
401.242	3.8
401.605	4.17
401.969	4.19
402.333	4.23
402.697	4.1
403.06	3.95
403.424	3.87
403.787	4.23
404.151	4.07
404.514	4.07
404.878	4.17
405.241	4.01
405.604	4.12
405.968	4.11
406.331	4.04
406.694	3.87
407.057	4.07
407.42	4.21
407.783	4.03
408.146	3.88
408.509	4.06
408.872	4.03
409.235	4.03
409.598	4.33
409.961	3.88
410.323	4.13
410.686	4.05
411.049	4.04
411.411	4
411.774	4.4
412.136	4.4
412.499	4.07
412.861	4.23
413.223	4.01
413.586	4.01
413.948	4.42
414.31	4.29
414.672	4.42
415.035	4.4
415.397	4.3
415.759	3.99
416.121	4.14
416.483	4.14
416.845	4.08
417.206	4.23
417.568	4.2
417.93	3.93
418.292	3.98
418.653	4.01
419.015	4.31
419.377	4.1
419.738	4.07
420.1	4.09
420.461	4.22
420.822	4.16
421.184	4.08
421.545	3.99
421.906	3.95
422.267	4.05
422.629	4.03
422.99	4.03
423.351	4.05
423.712	3.97
424.073	4.16
424.434	4.15
424.795	4.11
425.155	4.06
425.516	4.14
425.877	4.17
426.238	4.07
426.598	4.25
426.959	4.09
427.32	4.13
427.68	4.24
428.041	4.2
428.401	4.22
428.761	4.41
429.122	4.39
429.482	3.99
429.842	4.29
430.202	4.24
430.563	4.36
430.923	4.21
431.283	4.16
431.643	4.24
432.003	4.28
432.363	4.33
432.722	4.24
433.082	4.38
433.442	4.07
433.802	4.26
434.161	4.24
434.521	4.22
434.881	4.13
435.24	4.25
435.6	4.23
435.959	4.19
436.319	4.29
436.678	4.18
437.037	4.32
437.396	4.32
437.756	4.3
438.115	4.34
438.474	4.23
438.833	4.32
439.192	4.38
439.551	4.31
439.91	4.19
440.269	4.09
440.628	4.28
440.987	4.27
441.345	4.27
441.704	4.27
442.063	4.39
442.421	4.3
442.78	4.25
443.138	4.15
443.497	4.3
443.855	4.42
444.214	4.4
444.572	4.43
444.93	4.22
445.288	4.34
445.647	4.33
446.005	4.37
446.363	4.28
446.721	4.2
447.079	4.26
447.437	4.28
447.795	4.15
448.153	4.16
448.51	4.23
448.868	4.29
449.226	4.33
449.584	4.32
449.941	4.3
450.299	4.33
450.656	4.35
451.014	4.6
451.371	4.46
451.729	4.47
452.086	4.37
452.443	4.46
452.801	4.4
453.158	4.35
453.515	4.29
453.872	4.38
454.229	4.32
454.586	4.42
454.943	4.51
455.3	4.42
455.657	4.49
456.014	4.37
456.371	4.4
456.727	4.36
457.084	4.42
457.441	4.47
457.797	4.42
458.154	4.19
458.51	4.31
458.867	4.46
459.223	4.36
459.58	4.46
459.936	4.47
460.292	4.4
460.648	4.38
461.005	4.3
461.361	4.31
461.717	4.24
462.073	4.37
462.429	4.44
462.785	4.48
463.141	4.43
463.496	4.41
463.852	4.39
464.208	4.49
464.564	4.36
464.919	4.55
465.275	4.44
465.631	4.63
465.986	4.58
466.342	4.46
466.697	4.44
467.052	4.61
467.408	4.39
467.763	4.39
468.118	4.6
468.473	4.36
468.829	4.35
469.184	4.54
469.539	4.42
469.894	4.58
470.249	4.45
470.603	4.41
470.958	4.43
471.313	4.39
471.668	4.49
472.023	4.62
472.377	4.37
472.732	4.59
473.086	4.45
473.441	4.7
473.795	4.59
474.15	4.47
474.504	4.43
474.859	4.49
475.213	4.5
475.567	4.52
475.921	4.35
476.275	4.32
476.63	4.42
476.984	4.57
477.338	4.48
477.692	4.48
478.045	4.62
478.399	4.51
478.753	4.49
479.107	4.31
479.461	4.63
479.814	4.5
480.168	4.43
480.521	4.47
480.875	4.64
481.228	4.6
481.582	4.56
481.935	4.57
482.289	4.53
482.642	4.54
482.995	4.42
483.348	4.41
483.701	4.53
484.055	4.38
484.408	4.32
484.761	4.22
485.114	4.15
485.466	4.12
485.819	4.15
486.172	4.3
486.525	4.4
486.878	4.47
487.23	4.41
487.583	4.34
487.936	4.49
488.288	4.39
488.641	4.22
488.993	4.31
489.345	4.28
489.698	4.31
490.05	4.38
490.402	4.43
490.754	4.48
491.107	4.46
491.459	4.48
491.811	4.52
492.163	4.49
492.515	4.45
492.866	4.37
493.218	4.27
493.57	4.32
493.922	4.41
494.274	4.48
494.625	4.54
494.977	4.62
495.328	4.57
495.68	4.52
496.031	4.58
496.383	4.56
496.734	4.63
497.086	4.64
497.437	4.69
497.788	4.63
498.139	4.47
498.49	4.48
498.842	4.5
499.193	4.57
499.544	4.58
499.894	4.65
500.245	4.54
500.596	4.5
500.947	4.56
501.298	4.68
501.648	4.53
501.999	4.62
502.35	4.7
502.7	4.6
503.051	4.6
503.401	4.67
503.752	4.45
504.102	4.64
504.452	4.64
504.803	4.59
505.153	4.72
505.503	4.5
505.853	4.57
506.203	4.6
506.553	4.55
506.903	4.67
507.253	4.66
507.603	4.63
507.953	4.69
508.303	4.77
508.652	4.62
509.002	4.63
509.352	4.59
509.701	4.67
510.051	4.75
510.4	4.69
510.75	4.59
511.099	4.51
511.449	4.6
511.798	4.59
512.147	4.68
512.496	4.54
512.846	4.62
513.195	4.62
513.544	4.62
513.893	4.5
514.242	4.57
514.591	4.68
514.939	4.61
515.288	4.76
515.637	4.64
515.986	4.71
516.334	4.66
516.683	4.62
517.032	4.57
517.38	4.64
517.729	4.72
518.077	4.72
518.426	4.7
518.774	4.7
519.122	4.46
519.47	4.65
519.819	4.66
520.167	4.63
520.515	4.58
520.863	4.6
521.211	4.67
521.559	4.68
521.907	4.77
522.255	4.59
522.602	4.74
522.95	4.73
523.298	4.72
523.645	4.65
523.993	4.74
524.341	4.81
524.688	4.76
525.036	4.69
525.383	4.58
525.73	4.79
526.078	4.71
526.425	4.62
526.772	4.62
527.119	4.41
527.466	4.51
527.814	4.6
528.161	4.55
528.508	4.63
528.854	4.55
529.201	4.58
529.548	4.51
529.895	4.41
530.242	4.37
530.588	4.41
530.935	4.5
531.282	4.6
531.628	4.61
531.975	4.65
532.321	4.64
532.667	4.67
533.014	4.71
533.36	4.66
533.706	4.71
534.052	4.62
534.399	4.6
534.745	4.49
535.091	4.47
535.437	4.56
535.783	4.61
536.129	4.69
536.474	4.67
536.82	4.67
537.166	4.83
537.512	4.71
537.857	4.65
538.203	4.63
538.549	4.51
538.894	4.66
539.239	4.74
539.585	4.78
539.93	4.72
540.276	4.73
540.621	4.8
540.966	4.75
541.311	4.75
541.656	4.73
542.001	4.67
542.346	4.64
542.691	4.45
543.036	4.44
543.381	4.47
543.726	4.61
544.071	4.71
544.415	4.69
544.76	4.68
545.105	4.67
545.449	4.68
545.794	4.73
546.138	4.77
546.483	4.8
546.827	4.69
547.171	4.67
547.516	4.73
547.86	4.67
548.204	4.64
548.548	4.66
548.892	4.71
549.236	4.74
549.58	4.73
549.924	4.6
550.268	4.88
550.612	4.86
550.956	4.82
551.3	4.84
551.643	4.91
551.987	4.69
552.33	4.87
552.674	4.73
553.017	4.62
553.361	4.8
553.704	4.99
554.048	4.72
554.391	4.86
554.734	4.8
555.077	4.91
555.42	4.95
555.764	4.84
556.107	4.89
556.45	4.63
556.793	4.8
557.135	4.73
557.478	4.89
557.821	4.89
558.164	4.95
558.507	4.91
558.849	4.86
559.192	4.87
559.534	4.74
559.877	4.92
560.219	4.79
560.562	4.79
560.904	4.81
561.246	4.87
561.589	4.78
561.931	5.03
562.273	4.85
562.615	4.89
562.957	4.82
563.299	4.84
563.641	4.81
563.983	4.69
564.325	4.8
564.667	5.07
565.008	4.79
565.35	4.74
565.692	4.91
566.033	4.64
566.375	4.77
566.716	4.9
567.058	4.88
567.399	4.62
567.741	4.89
568.082	4.76
568.423	4.78
568.764	4.82
569.105	4.69
569.447	4.88
569.788	4.92
570.129	4.95
570.47	4.77
570.811	4.96
571.151	4.84
571.492	4.82
571.833	4.74
572.174	4.67
572.514	4.88
572.855	4.8
573.195	4.78
573.536	4.73
573.876	4.91
574.217	4.8
574.557	4.81
574.898	4.85
575.238	4.9
575.578	4.97
575.918	4.76
576.258	4.9
576.598	4.76
576.938	4.84
577.278	4.9
577.618	4.9
577.958	4.79
578.298	4.85
578.638	4.91
578.977	5.02
579.317	4.75
579.657	4.94
579.996	4.82
580.336	5.07
580.675	4.89
581.014	4.77
581.354	5.03
581.693	5.03
582.032	5
582.372	4.84
582.711	4.89
583.05	4.88
583.389	5.09
583.728	4.62
584.067	4.8
584.406	4.9
584.745	5.06
585.083	4.77
585.422	5.1
585.761	4.95
586.1	5.08
586.438	4.9
586.777	5.02
587.115	4.96
587.454	5.07
587.792	4.79
588.13	5
588.469	4.7
588.807	4.91
589.145	4.84
589.483	5.08
589.821	4.98
590.159	4.95
590.497	4.84
590.835	4.98
591.173	4.84
591.511	4.67
591.849	4.98
592.187	5.02
592.524	4.81
592.862	4.91
593.2	5.05
593.537	4.85
593.875	5.02
594.212	5.06
594.55	4.87
594.887	5.33
595.224	4.92
595.561	4.84
595.899	4.78
596.236	5.04
596.573	4.97
596.91	5.03
597.247	4.78
597.584	4.85
597.921	4.72
598.258	4.81
598.594	4.64
598.931	4.74
599.268	4.83
599.604	4.77
599.941	4.67
600.277	4.76
600.614	5.11
600.95	4.9
601.287	4.76
601.623	5.26
601.959	4.78
602.296	4.94
602.632	4.97
602.968	5.06
603.304	4.92
603.64	4.99
603.976	4.68
604.312	4.71
604.648	4.94
604.984	5.12
605.319	4.88
605.655	4.91
605.991	4.84
606.326	5.06
606.662	4.78
606.998	4.78
607.333	4.92
607.668	4.86
608.004	5.07
608.339	4.93
608.674	5
609.01	4.75
609.345	4.69
609.68	4.94
610.015	4.96
610.35	4.72
610.685	4.66
611.02	4.69
611.355	4.71
611.689	4.62
612.024	4.89
612.359	5.07
612.694	5.12
613.028	5.01
613.363	4.84
613.697	4.83
614.032	5.12
614.366	4.95
614.7	4.79
615.035	4.93
615.369	4.9
615.703	5.08
616.037	5.18
616.371	4.9
616.705	5.1
617.039	5.02
617.373	5.18
617.707	4.54
618.041	4.71
618.375	5.12
618.709	5.08
619.042	4.82
619.376	4.82
619.71	4.79
620.043	4.85
620.377	5.3
620.71	4.85
621.043	5.03
621.377	4.83
621.71	4.84
622.043	4.95
622.376	4.96
622.709	4.97
623.043	5.01
623.376	4.75
623.709	5.02
624.041	4.75
624.374	4.92
624.707	4.91
625.04	5.14
625.373	5.06
625.705	4.41
626.038	4.82
626.37	4.87
626.703	5.36
627.035	4.99
627.368	4.98
627.7	4.85
628.032	4.92
628.365	4.78
628.697	4.93
629.029	4.51
629.361	4.76
629.693	4.88
630.025	4.71
630.357	5.01
630.689	5.16
631.021	4.63
631.353	4.88
631.684	5.01
632.016	5.1
632.348	5.06
632.679	4.89
633.011	5.05
633.342	4.78
633.674	5.43
634.005	4.74
634.336	5.23
634.668	4.97
634.999	5.23
635.33	5.19
635.661	5.04
635.992	4.75
636.323	5.02
636.654	4.96
636.985	4.71
637.316	4.96
637.647	4.78
637.977	5.36
638.308	4.69
638.639	4.51
638.969	5.12
639.3	5.02
639.63	4.82
639.961	5.21
640.291	5.08
640.622	5.44
640.952	5.13
641.282	4.88
641.612	5.02
641.943	5.11
642.273	5.03
642.603	4.7
642.933	4.68
643.263	5.08
643.592	4.95
643.922	4.46
644.252	5.12
644.582	5.11
644.911	5.41
645.241	4.91
645.571	4.44
645.9	4.83
646.23	5.13
646.559	4.75
646.888	5.06
647.218	5.07
647.547	4.62
647.876	4.8
648.205	4.62
648.534	4.69
648.863	5.04
649.192	4.61
649.521	4.75
649.85	4.72
650.179	5.13
650.508	5.05
650.837	4.98
651.165	4.88
651.494	4.69
651.822	4.94
652.151	4.95
652.479	4.92
652.808	5.16
653.136	4.8
653.465	5.09
653.793	4.74
654.121	4.57
654.449	5.05
654.777	4.8
655.105	5.08
655.433	4.7
655.761	5.44
656.089	5.24
656.417	4.67
656.745	4.7
657.073	4.72
657.4	5.02
657.728	4.95
658.056	4.94
658.383	5.2
658.711	5.11
659.038	4.47
659.365	4.77
659.693	4.5
660.02	5.12
660.347	5
660.674	4.76
661.001	4.97
661.329	5.2
661.656	4.71
661.982	4.95
662.309	5.11
662.636	5.41
662.963	4.76
663.29	4.5
663.616	4.55
663.943	4.92
664.27	4.52
664.596	4.73
664.923	5.12
665.249	5.1
665.576	4.84
665.902	4.95
666.228	5.4
666.554	5.17
666.881	4.96
667.207	4.56
667.533	4.72
667.859	4.93
668.185	5.14
668.511	5.38
668.837	5.2
669.162	5.23
669.488	4.71
669.814	4.94
670.139	4.61
670.465	5.25
670.791	4.98
671.116	5.22
671.442	5
671.767	5.06
672.092	5.06
672.418	4.79
672.743	5.18
673.068	5.12
673.393	5.01
673.718	4.78
674.043	5.18
674.368	5.32
674.693	4.8
675.018	5.25
675.343	4.86
675.667	5.54
675.992	5.25
676.317	5.09
676.641	4.75
676.966	5.04
677.29	4.53
677.615	4.06
677.939	4.48
678.264	4.87
678.588	4.8
678.912	4.76
679.236	5.19
679.56	4.72
679.885	5.41
680.209	4.65
680.532	5.1
680.856	4.91
681.18	4.92
681.504	5.26
681.828	4.67
682.152	5.18
682.475	5
682.799	4.96
683.122	5.55
683.446	5.06
683.769	5.36
684.093	5.49
684.416	5.63
684.739	5.03
685.062	4.95
685.386	5.32
685.709	4.79
686.032	5.05
686.355	4.76
686.678	5.25
687.001	5.58
687.324	6.12
687.646	4.84
687.969	5.09
688.292	5.35
688.614	5.08
688.937	5.04
689.26	5.16
689.582	5.11
689.904	5.1
690.227	5.06
690.549	4.69
690.871	5.29
691.194	4.97
691.516	5.41
691.838	3.92
692.16	5.17
692.482	4.8
692.804	5.3
693.126	5.01
693.448	4.88
