Data from 1897-1_chest_Reflection__4__35.txt Node

Date: Fri Sep 30 18:01:20 CDT 2022
User: ToomeyLab
Spectrometer: FLMS14357
Trigger mode: 0
Integration Time (sec): 1.000000E-2
Scans to average: 100
Electric dark correction enabled: true
Nonlinearity correction enabled: false
Boxcar width: 0
XAxis mode: Wavelengths
Number of Pixels in Spectrum: 2048
>>>>>Begin Spectral Data<<<<<
189.047	-189.28
189.435	-189.28
189.823	-189.28
190.211	-228.64
190.599	42.35
190.987	-118.28
191.375	38.57
191.763	93.26
192.151	-31.3
192.538	-159.2
192.926	502.7
193.314	94.12
193.702	-488.99
194.089	451.57
194.477	-52.36
194.864	-19.17
195.252	-87.59
195.639	-41.25
196.027	388.75
196.414	15.47
196.801	210.26
197.189	-43.19
197.576	72.44
197.963	125.79
198.351	-1.18
198.738	44.63
199.125	52.77
199.512	5.4
199.899	47.55
200.286	20.61
200.673	43.47
201.06	25
201.447	25.52
201.833	73.18
202.22	34.65
202.607	29.96
202.994	58.07
203.38	27.19
203.767	38.19
204.154	37.34
204.54	39.93
204.927	29.98
205.313	22.5
205.699	39.15
206.086	-1.62
206.472	17.93
206.858	41.06
207.245	44.56
207.631	12.03
208.017	-27.94
208.403	36.98
208.789	48.5
209.175	28.51
209.561	5.63
209.947	21.18
210.333	-23.08
210.719	9.02
211.105	0.26
211.491	19.96
211.876	14.72
212.262	34.35
212.648	34.69
213.034	4.67
213.419	17.65
213.805	13.37
214.19	18.78
214.576	5.65
214.961	18.84
215.346	44.71
215.732	17.2
216.117	-2.6
216.502	12.69
216.888	6.58
217.273	16.64
217.658	11.44
218.043	1.12
218.428	14.87
218.813	23.36
219.198	18.19
219.583	7.27
219.968	22.84
220.353	27.27
220.738	14.44
221.122	26.86
221.507	18.68
221.892	14.83
222.276	-2.65
222.661	12.89
223.046	1.57
223.43	7.57
223.815	16.47
224.199	7.7
224.583	11.07
224.968	13.99
225.352	1.68
225.736	16.62
226.121	8.11
226.505	3.86
226.889	6.07
227.273	0.26
227.657	10.4
228.041	6.71
228.425	6.38
228.809	4.19
229.193	4.06
229.577	1.98
229.961	3.78
230.344	3.6
230.728	3.4
231.112	4.1
231.495	3.51
231.879	5.98
232.263	3.79
232.646	3.21
233.03	4
233.413	5.48
233.797	3.91
234.18	3.53
234.563	6.74
234.946	4.21
235.33	3.08
235.713	4.92
236.096	3.57
236.479	4.7
236.862	4.63
237.245	5.03
237.628	4.24
238.011	7.1
238.394	5.18
238.777	2.4
239.16	2.75
239.543	5.04
239.925	4.3
240.308	5.11
240.691	4.97
241.073	5.14
241.456	3.34
241.838	3.76
242.221	3.79
242.603	4.86
242.986	3.89
243.368	3.13
243.75	3.1
244.133	3.87
244.515	3.58
244.897	3.99
245.279	4.34
245.661	3.87
246.043	3.78
246.425	3.83
246.807	4.5
247.189	3.97
247.571	4.35
247.953	3.92
248.335	3.49
248.717	3.53
249.098	4.05
249.48	3.53
249.862	3.51
250.243	3.42
250.625	3.41
251.006	3.62
251.388	2.35
251.769	5.13
252.151	3.11
252.532	3.83
252.913	4.01
253.295	4.06
253.676	3.64
254.057	3.88
254.438	3.38
254.819	3.33
255.2	3.11
255.581	4.03
255.962	4.86
256.343	4.25
256.724	4.7
257.105	4.35
257.486	4.05
257.867	4.02
258.247	3.72
258.628	4.24
259.009	4.6
259.389	3.3
259.77	4.01
260.15	3.33
260.531	4.08
260.911	3.48
261.292	3.36
261.672	3.21
262.052	3.29
262.432	3.27
262.813	4.04
263.193	3.61
263.573	3.49
263.953	3.75
264.333	4.57
264.713	3.39
265.093	3.11
265.473	3.88
265.853	3.86
266.233	3.45
266.612	3.3
266.992	3.5
267.372	2.68
267.752	3.74
268.131	3.55
268.511	2.95
268.89	3.1
269.27	3.22
269.649	3.33
270.029	3.23
270.408	3.17
270.787	3.49
271.167	3.6
271.546	3.56
271.925	3.58
272.304	3.61
272.683	3.51
273.062	3.42
273.441	3.29
273.82	2.91
274.199	3.08
274.578	3.19
274.957	3.15
275.336	3.24
275.715	3.64
276.093	3.42
276.472	3.44
276.851	3.25
277.229	3.28
277.608	3.21
277.986	3.07
278.365	3.91
278.743	3.16
279.122	3.11
279.5	3.48
279.878	3.09
280.257	3.17
280.635	3.55
281.013	4.12
281.391	3.69
281.769	3.82
282.147	3.12
282.525	3.51
282.903	3.51
283.281	3.02
283.659	3.6
284.037	3.21
284.415	3.38
284.792	3.53
285.17	3.34
285.548	3.43
285.925	3.61
286.303	3.05
286.68	2.69
287.058	3.23
287.435	3.21
287.813	3.34
288.19	3.45
288.567	3.23
288.945	2.71
289.322	3.24
289.699	3.16
290.076	2.81
290.453	3.57
290.83	3.52
291.207	3.09
291.584	3.21
291.961	3.4
292.338	3.5
292.715	3.72
293.092	2.9
293.469	3.28
293.845	3.93
294.222	3.29
294.599	3.72
294.975	4.01
295.352	3.81
295.728	3.49
296.105	3.71
296.481	3.49
296.858	3.72
297.234	3.85
297.61	3.4
297.986	2.96
298.363	3.64
298.739	3.26
299.115	3.22
299.491	3.42
299.867	3.34
300.243	3.24
300.619	3.41
300.995	4.24
301.371	3.62
301.746	3.05
302.122	3.91
302.498	3.37
302.874	3.65
303.249	3.58
303.625	3.28
304	3.82
304.376	3.83
304.751	4.02
305.127	3.49
305.502	3.45
305.878	4.12
306.253	3.56
306.628	3.49
307.003	3.62
307.378	3.87
307.754	3.41
308.129	3.81
308.504	4.26
308.879	3.87
309.254	3.69
309.629	3.76
310.003	3.53
310.378	3.76
310.753	3.12
311.128	3.05
311.502	3.68
311.877	3.83
312.252	3.9
312.626	3.89
313.001	3.63
313.375	3.56
313.75	4.11
314.124	3.74
314.498	3.79
314.873	3.5
315.247	3.88
315.621	3.71
315.995	4.45
316.369	3.9
316.743	3.76
317.117	4.29
317.491	4.44
317.865	4.47
318.239	4.41
318.613	3.78
318.987	4.25
319.361	3.92
319.734	3.89
320.108	4.19
320.482	3.59
320.855	4.43
321.229	4.12
321.602	3.92
321.976	3.89
322.349	4.12
322.723	3.6
323.096	4.47
323.469	4.48
323.843	3.76
324.216	3.76
324.589	4.1
324.962	4.38
325.335	3.71
325.708	4.08
326.081	4.33
326.454	4.12
326.827	3.54
327.2	4.2
327.573	3.72
327.945	3.69
328.318	4.21
328.691	4.21
329.063	3.9
329.436	3.76
329.809	4.07
330.181	4.25
330.553	4.31
330.926	3.94
331.298	4.09
331.671	4.36
332.043	4.05
332.415	3.78
332.787	3.69
333.159	4.03
333.532	4.06
333.904	4.18
334.276	4.21
334.648	4.05
335.02	3.96
335.391	4.32
335.763	4.08
336.135	4.1
336.507	4.41
336.879	4.2
337.25	3.91
337.622	3.97
337.993	4.02
338.365	4.02
338.736	4.35
339.108	3.96
339.479	4.53
339.851	3.71
340.222	4.41
340.593	4.05
340.964	4.2
341.336	4.38
341.707	3.8
342.078	4.31
342.449	4.4
342.82	3.95
343.191	4.22
343.562	4.35
343.933	4.34
344.303	3.85
344.674	4.2
345.045	3.89
345.416	4.26
345.786	4.12
346.157	4.37
346.527	4.04
346.898	4.37
347.268	3.97
347.639	3.6
348.009	4.07
348.38	4.17
348.75	4.22
349.12	4.24
349.49	4.35
349.861	3.85
350.231	3.95
350.601	4.31
350.971	4.41
351.341	4.19
351.711	4.11
352.081	4.07
352.45	4.15
352.82	4.27
353.19	4.1
353.56	3.96
353.929	3.71
354.299	4.41
354.669	4.22
355.038	4.32
355.408	4.49
355.777	3.94
356.147	4.08
356.516	4.66
356.885	3.87
357.254	4.29
357.624	4.4
357.993	3.73
358.362	4.14
358.731	4.02
359.1	3.78
359.469	3.97
359.838	4.36
360.207	4.03
360.576	4.34
360.945	4.38
361.314	3.9
361.682	3.84
362.051	4.3
362.42	3.96
362.788	4.21
363.157	4.01
363.525	3.84
363.894	3.98
364.262	4.2
364.631	4.5
364.999	4.13
365.367	4.27
365.735	4.3
366.104	3.82
366.472	4.34
366.84	4.14
367.208	4.06
367.576	4.47
367.944	4.36
368.312	4
368.68	4.17
369.048	3.85
369.416	4.16
369.783	4.25
370.151	3.93
370.519	4.37
370.886	4.4
371.254	4.24
371.621	4.22
371.989	4.49
372.356	4.31
372.724	4.34
373.091	4.06
373.458	4.12
373.826	4.5
374.193	4.37
374.56	4.23
374.927	4.88
375.294	4.38
375.661	4.03
376.028	4.15
376.395	4.3
376.762	4.26
377.129	4.34
377.496	4.41
377.863	4.28
378.229	4.5
378.596	4.42
378.963	4.4
379.329	4
379.696	4.42
380.062	4.17
380.429	4.36
380.795	4.28
381.161	4.27
381.528	4.42
381.894	4
382.26	4.06
382.626	4.33
382.993	4.36
383.359	4.19
383.725	3.98
384.091	4.28
384.457	4.28
384.823	4.38
385.188	4.28
385.554	4.22
385.92	4.34
386.286	4.23
386.651	4.44
387.017	4.33
387.383	4.16
387.748	3.81
388.114	4.39
388.479	4.34
388.845	4.02
389.21	4.23
389.575	4.43
389.94	4.29
390.306	4.48
390.671	4.28
391.036	4.48
391.401	3.96
391.766	4.33
392.131	4.24
392.496	4.44
392.861	4.21
393.226	4.35
393.591	4.03
393.956	4.49
394.32	4.68
394.685	4.28
395.05	4.21
395.414	4.42
395.779	4.35
396.143	4.4
396.508	4.32
396.872	4.39
397.236	4.3
397.601	4.4
397.965	4.39
398.329	4.17
398.694	4.39
399.058	4.4
399.422	4.22
399.786	4.28
400.15	4.4
400.514	4.39
400.878	4.61
401.242	4.43
401.605	4.26
401.969	4.5
402.333	4.44
402.697	4.31
403.06	4.45
403.424	4.35
403.787	4.62
404.151	4.55
404.514	4.42
404.878	4.29
405.241	4.41
405.604	4.39
405.968	4.34
406.331	4.38
406.694	4.42
407.057	4.51
407.42	4.61
407.783	4.33
408.146	4.31
408.509	4.47
408.872	4.3
409.235	4.46
409.598	4.6
409.961	4.27
410.323	4.39
410.686	4.58
411.049	4.28
411.411	4.41
411.774	4.44
412.136	4.37
412.499	4.37
412.861	4.35
413.223	4.05
413.586	4.44
413.948	4.47
414.31	4.46
414.672	4.58
415.035	4.44
415.397	4.38
415.759	4.56
416.121	4.33
416.483	4.3
416.845	4.46
417.206	4.52
417.568	4.29
417.93	4.3
418.292	4.44
418.653	4.4
419.015	4.43
419.377	4.43
419.738	4.27
420.1	4.39
420.461	4.49
420.822	4.34
421.184	4.28
421.545	4.18
421.906	4.15
422.267	4.25
422.629	4.3
422.99	4.2
423.351	4.27
423.712	4.33
424.073	4.35
424.434	4.31
424.795	4.25
425.155	4.22
425.516	4.27
425.877	4.37
426.238	4.28
426.598	4.38
426.959	4.3
427.32	4.35
427.68	4.46
428.041	4.29
428.401	4.45
428.761	4.58
429.122	4.47
429.482	4.36
429.842	4.46
430.202	4.44
430.563	4.66
430.923	4.3
431.283	4.34
431.643	4.65
432.003	4.45
432.363	4.46
432.722	4.54
433.082	4.58
433.442	4.47
433.802	4.7
434.161	4.4
434.521	4.55
434.881	4.47
435.24	4.54
435.6	4.51
435.959	4.42
436.319	4.53
436.678	4.49
437.037	4.73
437.396	4.63
437.756	4.47
438.115	4.33
438.474	4.46
438.833	4.57
439.192	4.47
439.551	4.45
439.91	4.56
440.269	4.32
440.628	4.44
440.987	4.48
441.345	4.63
441.704	4.56
442.063	4.47
442.421	4.5
442.78	4.56
443.138	4.35
443.497	4.46
443.855	4.64
444.214	4.55
444.572	4.54
444.93	4.51
445.288	4.64
445.647	4.42
446.005	4.6
446.363	4.56
446.721	4.55
447.079	4.49
447.437	4.48
447.795	4.45
448.153	4.48
448.51	4.45
448.868	4.49
449.226	4.57
449.584	4.53
449.941	4.42
450.299	4.64
450.656	4.52
451.014	4.72
451.371	4.53
451.729	4.58
452.086	4.57
452.443	4.73
452.801	4.6
453.158	4.54
453.515	4.58
453.872	4.68
454.229	4.49
454.586	4.7
454.943	4.63
455.3	4.69
455.657	4.58
456.014	4.43
456.371	4.61
456.727	4.56
457.084	4.54
457.441	4.64
457.797	4.6
458.154	4.6
458.51	4.6
458.867	4.68
459.223	4.73
459.58	4.8
459.936	4.78
460.292	4.79
460.648	4.53
461.005	4.49
461.361	4.57
461.717	4.57
462.073	4.59
462.429	4.54
462.785	4.67
463.141	4.73
463.496	4.65
463.852	4.66
464.208	4.74
464.564	4.67
464.919	4.86
465.275	4.76
465.631	4.85
465.986	4.83
466.342	4.76
466.697	4.85
467.052	4.77
467.408	4.64
467.763	4.71
468.118	4.87
468.473	4.9
468.829	4.67
469.184	4.72
469.539	4.82
469.894	4.95
470.249	4.65
470.603	4.75
470.958	4.96
471.313	4.81
471.668	4.85
472.023	4.72
472.377	4.8
472.732	4.97
473.086	4.77
473.441	4.93
473.795	4.77
474.15	4.76
474.504	4.86
474.859	4.83
475.213	4.77
475.567	4.89
475.921	4.91
476.275	4.68
476.63	4.83
476.984	4.86
477.338	4.94
477.692	4.99
478.045	4.83
478.399	4.67
478.753	4.88
479.107	4.66
479.461	4.87
479.814	4.67
480.168	4.8
480.521	4.83
480.875	4.87
481.228	4.74
481.582	4.86
481.935	4.7
482.289	4.9
482.642	4.76
482.995	4.67
483.348	4.76
483.701	4.83
484.055	4.69
484.408	4.75
484.761	4.65
485.114	4.59
485.466	4.46
485.819	4.45
486.172	4.56
486.525	4.61
486.878	4.65
487.23	4.71
487.583	4.73
487.936	4.71
488.288	4.78
488.641	4.63
488.993	4.63
489.345	4.6
489.698	4.62
490.05	4.65
490.402	4.72
490.754	4.73
491.107	4.72
491.459	4.81
491.811	4.75
492.163	4.87
492.515	4.74
492.866	4.72
493.218	4.62
493.57	4.68
493.922	4.71
494.274	4.8
494.625	4.86
494.977	4.92
495.328	4.94
495.68	4.88
496.031	5
496.383	4.96
496.734	5
497.086	5.04
497.437	5.06
497.788	5.03
498.139	4.76
498.49	4.87
498.842	4.92
499.193	5.02
499.544	4.96
499.894	4.99
500.245	4.96
500.596	4.99
500.947	5.05
501.298	5.07
501.648	4.98
501.999	5.02
502.35	5.09
502.7	5.08
503.051	5.06
503.401	5.17
503.752	5.06
504.102	5.28
504.452	5.04
504.803	5.09
505.153	5.16
505.503	5.05
505.853	5.05
506.203	4.97
506.553	5.07
506.903	5.07
507.253	5.05
507.603	5.19
507.953	5.26
508.303	5.19
508.652	5.24
509.002	5.23
509.352	5.18
509.701	5.21
510.051	5.15
510.4	5.06
510.75	5.11
511.099	5.15
511.449	5.14
511.798	5.17
512.147	5.2
512.496	5.22
512.846	5.16
513.195	5.2
513.544	5.22
513.893	5.14
514.242	5.14
514.591	5.25
514.939	5.13
515.288	5.27
515.637	5.06
515.986	5.29
516.334	5.25
516.683	5.15
517.032	5.22
517.38	5.28
517.729	5.27
518.077	5.29
518.426	5.24
518.774	5.33
519.122	5.17
519.47	5.23
519.819	5.17
520.167	5.21
520.515	5.17
520.863	5.18
521.211	5.27
521.559	5.3
521.907	5.29
522.255	5.25
522.602	5.24
522.95	5.3
523.298	5.41
523.645	5.32
523.993	5.43
524.341	5.45
524.688	5.5
525.036	5.35
525.383	5.25
525.73	5.31
526.078	5.45
526.425	5.33
526.772	5.36
527.119	5.13
527.466	5.16
527.814	5.23
528.161	5.27
528.508	5.3
528.854	5.38
529.201	5.19
529.548	5.28
529.895	5.2
530.242	5.18
530.588	5.23
530.935	5.26
531.282	5.31
531.628	5.29
531.975	5.33
532.321	5.38
532.667	5.45
533.014	5.46
533.36	5.38
533.706	5.54
534.052	5.52
534.399	5.41
534.745	5.41
535.091	5.35
535.437	5.39
535.783	5.48
536.129	5.49
536.474	5.42
536.82	5.48
537.166	5.71
537.512	5.58
537.857	5.54
538.203	5.61
538.549	5.5
538.894	5.63
539.239	5.67
539.585	5.7
539.93	5.6
540.276	5.76
540.621	5.85
540.966	5.82
541.311	5.68
541.656	5.71
542.001	5.69
542.346	5.57
542.691	5.62
543.036	5.55
543.381	5.56
543.726	5.6
544.071	5.65
544.415	5.65
544.76	5.71
545.105	5.78
545.449	5.74
545.794	5.77
546.138	5.8
546.483	5.86
546.827	5.85
547.171	5.99
547.516	5.74
547.86	5.89
548.204	5.91
548.548	5.92
548.892	5.94
549.236	5.98
549.58	6.08
549.924	5.88
550.268	6.22
550.612	6.07
550.956	6.12
551.3	6.06
551.643	6.17
551.987	6.03
552.33	6.2
552.674	6.1
553.017	6.22
553.361	6.28
553.704	6.19
554.048	6.27
554.391	6.35
554.734	6.16
555.077	6.34
555.42	6.34
555.764	6.25
556.107	6.49
556.45	6.23
556.793	6.12
557.135	6.28
557.478	6.38
557.821	6.36
558.164	6.6
558.507	6.53
558.849	6.43
559.192	6.55
559.534	6.5
559.877	6.61
560.219	6.46
560.562	6.66
560.904	6.39
561.246	6.55
561.589	6.41
561.931	6.73
562.273	6.58
562.615	6.58
562.957	6.58
563.299	6.67
563.641	6.54
563.983	6.5
564.325	6.63
564.667	6.85
565.008	6.55
565.35	6.57
565.692	6.82
566.033	6.56
566.375	6.67
566.716	6.7
567.058	6.67
567.399	6.71
567.741	6.74
568.082	6.88
568.423	6.94
568.764	6.8
569.105	6.64
569.447	6.81
569.788	6.93
570.129	7.01
570.47	6.9
570.811	6.81
571.151	6.97
571.492	6.82
571.833	6.94
572.174	6.86
572.514	6.88
572.855	6.82
573.195	7.11
573.536	6.94
573.876	7.11
574.217	6.96
574.557	7.05
574.898	7.01
575.238	7.11
575.578	7.29
575.918	7.06
576.258	7.24
576.598	7.23
576.938	7.32
577.278	7.29
577.618	7.31
577.958	7.39
578.298	7.21
578.638	7.42
578.977	7.47
579.317	7.32
579.657	7.28
579.996	7.32
580.336	7.69
580.675	7.57
581.014	7.28
581.354	7.46
581.693	7.45
582.032	7.58
582.372	7.34
582.711	7.35
583.05	7.63
583.389	7.36
583.728	7.83
584.067	7.61
584.406	7.46
584.745	7.6
585.083	7.56
585.422	7.63
585.761	7.71
586.1	7.82
586.438	8.04
586.777	8.31
587.115	7.81
587.454	7.65
587.792	7.59
588.13	7.82
588.469	7.86
588.807	7.83
589.145	7.91
589.483	8.05
589.821	8.01
590.159	8.15
590.497	8.07
590.835	8.1
591.173	8.12
591.511	7.98
591.849	8.16
592.187	8.08
592.524	8.11
592.862	8.37
593.2	8.23
593.537	8.21
593.875	8.33
594.212	8.16
594.55	8.47
594.887	8.64
595.224	8.55
595.561	8.38
595.899	8.23
596.236	8.2
596.573	8.38
596.91	8.4
597.247	8.16
597.584	8.36
597.921	8.25
598.258	8.03
598.594	8.26
598.931	8.58
599.268	8.34
599.604	8.28
599.941	8.33
600.277	8.23
600.614	8.65
600.95	8.73
601.287	8.56
601.623	8.68
601.959	8.6
602.296	8.79
602.632	8.67
602.968	8.84
603.304	8.76
603.64	8.96
603.976	8.55
604.312	8.56
604.648	8.96
604.984	8.77
605.319	8.84
605.655	8.89
605.991	8.79
606.326	8.88
606.662	8.88
606.998	8.68
607.333	8.84
607.668	8.85
608.004	8.94
608.339	8.99
608.674	9.19
609.01	9.03
609.345	8.74
609.68	9.41
610.015	9.25
610.35	9
610.685	9.13
611.02	9.05
611.355	9
611.689	8.93
612.024	9.16
612.359	9.26
612.694	9.39
613.028	9.46
613.363	9.42
613.697	9.31
614.032	9.44
614.366	9.37
614.7	9.19
615.035	9.74
615.369	9.28
615.703	9.51
616.037	9.57
616.371	9.63
616.705	9.44
617.039	9.66
617.373	9.6
617.707	9.6
618.041	9.68
618.375	9.53
618.709	9.75
619.042	9.63
619.376	10.08
619.71	9.7
620.043	10.08
620.377	9.87
620.71	9.73
621.043	10.13
621.377	10
621.71	10.01
622.043	10.02
622.376	9.85
622.709	10.23
623.043	10
623.376	10.08
623.709	9.88
624.041	10.37
624.374	10.17
624.707	10.11
625.04	9.88
625.373	10.59
625.705	9.87
626.038	10.11
626.37	10.37
626.703	10.4
627.035	10.31
627.368	10.38
627.7	10.36
628.032	10.03
628.365	10.39
628.697	10.41
629.029	10.04
629.361	10.21
629.693	10.52
630.025	10.46
630.357	10.59
630.689	10.59
631.021	10.27
631.353	10.68
631.684	10.65
632.016	10.69
632.348	10.4
632.679	10.63
633.011	10.73
633.342	10.3
633.674	11.34
634.005	10.52
634.336	10.89
634.668	11.08
634.999	10.97
635.33	11.23
635.661	11.01
635.992	10.68
636.323	11.11
636.654	10.78
636.985	10.59
637.316	11.09
637.647	10.97
637.977	11.27
638.308	10.6
638.639	10.75
638.969	11.05
639.3	11.36
639.63	10.96
639.961	11.28
640.291	11.16
640.622	11.1
640.952	11.39
641.282	11.33
641.612	11.35
641.943	11.32
642.273	11.5
642.603	11.3
642.933	11.31
643.263	11.58
643.592	11.43
643.922	11.4
644.252	11.57
644.582	11.73
644.911	11.64
645.241	11.66
645.571	11.36
645.9	11.27
646.23	11.51
646.559	11.42
646.888	11.41
647.218	11.13
647.547	11.64
647.876	11.97
648.205	11.28
648.534	11.34
648.863	11.98
649.192	11.87
649.521	11.8
649.85	11.97
650.179	11.84
650.508	11.87
650.837	11.95
651.165	11.74
651.494	11.96
651.822	12.27
652.151	12.34
652.479	12.47
652.808	12.13
653.136	12.3
653.465	12.01
653.793	12.19
654.121	11.85
654.449	12.28
654.777	12.33
655.105	12.96
655.433	12.45
655.761	12.93
656.089	12.47
656.417	11.91
656.745	12.74
657.073	12.13
657.4	12.73
657.728	12.98
658.056	12.59
658.383	12.74
658.711	12.79
659.038	12.34
659.365	12.24
659.693	12.19
660.02	12.47
660.347	12.46
660.674	12.69
661.001	12.92
661.329	12.98
661.656	12.64
661.982	12.45
662.309	12.9
662.636	12.95
662.963	12.61
663.29	12.2
663.616	12.43
663.943	12.92
664.27	12.64
664.596	12.65
664.923	13.11
665.249	13.33
665.576	13.08
665.902	12.97
666.228	13.71
666.554	13.47
666.881	13.42
667.207	13.26
667.533	13.26
667.859	13.35
668.185	13.14
668.511	13.29
668.837	13.32
669.162	13.72
669.488	13.33
669.814	13.68
670.139	13.19
670.465	13.82
670.791	13.53
671.116	13.48
671.442	13.73
671.767	13.6
672.092	13.43
672.418	13.78
672.743	13.78
673.068	13.79
673.393	14.15
673.718	12.92
674.043	13.96
674.368	14.15
674.693	13.41
675.018	13.48
675.343	13.8
675.667	13.96
675.992	13.84
676.317	14.05
676.641	14.08
676.966	13.55
677.29	13.82
677.615	13.75
677.939	13.79
678.264	13.73
678.588	13.71
678.912	14.01
679.236	13.79
679.56	14.43
679.885	14.64
680.209	14.02
680.532	14.08
680.856	14.34
681.18	14.63
681.504	14.19
681.828	14.12
682.152	13.96
682.475	14.52
682.799	14.31
683.122	14.08
683.446	14.19
683.769	14.79
684.093	14.88
684.416	15.15
684.739	14.08
685.062	14.89
685.386	14.82
685.709	13.92
686.032	14.76
686.355	14.62
686.678	14.69
687.001	15.08
687.324	14.69
687.646	14.88
687.969	14.46
