Data from 1897-1_chest_Reflection__3__34.txt Node

Date: Fri Sep 30 18:01:06 CDT 2022
User: ToomeyLab
Spectrometer: FLMS14357
Trigger mode: 0
Integration Time (sec): 1.000000E-2
Scans to average: 100
Electric dark correction enabled: true
Nonlinearity correction enabled: false
Boxcar width: 0
XAxis mode: Wavelengths
Number of Pixels in Spectrum: 2048
>>>>>Begin Spectral Data<<<<<
189.047	-245.19
189.435	-245.19
189.823	-245.19
190.211	3.66
190.599	44.6
190.987	-122.42
191.375	73.21
191.763	53.63
192.151	-56.47
192.538	72.66
192.926	-179.03
193.314	13.18
193.702	1857.8
194.089	186.43
194.477	50.44
194.864	50.93
195.252	-190.8
195.639	-35.98
196.027	-1423.4
196.414	19.02
196.801	219.7
197.189	-22.43
197.576	114.78
197.963	2.55
198.351	20.08
198.738	-47.95
199.125	38.95
199.512	12.4
199.899	15.28
200.286	5.7
200.673	46.25
201.06	19.44
201.447	7.3
201.833	44.7
202.22	52.82
202.607	43.14
202.994	67.46
203.38	11.02
203.767	-11.38
204.154	41.39
204.54	38.8
204.927	34.16
205.313	13.05
205.699	55.29
206.086	-42.02
206.472	-9.7
206.858	48.1
207.245	-8.45
207.631	4.34
208.017	5.64
208.403	14.5
208.789	-3.25
209.175	18.56
209.561	11.59
209.947	-9.37
210.333	-20.8
210.719	-2.56
211.105	2.91
211.491	-0.52
211.876	-9.89
212.262	23.78
212.648	26.31
213.034	-18.12
213.419	18.93
213.805	-16.84
214.19	21
214.576	19.01
214.961	10.92
215.346	18.09
215.732	21.99
216.117	-16.01
216.502	9.3
216.888	35.1
217.273	-1.45
217.658	24.51
218.043	3.26
218.428	0.33
218.813	20.47
219.198	10.07
219.583	31.1
219.968	8.36
220.353	6.02
220.738	30.18
221.122	9.12
221.507	30.06
221.892	13.64
222.276	-5.27
222.661	12.46
223.046	10
223.43	4.41
223.815	2.07
224.199	12.91
224.583	2.85
224.968	4.76
225.352	6.67
225.736	10.83
226.121	9.49
226.505	3.47
226.889	10.6
227.273	0.05
227.657	10.72
228.041	6.04
228.425	6.13
228.809	8.49
229.193	7.95
229.577	3.41
229.961	6.91
230.344	4.94
230.728	4.67
231.112	5.27
231.495	5.69
231.879	6.5
232.263	2.76
232.646	4.55
233.03	5.82
233.413	6.84
233.797	4.61
234.18	4.78
234.563	4.58
234.946	7.05
235.33	5.62
235.713	5.95
236.096	6.13
236.479	5.64
236.862	5.6
237.245	5.7
237.628	5.1
238.011	4.65
238.394	6.15
238.777	3.54
239.16	3.87
239.543	4.78
239.925	4.48
240.308	3.28
240.691	6.71
241.073	6.34
241.456	6.18
241.838	5.74
242.221	4.98
242.603	5.02
242.986	5.48
243.368	3.97
243.75	4.88
244.133	5.46
244.515	5.37
244.897	5.44
245.279	5.89
245.661	5.62
246.043	5.48
246.425	4.48
246.807	5.19
247.189	5.77
247.571	5.52
247.953	5.55
248.335	5.03
248.717	5.21
249.098	5.22
249.48	5.3
249.862	5.09
250.243	4.8
250.625	5.92
251.006	5.18
251.388	4.16
251.769	6.11
252.151	4.63
252.532	5.76
252.913	4.08
253.295	4.98
253.676	4.64
254.057	5.39
254.438	4.99
254.819	6.14
255.2	4.81
255.581	6.52
255.962	5.7
256.343	5.32
256.724	4.47
257.105	5.1
257.486	5.63
257.867	5.96
258.247	5.14
258.628	4.9
259.009	5.94
259.389	4.9
259.77	5.42
260.15	4.72
260.531	5.6
260.911	5.14
261.292	4.88
261.672	4.7
262.052	4.73
262.432	4.81
262.813	5.44
263.193	4.88
263.573	4.88
263.953	4.55
264.333	5.38
264.713	4.66
265.093	5.11
265.473	5.07
265.853	4.96
266.233	4.4
266.612	4.43
266.992	4.36
267.372	4.32
267.752	4.28
268.131	5.07
268.511	4.81
268.89	4.45
269.27	4.82
269.649	4.89
270.029	4.81
270.408	4.18
270.787	4.8
271.167	5.17
271.546	5.16
271.925	5
272.304	4.56
272.683	4.75
273.062	4.87
273.441	4.95
273.82	4.31
274.199	4.51
274.578	4.64
274.957	4.67
275.336	4.49
275.715	4.83
276.093	4.92
276.472	4.42
276.851	4.9
277.229	4.94
277.608	4.35
277.986	4.77
278.365	4.57
278.743	4.67
279.122	5.03
279.5	4.82
279.878	4.65
280.257	4.8
280.635	4.81
281.013	5.68
281.391	4.31
281.769	4.55
282.147	4.48
282.525	5.1
282.903	4.4
283.281	4.36
283.659	5.02
284.037	4.45
284.415	4.57
284.792	5
285.17	4.59
285.548	4.6
285.925	4.94
286.303	4.84
286.68	4.31
287.058	4.61
287.435	5.03
287.813	4.6
288.19	4.94
288.567	4.51
288.945	4.16
289.322	4.13
289.699	4.38
290.076	4.62
290.453	4.64
290.83	4.85
291.207	4.42
291.584	4.54
291.961	4.4
292.338	4.77
292.715	4.71
293.092	4.48
293.469	4.72
293.845	5.54
294.222	4.75
294.599	5.45
294.975	5.08
295.352	5.52
295.728	4.97
296.105	4.78
296.481	5.3
296.858	5.28
297.234	5.34
297.61	4.96
297.986	5.11
298.363	5.21
298.739	5.06
299.115	5.12
299.491	5.3
299.867	5.38
300.243	4.94
300.619	5.14
300.995	5.49
301.371	5.45
301.746	5.15
302.122	5.7
302.498	5.31
302.874	5.45
303.249	5.45
303.625	5.76
304	5.83
304.376	5.55
304.751	5.05
305.127	5.45
305.502	5.43
305.878	5.74
306.253	4.94
306.628	5.51
307.003	5.15
307.378	5.5
307.754	5.22
308.129	5.72
308.504	5.32
308.879	5.21
309.254	5.09
309.629	5.57
310.003	5.63
310.378	5.43
310.753	5.66
311.128	5.69
311.502	5.71
311.877	5.56
312.252	5.85
312.626	5.67
313.001	5.58
313.375	5.33
313.75	6
314.124	6.06
314.498	5.23
314.873	5.54
315.247	5.12
315.621	6.18
315.995	5.89
316.369	5.18
316.743	5.58
317.117	6.1
317.491	6.3
317.865	6.1
318.239	6.41
318.613	5.93
318.987	5.55
319.361	6.01
319.734	5.4
320.108	6.27
320.482	6.02
320.855	5.69
321.229	6.41
321.602	5.66
321.976	6.02
322.349	6.13
322.723	5.61
323.096	6.09
323.469	6.5
323.843	5.86
324.216	5.73
324.589	6.43
324.962	5.71
325.335	5.63
325.708	6.06
326.081	5.92
326.454	5.82
326.827	5.92
327.2	5.77
327.573	5.95
327.945	6.41
328.318	5.93
328.691	6.19
329.063	6.11
329.436	6.13
329.809	6.78
330.181	6.71
330.553	6.7
330.926	6.16
331.298	5.87
331.671	6.69
332.043	5.7
332.415	5.56
332.787	6.14
333.159	6.23
333.532	6.18
333.904	6.25
334.276	6.53
334.648	5.77
335.02	6.57
335.391	6.33
335.763	5.98
336.135	6.11
336.507	6.45
336.879	6.41
337.25	5.73
337.622	6.48
337.993	5.93
338.365	5.87
338.736	5.95
339.108	6.3
339.479	6.35
339.851	5.89
340.222	6.09
340.593	6.14
340.964	5.96
341.336	6.4
341.707	6.2
342.078	5.94
342.449	6.33
342.82	6.41
343.191	6.21
343.562	6.1
343.933	6.25
344.303	6.26
344.674	6.47
345.045	5.93
345.416	6.17
345.786	6.17
346.157	6.71
346.527	6.26
346.898	6
347.268	5.71
347.639	5.99
348.009	6.41
348.38	6.7
348.75	6.55
349.12	6.28
349.49	6.23
349.861	6.3
350.231	6.19
350.601	6.5
350.971	5.92
351.341	6.38
351.711	5.96
352.081	6.55
352.45	6.38
352.82	6.52
353.19	6.68
353.56	6.09
353.929	5.95
354.299	6.51
354.669	5.88
355.038	6.18
355.408	6.56
355.777	5.9
356.147	6.48
356.516	6.41
356.885	5.91
357.254	6.38
357.624	6.15
357.993	5.94
358.362	6.49
358.731	6.26
359.1	5.89
359.469	5.83
359.838	6.53
360.207	6.12
360.576	6.3
360.945	6.25
361.314	6.34
361.682	6.29
362.051	6.34
362.42	6.33
362.788	6.19
363.157	6.19
363.525	6.17
363.894	6.25
364.262	6.48
364.631	6.37
364.999	6.27
365.367	6.45
365.735	6.16
366.104	6.09
366.472	6.43
366.84	6.72
367.208	6.16
367.576	6.73
367.944	6.19
368.312	5.97
368.68	5.93
369.048	6.18
369.416	6.45
369.783	6.29
370.151	6.23
370.519	6.22
370.886	6.43
371.254	6.22
371.621	6.36
371.989	6.68
372.356	6.4
372.724	6.54
373.091	6.24
373.458	6.38
373.826	6.4
374.193	6.64
374.56	6.48
374.927	6.76
375.294	6.67
375.661	5.8
376.028	6.75
376.395	6.52
376.762	6.35
377.129	6.8
377.496	6.6
377.863	6.22
378.229	6.49
378.596	6.41
378.963	6.35
379.329	6.28
379.696	6.74
380.062	6.58
380.429	6.62
380.795	6.64
381.161	6.26
381.528	6.49
381.894	6.24
382.26	6.39
382.626	6.04
382.993	6.53
383.359	6.31
383.725	6.61
384.091	6.41
384.457	6.64
384.823	6.87
385.188	6.52
385.554	6.73
385.92	6.49
386.286	6.73
386.651	6.55
387.017	6.51
387.383	6.33
387.748	6.1
388.114	6.49
388.479	6.64
388.845	6.21
389.21	6.6
389.575	6.35
389.94	6.44
390.306	6.5
390.671	6.68
391.036	6.76
391.401	6.33
391.766	6.77
392.131	6.22
392.496	6.62
392.861	6.54
393.226	6.59
393.591	6.47
393.956	6.57
394.32	6.67
394.685	6.52
395.05	6.53
395.414	6.35
395.779	6.45
396.143	6.75
396.508	6.53
396.872	6.9
397.236	6.75
397.601	6.57
397.965	6.59
398.329	6.73
398.694	6.89
399.058	6.5
399.422	6.62
399.786	6.55
400.15	6.66
400.514	6.56
400.878	6.89
401.242	6.55
401.605	6.57
401.969	6.72
402.333	6.55
402.697	6.8
403.06	6.73
403.424	6.73
403.787	6.85
404.151	6.8
404.514	6.75
404.878	6.64
405.241	6.83
405.604	6.85
405.968	6.57
406.331	6.59
406.694	6.51
407.057	6.57
407.42	6.66
407.783	6.49
408.146	6.46
408.509	6.69
408.872	6.69
409.235	6.56
409.598	6.5
409.961	6.2
410.323	6.74
410.686	6.8
411.049	6.66
411.411	6.57
411.774	6.8
412.136	6.69
412.499	6.72
412.861	6.67
413.223	6.56
413.586	6.6
413.948	6.92
414.31	6.72
414.672	6.71
415.035	6.85
415.397	6.78
415.759	6.78
416.121	6.59
416.483	6.68
416.845	6.84
417.206	6.95
417.568	6.64
417.93	6.51
418.292	6.68
418.653	6.72
419.015	6.75
419.377	6.62
419.738	6.56
420.1	6.56
420.461	6.67
420.822	6.56
421.184	6.63
421.545	6.54
421.906	6.51
422.267	6.48
422.629	6.52
422.99	6.6
423.351	6.51
423.712	6.56
424.073	6.52
424.434	6.66
424.795	6.54
425.155	6.61
425.516	6.62
425.877	6.7
426.238	6.52
426.598	6.59
426.959	6.6
427.32	6.73
427.68	6.76
428.041	6.61
428.401	6.74
428.761	6.86
429.122	6.84
429.482	6.89
429.842	6.81
430.202	6.81
430.563	6.92
430.923	6.72
431.283	6.63
431.643	6.85
432.003	6.79
432.363	6.75
432.722	6.92
433.082	6.95
433.442	6.94
433.802	6.75
434.161	6.87
434.521	6.91
434.881	6.76
435.24	6.76
435.6	6.88
435.959	6.91
436.319	6.96
436.678	6.75
437.037	7.11
437.396	7.03
437.756	7.01
438.115	6.82
438.474	6.9
438.833	6.85
439.192	6.97
439.551	6.88
439.91	6.99
440.269	6.81
440.628	7
440.987	6.91
441.345	6.89
441.704	6.91
442.063	6.83
442.421	6.82
442.78	7.01
443.138	6.8
443.497	6.96
443.855	6.96
444.214	6.92
444.572	7.08
444.93	6.87
445.288	6.96
445.647	6.9
446.005	6.94
446.363	7.04
446.721	6.93
447.079	6.84
447.437	6.86
447.795	6.78
448.153	6.81
448.51	6.83
448.868	6.82
449.226	6.78
449.584	6.83
449.941	6.85
450.299	6.92
450.656	6.96
451.014	7.14
451.371	6.99
451.729	7.14
452.086	7.04
452.443	7.14
452.801	6.99
453.158	6.95
453.515	7.05
453.872	7.19
454.229	7.01
454.586	7
454.943	7.1
455.3	7.11
455.657	7.12
456.014	7.04
456.371	7.11
456.727	7.04
457.084	6.97
457.441	7.09
457.797	7.07
458.154	6.83
458.51	7.02
458.867	7.18
459.223	7.15
459.58	7.2
459.936	7.07
460.292	7.08
460.648	6.97
461.005	7.12
461.361	7.14
461.717	6.97
462.073	7.02
462.429	7.08
462.785	7.09
463.141	7
463.496	7.15
463.852	7.01
464.208	7.22
464.564	7.18
464.919	7.21
465.275	7.24
465.631	7.24
465.986	7.22
466.342	7.23
466.697	7.35
467.052	7.27
467.408	7.24
467.763	7.13
468.118	7.33
468.473	7.28
468.829	7.03
469.184	7.29
469.539	7.35
469.894	7.22
470.249	7.16
470.603	7.27
470.958	7.37
471.313	7.27
471.668	7.18
472.023	7.21
472.377	7.36
472.732	7.21
473.086	7.22
473.441	7.44
473.795	7.34
474.15	7.25
474.504	7.35
474.859	7.42
475.213	7.24
475.567	7.33
475.921	7.24
476.275	7.33
476.63	7.4
476.984	7.21
477.338	7.14
477.692	7.32
478.045	7.36
478.399	7.3
478.753	7.43
479.107	7.23
479.461	7.29
479.814	7.2
480.168	7.35
480.521	7.39
480.875	7.4
481.228	7.35
481.582	7.43
481.935	7.33
482.289	7.34
482.642	7.43
482.995	7.32
483.348	7.31
483.701	7.37
484.055	7.21
484.408	7.24
484.761	7.1
485.114	7.02
485.466	7.01
485.819	6.94
486.172	7.01
486.525	7.1
486.878	7.1
487.23	7.16
487.583	7.15
487.936	7.28
488.288	7.26
488.641	7.15
488.993	7.15
489.345	7.08
489.698	7.15
490.05	7.19
490.402	7.19
490.754	7.26
491.107	7.25
491.459	7.22
491.811	7.29
492.163	7.41
492.515	7.37
492.866	7.36
493.218	7.22
493.57	7.2
493.922	7.19
494.274	7.28
494.625	7.34
494.977	7.53
495.328	7.55
495.68	7.57
496.031	7.62
496.383	7.56
496.734	7.62
497.086	7.68
497.437	7.59
497.788	7.63
498.139	7.58
498.49	7.5
498.842	7.56
499.193	7.61
499.544	7.56
499.894	7.61
500.245	7.5
500.596	7.5
500.947	7.58
501.298	7.71
501.648	7.62
501.999	7.72
502.35	7.72
502.7	7.78
503.051	7.73
503.401	7.81
503.752	7.7
504.102	7.86
504.452	7.74
504.803	7.78
505.153	7.83
505.503	7.7
505.853	7.72
506.203	7.6
506.553	7.78
506.903	7.91
507.253	7.78
507.603	7.71
507.953	7.95
508.303	7.84
508.652	7.87
509.002	7.83
509.352	7.86
509.701	7.88
510.051	7.84
510.4	7.79
510.75	7.76
511.099	7.73
511.449	7.81
511.798	7.79
512.147	7.81
512.496	7.85
512.846	7.74
513.195	7.92
513.544	7.89
513.893	7.91
514.242	7.9
514.591	7.92
514.939	7.83
515.288	7.98
515.637	7.77
515.986	7.98
516.334	8.01
516.683	7.9
517.032	7.94
517.38	7.91
517.729	8.05
518.077	8.1
518.426	8
518.774	8.13
519.122	7.92
519.47	7.92
519.819	7.94
520.167	8.01
520.515	7.88
520.863	7.96
521.211	7.92
521.559	8
521.907	8.1
522.255	8.04
522.602	8.09
522.95	8.05
523.298	8.14
523.645	8.12
523.993	8.29
524.341	8.27
524.688	8.09
525.036	8.11
525.383	8.13
525.73	8.18
526.078	8.25
526.425	8.18
526.772	8.14
527.119	8.01
527.466	7.96
527.814	8.08
528.161	8.03
528.508	8.14
528.854	8.1
529.201	8.14
529.548	8.02
529.895	7.92
530.242	7.91
530.588	7.97
530.935	7.95
531.282	7.97
531.628	8
531.975	8.06
532.321	8.11
532.667	8.24
533.014	8.21
533.36	8.24
533.706	8.41
534.052	8.22
534.399	8.24
534.745	8.24
535.091	8.13
535.437	8.23
535.783	8.27
536.129	8.32
536.474	8.3
536.82	8.33
537.166	8.52
537.512	8.41
537.857	8.51
538.203	8.49
538.549	8.41
538.894	8.55
539.239	8.45
539.585	8.53
539.93	8.63
540.276	8.62
540.621	8.79
540.966	8.72
541.311	8.64
541.656	8.68
542.001	8.66
542.346	8.65
542.691	8.49
543.036	8.51
543.381	8.46
543.726	8.47
544.071	8.55
544.415	8.55
544.76	8.62
545.105	8.67
545.449	8.67
545.794	8.8
546.138	8.76
546.483	8.83
546.827	8.8
547.171	8.9
547.516	8.79
547.86	8.92
548.204	8.98
548.548	8.86
548.892	8.85
549.236	8.84
549.58	8.96
549.924	8.93
550.268	9.17
550.612	9.15
550.956	9.16
551.3	9.21
551.643	9.28
551.987	9.24
552.33	9.35
552.674	9.31
553.017	9.17
553.361	9.25
553.704	9.24
554.048	9.17
554.391	9.29
554.734	9.24
555.077	9.42
555.42	9.31
555.764	9.26
556.107	9.34
556.45	9.49
556.793	9.25
557.135	9.47
557.478	9.52
557.821	9.51
558.164	9.61
558.507	9.64
558.849	9.58
559.192	9.49
559.534	9.46
559.877	9.57
560.219	9.52
560.562	9.52
560.904	9.54
561.246	9.83
561.589	9.58
561.931	9.81
562.273	9.53
562.615	9.67
562.957	9.85
563.299	9.82
563.641	9.61
563.983	9.55
564.325	9.92
564.667	10.01
565.008	9.74
565.35	9.75
565.692	10.01
566.033	9.62
566.375	9.83
566.716	10.04
567.058	9.82
567.399	9.95
567.741	9.83
568.082	9.98
568.423	10.03
568.764	9.93
569.105	9.94
569.447	9.98
569.788	10.26
570.129	9.99
570.47	10.06
570.811	10.02
571.151	10.03
571.492	10.12
571.833	10.06
572.174	9.95
572.514	10.09
572.855	10.03
573.195	10.24
573.536	10.24
573.876	10.32
574.217	10.27
574.557	10.28
574.898	10.47
575.238	10.36
575.578	10.44
575.918	10.32
576.258	10.45
576.598	10.45
576.938	10.44
577.278	10.44
577.618	10.51
577.958	10.52
578.298	10.6
578.638	10.6
578.977	10.54
579.317	10.64
579.657	10.7
579.996	10.5
580.336	10.83
580.675	10.74
581.014	10.7
581.354	10.72
581.693	10.78
582.032	10.94
582.372	10.6
582.711	10.83
583.05	10.97
583.389	10.86
583.728	10.84
584.067	10.83
584.406	10.69
584.745	10.84
585.083	11.08
585.422	11.11
585.761	11.08
586.1	10.95
586.438	11.21
586.777	11.21
587.115	11.51
587.454	11.34
587.792	11
588.13	11.24
588.469	11.37
588.807	11.36
589.145	11.17
589.483	11.5
589.821	11.25
590.159	11.51
590.497	11.35
590.835	11.38
591.173	11.11
591.511	11.62
591.849	11.5
592.187	11.47
592.524	11.29
592.862	11.63
593.2	11.42
593.537	11.64
593.875	11.67
594.212	11.63
594.55	11.6
594.887	11.96
595.224	11.81
595.561	11.78
595.899	11.64
596.236	11.79
596.573	11.73
596.91	11.81
597.247	11.7
597.584	11.81
597.921	11.7
598.258	11.64
598.594	11.8
598.931	11.91
599.268	11.74
599.604	11.76
599.941	11.67
600.277	11.98
600.614	12.28
600.95	12.28
601.287	12.27
601.623	12.11
601.959	12.17
602.296	12.4
602.632	11.94
602.968	12.21
603.304	12.14
603.64	12.39
603.976	12.06
604.312	12.18
604.648	12.48
604.984	12.34
605.319	12.42
605.655	12.39
605.991	12.27
606.326	12.5
606.662	12.33
606.998	12.17
607.333	12.28
607.668	12.37
608.004	12.57
608.339	12.55
608.674	12.94
609.01	12.55
609.345	12.7
609.68	12.94
610.015	12.85
610.35	12.71
610.685	12.49
611.02	12.9
611.355	12.55
611.689	12.53
612.024	12.73
612.359	12.6
612.694	12.87
613.028	12.93
613.363	12.77
613.697	12.98
614.032	13.04
614.366	12.75
614.7	13.05
615.035	13.15
615.369	13.16
615.703	13.34
616.037	13.26
616.371	13.07
616.705	12.99
617.039	13.44
617.373	13.29
617.707	13.09
618.041	13.23
618.375	13.11
618.709	13.4
619.042	13.13
619.376	13.38
619.71	13.22
620.043	13.64
620.377	13.72
620.71	13.31
621.043	13.76
621.377	13.51
621.71	13.33
622.043	13.72
622.376	13.72
622.709	13.52
623.043	13.82
623.376	13.61
623.709	13.76
624.041	13.62
624.374	13.7
624.707	13.34
625.04	13.7
625.373	13.96
625.705	14.11
626.038	13.76
626.37	13.93
626.703	14.43
627.035	14.16
627.368	13.76
627.7	14.2
628.032	14.11
628.365	13.67
628.697	14.16
629.029	14.11
629.361	14.03
629.693	14.25
630.025	14.07
630.357	14.22
630.689	14.34
631.021	14.01
631.353	13.95
631.684	14.38
632.016	14.49
632.348	14.19
632.679	14.41
633.011	14.43
633.342	14.23
633.674	14.51
634.005	14.52
634.336	14.97
634.668	14.86
634.999	14.46
635.33	14.64
635.661	14.75
635.992	14.14
636.323	14.51
636.654	14.37
636.985	14.64
637.316	14.71
637.647	14.48
637.977	14.9
638.308	14.61
638.639	14.59
638.969	14.7
639.3	14.65
639.63	14.58
639.961	14.94
640.291	14.73
640.622	14.9
640.952	15.05
641.282	15.05
641.612	15.35
641.943	15.09
642.273	15.04
642.603	15.19
642.933	15.18
643.263	15.35
643.592	15.13
643.922	14.9
644.252	15.71
644.582	15.5
644.911	15.84
645.241	15.22
645.571	15.41
645.9	14.98
646.23	15.52
646.559	15.4
646.888	15.48
647.218	15.1
647.547	15.3
647.876	15.54
648.205	15.57
648.534	15.79
648.863	15.67
649.192	15.2
649.521	15.47
649.85	15.66
650.179	15.78
650.508	15.91
650.837	15.87
651.165	16.06
651.494	16.01
651.822	16.25
652.151	15.51
652.479	15.78
652.808	16.09
653.136	15.6
653.465	15.92
653.793	16.04
654.121	15.78
654.449	15.92
654.777	15.85
655.105	16.43
655.433	16.26
655.761	16.47
656.089	16.48
656.417	15.99
656.745	16.16
657.073	16.06
657.4	16.55
657.728	16.36
658.056	16.69
658.383	16.58
658.711	16.49
659.038	16.45
659.365	16.3
659.693	16.4
660.02	16.35
660.347	16.46
660.674	16.74
661.001	16.54
661.329	16.98
661.656	16.59
661.982	16.89
662.309	17.14
662.636	16.3
662.963	16.81
663.29	16.35
663.616	16.95
663.943	16.55
664.27	16.11
664.596	16.52
664.923	16.98
665.249	16.96
665.576	17.17
665.902	16.91
666.228	17.71
666.554	17.4
666.881	16.97
667.207	17.17
667.533	17.24
667.859	17.48
668.185	16.8
668.511	16.9
668.837	17.06
669.162	17.52
669.488	17.52
669.814	17.35
670.139	16.88
670.465	18.21
670.791	17.95
671.116	17.32
671.442	17.51
671.767	18.01
672.092	17.43
672.418	17.71
672.743	17.24
673.068	17.57
673.393	17.78
673.718	17.32
674.043	17.88
674.368	17.67
674.693	17.46
675.018	17.76
675.343	18.26
675.667	18.22
675.992	17.91
676.317	18.17
676.641	17.6
676.966	16.99
677.29	17.51
677.615	17.59
677.939	18.32
678.264	17.99
678.588	17.85
678.912	18.55
679.236	17.85
679.56	18.02
679.885	18.45
680.209	17.74
680.532	18.32
680.856	17.53
681.18	18.03
681.504	18.01
681.828	18.31
682.152	18.06
682.475	18.04
682.799	18.27
683.122	17.94
683.446	18.38
683.769	18.41
684.093	18.74
684.416	19.07
684.739	18.32
685.062	19.02
