Data from 1897-1_forehead_Reflection__1__37.txt Node

Date: Fri Sep 30 18:03:38 CDT 2022
User: ToomeyLab
Spectrometer: FLMS14357
Trigger mode: 0
Integration Time (sec): 1.000000E-2
Scans to average: 100
Electric dark correction enabled: true
Nonlinearity correction enabled: false
Boxcar width: 0
XAxis mode: Wavelengths
Number of Pixels in Spectrum: 2048
>>>>>Begin Spectral Data<<<<<
189.047	70.83
189.435	70.83
189.823	70.83
190.211	-196.48
190.599	27.13
190.987	-193.36
191.375	177.33
191.763	31.01
192.151	96.66
192.538	123.62
192.926	-148.42
193.314	-14.03
193.702	1448.01
194.089	-340.39
194.477	-44.74
194.864	74.78
195.252	150.47
195.639	-49.48
196.027	-1059.88
196.414	-68.39
196.801	127.37
197.189	20.94
197.576	80.73
197.963	-94.01
198.351	74.17
198.738	48.06
199.125	66.45
199.512	26.19
199.899	10.08
200.286	18.35
200.673	26.15
201.06	54.68
201.447	32.55
201.833	14.81
202.22	39.22
202.607	19.77
202.994	42.63
203.38	40.6
203.767	40.86
204.154	31.26
204.54	23.13
204.927	41.4
205.313	3.92
205.699	29.35
206.086	7.07
206.472	28.34
206.858	11.38
207.245	26.48
207.631	-3.14
208.017	-22.39
208.403	33.19
208.789	2.22
209.175	51.6
209.561	2.29
209.947	5.03
210.333	14.31
210.719	-15.29
211.105	9.41
211.491	3.65
211.876	33.32
212.262	26.87
212.648	54.47
213.034	-8.31
213.419	30.19
213.805	18.18
214.19	3.42
214.576	8
214.961	5.8
215.346	8.26
215.732	7.71
216.117	9.03
216.502	24.13
216.888	13.63
217.273	-4.82
217.658	28.36
218.043	21.95
218.428	23.56
218.813	18.21
219.198	28.08
219.583	12.57
219.968	18.27
220.353	9.27
220.738	16.62
221.122	17.22
221.507	21.33
221.892	6.2
222.276	0.56
222.661	9.18
223.046	-7.92
223.43	-2.93
223.815	11.97
224.199	2.7
224.583	5.63
224.968	2.29
225.352	9.59
225.736	7.66
226.121	6.4
226.505	8.3
226.889	4.1
227.273	-1.21
227.657	7.47
228.041	4.53
228.425	5.86
228.809	4.17
229.193	6.04
229.577	0.21
229.961	1.86
230.344	1.69
230.728	2.11
231.112	2.51
231.495	1.1
231.879	3.93
232.263	2.55
232.646	1.84
233.03	3.5
233.413	2.74
233.797	3.63
234.18	2.23
234.563	4.51
234.946	1.76
235.33	2.49
235.713	3.04
236.096	3.1
236.479	2.22
236.862	2.08
237.245	3.14
237.628	2.09
238.011	4.5
238.394	1.93
238.777	1.54
239.16	0.82
239.543	2.95
239.925	2.03
240.308	1.88
240.691	1.83
241.073	2.35
241.456	2.28
241.838	2.45
242.221	1.96
242.603	3.43
242.986	2.85
243.368	1.49
243.75	1.77
244.133	2.9
244.515	2.23
244.897	2.34
245.279	2.64
245.661	2.74
246.043	2.23
246.425	1.61
246.807	2.35
247.189	2.89
247.571	2.39
247.953	2.45
248.335	1.94
248.717	1.99
249.098	2.5
249.48	2.43
249.862	2.18
250.243	2.13
250.625	2.31
251.006	2.48
251.388	0.89
251.769	2.99
252.151	2.08
252.532	2.76
252.913	2.19
253.295	2.41
253.676	1.81
254.057	2.47
254.438	2.08
254.819	2.8
255.2	2.6
255.581	2.98
255.962	2.29
256.343	3.06
256.724	2.13
257.105	3.61
257.486	3.29
257.867	2.69
258.247	1.2
258.628	2.5
259.009	3.24
259.389	2.32
259.77	2.9
260.15	1.88
260.531	2.62
260.911	2.14
261.292	1.95
261.672	1.99
262.052	2.02
262.432	2.26
262.813	2.58
263.193	2.74
263.573	2.23
263.953	1.7
264.333	3.1
264.713	1.53
265.093	2.03
265.473	2.21
265.853	2.21
266.233	2.2
266.612	2.65
266.992	1.73
267.372	1.47
267.752	1.95
268.131	1.81
268.511	2.05
268.89	2.03
269.27	2.19
269.649	1.97
270.029	2.89
270.408	2.4
270.787	2.09
271.167	1.76
271.546	2.67
271.925	2.6
272.304	2.45
272.683	2.04
273.062	2.28
273.441	1.96
273.82	1.52
274.199	2.01
274.578	1.87
274.957	2.03
275.336	1.78
275.715	1.98
276.093	2.31
276.472	2.32
276.851	1.61
277.229	2.11
277.608	1.74
277.986	1.9
278.365	2.55
278.743	2.09
279.122	2.33
279.5	1.81
279.878	2.24
280.257	2.35
280.635	1.96
281.013	3.32
281.391	2.32
281.769	2.19
282.147	1.97
282.525	2.19
282.903	2.2
283.281	1.87
283.659	1.57
284.037	2.02
284.415	2.19
284.792	2.39
285.17	1.75
285.548	2.1
285.925	2.37
286.303	1.86
286.68	1.69
287.058	1.73
287.435	1.79
287.813	1.89
288.19	2.28
288.567	2.16
288.945	1.86
289.322	2.17
289.699	2.67
290.076	1.82
290.453	2.01
290.83	2.15
291.207	1.95
291.584	1.78
291.961	1.84
292.338	2.26
292.715	2.48
293.092	2.14
293.469	2.25
293.845	2.85
294.222	2.73
294.599	2.68
294.975	2.51
295.352	2.5
295.728	2.55
296.105	2.36
296.481	2.47
296.858	2.84
297.234	2.71
297.61	2.11
297.986	2.34
298.363	2.47
298.739	1.97
299.115	2.29
299.491	2.46
299.867	2.45
300.243	2.18
300.619	2.41
300.995	2.94
301.371	2.31
301.746	2.64
302.122	2.84
302.498	2.34
302.874	2.78
303.249	3.19
303.625	2.84
304	3
304.376	2.71
304.751	3.11
305.127	2.84
305.502	2.89
305.878	2.8
306.253	2.86
306.628	2.69
307.003	3.3
307.378	2.83
307.754	3.05
308.129	2.7
308.504	2.55
308.879	3.34
309.254	2.7
309.629	3.13
310.003	3.15
310.378	2.81
310.753	3.08
311.128	3.07
311.502	3.5
311.877	3.11
312.252	3.09
312.626	3.38
313.001	3.05
313.375	3.16
313.75	3.32
314.124	3.25
314.498	3.38
314.873	3.7
315.247	3.2
315.621	3.56
315.995	3.45
316.369	3.17
316.743	3.43
317.117	4.22
317.491	4.33
317.865	4.09
318.239	4.29
318.613	4.01
318.987	4.31
319.361	3.92
319.734	4.01
320.108	4.43
320.482	3.98
320.855	4.53
321.229	4.49
321.602	4.32
321.976	4.43
322.349	4.43
322.723	4.23
323.096	4.83
323.469	5.34
323.843	4.17
324.216	4.78
324.589	4.91
324.962	5.41
325.335	4.51
325.708	4.49
326.081	5.17
326.454	4.55
326.827	4.56
327.2	4.37
327.573	4.41
327.945	4.2
328.318	5.19
328.691	4.76
329.063	5.04
329.436	4.99
329.809	5.49
330.181	4.9
330.553	4.56
330.926	5.23
331.298	5.17
331.671	5
332.043	4.7
332.415	5
332.787	5.14
333.159	4.86
333.532	5.38
333.904	5.11
334.276	5.49
334.648	4.87
335.02	5.44
335.391	5.72
335.763	5.38
336.135	5.2
336.507	5.76
336.879	5.36
337.25	5.38
337.622	5.44
337.993	5.43
338.365	5.66
338.736	5.54
339.108	5.9
339.479	5.87
339.851	5.45
340.222	5.9
340.593	5.52
340.964	5.83
341.336	5.99
341.707	5.73
342.078	5.79
342.449	5.78
342.82	5.69
343.191	5.85
343.562	6.12
343.933	5.69
344.303	5.99
344.674	5.96
345.045	5.33
345.416	5.95
345.786	6.18
346.157	6.3
346.527	6.04
346.898	6.07
347.268	5.78
347.639	6.07
348.009	6.02
348.38	6.14
348.75	6.41
349.12	6.4
349.49	6.62
349.861	6.62
350.231	6.29
350.601	6.41
350.971	6.06
351.341	6.42
351.711	6.73
352.081	6.5
352.45	6.55
352.82	6.62
353.19	6.95
353.56	6.5
353.929	6.31
354.299	6.85
354.669	6.15
355.038	6.74
355.408	6.7
355.777	6.65
356.147	6.56
356.516	6.92
356.885	6.49
357.254	6.76
357.624	7.08
357.993	6.36
358.362	6.81
358.731	6.85
359.1	6.57
359.469	6.54
359.838	7.1
360.207	6.94
360.576	6.92
360.945	7.04
361.314	6.88
361.682	6.88
362.051	6.98
362.42	7.19
362.788	6.79
363.157	7.04
363.525	6.72
363.894	6.98
364.262	7.25
364.631	7.31
364.999	7.28
365.367	7.48
365.735	7.51
366.104	7.19
366.472	7.57
366.84	7.56
367.208	7.49
367.576	7.91
367.944	7.53
368.312	7.04
368.68	7.5
369.048	7.4
369.416	7.73
369.783	7.68
370.151	7.55
370.519	7.59
370.886	7.94
371.254	7.75
371.621	8.24
371.989	8.11
372.356	7.84
372.724	7.98
373.091	7.72
373.458	7.81
373.826	8.02
374.193	8.31
374.56	8.3
374.927	8.45
375.294	8.24
375.661	7.69
376.028	7.89
376.395	8.08
376.762	8.22
377.129	8.63
377.496	8.36
377.863	7.84
378.229	8.43
378.596	8.58
378.963	8.41
379.329	8.43
379.696	8.43
380.062	8.67
380.429	8.82
380.795	8.12
381.161	8.43
381.528	8.94
381.894	8.39
382.26	8.37
382.626	8.51
382.993	8.58
383.359	8.71
383.725	8.57
384.091	8.64
384.457	9.02
384.823	9.03
385.188	8.74
385.554	8.89
385.92	9
386.286	8.99
386.651	8.97
387.017	8.96
387.383	8.94
387.748	8.6
388.114	9.13
388.479	8.94
388.845	8.74
389.21	9.1
389.575	9.31
389.94	9.3
390.306	9.24
390.671	9.19
391.036	9.49
391.401	8.99
391.766	9.25
392.131	9.22
392.496	9.37
392.861	9.32
393.226	9.32
393.591	9.27
393.956	9.31
394.32	9.26
394.685	9.11
395.05	9.54
395.414	9.76
395.779	9.39
396.143	9.66
396.508	9.54
396.872	9.78
397.236	9.61
397.601	9.82
397.965	9.69
398.329	9.74
398.694	9.89
399.058	9.68
399.422	9.88
399.786	9.68
400.15	10.06
400.514	9.87
400.878	10.01
401.242	9.72
401.605	9.91
401.969	10.04
402.333	9.91
402.697	10
403.06	10.01
403.424	10.12
403.787	10.16
404.151	10.22
404.514	10.15
404.878	10.06
405.241	10.22
405.604	10.37
405.968	10.02
406.331	10.11
406.694	10.12
407.057	10.06
407.42	10.37
407.783	10.24
408.146	10.05
408.509	10.53
408.872	10.46
409.235	10.54
409.598	10.51
409.961	10.47
410.323	10.75
410.686	10.56
411.049	10.59
411.411	10.54
411.774	10.66
412.136	10.64
412.499	10.45
412.861	10.54
413.223	10.32
413.586	10.81
413.948	11
414.31	11
414.672	10.91
415.035	10.94
415.397	10.95
415.759	10.91
416.121	10.85
416.483	10.75
416.845	10.7
417.206	10.89
417.568	10.88
417.93	10.84
418.292	11.02
418.653	10.81
419.015	11.04
419.377	10.88
419.738	10.75
420.1	10.92
420.461	10.89
420.822	10.96
421.184	10.9
421.545	10.9
421.906	10.89
422.267	10.9
422.629	10.96
422.99	10.91
423.351	11.06
423.712	11
424.073	11.17
424.434	11.21
424.795	11.22
425.155	11.22
425.516	11.24
425.877	11.21
426.238	11.24
426.598	11.37
426.959	11.37
427.32	11.52
427.68	11.54
428.041	11.63
428.401	11.77
428.761	11.91
429.122	11.84
429.482	12.06
429.842	11.94
430.202	11.84
430.563	11.81
430.923	12.13
431.283	12.14
431.643	12.21
432.003	12.07
432.363	12.15
432.722	12.48
433.082	12.43
433.442	12.26
433.802	12.53
434.161	12.45
434.521	12.32
434.881	12.18
435.24	12.33
435.6	12.35
435.959	12.45
436.319	12.51
436.678	12.57
437.037	12.8
437.396	12.69
437.756	12.72
438.115	12.67
438.474	12.87
438.833	12.82
439.192	12.9
439.551	12.82
439.91	12.72
440.269	12.73
440.628	12.88
440.987	12.9
441.345	13.05
441.704	12.9
442.063	13.09
442.421	12.93
442.78	13.03
443.138	12.89
443.497	13.18
443.855	13.28
444.214	13.23
444.572	13.42
444.93	13.3
445.288	13.41
445.647	13.56
446.005	13.43
446.363	13.47
446.721	13.38
447.079	13.35
447.437	13.38
447.795	13.21
448.153	13.44
448.51	13.31
448.868	13.31
449.226	13.36
449.584	13.43
449.941	13.6
450.299	13.66
450.656	13.75
451.014	13.95
451.371	13.98
451.729	14.01
452.086	14.04
452.443	14.06
452.801	14.32
453.158	14.06
453.515	14.1
453.872	14.06
454.229	14.3
454.586	14.31
454.943	14.26
455.3	14.44
455.657	14.29
456.014	14.29
456.371	14.37
456.727	14.51
457.084	14.32
457.441	14.51
457.797	14.45
458.154	14.45
458.51	14.7
458.867	14.75
459.223	14.58
459.58	14.81
459.936	14.71
460.292	14.72
460.648	14.56
461.005	14.67
461.361	14.55
461.717	14.46
462.073	14.59
462.429	14.74
462.785	14.86
463.141	14.99
463.496	15.01
463.852	15.08
464.208	15.26
464.564	15.09
464.919	15.4
465.275	15.65
465.631	15.69
465.986	15.27
466.342	15.36
466.697	15.62
467.052	15.47
467.408	15.53
467.763	15.57
468.118	15.6
468.473	15.52
468.829	15.54
469.184	15.79
469.539	15.76
469.894	15.82
470.249	15.86
470.603	15.86
470.958	15.87
471.313	16.02
471.668	15.91
472.023	15.92
472.377	15.95
472.732	16.03
473.086	16.05
473.441	16.24
473.795	16.11
474.15	16.13
474.504	16.35
474.859	16.17
475.213	16.38
475.567	16.41
475.921	16.36
476.275	16.4
476.63	16.51
476.984	16.55
477.338	16.53
477.692	16.46
478.045	16.58
478.399	16.42
478.753	16.59
479.107	16.51
479.461	16.72
479.814	16.5
480.168	16.67
480.521	16.58
480.875	16.67
481.228	16.61
481.582	16.87
481.935	16.79
482.289	16.83
482.642	16.82
482.995	16.73
483.348	16.58
483.701	16.63
484.055	16.67
484.408	16.37
484.761	16.21
485.114	15.91
485.466	15.84
485.819	15.89
486.172	16.03
486.525	16.27
486.878	16.46
487.23	16.63
487.583	16.74
487.936	16.73
488.288	16.63
488.641	16.45
488.993	16.42
489.345	16.41
489.698	16.47
490.05	16.54
490.402	16.81
490.754	16.9
491.107	17.09
491.459	17.25
491.811	17.31
492.163	17.39
492.515	17.19
492.866	17.03
493.218	16.79
493.57	16.83
493.922	17.03
494.274	17.35
494.625	17.57
494.977	17.66
495.328	17.82
495.68	17.93
496.031	18.05
496.383	18.16
496.734	18.3
497.086	18.32
497.437	18.29
497.788	18.3
498.139	18.04
498.49	18.04
498.842	18.13
499.193	18.23
499.544	18.25
499.894	18.37
500.245	18.31
500.596	18.42
500.947	18.52
501.298	18.59
501.648	18.63
501.999	18.76
502.35	18.74
502.7	18.83
503.051	19
503.401	19.07
503.752	19.05
504.102	19.15
504.452	19.18
504.803	19.23
505.153	19.2
505.503	19.05
505.853	19.16
506.203	18.86
506.553	19.26
506.903	19.36
507.253	19.33
507.603	19.44
507.953	19.32
508.303	19.49
508.652	19.47
509.002	19.47
509.352	19.43
509.701	19.12
510.051	19.34
510.4	19.23
510.75	19.27
511.099	19.2
511.449	19.44
511.798	19.36
512.147	19.59
512.496	19.48
512.846	19.68
513.195	19.68
513.544	19.67
513.893	19.73
514.242	19.6
514.591	19.79
514.939	19.74
515.288	20
515.637	19.86
515.986	20.18
516.334	20.19
516.683	20.12
517.032	20.19
517.38	20.28
517.729	20.33
518.077	20.26
518.426	20.29
518.774	20.27
519.122	20.01
519.47	20.12
519.819	20.12
520.167	20.02
520.515	20.01
520.863	19.99
521.211	20.24
521.559	20.16
521.907	20.49
522.255	20.4
522.602	20.58
522.95	20.63
523.298	20.73
523.645	20.73
523.993	20.87
524.341	20.96
524.688	20.82
525.036	20.97
525.383	20.78
525.73	20.78
526.078	21.01
526.425	20.83
526.772	20.75
527.119	20.49
527.466	20.3
527.814	20.52
528.161	20.56
528.508	20.74
528.854	20.7
529.201	20.7
529.548	20.39
529.895	20.12
530.242	20.08
530.588	20.11
530.935	20.33
531.282	20.47
531.628	20.55
531.975	20.72
532.321	20.86
532.667	20.97
533.014	21.03
533.36	21.23
533.706	21.36
534.052	21.08
534.399	20.94
534.745	20.84
535.091	20.68
535.437	20.99
535.783	20.99
536.129	21.27
536.474	21.34
536.82	21.59
537.166	21.74
537.512	21.74
537.857	21.6
538.203	21.53
538.549	21.36
538.894	21.68
539.239	21.78
539.585	21.93
539.93	21.9
540.276	22.31
540.621	22.39
540.966	22.32
541.311	22.27
541.656	22.29
542.001	22.15
542.346	21.84
542.691	21.57
543.036	21.47
543.381	21.47
543.726	21.66
544.071	21.77
544.415	21.88
544.76	22.03
545.105	22.15
545.449	22.35
545.794	22.48
546.138	22.51
546.483	22.57
546.827	22.73
547.171	22.73
547.516	22.63
547.86	22.67
548.204	22.77
548.548	22.6
548.892	22.67
549.236	22.91
549.58	22.96
549.924	23.2
550.268	23.64
550.612	23.48
550.956	23.55
551.3	23.42
551.643	23.51
551.987	23.82
552.33	23.87
552.674	23.85
553.017	23.71
553.361	23.68
553.704	23.86
554.048	23.71
554.391	23.8
554.734	23.61
555.077	23.91
555.42	23.89
555.764	23.82
556.107	24.09
556.45	24.08
556.793	24.1
557.135	24.2
557.478	24.34
557.821	24.48
558.164	24.3
558.507	24.33
558.849	24.66
559.192	24.48
559.534	24.44
559.877	24.68
560.219	24.43
560.562	24.38
560.904	24.52
561.246	24.71
561.589	24.75
561.931	24.57
562.273	24.72
562.615	24.6
562.957	24.67
563.299	24.82
563.641	24.94
563.983	24.73
564.325	24.93
564.667	25.01
565.008	24.98
565.35	24.95
565.692	25.19
566.033	24.97
566.375	24.79
566.716	25.19
567.058	24.95
567.399	25.13
567.741	25
568.082	24.99
568.423	25.08
568.764	25.14
569.105	25.05
569.447	25.19
569.788	25.44
570.129	25.25
570.47	25.28
570.811	25.46
571.151	25.47
571.492	25.63
571.833	25.63
572.174	25.62
572.514	25.62
572.855	25.51
573.195	25.5
573.536	25.55
573.876	25.54
574.217	25.64
574.557	25.79
574.898	25.8
575.238	25.68
575.578	26.05
575.918	25.84
576.258	25.74
576.598	25.84
576.938	25.94
577.278	26.07
577.618	26
577.958	26
578.298	26.2
578.638	26.25
578.977	26.31
579.317	26.2
579.657	26.2
579.996	26.28
580.336	26.58
580.675	26.62
581.014	26.65
581.354	26.51
581.693	26.9
582.032	26.81
582.372	26.62
582.711	26.64
583.05	26.96
583.389	26.87
583.728	27.13
584.067	27
584.406	26.98
584.745	27.12
585.083	26.98
585.422	27.29
585.761	26.9
586.1	27.28
586.438	27.24
586.777	27.51
587.115	27.33
587.454	27.4
587.792	27.26
588.13	27.29
588.469	27.36
588.807	27.59
589.145	27.33
589.483	27.65
589.821	27.5
590.159	27.52
590.497	27.73
590.835	27.84
591.173	27.62
591.511	27.62
591.849	27.59
592.187	27.69
592.524	27.82
592.862	27.73
593.2	27.85
593.537	27.67
593.875	27.99
594.212	27.75
594.55	27.81
594.887	28.13
595.224	27.99
595.561	27.93
595.899	28
596.236	28.18
596.573	27.96
596.91	28
597.247	27.96
597.584	28.05
597.921	28
598.258	27.78
598.594	27.74
598.931	27.93
599.268	27.73
599.604	27.99
599.941	27.91
600.277	28.21
600.614	28.21
600.95	28.84
601.287	28.52
601.623	28.73
601.959	28.94
602.296	28.9
602.632	28.57
602.968	28.79
603.304	28.79
603.64	29.02
603.976	28.89
604.312	28.63
604.648	28.78
604.984	28.93
605.319	28.82
605.655	28.65
605.991	28.52
606.326	28.4
606.662	28.8
606.998	28.75
607.333	28.72
607.668	28.82
608.004	29.28
608.339	29.17
608.674	29.34
609.01	29.35
609.345	29.17
609.68	29.38
610.015	29.51
610.35	29.21
610.685	28.85
611.02	29.25
611.355	28.96
611.689	28.89
612.024	29.25
612.359	29.5
612.694	29.43
613.028	29.54
613.363	29.54
613.697	29.81
614.032	29.89
614.366	29.73
614.7	29.77
615.035	29.98
615.369	29.99
615.703	30.07
616.037	29.9
616.371	30.63
616.705	30.2
617.039	30.22
617.373	30.42
617.707	29.76
618.041	30
618.375	29.99
618.709	30.48
619.042	29.84
619.376	30.22
619.71	30.25
620.043	30.17
620.377	30.8
620.71	30.36
621.043	30.57
621.377	30.65
621.71	30.41
622.043	30.67
622.376	30.57
622.709	30.86
623.043	30.61
623.376	30.54
623.709	30.75
624.041	30.94
624.374	30.72
624.707	30.75
625.04	30.76
625.373	31
625.705	30.74
626.038	30.88
626.37	30.63
626.703	31.25
627.035	30.58
627.368	30.71
627.7	31.09
628.032	30.97
628.365	30.73
628.697	30.99
629.029	31.01
629.361	30.97
629.693	31.33
630.025	31.15
630.357	31.45
630.689	31.43
631.021	31.31
631.353	31.36
631.684	31.32
632.016	31.63
632.348	31.2
632.679	31.39
633.011	31.83
633.342	31.81
633.674	32.18
634.005	31.78
634.336	31.74
634.668	31.56
634.999	31.6
635.33	32.04
635.661	32.02
635.992	31.53
636.323	31.85
636.654	31.61
636.985	31.8
637.316	32.14
637.647	31.78
637.977	31.91
638.308	31.98
638.639	31.89
638.969	32.05
639.3	31.88
639.63	32.06
639.961	32.22
640.291	32.51
640.622	32.11
640.952	32.6
641.282	32.49
641.612	32.18
641.943	32.17
642.273	32.17
642.603	32.76
642.933	32.27
643.263	32.93
643.592	32.78
643.922	32.41
644.252	32.4
644.582	32.43
644.911	32.99
645.241	32.86
645.571	32.75
645.9	32.17
646.23	32.47
646.559	33.22
646.888	32.77
647.218	32.55
647.547	32.42
647.876	32.87
648.205	32.77
648.534	33.11
648.863	32.61
649.192	33.12
649.521	32.53
649.85	33.58
650.179	32.81
650.508	33.21
650.837	33.3
651.165	32.63
651.494	33.52
651.822	33.95
652.151	33.46
652.479	33.39
652.808	33.36
653.136	33.63
653.465	33.35
653.793	33.52
654.121	33.1
654.449	33.37
654.777	33.41
655.105	33.58
655.433	33.9
655.761	33.02
656.089	33.95
656.417	33.09
656.745	33.53
657.073	33.86
657.4	34.03
657.728	34.16
658.056	33.85
658.383	34.18
658.711	33.92
659.038	33.69
659.365	34.04
659.693	34
660.02	34.01
660.347	33.58
660.674	33.68
661.001	34.4
661.329	34
661.656	33.78
661.982	34.11
662.309	34.25
662.636	34.64
662.963	34.33
663.29	34.15
663.616	34.18
663.943	34.34
664.27	33.66
664.596	34.7
664.923	33.98
665.249	34.26
665.576	34.55
665.902	34.43
666.228	35.12
666.554	34.17
666.881	34.66
667.207	35.22
667.533	34.69
667.859	35.04
668.185	35.08
668.511	34.88
668.837	34.81
669.162	34.77
669.488	34.52
669.814	34.94
670.139	35.08
670.465	35.38
670.791	35.08
671.116	34.58
671.442	34.96
671.767	35.52
672.092	35.37
672.418	35.5
672.743	35
673.068	35.81
673.393	35.36
673.718	35.24
674.043	35.71
674.368	34.81
674.693	35.14
675.018	35.27
