Data from 1897-1_chest_Reflection__2__33.txt Node

Date: Fri Sep 30 18:00:53 CDT 2022
User: ToomeyLab
Spectrometer: FLMS14357
Trigger mode: 0
Integration Time (sec): 1.000000E-2
Scans to average: 100
Electric dark correction enabled: true
Nonlinearity correction enabled: false
Boxcar width: 0
XAxis mode: Wavelengths
Number of Pixels in Spectrum: 2048
>>>>>Begin Spectral Data<<<<<
189.047	314.92
189.435	314.92
189.823	314.92
190.211	-26.36
190.599	9.53
190.987	-115.13
191.375	103.93
191.763	8.11
192.151	-40.02
192.538	-53.62
192.926	109.27
193.314	54.55
193.702	-626.91
194.089	21.06
194.477	-80.44
194.864	5.2
195.252	143.74
195.639	22.63
196.027	-13.98
196.414	14.41
196.801	191.93
197.189	56.18
197.576	21.65
197.963	70.21
198.351	14.53
198.738	-48.78
199.125	81.33
199.512	29.93
199.899	9.47
200.286	6.43
200.673	47.07
201.06	38.65
201.447	17.7
201.833	40.7
202.22	38.27
202.607	37.88
202.994	52.85
203.38	42.52
203.767	10.42
204.154	42.49
204.54	69.01
204.927	59.34
205.313	4.74
205.699	19.96
206.086	1.61
206.472	21.48
206.858	36.9
207.245	23.26
207.631	23.66
208.017	-6.29
208.403	28.12
208.789	7.9
209.175	39.86
209.561	16.09
209.947	41.45
210.333	-24.91
210.719	-5.95
211.105	19.17
211.491	-0.51
211.876	21.78
212.262	32.8
212.648	11.89
213.034	21.82
213.419	23.29
213.805	30.06
214.19	0.94
214.576	1.84
214.961	41.67
215.346	11.83
215.732	19.5
216.117	1.99
216.502	40.65
216.888	31.53
217.273	18.36
217.658	10.66
218.043	14.46
218.428	15.63
218.813	32.46
219.198	9.24
219.583	19.7
219.968	31.57
220.353	19.48
220.738	25.13
221.122	19.96
221.507	18.57
221.892	5.61
222.276	-0.53
222.661	15.38
223.046	11.62
223.43	1.61
223.815	10.88
224.199	1.89
224.583	9.11
224.968	12.33
225.352	1.75
225.736	11.93
226.121	7.96
226.505	8.66
226.889	11.11
227.273	5.78
227.657	8
228.041	6.75
228.425	10.69
228.809	4.66
229.193	6.16
229.577	3.6
229.961	4.66
230.344	4.04
230.728	4.49
231.112	4.85
231.495	4.6
231.879	6.03
232.263	5.08
232.646	3.83
233.03	4.46
233.413	5.06
233.797	5.32
234.18	6.03
234.563	5.74
234.946	5.83
235.33	4.39
235.713	5.44
236.096	5.44
236.479	5.76
236.862	5.4
237.245	4.11
237.628	4.37
238.011	7.12
238.394	3.96
238.777	3.96
239.16	4.56
239.543	4
239.925	5.43
240.308	5.02
240.691	5.95
241.073	5.98
241.456	3.38
241.838	5.17
242.221	5.07
242.603	5.24
242.986	4.91
243.368	3.32
243.75	4.26
244.133	4.74
244.515	4.42
244.897	4.43
245.279	4.24
245.661	3.84
246.043	3.71
246.425	4.54
246.807	4.91
247.189	4.87
247.571	4.89
247.953	4.6
248.335	4.3
248.717	4.2
249.098	4.46
249.48	4.56
249.862	4.32
250.243	4.29
250.625	4.68
251.006	4.68
251.388	3.35
251.769	5.71
252.151	4.51
252.532	5.42
252.913	4.55
253.295	4.43
253.676	4.22
254.057	4.58
254.438	4.23
254.819	4.91
255.2	4.14
255.581	4.53
255.962	4.91
256.343	4.51
256.724	4.88
257.105	5.29
257.486	4.38
257.867	5.67
258.247	3.9
258.628	4.33
259.009	4.93
259.389	4.22
259.77	4.78
260.15	4.05
260.531	4.63
260.911	4.14
261.292	4
261.672	4.18
262.052	3.97
262.432	4.17
262.813	5.04
263.193	4.13
263.573	4.24
263.953	3.68
264.333	4.67
264.713	4.03
265.093	4.37
265.473	4.14
265.853	5.04
266.233	4
266.612	3.85
266.992	4.03
267.372	3.8
267.752	3.74
268.131	4.22
268.511	4.11
268.89	3.94
269.27	4.45
269.649	3.91
270.029	3.87
270.408	4.01
270.787	4.03
271.167	3.98
271.546	4.12
271.925	4.18
272.304	4.16
272.683	4.23
273.062	3.78
273.441	3.46
273.82	3.82
274.199	4.01
274.578	3.57
274.957	4.12
275.336	3.91
275.715	4.48
276.093	4.13
276.472	4.16
276.851	3.85
277.229	4.13
277.608	3.92
277.986	3.6
278.365	4.12
278.743	3.47
279.122	4.05
279.5	4.31
279.878	4.58
280.257	4.11
280.635	4.28
281.013	4.54
281.391	3.96
281.769	4.03
282.147	4.26
282.525	4.37
282.903	3.95
283.281	3.92
283.659	4.01
284.037	3.69
284.415	3.94
284.792	3.74
285.17	3.03
285.548	4.15
285.925	4.04
286.303	3.77
286.68	3.75
287.058	3.73
287.435	3.63
287.813	3.86
288.19	3.84
288.567	3.7
288.945	3.27
289.322	3.21
289.699	3.81
290.076	3.86
290.453	4.17
290.83	3.44
291.207	3.9
291.584	3.85
291.961	3.68
292.338	3.99
292.715	4.12
293.092	3.37
293.469	3.94
293.845	4.71
294.222	3.73
294.599	4.74
294.975	4.54
295.352	4.09
295.728	4.06
296.105	4.18
296.481	3.68
296.858	4.17
297.234	3.98
297.61	3.98
297.986	3.68
298.363	4
298.739	3.74
299.115	3.78
299.491	3.77
299.867	3.95
300.243	3.7
300.619	3.7
300.995	4.31
301.371	3.94
301.746	4.08
302.122	4.09
302.498	4.13
302.874	4.32
303.249	4.46
303.625	4.07
304	3.98
304.376	4.07
304.751	4.38
305.127	3.9
305.502	4.08
305.878	4.21
306.253	3.94
306.628	4.23
307.003	3.84
307.378	4.32
307.754	3.88
308.129	4.08
308.504	3.75
308.879	4.35
309.254	4.18
309.629	4.11
310.003	4.59
310.378	3.94
310.753	4.05
311.128	4.17
311.502	4.35
311.877	4.39
312.252	4.21
312.626	4.51
313.001	3.98
313.375	4.02
313.75	4.31
314.124	4.29
314.498	4.05
314.873	4.4
315.247	4.32
315.621	4.13
315.995	4.59
316.369	4.07
316.743	4.37
317.117	4.7
317.491	4.85
317.865	4.81
318.239	5.05
318.613	4.81
318.987	4.48
319.361	4.08
319.734	3.98
320.108	4.39
320.482	3.81
320.855	4.22
321.229	4.31
321.602	3.97
321.976	4.37
322.349	4.28
322.723	4.08
323.096	4.61
323.469	4.58
323.843	4.3
324.216	4.3
324.589	4.71
324.962	4.72
325.335	4.63
325.708	4.41
326.081	4.5
326.454	4.21
326.827	4.27
327.2	4.26
327.573	4.25
327.945	4.37
328.318	4.23
328.691	4.51
329.063	4.73
329.436	4.15
329.809	4.66
330.181	4.57
330.553	4.63
330.926	5
331.298	4.14
331.671	4.89
332.043	4.55
332.415	4.27
332.787	4.6
333.159	4.61
333.532	4.84
333.904	4.51
334.276	4.17
334.648	4.49
335.02	4.34
335.391	4.45
335.763	4.29
336.135	4.36
336.507	4.57
336.879	4.1
337.25	4.38
337.622	4.54
337.993	4.13
338.365	4.28
338.736	4.45
339.108	4.57
339.479	5.06
339.851	4.1
340.222	4.8
340.593	4.59
340.964	4.08
341.336	4.28
341.707	4.85
342.078	4.64
342.449	4.37
342.82	4.5
343.191	4.39
343.562	4.34
343.933	4.53
344.303	4.38
344.674	4.53
345.045	4.35
345.416	4.73
345.786	4.32
346.157	4.75
346.527	4.69
346.898	4.43
347.268	4.16
347.639	4.37
348.009	4.38
348.38	4.55
348.75	4.98
349.12	5.04
349.49	4.9
349.861	4.31
350.231	4.52
350.601	4.66
350.971	4.44
351.341	4.4
351.711	4.46
352.081	4.52
352.45	4.8
352.82	4.59
353.19	4.9
353.56	4.47
353.929	4.62
354.299	4.25
354.669	4.38
355.038	4.71
355.408	4.51
355.777	4.53
356.147	4.53
356.516	4.77
356.885	4.23
357.254	4.85
357.624	4.7
357.993	3.96
358.362	4.83
358.731	4.45
359.1	4.25
359.469	4.15
359.838	4.89
360.207	4.55
360.576	4.28
360.945	4.61
361.314	4.21
361.682	4.35
362.051	4.46
362.42	4.43
362.788	4.5
363.157	4.41
363.525	4.15
363.894	4.44
364.262	4.83
364.631	4.87
364.999	4.39
365.367	4.74
365.735	4.31
366.104	4.42
366.472	4.42
366.84	4.68
367.208	4.77
367.576	5.05
367.944	4.66
368.312	4.54
368.68	4.64
369.048	4.11
369.416	4.73
369.783	4.58
370.151	4.39
370.519	4.56
370.886	4.86
371.254	4.78
371.621	4.78
371.989	4.72
372.356	4.47
372.724	4.86
373.091	4.35
373.458	4.54
373.826	4.79
374.193	4.93
374.56	4.64
374.927	5
375.294	4.65
375.661	4.36
376.028	4.52
376.395	4.69
376.762	4.55
377.129	4.82
377.496	5.03
377.863	4.39
378.229	4.69
378.596	4.69
378.963	4.9
379.329	4.71
379.696	4.8
380.062	5.18
380.429	4.65
380.795	4.45
381.161	4.62
381.528	4.68
381.894	4.65
382.26	4.6
382.626	4.53
382.993	4.99
383.359	4.72
383.725	4.5
384.091	4.6
384.457	4.58
384.823	4.82
385.188	4.62
385.554	4.94
385.92	4.88
386.286	4.82
386.651	4.79
387.017	4.44
387.383	4.8
387.748	4.5
388.114	4.7
388.479	4.75
388.845	4.71
389.21	4.61
389.575	4.87
389.94	4.65
390.306	4.68
390.671	4.78
391.036	4.74
391.401	4.4
391.766	4.88
392.131	4.69
392.496	4.63
392.861	4.86
393.226	4.33
393.591	4.52
393.956	4.76
394.32	4.69
394.685	4.58
395.05	4.69
395.414	4.69
395.779	4.52
396.143	4.77
396.508	4.57
396.872	4.93
397.236	4.71
397.601	4.66
397.965	4.74
398.329	4.68
398.694	4.66
399.058	4.55
399.422	4.79
399.786	4.84
400.15	4.78
400.514	4.73
400.878	4.84
401.242	4.78
401.605	4.75
401.969	4.82
402.333	4.84
402.697	4.64
403.06	4.85
403.424	4.78
403.787	5.09
404.151	4.88
404.514	4.74
404.878	4.61
405.241	4.82
405.604	4.94
405.968	4.73
406.331	4.65
406.694	4.71
407.057	4.72
407.42	4.91
407.783	4.76
408.146	4.72
408.509	5
408.872	4.58
409.235	4.86
409.598	4.94
409.961	4.8
410.323	4.9
410.686	5.04
411.049	4.62
411.411	4.73
411.774	4.91
412.136	5
412.499	4.63
412.861	4.7
413.223	4.68
413.586	4.72
413.948	4.9
414.31	4.77
414.672	5.04
415.035	4.81
415.397	4.77
415.759	4.93
416.121	4.9
416.483	4.74
416.845	4.75
417.206	4.88
417.568	4.78
417.93	4.61
418.292	4.79
418.653	4.62
419.015	4.85
419.377	4.7
419.738	4.57
420.1	4.62
420.461	4.76
420.822	4.72
421.184	4.63
421.545	4.62
421.906	4.5
422.267	4.5
422.629	4.65
422.99	4.54
423.351	4.58
423.712	4.55
424.073	4.65
424.434	4.79
424.795	4.68
425.155	4.6
425.516	4.75
425.877	4.73
426.238	4.61
426.598	4.72
426.959	4.66
427.32	4.79
427.68	4.69
428.041	4.7
428.401	4.7
428.761	4.79
429.122	4.75
429.482	4.78
429.842	4.86
430.202	4.87
430.563	4.81
430.923	4.74
431.283	4.86
431.643	4.96
432.003	4.79
432.363	4.9
432.722	4.76
433.082	4.83
433.442	4.79
433.802	4.84
434.161	4.75
434.521	4.92
434.881	4.71
435.24	4.78
435.6	4.92
435.959	4.86
436.319	4.92
436.678	4.78
437.037	4.97
437.396	4.76
437.756	4.73
438.115	4.77
438.474	4.99
438.833	5.01
439.192	5
439.551	4.87
439.91	4.97
440.269	4.58
440.628	4.79
440.987	4.91
441.345	4.92
441.704	4.77
442.063	4.83
442.421	4.84
442.78	4.82
443.138	4.56
443.497	4.86
443.855	4.99
444.214	4.95
444.572	4.95
444.93	4.83
445.288	4.83
445.647	4.79
446.005	4.8
446.363	4.86
446.721	4.86
447.079	4.78
447.437	4.86
447.795	4.83
448.153	4.8
448.51	4.76
448.868	4.81
449.226	4.78
449.584	4.82
449.941	4.78
450.299	4.84
450.656	4.89
451.014	4.99
451.371	5
451.729	4.92
452.086	4.92
452.443	5.11
452.801	4.9
453.158	4.91
453.515	4.76
453.872	5.1
454.229	4.86
454.586	4.99
454.943	4.93
455.3	4.86
455.657	5.02
456.014	4.82
456.371	4.9
456.727	4.75
457.084	4.66
457.441	4.95
457.797	4.88
458.154	4.66
458.51	4.91
458.867	5.12
459.223	5
459.58	5.07
459.936	4.83
460.292	4.95
460.648	4.77
461.005	4.97
461.361	4.86
461.717	4.81
462.073	4.78
462.429	4.75
462.785	4.95
463.141	4.92
463.496	4.99
463.852	5.05
464.208	4.97
464.564	4.92
464.919	5.1
465.275	5.1
465.631	4.98
465.986	4.97
466.342	5.04
466.697	5.09
467.052	4.97
467.408	5.04
467.763	5.03
468.118	5.04
468.473	5.04
468.829	4.86
469.184	5.12
469.539	5.06
469.894	5.06
470.249	5.11
470.603	5.19
470.958	5.09
471.313	5.04
471.668	5.08
472.023	5.12
472.377	5
472.732	5
473.086	5.1
473.441	5.21
473.795	5.03
474.15	5.07
474.504	5.09
474.859	5.27
475.213	5.13
475.567	5.12
475.921	4.94
476.275	5.12
476.63	5.07
476.984	5.13
477.338	5.1
477.692	5.11
478.045	5.14
478.399	5.11
478.753	5.09
479.107	5.02
479.461	5.08
479.814	4.97
480.168	5.16
480.521	5.05
480.875	5.22
481.228	5.15
481.582	5.16
481.935	5.17
482.289	5.16
482.642	5.09
482.995	5.02
483.348	5.07
483.701	5.06
484.055	4.98
484.408	5.02
484.761	4.88
485.114	4.76
485.466	4.74
485.819	4.72
486.172	4.78
486.525	4.86
486.878	4.9
487.23	4.92
487.583	4.9
487.936	4.98
488.288	4.96
488.641	4.83
488.993	4.87
489.345	4.82
489.698	4.84
490.05	4.86
490.402	4.9
490.754	4.99
491.107	4.91
491.459	5.01
491.811	5.01
492.163	5.06
492.515	5.06
492.866	4.98
493.218	4.84
493.57	4.91
493.922	4.94
494.274	5
494.625	5.1
494.977	5.12
495.328	5.17
495.68	5.07
496.031	5.22
496.383	5.28
496.734	5.21
497.086	5.25
497.437	5.31
497.788	5.24
498.139	5.11
498.49	5.06
498.842	5.17
499.193	5.13
499.544	5.1
499.894	5.18
500.245	5.23
500.596	5.18
500.947	5.28
501.298	5.29
501.648	5.14
501.999	5.18
502.35	5.28
502.7	5.29
503.051	5.26
503.401	5.35
503.752	5.22
504.102	5.38
504.452	5.25
504.803	5.27
505.153	5.33
505.503	5.24
505.853	5.35
506.203	5.18
506.553	5.25
506.903	5.42
507.253	5.45
507.603	5.38
507.953	5.36
508.303	5.34
508.652	5.27
509.002	5.44
509.352	5.29
509.701	5.23
510.051	5.36
510.4	5.32
510.75	5.22
511.099	5.25
511.449	5.3
511.798	5.38
512.147	5.29
512.496	5.35
512.846	5.36
513.195	5.44
513.544	5.4
513.893	5.43
514.242	5.28
514.591	5.38
514.939	5.3
515.288	5.47
515.637	5.34
515.986	5.43
516.334	5.53
516.683	5.31
517.032	5.36
517.38	5.44
517.729	5.53
518.077	5.44
518.426	5.42
518.774	5.28
519.122	5.35
519.47	5.45
519.819	5.38
520.167	5.45
520.515	5.34
520.863	5.34
521.211	5.51
521.559	5.43
521.907	5.54
522.255	5.4
522.602	5.41
522.95	5.51
523.298	5.49
523.645	5.48
523.993	5.51
524.341	5.6
524.688	5.51
525.036	5.43
525.383	5.42
525.73	5.52
526.078	5.54
526.425	5.42
526.772	5.48
527.119	5.46
527.466	5.38
527.814	5.43
528.161	5.34
528.508	5.41
528.854	5.37
529.201	5.44
529.548	5.36
529.895	5.28
530.242	5.28
530.588	5.25
530.935	5.31
531.282	5.4
531.628	5.39
531.975	5.41
532.321	5.46
532.667	5.53
533.014	5.55
533.36	5.53
533.706	5.58
534.052	5.55
534.399	5.47
534.745	5.46
535.091	5.4
535.437	5.5
535.783	5.51
536.129	5.62
536.474	5.59
536.82	5.63
537.166	5.68
537.512	5.56
537.857	5.73
538.203	5.68
538.549	5.47
538.894	5.58
539.239	5.63
539.585	5.66
539.93	5.68
540.276	5.75
540.621	5.82
540.966	5.74
541.311	5.84
541.656	5.86
542.001	5.71
542.346	5.78
542.691	5.64
543.036	5.58
543.381	5.57
543.726	5.64
544.071	5.77
544.415	5.65
544.76	5.68
545.105	5.78
545.449	5.79
545.794	5.79
546.138	5.95
546.483	5.97
546.827	5.91
547.171	5.89
547.516	5.81
547.86	5.94
548.204	5.91
548.548	5.91
548.892	5.95
549.236	5.95
549.58	6.01
549.924	5.99
550.268	6.18
550.612	6.16
550.956	6.17
551.3	6
551.643	6.1
551.987	6.11
552.33	6.18
552.674	6.17
553.017	6.08
553.361	6.04
553.704	6.35
554.048	6.22
554.391	6.27
554.734	6.22
555.077	6.36
555.42	6.25
555.764	6.17
556.107	6.32
556.45	6.22
556.793	6.19
557.135	6.44
557.478	6.35
557.821	6.42
558.164	6.34
558.507	6.46
558.849	6.39
559.192	6.43
559.534	6.42
559.877	6.41
560.219	6.4
560.562	6.31
560.904	6.44
561.246	6.53
561.589	6.34
561.931	6.5
562.273	6.54
562.615	6.41
562.957	6.31
563.299	6.52
563.641	6.34
563.983	6.38
564.325	6.61
564.667	6.61
565.008	6.46
565.35	6.58
565.692	6.71
566.033	6.45
566.375	6.5
566.716	6.66
567.058	6.52
567.399	6.53
567.741	6.46
568.082	6.61
568.423	6.69
568.764	6.62
569.105	6.63
569.447	6.67
569.788	6.79
570.129	6.84
570.47	6.85
570.811	6.9
571.151	6.75
571.492	6.95
571.833	6.84
572.174	6.54
572.514	6.77
572.855	6.73
573.195	6.89
573.536	6.81
573.876	6.81
574.217	6.76
574.557	6.84
574.898	6.84
575.238	6.98
575.578	7.14
575.918	6.83
576.258	7.11
576.598	6.9
576.938	7.05
577.278	7.04
577.618	7.07
577.958	6.96
578.298	7.04
578.638	7.21
578.977	7.27
579.317	7.17
579.657	7.08
579.996	7
580.336	7.37
580.675	7.31
581.014	7.16
581.354	7.19
581.693	7.33
582.032	7.11
582.372	7.21
582.711	7.21
583.05	7.28
583.389	7.22
583.728	7.17
584.067	7.34
584.406	7.14
584.745	7.65
585.083	7.41
585.422	7.46
585.761	7.38
586.1	7.39
586.438	7.42
586.777	7.67
587.115	7.63
587.454	7.53
587.792	7.28
588.13	7.65
588.469	7.39
588.807	7.61
589.145	7.61
589.483	7.63
589.821	7.6
590.159	7.76
590.497	7.58
590.835	7.69
591.173	7.51
591.511	7.6
591.849	7.61
592.187	7.82
592.524	7.64
592.862	7.8
593.2	7.74
593.537	7.74
593.875	7.88
594.212	7.65
594.55	7.7
594.887	8.27
595.224	7.93
595.561	7.98
595.899	7.71
596.236	7.92
596.573	8.07
596.91	7.94
597.247	7.85
597.584	7.93
597.921	7.85
598.258	7.75
598.594	7.87
598.931	7.93
599.268	7.84
599.604	7.9
599.941	7.9
600.277	7.93
600.614	8.03
600.95	8.39
601.287	8.03
601.623	8.41
601.959	8.17
602.296	8.12
602.632	8.36
602.968	8.39
603.304	8.43
603.64	8.58
603.976	8.13
604.312	8.12
604.648	8.18
604.984	8.54
605.319	8.35
605.655	8.42
605.991	8.27
606.326	8.43
606.662	8.25
606.998	8.22
607.333	8.37
607.668	8.31
608.004	8.63
608.339	8.67
608.674	8.43
609.01	8.3
609.345	8.25
609.68	8.78
610.015	8.66
610.35	8.48
610.685	8.38
611.02	8.54
611.355	8.38
611.689	8.25
612.024	8.92
612.359	8.62
612.694	8.8
613.028	8.94
613.363	8.53
613.697	8.61
614.032	8.75
614.366	8.79
614.7	8.62
615.035	9.01
615.369	8.97
615.703	8.81
616.037	9.17
616.371	9.07
616.705	8.97
617.039	9.03
617.373	9.03
617.707	8.63
618.041	8.87
618.375	9.32
618.709	9.38
619.042	9.06
619.376	9.25
619.71	9.22
620.043	9.19
620.377	9.62
620.71	8.98
621.043	9.37
621.377	9.43
621.71	9.02
622.043	9.56
622.376	9.25
622.709	9.07
623.043	9.25
623.376	9.28
623.709	9.35
624.041	9.55
624.374	9.26
624.707	9.41
625.04	9.34
625.373	9.45
625.705	9.42
626.038	9.4
626.37	9.25
626.703	9.67
627.035	9.55
627.368	9.57
627.7	9.69
628.032	9.56
628.365	9.65
628.697	9.55
629.029	9.51
629.361	9.64
629.693	9.92
630.025	9.86
630.357	9.85
630.689	9.79
631.021	9.63
631.353	9.68
631.684	10.11
632.016	10.2
632.348	9.64
632.679	9.8
633.011	9.98
633.342	9.85
633.674	9.95
634.005	9.82
634.336	10.08
634.668	10.07
634.999	10.04
635.33	10.47
635.661	9.99
635.992	10.09
636.323	9.93
636.654	9.78
636.985	9.95
637.316	9.99
637.647	10.11
637.977	10.4
638.308	9.96
638.639	9.82
638.969	10.36
639.3	10.55
639.63	10
639.961	10.14
640.291	10.33
640.622	10.35
640.952	10.54
641.282	10.22
641.612	10.54
641.943	10.35
642.273	10.87
642.603	10.32
642.933	10.35
643.263	10.66
643.592	10.79
643.922	10.17
644.252	10.96
644.582	10.78
644.911	10.87
645.241	10.96
645.571	10.22
645.9	10.89
646.23	10.6
646.559	10.7
646.888	10.46
647.218	10.52
647.547	10.87
647.876	10.91
648.205	11.14
648.534	11.04
648.863	11.39
649.192	11.12
649.521	11.02
649.85	11.33
650.179	11.05
650.508	11.2
650.837	11.05
651.165	10.91
651.494	11.18
651.822	11.44
652.151	11.57
652.479	11.26
652.808	11.12
653.136	11.14
653.465	10.68
653.793	10.78
654.121	11
654.449	10.99
654.777	11.32
655.105	11.31
655.433	11.59
655.761	12.38
656.089	11.8
656.417	11.01
656.745	11.41
657.073	11.73
657.4	11.7
657.728	11.61
658.056	11.61
658.383	11.49
658.711	11.49
659.038	11.39
659.365	11.39
659.693	11.46
660.02	11.63
660.347	11.63
660.674	11.34
661.001	11.86
661.329	11.91
661.656	11.81
661.982	11.76
662.309	11.96
662.636	12.01
662.963	11.83
663.29	11.49
663.616	11.8
663.943	12.13
664.27	11.86
664.596	11.92
664.923	11.7
665.249	12.1
665.576	12.15
665.902	12.94
666.228	12.78
666.554	11.87
666.881	12.42
667.207	12.12
667.533	11.96
667.859	12.14
668.185	12.24
668.511	12.34
668.837	12.06
669.162	12.31
669.488	11.83
669.814	11.92
670.139	12.7
670.465	12.83
670.791	12.67
671.116	12.07
671.442	12.63
671.767	12.58
672.092	12.47
672.418	12.47
672.743	12.56
673.068	12.59
673.393	12.49
673.718	11.91
674.043	13.21
674.368	12.96
674.693	13.04
675.018	12.51
675.343	12.67
675.667	12.88
675.992	12.46
676.317	13.1
676.641	12.97
676.966	12.41
677.29	12.17
677.615	12.45
677.939	12.4
678.264	12.79
678.588	13.17
678.912	12.66
679.236	12.89
679.56	12.57
679.885	12.74
680.209	12.48
680.532	12.76
680.856	13.05
681.18	13.67
681.504	13.4
681.828	12.77
682.152	12.76
682.475	13.05
682.799	12.79
683.122	13.29
683.446	13.47
683.769	13.67
684.093	13.41
684.416	13.31
684.739	13.83
685.062	13.08
685.386	14.09
685.709	13.6
686.032	13.65
686.355	13.06
686.678	13.79
687.001	14
687.324	13.88
687.646	13.37
687.969	13.29
688.292	13.7
688.614	13.59
688.937	13.78
689.26	13.33
689.582	13.36
