Data from 0010_forehead_Reflection__2__329.txt Node

Date: Thu Dec 15 19:12:51 CST 2022
User: ToomeyLab
Spectrometer: FLMS14357
Trigger mode: 0
Integration Time (sec): 1.000000E-2
Scans to average: 100
Electric dark correction enabled: true
Nonlinearity correction enabled: false
Boxcar width: 0
XAxis mode: Wavelengths
Number of Pixels in Spectrum: 2048
>>>>>Begin Spectral Data<<<<<
189.047	-5.44
189.435	-5.44
189.823	-5.44
190.211	174.07
190.599	65.53
190.987	136.89
191.375	201.55
191.763	-43.74
192.151	427.19
192.538	39.51
192.926	168.51
193.314	84.8
193.702	192.14
194.089	-6.67
194.477	-263.92
194.864	83.25
195.252	-1.47
195.639	119.64
196.027	-214.71
196.414	93.1
196.801	79.89
197.189	160.83
197.576	-438.18
197.963	348.56
198.351	40.73
198.738	-121.97
199.125	-71.88
199.512	26.41
199.899	-13.99
200.286	-18.66
200.673	46.12
201.06	-10.33
201.447	-11.64
201.833	-24.09
202.22	-3.01
202.607	-62.45
202.994	-16.59
203.38	10.28
203.767	-26.16
204.154	56.47
204.54	-57.64
204.927	8.17
205.313	30.9
205.699	-3.64
206.086	39.76
206.472	11.73
206.858	-5.26
207.245	-10.19
207.631	-25.02
208.017	39.85
208.403	-35.08
208.789	-28.81
209.175	-17.75
209.561	-109.08
209.947	-61.42
210.333	5.69
210.719	21.54
211.105	-3.8
211.491	30.38
211.876	-79.99
212.262	-3.49
212.648	20.62
213.034	14.35
213.419	1.63
213.805	-47.49
214.19	-22.76
214.576	-36.11
214.961	-1.31
215.346	-49.45
215.732	0.55
216.117	-1.01
216.502	-14.47
216.888	6.99
217.273	-30.15
217.658	-2.99
218.043	-34.79
218.428	23.45
218.813	4.49
219.198	-28.9
219.583	-14.77
219.968	4.29
220.353	-18.06
220.738	13.11
221.122	4.65
221.507	-14.66
221.892	-19.14
222.276	-59.46
222.661	-16.32
223.046	-19.53
223.43	16.65
223.815	-13.1
224.199	-10.03
224.583	4.26
224.968	-0.03
225.352	-11.18
225.736	1.2
226.121	-6.01
226.505	-9.96
226.889	2.99
227.273	-6.58
227.657	6.53
228.041	0.82
228.425	-2.47
228.809	3.08
229.193	2.95
229.577	3.71
229.961	2.84
230.344	4.58
230.728	6.38
231.112	5.26
231.495	3.36
231.879	3.56
232.263	4.83
232.646	3.16
233.03	6.55
233.413	3.4
233.797	0.52
234.18	2.13
234.563	3.88
234.946	2.98
235.33	4.44
235.713	5.89
236.096	4.52
236.479	6.81
236.862	3.84
237.245	3.22
237.628	5.96
238.011	3.84
238.394	3.06
238.777	4.97
239.16	6.39
239.543	5.46
239.925	3.02
240.308	2.23
240.691	3.71
241.073	4
241.456	5.09
241.838	4.65
242.221	4.89
242.603	4.19
242.986	5.34
243.368	5.81
243.75	5.73
244.133	5.97
244.515	5.17
244.897	5.09
245.279	4.96
245.661	4.79
246.043	5.37
246.425	4.86
246.807	5.14
247.189	5.39
247.571	5.21
247.953	5.44
248.335	5.32
248.717	5.67
249.098	5.54
249.48	5.24
249.862	5.55
250.243	5.51
250.625	5.3
251.006	5.79
251.388	4.87
251.769	4.68
252.151	5.5
252.532	4.03
252.913	5.47
253.295	5.14
253.676	5.41
254.057	5.15
254.438	5.03
254.819	5.86
255.2	5.82
255.581	5.4
255.962	5.25
256.343	6.42
256.724	5.41
257.105	4.95
257.486	5.05
257.867	4.13
258.247	4.44
258.628	5.43
259.009	5.12
259.389	4.34
259.77	4.53
260.15	5.67
260.531	5.23
260.911	5.13
261.292	5.42
261.672	5.13
262.052	4.99
262.432	4.87
262.813	5.56
263.193	5.53
263.573	4.6
263.953	4.87
264.333	4.94
264.713	4.98
265.093	4.46
265.473	4.4
265.853	4.94
266.233	4.2
266.612	4.19
266.992	4.29
267.372	5.03
267.752	5
268.131	5.25
268.511	4.83
268.89	5.43
269.27	4.16
269.649	4.88
270.029	4.67
270.408	4.52
270.787	4.83
271.167	5.67
271.546	5.56
271.925	5.01
272.304	5.13
272.683	4.84
273.062	5.12
273.441	4.82
273.82	5.34
274.199	4.76
274.578	5.32
274.957	4.81
275.336	4.96
275.715	5.31
276.093	4.67
276.472	4.41
276.851	4.62
277.229	4.9
277.608	4.53
277.986	5.05
278.365	5.12
278.743	5.34
279.122	5.03
279.5	5.19
279.878	4.44
280.257	4.96
280.635	5.34
281.013	4.74
281.391	5.08
281.769	5.11
282.147	4.6
282.525	4.94
282.903	5.18
283.281	5.51
283.659	5.72
284.037	5.22
284.415	5.02
284.792	5.61
285.17	5.05
285.548	4.84
285.925	4.87
286.303	5.66
286.68	5.61
287.058	5.5
287.435	5.01
287.813	5.44
288.19	5.05
288.567	4.94
288.945	5.09
289.322	5.4
289.699	5.33
290.076	4.61
290.453	5.13
290.83	5.04
291.207	5.22
291.584	5.44
291.961	5.38
292.338	4.86
292.715	4.86
293.092	5.61
293.469	5.21
293.845	5.55
294.222	5.96
294.599	4.98
294.975	4.71
295.352	5.57
295.728	5.18
296.105	5.09
296.481	5.61
296.858	5.47
297.234	4.97
297.61	5.67
297.986	6.17
298.363	5.68
298.739	5.6
299.115	5.51
299.491	5.99
299.867	5.51
300.243	5.51
300.619	5.86
300.995	5.22
301.371	5.47
301.746	6.18
302.122	5.54
302.498	5.69
302.874	5.91
303.249	5.79
303.625	5.11
304	5.91
304.376	5.92
304.751	6.04
305.127	5.89
305.502	5.7
305.878	5.56
306.253	5.4
306.628	5.65
307.003	5.71
307.378	5.19
307.754	6.38
308.129	5.38
308.504	5.69
308.879	6.31
309.254	6.39
309.629	5.76
310.003	6.16
310.378	6.13
310.753	5.79
311.128	6.29
311.502	6.1
311.877	5.98
312.252	5.87
312.626	6.89
313.001	6.2
313.375	6.39
313.75	6.18
314.124	6.51
314.498	6.23
314.873	5.99
315.247	5.64
315.621	6.34
315.995	6.86
316.369	6.01
316.743	6.52
317.117	6.15
317.491	6.24
317.865	5.86
318.239	6.93
318.613	6.43
318.987	6.29
319.361	6.58
319.734	6.8
320.108	6.51
320.482	6.76
320.855	7.09
321.229	6.62
321.602	7
321.976	6.12
322.349	7.13
322.723	7.04
323.096	7.08
323.469	6.85
323.843	6.74
324.216	6.83
324.589	7.46
324.962	7.02
325.335	6.93
325.708	6.79
326.081	7.48
326.454	7.04
326.827	6.93
327.2	6.62
327.573	7.38
327.945	6.99
328.318	7.34
328.691	7.4
329.063	7.17
329.436	7.26
329.809	7.58
330.181	8.16
330.553	7.79
330.926	8.12
331.298	7.54
331.671	8.18
332.043	7.61
332.415	7.65
332.787	7.91
333.159	7.82
333.532	8.1
333.904	8.01
334.276	8.2
334.648	7.59
335.02	7.29
335.391	7.49
335.763	7.53
336.135	8.33
336.507	8.13
336.879	7.69
337.25	8.35
337.622	7.74
337.993	7.78
338.365	7.92
338.736	7.97
339.108	7.8
339.479	7.74
339.851	8.26
340.222	8.05
340.593	7.76
340.964	8.16
341.336	7.99
341.707	8.29
342.078	8.13
342.449	8.2
342.82	8.24
343.191	8.26
343.562	8.31
343.933	8.15
344.303	8.21
344.674	8.33
345.045	8.18
345.416	8.79
345.786	8.28
346.157	8.66
346.527	8.38
346.898	8.22
347.268	9.03
347.639	8.5
348.009	8.65
348.38	8.66
348.75	8.65
349.12	8.69
349.49	8.93
349.861	9.11
350.231	8.73
350.601	8.89
350.971	8.66
351.341	8.87
351.711	8.79
352.081	8.88
352.45	8.54
352.82	8.64
353.19	8.78
353.56	8.65
353.929	9.47
354.299	8.87
354.669	9.3
355.038	9.39
355.408	9.15
355.777	9.12
356.147	8.99
356.516	9.06
356.885	8.63
357.254	9.13
357.624	8.89
357.993	9.05
358.362	8.95
358.731	9.43
359.1	9.33
359.469	9.59
359.838	9.6
360.207	9.28
360.576	9.49
360.945	9.25
361.314	9.52
361.682	9.13
362.051	9.48
362.42	9.53
362.788	9.66
363.157	9.2
363.525	9.59
363.894	9.42
364.262	9.7
364.631	9.72
364.999	9.58
365.367	9.59
365.735	9.54
366.104	9.91
366.472	9.85
366.84	9.78
367.208	10.18
367.576	9.87
367.944	9.7
368.312	9.71
368.68	10.04
369.048	10.04
369.416	9.77
369.783	9.81
370.151	10.24
370.519	10.25
370.886	10.38
371.254	10.29
371.621	10.39
371.989	10.1
372.356	10.11
372.724	10.06
373.091	10.42
373.458	10.35
373.826	10.4
374.193	10.48
374.56	10.8
374.927	10.2
375.294	10.57
375.661	10.7
376.028	10.38
376.395	10.37
376.762	10.08
377.129	10.7
377.496	10.75
377.863	10.73
378.229	11.01
378.596	11.07
378.963	10.94
379.329	10.75
379.696	10.8
380.062	10.66
380.429	10.65
380.795	11
381.161	10.6
381.528	10.54
381.894	10.87
382.26	11.01
382.626	10.99
382.993	11.15
383.359	11.02
383.725	11
384.091	11.44
384.457	11.08
384.823	11.25
385.188	11.36
385.554	11.51
385.92	11.24
386.286	11.26
386.651	11.33
387.017	11.52
387.383	11.36
387.748	11.42
388.114	11.43
388.479	11.55
388.845	11.29
389.21	11.7
389.575	11.71
389.94	11.75
390.306	11.63
390.671	11.46
391.036	11.69
391.401	11.65
391.766	11.66
392.131	11.93
392.496	12.09
392.861	11.73
393.226	11.92
393.591	11.89
393.956	11.76
394.32	12.03
394.685	11.9
395.05	12.11
395.414	11.95
395.779	12.14
396.143	12.15
396.508	12.23
396.872	12.13
397.236	12.5
397.601	12.46
397.965	12.43
398.329	12.47
398.694	12.04
399.058	12.5
399.422	12.43
399.786	12.25
400.15	12.32
400.514	12.56
400.878	12.49
401.242	12.88
401.605	12.62
401.969	12.43
402.333	12.45
402.697	13.08
403.06	12.74
403.424	12.86
403.787	12.6
404.151	12.82
404.514	12.85
404.878	12.86
405.241	12.8
405.604	12.91
405.968	12.78
406.331	13.18
406.694	12.94
407.057	12.86
407.42	12.99
407.783	13.11
408.146	13.21
408.509	13.18
408.872	12.9
409.235	13.26
409.598	13.1
409.961	13.54
410.323	13.32
410.686	13.34
411.049	13.39
411.411	13.26
411.774	13.17
412.136	13.24
412.499	13.46
412.861	13.35
413.223	13.15
413.586	13.78
413.948	13.63
414.31	13.37
414.672	13.65
415.035	13.69
415.397	13.68
415.759	13.79
416.121	13.83
416.483	13.78
416.845	13.57
417.206	13.79
417.568	13.68
417.93	13.93
418.292	13.71
418.653	13.57
419.015	13.77
419.377	13.7
419.738	13.72
420.1	13.63
420.461	13.61
420.822	13.65
421.184	13.84
421.545	13.75
421.906	13.76
422.267	13.72
422.629	13.65
422.99	13.75
423.351	13.76
423.712	13.83
424.073	13.95
424.434	14.03
424.795	13.85
425.155	13.98
425.516	14.04
425.877	13.85
426.238	13.89
426.598	14.12
426.959	14.11
427.32	14.12
427.68	14.12
428.041	14.42
428.401	14.5
428.761	14.49
429.122	14.48
429.482	14.65
429.842	14.47
430.202	14.84
430.563	14.68
430.923	14.95
431.283	14.84
431.643	14.74
432.003	14.94
432.363	14.93
432.722	14.85
433.082	14.76
433.442	14.86
433.802	14.83
434.161	14.8
434.521	14.92
434.881	14.93
435.24	14.83
435.6	15.15
435.959	15.09
436.319	14.97
436.678	15.15
437.037	15.25
437.396	15.11
437.756	15.16
438.115	15.15
438.474	15.08
438.833	15.15
439.192	15.26
439.551	15.32
439.91	15.41
440.269	15.13
440.628	15.32
440.987	15.29
441.345	15.34
441.704	15.33
442.063	15.19
442.421	15.31
442.78	15.37
443.138	15.39
443.497	15.46
443.855	15.55
444.214	15.54
444.572	15.77
444.93	15.45
445.288	15.57
445.647	15.81
446.005	15.67
446.363	15.7
446.721	15.69
447.079	15.73
447.437	15.72
447.795	15.6
448.153	15.58
448.51	15.65
448.868	15.68
449.226	15.68
449.584	15.79
449.941	16.05
450.299	15.81
450.656	16.02
451.014	16.14
451.371	16.08
451.729	16.15
452.086	16.21
452.443	16.26
452.801	16.2
453.158	16.43
453.515	16.15
453.872	16.28
454.229	16.14
454.586	16.13
454.943	16.26
455.3	16.37
455.657	16.33
456.014	16.46
456.371	16.6
456.727	16.73
457.084	16.79
457.441	16.8
457.797	16.54
458.154	16.61
458.51	16.48
458.867	16.75
459.223	16.57
459.58	16.68
459.936	16.7
460.292	16.67
460.648	16.48
461.005	16.67
461.361	16.51
461.717	16.61
462.073	16.49
462.429	16.63
462.785	16.82
463.141	16.93
463.496	16.79
463.852	17.05
464.208	16.98
464.564	16.82
464.919	17.1
465.275	17.22
465.631	17.33
465.986	17.21
466.342	17.16
466.697	17.34
467.052	17.41
467.408	17.45
467.763	17.36
468.118	17.21
468.473	17.36
468.829	17.33
469.184	17.37
469.539	17.36
469.894	17.47
470.249	17.57
470.603	17.59
470.958	17.72
471.313	17.65
471.668	17.54
472.023	17.82
472.377	17.47
472.732	17.86
473.086	17.8
473.441	17.89
473.795	17.77
474.15	17.82
474.504	17.75
474.859	17.66
475.213	17.86
475.567	17.83
475.921	17.96
476.275	18.04
476.63	18.02
476.984	17.92
477.338	18.07
477.692	18.01
478.045	18.11
478.399	18.01
478.753	18.15
479.107	18.15
479.461	17.99
479.814	18.11
480.168	17.95
480.521	18.31
480.875	18.27
481.228	18.17
481.582	18.25
481.935	18.34
482.289	18.32
482.642	18.32
482.995	18.19
483.348	18.12
483.701	18.16
484.055	18.08
484.408	17.88
484.761	17.58
485.114	17.42
485.466	17.46
485.819	17.47
486.172	17.53
486.525	17.59
486.878	17.71
487.23	17.87
487.583	17.98
487.936	18
488.288	17.88
488.641	17.86
488.993	17.8
489.345	17.78
489.698	17.79
490.05	17.86
490.402	17.93
490.754	18.08
491.107	18.19
491.459	18.37
491.811	18.44
492.163	18.56
492.515	18.4
492.866	18.17
493.218	18.08
493.57	18.27
493.922	18.24
494.274	18.46
494.625	18.53
494.977	18.71
495.328	18.99
495.68	19.05
496.031	18.96
496.383	19.08
496.734	19
497.086	19.31
497.437	19.26
497.788	19.35
498.139	19.1
498.49	19.07
498.842	19.18
499.193	19.12
499.544	19.12
499.894	19.19
500.245	19.41
500.596	19.4
500.947	19.38
501.298	19.42
501.648	19.51
501.999	19.67
502.35	19.41
502.7	19.71
503.051	19.59
503.401	19.56
503.752	19.67
504.102	19.68
504.452	19.69
504.803	19.76
505.153	19.9
505.503	19.66
505.853	19.91
506.203	19.77
506.553	19.77
506.903	20.06
507.253	19.77
507.603	19.95
507.953	19.82
508.303	19.96
508.652	19.96
509.002	19.98
509.352	19.93
509.701	19.73
510.051	19.9
510.4	19.87
510.75	19.81
511.099	19.9
511.449	19.97
511.798	19.91
512.147	20.02
512.496	20
512.846	20
513.195	20.15
513.544	20.1
513.893	20.1
514.242	20.06
514.591	20.04
514.939	20.16
515.288	20.14
515.637	20.37
515.986	20.37
516.334	20.41
516.683	20.4
517.032	20.46
517.38	20.48
517.729	20.42
518.077	20.38
518.426	20.48
518.774	20.34
519.122	20.42
519.47	20.21
519.819	20.21
520.167	20.16
520.515	20.28
520.863	20.2
521.211	20.23
521.559	20.27
521.907	20.49
522.255	20.52
522.602	20.67
522.95	20.73
523.298	20.83
523.645	20.82
523.993	20.73
524.341	20.84
524.688	20.96
525.036	20.79
525.383	20.97
525.73	20.76
526.078	20.82
526.425	20.76
526.772	20.58
527.119	20.51
527.466	20.56
527.814	20.54
528.161	20.49
528.508	20.63
528.854	20.54
529.201	20.47
529.548	20.23
529.895	20.11
530.242	20.21
530.588	20.2
530.935	20.21
531.282	20.19
531.628	20.44
531.975	20.41
532.321	20.75
532.667	20.75
533.014	20.95
533.36	20.99
533.706	21.01
534.052	21
534.399	20.74
534.745	20.62
535.091	20.7
535.437	20.78
535.783	20.78
536.129	21.04
536.474	21
536.82	21.23
537.166	21.11
537.512	21.23
537.857	21.16
538.203	21.16
538.549	21.2
538.894	21.23
539.239	21.32
539.585	21.42
539.93	21.54
540.276	21.55
540.621	21.73
540.966	21.57
541.311	21.56
541.656	21.4
542.001	21.35
542.346	21.16
542.691	21.07
543.036	21.04
543.381	21.09
543.726	21.09
544.071	21.19
544.415	21.31
544.76	21.36
545.105	21.5
545.449	21.52
545.794	21.76
546.138	21.67
546.483	21.89
546.827	21.83
547.171	21.89
547.516	22.02
547.86	21.88
548.204	21.81
548.548	21.86
548.892	21.92
549.236	21.93
549.58	21.93
549.924	22.21
550.268	22.48
550.612	22.34
550.956	22.61
551.3	22.57
551.643	22.59
551.987	22.74
552.33	22.73
552.674	22.7
553.017	22.71
553.361	22.73
553.704	22.7
554.048	22.56
554.391	22.61
554.734	22.54
555.077	22.63
555.42	22.81
555.764	22.67
556.107	22.79
556.45	22.82
556.793	22.86
557.135	22.96
557.478	23.08
557.821	23.07
558.164	23.04
558.507	22.87
558.849	23.11
559.192	22.91
559.534	22.95
559.877	22.97
560.219	23.26
560.562	22.98
560.904	23.16
561.246	23.17
561.589	23.35
561.931	23.08
562.273	23.04
562.615	22.99
562.957	23.09
563.299	23.33
563.641	23.1
563.983	23.07
564.325	23.23
564.667	23.39
565.008	23.19
565.35	23.35
565.692	23.37
566.033	23.31
566.375	23.59
566.716	23.4
567.058	23.22
567.399	23.34
567.741	23.38
568.082	23.4
568.423	23.16
568.764	23.28
569.105	23.49
569.447	23.41
569.788	23.5
570.129	23.44
570.47	23.47
570.811	23.79
571.151	23.42
571.492	23.58
571.833	23.66
572.174	23.6
572.514	23.68
572.855	23.69
573.195	23.57
573.536	23.68
573.876	23.51
574.217	23.58
574.557	23.52
574.898	23.75
575.238	23.97
575.578	23.82
575.918	23.99
576.258	23.92
576.598	24.04
576.938	23.75
577.278	24.04
577.618	23.83
577.958	24.07
578.298	23.95
578.638	23.9
578.977	24.12
579.317	23.95
579.657	24.12
579.996	24.39
580.336	24.34
580.675	24.17
581.014	24.45
581.354	24.33
581.693	24.7
582.032	24.61
582.372	24.42
582.711	24.36
583.05	24.54
583.389	24.55
583.728	24.65
584.067	24.51
584.406	24.5
584.745	24.52
585.083	24.4
585.422	24.45
585.761	24.76
586.1	24.74
586.438	24.51
586.777	24.54
587.115	24.76
587.454	24.51
587.792	24.78
588.13	24.72
588.469	24.57
588.807	24.84
589.145	24.81
589.483	24.42
589.821	24.72
590.159	24.8
590.497	24.82
590.835	24.98
591.173	24.98
591.511	25.11
591.849	24.99
592.187	24.68
592.524	24.99
592.862	24.64
593.2	25.05
593.537	24.68
593.875	24.83
594.212	24.85
594.55	25.23
594.887	25.22
595.224	25.32
595.561	24.87
595.899	24.9
596.236	24.94
596.573	24.99
596.91	25.16
597.247	25.12
597.584	24.87
597.921	25.17
598.258	24.94
598.594	25.12
598.931	24.9
599.268	24.91
599.604	25.04
599.941	25.18
600.277	25.07
600.614	25.12
600.95	25.52
601.287	25.14
601.623	25.08
601.959	25.84
602.296	25.57
602.632	25.56
602.968	25.69
603.304	25.61
603.64	25.56
603.976	25.23
604.312	25.46
604.648	25.59
604.984	25.66
605.319	25.38
605.655	25.54
605.991	25.44
606.326	25.53
606.662	25.32
606.998	25.38
607.333	25.64
607.668	25.52
608.004	25.44
608.339	25.43
608.674	25.83
609.01	25.83
609.345	25.88
609.68	25.64
610.015	26.02
610.35	25.99
610.685	25.79
611.02	25.65
611.355	25.52
611.689	25.74
612.024	26.02
612.359	26.13
612.694	26.17
613.028	25.98
613.363	26.25
613.697	25.96
614.032	25.97
614.366	26.14
614.7	26.22
615.035	26.02
615.369	26.26
615.703	26.37
616.037	26.03
616.371	26.11
616.705	26.37
617.039	26.32
617.373	26.3
617.707	26.38
618.041	26.23
618.375	25.97
618.709	26.89
619.042	26.69
619.376	26.32
619.71	26.51
620.043	26.64
620.377	26.47
620.71	26.37
621.043	26.53
621.377	26.82
621.71	26.77
622.043	26.73
622.376	26.74
622.709	26.95
623.043	26.38
623.376	26.66
623.709	26.78
624.041	26.65
624.374	26.66
624.707	26.83
625.04	26.85
625.373	27.14
625.705	27.07
626.038	27.07
626.37	26.75
626.703	26.79
627.035	26.85
627.368	27.08
627.7	26.97
628.032	26.88
628.365	26.78
628.697	27.18
629.029	26.91
629.361	26.97
629.693	26.81
630.025	27.04
630.357	27.13
630.689	26.96
631.021	27.15
631.353	26.96
631.684	26.84
632.016	27.26
632.348	26.9
632.679	27.09
633.011	27.31
633.342	27.16
633.674	26.88
634.005	26.94
634.336	27.08
634.668	27.07
634.999	27.14
635.33	27.15
635.661	27.37
635.992	27.61
636.323	27.19
636.654	27.42
636.985	27.76
637.316	27.45
637.647	27.43
637.977	27.64
638.308	27.73
638.639	27.37
638.969	27.51
639.3	27.66
639.63	27.31
639.961	27.17
640.291	27.22
640.622	27.86
640.952	27.78
641.282	27.04
641.612	27.89
641.943	27.42
642.273	27.59
642.603	27.57
642.933	27.76
643.263	27.63
643.592	27.99
643.922	27.93
644.252	27.85
644.582	28.25
644.911	28.01
645.241	27.66
645.571	27.66
645.9	28.44
646.23	28.27
646.559	27.76
646.888	28.06
647.218	27.72
647.547	28.05
647.876	28.1
648.205	28.14
648.534	27.91
648.863	27.87
649.192	28.36
649.521	27.96
649.85	28.3
650.179	28.56
650.508	27.6
650.837	27.96
651.165	28.07
651.494	28.62
651.822	27.96
652.151	28.17
652.479	28.19
652.808	28.26
653.136	28.4
653.465	28.43
653.793	28.14
654.121	28.37
654.449	28.45
654.777	28.03
655.105	28.58
655.433	28.61
655.761	28.62
656.089	28.84
656.417	29.16
656.745	28.5
657.073	28.16
657.4	28.5
657.728	28.61
658.056	28.66
658.383	28.51
658.711	28.62
659.038	29.02
659.365	28.75
659.693	28.55
660.02	28.15
660.347	28.75
660.674	28.73
661.001	28.62
661.329	28.07
661.656	28.3
661.982	28.1
662.309	28.48
662.636	28.61
662.963	28.56
663.29	28.67
663.616	28.63
663.943	28.95
664.27	29.09
664.596	28.53
664.923	28.88
665.249	29.36
665.576	28.85
665.902	28.56
666.228	28.95
666.554	29.6
666.881	28.75
667.207	29.3
667.533	28.81
667.859	28.74
668.185	29.51
668.511	29.48
668.837	29.33
669.162	28.81
669.488	29.16
669.814	28.91
670.139	28.69
670.465	29.71
670.791	28.87
671.116	29.02
