Data from 0010_forehead_Reflection__3__330.txt Node

Date: Thu Dec 15 19:13:03 CST 2022
User: ToomeyLab
Spectrometer: FLMS14357
Trigger mode: 0
Integration Time (sec): 1.000000E-2
Scans to average: 100
Electric dark correction enabled: true
Nonlinearity correction enabled: false
Boxcar width: 0
XAxis mode: Wavelengths
Number of Pixels in Spectrum: 2048
>>>>>Begin Spectral Data<<<<<
189.047	60.46
189.435	60.46
189.823	60.46
190.211	96.91
190.599	33.72
190.987	80.06
191.375	-42.88
191.763	51.09
192.151	6.97
192.538	-5.99
192.926	373.43
193.314	-53.63
193.702	169.78
194.089	36.67
194.477	427.25
194.864	2.06
195.252	-111.84
195.639	47.63
196.027	-67.72
196.414	21.12
196.801	30.11
197.189	246.01
197.576	-899.09
197.963	594.65
198.351	-19.28
198.738	-122.72
199.125	-67.4
199.512	43.4
199.899	9.82
200.286	-9.02
200.673	37.59
201.06	19.06
201.447	-18.43
201.833	9.29
202.22	11.7
202.607	26.23
202.994	-18.88
203.38	21.49
203.767	-7.86
204.154	28.76
204.54	8.65
204.927	-18.42
205.313	30.62
205.699	17.22
206.086	22.48
206.472	27.71
206.858	-22.2
207.245	41.73
207.631	-16.9
208.017	63.19
208.403	-1.38
208.789	8.51
209.175	11.25
209.561	-43.32
209.947	25.28
210.333	-18.61
210.719	26.68
211.105	4.79
211.491	25.33
211.876	43.33
212.262	21.03
212.648	-6.56
213.034	-22.86
213.419	9
213.805	-11.66
214.19	-78.92
214.576	-1.45
214.961	-4.1
215.346	-32.28
215.732	-3.01
216.117	14.31
216.502	6.52
216.888	20.85
217.273	7.04
217.658	-4.85
218.043	-45.14
218.428	-4.76
218.813	13.47
219.198	-27.66
219.583	-43.5
219.968	0.77
220.353	-12.76
220.738	5.22
221.122	14.77
221.507	4.75
221.892	-7.11
222.276	-30.51
222.661	-22.81
223.046	-4.22
223.43	13.34
223.815	2.19
224.199	-8.79
224.583	-6.5
224.968	-8.78
225.352	-5.29
225.736	10.23
226.121	0.05
226.505	3.23
226.889	-6.96
227.273	-3.12
227.657	2.9
228.041	0.08
228.425	-0.8
228.809	2.47
229.193	5.14
229.577	2.05
229.961	3.31
230.344	3.01
230.728	3.5
231.112	3.38
231.495	1.62
231.879	1.82
232.263	3.95
232.646	2.31
233.03	3.77
233.413	4.08
233.797	-0.49
234.18	2.23
234.563	2.76
234.946	3.06
235.33	1.92
235.713	4.54
236.096	4.57
236.479	4.38
236.862	1.92
237.245	1.16
237.628	2.01
238.011	1.61
238.394	3.37
238.777	2.77
239.16	5.69
239.543	3.73
239.925	1.98
240.308	0.81
240.691	2.89
241.073	3.13
241.456	2.8
241.838	1.97
242.221	2.96
242.603	2.93
242.986	3.44
243.368	3.61
243.75	3.46
244.133	3.59
244.515	3
244.897	2.99
245.279	2.52
245.661	3.49
246.043	3.85
246.425	3.37
246.807	3.49
247.189	3.45
247.571	3.36
247.953	3.23
248.335	3.55
248.717	3.41
249.098	3.26
249.48	3.43
249.862	3.25
250.243	3.18
250.625	3.55
251.006	3.73
251.388	3.02
251.769	2.8
252.151	3.2
252.532	2.77
252.913	3.01
253.295	3.2
253.676	3.6
254.057	2.9
254.438	3.29
254.819	3.78
255.2	2.88
255.581	3.58
255.962	3.56
256.343	4.1
256.724	3.82
257.105	2.93
257.486	1.83
257.867	3.07
258.247	2.7
258.628	3.05
259.009	2.58
259.389	2.9
259.77	3.58
260.15	4.01
260.531	3.65
260.911	3.11
261.292	3.35
261.672	3.34
262.052	3.3
262.432	2.68
262.813	2.98
263.193	3.45
263.573	3.45
263.953	2.68
264.333	3.65
264.713	3.04
265.093	3.19
265.473	3.36
265.853	2.9
266.233	3.37
266.612	2.73
266.992	3.14
267.372	3.41
267.752	3.72
268.131	2.91
268.511	3.2
268.89	4.12
269.27	2.8
269.649	2.94
270.029	2.59
270.408	2.72
270.787	3.74
271.167	3.13
271.546	3.77
271.925	3.32
272.304	3.17
272.683	2.8
273.062	3.23
273.441	2.89
273.82	3.47
274.199	3.3
274.578	3.27
274.957	2.98
275.336	3.39
275.715	3.93
276.093	2.98
276.472	2.39
276.851	3.05
277.229	2.62
277.608	2.7
277.986	3.35
278.365	3.11
278.743	3.29
279.122	2.65
279.5	3.2
279.878	2.26
280.257	3.23
280.635	3.26
281.013	2.78
281.391	2.75
281.769	3.32
282.147	3.36
282.525	2.86
282.903	2.86
283.281	3.24
283.659	3.76
284.037	3.01
284.415	3.29
284.792	3.37
285.17	2.78
285.548	3.29
285.925	2.88
286.303	3.45
286.68	3.34
287.058	3.19
287.435	2.97
287.813	3.31
288.19	3.37
288.567	3.23
288.945	3.45
289.322	3.2
289.699	3.38
290.076	3.3
290.453	3.53
290.83	3.49
291.207	3.41
291.584	3.29
291.961	3.44
292.338	2.86
292.715	3
293.092	3.88
293.469	3.54
293.845	3.59
294.222	4.44
294.599	3.5
294.975	3.08
295.352	3.65
295.728	3.45
296.105	3.51
296.481	3.57
296.858	3.87
297.234	3.28
297.61	3.6
297.986	4.27
298.363	3.83
298.739	4.07
299.115	3.85
299.491	4
299.867	3.45
300.243	3.85
300.619	3.69
300.995	3.72
301.371	3.83
301.746	4.13
302.122	3.34
302.498	3.64
302.874	4.2
303.249	4.12
303.625	3.67
304	4.17
304.376	4.66
304.751	4.12
305.127	3.42
305.502	4.75
305.878	4.39
306.253	3.99
306.628	4.5
307.003	3.78
307.378	4.04
307.754	4.01
308.129	3.77
308.504	4.81
308.879	4.06
309.254	4.72
309.629	4.15
310.003	4.53
310.378	5.04
310.753	4.73
311.128	4.71
311.502	4.9
311.877	4.76
312.252	4.89
312.626	5.05
313.001	4.59
313.375	4.92
313.75	4.86
314.124	5.09
314.498	5.29
314.873	4.54
315.247	4.77
315.621	4.88
315.995	4.83
316.369	4.42
316.743	4.74
317.117	5.14
317.491	5.46
317.865	5.08
318.239	5.65
318.613	4.77
318.987	4.61
319.361	5.39
319.734	5.37
320.108	5.76
320.482	6.1
320.855	5.25
321.229	5.61
321.602	5.48
321.976	4.88
322.349	6.06
322.723	5.4
323.096	5.72
323.469	5.39
323.843	5.33
324.216	5.64
324.589	6.03
324.962	5.68
325.335	6.02
325.708	5.78
326.081	6.08
326.454	6.63
326.827	6.02
327.2	5.65
327.573	6.42
327.945	5.95
328.318	5.67
328.691	5.98
329.063	6.09
329.436	6.09
329.809	6.45
330.181	6.86
330.553	6.49
330.926	6.42
331.298	6.54
331.671	6.32
332.043	6.49
332.415	6.79
332.787	6.78
333.159	6.52
333.532	6.59
333.904	6.96
334.276	6.41
334.648	6.81
335.02	6.81
335.391	6.57
335.763	6.66
336.135	7.07
336.507	6.59
336.879	6.86
337.25	7.17
337.622	7.67
337.993	6.92
338.365	7.69
338.736	7.33
339.108	7.13
339.479	7.12
339.851	7.46
340.222	7.44
340.593	6.91
340.964	7.25
341.336	7.18
341.707	7.42
342.078	7.25
342.449	7.64
342.82	7.33
343.191	7.52
343.562	7.39
343.933	7.34
344.303	7.7
344.674	7.89
345.045	7.56
345.416	7.52
345.786	7.46
346.157	8.05
346.527	7.65
346.898	7.61
347.268	8.25
347.639	7.87
348.009	7.96
348.38	7.75
348.75	8.01
349.12	8.01
349.49	8.21
349.861	8.19
350.231	8.26
350.601	8.09
350.971	8.08
351.341	8.24
351.711	8.42
352.081	8.19
352.45	8.08
352.82	7.78
353.19	8.32
353.56	8.18
353.929	8.78
354.299	8.42
354.669	8.61
355.038	8.57
355.408	8.59
355.777	8.62
356.147	8.6
356.516	8.34
356.885	8.82
357.254	8.43
357.624	8.34
357.993	8.93
358.362	8.94
358.731	8.98
359.1	8.58
359.469	9.02
359.838	8.94
360.207	8.8
360.576	8.69
360.945	8.94
361.314	9.02
361.682	8.61
362.051	9.21
362.42	9.04
362.788	9.05
363.157	9.01
363.525	9.12
363.894	8.9
364.262	9.13
364.631	9.6
364.999	9.28
365.367	9.28
365.735	9.26
366.104	9.3
366.472	9.02
366.84	9.58
367.208	9.97
367.576	9.49
367.944	9.63
368.312	9.46
368.68	9.92
369.048	9.75
369.416	9.33
369.783	10.05
370.151	10.16
370.519	10.26
370.886	9.52
371.254	10.2
371.621	9.97
371.989	10.12
372.356	9.73
372.724	10.1
373.091	9.75
373.458	9.95
373.826	10
374.193	10.06
374.56	10.37
374.927	10.1
375.294	10.29
375.661	10.33
376.028	10.36
376.395	10.4
376.762	10.02
377.129	10.3
377.496	10.63
377.863	10.53
378.229	10.88
378.596	10.5
378.963	10.62
379.329	10.77
379.696	10.62
380.062	10.57
380.429	10.54
380.795	10.95
381.161	10.35
381.528	10.58
381.894	10.86
382.26	10.83
382.626	10.9
382.993	11.18
383.359	10.89
383.725	11
384.091	10.82
384.457	11.01
384.823	11.04
385.188	11.32
385.554	11.06
385.92	10.95
386.286	11.33
386.651	11.33
387.017	11.31
387.383	11.13
387.748	11.64
388.114	11.55
388.479	11.43
388.845	11.53
389.21	11.74
389.575	11.74
389.94	11.93
390.306	11.82
390.671	11.76
391.036	11.75
391.401	11.97
391.766	11.91
392.131	11.98
392.496	11.84
392.861	11.71
393.226	11.73
393.591	11.93
393.956	12.03
394.32	11.93
394.685	12.11
395.05	12.09
395.414	12.06
395.779	12.22
396.143	12.01
396.508	12.13
396.872	12.16
397.236	12.36
397.601	12.42
397.965	12.42
398.329	12.37
398.694	12.05
399.058	12.49
399.422	12.53
399.786	12.51
400.15	12.44
400.514	12.61
400.878	12.6
401.242	12.66
401.605	12.95
401.969	12.6
402.333	12.47
402.697	13.04
403.06	12.8
403.424	12.82
403.787	12.87
404.151	12.81
404.514	13.07
404.878	12.78
405.241	13.08
405.604	12.71
405.968	12.94
406.331	12.95
406.694	13.16
407.057	13.1
407.42	13.06
407.783	13.29
408.146	13.05
408.509	13.26
408.872	13.09
409.235	13.4
409.598	13.45
409.961	13.44
410.323	13.42
410.686	13.45
411.049	13.43
411.411	13.56
411.774	13.48
412.136	13.38
412.499	13.75
412.861	13.42
413.223	13.56
413.586	13.8
413.948	13.9
414.31	13.88
414.672	13.82
415.035	14.06
415.397	13.76
415.759	13.78
416.121	14.07
416.483	13.96
416.845	13.91
417.206	13.91
417.568	13.74
417.93	13.96
418.292	13.79
418.653	13.77
419.015	14.14
419.377	13.99
419.738	14.16
420.1	14.11
420.461	14.05
420.822	13.94
421.184	14.06
421.545	13.98
421.906	14.23
422.267	14.12
422.629	14.04
422.99	14.13
423.351	14.14
423.712	14.25
424.073	14.29
424.434	14.32
424.795	14.29
425.155	14.35
425.516	14.27
425.877	14.46
426.238	14.51
426.598	14.38
426.959	14.58
427.32	14.64
427.68	14.67
428.041	14.83
428.401	14.67
428.761	15
429.122	14.79
429.482	14.93
429.842	14.8
430.202	15.36
430.563	14.98
430.923	14.96
431.283	15.14
431.643	15.27
432.003	15.33
432.363	15.37
432.722	15.28
433.082	15.07
433.442	15.35
433.802	15.32
434.161	15.28
434.521	15.26
434.881	15.17
435.24	15.33
435.6	15.52
435.959	15.42
436.319	15.48
436.678	15.52
437.037	15.68
437.396	15.52
437.756	15.54
438.115	15.5
438.474	15.77
438.833	15.82
439.192	15.71
439.551	15.71
439.91	15.89
440.269	15.91
440.628	15.68
440.987	15.65
441.345	15.88
441.704	15.9
442.063	15.78
442.421	15.86
442.78	15.88
443.138	15.94
443.497	15.88
443.855	15.94
444.214	15.95
444.572	16.19
444.93	16.11
445.288	16.19
445.647	16.27
446.005	16.16
446.363	16.22
446.721	16.17
447.079	16.22
447.437	16.33
447.795	16.28
448.153	16.24
448.51	16.29
448.868	16.41
449.226	16.37
449.584	16.38
449.941	16.5
450.299	16.62
450.656	16.63
451.014	16.76
451.371	16.86
451.729	16.87
452.086	16.81
452.443	17.01
452.801	17.07
453.158	17.17
453.515	16.75
453.872	16.84
454.229	16.81
454.586	16.95
454.943	17.06
455.3	17.22
455.657	17.22
456.014	17.17
456.371	17.26
456.727	17.43
457.084	17.36
457.441	17.55
457.797	17.32
458.154	17.49
458.51	17.47
458.867	17.27
459.223	17.32
459.58	17.58
459.936	17.4
460.292	17.37
460.648	17.36
461.005	17.3
461.361	17.2
461.717	17.37
462.073	17.38
462.429	17.52
462.785	17.66
463.141	17.69
463.496	17.85
463.852	17.99
464.208	18.04
464.564	17.91
464.919	17.79
465.275	18.1
465.631	18.04
465.986	17.98
466.342	18.08
466.697	18.05
467.052	18.18
467.408	18.15
467.763	18.38
468.118	18.22
468.473	18.28
468.829	18.17
469.184	18.34
469.539	18.38
469.894	18.33
470.249	18.34
470.603	18.7
470.958	18.58
471.313	18.54
471.668	18.7
472.023	18.43
472.377	18.58
472.732	18.66
473.086	18.61
473.441	18.72
473.795	18.81
474.15	18.56
474.504	18.84
474.859	18.59
475.213	18.98
475.567	18.68
475.921	19
476.275	19.04
476.63	19.03
476.984	18.9
477.338	19.09
477.692	18.87
478.045	19.07
478.399	19.02
478.753	18.91
479.107	19.06
479.461	19.09
479.814	19.24
480.168	19.23
480.521	19.28
480.875	19.31
481.228	19.3
481.582	19.26
481.935	19.37
482.289	19.29
482.642	19.42
482.995	19.35
483.348	19.21
483.701	19.13
484.055	19.19
484.408	19.05
484.761	18.74
485.114	18.62
485.466	18.54
485.819	18.56
486.172	18.64
486.525	18.79
486.878	18.92
487.23	18.98
487.583	19.21
487.936	19.28
488.288	19.19
488.641	19.1
488.993	18.94
489.345	19.01
489.698	18.96
490.05	19.16
490.402	19.19
490.754	19.33
491.107	19.44
491.459	19.82
491.811	19.77
492.163	19.59
492.515	19.58
492.866	19.38
493.218	19.28
493.57	19.55
493.922	19.49
494.274	19.71
494.625	19.85
494.977	20.01
495.328	20.12
495.68	20.18
496.031	20.27
496.383	20.34
496.734	20.55
497.086	20.66
497.437	20.54
497.788	20.53
498.139	20.43
498.49	20.51
498.842	20.58
499.193	20.52
499.544	20.57
499.894	20.57
500.245	20.81
500.596	20.76
500.947	20.73
501.298	20.9
501.648	20.87
501.999	21.1
502.35	20.95
502.7	21.09
503.051	21.04
503.401	21.08
503.752	21.08
504.102	21.09
504.452	21.17
504.803	21.09
505.153	21.4
505.503	21.19
505.853	21.26
506.203	21.39
506.553	21.28
506.903	21.49
507.253	21.29
507.603	21.47
507.953	21.6
508.303	21.35
508.652	21.44
509.002	21.72
509.352	21.6
509.701	21.54
510.051	21.71
510.4	21.61
510.75	21.53
511.099	21.5
511.449	21.64
511.798	21.45
512.147	21.51
512.496	21.74
512.846	21.71
513.195	21.64
513.544	21.68
513.893	21.73
514.242	21.77
514.591	21.84
514.939	21.9
515.288	21.77
515.637	21.94
515.986	22.01
516.334	22.08
516.683	22.07
517.032	22.12
517.38	22.14
517.729	22.19
518.077	22.24
518.426	22.26
518.774	22.04
519.122	22.15
519.47	21.95
519.819	21.96
520.167	21.92
520.515	21.95
520.863	22.05
521.211	22.14
521.559	22.13
521.907	22.35
522.255	22.47
522.602	22.5
522.95	22.56
523.298	22.69
523.645	22.53
523.993	22.67
524.341	22.49
524.688	22.68
525.036	22.76
525.383	22.83
525.73	22.94
526.078	22.85
526.425	22.77
526.772	22.46
527.119	22.4
527.466	22.5
527.814	22.58
528.161	22.54
528.508	22.65
528.854	22.59
529.201	22.39
529.548	22.34
529.895	22.18
530.242	22.17
530.588	22.21
530.935	22.28
531.282	22.33
531.628	22.46
531.975	22.55
532.321	22.65
532.667	22.91
533.014	22.99
533.36	22.97
533.706	23.04
534.052	23.02
534.399	22.87
534.745	22.66
535.091	22.73
535.437	22.88
535.783	22.91
536.129	23
536.474	23.22
536.82	23.35
537.166	23.32
537.512	23.33
537.857	23.23
538.203	23.3
538.549	23.29
538.894	23.37
539.239	23.56
539.585	23.56
539.93	23.78
540.276	23.79
540.621	23.93
540.966	23.95
541.311	23.95
541.656	23.7
542.001	23.57
542.346	23.34
542.691	23.23
543.036	23.27
543.381	23.28
543.726	23.35
544.071	23.48
544.415	23.63
544.76	23.63
545.105	23.74
545.449	23.92
545.794	23.99
546.138	24.07
546.483	24.25
546.827	24.16
547.171	24.29
547.516	24.27
547.86	24.38
548.204	24.28
548.548	24.25
548.892	24.18
549.236	24.27
549.58	24.37
549.924	24.62
550.268	24.81
550.612	24.8
550.956	24.93
551.3	24.95
551.643	24.98
551.987	25.11
552.33	25.08
552.674	25.24
553.017	25.21
553.361	25.15
553.704	24.95
554.048	25.11
554.391	25.08
554.734	24.87
555.077	25.04
555.42	25.05
555.764	25.09
556.107	25.12
556.45	25.37
556.793	25.36
557.135	25.41
557.478	25.3
557.821	25.6
558.164	25.55
558.507	25.51
558.849	25.69
559.192	25.71
559.534	25.62
559.877	25.73
560.219	25.52
560.562	25.57
560.904	25.99
561.246	25.74
561.589	26.01
561.931	25.81
562.273	25.93
562.615	25.83
562.957	25.56
563.299	25.85
563.641	25.62
563.983	25.91
564.325	26.11
564.667	26.13
565.008	25.8
565.35	26.03
565.692	25.95
566.033	26.05
566.375	26.1
566.716	25.97
567.058	26.04
567.399	26.11
567.741	25.98
568.082	26.07
568.423	25.95
568.764	26.2
569.105	26.23
569.447	26.31
569.788	26.24
570.129	26.4
570.47	26.41
570.811	26.35
571.151	26.36
571.492	26.31
571.833	26.33
572.174	26.67
572.514	26.46
572.855	26.33
573.195	26.2
573.536	26.63
573.876	26.3
574.217	26.36
574.557	26.45
574.898	26.52
575.238	26.77
575.578	26.71
575.918	26.65
576.258	26.68
576.598	26.61
576.938	26.54
577.278	26.71
577.618	26.74
577.958	26.89
578.298	26.92
578.638	26.76
578.977	26.98
579.317	26.89
579.657	27.03
579.996	27.12
580.336	27.15
580.675	27.21
581.014	27.53
581.354	27.23
581.693	27.41
582.032	27.38
582.372	27.31
582.711	27.43
583.05	27.44
583.389	27.73
583.728	27.6
584.067	27.26
584.406	27.48
584.745	27.49
585.083	27.4
585.422	27.76
585.761	27.78
586.1	27.77
586.438	27.63
586.777	27.65
587.115	27.93
587.454	27.5
587.792	27.65
588.13	27.83
588.469	27.85
588.807	27.83
589.145	27.81
589.483	27.45
589.821	27.81
590.159	28.1
590.497	28.02
590.835	28.06
591.173	27.89
591.511	27.98
591.849	28
592.187	27.86
592.524	27.98
592.862	28.11
593.2	28.2
593.537	27.91
593.875	27.92
594.212	28.22
594.55	28.06
594.887	28.56
595.224	28.4
595.561	28.17
595.899	28.02
596.236	28.32
596.573	28.34
596.91	28.52
597.247	28.25
597.584	28.32
597.921	28.12
598.258	28.12
598.594	28.12
598.931	28.1
599.268	28.14
599.604	28.35
599.941	28.55
600.277	28.23
600.614	28.44
600.95	28.42
601.287	28.55
601.623	28.59
601.959	29.01
602.296	29.02
602.632	28.67
602.968	28.52
603.304	28.83
603.64	28.63
603.976	28.5
604.312	28.84
604.648	28.99
604.984	28.49
605.319	28.81
605.655	28.82
605.991	28.43
606.326	28.64
606.662	28.55
606.998	28.64
607.333	28.89
607.668	29.03
608.004	28.93
608.339	28.7
608.674	28.92
609.01	29.55
609.345	29.19
609.68	29.11
610.015	29.26
610.35	29.56
610.685	29.26
611.02	28.94
611.355	29.22
611.689	29.14
612.024	29.47
612.359	29.45
612.694	29.35
613.028	29.19
613.363	29.74
613.697	29.54
614.032	29.41
614.366	29.78
614.7	29.86
615.035	29.52
615.369	29.59
615.703	29.58
616.037	29.8
616.371	29.69
616.705	29.9
617.039	30.09
617.373	30.02
617.707	29.62
618.041	29.7
618.375	29.6
618.709	29.91
619.042	30.19
619.376	30.14
619.71	29.81
620.043	30.18
620.377	30.05
620.71	29.83
621.043	30.22
621.377	29.91
621.71	30.11
622.043	30.26
622.376	30.15
622.709	30.48
623.043	30.23
623.376	30.13
623.709	30.75
624.041	30.24
624.374	30.24
624.707	30.19
625.04	30.22
625.373	30.39
625.705	30.08
626.038	30.72
626.37	30.6
626.703	30.3
627.035	30.38
627.368	30.66
627.7	30.69
628.032	30.7
628.365	30.48
628.697	30.67
629.029	30.49
629.361	30.63
629.693	30.59
630.025	30.5
630.357	30.76
630.689	30.3
631.021	30.83
631.353	30.86
631.684	30.29
632.016	30.45
632.348	31.12
632.679	31.39
633.011	31.36
633.342	30.65
633.674	30.71
634.005	30.61
634.336	30.9
634.668	31.09
634.999	30.56
635.33	30.75
635.661	30.73
635.992	31.24
636.323	30.99
636.654	31.07
636.985	31.07
637.316	31.13
637.647	30.96
637.977	31.17
638.308	31.32
638.639	31.15
638.969	31.16
639.3	31.2
639.63	31.06
639.961	31.24
640.291	31.49
640.622	31.51
640.952	31.2
641.282	31.06
641.612	31.48
641.943	31.18
642.273	31.13
642.603	31.74
642.933	31.5
643.263	31.47
643.592	31.54
643.922	32.03
644.252	31.56
644.582	31.61
644.911	31.56
645.241	31.56
645.571	31.47
645.9	31.74
646.23	32.35
646.559	31.72
646.888	32.58
647.218	31.68
647.547	31.67
647.876	31.71
648.205	32.45
648.534	31.54
648.863	31.87
649.192	32.04
649.521	31.96
649.85	31.71
650.179	31.92
650.508	32.06
650.837	32.21
651.165	31.55
651.494	32.09
651.822	32.07
652.151	31.71
652.479	32.32
652.808	31.91
653.136	31.92
653.465	32.07
653.793	31.65
654.121	32.1
654.449	31.98
654.777	31.92
655.105	31.6
655.433	32
655.761	32.08
656.089	32.59
656.417	32.73
656.745	32.27
657.073	32.13
657.4	32.46
657.728	32.24
658.056	32.5
658.383	32.63
658.711	32.84
659.038	32.68
659.365	32.4
659.693	32.51
660.02	32.55
660.347	32.64
660.674	32.12
661.001	32.34
661.329	32.27
661.656	32.31
661.982	31.92
662.309	32.82
662.636	32.56
662.963	32.19
663.29	32.42
663.616	33.04
663.943	32.98
664.27	32.8
664.596	32.8
664.923	32.43
665.249	33.45
665.576	33
665.902	32.56
666.228	32.86
666.554	33.16
666.881	33.08
667.207	33.3
667.533	32.97
667.859	32.59
668.185	32.67
668.511	32.98
668.837	33.65
669.162	32.32
669.488	32.82
669.814	33.56
670.139	32.5
670.465	33.18
670.791	32.9
671.116	32.64
671.442	32.6
671.767	33.29
672.092	32.88
672.418	32.82
