Data from 0010_crown_Reflection__4__326.txt Node

Date: Thu Dec 15 19:11:47 CST 2022
User: ToomeyLab
Spectrometer: FLMS14357
Trigger mode: 0
Integration Time (sec): 1.000000E-2
Scans to average: 100
Electric dark correction enabled: true
Nonlinearity correction enabled: false
Boxcar width: 0
XAxis mode: Wavelengths
Number of Pixels in Spectrum: 2048
>>>>>Begin Spectral Data<<<<<
189.047	-35.62
189.435	-35.62
189.823	-35.62
190.211	130.82
190.599	141.52
190.987	10.4
191.375	251.93
191.763	245.69
192.151	80.79
192.538	57.76
192.926	356.23
193.314	132.94
193.702	69.99
194.089	-20.66
194.477	475.98
194.864	50.66
195.252	185.8
195.639	138.04
196.027	-62.99
196.414	5.77
196.801	-37.35
197.189	209.79
197.576	330.45
197.963	40.14
198.351	-31.47
198.738	-190.26
199.125	-196.04
199.512	41.82
199.899	-58.9
200.286	-28.83
200.673	4.43
201.06	-78.26
201.447	-12
201.833	-20.75
202.22	-27.92
202.607	30.36
202.994	-23.93
203.38	25.31
203.767	-24.24
204.154	-9.96
204.54	-6.44
204.927	-6.09
205.313	24.76
205.699	7.89
206.086	25.93
206.472	16.98
206.858	-33.75
207.245	16.47
207.631	-25.34
208.017	55.98
208.403	-107.51
208.789	4.1
209.175	19.39
209.561	-93.92
209.947	-21.8
210.333	-33.34
210.719	21.12
211.105	-1.22
211.491	-41.11
211.876	-33.82
212.262	-5.94
212.648	5.33
213.034	-21.05
213.419	-27.21
213.805	-25.88
214.19	-48.27
214.576	-47.65
214.961	-17.18
215.346	-49.55
215.732	-11.32
216.117	-47.17
216.502	-5.72
216.888	1.05
217.273	-3.4
217.658	-2.62
218.043	-77.56
218.428	-34.57
218.813	-27.15
219.198	-53.48
219.583	-18.03
219.968	-13.65
220.353	-30.64
220.738	1.67
221.122	6.77
221.507	-28.04
221.892	-62.96
222.276	-34.24
222.661	-34.73
223.046	-15
223.43	9.5
223.815	-1.38
224.199	-21.94
224.583	-19.6
224.968	-5.89
225.352	-6.29
225.736	7.1
226.121	-14.22
226.505	-5.35
226.889	-3.41
227.273	-5.62
227.657	0.36
228.041	-2.13
228.425	-5.96
228.809	-3.15
229.193	-0.21
229.577	-1.3
229.961	-0.77
230.344	1.44
230.728	2.03
231.112	0.66
231.495	-0.51
231.879	0.96
232.263	1.97
232.646	-0.32
233.03	2.19
233.413	0.71
233.797	-3.89
234.18	1.78
234.563	1.13
234.946	-2.59
235.33	-1.35
235.713	1.56
236.096	1.09
236.479	2.44
236.862	-1.25
237.245	-0.4
237.628	0.7
238.011	0.57
238.394	1.58
238.777	0.56
239.16	1.47
239.543	0.69
239.925	-0.98
240.308	1.12
240.691	1.26
241.073	0.74
241.456	1.83
241.838	1.32
242.221	1.79
242.603	1.21
242.986	1.8
243.368	1.67
243.75	1.25
244.133	1.85
244.515	1.77
244.897	1.05
245.279	0.57
245.661	0.47
246.043	2.32
246.425	1.64
246.807	0.32
247.189	1.14
247.571	0.94
247.953	1.55
248.335	1.78
248.717	1.91
249.098	1.86
249.48	1.74
249.862	1.72
250.243	1.56
250.625	1.96
251.006	1.71
251.388	0.38
251.769	-0.12
252.151	1.05
252.532	0.71
252.913	1.3
253.295	1.64
253.676	1.7
254.057	0.95
254.438	2.1
254.819	1.4
255.2	1.23
255.581	2.25
255.962	2.48
256.343	1.87
256.724	1.42
257.105	0.95
257.486	-0.84
257.867	0.17
258.247	1.53
258.628	1.94
259.009	1.23
259.389	1.3
259.77	0.58
260.15	2.02
260.531	1.3
260.911	1.47
261.292	1.64
261.672	1.75
262.052	1.76
262.432	1.64
262.813	1.28
263.193	1.54
263.573	1.47
263.953	0.74
264.333	1.28
264.713	1.48
265.093	1.4
265.473	0.94
265.853	0.45
266.233	1.11
266.612	1.07
266.992	1.07
267.372	1.07
267.752	1.52
268.131	1.24
268.511	1.22
268.89	1.81
269.27	1.2
269.649	1.13
270.029	1.22
270.408	1.18
270.787	1.5
271.167	1.44
271.546	1.73
271.925	1.52
272.304	1.66
272.683	1.27
273.062	1.15
273.441	1.16
273.82	1.6
274.199	1.04
274.578	1.63
274.957	1.31
275.336	1.71
275.715	1.48
276.093	0.77
276.472	0.91
276.851	0.81
277.229	1
277.608	0.8
277.986	1.05
278.365	1.46
278.743	1.51
279.122	0.94
279.5	0.81
279.878	0.7
280.257	1.07
280.635	1.2
281.013	1.18
281.391	0.95
281.769	1.26
282.147	1.31
282.525	1.4
282.903	1.23
283.281	1.98
283.659	1.32
284.037	1.15
284.415	0.92
284.792	1.32
285.17	1.03
285.548	1.04
285.925	1.19
286.303	2.14
286.68	1.19
287.058	1.58
287.435	1.2
287.813	1.4
288.19	1.23
288.567	1.39
288.945	1.02
289.322	1.26
289.699	1.59
290.076	1.36
290.453	1.32
290.83	1.53
291.207	1.53
291.584	1.7
291.961	1.75
292.338	1.28
292.715	0.93
293.092	1.33
293.469	1.18
293.845	0.96
294.222	1.68
294.599	0.94
294.975	1.12
295.352	1.42
295.728	1.68
296.105	1.49
296.481	1.16
296.858	1.55
297.234	1.03
297.61	1.9
297.986	1.67
298.363	1.7
298.739	1.56
299.115	1.69
299.491	1.91
299.867	1.44
300.243	1.73
300.619	1.03
300.995	1.29
301.371	1.87
301.746	1.6
302.122	0.75
302.498	1.66
302.874	1.2
303.249	1.44
303.625	1.41
304	1.62
304.376	1.57
304.751	1.91
305.127	1.05
305.502	1.63
305.878	1.66
306.253	1.23
306.628	1.68
307.003	1.35
307.378	1.08
307.754	1.08
308.129	1.47
308.504	1.73
308.879	1.7
309.254	2.29
309.629	1.87
310.003	1.73
310.378	1.75
310.753	1.74
311.128	1.72
311.502	1.61
311.877	1.48
312.252	1.8
312.626	2.01
313.001	1.95
313.375	1.44
313.75	1.81
314.124	1.96
314.498	2.13
314.873	1.28
315.247	2
315.621	1.76
315.995	1.76
316.369	1.36
316.743	1.18
317.117	1.67
317.491	1.69
317.865	1.2
318.239	2.09
318.613	1.45
318.987	1.48
319.361	2.01
319.734	1.38
320.108	2.07
320.482	1.72
320.855	1.37
321.229	1.27
321.602	2.32
321.976	1.69
322.349	2.59
322.723	2.26
323.096	1.64
323.469	1.09
323.843	1.14
324.216	1.18
324.589	1.87
324.962	1.34
325.335	1.41
325.708	1.93
326.081	1.87
326.454	1.78
326.827	1.82
327.2	1.56
327.573	2.33
327.945	1.64
328.318	1.62
328.691	1.75
329.063	1.33
329.436	1.58
329.809	1.78
330.181	2.36
330.553	2.01
330.926	1.7
331.298	1.28
331.671	1.56
332.043	1.46
332.415	1.85
332.787	2.08
333.159	1.34
333.532	1.72
333.904	2.13
334.276	2.01
334.648	2.02
335.02	1.68
335.391	1.61
335.763	2.04
336.135	2.16
336.507	1.56
336.879	1.8
337.25	2
337.622	2.03
337.993	2
338.365	1.83
338.736	1.9
339.108	1.91
339.479	2.13
339.851	2.07
340.222	2.71
340.593	1.89
340.964	1.69
341.336	1.73
341.707	1.84
342.078	1.73
342.449	2.26
342.82	2.21
343.191	2.2
343.562	2.18
343.933	1.65
344.303	2.13
344.674	2.04
345.045	2.04
345.416	2.45
345.786	1.79
346.157	1.94
346.527	1.98
346.898	1.53
347.268	1.97
347.639	1.86
348.009	1.95
348.38	1.54
348.75	2.03
349.12	1.89
349.49	1.98
349.861	1.98
350.231	1.79
350.601	2
350.971	1.8
351.341	2.07
351.711	1.83
352.081	1.69
352.45	1.48
352.82	1.81
353.19	1.99
353.56	2.08
353.929	2.07
354.299	2.07
354.669	1.97
355.038	2.13
355.408	1.79
355.777	2.07
356.147	2.08
356.516	1.86
356.885	1.93
357.254	1.8
357.624	1.64
357.993	2.03
358.362	2.21
358.731	2.23
359.1	1.89
359.469	2.14
359.838	2.04
360.207	1.97
360.576	1.91
360.945	2.22
361.314	2.07
361.682	1.77
362.051	1.91
362.42	2.12
362.788	2.2
363.157	1.84
363.525	2.23
363.894	2.03
364.262	2.11
364.631	2.19
364.999	2.13
365.367	1.8
365.735	1.91
366.104	2.01
366.472	2.06
366.84	2.22
367.208	2.37
367.576	1.94
367.944	2.12
368.312	1.71
368.68	2.45
369.048	2
369.416	1.67
369.783	2.21
370.151	2.69
370.519	2.28
370.886	2.11
371.254	2.34
371.621	2.39
371.989	2.15
372.356	2.08
372.724	2.21
373.091	1.92
373.458	2.09
373.826	2.21
374.193	1.94
374.56	1.98
374.927	2.01
375.294	2.23
375.661	1.95
376.028	1.87
376.395	2.26
376.762	1.91
377.129	2.02
377.496	1.96
377.863	2.13
378.229	2.18
378.596	2.19
378.963	2.38
379.329	2.08
379.696	1.97
380.062	2.29
380.429	1.89
380.795	2.43
381.161	1.76
381.528	1.9
381.894	2.14
382.26	2.12
382.626	2.01
382.993	2.43
383.359	2.06
383.725	1.68
384.091	2.31
384.457	1.76
384.823	2.16
385.188	2.18
385.554	2.35
385.92	1.97
386.286	2.25
386.651	1.98
387.017	2.46
387.383	2.18
387.748	2.33
388.114	2.25
388.479	2.03
388.845	2.1
389.21	2.42
389.575	2.31
389.94	2.4
390.306	2.36
390.671	2.35
391.036	2.17
391.401	2.4
391.766	2.29
392.131	2.59
392.496	2.07
392.861	2.17
393.226	2.16
393.591	2.25
393.956	2.32
394.32	2.45
394.685	2.19
395.05	2.25
395.414	2.17
395.779	2.39
396.143	2.06
396.508	2.16
396.872	2.38
397.236	2.57
397.601	2.49
397.965	2.33
398.329	2.19
398.694	2.04
399.058	2.32
399.422	2.11
399.786	2.26
400.15	2.21
400.514	2.25
400.878	2.28
401.242	2.28
401.605	2.25
401.969	2.2
402.333	2.11
402.697	2.57
403.06	2.19
403.424	2.41
403.787	2.41
404.151	2.22
404.514	2.21
404.878	2.19
405.241	2.49
405.604	2.37
405.968	2.48
406.331	2.46
406.694	2.38
407.057	2.37
407.42	2.26
407.783	2.45
408.146	2.25
408.509	2.42
408.872	2.3
409.235	2.36
409.598	2.45
409.961	2.52
410.323	2.33
410.686	2.53
411.049	2.4
411.411	2.31
411.774	2.16
412.136	2.35
412.499	2.61
412.861	1.99
413.223	2.19
413.586	2.45
413.948	2.31
414.31	2.39
414.672	2.2
415.035	2.39
415.397	2.15
415.759	2.01
416.121	2.33
416.483	2.29
416.845	2.3
417.206	2.27
417.568	2.27
417.93	2.34
418.292	2.2
418.653	2.26
419.015	2.21
419.377	2.32
419.738	2.41
420.1	2.45
420.461	2.27
420.822	2.45
421.184	2.29
421.545	2.42
421.906	2.41
422.267	2.39
422.629	2.38
422.99	2.26
423.351	2.34
423.712	2.38
424.073	2.38
424.434	2.54
424.795	2.3
425.155	2.24
425.516	2.36
425.877	2.38
426.238	2.33
426.598	2.4
426.959	2.4
427.32	2.41
427.68	2.29
428.041	2.45
428.401	2.4
428.761	2.56
429.122	2.42
429.482	2.41
429.842	2.31
430.202	2.51
430.563	2.34
430.923	2.43
431.283	2.36
431.643	2.47
432.003	2.37
432.363	2.47
432.722	2.37
433.082	2.42
433.442	2.52
433.802	2.37
434.161	2.47
434.521	2.31
434.881	2.39
435.24	2.4
435.6	2.55
435.959	2.49
436.319	2.5
436.678	2.67
437.037	2.44
437.396	2.54
437.756	2.33
438.115	2.35
438.474	2.59
438.833	2.54
439.192	2.34
439.551	2.32
439.91	2.54
440.269	2.29
440.628	2.56
440.987	2.5
441.345	2.44
441.704	2.34
442.063	2.38
442.421	2.46
442.78	2.44
443.138	2.54
443.497	2.39
443.855	2.45
444.214	2.3
444.572	2.43
444.93	2.43
445.288	2.47
445.647	2.43
446.005	2.37
446.363	2.4
446.721	2.46
447.079	2.39
447.437	2.43
447.795	2.49
448.153	2.41
448.51	2.43
448.868	2.33
449.226	2.43
449.584	2.39
449.941	2.49
450.299	2.41
450.656	2.39
451.014	2.45
451.371	2.52
451.729	2.48
452.086	2.46
452.443	2.66
452.801	2.57
453.158	2.6
453.515	2.49
453.872	2.44
454.229	2.4
454.586	2.37
454.943	2.54
455.3	2.66
455.657	2.42
456.014	2.49
456.371	2.55
456.727	2.61
457.084	2.59
457.441	2.45
457.797	2.53
458.154	2.56
458.51	2.43
458.867	2.67
459.223	2.41
459.58	2.47
459.936	2.51
460.292	2.44
460.648	2.48
461.005	2.48
461.361	2.51
461.717	2.43
462.073	2.56
462.429	2.57
462.785	2.64
463.141	2.53
463.496	2.69
463.852	2.7
464.208	2.54
464.564	2.46
464.919	2.56
465.275	2.48
465.631	2.55
465.986	2.47
466.342	2.54
466.697	2.6
467.052	2.7
467.408	2.63
467.763	2.51
468.118	2.42
468.473	2.6
468.829	2.52
469.184	2.63
469.539	2.45
469.894	2.68
470.249	2.69
470.603	2.7
470.958	2.79
471.313	2.69
471.668	2.55
472.023	2.66
472.377	2.62
472.732	2.58
473.086	2.5
473.441	2.64
473.795	2.78
474.15	2.7
474.504	2.7
474.859	2.48
475.213	2.68
475.567	2.49
475.921	2.73
476.275	2.69
476.63	2.73
476.984	2.52
477.338	2.62
477.692	2.67
478.045	2.74
478.399	2.55
478.753	2.61
479.107	2.72
479.461	2.56
479.814	2.75
480.168	2.68
480.521	2.71
480.875	2.71
481.228	2.75
481.582	2.63
481.935	2.74
482.289	2.57
482.642	2.72
482.995	2.57
483.348	2.58
483.701	2.65
484.055	2.63
484.408	2.56
484.761	2.57
485.114	2.46
485.466	2.5
485.819	2.5
486.172	2.53
486.525	2.55
486.878	2.62
487.23	2.63
487.583	2.59
487.936	2.62
488.288	2.57
488.641	2.57
488.993	2.53
489.345	2.56
489.698	2.56
490.05	2.54
490.402	2.56
490.754	2.57
491.107	2.62
491.459	2.61
491.811	2.71
492.163	2.68
492.515	2.57
492.866	2.58
493.218	2.59
493.57	2.63
493.922	2.59
494.274	2.68
494.625	2.73
494.977	2.71
495.328	2.73
495.68	2.74
496.031	2.72
496.383	2.74
496.734	2.66
497.086	2.77
497.437	2.73
497.788	2.82
498.139	2.78
498.49	2.67
498.842	2.7
499.193	2.66
499.544	2.67
499.894	2.74
500.245	2.76
500.596	2.79
500.947	2.77
501.298	2.78
501.648	2.71
501.999	2.78
502.35	2.64
502.7	3
503.051	2.72
503.401	2.73
503.752	2.75
504.102	2.63
504.452	2.67
504.803	2.72
505.153	2.92
505.503	2.83
505.853	2.78
506.203	2.86
506.553	2.76
506.903	2.85
507.253	2.76
507.603	2.75
507.953	2.75
508.303	2.77
508.652	2.54
509.002	2.93
509.352	2.82
509.701	2.71
510.051	2.83
510.4	2.73
510.75	2.77
511.099	2.62
511.449	2.86
511.798	2.73
512.147	2.91
512.496	2.86
512.846	2.76
513.195	2.82
513.544	2.88
513.893	2.78
514.242	2.8
514.591	2.83
514.939	2.81
515.288	2.81
515.637	2.79
515.986	2.89
516.334	2.88
516.683	2.81
517.032	2.72
517.38	2.77
517.729	2.86
518.077	2.83
518.426	2.95
518.774	2.74
519.122	2.8
519.47	2.73
519.819	2.83
520.167	2.78
520.515	2.84
520.863	2.79
521.211	2.81
521.559	2.88
521.907	2.9
522.255	2.79
522.602	2.82
522.95	2.91
523.298	2.84
523.645	2.93
523.993	2.82
524.341	2.81
524.688	2.77
525.036	2.83
525.383	2.92
525.73	2.79
526.078	2.95
526.425	2.87
526.772	2.89
527.119	2.87
527.466	2.88
527.814	2.82
528.161	2.86
528.508	2.95
528.854	2.86
529.201	2.84
529.548	2.78
529.895	2.72
530.242	2.75
530.588	2.73
530.935	2.79
531.282	2.77
531.628	2.86
531.975	2.8
532.321	2.91
532.667	2.84
533.014	2.99
533.36	2.95
533.706	2.95
534.052	2.93
534.399	2.83
534.745	2.84
535.091	2.81
535.437	2.84
535.783	2.88
536.129	2.92
536.474	2.97
536.82	2.97
537.166	2.86
537.512	2.81
537.857	2.93
538.203	2.92
538.549	2.85
538.894	2.9
539.239	2.93
539.585	2.95
539.93	2.99
540.276	2.91
540.621	3.07
540.966	2.97
541.311	2.95
541.656	2.89
542.001	2.95
542.346	2.92
542.691	2.88
543.036	2.82
543.381	2.84
543.726	2.96
544.071	2.93
544.415	2.93
544.76	2.95
545.105	2.92
545.449	2.89
545.794	2.94
546.138	2.88
546.483	3.07
546.827	3.01
547.171	3.03
547.516	3.02
547.86	3.11
548.204	3.03
548.548	2.95
548.892	2.98
549.236	2.99
549.58	3.06
549.924	3.19
550.268	3.07
550.612	3.12
550.956	3.18
551.3	3.26
551.643	2.99
551.987	3.12
552.33	3.32
552.674	3.11
553.017	3.19
553.361	3.3
553.704	3.22
554.048	3.15
554.391	3.12
554.734	2.96
555.077	3.11
555.42	3.18
555.764	3.03
556.107	3.2
556.45	3.11
556.793	3.35
557.135	3.18
557.478	3.24
557.821	3.13
558.164	3.16
558.507	3.05
558.849	3.28
559.192	3.11
559.534	3.17
559.877	3.07
560.219	3.01
560.562	3.02
560.904	3.15
561.246	3.12
561.589	3.44
561.931	3.28
562.273	3.15
562.615	3.23
562.957	3.04
563.299	3.16
563.641	3.21
563.983	3.03
564.325	3.21
564.667	3.1
565.008	3.11
565.35	3.09
565.692	3.13
566.033	3.14
566.375	3.27
566.716	3.02
567.058	2.98
567.399	3.29
567.741	3.12
568.082	3.26
568.423	3.01
568.764	3.19
569.105	3.17
569.447	3.16
569.788	3.18
570.129	3.24
570.47	3.16
570.811	3.1
571.151	3.2
571.492	3.21
571.833	3.23
572.174	3.29
572.514	3.41
572.855	3.26
573.195	3.19
573.536	3.3
573.876	3.11
574.217	3.08
574.557	3.1
574.898	3.15
575.238	3.44
575.578	3.26
575.918	3.31
576.258	3.36
576.598	3.3
576.938	3.08
577.278	3.26
577.618	3.24
577.958	3.35
578.298	3.38
578.638	3.25
578.977	3.25
579.317	3.15
579.657	3.2
579.996	3.43
580.336	3.46
580.675	3.19
581.014	3.42
581.354	3.22
581.693	3.42
582.032	3.46
582.372	3.33
582.711	3.46
583.05	3.25
583.389	3.37
583.728	3.58
584.067	3.34
584.406	3.5
584.745	3.2
585.083	3.45
585.422	3.39
585.761	3.35
586.1	3.34
586.438	3.24
586.777	3.3
587.115	3.47
587.454	3.07
587.792	3.48
588.13	3.34
588.469	3.34
588.807	3.36
589.145	3.47
589.483	3.11
589.821	3.46
590.159	3.3
590.497	3.47
590.835	3.45
591.173	3.43
591.511	3.69
591.849	3.5
592.187	3.38
592.524	3.6
592.862	3.2
593.2	3.44
593.537	3.4
593.875	3.46
594.212	3.43
594.55	3.47
594.887	3.52
595.224	3.56
595.561	3.45
595.899	3.45
596.236	3.54
596.573	3.34
596.91	3.5
597.247	3.64
597.584	3.39
597.921	3.45
598.258	3.63
598.594	3.58
598.931	3.2
599.268	3.17
599.604	3.57
599.941	3.6
600.277	3.49
600.614	3.41
600.95	3.33
601.287	3.31
601.623	3.33
601.959	3.6
602.296	3.43
602.632	3.33
602.968	3.52
603.304	3.46
603.64	3.5
603.976	3.4
604.312	3.35
604.648	3.55
604.984	3.4
605.319	3.46
605.655	3.51
605.991	3.49
606.326	3.57
606.662	3.41
606.998	3.67
607.333	3.52
607.668	3.62
608.004	3.3
608.339	3.35
608.674	3.68
609.01	3.8
609.345	3.33
609.68	3.32
610.015	3.67
610.35	3.8
610.685	3.26
611.02	3.44
611.355	3.57
611.689	3.47
612.024	3.56
612.359	3.56
612.694	3.73
613.028	3.32
613.363	3.75
613.697	3.54
614.032	3.72
614.366	3.42
614.7	3.54
615.035	3.76
615.369	3.84
615.703	3.79
616.037	3.61
616.371	3.45
616.705	3.37
617.039	3.51
617.373	3.68
617.707	3.23
618.041	3.24
618.375	3.02
618.709	3.6
619.042	3.56
619.376	3.49
619.71	3.39
620.043	3.88
620.377	3.61
620.71	3.38
621.043	3.95
621.377	3.58
621.71	4.06
622.043	3.78
622.376	3.71
622.709	3.74
623.043	3.66
623.376	3.49
623.709	4.04
624.041	3.58
624.374	3.91
624.707	3.74
625.04	3.39
625.373	3.57
625.705	3.88
626.038	3.81
626.37	3.38
626.703	3.62
627.035	3.87
627.368	3.95
627.7	3.86
628.032	3.85
628.365	4
628.697	3.77
629.029	3.49
629.361	3.85
629.693	3.61
630.025	3.66
630.357	3.9
630.689	3.54
631.021	3.68
631.353	3.73
631.684	3.69
632.016	3.45
632.348	3.56
632.679	3.74
633.011	3.62
633.342	3.38
633.674	3.37
634.005	3.69
634.336	3.97
634.668	4.14
634.999	3.67
635.33	3.83
635.661	3.67
635.992	3.67
636.323	4.09
636.654	3.67
636.985	3.74
637.316	3.74
637.647	4.01
637.977	3.85
638.308	4.18
638.639	3.81
638.969	4.06
639.3	3.86
639.63	3.94
639.961	3.78
640.291	3.67
640.622	3.98
640.952	4.03
641.282	3.62
641.612	3.75
641.943	4.15
642.273	3.63
642.603	4.21
642.933	3.89
643.263	4.47
643.592	4.38
643.922	4.54
644.252	3.79
644.582	3.93
644.911	3.45
645.241	3.52
645.571	3.92
645.9	3.99
646.23	4.17
646.559	3.51
646.888	4.27
647.218	3.95
647.547	3.91
647.876	3.99
648.205	3.32
648.534	3.98
648.863	3.86
649.192	3.89
649.521	4.24
649.85	3.8
650.179	4.21
650.508	3.97
650.837	4.37
651.165	4.3
651.494	3.79
651.822	4.18
652.151	3.92
652.479	4.51
652.808	4.1
653.136	3.66
653.465	3.98
653.793	4.14
654.121	4.11
654.449	3.79
654.777	3.73
655.105	3.37
655.433	4.05
655.761	3.34
656.089	4.38
656.417	4.37
656.745	4.58
657.073	3.87
657.4	4.32
657.728	3.86
658.056	4.28
658.383	3.8
658.711	4.25
659.038	4.38
659.365	4.35
659.693	4.44
660.02	4.12
660.347	3.84
660.674	3.81
661.001	3.95
661.329	4.15
661.656	3.47
661.982	3.89
662.309	3.91
662.636	4.35
662.963	4.17
663.29	4.26
663.616	3.76
663.943	4.01
664.27	4.19
664.596	3.45
664.923	4.02
665.249	4.25
665.576	4.02
665.902	3.68
666.228	4.24
666.554	4.69
666.881	3.66
667.207	3.83
667.533	4.38
667.859	4.25
668.185	3.97
668.511	4.67
668.837	4.31
669.162	4.54
669.488	3.57
669.814	3.86
670.139	3.74
670.465	4.64
670.791	3.72
671.116	4.21
671.442	3.4
671.767	3.96
672.092	4.34
672.418	4.34
672.743	3.62
673.068	3.23
673.393	4.21
673.718	3.47
674.043	4.8
674.368	3.8
674.693	4.33
675.018	4.41
675.343	5.02
675.667	4.36
675.992	4.81
676.317	3.36
676.641	4.54
676.966	4.33
677.29	3.82
677.615	3.55
677.939	4.2
678.264	3.51
678.588	4.67
678.912	3.84
679.236	4.14
679.56	4.51
679.885	3.98
680.209	4.76
680.532	4.96
680.856	4.6
681.18	5.06
681.504	4.13
681.828	3.87
682.152	4.32
682.475	4.22
682.799	3.58
683.122	4.33
683.446	4.39
683.769	4.84
684.093	4.7
684.416	3.4
684.739	4.07
685.062	4.72
685.386	4.45
685.709	4.24
686.032	4.47
686.355	4.04
686.678	4.89
687.001	4.3
687.324	4.46
687.646	4.2
687.969	4.78
688.292	4.35
688.614	4.05
688.937	4.18
689.26	5.02
689.582	4.4
689.904	4.73
690.227	4.18
690.549	4.91
690.871	3.97
691.194	3.95
