Data from 0010_chest_Reflection__4__321.txt Node

Date: Thu Dec 15 19:10:26 CST 2022
User: ToomeyLab
Spectrometer: FLMS14357
Trigger mode: 0
Integration Time (sec): 1.000000E-2
Scans to average: 100
Electric dark correction enabled: true
Nonlinearity correction enabled: false
Boxcar width: 0
XAxis mode: Wavelengths
Number of Pixels in Spectrum: 2048
>>>>>Begin Spectral Data<<<<<
189.047	-34.15
189.435	-34.15
189.823	-34.15
190.211	16.93
190.599	112.57
190.987	31.43
191.375	-222.91
191.763	87.84
192.151	263.83
192.538	72.01
192.926	374.81
193.314	233.51
193.702	-149.59
194.089	-18.59
194.477	-95.69
194.864	25.12
195.252	202.94
195.639	135.14
196.027	82.88
196.414	-9.71
196.801	104.13
197.189	245.78
197.576	305.45
197.963	300.78
198.351	-28.51
198.738	-145.66
199.125	-122.71
199.512	-4.84
199.899	-27.9
200.286	6.6
200.673	19.54
201.06	-25.85
201.447	5.1
201.833	-8.54
202.22	-0.71
202.607	-37.82
202.994	-11.76
203.38	-4.59
203.767	-17.47
204.154	14.21
204.54	-44.62
204.927	11.41
205.313	42.48
205.699	8.93
206.086	20.51
206.472	31.09
206.858	0.16
207.245	-29
207.631	-22.2
208.017	48.61
208.403	-46.89
208.789	-19.19
209.175	-10.15
209.561	-49.97
209.947	-5.37
210.333	-6.25
210.719	26.61
211.105	36.88
211.491	2.08
211.876	-34.93
212.262	8.13
212.648	-0
213.034	-4.39
213.419	-13.31
213.805	-27.93
214.19	-45.86
214.576	2.32
214.961	-5.79
215.346	-41.93
215.732	10.15
216.117	1.83
216.502	-23.79
216.888	8.56
217.273	12.3
217.658	-44.79
218.043	-44.18
218.428	-12.02
218.813	-2.95
219.198	-37.93
219.583	-44.9
219.968	10.76
220.353	-19.34
220.738	9.54
221.122	-25.11
221.507	-28.77
221.892	-37.55
222.276	-46.96
222.661	-18.24
223.046	-10.27
223.43	14.98
223.815	-14.05
224.199	-5.94
224.583	-0.97
224.968	-8.34
225.352	-4.36
225.736	5.33
226.121	-7.73
226.505	-4.97
226.889	-2.58
227.273	-8.88
227.657	2.03
228.041	2.14
228.425	-4.71
228.809	-2.6
229.193	3.59
229.577	0.19
229.961	1.47
230.344	2.68
230.728	3.22
231.112	2.6
231.495	0.09
231.879	0.73
232.263	1.95
232.646	0.99
233.03	2.76
233.413	1.85
233.797	2.18
234.18	2.41
234.563	0.65
234.946	-0.97
235.33	0.89
235.713	3.66
236.096	1.29
236.479	3.14
236.862	0.55
237.245	0.7
237.628	3.05
238.011	1.14
238.394	2.1
238.777	0.56
239.16	2.45
239.543	0.69
239.925	1.26
240.308	2.19
240.691	0.44
241.073	1.19
241.456	2.92
241.838	2.21
242.221	2.61
242.603	2.48
242.986	3.57
243.368	1.82
243.75	2.54
244.133	2.73
244.515	2.13
244.897	2.26
245.279	1.82
245.661	1.84
246.043	2.28
246.425	3.23
246.807	1.95
247.189	1.63
247.571	2.34
247.953	2.11
248.335	2.52
248.717	2.66
249.098	2.41
249.48	2.42
249.862	2.41
250.243	2.6
250.625	2.48
251.006	2.79
251.388	2.88
251.769	1.34
252.151	2.29
252.532	1.68
252.913	2.2
253.295	2.2
253.676	2.61
254.057	2.08
254.438	2.39
254.819	2.38
255.2	2.36
255.581	2.6
255.962	2.81
256.343	2.46
256.724	2.86
257.105	1.67
257.486	1.8
257.867	1.83
258.247	2.12
258.628	2.31
259.009	1.84
259.389	1.83
259.77	2.54
260.15	2.78
260.531	2.79
260.911	2.31
261.292	2.47
261.672	2.34
262.052	2.46
262.432	1.96
262.813	1.82
263.193	2.17
263.573	2.05
263.953	1.84
264.333	2.39
264.713	2.82
265.093	2.17
265.473	2.06
265.853	2.09
266.233	1.9
266.612	2.11
266.992	1.68
267.372	2.59
267.752	3.12
268.131	1.77
268.511	1.86
268.89	2.66
269.27	1.75
269.649	1.97
270.029	2.07
270.408	1.83
270.787	2.65
271.167	2.05
271.546	3.04
271.925	1.68
272.304	2.03
272.683	1.81
273.062	2.23
273.441	1.81
273.82	2.32
274.199	2.38
274.578	2.66
274.957	2.27
275.336	2.41
275.715	2.6
276.093	1.9
276.472	1.65
276.851	2.08
277.229	1.82
277.608	1.76
277.986	2.33
278.365	2.47
278.743	2.09
279.122	2.09
279.5	2.03
279.878	1.6
280.257	1.43
280.635	2.27
281.013	1.76
281.391	2.06
281.769	2.35
282.147	1.88
282.525	2.04
282.903	1.64
283.281	2.51
283.659	2.57
284.037	2.01
284.415	2.18
284.792	1.95
285.17	1.91
285.548	1.98
285.925	2.13
286.303	2.39
286.68	1.98
287.058	2.24
287.435	2.43
287.813	2.07
288.19	2
288.567	1.83
288.945	1.97
289.322	2.16
289.699	2.37
290.076	2.02
290.453	1.81
290.83	2.26
291.207	1.89
291.584	2.84
291.961	2.03
292.338	2.44
292.715	2.21
293.092	2.76
293.469	2.34
293.845	2.57
294.222	2.92
294.599	2.13
294.975	1.85
295.352	2.34
295.728	2.17
296.105	2.67
296.481	2.22
296.858	2.62
297.234	2.03
297.61	2.1
297.986	2.76
298.363	2.78
298.739	2.8
299.115	2.41
299.491	2.49
299.867	1.94
300.243	2.34
300.619	2.48
300.995	2.41
301.371	2.76
301.746	2.83
302.122	2
302.498	2.19
302.874	2.38
303.249	2.54
303.625	2.48
304	2.64
304.376	2.84
304.751	2.32
305.127	2.4
305.502	2.5
305.878	2.49
306.253	2.37
306.628	2.5
307.003	2.16
307.378	2.47
307.754	2.75
308.129	2.02
308.504	2.9
308.879	2.3
309.254	2.84
309.629	2.89
310.003	2.58
310.378	2.43
310.753	2.88
311.128	2.64
311.502	2.78
311.877	2.74
312.252	2.81
312.626	3.12
313.001	2.73
313.375	2.97
313.75	2.64
314.124	3.26
314.498	3.27
314.873	2.55
315.247	2.53
315.621	2.66
315.995	2.44
316.369	2.14
316.743	2.75
317.117	2.49
317.491	2.94
317.865	2.2
318.239	2.99
318.613	2.56
318.987	2.27
319.361	2.3
319.734	2.24
320.108	2.3
320.482	2.95
320.855	2.76
321.229	2.19
321.602	2.73
321.976	2.22
322.349	3.08
322.723	2.64
323.096	3.2
323.469	2.55
323.843	2.77
324.216	2.43
324.589	3.03
324.962	2.76
325.335	2.3
325.708	3.08
326.081	3.32
326.454	3.36
326.827	2.86
327.2	2.34
327.573	3.13
327.945	2.53
328.318	2.73
328.691	2.79
329.063	2.48
329.436	2.23
329.809	2.96
330.181	3.68
330.553	3
330.926	3.33
331.298	2.5
331.671	3.64
332.043	2.67
332.415	3.07
332.787	2.96
333.159	2.73
333.532	3.5
333.904	3.15
334.276	3.24
334.648	3.13
335.02	2.41
335.391	2.59
335.763	3.25
336.135	3.23
336.507	2.71
336.879	2.9
337.25	2.53
337.622	2.94
337.993	2.8
338.365	2.57
338.736	2.94
339.108	3.06
339.479	3.08
339.851	3.22
340.222	3.19
340.593	3.27
340.964	2.86
341.336	2.96
341.707	2.78
342.078	2.93
342.449	2.63
342.82	3.16
343.191	3.17
343.562	3.08
343.933	2.69
344.303	2.83
344.674	3.38
345.045	2.94
345.416	3.34
345.786	2.7
346.157	3.16
346.527	3.12
346.898	2.62
347.268	3.04
347.639	2.67
348.009	3.17
348.38	2.84
348.75	3.11
349.12	3.26
349.49	2.81
349.861	3.12
350.231	3.12
350.601	3.12
350.971	2.95
351.341	2.73
351.711	3.01
352.081	2.81
352.45	2.42
352.82	2.77
353.19	2.81
353.56	2.8
353.929	3.13
354.299	3.12
354.669	3.21
355.038	3.41
355.408	3.16
355.777	2.99
356.147	2.77
356.516	2.58
356.885	3.09
357.254	3.08
357.624	2.92
357.993	2.94
358.362	2.98
358.731	3.04
359.1	3.17
359.469	3.23
359.838	3.16
360.207	3.01
360.576	3.3
360.945	3.03
361.314	3.17
361.682	2.85
362.051	3.11
362.42	3.27
362.788	3.37
363.157	3.15
363.525	3.35
363.894	2.9
364.262	3.13
364.631	3.29
364.999	3.16
365.367	2.93
365.735	3.15
366.104	3.15
366.472	3.01
366.84	3.26
367.208	3.47
367.576	2.84
367.944	3.15
368.312	2.85
368.68	3.68
369.048	3.01
369.416	2.71
369.783	3.45
370.151	3.66
370.519	3.45
370.886	3.41
371.254	3.69
371.621	3.44
371.989	3.27
372.356	3.23
372.724	3.28
373.091	3.12
373.458	2.96
373.826	3.32
374.193	3.28
374.56	3.28
374.927	2.78
375.294	3.35
375.661	3.37
376.028	3.05
376.395	3.3
376.762	2.61
377.129	3.15
377.496	3.37
377.863	3.12
378.229	3.75
378.596	3.33
378.963	3.47
379.329	3.45
379.696	3.23
380.062	3.4
380.429	3.26
380.795	3.4
381.161	3.03
381.528	2.72
381.894	3.23
382.26	3.44
382.626	3.45
382.993	3.62
383.359	3.21
383.725	3.31
384.091	3.35
384.457	3.27
384.823	3.62
385.188	3.05
385.554	3.39
385.92	3.11
386.286	3.39
386.651	3.34
387.017	3.5
387.383	3.33
387.748	3.5
388.114	3.31
388.479	3.38
388.845	3.29
389.21	3.81
389.575	3.72
389.94	3.5
390.306	3.69
390.671	3.48
391.036	3.31
391.401	3.31
391.766	3.4
392.131	3.58
392.496	3.49
392.861	3.59
393.226	3.44
393.591	3.46
393.956	3.53
394.32	3.39
394.685	3.36
395.05	3.44
395.414	3.53
395.779	3.66
396.143	3.32
396.508	3.5
396.872	3.36
397.236	3.81
397.601	3.56
397.965	3.41
398.329	3.61
398.694	3.28
399.058	3.43
399.422	3.38
399.786	3.56
400.15	3.38
400.514	3.69
400.878	3.55
401.242	3.53
401.605	3.73
401.969	3.43
402.333	3.36
402.697	3.96
403.06	3.81
403.424	3.86
403.787	3.52
404.151	3.65
404.514	3.7
404.878	3.46
405.241	3.65
405.604	3.62
405.968	3.69
406.331	3.67
406.694	3.59
407.057	3.38
407.42	3.62
407.783	3.6
408.146	3.6
408.509	3.68
408.872	3.66
409.235	3.72
409.598	3.62
409.961	3.81
410.323	3.56
410.686	3.74
411.049	3.56
411.411	3.43
411.774	3.59
412.136	3.67
412.499	3.75
412.861	3.2
413.223	3.36
413.586	3.54
413.948	3.87
414.31	3.84
414.672	3.54
415.035	3.79
415.397	3.6
415.759	3.57
416.121	3.85
416.483	3.9
416.845	3.73
417.206	3.74
417.568	3.61
417.93	3.84
418.292	3.61
418.653	3.7
419.015	3.67
419.377	3.68
419.738	3.71
420.1	3.68
420.461	3.73
420.822	3.72
421.184	3.72
421.545	3.74
421.906	3.88
422.267	3.79
422.629	3.68
422.99	3.72
423.351	3.78
423.712	3.81
424.073	3.78
424.434	3.83
424.795	3.73
425.155	3.72
425.516	3.68
425.877	3.78
426.238	3.74
426.598	3.64
426.959	3.82
427.32	3.83
427.68	3.84
428.041	3.79
428.401	3.68
428.761	3.86
429.122	3.75
429.482	3.76
429.842	3.82
430.202	4.03
430.563	3.89
430.923	4.06
431.283	3.99
431.643	3.9
432.003	4.14
432.363	4.04
432.722	3.92
433.082	3.86
433.442	3.95
433.802	3.89
434.161	3.97
434.521	3.9
434.881	3.94
435.24	3.88
435.6	3.94
435.959	4.07
436.319	4.06
436.678	3.92
437.037	3.9
437.396	3.97
437.756	3.91
438.115	3.92
438.474	4.06
438.833	4.01
439.192	3.92
439.551	3.77
439.91	4.03
440.269	3.91
440.628	3.86
440.987	3.95
441.345	3.91
441.704	3.94
442.063	4.02
442.421	3.94
442.78	3.95
443.138	3.94
443.497	3.88
443.855	4.03
444.214	3.89
444.572	4.13
444.93	4.09
445.288	4.03
445.647	3.96
446.005	4.02
446.363	3.97
446.721	4.01
447.079	4.04
447.437	3.95
447.795	4.1
448.153	4.04
448.51	4
448.868	4.07
449.226	4.08
449.584	3.98
449.941	4.13
450.299	4.08
450.656	4.17
451.014	4.14
451.371	4.09
451.729	4.11
452.086	4.19
452.443	4.18
452.801	4.16
453.158	4.18
453.515	3.97
453.872	4.19
454.229	4.08
454.586	3.99
454.943	4.18
455.3	4.13
455.657	4.25
456.014	4.14
456.371	4.19
456.727	4.35
457.084	4.23
457.441	4.41
457.797	4.43
458.154	4.31
458.51	4.19
458.867	4.12
459.223	4.19
459.58	4.27
459.936	4.34
460.292	4.16
460.648	4.17
461.005	4.13
461.361	4.2
461.717	4.2
462.073	4.3
462.429	4.36
462.785	4.33
463.141	4.22
463.496	4.38
463.852	4.35
464.208	4.29
464.564	4.25
464.919	4.21
465.275	4.44
465.631	4.45
465.986	4.51
466.342	4.27
466.697	4.35
467.052	4.43
467.408	4.42
467.763	4.37
468.118	4.28
468.473	4.3
468.829	4.35
469.184	4.41
469.539	4.41
469.894	4.41
470.249	4.48
470.603	4.61
470.958	4.48
471.313	4.66
471.668	4.59
472.023	4.39
472.377	4.47
472.732	4.68
473.086	4.47
473.441	4.34
473.795	4.69
474.15	4.34
474.504	4.36
474.859	4.25
475.213	4.52
475.567	4.42
475.921	4.56
476.275	4.69
476.63	4.58
476.984	4.39
477.338	4.64
477.692	4.47
478.045	4.56
478.399	4.57
478.753	4.61
479.107	4.54
479.461	4.61
479.814	4.54
480.168	4.48
480.521	4.69
480.875	4.65
481.228	4.59
481.582	4.66
481.935	4.6
482.289	4.6
482.642	4.73
482.995	4.56
483.348	4.58
483.701	4.63
484.055	4.54
484.408	4.53
484.761	4.51
485.114	4.39
485.466	4.42
485.819	4.4
486.172	4.42
486.525	4.42
486.878	4.55
487.23	4.55
487.583	4.58
487.936	4.57
488.288	4.58
488.641	4.54
488.993	4.48
489.345	4.54
489.698	4.55
490.05	4.59
490.402	4.62
490.754	4.6
491.107	4.6
491.459	4.69
491.811	4.76
492.163	4.66
492.515	4.61
492.866	4.57
493.218	4.64
493.57	4.68
493.922	4.68
494.274	4.78
494.625	4.82
494.977	4.78
495.328	4.89
495.68	4.89
496.031	4.81
496.383	4.87
496.734	4.89
497.086	4.94
497.437	4.95
497.788	4.98
498.139	4.9
498.49	4.92
498.842	4.91
499.193	4.82
499.544	4.85
499.894	4.91
500.245	5.08
500.596	5.07
500.947	4.95
501.298	5
501.648	5.08
501.999	5.1
502.35	4.81
502.7	5.13
503.051	5.06
503.401	5.19
503.752	4.98
504.102	4.97
504.452	4.93
504.803	5.13
505.153	5.18
505.503	5.05
505.853	5.16
506.203	5.17
506.553	5.12
506.903	5.17
507.253	5.21
507.603	5.13
507.953	5.17
508.303	5.18
508.652	5.04
509.002	5.26
509.352	5.2
509.701	5.03
510.051	5.33
510.4	5.33
510.75	5.21
511.099	5.14
511.449	5.37
511.798	5.27
512.147	5.34
512.496	5.31
512.846	5.32
513.195	5.36
513.544	5.43
513.893	5.39
514.242	5.35
514.591	5.36
514.939	5.43
515.288	5.47
515.637	5.34
515.986	5.39
516.334	5.38
516.683	5.46
517.032	5.27
517.38	5.43
517.729	5.48
518.077	5.48
518.426	5.56
518.774	5.44
519.122	5.45
519.47	5.45
519.819	5.46
520.167	5.43
520.515	5.48
520.863	5.51
521.211	5.4
521.559	5.43
521.907	5.59
522.255	5.62
522.602	5.63
522.95	5.62
523.298	5.76
523.645	5.71
523.993	5.76
524.341	5.59
524.688	5.64
525.036	5.73
525.383	5.74
525.73	5.74
526.078	5.75
526.425	5.62
526.772	5.65
527.119	5.75
527.466	5.75
527.814	5.71
528.161	5.78
528.508	5.87
528.854	5.81
529.201	5.67
529.548	5.73
529.895	5.64
530.242	5.67
530.588	5.61
530.935	5.73
531.282	5.68
531.628	5.78
531.975	5.71
532.321	5.91
532.667	5.92
533.014	5.96
533.36	5.92
533.706	5.95
534.052	5.99
534.399	5.92
534.745	5.89
535.091	5.94
535.437	5.95
535.783	6
536.129	5.98
536.474	6.09
536.82	6.17
537.166	6.04
537.512	6.09
537.857	6.15
538.203	6.23
538.549	6.12
538.894	6.14
539.239	6.21
539.585	6.23
539.93	6.25
540.276	6.22
540.621	6.35
540.966	6.34
541.311	6.29
541.656	6.33
542.001	6.24
542.346	6.26
542.691	6.2
543.036	6.25
543.381	6.27
543.726	6.33
544.071	6.31
544.415	6.4
544.76	6.44
545.105	6.47
545.449	6.54
545.794	6.56
546.138	6.53
546.483	6.65
546.827	6.52
547.171	6.72
547.516	6.73
547.86	6.69
548.204	6.68
548.548	6.68
548.892	6.74
549.236	6.75
549.58	6.78
549.924	6.91
550.268	6.82
550.612	6.81
550.956	7.12
551.3	7.12
551.643	6.99
551.987	6.92
552.33	7.11
552.674	6.9
553.017	7.12
553.361	7.11
553.704	7.2
554.048	7.08
554.391	7.19
554.734	7.05
555.077	7.14
555.42	7.11
555.764	7.11
556.107	7.2
556.45	7.39
556.793	7.4
557.135	7.35
557.478	7.31
557.821	7.42
558.164	7.37
558.507	7.16
558.849	7.46
559.192	7.32
559.534	7.43
559.877	7.39
560.219	7.46
560.562	7.31
560.904	7.72
561.246	7.36
561.589	7.49
561.931	7.52
562.273	7.57
562.615	7.69
562.957	7.63
563.299	7.68
563.641	7.83
563.983	7.51
564.325	7.75
564.667	7.57
565.008	7.63
565.35	7.69
565.692	7.74
566.033	7.74
566.375	7.79
566.716	7.78
567.058	7.72
567.399	7.87
567.741	7.89
568.082	7.93
568.423	7.92
568.764	8.02
569.105	8.03
569.447	8.05
569.788	8.05
570.129	8.15
570.47	8.03
570.811	8.14
571.151	8.06
571.492	8.02
571.833	8.31
572.174	8.35
572.514	8.57
572.855	8.46
573.195	8.23
573.536	8.36
573.876	8.14
574.217	8.39
574.557	8.33
574.898	8.34
575.238	8.58
575.578	8.55
575.918	8.58
576.258	8.76
576.598	8.55
576.938	8.62
577.278	8.57
577.618	8.62
577.958	8.64
578.298	8.6
578.638	8.52
578.977	8.68
579.317	8.7
579.657	8.86
579.996	8.94
580.336	8.95
580.675	8.97
581.014	9.19
581.354	8.78
581.693	8.73
582.032	8.98
582.372	9.15
582.711	9.29
583.05	9.08
583.389	9.24
583.728	9.36
584.067	9
584.406	9.28
584.745	9.16
585.083	9.25
585.422	9.42
585.761	9.45
586.1	9.58
586.438	9.62
586.777	9.34
587.115	9.46
587.454	9.32
587.792	9.4
588.13	9.56
588.469	9.54
588.807	9.9
589.145	9.71
589.483	9.29
589.821	9.72
590.159	9.55
590.497	9.75
590.835	9.69
591.173	10.07
591.511	9.78
591.849	9.93
592.187	9.53
592.524	9.95
592.862	9.76
593.2	9.9
593.537	9.88
593.875	10.15
594.212	9.9
594.55	10.05
594.887	10.08
595.224	10.42
595.561	10.14
595.899	10.08
596.236	10.27
596.573	10.01
596.91	10.21
597.247	10.37
597.584	10.36
597.921	10.3
598.258	10.43
598.594	10.25
598.931	10.33
599.268	10.06
599.604	10.51
599.941	10.31
600.277	10.51
600.614	10.5
600.95	10.51
601.287	10.5
601.623	10.6
601.959	10.86
602.296	10.9
602.632	10.56
602.968	10.55
603.304	10.84
603.64	10.91
603.976	10.89
604.312	10.78
604.648	10.93
604.984	10.96
605.319	10.86
605.655	10.96
605.991	10.84
606.326	10.98
606.662	10.87
606.998	11
607.333	11.05
607.668	10.99
608.004	10.74
608.339	11.03
608.674	11.51
609.01	11.57
609.345	11.15
609.68	11.24
610.015	11.55
610.35	11.39
610.685	11.15
611.02	11.2
611.355	11.38
611.689	11.62
612.024	11.57
612.359	11.54
612.694	11.61
613.028	11.58
613.363	11.62
613.697	11.84
614.032	11.65
614.366	11.57
614.7	11.72
615.035	11.61
615.369	11.93
615.703	11.77
616.037	11.9
616.371	11.82
616.705	12.09
617.039	12.02
617.373	11.92
617.707	12.25
618.041	11.78
618.375	11.82
618.709	12.14
619.042	12.14
619.376	12.16
619.71	11.97
620.043	12.62
620.377	12.33
620.71	12.53
621.043	12.65
621.377	12.61
621.71	12.66
622.043	12.49
622.376	12.2
622.709	12.9
623.043	12.51
623.376	12.84
623.709	12.78
624.041	12.62
624.374	13.03
624.707	12.54
625.04	12.82
625.373	12.9
625.705	12.98
626.038	12.7
626.37	12.72
626.703	12.77
627.035	13
627.368	13.29
627.7	13.02
628.032	13.25
628.365	13.25
628.697	13.38
629.029	12.95
629.361	13.29
629.693	13.15
630.025	13.19
630.357	13.44
630.689	13.08
631.021	13.57
631.353	13.66
631.684	13.26
632.016	13.25
632.348	13.73
632.679	13.59
633.011	13.34
633.342	13.47
633.674	13.64
634.005	13.65
634.336	13.43
634.668	13.73
634.999	13.47
635.33	14.03
635.661	13.62
635.992	13.82
636.323	13.76
636.654	13.88
636.985	13.56
637.316	13.79
637.647	14.11
637.977	13.9
638.308	14.64
638.639	13.84
638.969	14.29
639.3	14.09
639.63	13.89
639.961	14.24
640.291	14.04
640.622	14.35
640.952	14.24
641.282	14.08
641.612	14.35
641.943	14.08
642.273	14.18
642.603	14.87
642.933	14.57
643.263	14.58
643.592	14.68
643.922	14.76
644.252	14.62
644.582	14.5
644.911	14.36
645.241	14.47
645.571	14.33
645.9	14.93
646.23	14.74
646.559	14.78
646.888	15.24
647.218	14.42
647.547	14.77
647.876	15.27
648.205	14.84
648.534	14.88
648.863	15.23
649.192	14.79
649.521	15.01
649.85	15.23
650.179	15.58
650.508	15.2
650.837	15.13
651.165	15.32
651.494	15.54
651.822	15.36
652.151	15.06
652.479	15.53
652.808	16.03
653.136	15.59
653.465	14.76
653.793	15.5
654.121	15.45
654.449	15.29
654.777	15.48
655.105	15.24
655.433	15.76
655.761	15.49
656.089	16.19
656.417	16.36
656.745	16.4
657.073	15.64
657.4	15.95
657.728	15.27
658.056	15.91
658.383	15.94
658.711	16.1
659.038	16.49
659.365	16.2
659.693	16.52
660.02	15.79
660.347	16.38
660.674	16.28
661.001	16.46
661.329	16.05
661.656	15.78
661.982	15.99
662.309	16.7
662.636	15.89
662.963	16.25
663.29	16.45
663.616	16.48
663.943	16.65
664.27	16.66
664.596	16.35
664.923	16.44
665.249	16.83
665.576	16.17
665.902	16.26
666.228	16.64
666.554	17.27
666.881	16.93
667.207	17.15
667.533	17.14
667.859	16.53
668.185	16.61
668.511	16.87
668.837	17.1
669.162	16.96
669.488	16.66
669.814	16.8
670.139	16.86
670.465	16.68
670.791	17.22
671.116	16.86
671.442	16.67
671.767	17.17
672.092	17.29
672.418	17.08
672.743	17.45
673.068	17.17
673.393	17.24
673.718	17.14
674.043	17.09
674.368	17.69
674.693	17.65
675.018	18.19
675.343	17.3
675.667	17.46
675.992	17.97
676.317	16.98
676.641	18.26
676.966	17.78
677.29	17.06
677.615	17.64
677.939	17.76
678.264	18.1
678.588	17.76
678.912	17.92
679.236	17.67
679.56	18.02
679.885	18.24
680.209	18.31
680.532	18.26
680.856	18.2
681.18	19
681.504	17.79
681.828	17.82
682.152	18.43
682.475	18.12
682.799	18.28
683.122	18.21
683.446	17.54
683.769	18.76
684.093	18.4
684.416	17.74
684.739	18.14
685.062	18.51
