Data from 0010_crown_Reflection__3__325.txt Node

Date: Thu Dec 15 19:11:37 CST 2022
User: ToomeyLab
Spectrometer: FLMS14357
Trigger mode: 0
Integration Time (sec): 1.000000E-2
Scans to average: 100
Electric dark correction enabled: true
Nonlinearity correction enabled: false
Boxcar width: 0
XAxis mode: Wavelengths
Number of Pixels in Spectrum: 2048
>>>>>Begin Spectral Data<<<<<
189.047	86.21
189.435	86.21
189.823	86.21
190.211	-19
190.599	17.69
190.987	47.84
191.375	66.95
191.763	-10.84
192.151	430.32
192.538	73.11
192.926	81.55
193.314	254.27
193.702	251.42
194.089	-31.46
194.477	309.12
194.864	47.25
195.252	-62.95
195.639	120.22
196.027	174.1
196.414	116.79
196.801	2.71
197.189	167.17
197.576	1796.82
197.963	-109.6
198.351	-28.68
198.738	-138.29
199.125	-16.15
199.512	8.1
199.899	-36.52
200.286	-50.78
200.673	35.52
201.06	-33.6
201.447	-19.6
201.833	0.15
202.22	-50.69
202.607	-49.36
202.994	-6.9
203.38	-7.8
203.767	-8.43
204.154	0.25
204.54	-32.97
204.927	-18.9
205.313	15.43
205.699	-0.3
206.086	8.93
206.472	5.01
206.858	-15.45
207.245	-13.32
207.631	-18.05
208.017	11.22
208.403	-77.36
208.789	-8.81
209.175	-22.63
209.561	-93.43
209.947	10.09
210.333	-25.4
210.719	23.09
211.105	16.75
211.491	-11.19
211.876	-65.99
212.262	10.27
212.648	36.71
213.034	-4.3
213.419	-35.68
213.805	-53.09
214.19	-20.05
214.576	-8.97
214.961	-22.24
215.346	-63.04
215.732	-6.83
216.117	-23.37
216.502	-16.75
216.888	-11.15
217.273	-8.5
217.658	-17.66
218.043	-24.74
218.428	-36.69
218.813	-14.08
219.198	-34.03
219.583	-38.74
219.968	-5.52
220.353	-35.12
220.738	-2.37
221.122	-23.69
221.507	-12.73
221.892	-39.33
222.276	-49.3
222.661	-35.38
223.046	-16.29
223.43	9.57
223.815	4.37
224.199	-6.29
224.583	-2.23
224.968	-16.87
225.352	-18.07
225.736	-0.28
226.121	-9.31
226.505	0.91
226.889	0.02
227.273	-4.68
227.657	0.78
228.041	-2.23
228.425	-3.42
228.809	-3.45
229.193	-0.74
229.577	1.46
229.961	2
230.344	2.06
230.728	2.67
231.112	3.43
231.495	0.54
231.879	0.74
232.263	0.99
232.646	1.24
233.03	4.05
233.413	2.03
233.797	-0.76
234.18	1.53
234.563	2.44
234.946	1.77
235.33	2.51
235.713	2.73
236.096	3.73
236.479	2.92
236.862	0.57
237.245	0.76
237.628	2.59
238.011	1.96
238.394	1.09
238.777	0.36
239.16	3.97
239.543	4.53
239.925	2.01
240.308	0.66
240.691	2.29
241.073	1.39
241.456	1.97
241.838	3.13
242.221	1.95
242.603	2.86
242.986	2.27
243.368	3.01
243.75	2.75
244.133	2.88
244.515	2.96
244.897	2.58
245.279	2.36
245.661	2.63
246.043	2.53
246.425	2.02
246.807	3.47
247.189	2.1
247.571	2.51
247.953	2.45
248.335	2.79
248.717	2.8
249.098	2.83
249.48	2.81
249.862	3.09
250.243	2.87
250.625	2.72
251.006	3.64
251.388	1.96
251.769	1.61
252.151	3.24
252.532	1.37
252.913	2.79
253.295	2.51
253.676	2.47
254.057	2.05
254.438	2.31
254.819	2.38
255.2	2.96
255.581	2.82
255.962	3.21
256.343	1.72
256.724	1.43
257.105	2.45
257.486	2.41
257.867	1.54
258.247	1.51
258.628	2.42
259.009	1.92
259.389	1.29
259.77	1.98
260.15	2.7
260.531	2.53
260.911	2.7
261.292	2.46
261.672	2.65
262.052	2.69
262.432	2.56
262.813	2.56
263.193	2.5
263.573	2.46
263.953	2.47
264.333	2.51
264.713	2.43
265.093	2.68
265.473	1.34
265.853	2.02
266.233	1.61
266.612	1.91
266.992	1.93
267.372	2.1
267.752	2.57
268.131	2.32
268.511	2.05
268.89	2.76
269.27	1.64
269.649	2.07
270.029	2.09
270.408	2.1
270.787	2.09
271.167	2.23
271.546	2.97
271.925	1.92
272.304	2.23
272.683	2.2
273.062	2.26
273.441	2.24
273.82	1.98
274.199	2.14
274.578	2.26
274.957	1.98
275.336	2.31
275.715	2.32
276.093	1.41
276.472	1.53
276.851	2.26
277.229	1.98
277.608	1.87
277.986	2.21
278.365	2.55
278.743	2.08
279.122	1.6
279.5	2.7
279.878	2.08
280.257	2.1
280.635	2.06
281.013	1.56
281.391	2.85
281.769	2.67
282.147	1.84
282.525	1.52
282.903	1.98
283.281	2.47
283.659	2.36
284.037	2.21
284.415	2.2
284.792	2.06
285.17	2.13
285.548	1.77
285.925	2.16
286.303	2.43
286.68	2.5
287.058	2.49
287.435	2.05
287.813	1.93
288.19	1.88
288.567	2.03
288.945	1.58
289.322	2.14
289.699	2.05
290.076	2.15
290.453	1.92
290.83	2.38
291.207	2.27
291.584	2.27
291.961	2.17
292.338	2.22
292.715	2.19
293.092	2.72
293.469	2.21
293.845	2.14
294.222	2.8
294.599	2.05
294.975	1.57
295.352	2.55
295.728	2.14
296.105	2.43
296.481	2.35
296.858	2.12
297.234	1.85
297.61	2.51
297.986	2.49
298.363	2.41
298.739	2.65
299.115	2.36
299.491	2.66
299.867	2.25
300.243	2.52
300.619	2.46
300.995	2.68
301.371	2.36
301.746	2.47
302.122	2.07
302.498	2.12
302.874	2.41
303.249	2.5
303.625	1.67
304	2.23
304.376	2.51
304.751	2.08
305.127	2.1
305.502	2.14
305.878	2.6
306.253	2.2
306.628	2.56
307.003	2.17
307.378	2.27
307.754	2.43
308.129	2.6
308.504	2.75
308.879	2.28
309.254	2.56
309.629	2.6
310.003	2.28
310.378	2.91
310.753	2.58
311.128	2.09
311.502	2.46
311.877	2.16
312.252	2.34
312.626	2.96
313.001	2.83
313.375	2.67
313.75	2.86
314.124	3.03
314.498	2.56
314.873	2.37
315.247	2.69
315.621	2.12
315.995	2.76
316.369	1.98
316.743	2.12
317.117	1.85
317.491	2.41
317.865	2.03
318.239	2.65
318.613	2.14
318.987	2.54
319.361	2.71
319.734	1.49
320.108	2.04
320.482	2.42
320.855	2.35
321.229	2.34
321.602	2.49
321.976	2.43
322.349	2.69
322.723	2.5
323.096	2.31
323.469	2.85
323.843	2.45
324.216	2.69
324.589	2.35
324.962	2.53
325.335	2.65
325.708	2.33
326.081	2.96
326.454	2.77
326.827	2.29
327.2	2.45
327.573	2.74
327.945	2.13
328.318	2.66
328.691	2.12
329.063	2.5
329.436	1.89
329.809	2.79
330.181	2.68
330.553	2.75
330.926	3.05
331.298	2.48
331.671	2.36
332.043	2.53
332.415	2.9
332.787	2.78
333.159	2.14
333.532	2.44
333.904	2.96
334.276	2.39
334.648	2.78
335.02	2.59
335.391	2.43
335.763	2.57
336.135	3.04
336.507	2.82
336.879	2.63
337.25	2.29
337.622	2.88
337.993	2.8
338.365	2.49
338.736	2.59
339.108	2.6
339.479	2.05
339.851	2.48
340.222	3.25
340.593	2.39
340.964	2.71
341.336	2.41
341.707	2.42
342.078	2.39
342.449	2.55
342.82	2.46
343.191	2.58
343.562	2.92
343.933	2.47
344.303	2.69
344.674	2.81
345.045	2.58
345.416	2.67
345.786	2.63
346.157	3.11
346.527	2.77
346.898	2.36
347.268	2.86
347.639	2.24
348.009	2.88
348.38	2.54
348.75	2.91
349.12	2.61
349.49	2.73
349.861	3.11
350.231	2.61
350.601	2.61
350.971	2.34
351.341	2.77
351.711	2.81
352.081	2.27
352.45	2.36
352.82	2.29
353.19	2.44
353.56	2.47
353.929	2.32
354.299	2.69
354.669	2.77
355.038	2.67
355.408	2.76
355.777	2.78
356.147	2.45
356.516	2.42
356.885	2.58
357.254	2.48
357.624	2.46
357.993	2.62
358.362	2.86
358.731	2.87
359.1	2.73
359.469	2.9
359.838	2.85
360.207	2.48
360.576	3.01
360.945	2.79
361.314	2.58
361.682	2.44
362.051	2.74
362.42	2.75
362.788	2.62
363.157	2.75
363.525	2.74
363.894	2.73
364.262	2.79
364.631	2.93
364.999	2.77
365.367	2.58
365.735	2.54
366.104	2.73
366.472	2.61
366.84	2.98
367.208	2.93
367.576	2.99
367.944	3.05
368.312	2.8
368.68	2.84
369.048	2.74
369.416	2.53
369.783	2.89
370.151	3.11
370.519	2.89
370.886	3.14
371.254	2.94
371.621	3.02
371.989	2.68
372.356	2.86
372.724	2.6
373.091	2.7
373.458	2.33
373.826	3.09
374.193	2.92
374.56	2.81
374.927	2.74
375.294	3.28
375.661	2.86
376.028	2.65
376.395	3.27
376.762	2.57
377.129	2.71
377.496	2.64
377.863	2.93
378.229	3.28
378.596	2.97
378.963	2.93
379.329	2.87
379.696	2.73
380.062	2.88
380.429	2.9
380.795	2.94
381.161	2.46
381.528	2.49
381.894	2.79
382.26	3
382.626	2.94
382.993	3.12
383.359	2.56
383.725	2.82
384.091	2.77
384.457	3.04
384.823	2.85
385.188	2.93
385.554	2.77
385.92	2.68
386.286	2.83
386.651	2.87
387.017	3.08
387.383	2.94
387.748	2.69
388.114	3.04
388.479	2.8
388.845	2.68
389.21	3.05
389.575	3.2
389.94	3.09
390.306	2.81
390.671	2.99
391.036	2.75
391.401	3.02
391.766	2.91
392.131	3.02
392.496	2.89
392.861	2.82
393.226	2.98
393.591	2.88
393.956	2.77
394.32	3.27
394.685	2.88
395.05	2.9
395.414	2.86
395.779	3.24
396.143	2.81
396.508	2.96
396.872	2.98
397.236	3.41
397.601	3.06
397.965	3.01
398.329	2.73
398.694	2.74
399.058	2.87
399.422	3.05
399.786	2.78
400.15	2.72
400.514	3.09
400.878	2.97
401.242	2.88
401.605	2.94
401.969	2.86
402.333	2.84
402.697	3.05
403.06	3.01
403.424	3.09
403.787	2.97
404.151	3.18
404.514	3.2
404.878	2.87
405.241	2.93
405.604	3.04
405.968	3.03
406.331	3.13
406.694	3.06
407.057	2.95
407.42	3.02
407.783	3.04
408.146	2.99
408.509	3.06
408.872	3.02
409.235	2.97
409.598	3.11
409.961	3.22
410.323	3.23
410.686	3.03
411.049	3.04
411.411	3.05
411.774	2.98
412.136	2.98
412.499	3.11
412.861	2.8
413.223	3.04
413.586	3.15
413.948	2.96
414.31	3.33
414.672	2.99
415.035	3.08
415.397	2.9
415.759	2.75
416.121	3.2
416.483	2.96
416.845	2.93
417.206	3.06
417.568	2.81
417.93	3.15
418.292	2.84
418.653	2.81
419.015	3.15
419.377	2.92
419.738	3.11
420.1	2.96
420.461	2.93
420.822	3.05
421.184	3.01
421.545	3.01
421.906	3.11
422.267	3.12
422.629	2.97
422.99	2.99
423.351	2.99
423.712	3.08
424.073	3.08
424.434	3.12
424.795	2.95
425.155	2.98
425.516	3.02
425.877	2.95
426.238	3
426.598	3.04
426.959	3.09
427.32	2.94
427.68	3
428.041	3.11
428.401	3.02
428.761	3.21
429.122	3.04
429.482	3.04
429.842	3.03
430.202	3.18
430.563	3.22
430.923	3.15
431.283	3.24
431.643	3.26
432.003	3.16
432.363	3.11
432.722	3.11
433.082	3.1
433.442	3.11
433.802	3.27
434.161	3.01
434.521	3.13
434.881	2.97
435.24	3.03
435.6	3.05
435.959	3.15
436.319	3.11
436.678	3.25
437.037	3.08
437.396	3.09
437.756	2.99
438.115	3.21
438.474	2.96
438.833	3.03
439.192	3.03
439.551	2.97
439.91	3.12
440.269	3.04
440.628	2.99
440.987	3.15
441.345	3.04
441.704	2.94
442.063	3.09
442.421	3.08
442.78	3.13
443.138	3.06
443.497	3.04
443.855	3.19
444.214	2.85
444.572	3.3
444.93	3.06
445.288	3.07
445.647	3.08
446.005	3.05
446.363	3.14
446.721	3.18
447.079	3.05
447.437	3.04
447.795	3.14
448.153	3.02
448.51	3.11
448.868	3.01
449.226	3.07
449.584	3.05
449.941	3.15
450.299	3.01
450.656	3.05
451.014	3.28
451.371	3.19
451.729	3.18
452.086	3.09
452.443	3.2
452.801	3.14
453.158	3.39
453.515	3.02
453.872	3.17
454.229	2.92
454.586	3.07
454.943	3.21
455.3	3.16
455.657	3.11
456.014	3.07
456.371	3.19
456.727	3.38
457.084	3.3
457.441	3.16
457.797	3.2
458.154	3.21
458.51	3.04
458.867	3.17
459.223	3.15
459.58	3.16
459.936	3.21
460.292	3
460.648	3.03
461.005	3.07
461.361	3.15
461.717	3.06
462.073	3.17
462.429	3.12
462.785	3.29
463.141	3.25
463.496	3.25
463.852	3.29
464.208	3.29
464.564	3.14
464.919	3.22
465.275	3.19
465.631	3.33
465.986	3.36
466.342	3.09
466.697	3.13
467.052	3.17
467.408	3.36
467.763	3.19
468.118	3
468.473	3.34
468.829	3.17
469.184	3.28
469.539	3.08
469.894	3.38
470.249	3.2
470.603	3.37
470.958	3.34
471.313	3.34
471.668	3.27
472.023	3.39
472.377	3.21
472.732	3.28
473.086	3.35
473.441	3.08
473.795	3.39
474.15	3.26
474.504	3.27
474.859	3.1
475.213	3.33
475.567	3.15
475.921	3.32
476.275	3.29
476.63	3.33
476.984	3.1
477.338	3.37
477.692	3.22
478.045	3.4
478.399	3.11
478.753	3.17
479.107	3.25
479.461	3.24
479.814	3.23
480.168	3.21
480.521	3.35
480.875	3.17
481.228	3.39
481.582	3.2
481.935	3.36
482.289	3.26
482.642	3.4
482.995	3.24
483.348	3.2
483.701	3.26
484.055	3.21
484.408	3.18
484.761	3.12
485.114	3.08
485.466	3.04
485.819	3.02
486.172	3.11
486.525	3.15
486.878	3.18
487.23	3.17
487.583	3.24
487.936	3.17
488.288	3.12
488.641	3.12
488.993	3.12
489.345	3.08
489.698	3.17
490.05	3.07
490.402	3.14
490.754	3.2
491.107	3.15
491.459	3.24
491.811	3.28
492.163	3.27
492.515	3.14
492.866	3.12
493.218	3.12
493.57	3.27
493.922	3.2
494.274	3.31
494.625	3.4
494.977	3.34
495.328	3.31
495.68	3.32
496.031	3.32
496.383	3.13
496.734	3.13
497.086	3.46
497.437	3.33
497.788	3.43
498.139	3.3
498.49	3.36
498.842	3.37
499.193	3.31
499.544	3.26
499.894	3.3
500.245	3.52
500.596	3.37
500.947	3.3
501.298	3.28
501.648	3.3
501.999	3.5
502.35	3.35
502.7	3.57
503.051	3.31
503.401	3.38
503.752	3.34
504.102	3.37
504.452	3.26
504.803	3.36
505.153	3.46
505.503	3.41
505.853	3.38
506.203	3.43
506.553	3.35
506.903	3.47
507.253	3.37
507.603	3.36
507.953	3.31
508.303	3.41
508.652	3.27
509.002	3.38
509.352	3.46
509.701	3.34
510.051	3.38
510.4	3.4
510.75	3.4
511.099	3.26
511.449	3.41
511.798	3.35
512.147	3.43
512.496	3.49
512.846	3.34
513.195	3.37
513.544	3.44
513.893	3.45
514.242	3.37
514.591	3.38
514.939	3.48
515.288	3.45
515.637	3.31
515.986	3.45
516.334	3.49
516.683	3.46
517.032	3.45
517.38	3.29
517.729	3.36
518.077	3.39
518.426	3.46
518.774	3.42
519.122	3.46
519.47	3.41
519.819	3.44
520.167	3.32
520.515	3.46
520.863	3.35
521.211	3.32
521.559	3.41
521.907	3.45
522.255	3.4
522.602	3.49
522.95	3.64
523.298	3.5
523.645	3.5
523.993	3.43
524.341	3.48
524.688	3.42
525.036	3.5
525.383	3.51
525.73	3.45
526.078	3.45
526.425	3.55
526.772	3.38
527.119	3.39
527.466	3.47
527.814	3.37
528.161	3.43
528.508	3.58
528.854	3.46
529.201	3.36
529.548	3.38
529.895	3.26
530.242	3.25
530.588	3.28
530.935	3.28
531.282	3.38
531.628	3.4
531.975	3.35
532.321	3.34
532.667	3.38
533.014	3.52
533.36	3.47
533.706	3.47
534.052	3.5
534.399	3.47
534.745	3.38
535.091	3.29
535.437	3.38
535.783	3.39
536.129	3.46
536.474	3.53
536.82	3.56
537.166	3.38
537.512	3.44
537.857	3.5
538.203	3.45
538.549	3.39
538.894	3.42
539.239	3.47
539.585	3.54
539.93	3.66
540.276	3.54
540.621	3.65
540.966	3.56
541.311	3.6
541.656	3.49
542.001	3.54
542.346	3.41
542.691	3.43
543.036	3.43
543.381	3.38
543.726	3.47
544.071	3.48
544.415	3.5
544.76	3.47
545.105	3.47
545.449	3.52
545.794	3.56
546.138	3.57
546.483	3.66
546.827	3.54
547.171	3.63
547.516	3.69
547.86	3.55
548.204	3.55
548.548	3.49
548.892	3.5
549.236	3.58
549.58	3.71
549.924	3.73
550.268	3.59
550.612	3.73
550.956	3.85
551.3	3.79
551.643	3.77
551.987	3.79
552.33	3.84
552.674	3.64
553.017	3.76
553.361	3.76
553.704	3.72
554.048	3.73
554.391	3.66
554.734	3.53
555.077	3.73
555.42	3.43
555.764	3.69
556.107	3.8
556.45	3.89
556.793	3.89
557.135	3.81
557.478	3.73
557.821	3.71
558.164	3.66
558.507	3.67
558.849	3.94
559.192	3.8
559.534	3.83
559.877	3.79
560.219	3.78
560.562	3.78
560.904	3.92
561.246	3.78
561.589	3.99
561.931	3.84
562.273	3.75
562.615	3.91
562.957	3.71
563.299	3.84
563.641	3.88
563.983	3.61
564.325	3.82
564.667	3.83
565.008	3.65
565.35	3.57
565.692	3.82
566.033	3.61
566.375	3.93
566.716	3.54
567.058	3.72
567.399	3.69
567.741	3.82
568.082	3.76
568.423	3.7
568.764	3.8
569.105	3.9
569.447	3.85
569.788	3.76
570.129	3.7
570.47	3.84
570.811	3.76
571.151	3.78
571.492	3.74
571.833	3.83
572.174	4.07
572.514	4
572.855	3.93
573.195	3.74
573.536	3.83
573.876	3.85
574.217	3.68
574.557	3.63
574.898	3.88
575.238	3.94
575.578	3.93
575.918	3.89
576.258	4
576.598	3.7
576.938	3.91
577.278	3.86
577.618	3.71
577.958	3.97
578.298	3.93
578.638	3.85
578.977	4.04
579.317	3.96
579.657	3.88
579.996	3.78
580.336	3.99
580.675	3.96
581.014	3.81
581.354	3.84
581.693	4.1
582.032	4.27
582.372	4.2
582.711	3.9
583.05	4.01
583.389	4.09
583.728	4.05
584.067	4.09
584.406	3.95
584.745	3.75
585.083	4.1
585.422	4.2
585.761	4.02
586.1	4.13
586.438	3.83
586.777	3.95
587.115	4.02
587.454	3.72
587.792	3.88
588.13	3.96
588.469	4.02
588.807	4.02
589.145	3.75
589.483	3.57
589.821	4.01
590.159	4.21
590.497	3.99
590.835	4.04
591.173	4.21
591.511	4.14
591.849	4.19
592.187	3.76
592.524	4.26
592.862	3.88
593.2	3.92
593.537	4.23
593.875	4.05
594.212	4.09
594.55	3.96
594.887	4.1
595.224	4.04
595.561	4.02
595.899	4.1
596.236	4.19
596.573	4.02
596.91	4.03
597.247	4.17
597.584	4.13
597.921	3.99
598.258	4.12
598.594	3.91
598.931	3.86
599.268	3.77
599.604	4.18
599.941	4.15
600.277	4.08
600.614	3.98
600.95	4.28
601.287	3.97
601.623	3.82
601.959	4.32
602.296	4.14
602.632	3.91
602.968	3.95
603.304	4.08
603.64	3.92
603.976	3.92
604.312	4.13
604.648	4.3
604.984	4.14
605.319	4.16
605.655	4.04
605.991	4.03
606.326	3.93
606.662	3.94
606.998	4.3
607.333	4.13
607.668	4.12
608.004	4.17
608.339	4.09
608.674	4.3
609.01	4.35
609.345	4.03
609.68	4.07
610.015	4.14
610.35	3.99
610.685	3.89
611.02	4.14
611.355	4.1
611.689	4.14
612.024	4.34
612.359	4.12
612.694	4.43
613.028	4.16
613.363	4.16
613.697	4.27
614.032	4.08
614.366	4.2
614.7	4.37
615.035	4.26
615.369	4.31
615.703	4.31
616.037	4.15
616.371	4.11
616.705	4.23
617.039	4.66
617.373	4.25
617.707	4.17
618.041	4.29
618.375	3.57
618.709	4.37
619.042	3.95
619.376	4.52
619.71	4.01
620.043	4.68
620.377	4.21
620.71	4.19
621.043	4.44
621.377	4.53
621.71	4.51
622.043	4.35
622.376	4.19
622.709	4.87
623.043	4.14
623.376	4.24
623.709	4.61
624.041	4.13
624.374	4.19
624.707	4.4
625.04	4.38
625.373	4.37
625.705	4.69
626.038	4.3
626.37	4.11
626.703	4.47
627.035	4.36
627.368	4.58
627.7	4.43
628.032	4.35
628.365	4.59
628.697	4.9
629.029	4.43
629.361	4.6
629.693	4.37
630.025	4.28
630.357	4.46
630.689	4.48
631.021	4.42
631.353	4.49
631.684	4.44
632.016	4.1
632.348	3.94
632.679	4.41
633.011	4.3
633.342	4.3
633.674	4.56
634.005	4.53
634.336	4.79
634.668	4.36
634.999	4.58
635.33	4.32
635.661	4.44
635.992	4.44
636.323	4.6
636.654	4.53
636.985	4.39
637.316	4.69
637.647	4.33
637.977	4.47
638.308	4.63
638.639	4.5
638.969	4.67
639.3	4.34
639.63	4.67
639.961	4.53
640.291	4.42
640.622	4.41
640.952	4.53
641.282	4.14
641.612	4.34
641.943	4.53
642.273	4.4
642.603	4.75
642.933	4.79
643.263	4.74
643.592	4.98
643.922	4.84
644.252	4.66
644.582	4.82
644.911	4.73
645.241	4.43
645.571	4.72
645.9	4.81
646.23	4.67
646.559	4.5
646.888	5.4
647.218	4.7
647.547	4.78
647.876	4.27
648.205	4.52
648.534	4.48
648.863	5.07
649.192	4.84
649.521	4.57
649.85	4.93
650.179	4.87
650.508	4.41
650.837	4.99
651.165	4.81
651.494	4.82
651.822	4.69
652.151	4.31
652.479	4.29
652.808	4.87
653.136	4.37
653.465	4.27
653.793	4.6
654.121	4.25
654.449	4.34
654.777	4.47
655.105	4.75
655.433	4.91
655.761	4.59
656.089	4.61
656.417	4.66
656.745	5.01
657.073	4.27
657.4	4.62
657.728	4.18
658.056	4.56
658.383	4.33
658.711	4.47
659.038	5.43
659.365	5.08
659.693	4.71
660.02	4.71
660.347	4.79
660.674	4.32
661.001	4.98
661.329	4.6
661.656	4.69
661.982	4.62
662.309	4.63
662.636	5.02
662.963	4.99
663.29	4.83
663.616	5.14
663.943	4.99
664.27	4.8
664.596	4.21
664.923	5.15
665.249	4.87
665.576	4.26
665.902	4.65
666.228	5.07
666.554	5.55
666.881	4.75
667.207	5.18
667.533	4.61
667.859	4.49
668.185	4.38
668.511	5.05
668.837	4.64
669.162	4.91
669.488	4.84
669.814	5.31
670.139	4.61
670.465	5.56
670.791	4.2
671.116	4.98
671.442	3.98
671.767	5.17
672.092	4.42
672.418	4.83
672.743	4.67
673.068	4.6
673.393	5.21
673.718	4.37
674.043	4.82
674.368	5.02
674.693	5.3
675.018	5.56
675.343	5.01
675.667	4.03
675.992	4.71
676.317	3.71
676.641	5.39
676.966	4.88
677.29	4.67
677.615	4.55
677.939	5.21
678.264	4.8
678.588	5.27
678.912	5.01
679.236	4.74
679.56	4.82
679.885	5
680.209	5.39
680.532	5.29
680.856	5.15
681.18	5.82
681.504	4.94
681.828	4.84
682.152	5.01
682.475	5.5
682.799	4.76
683.122	5.19
683.446	4.11
683.769	5.06
684.093	5.22
684.416	5.01
684.739	4.68
685.062	4.85
685.386	4.9
685.709	5.34
686.032	5.47
686.355	5.26
686.678	5.48
687.001	5.27
687.324	5.51
687.646	5.45
687.969	4.73
688.292	5.18
688.614	5.5
688.937	5.32
689.26	6.09
689.582	5.38
689.904	5.15
690.227	5.53
690.549	5.61
690.871	4.95
691.194	4.61
691.516	4.7
