Data from 0010_chest_Reflection__3__320.txt Node

Date: Thu Dec 15 19:10:08 CST 2022
User: ToomeyLab
Spectrometer: FLMS14357
Trigger mode: 0
Integration Time (sec): 1.000000E-2
Scans to average: 100
Electric dark correction enabled: true
Nonlinearity correction enabled: false
Boxcar width: 0
XAxis mode: Wavelengths
Number of Pixels in Spectrum: 2048
>>>>>Begin Spectral Data<<<<<
189.047	46.37
189.435	46.37
189.823	46.37
190.211	65.17
190.599	160.83
190.987	-27.54
191.375	-115.94
191.763	27.86
192.151	421.16
192.538	11.66
192.926	260.58
193.314	186.79
193.702	20.19
194.089	139.29
194.477	333.14
194.864	68.23
195.252	104.51
195.639	12.74
196.027	106.46
196.414	49.23
196.801	-10.56
197.189	10.06
197.576	-280.91
197.963	260.44
198.351	44.15
198.738	-158.32
199.125	-117.35
199.512	24.64
199.899	-31.15
200.286	-55.7
200.673	36.27
201.06	7.86
201.447	9.07
201.833	-23.7
202.22	-12.35
202.607	-73.91
202.994	33.37
203.38	38
203.767	-5.98
204.154	56.65
204.54	20.31
204.927	-5.17
205.313	13.06
205.699	18.41
206.086	17.01
206.472	16.49
206.858	3.84
207.245	8.46
207.631	-22.84
208.017	55.35
208.403	-49.39
208.789	-35.12
209.175	42.18
209.561	-76.16
209.947	-0.73
210.333	-43.6
210.719	40.72
211.105	31.93
211.491	11.76
211.876	-27.26
212.262	24.53
212.648	8.08
213.034	8.27
213.419	-11.23
213.805	-41.38
214.19	-37.52
214.576	-19.68
214.961	8.58
215.346	-42.26
215.732	-26.1
216.117	27.23
216.502	-8.16
216.888	-3.12
217.273	-2.16
217.658	9.12
218.043	-31.42
218.428	-21.72
218.813	-9.07
219.198	-13.25
219.583	-15.76
219.968	14.47
220.353	-4.14
220.738	11.43
221.122	-12.13
221.507	-10.11
221.892	-38.97
222.276	-24.67
222.661	-10.1
223.046	-7.54
223.43	23.28
223.815	-2.69
224.199	2.08
224.583	-3.05
224.968	7.94
225.352	0.62
225.736	12.07
226.121	-9.09
226.505	2.11
226.889	7.65
227.273	-1.28
227.657	6.29
228.041	3.25
228.425	-1.36
228.809	-2.68
229.193	2.14
229.577	2.88
229.961	2.26
230.344	3.44
230.728	4.18
231.112	3.32
231.495	1.4
231.879	3.04
232.263	4.22
232.646	2.94
233.03	5.12
233.413	2.51
233.797	-0.24
234.18	2.4
234.563	3.77
234.946	0.79
235.33	4.21
235.713	2.88
236.096	4.35
236.479	4.72
236.862	2.48
237.245	2.24
237.628	5.4
238.011	3.87
238.394	2.17
238.777	3.48
239.16	3.26
239.543	2.97
239.925	2.8
240.308	1.6
240.691	2.02
241.073	3.33
241.456	3.9
241.838	3.73
242.221	2.85
242.603	4.02
242.986	3.35
243.368	3.52
243.75	3.55
244.133	4.02
244.515	4.01
244.897	3.88
245.279	4.06
245.661	5.02
246.043	3.28
246.425	2.8
246.807	3.72
247.189	3.88
247.571	3.44
247.953	3.5
248.335	3.68
248.717	3.82
249.098	3.52
249.48	4
249.862	3.71
250.243	3.98
250.625	3.8
251.006	4.5
251.388	2.95
251.769	2.51
252.151	3.52
252.532	3.06
252.913	3.07
253.295	3.01
253.676	3.65
254.057	3.3
254.438	3.39
254.819	3.76
255.2	3.89
255.581	4.62
255.962	5.19
256.343	4.56
256.724	4.28
257.105	4.13
257.486	2.94
257.867	2.54
258.247	4.23
258.628	3.36
259.009	2.19
259.389	2.95
259.77	3.07
260.15	4.22
260.531	3.46
260.911	3.28
261.292	3.6
261.672	3.43
262.052	3.54
262.432	3.37
262.813	3.62
263.193	3.45
263.573	3.44
263.953	3.12
264.333	3.4
264.713	3.34
265.093	3.75
265.473	3.06
265.853	3.28
266.233	3.23
266.612	3.05
266.992	3.05
267.372	3.32
267.752	3.76
268.131	2.75
268.511	3.04
268.89	3.93
269.27	2.8
269.649	3.35
270.029	3.11
270.408	3.21
270.787	3.73
271.167	3.26
271.546	3.19
271.925	3.49
272.304	3.47
272.683	2.74
273.062	3.38
273.441	2.8
273.82	3.56
274.199	3.38
274.578	3.23
274.957	3.35
275.336	3.21
275.715	3.58
276.093	2.37
276.472	2.8
276.851	3.72
277.229	2.93
277.608	2.62
277.986	3.24
278.365	3.08
278.743	3.13
279.122	2.88
279.5	2.55
279.878	2.66
280.257	3.48
280.635	3
281.013	2.98
281.391	3.13
281.769	3.66
282.147	2.4
282.525	3.24
282.903	2.98
283.281	3.41
283.659	3.41
284.037	2.93
284.415	2.95
284.792	2.62
285.17	3.06
285.548	3.2
285.925	2.96
286.303	3.44
286.68	3.15
287.058	3.45
287.435	3.14
287.813	3.22
288.19	2.92
288.567	3.21
288.945	3.4
289.322	3.04
289.699	3.44
290.076	3.02
290.453	3.01
290.83	3
291.207	3.34
291.584	3.61
291.961	3.46
292.338	3.04
292.715	3.04
293.092	3.61
293.469	3.45
293.845	3.54
294.222	3.6
294.599	3.13
294.975	2.85
295.352	3.75
295.728	3.47
296.105	3.56
296.481	3.45
296.858	3.39
297.234	2.99
297.61	3.39
297.986	3.92
298.363	3.94
298.739	3.74
299.115	3.61
299.491	3.83
299.867	3.3
300.243	3.32
300.619	3.13
300.995	4.12
301.371	3.96
301.746	3.52
302.122	2.96
302.498	3.41
302.874	3.87
303.249	3.77
303.625	3.9
304	3.84
304.376	3.72
304.751	3.77
305.127	3.29
305.502	4.07
305.878	3.87
306.253	3.4
306.628	4.07
307.003	3.64
307.378	3.86
307.754	3.69
308.129	3.52
308.504	4.12
308.879	3.94
309.254	4.36
309.629	4.12
310.003	4.31
310.378	3.82
310.753	4.08
311.128	3.68
311.502	3.64
311.877	3.71
312.252	3.78
312.626	4.07
313.001	4.19
313.375	3.96
313.75	3.91
314.124	4.16
314.498	4.34
314.873	3.38
315.247	3.92
315.621	4.02
315.995	3.86
316.369	3.53
316.743	3.58
317.117	3.75
317.491	3.63
317.865	3.62
318.239	4.59
318.613	3.93
318.987	4.08
319.361	3.6
319.734	3.91
320.108	3.71
320.482	3.96
320.855	3.53
321.229	4
321.602	3.81
321.976	3.58
322.349	4.68
322.723	4
323.096	4.13
323.469	3.9
323.843	3.99
324.216	3.77
324.589	4.14
324.962	3.57
325.335	3.94
325.708	4.43
326.081	4.24
326.454	4.36
326.827	3.8
327.2	3.54
327.573	3.99
327.945	3.8
328.318	3.91
328.691	4.31
329.063	3.61
329.436	3.8
329.809	4.05
330.181	5.04
330.553	4.26
330.926	4.35
331.298	4.19
331.671	4.33
332.043	4.31
332.415	4.44
332.787	4.25
333.159	3.77
333.532	4.29
333.904	4.41
334.276	4.24
334.648	4.15
335.02	4.08
335.391	4.09
335.763	4.52
336.135	4.41
336.507	3.93
336.879	4.67
337.25	4.36
337.622	4.17
337.993	4.43
338.365	4.25
338.736	4.51
339.108	4.42
339.479	4.1
339.851	4.5
340.222	4.99
340.593	4.1
340.964	4.44
341.336	4.04
341.707	4.03
342.078	3.72
342.449	4.39
342.82	4.49
343.191	4.63
343.562	4.44
343.933	4.23
344.303	4.56
344.674	4.41
345.045	4.22
345.416	4.65
345.786	4.11
346.157	4.62
346.527	4.23
346.898	4.21
347.268	4.54
347.639	4.37
348.009	4.44
348.38	4.1
348.75	4.45
349.12	4.54
349.49	4.6
349.861	4.86
350.231	3.92
350.601	4.35
350.971	4.15
351.341	4.43
351.711	4.39
352.081	4.13
352.45	4.28
352.82	4.09
353.19	4.05
353.56	3.97
353.929	4.46
354.299	4.66
354.669	4.6
355.038	4.35
355.408	4.28
355.777	4.53
356.147	4.21
356.516	4.23
356.885	4.56
357.254	4.2
357.624	4.05
357.993	4.54
358.362	4.55
358.731	4.52
359.1	4.39
359.469	4.55
359.838	4.69
360.207	4.48
360.576	4.63
360.945	4.72
361.314	4.36
361.682	4.19
362.051	4.32
362.42	4.48
362.788	4.58
363.157	4.4
363.525	4.59
363.894	4.36
364.262	4.69
364.631	4.85
364.999	4.63
365.367	4.43
365.735	4.25
366.104	4.66
366.472	4.49
366.84	4.4
367.208	4.75
367.576	4.18
367.944	4.69
368.312	4.55
368.68	5.1
369.048	4.65
369.416	4.47
369.783	4.57
370.151	4.72
370.519	4.89
370.886	4.4
371.254	4.78
371.621	4.63
371.989	4.94
372.356	4.6
372.724	4.47
373.091	4.57
373.458	4.35
373.826	4.37
374.193	4.8
374.56	4.76
374.927	4.59
375.294	4.87
375.661	4.58
376.028	4.54
376.395	4.74
376.762	4.63
377.129	4.59
377.496	4.82
377.863	4.77
378.229	4.95
378.596	4.81
378.963	4.69
379.329	4.74
379.696	4.65
380.062	4.83
380.429	4.69
380.795	5.01
381.161	4.45
381.528	4.42
381.894	4.98
382.26	4.78
382.626	4.72
382.993	5.13
383.359	4.92
383.725	4.39
384.091	4.9
384.457	4.49
384.823	5
385.188	4.86
385.554	4.77
385.92	4.77
386.286	4.89
386.651	4.56
387.017	5.01
387.383	4.75
387.748	4.94
388.114	4.94
388.479	4.86
388.845	4.74
389.21	5.14
389.575	5.14
389.94	4.85
390.306	4.79
390.671	4.91
391.036	4.86
391.401	4.77
391.766	5.08
392.131	5.14
392.496	5.02
392.861	4.98
393.226	4.84
393.591	4.9
393.956	5.11
394.32	4.99
394.685	5.01
395.05	5.04
395.414	5.15
395.779	5.18
396.143	4.79
396.508	4.82
396.872	4.93
397.236	5.17
397.601	5.22
397.965	5.2
398.329	5.12
398.694	4.93
399.058	4.9
399.422	4.89
399.786	4.93
400.15	4.99
400.514	5.09
400.878	5.02
401.242	5.11
401.605	4.97
401.969	5.04
402.333	4.95
402.697	5.27
403.06	4.95
403.424	5.25
403.787	5.33
404.151	5.06
404.514	5
404.878	4.85
405.241	5.1
405.604	5.17
405.968	5.34
406.331	5.2
406.694	5.16
407.057	5.03
407.42	5.02
407.783	5.14
408.146	5.19
408.509	5.24
408.872	5.14
409.235	5.35
409.598	5.1
409.961	5.42
410.323	4.98
410.686	5.13
411.049	5.29
411.411	5.15
411.774	5.19
412.136	5.23
412.499	5.2
412.861	5.06
413.223	4.92
413.586	5.23
413.948	5.56
414.31	5.18
414.672	5.14
415.035	5.43
415.397	5.23
415.759	5.04
416.121	5.5
416.483	5.33
416.845	5.36
417.206	5.23
417.568	5.16
417.93	5.17
418.292	5.29
418.653	5.01
419.015	5.24
419.377	5
419.738	5.42
420.1	5.19
420.461	5.25
420.822	5.22
421.184	5.25
421.545	5.16
421.906	5.32
422.267	5.29
422.629	5.11
422.99	5.19
423.351	5.19
423.712	5.25
424.073	5.31
424.434	5.29
424.795	5.3
425.155	5.25
425.516	5.21
425.877	5.28
426.238	5.25
426.598	5.3
426.959	5.33
427.32	5.29
427.68	5.26
428.041	5.4
428.401	5.16
428.761	5.53
429.122	5.23
429.482	5.43
429.842	5.46
430.202	5.53
430.563	5.49
430.923	5.41
431.283	5.5
431.643	5.52
432.003	5.39
432.363	5.46
432.722	5.5
433.082	5.36
433.442	5.57
433.802	5.49
434.161	5.59
434.521	5.45
434.881	5.39
435.24	5.44
435.6	5.47
435.959	5.47
436.319	5.5
436.678	5.55
437.037	5.51
437.396	5.58
437.756	5.34
438.115	5.35
438.474	5.49
438.833	5.53
439.192	5.55
439.551	5.46
439.91	5.58
440.269	5.45
440.628	5.53
440.987	5.68
441.345	5.49
441.704	5.46
442.063	5.42
442.421	5.56
442.78	5.53
443.138	5.58
443.497	5.53
443.855	5.63
444.214	5.39
444.572	5.8
444.93	5.65
445.288	5.58
445.647	5.48
446.005	5.57
446.363	5.62
446.721	5.55
447.079	5.54
447.437	5.6
447.795	5.72
448.153	5.6
448.51	5.73
448.868	5.52
449.226	5.73
449.584	5.61
449.941	5.82
450.299	5.63
450.656	5.6
451.014	5.82
451.371	5.93
451.729	5.83
452.086	5.83
452.443	5.91
452.801	5.79
453.158	5.89
453.515	5.8
453.872	5.71
454.229	5.68
454.586	5.79
454.943	5.89
455.3	5.8
455.657	5.77
456.014	5.84
456.371	5.97
456.727	6.05
457.084	6.02
457.441	5.8
457.797	5.81
458.154	5.97
458.51	5.75
458.867	5.81
459.223	5.87
459.58	5.94
459.936	5.92
460.292	5.9
460.648	5.77
461.005	5.84
461.361	5.9
461.717	5.84
462.073	5.84
462.429	6
462.785	5.94
463.141	5.94
463.496	5.89
463.852	6.06
464.208	6.01
464.564	5.69
464.919	6.07
465.275	6.09
465.631	6.15
465.986	6.1
466.342	6.06
466.697	6.01
467.052	6.08
467.408	6.24
467.763	6.06
468.118	5.96
468.473	6.07
468.829	6.05
469.184	6.16
469.539	5.86
469.894	5.94
470.249	6.09
470.603	6.24
470.958	6.19
471.313	6.17
471.668	6.09
472.023	6.23
472.377	6.19
472.732	6.32
473.086	6.2
473.441	6.19
473.795	6.36
474.15	6.09
474.504	6.2
474.859	5.97
475.213	6.25
475.567	6.02
475.921	6.35
476.275	6.25
476.63	6.35
476.984	6.21
477.338	6.39
477.692	6.15
478.045	6.31
478.399	6.26
478.753	6.31
479.107	6.26
479.461	6.3
479.814	6.23
480.168	6.2
480.521	6.42
480.875	6.33
481.228	6.35
481.582	6.22
481.935	6.29
482.289	6.46
482.642	6.46
482.995	6.28
483.348	6.21
483.701	6.33
484.055	6.22
484.408	6.27
484.761	6.11
485.114	6
485.466	5.97
485.819	6.01
486.172	6.07
486.525	6.14
486.878	6.15
487.23	6.24
487.583	6.25
487.936	6.25
488.288	6.19
488.641	6.18
488.993	6.18
489.345	6.19
489.698	6.19
490.05	6.2
490.402	6.26
490.754	6.33
491.107	6.31
491.459	6.41
491.811	6.45
492.163	6.44
492.515	6.34
492.866	6.27
493.218	6.27
493.57	6.39
493.922	6.33
494.274	6.45
494.625	6.57
494.977	6.55
495.328	6.57
495.68	6.65
496.031	6.56
496.383	6.57
496.734	6.61
497.086	6.77
497.437	6.66
497.788	6.79
498.139	6.62
498.49	6.77
498.842	6.74
499.193	6.67
499.544	6.69
499.894	6.74
500.245	6.81
500.596	6.91
500.947	6.67
501.298	6.8
501.648	6.79
501.999	6.85
502.35	6.83
502.7	7.08
503.051	6.94
503.401	6.86
503.752	6.81
504.102	6.89
504.452	6.81
504.803	6.89
505.153	6.99
505.503	6.99
505.853	6.98
506.203	6.98
506.553	6.93
506.903	7.07
507.253	7
507.603	6.98
507.953	7.02
508.303	7.11
508.652	6.9
509.002	7.21
509.352	7.11
509.701	7.02
510.051	7.12
510.4	7.08
510.75	7.12
511.099	7.08
511.449	7.2
511.798	7.08
512.147	7.16
512.496	7.15
512.846	7.13
513.195	7.2
513.544	7.34
513.893	7.33
514.242	7.24
514.591	7.31
514.939	7.42
515.288	7.37
515.637	7.29
515.986	7.28
516.334	7.39
516.683	7.44
517.032	7.31
517.38	7.4
517.729	7.3
518.077	7.48
518.426	7.5
518.774	7.42
519.122	7.45
519.47	7.39
519.819	7.42
520.167	7.37
520.515	7.37
520.863	7.42
521.211	7.5
521.559	7.44
521.907	7.56
522.255	7.55
522.602	7.64
522.95	7.65
523.298	7.81
523.645	7.73
523.993	7.75
524.341	7.8
524.688	7.72
525.036	7.78
525.383	7.78
525.73	7.71
526.078	7.75
526.425	7.76
526.772	7.67
527.119	7.7
527.466	7.79
527.814	7.75
528.161	7.82
528.508	7.83
528.854	7.77
529.201	7.7
529.548	7.69
529.895	7.62
530.242	7.6
530.588	7.65
530.935	7.69
531.282	7.7
531.628	7.81
531.975	7.81
532.321	7.87
532.667	8.01
533.014	8.06
533.36	8.04
533.706	8.07
534.052	8.05
534.399	8.04
534.745	7.99
535.091	7.97
535.437	8.05
535.783	8.11
536.129	8.09
536.474	8.25
536.82	8.36
537.166	8.23
537.512	8.33
537.857	8.35
538.203	8.27
538.549	8.29
538.894	8.29
539.239	8.49
539.585	8.45
539.93	8.49
540.276	8.49
540.621	8.66
540.966	8.59
541.311	8.69
541.656	8.55
542.001	8.57
542.346	8.44
542.691	8.48
543.036	8.41
543.381	8.46
543.726	8.51
544.071	8.48
544.415	8.61
544.76	8.62
545.105	8.58
545.449	8.74
545.794	8.88
546.138	8.89
546.483	9.11
546.827	9.01
547.171	9
547.516	9.12
547.86	9
548.204	9.1
548.548	9.03
548.892	9.1
549.236	9.11
549.58	9.21
549.924	9.19
550.268	9.39
550.612	9.37
550.956	9.4
551.3	9.48
551.643	9.44
551.987	9.69
552.33	9.66
552.674	9.49
553.017	9.62
553.361	9.63
553.704	9.62
554.048	9.65
554.391	9.67
554.734	9.57
555.077	9.7
555.42	9.73
555.764	9.64
556.107	9.88
556.45	9.8
556.793	10.08
557.135	9.95
557.478	9.96
557.821	9.95
558.164	10.18
558.507	9.88
558.849	10.3
559.192	10.12
559.534	10.19
559.877	10.01
560.219	10.16
560.562	10.36
560.904	10.43
561.246	10.18
561.589	10.59
561.931	10.31
562.273	10.28
562.615	10.47
562.957	10.36
563.299	10.41
563.641	10.46
563.983	10.44
564.325	10.7
564.667	10.56
565.008	10.51
565.35	10.65
565.692	10.73
566.033	10.62
566.375	10.87
566.716	10.64
567.058	10.8
567.399	10.84
567.741	10.92
568.082	10.95
568.423	10.84
568.764	11.03
569.105	10.97
569.447	10.98
569.788	11.05
570.129	11.16
570.47	11.01
570.811	11.12
571.151	11.37
571.492	11.31
571.833	11.17
572.174	11.45
572.514	11.47
572.855	11.54
573.195	11.32
573.536	11.41
573.876	11.37
574.217	11.42
574.557	11.48
574.898	11.53
575.238	11.59
575.578	11.7
575.918	11.73
576.258	11.91
576.598	11.68
576.938	11.73
577.278	11.87
577.618	11.9
577.958	11.86
578.298	11.84
578.638	11.94
578.977	12.13
579.317	12
579.657	12.13
579.996	12.36
580.336	12.25
580.675	12.31
581.014	12.37
581.354	12.24
581.693	12.54
582.032	12.66
582.372	12.46
582.711	12.71
583.05	12.43
583.389	12.97
583.728	12.55
584.067	12.66
584.406	12.7
584.745	12.61
585.083	12.7
585.422	12.95
585.761	12.88
586.1	13.16
586.438	12.67
586.777	13.18
587.115	13.17
587.454	13.08
587.792	13.09
588.13	12.99
588.469	13.25
588.807	13.28
589.145	13.52
589.483	13.19
589.821	13.25
590.159	13.59
590.497	13.49
590.835	13.36
591.173	13.66
591.511	13.49
591.849	13.7
592.187	13.46
592.524	13.82
592.862	13.33
593.2	13.78
593.537	13.61
593.875	13.71
594.212	14.05
594.55	13.88
594.887	14.02
595.224	13.93
595.561	14.01
595.899	14.08
596.236	14.11
596.573	13.86
596.91	14.05
597.247	14.09
597.584	14.13
597.921	14.25
598.258	14.28
598.594	14.38
598.931	14.11
599.268	14.09
599.604	14.36
599.941	14.26
600.277	14.56
600.614	14.65
600.95	14.67
601.287	14.44
601.623	14.42
601.959	14.79
602.296	14.86
602.632	14.79
602.968	14.79
603.304	14.81
603.64	14.89
603.976	14.89
604.312	15.1
604.648	15.39
604.984	14.92
605.319	15.19
605.655	15.03
605.991	15.15
606.326	15.27
606.662	15.14
606.998	15.35
607.333	15.27
607.668	15.22
608.004	15.35
608.339	15.48
608.674	15.64
609.01	16.07
609.345	15.71
609.68	15.55
610.015	15.89
610.35	15.81
610.685	15.48
611.02	15.8
611.355	15.8
611.689	15.92
612.024	15.94
612.359	16.02
612.694	16.25
613.028	15.92
613.363	16.12
613.697	16.52
614.032	16.5
614.366	16.21
614.7	16.24
615.035	16.38
615.369	16.78
615.703	16.91
616.037	16.56
616.371	16.86
616.705	16.96
617.039	16.82
617.373	16.66
617.707	16.86
618.041	16.79
618.375	16.15
618.709	16.85
619.042	17.02
619.376	17.05
619.71	17.03
620.043	17.28
620.377	17.31
620.71	17.16
621.043	17.4
621.377	17.28
621.71	17.6
622.043	17.42
622.376	17.33
622.709	17.66
623.043	17.5
623.376	17.58
623.709	17.63
624.041	17.64
624.374	17.63
624.707	17.85
625.04	17.7
625.373	17.92
625.705	17.67
626.038	17.72
626.37	17.61
626.703	17.85
627.035	17.96
627.368	18.25
627.7	18.41
628.032	18.12
628.365	18.18
628.697	18.59
629.029	18.1
629.361	18.46
629.693	18.4
630.025	18.77
630.357	18.53
630.689	18.68
631.021	18.86
631.353	18.69
631.684	18.4
632.016	18.37
632.348	18.53
632.679	18.93
633.011	19.14
633.342	18.85
633.674	18.8
634.005	18.88
634.336	19.06
634.668	18.89
634.999	19.03
635.33	18.9
635.661	19.13
635.992	19.43
636.323	19.33
636.654	19.58
636.985	18.99
637.316	19.25
637.647	19.32
637.977	19.34
638.308	19.83
638.639	19.65
638.969	20.02
639.3	19.73
639.63	19.64
639.961	19.68
640.291	19.57
640.622	19.93
640.952	20.03
641.282	19.39
641.612	19.89
641.943	19.82
642.273	19.82
642.603	20.08
642.933	20.33
643.263	20.14
643.592	20.51
643.922	20.59
644.252	20.4
644.582	20.58
644.911	20.38
645.241	20.6
645.571	20.42
645.9	21.03
646.23	21.03
646.559	20.2
646.888	21.26
647.218	20.93
647.547	20.49
647.876	21.12
648.205	21.19
648.534	20.75
648.863	20.83
649.192	21.5
649.521	21.15
649.85	20.75
650.179	21.14
650.508	21.07
650.837	21.55
651.165	21.38
651.494	21.59
651.822	21.19
652.151	21.36
652.479	21.48
652.808	21.81
653.136	21.53
653.465	21.09
653.793	21.68
654.121	21.54
654.449	21.25
654.777	21.05
655.105	21.75
655.433	22
655.761	21.91
656.089	21.88
656.417	21.87
656.745	22.18
657.073	21.8
657.4	22.07
657.728	21.7
658.056	21.77
658.383	22.23
658.711	22.19
659.038	22.26
659.365	22.46
659.693	22.57
660.02	22.18
660.347	22.59
660.674	22.38
661.001	22.52
661.329	22.26
661.656	22.42
661.982	22.31
662.309	22.68
662.636	23.01
662.963	22.84
663.29	22.73
663.616	22.58
663.943	22.5
664.27	23.09
664.596	22.99
664.923	23.33
665.249	23.03
665.576	22.89
665.902	22.51
666.228	23.13
666.554	23.85
666.881	22.64
667.207	23.79
667.533	23.04
667.859	22.96
668.185	22.88
668.511	23.91
668.837	24.08
669.162	23.37
669.488	23.19
669.814	23.83
670.139	23.36
670.465	23.94
670.791	23.46
671.116	23.34
671.442	23.61
671.767	24
672.092	23.27
672.418	23.84
672.743	24
673.068	24.48
673.393	24.14
673.718	23.69
674.043	23.7
674.368	24
674.693	24.64
675.018	24.45
675.343	24.18
675.667	24.02
675.992	24.45
676.317	24.52
676.641	24.62
676.966	24.12
677.29	23.87
677.615	24.3
677.939	24.29
678.264	24.75
678.588	24.98
678.912	25.54
679.236	24.84
679.56	24.46
679.885	24.74
680.209	25.42
680.532	25.87
680.856	25.15
681.18	25.56
681.504	25.38
681.828	24.78
682.152	25.34
682.475	25.32
682.799	24.99
683.122	25.13
683.446	24.76
683.769	26.14
