Data from 0010_crown_Reflection__0__322.txt Node

Date: Thu Dec 15 19:11:04 CST 2022
User: ToomeyLab
Spectrometer: FLMS14357
Trigger mode: 0
Integration Time (sec): 1.000000E-2
Scans to average: 100
Electric dark correction enabled: true
Nonlinearity correction enabled: false
Boxcar width: 0
XAxis mode: Wavelengths
Number of Pixels in Spectrum: 2048
>>>>>Begin Spectral Data<<<<<
189.047	-35.62
189.435	-35.62
189.823	-35.62
190.211	70.86
190.599	73.54
190.987	73.25
191.375	59.98
191.763	35.16
192.151	50.53
192.538	99.17
192.926	273.61
193.314	106.69
193.702	21.21
194.089	86.82
194.477	223.43
194.864	160.58
195.252	-73.32
195.639	126.86
196.027	-208.33
196.414	36.69
196.801	43.99
197.189	91.82
197.576	-295
197.963	476.7
198.351	-52.93
198.738	-130.14
199.125	40.34
199.512	-2.96
199.899	-34.82
200.286	-20.03
200.673	12.22
201.06	-5.59
201.447	-38.17
201.833	-22.89
202.22	-96.51
202.607	-49.61
202.994	-38.71
203.38	-16.12
203.767	-8.18
204.154	-12.18
204.54	0.24
204.927	13.46
205.313	7.09
205.699	13.25
206.086	3.88
206.472	-9.69
206.858	-29.85
207.245	6.07
207.631	4.82
208.017	52.91
208.403	-68.27
208.789	-24.5
209.175	-18.53
209.561	-73.73
209.947	-35.99
210.333	-6.94
210.719	27.12
211.105	33.38
211.491	-5.66
211.876	-71.42
212.262	21.96
212.648	-7.03
213.034	-27.83
213.419	-41.46
213.805	-39.27
214.19	-51.42
214.576	-40.86
214.961	-21.1
215.346	-0.2
215.732	-8.87
216.117	-11.67
216.502	-28.34
216.888	-4.92
217.273	-10.74
217.658	-25.4
218.043	-78.17
218.428	-18.85
218.813	3.67
219.198	-60.39
219.583	-29.84
219.968	-43.18
220.353	-53.24
220.738	22.15
221.122	-4.37
221.507	-23.35
221.892	-37.79
222.276	-43.34
222.661	-29.81
223.046	-26.78
223.43	18.89
223.815	-2.86
224.199	-4.34
224.583	-17.28
224.968	-13.07
225.352	-6.49
225.736	6.24
226.121	-4.09
226.505	-4.16
226.889	0.81
227.273	-10.09
227.657	3.5
228.041	-1.07
228.425	-1.81
228.809	-4.38
229.193	1.76
229.577	2.04
229.961	1.83
230.344	2.54
230.728	2.31
231.112	2.07
231.495	-0.91
231.879	2.18
232.263	3.04
232.646	0.59
233.03	2.25
233.413	1.16
233.797	0.34
234.18	1.96
234.563	1.71
234.946	-0.38
235.33	1.38
235.713	1.95
236.096	1.6
236.479	2.58
236.862	0.25
237.245	-0.85
237.628	0.6
238.011	1.51
238.394	0.31
238.777	0.01
239.16	3.79
239.543	1.04
239.925	0.38
240.308	-0.14
240.691	0.1
241.073	2.52
241.456	3.08
241.838	1.6
242.221	2.38
242.603	2.81
242.986	3.52
243.368	2.99
243.75	3.11
244.133	3.2
244.515	2.43
244.897	2.31
245.279	2.13
245.661	2.71
246.043	2.38
246.425	2.44
246.807	2.7
247.189	1.47
247.571	2.37
247.953	2.53
248.335	2.67
248.717	2.88
249.098	2.78
249.48	2.58
249.862	2.75
250.243	2.94
250.625	3.18
251.006	2.96
251.388	2.32
251.769	2.1
252.151	2.83
252.532	2.78
252.913	1.92
253.295	2.48
253.676	2.32
254.057	2.42
254.438	2.09
254.819	2.37
255.2	2.23
255.581	3.11
255.962	3.18
256.343	2.65
256.724	1.07
257.105	2.71
257.486	1.45
257.867	2.6
258.247	2.2
258.628	2.43
259.009	2.28
259.389	1.41
259.77	2.08
260.15	2.95
260.531	2.54
260.911	2.48
261.292	2.62
261.672	2.7
262.052	2.66
262.432	2.21
262.813	2.41
263.193	3.26
263.573	2.78
263.953	2.41
264.333	2.71
264.713	2.97
265.093	2.08
265.473	1.01
265.853	2
266.233	2.01
266.612	2
266.992	2.64
267.372	2.97
267.752	3.08
268.131	1.96
268.511	2.16
268.89	2.61
269.27	1.99
269.649	1.71
270.029	2.5
270.408	1.73
270.787	2.03
271.167	2.48
271.546	3.24
271.925	2.43
272.304	2.34
272.683	2.34
273.062	2.1
273.441	2.12
273.82	2.41
274.199	2.33
274.578	2.4
274.957	2.1
275.336	2.31
275.715	2.45
276.093	2.39
276.472	1.58
276.851	2.17
277.229	1.96
277.608	1.56
277.986	2.1
278.365	2.75
278.743	2.12
279.122	2.51
279.5	2.08
279.878	1.9
280.257	2.17
280.635	2.17
281.013	1.8
281.391	1.73
281.769	2.46
282.147	1.97
282.525	2.04
282.903	2.05
283.281	2.51
283.659	2.75
284.037	2.03
284.415	2.13
284.792	1.93
285.17	1.8
285.548	1.94
285.925	2.1
286.303	2.33
286.68	2.29
287.058	2.63
287.435	2.26
287.813	2.06
288.19	1.94
288.567	2.3
288.945	2.33
289.322	2.21
289.699	2.7
290.076	2.4
290.453	2.15
290.83	2.36
291.207	2.45
291.584	2.51
291.961	2.52
292.338	2.06
292.715	1.98
293.092	2.34
293.469	2.08
293.845	2.58
294.222	2.45
294.599	1.87
294.975	1.56
295.352	2.5
295.728	2.5
296.105	2.2
296.481	2.79
296.858	2.63
297.234	2.26
297.61	2.33
297.986	2.83
298.363	2.8
298.739	2.53
299.115	2.6
299.491	2.58
299.867	2.87
300.243	2.2
300.619	2.01
300.995	2.56
301.371	2.61
301.746	2.75
302.122	2.15
302.498	2.43
302.874	2.59
303.249	2.76
303.625	2.27
304	2.33
304.376	2.71
304.751	2.66
305.127	2.01
305.502	2.9
305.878	2.7
306.253	2.39
306.628	2.56
307.003	2.59
307.378	2.38
307.754	2.57
308.129	2.37
308.504	2.95
308.879	2.47
309.254	2.86
309.629	2.45
310.003	2.57
310.378	2.99
310.753	2.57
311.128	2.64
311.502	2.77
311.877	2.64
312.252	2.5
312.626	2.8
313.001	2.53
313.375	2.66
313.75	2.81
314.124	2.91
314.498	2.72
314.873	2.1
315.247	2.8
315.621	2.42
315.995	2.59
316.369	2.58
316.743	2.51
317.117	2.45
317.491	2.87
317.865	2.64
318.239	2.82
318.613	2.55
318.987	1.99
319.361	2.99
319.734	2.72
320.108	2.25
320.482	3.09
320.855	2.73
321.229	2.12
321.602	2.52
321.976	2.11
322.349	3.74
322.723	2.86
323.096	2.27
323.469	2.81
323.843	2.04
324.216	2.6
324.589	2.7
324.962	2.36
325.335	2.56
325.708	2.24
326.081	2.78
326.454	3.43
326.827	2.64
327.2	2.48
327.573	3.03
327.945	2.53
328.318	2.85
328.691	2.72
329.063	2.41
329.436	2.47
329.809	2.9
330.181	3.68
330.553	2.84
330.926	3.11
331.298	2.47
331.671	3.02
332.043	2.57
332.415	2.96
332.787	2.97
333.159	2.62
333.532	2.4
333.904	3.11
334.276	3.09
334.648	2.88
335.02	2.61
335.391	2.69
335.763	2.84
336.135	3.04
336.507	2.72
336.879	2.86
337.25	2.93
337.622	2.85
337.993	2.8
338.365	3.33
338.736	3.11
339.108	2.61
339.479	2.98
339.851	3.36
340.222	3.16
340.593	2.83
340.964	2.99
341.336	2.24
341.707	2.69
342.078	2.5
342.449	2.13
342.82	2.8
343.191	2.75
343.562	2.85
343.933	2.58
344.303	2.89
344.674	2.63
345.045	3.31
345.416	3.29
345.786	3.09
346.157	2.86
346.527	2.5
346.898	2.72
347.268	2.71
347.639	2.83
348.009	3.01
348.38	2.81
348.75	3
349.12	3.35
349.49	3.08
349.861	2.83
350.231	2.73
350.601	2.77
350.971	2.56
351.341	2.81
351.711	2.88
352.081	2.66
352.45	2.42
352.82	2.09
353.19	2.68
353.56	2.59
353.929	3.32
354.299	2.86
354.669	2.91
355.038	2.88
355.408	3.11
355.777	2.84
356.147	2.78
356.516	2.91
356.885	2.81
357.254	2.71
357.624	2.56
357.993	2.93
358.362	2.93
358.731	3.09
359.1	3.09
359.469	2.84
359.838	3.11
360.207	2.72
360.576	2.87
360.945	3.18
361.314	3.08
361.682	2.74
362.051	3.07
362.42	2.96
362.788	3.11
363.157	3.02
363.525	3.04
363.894	2.74
364.262	2.83
364.631	3.04
364.999	3
365.367	2.77
365.735	2.75
366.104	2.96
366.472	2.76
366.84	3.03
367.208	3.32
367.576	2.81
367.944	2.83
368.312	2.82
368.68	3.02
369.048	2.92
369.416	2.72
369.783	3
370.151	3.25
370.519	3.22
370.886	2.92
371.254	3.1
371.621	3.11
371.989	3.11
372.356	3
372.724	2.71
373.091	2.61
373.458	2.91
373.826	3.31
374.193	3.15
374.56	2.95
374.927	3.08
375.294	3.01
375.661	3.08
376.028	2.76
376.395	3.1
376.762	2.61
377.129	3.16
377.496	2.59
377.863	2.94
378.229	3.08
378.596	3.12
378.963	3.05
379.329	3.07
379.696	2.89
380.062	2.76
380.429	2.66
380.795	3
381.161	2.64
381.528	3.01
381.894	2.97
382.26	3.16
382.626	3.41
382.993	3.37
383.359	2.79
383.725	2.72
384.091	3.16
384.457	2.97
384.823	3.28
385.188	3.15
385.554	2.92
385.92	3
386.286	3.06
386.651	3.04
387.017	3.11
387.383	2.96
387.748	3.15
388.114	3.06
388.479	2.8
388.845	3.23
389.21	3.18
389.575	3.36
389.94	3.24
390.306	3.16
390.671	3.06
391.036	3.05
391.401	3.02
391.766	3.02
392.131	3.38
392.496	3.03
392.861	2.99
393.226	2.85
393.591	3.2
393.956	3.09
394.32	3.07
394.685	3.19
395.05	3.09
395.414	3.17
395.779	3.23
396.143	3.03
396.508	2.93
396.872	3.14
397.236	3.37
397.601	3.26
397.965	3.18
398.329	3.07
398.694	2.8
399.058	3.37
399.422	3
399.786	3.19
400.15	3.07
400.514	2.98
400.878	3.11
401.242	3.31
401.605	3.37
401.969	3.1
402.333	2.87
402.697	3.37
403.06	3.2
403.424	3.14
403.787	3.27
404.151	3.1
404.514	3.19
404.878	2.99
405.241	3.14
405.604	3.1
405.968	3.13
406.331	3.25
406.694	3.19
407.057	3.08
407.42	3.12
407.783	3.35
408.146	3.05
408.509	3.26
408.872	3.03
409.235	3.25
409.598	3.26
409.961	3.27
410.323	3.16
410.686	3.24
411.049	3.25
411.411	3.05
411.774	3.19
412.136	3.34
412.499	3.29
412.861	3.04
413.223	3.11
413.586	3.14
413.948	3.32
414.31	3.16
414.672	3.06
415.035	3.35
415.397	3.19
415.759	3.13
416.121	3.14
416.483	3.17
416.845	3.3
417.206	3.21
417.568	3.1
417.93	3.24
418.292	3.14
418.653	3.15
419.015	3.19
419.377	3.23
419.738	3.33
420.1	3.24
420.461	3.04
420.822	3.14
421.184	3.16
421.545	3.18
421.906	3.27
422.267	3.17
422.629	3.1
422.99	3.14
423.351	3.18
423.712	3.25
424.073	3.24
424.434	3.35
424.795	3.2
425.155	3.09
425.516	3.19
425.877	3.16
426.238	3.2
426.598	3.31
426.959	3.27
427.32	3.23
427.68	3.2
428.041	3.31
428.401	3.25
428.761	3.27
429.122	3.26
429.482	3.21
429.842	3.3
430.202	3.26
430.563	3.32
430.923	3.3
431.283	3.45
431.643	3.47
432.003	3.29
432.363	3.48
432.722	3.29
433.082	3.1
433.442	3.32
433.802	3.39
434.161	3.33
434.521	3.34
434.881	3.37
435.24	3.26
435.6	3.32
435.959	3.38
436.319	3.24
436.678	3.43
437.037	3.34
437.396	3.37
437.756	3.21
438.115	3.28
438.474	3.35
438.833	3.28
439.192	3.19
439.551	3.31
439.91	3.41
440.269	3.34
440.628	3.44
440.987	3.37
441.345	3.33
441.704	3.26
442.063	3.39
442.421	3.39
442.78	3.33
443.138	3.25
443.497	3.33
443.855	3.36
444.214	3.22
444.572	3.49
444.93	3.38
445.288	3.33
445.647	3.22
446.005	3.43
446.363	3.33
446.721	3.43
447.079	3.34
447.437	3.38
447.795	3.45
448.153	3.28
448.51	3.34
448.868	3.26
449.226	3.43
449.584	3.36
449.941	3.44
450.299	3.4
450.656	3.38
451.014	3.4
451.371	3.42
451.729	3.32
452.086	3.43
452.443	3.56
452.801	3.44
453.158	3.42
453.515	3.22
453.872	3.41
454.229	3.22
454.586	3.26
454.943	3.41
455.3	3.49
455.657	3.34
456.014	3.47
456.371	3.48
456.727	3.55
457.084	3.49
457.441	3.48
457.797	3.37
458.154	3.47
458.51	3.28
458.867	3.46
459.223	3.26
459.58	3.43
459.936	3.5
460.292	3.36
460.648	3.37
461.005	3.38
461.361	3.35
461.717	3.4
462.073	3.53
462.429	3.58
462.785	3.61
463.141	3.38
463.496	3.54
463.852	3.65
464.208	3.48
464.564	3.43
464.919	3.45
465.275	3.49
465.631	3.57
465.986	3.56
466.342	3.39
466.697	3.56
467.052	3.62
467.408	3.59
467.763	3.38
468.118	3.2
468.473	3.52
468.829	3.43
469.184	3.55
469.539	3.29
469.894	3.42
470.249	3.52
470.603	3.64
470.958	3.66
471.313	3.48
471.668	3.6
472.023	3.6
472.377	3.62
472.732	3.6
473.086	3.47
473.441	3.63
473.795	3.77
474.15	3.54
474.504	3.52
474.859	3.35
475.213	3.69
475.567	3.38
475.921	3.59
476.275	3.64
476.63	3.69
476.984	3.51
477.338	3.57
477.692	3.49
478.045	3.74
478.399	3.46
478.753	3.56
479.107	3.61
479.461	3.51
479.814	3.53
480.168	3.61
480.521	3.76
480.875	3.59
481.228	3.55
481.582	3.53
481.935	3.73
482.289	3.54
482.642	3.85
482.995	3.66
483.348	3.57
483.701	3.49
484.055	3.52
484.408	3.51
484.761	3.49
485.114	3.32
485.466	3.32
485.819	3.36
486.172	3.47
486.525	3.48
486.878	3.52
487.23	3.53
487.583	3.57
487.936	3.49
488.288	3.5
488.641	3.41
488.993	3.42
489.345	3.39
489.698	3.45
490.05	3.47
490.402	3.51
490.754	3.55
491.107	3.47
491.459	3.59
491.811	3.6
492.163	3.6
492.515	3.49
492.866	3.45
493.218	3.47
493.57	3.57
493.922	3.53
494.274	3.63
494.625	3.71
494.977	3.69
495.328	3.66
495.68	3.63
496.031	3.64
496.383	3.63
496.734	3.7
497.086	3.7
497.437	3.62
497.788	3.72
498.139	3.71
498.49	3.61
498.842	3.71
499.193	3.66
499.544	3.72
499.894	3.64
500.245	3.77
500.596	3.75
500.947	3.61
501.298	3.69
501.648	3.7
501.999	3.73
502.35	3.61
502.7	3.89
503.051	3.78
503.401	3.8
503.752	3.73
504.102	3.69
504.452	3.64
504.803	3.64
505.153	3.82
505.503	3.79
505.853	3.84
506.203	3.72
506.553	3.59
506.903	3.8
507.253	3.82
507.603	3.81
507.953	3.66
508.303	3.79
508.652	3.63
509.002	3.85
509.352	3.79
509.701	3.64
510.051	3.86
510.4	3.77
510.75	3.73
511.099	3.69
511.449	3.87
511.798	3.88
512.147	3.75
512.496	3.75
512.846	3.74
513.195	3.79
513.544	3.9
513.893	3.86
514.242	3.73
514.591	3.72
514.939	3.87
515.288	3.85
515.637	3.82
515.986	3.73
516.334	3.76
516.683	3.8
517.032	3.69
517.38	3.75
517.729	3.86
518.077	3.9
518.426	4.05
518.774	3.77
519.122	3.82
519.47	3.78
519.819	3.7
520.167	3.69
520.515	3.82
520.863	3.74
521.211	3.82
521.559	3.82
521.907	3.82
522.255	3.77
522.602	3.9
522.95	3.83
523.298	3.93
523.645	3.91
523.993	3.86
524.341	3.86
524.688	3.87
525.036	3.84
525.383	3.8
525.73	3.74
526.078	3.9
526.425	3.76
526.772	3.79
527.119	3.8
527.466	3.88
527.814	3.8
528.161	3.91
528.508	4
528.854	3.85
529.201	3.74
529.548	3.77
529.895	3.71
530.242	3.67
530.588	3.68
530.935	3.81
531.282	3.76
531.628	3.86
531.975	3.84
532.321	3.88
532.667	3.88
533.014	3.92
533.36	3.95
533.706	3.9
534.052	3.91
534.399	3.83
534.745	3.76
535.091	3.75
535.437	3.83
535.783	3.83
536.129	3.85
536.474	4.03
536.82	4
537.166	3.87
537.512	3.93
537.857	3.92
538.203	3.93
538.549	3.9
538.894	3.93
539.239	3.96
539.585	4.14
539.93	4.05
540.276	4.02
540.621	4.15
540.966	4.11
541.311	4.06
541.656	3.81
542.001	4.01
542.346	3.86
542.691	3.87
543.036	3.87
543.381	3.85
543.726	4
544.071	3.96
544.415	3.98
544.76	4.01
545.105	4.01
545.449	3.98
545.794	3.92
546.138	4.01
546.483	4.15
546.827	4.03
547.171	4.05
547.516	4.15
547.86	4.11
548.204	4.03
548.548	4.03
548.892	4.07
549.236	4
549.58	4.1
549.924	4.21
550.268	4.25
550.612	4.3
550.956	4.29
551.3	4.32
551.643	4.07
551.987	4.38
552.33	4.44
552.674	4.01
553.017	4.3
553.361	4.22
553.704	4.32
554.048	4.18
554.391	4.19
554.734	4.19
555.077	4.27
555.42	4.05
555.764	4.2
556.107	4.4
556.45	4.32
556.793	4.35
557.135	4.24
557.478	4.29
557.821	4.29
558.164	4.18
558.507	4.38
558.849	4.45
559.192	4.31
559.534	4.2
559.877	4.36
560.219	4.22
560.562	4.24
560.904	4.6
561.246	4.22
561.589	4.38
561.931	4.38
562.273	4.29
562.615	4.11
562.957	4.25
563.299	4.24
563.641	4.27
563.983	4.27
564.325	4.31
564.667	4.24
565.008	4.3
565.35	4.34
565.692	4.29
566.033	4.33
566.375	4.24
566.716	4.18
567.058	4.17
567.399	4.43
567.741	4.29
568.082	4.19
568.423	4.28
568.764	4.26
569.105	4.39
569.447	4.3
569.788	4.42
570.129	4.33
570.47	4.38
570.811	4.38
571.151	4.33
571.492	4.33
571.833	4.32
572.174	4.39
572.514	4.4
572.855	4.47
573.195	4.34
573.536	4.55
573.876	4.22
574.217	4.35
574.557	4.33
574.898	4.37
575.238	4.44
575.578	4.55
575.918	4.56
576.258	4.67
576.598	4.38
576.938	4.38
577.278	4.49
577.618	4.4
577.958	4.56
578.298	4.53
578.638	4.46
578.977	4.41
579.317	4.46
579.657	4.28
579.996	4.62
580.336	4.58
580.675	4.49
581.014	4.51
581.354	4.43
581.693	4.46
582.032	4.62
582.372	4.7
582.711	4.48
583.05	4.44
583.389	4.59
583.728	4.74
584.067	4.34
584.406	4.61
584.745	4.37
585.083	4.54
585.422	4.77
585.761	4.54
586.1	4.73
586.438	4.52
586.777	4.55
587.115	4.66
587.454	4.46
587.792	4.63
588.13	4.7
588.469	4.53
588.807	4.91
589.145	4.91
589.483	4.25
589.821	4.73
590.159	4.89
590.497	4.85
590.835	4.8
591.173	4.86
591.511	4.9
591.849	4.6
592.187	4.45
592.524	4.78
592.862	4.54
593.2	4.65
593.537	4.72
593.875	4.64
594.212	4.88
594.55	4.71
594.887	4.87
595.224	4.87
595.561	4.5
595.899	4.87
596.236	4.84
596.573	4.57
596.91	4.72
597.247	4.87
597.584	4.67
597.921	4.85
598.258	4.9
598.594	4.76
598.931	4.47
599.268	4.46
599.604	4.89
599.941	4.99
600.277	4.79
600.614	4.83
600.95	4.79
601.287	4.62
601.623	4.44
601.959	4.99
602.296	5.03
602.632	4.66
602.968	4.99
603.304	4.72
603.64	4.76
603.976	4.55
604.312	4.97
604.648	4.71
604.984	4.96
605.319	4.81
605.655	4.61
605.991	4.64
606.326	4.79
606.662	4.7
606.998	4.81
607.333	5.01
607.668	4.85
608.004	4.76
608.339	5.09
608.674	4.88
609.01	5.33
609.345	4.94
609.68	4.95
610.015	5.08
610.35	4.84
610.685	4.46
611.02	4.96
611.355	4.71
611.689	4.89
612.024	4.98
612.359	4.95
612.694	5.07
613.028	4.87
613.363	4.96
613.697	4.97
614.032	4.92
614.366	4.8
614.7	5.15
615.035	5.11
615.369	5.01
615.703	4.95
616.037	5.34
616.371	4.77
616.705	5.01
617.039	5.05
617.373	5.21
617.707	5.18
618.041	4.76
618.375	4.35
618.709	5.46
619.042	5.34
619.376	4.87
619.71	4.83
620.043	5.07
620.377	5.05
620.71	5.2
621.043	5.24
621.377	5.23
621.71	5.44
622.043	5
622.376	5.16
622.709	5.31
623.043	5.03
623.376	5.08
623.709	5.12
624.041	5.31
624.374	5.02
624.707	4.95
625.04	5.23
625.373	5.36
625.705	5.58
626.038	5.45
626.37	5.09
626.703	5.34
627.035	5.06
627.368	5.18
627.7	5.45
628.032	5.22
628.365	5.39
628.697	5.36
629.029	5.21
629.361	5.53
629.693	5.36
630.025	5.46
630.357	5.48
630.689	5.17
631.021	5.49
631.353	5.59
631.684	5.08
632.016	4.9
632.348	5.07
632.679	5.45
633.011	5.53
633.342	5.29
633.674	4.86
634.005	5.46
634.336	5.66
634.668	5.34
634.999	5.28
635.33	5.37
635.661	5.64
635.992	5.37
636.323	5.56
636.654	5.53
636.985	5.12
637.316	4.94
637.647	5.56
637.977	4.99
638.308	5.71
638.639	5.38
638.969	5.21
639.3	5.04
639.63	5.52
639.961	5.37
640.291	5.09
640.622	5.1
640.952	5.68
641.282	5.22
641.612	5.1
641.943	4.92
642.273	5.3
642.603	5.77
642.933	5.95
643.263	5.62
643.592	5.89
643.922	5.76
644.252	5.3
644.582	5.59
644.911	5.4
645.241	5.43
645.571	5.6
645.9	5.84
646.23	6.06
646.559	5.15
646.888	5.95
647.218	5.92
647.547	5.7
647.876	5.61
648.205	5.13
648.534	5.14
648.863	5.45
649.192	5.89
649.521	5.52
649.85	6
650.179	5.57
650.508	5.4
650.837	5.77
651.165	6.07
651.494	5.56
651.822	6
652.151	5.46
652.479	5.64
652.808	5.76
653.136	5.32
653.465	5.53
653.793	5.69
654.121	5.62
654.449	5.39
654.777	5.42
655.105	5.39
655.433	5.52
655.761	5.83
656.089	5.91
656.417	6.18
656.745	5.85
657.073	5.34
657.4	5.73
657.728	5.26
658.056	5.72
658.383	5.86
658.711	5.85
659.038	6.15
659.365	5.95
659.693	5.9
660.02	5.6
660.347	5.58
660.674	5.79
661.001	5.87
661.329	5.74
661.656	5.3
661.982	5.74
662.309	5.94
662.636	5.79
662.963	5.73
663.29	5.87
663.616	5.56
663.943	5.65
664.27	5.6
664.596	5.89
664.923	5.91
665.249	6.3
665.576	5.58
665.902	5.73
666.228	6.22
666.554	6.07
666.881	5.89
667.207	5.94
667.533	6.32
667.859	5.71
668.185	6.58
668.511	6.32
668.837	6.23
669.162	5.9
669.488	5.17
669.814	5.77
670.139	5.45
670.465	6.11
670.791	5.66
671.116	5.8
671.442	5.56
671.767	6.39
672.092	6.16
672.418	5.91
672.743	5.91
673.068	5.57
673.393	6.04
673.718	5.75
674.043	5.91
674.368	5.46
674.693	6.02
675.018	6.33
675.343	6.25
675.667	6.08
675.992	6.08
676.317	5.6
676.641	6.2
676.966	5.66
677.29	5.51
677.615	5.69
677.939	6.82
678.264	6.01
678.588	6.54
678.912	5.81
679.236	5.81
679.56	6.06
679.885	6.12
680.209	6.26
680.532	6.33
680.856	6.91
681.18	6.71
681.504	5.65
681.828	5.76
682.152	6.07
682.475	6.24
682.799	5.76
683.122	6.48
683.446	5.68
683.769	6.39
684.093	6.36
684.416	5.88
684.739	5.81
685.062	6.63
685.386	6.26
685.709	6.08
686.032	6.78
686.355	6.52
686.678	7.5
687.001	6.86
687.324	6.71
687.646	6.48
687.969	6.03
688.292	6.2
688.614	6.93
688.937	6.65
689.26	6.53
689.582	6.39
689.904	6.67
690.227	6.65
690.549	6.71
690.871	6.57
691.194	5.99
691.516	6.87
691.838	6.23
692.16	6.09
