Data from 0010_forehead_Reflection__4__331.txt Node

Date: Thu Dec 15 19:13:14 CST 2022
User: ToomeyLab
Spectrometer: FLMS14357
Trigger mode: 0
Integration Time (sec): 1.000000E-2
Scans to average: 100
Electric dark correction enabled: true
Nonlinearity correction enabled: false
Boxcar width: 0
XAxis mode: Wavelengths
Number of Pixels in Spectrum: 2048
>>>>>Begin Spectral Data<<<<<
189.047	77.03
189.435	77.03
189.823	77.03
190.211	-15.83
190.599	12.47
190.987	139.9
191.375	-285.37
191.763	274.82
192.151	51.6
192.538	82.65
192.926	216.06
193.314	311.96
193.702	86.11
194.089	15.81
194.477	5.59
194.864	86.01
195.252	80.03
195.639	91.26
196.027	-87.16
196.414	58.64
196.801	-81.54
197.189	353.03
197.576	1895
197.963	468.47
198.351	-21.08
198.738	-70.55
199.125	-132.77
199.512	-0.79
199.899	-31.66
200.286	-54.78
200.673	39.41
201.06	-51.41
201.447	-36.17
201.833	-36.37
202.22	13.77
202.607	-15.23
202.994	-14.88
203.38	-8.8
203.767	-63.87
204.154	59.49
204.54	10.33
204.927	-4.27
205.313	35.39
205.699	9.07
206.086	26.74
206.472	11.26
206.858	-39.85
207.245	6.39
207.631	-0.19
208.017	98.96
208.403	-68.48
208.789	-4.35
209.175	9.72
209.561	-58.04
209.947	-30
210.333	-50.09
210.719	9.56
211.105	25.35
211.491	57.55
211.876	-52.05
212.262	19.73
212.648	11.26
213.034	-17.24
213.419	-33.22
213.805	-10.22
214.19	-48.42
214.576	-53.85
214.961	0.74
215.346	-17.34
215.732	-12.12
216.117	-5.82
216.502	8.17
216.888	6.91
217.273	7.91
217.658	43.05
218.043	-53.76
218.428	-39.1
218.813	-7.57
219.198	-56.4
219.583	-9.92
219.968	3.42
220.353	-34.01
220.738	-9.66
221.122	-7.51
221.507	-22.76
221.892	-26.6
222.276	-46.92
222.661	-34.86
223.046	-9.37
223.43	9.87
223.815	-6.64
224.199	-11.29
224.583	-10.04
224.968	-4.62
225.352	-6.5
225.736	11.2
226.121	-5.61
226.505	-0.02
226.889	-9.72
227.273	-0.53
227.657	2.37
228.041	-1.45
228.425	-2.77
228.809	-0.09
229.193	0.57
229.577	0.54
229.961	1.64
230.344	2.12
230.728	3.16
231.112	3.57
231.495	0.23
231.879	1.99
232.263	2.19
232.646	0.47
233.03	3.12
233.413	0.43
233.797	0.49
234.18	2.32
234.563	3.71
234.946	2.76
235.33	0.79
235.713	2.63
236.096	2.59
236.479	1.72
236.862	1.15
237.245	-0.32
237.628	0.3
238.011	2.29
238.394	1.28
238.777	1.09
239.16	2.9
239.543	2.75
239.925	-0.22
240.308	-0.21
240.691	1.62
241.073	1.59
241.456	2.21
241.838	1.82
242.221	1.66
242.603	2.26
242.986	2.45
243.368	1.83
243.75	2.16
244.133	2.37
244.515	2.27
244.897	1.48
245.279	1.91
245.661	1.8
246.043	2.03
246.425	3.45
246.807	2.41
247.189	2.51
247.571	2.13
247.953	1.99
248.335	2.47
248.717	2.57
249.098	2.39
249.48	2.21
249.862	2.42
250.243	2.46
250.625	2.33
251.006	2.77
251.388	2.92
251.769	1.33
252.151	2.37
252.532	1.85
252.913	1.73
253.295	2.59
253.676	2.25
254.057	2.37
254.438	2.09
254.819	2.37
255.2	2.57
255.581	2.28
255.962	3.09
256.343	2.73
256.724	1.62
257.105	2.02
257.486	1.02
257.867	1.57
258.247	3.34
258.628	2.76
259.009	2.06
259.389	2.1
259.77	1.69
260.15	3.32
260.531	2.35
260.911	2.27
261.292	2.44
261.672	2.21
262.052	2.29
262.432	2.25
262.813	2.16
263.193	2.3
263.573	2.54
263.953	1.52
264.333	2.12
264.713	2.37
265.093	1.93
265.473	1.52
265.853	2.08
266.233	2.49
266.612	1.68
266.992	1.23
267.372	2.45
267.752	2.85
268.131	1.84
268.511	1.86
268.89	2.56
269.27	1.64
269.649	1.68
270.029	1.7
270.408	1.6
270.787	2.26
271.167	2.14
271.546	2.26
271.925	2.36
272.304	1.83
272.683	1.64
273.062	2.02
273.441	1.88
273.82	2.41
274.199	1.79
274.578	2.44
274.957	1.85
275.336	2.39
275.715	2.74
276.093	1.21
276.472	1.23
276.851	2.28
277.229	2.13
277.608	1.86
277.986	2.12
278.365	2.26
278.743	2.29
279.122	2.06
279.5	2.4
279.878	1.42
280.257	1.39
280.635	1.84
281.013	1.79
281.391	1.89
281.769	2.81
282.147	2.64
282.525	1.73
282.903	2.16
283.281	2.81
283.659	2.08
284.037	1.71
284.415	1.62
284.792	2.31
285.17	2.26
285.548	2.11
285.925	1.96
286.303	2.3
286.68	2.32
287.058	2.46
287.435	1.96
287.813	2.27
288.19	1.93
288.567	2.03
288.945	1.91
289.322	2.52
289.699	2.27
290.076	2.21
290.453	1.56
290.83	2.48
291.207	2.14
291.584	2.4
291.961	2.93
292.338	1.92
292.715	2.04
293.092	2.77
293.469	1.89
293.845	2.45
294.222	3
294.599	2
294.975	1.68
295.352	2.58
295.728	2.59
296.105	2.8
296.481	2.48
296.858	2.48
297.234	2.4
297.61	2.49
297.986	3.02
298.363	2.92
298.739	2.96
299.115	2.65
299.491	3.09
299.867	2.45
300.243	2.72
300.619	2.52
300.995	3.17
301.371	2.67
301.746	3.31
302.122	2.48
302.498	2.85
302.874	3.02
303.249	3.23
303.625	3.22
304	3.03
304.376	3.11
304.751	3.24
305.127	2.54
305.502	2.89
305.878	3.21
306.253	2.62
306.628	2.99
307.003	2.79
307.378	3.21
307.754	3.73
308.129	2.97
308.504	3.14
308.879	3.42
309.254	3.89
309.629	3.57
310.003	3.55
310.378	3.96
310.753	3.77
311.128	3.54
311.502	3.51
311.877	3.45
312.252	3.84
312.626	3.72
313.001	4.01
313.375	3.73
313.75	3.84
314.124	4.52
314.498	3.71
314.873	3.53
315.247	4.09
315.621	3.7
315.995	4.08
316.369	3.8
316.743	3.76
317.117	3.96
317.491	4.24
317.865	3.78
318.239	4.74
318.613	3.89
318.987	3.95
319.361	4.31
319.734	4.43
320.108	4.27
320.482	4.62
320.855	4.07
321.229	4.54
321.602	4.81
321.976	3.79
322.349	5.14
322.723	4.22
323.096	4.63
323.469	4.8
323.843	4.36
324.216	4.63
324.589	4.74
324.962	4.3
325.335	4.95
325.708	4.89
326.081	5.01
326.454	5.08
326.827	4.65
327.2	4.35
327.573	5.47
327.945	5.09
328.318	4.86
328.691	5.38
329.063	5.01
329.436	5.22
329.809	5.34
330.181	5.83
330.553	5.79
330.926	5.84
331.298	5.5
331.671	5.37
332.043	5.47
332.415	5.89
332.787	5.8
333.159	5.35
333.532	5.1
333.904	5.4
334.276	5.63
334.648	5.75
335.02	5.59
335.391	5.29
335.763	5.46
336.135	5.69
336.507	5.82
336.879	5.71
337.25	5.97
337.622	6
337.993	5.78
338.365	6.01
338.736	5.7
339.108	6.2
339.479	5.9
339.851	6.26
340.222	6.53
340.593	6.15
340.964	6.21
341.336	6.01
341.707	6.16
342.078	6.13
342.449	6.42
342.82	6.54
343.191	6.51
343.562	6.29
343.933	6.4
344.303	6.36
344.674	6.29
345.045	6.29
345.416	6.83
345.786	6.65
346.157	6.35
346.527	6.41
346.898	6.5
347.268	6.73
347.639	6.77
348.009	6.75
348.38	6.39
348.75	6.97
349.12	6.79
349.49	7.14
349.861	6.84
350.231	6.74
350.601	6.9
350.971	6.94
351.341	7.14
351.711	6.97
352.081	6.66
352.45	6.84
352.82	6.72
353.19	7.02
353.56	6.96
353.929	7.13
354.299	7.49
354.669	7.32
355.038	7.54
355.408	7.58
355.777	7.61
356.147	7.28
356.516	7.16
356.885	7.51
357.254	7.48
357.624	6.84
357.993	7.34
358.362	7.94
358.731	7.97
359.1	7.7
359.469	8.1
359.838	7.77
360.207	7.72
360.576	7.95
360.945	8.02
361.314	7.87
361.682	7.83
362.051	7.79
362.42	8.03
362.788	7.89
363.157	7.63
363.525	8.03
363.894	7.66
364.262	8.17
364.631	8.35
364.999	8.08
365.367	8.16
365.735	7.96
366.104	8.14
366.472	8.39
366.84	8.4
367.208	8.57
367.576	8.41
367.944	8.23
368.312	8.31
368.68	8.51
369.048	8.58
369.416	8.34
369.783	8.58
370.151	8.81
370.519	9.13
370.886	8.67
371.254	9.11
371.621	8.92
371.989	8.57
372.356	8.57
372.724	8.78
373.091	8.6
373.458	8.67
373.826	9.25
374.193	8.77
374.56	8.96
374.927	9.01
375.294	9.48
375.661	9.37
376.028	9.18
376.395	9.56
376.762	9.28
377.129	9.14
377.496	9.4
377.863	9.64
378.229	9.72
378.596	9.68
378.963	9.6
379.329	9.51
379.696	9.38
380.062	9.36
380.429	9.56
380.795	9.6
381.161	9.32
381.528	9.43
381.894	9.67
382.26	9.72
382.626	9.86
382.993	10.15
383.359	9.98
383.725	9.61
384.091	9.83
384.457	9.94
384.823	9.64
385.188	10.24
385.554	10.35
385.92	9.99
386.286	10.25
386.651	10.2
387.017	10.11
387.383	10.19
387.748	10.68
388.114	10.53
388.479	10.34
388.845	10.33
389.21	10.53
389.575	10.63
389.94	10.59
390.306	10.45
390.671	10.66
391.036	10.29
391.401	10.73
391.766	10.79
392.131	10.58
392.496	10.71
392.861	10.64
393.226	10.73
393.591	11.09
393.956	10.72
394.32	10.9
394.685	11.05
395.05	10.98
395.414	10.99
395.779	11.45
396.143	10.95
396.508	11.06
396.872	11.18
397.236	11.61
397.601	11.22
397.965	11.17
398.329	11.33
398.694	11.22
399.058	11.22
399.422	11.41
399.786	11.58
400.15	11.64
400.514	11.65
400.878	11.52
401.242	11.62
401.605	11.8
401.969	11.37
402.333	11.6
402.697	11.74
403.06	11.65
403.424	12.3
403.787	11.72
404.151	11.91
404.514	12.02
404.878	11.96
405.241	11.85
405.604	11.9
405.968	12.04
406.331	12.28
406.694	12.19
407.057	11.97
407.42	12.02
407.783	12.32
408.146	12.04
408.509	12.39
408.872	12.31
409.235	12.58
409.598	12.69
409.961	12.61
410.323	12.2
410.686	12.55
411.049	12.68
411.411	12.73
411.774	12.45
412.136	12.51
412.499	12.83
412.861	12.54
413.223	12.55
413.586	12.81
413.948	12.82
414.31	12.92
414.672	12.92
415.035	12.84
415.397	12.72
415.759	12.84
416.121	12.93
416.483	12.93
416.845	13.19
417.206	13.12
417.568	12.78
417.93	13.17
418.292	13.01
418.653	12.83
419.015	12.87
419.377	13.01
419.738	13.12
420.1	13.16
420.461	13.08
420.822	13.17
421.184	13.27
421.545	13.28
421.906	13.2
422.267	13.18
422.629	13.1
422.99	13.18
423.351	13.25
423.712	13.28
424.073	13.49
424.434	13.54
424.795	13.24
425.155	13.35
425.516	13.3
425.877	13.49
426.238	13.55
426.598	13.56
426.959	13.65
427.32	13.68
427.68	13.78
428.041	13.94
428.401	13.74
428.761	14.01
429.122	13.95
429.482	13.96
429.842	14.17
430.202	14.24
430.563	14.09
430.923	14.08
431.283	14.27
431.643	14.45
432.003	14.33
432.363	14.2
432.722	14.39
433.082	14.38
433.442	14.33
433.802	14.33
434.161	14.41
434.521	14.37
434.881	14.48
435.24	14.44
435.6	14.42
435.959	14.61
436.319	14.48
436.678	14.81
437.037	14.46
437.396	14.79
437.756	14.54
438.115	14.68
438.474	14.88
438.833	14.69
439.192	14.91
439.551	14.65
439.91	14.97
440.269	14.81
440.628	14.93
440.987	14.88
441.345	15.08
441.704	14.86
442.063	14.91
442.421	14.99
442.78	15.07
443.138	15.13
443.497	15.18
443.855	15.3
444.214	15.06
444.572	15.44
444.93	15.27
445.288	15.4
445.647	15.35
446.005	15.46
446.363	15.47
446.721	15.45
447.079	15.34
447.437	15.41
447.795	15.41
448.153	15.35
448.51	15.43
448.868	15.41
449.226	15.63
449.584	15.6
449.941	15.65
450.299	15.77
450.656	15.92
451.014	15.9
451.371	15.92
451.729	16.16
452.086	16.02
452.443	16.09
452.801	16
453.158	16.23
453.515	16.15
453.872	16.14
454.229	16.09
454.586	16.13
454.943	16.16
455.3	16.43
455.657	16.37
456.014	16.46
456.371	16.59
456.727	16.62
457.084	16.59
457.441	16.5
457.797	16.62
458.154	16.69
458.51	16.71
458.867	16.75
459.223	16.6
459.58	16.7
459.936	16.75
460.292	16.71
460.648	16.61
461.005	16.64
461.361	16.55
461.717	16.55
462.073	16.68
462.429	16.88
462.785	16.94
463.141	17.03
463.496	17.17
463.852	17.27
464.208	17.27
464.564	17.41
464.919	17.27
465.275	17.33
465.631	17.44
465.986	17.4
466.342	17.34
466.697	17.42
467.052	17.69
467.408	17.53
467.763	17.67
468.118	17.29
468.473	17.58
468.829	17.62
469.184	17.65
469.539	17.67
469.894	17.78
470.249	17.78
470.603	17.96
470.958	17.98
471.313	17.98
471.668	17.96
472.023	17.81
472.377	17.88
472.732	18.22
473.086	18.13
473.441	18.09
473.795	18.37
474.15	18.06
474.504	18.39
474.859	18.07
475.213	18.35
475.567	18.21
475.921	18.37
476.275	18.63
476.63	18.59
476.984	18.41
477.338	18.57
477.692	18.4
478.045	18.52
478.399	18.53
478.753	18.53
479.107	18.58
479.461	18.55
479.814	18.64
480.168	18.67
480.521	18.75
480.875	18.69
481.228	18.89
481.582	18.89
481.935	19.01
482.289	18.88
482.642	18.92
482.995	18.86
483.348	18.85
483.701	18.79
484.055	18.68
484.408	18.59
484.761	18.33
485.114	18.13
485.466	18.08
485.819	18.22
486.172	18.26
486.525	18.43
486.878	18.62
487.23	18.75
487.583	18.86
487.936	18.75
488.288	18.77
488.641	18.77
488.993	18.61
489.345	18.61
489.698	18.69
490.05	18.83
490.402	18.99
490.754	19.1
491.107	19.31
491.459	19.35
491.811	19.45
492.163	19.42
492.515	19.33
492.866	19.05
493.218	19.08
493.57	19.29
493.922	19.33
494.274	19.52
494.625	19.7
494.977	19.81
495.328	20.01
495.68	20.04
496.031	20.15
496.383	20.25
496.734	20.34
497.086	20.36
497.437	20.58
497.788	20.34
498.139	20.26
498.49	20.3
498.842	20.34
499.193	20.32
499.544	20.42
499.894	20.47
500.245	20.68
500.596	20.6
500.947	20.63
501.298	20.64
501.648	20.8
501.999	21.02
502.35	20.74
502.7	21.02
503.051	20.84
503.401	21.24
503.752	21.11
504.102	20.99
504.452	20.95
504.803	21.23
505.153	21.27
505.503	21.12
505.853	21.19
506.203	21.16
506.553	21.33
506.903	21.48
507.253	21.33
507.603	21.34
507.953	21.41
508.303	21.46
508.652	21.49
509.002	21.53
509.352	21.49
509.701	21.45
510.051	21.63
510.4	21.48
510.75	21.6
511.099	21.47
511.449	21.77
511.798	21.67
512.147	21.85
512.496	21.88
512.846	21.84
513.195	21.99
513.544	21.85
513.893	21.82
514.242	21.88
514.591	21.87
514.939	22.11
515.288	22.17
515.637	22.15
515.986	22.17
516.334	22.2
516.683	22.33
517.032	22.43
517.38	22.48
517.729	22.46
518.077	22.48
518.426	22.46
518.774	22.4
519.122	22.49
519.47	22.26
519.819	22.21
520.167	22.26
520.515	22.38
520.863	22.31
521.211	22.38
521.559	22.48
521.907	22.69
522.255	22.76
522.602	22.93
522.95	22.98
523.298	22.94
523.645	22.95
523.993	22.96
524.341	23.02
524.688	23.05
525.036	23.17
525.383	23.08
525.73	23.25
526.078	23.19
526.425	23.12
526.772	23.01
527.119	22.97
527.466	22.92
527.814	22.95
528.161	23
528.508	23.15
528.854	22.99
529.201	22.9
529.548	22.72
529.895	22.56
530.242	22.64
530.588	22.73
530.935	22.87
531.282	22.86
531.628	22.99
531.975	23
532.321	23.3
532.667	23.37
533.014	23.63
533.36	23.56
533.706	23.67
534.052	23.65
534.399	23.58
534.745	23.21
535.091	23.32
535.437	23.44
535.783	23.72
536.129	23.88
536.474	23.89
536.82	24.12
537.166	23.94
537.512	24.11
537.857	24.07
538.203	24.08
538.549	23.95
538.894	24.13
539.239	24.24
539.585	24.3
539.93	24.49
540.276	24.7
540.621	24.71
540.966	24.77
541.311	24.78
541.656	24.61
542.001	24.63
542.346	24.32
542.691	24.05
543.036	23.99
543.381	24.11
543.726	24.23
544.071	24.45
544.415	24.55
544.76	24.59
545.105	24.75
545.449	24.76
545.794	25.03
546.138	25.05
546.483	25.21
546.827	25.19
547.171	25.44
547.516	25.32
547.86	25.38
548.204	25.31
548.548	25.23
548.892	25.28
549.236	25.31
549.58	25.6
549.924	25.84
550.268	25.81
550.612	25.81
550.956	25.92
551.3	25.98
551.643	25.99
551.987	26.26
552.33	26.41
552.674	26.02
553.017	26.14
553.361	26.28
553.704	26.35
554.048	26.26
554.391	26.34
554.734	26.31
555.077	26.48
555.42	26.21
555.764	26.35
556.107	26.56
556.45	26.65
556.793	26.68
557.135	26.69
557.478	26.83
557.821	26.71
558.164	26.9
558.507	26.76
558.849	27.12
559.192	26.88
559.534	27
559.877	26.95
560.219	26.88
560.562	27.07
560.904	27.29
561.246	27.01
561.589	27.26
561.931	27.13
562.273	26.99
562.615	27.26
562.957	27.17
563.299	27.37
563.641	27.23
563.983	27.13
564.325	27.37
564.667	27.54
565.008	27.61
565.35	27.34
565.692	27.74
566.033	27.54
566.375	27.67
566.716	27.58
567.058	27.54
567.399	27.6
567.741	27.7
568.082	27.49
568.423	27.78
568.764	27.67
569.105	27.88
569.447	27.77
569.788	27.79
570.129	28
570.47	27.93
570.811	27.95
571.151	28.12
571.492	28.08
571.833	28.18
572.174	28.31
572.514	28.29
572.855	28.16
573.195	27.93
573.536	28.15
573.876	27.85
574.217	28.14
574.557	28.16
574.898	28.21
575.238	28.52
575.578	28.44
575.918	28.53
576.258	28.46
576.598	28.5
576.938	28.42
577.278	28.45
577.618	28.75
577.958	28.82
578.298	28.67
578.638	28.65
578.977	28.84
579.317	28.86
579.657	28.91
579.996	29.2
580.336	29.27
580.675	29.11
581.014	29.14
581.354	28.91
581.693	29.4
582.032	29.43
582.372	29.48
582.711	29.43
583.05	29.51
583.389	29.51
583.728	29.5
584.067	29.27
584.406	29.3
584.745	29.42
585.083	29.54
585.422	29.65
585.761	29.72
586.1	29.9
586.438	29.68
586.777	29.72
587.115	29.84
587.454	29.82
587.792	29.72
588.13	29.87
588.469	29.77
588.807	29.96
589.145	30.19
589.483	29.69
589.821	29.86
590.159	30.11
590.497	30.11
590.835	30.28
591.173	30.13
591.511	30.22
591.849	29.99
592.187	29.82
592.524	30.14
592.862	30.02
593.2	30.3
593.537	30.3
593.875	30.33
594.212	30.41
594.55	30.4
594.887	30.7
595.224	30.46
595.561	30.54
595.899	30.36
596.236	30.88
596.573	30.44
596.91	30.5
597.247	30.56
597.584	30.65
597.921	30.68
598.258	30.83
598.594	30.6
598.931	30.38
599.268	30.63
599.604	30.75
599.941	30.81
600.277	30.76
600.614	30.91
600.95	30.89
601.287	30.93
601.623	30.76
601.959	31.23
602.296	31.15
602.632	30.84
602.968	31.32
603.304	31.19
603.64	31.16
603.976	31.15
604.312	31.3
604.648	31.54
604.984	31.18
605.319	31.26
605.655	31.51
605.991	31.28
606.326	31.25
606.662	31.15
606.998	31.38
607.333	31.61
607.668	31.58
608.004	31.76
608.339	31.71
608.674	31.78
609.01	32.07
609.345	31.52
609.68	31.66
610.015	31.97
610.35	31.75
610.685	31.67
611.02	31.58
611.355	31.72
611.689	31.71
612.024	32
612.359	32.21
612.694	32.12
613.028	31.94
613.363	31.83
613.697	32.28
614.032	32.22
614.366	32.1
614.7	32.4
615.035	32.4
615.369	32.58
615.703	32.51
616.037	32.5
616.371	32.09
616.705	32.82
617.039	32.77
617.373	32.5
617.707	32.85
618.041	32.48
618.375	32.32
618.709	32.68
619.042	32.87
619.376	32.72
619.71	32.8
620.043	33
620.377	33.11
620.71	32.8
621.043	32.66
621.377	33.04
621.71	32.82
622.043	32.98
622.376	32.83
622.709	33.22
623.043	33.32
623.376	32.97
623.709	33.19
624.041	32.96
624.374	33.44
624.707	33.67
625.04	33.27
625.373	33.26
625.705	33.25
626.038	33.11
626.37	33.03
626.703	33.31
627.035	33.53
627.368	33.85
627.7	33.28
628.032	33
628.365	33.44
628.697	33.85
629.029	33.49
629.361	33.57
629.693	33.51
630.025	33.81
630.357	33.61
630.689	33.31
631.021	33.98
631.353	34.04
631.684	33.93
632.016	33.83
632.348	33.9
632.679	34
633.011	33.97
633.342	34.14
633.674	33.84
634.005	34.41
634.336	34.13
634.668	34.1
634.999	34.19
635.33	34.24
635.661	34.09
635.992	34.04
636.323	33.82
636.654	34.17
636.985	34.34
637.316	34.25
637.647	34.48
637.977	34.6
638.308	34.81
638.639	34.58
638.969	34.17
639.3	34.38
639.63	34.36
639.961	34.54
640.291	34.33
640.622	34.72
640.952	34.91
641.282	34.55
641.612	34.52
641.943	34.53
642.273	35.09
642.603	34.88
642.933	35.21
643.263	34.69
643.592	35.13
643.922	35.2
644.252	34.74
644.582	35.72
644.911	35.29
645.241	35.26
645.571	34.98
645.9	35.31
646.23	35.39
646.559	34.76
646.888	35.55
647.218	35.22
647.547	35.63
647.876	35.67
648.205	34.86
648.534	34.89
648.863	35.01
649.192	35.43
649.521	35.49
649.85	35.69
650.179	35.52
650.508	35.52
650.837	35.62
651.165	35.67
651.494	35.63
651.822	35.78
652.151	35.01
652.479	35.16
652.808	35.54
653.136	35.73
653.465	35.6
653.793	35.61
654.121	35.77
654.449	36
654.777	35.48
655.105	35.51
655.433	35.76
655.761	35.5
656.089	36.43
656.417	36.03
656.745	35.83
657.073	35.99
657.4	36.19
657.728	35.89
658.056	35.85
658.383	36.43
658.711	36.07
659.038	36.11
659.365	36.23
659.693	36.6
660.02	36.26
660.347	36.14
660.674	35.94
661.001	36.38
661.329	35.89
661.656	35.86
661.982	35.74
662.309	36.89
662.636	36.27
662.963	36.24
663.29	36.35
663.616	36.07
663.943	36.45
664.27	36.57
664.596	36.5
664.923	36.89
665.249	36.37
665.576	36.36
665.902	36.28
666.228	36.77
666.554	37.14
666.881	36.36
667.207	36.88
667.533	36.79
667.859	37.08
668.185	36.91
668.511	37.17
668.837	37.27
669.162	36.56
669.488	36.85
669.814	37.28
670.139	37.2
670.465	37.42
670.791	36.48
671.116	36.87
671.442	36.41
671.767	37.5
672.092	37.22
672.418	37.36
