Data from 0010_forehead_Reflection__0__327.txt Node

Date: Thu Dec 15 19:12:22 CST 2022
User: ToomeyLab
Spectrometer: FLMS14357
Trigger mode: 0
Integration Time (sec): 1.000000E-2
Scans to average: 100
Electric dark correction enabled: true
Nonlinearity correction enabled: false
Boxcar width: 0
XAxis mode: Wavelengths
Number of Pixels in Spectrum: 2048
>>>>>Begin Spectral Data<<<<<
189.047	29.75
189.435	29.75
189.823	29.75
190.211	17.86
190.599	115.63
190.987	28.8
191.375	186.15
191.763	267.38
192.151	49.47
192.538	88.68
192.926	257.62
193.314	103.15
193.702	110.23
194.089	127.93
194.477	-27.75
194.864	109.57
195.252	179.19
195.639	121.15
196.027	-6.38
196.414	-41.23
196.801	-10.59
197.189	102.19
197.576	1565.91
197.963	154.9
198.351	37.43
198.738	-20.03
199.125	-72.1
199.512	55.51
199.899	-51.86
200.286	-24.57
200.673	12.37
201.06	20.7
201.447	7.74
201.833	33.6
202.22	-17.52
202.607	-21.67
202.994	15.91
203.38	12.79
203.767	15.55
204.154	10.65
204.54	32.75
204.927	23.97
205.313	51.07
205.699	35.18
206.086	18.56
206.472	2.33
206.858	-2.54
207.245	5.75
207.631	-15.12
208.017	29.3
208.403	-35.93
208.789	-4.56
209.175	19.07
209.561	-87.98
209.947	-52.08
210.333	19.48
210.719	15.36
211.105	29.84
211.491	27.73
211.876	-35.98
212.262	-10.3
212.648	-3.81
213.034	8.66
213.419	-20.94
213.805	-27.82
214.19	-1.09
214.576	-35.74
214.961	28.32
215.346	-35.84
215.732	8.89
216.117	-35.15
216.502	-0.52
216.888	27.23
217.273	-13.3
217.658	-10.76
218.043	-70.16
218.428	-16.78
218.813	2.63
219.198	-31.55
219.583	-8.25
219.968	3.44
220.353	-35.78
220.738	7.37
221.122	-6.23
221.507	-6.26
221.892	-8.78
222.276	-33.22
222.661	-30.3
223.046	-10.04
223.43	11.36
223.815	-2.52
224.199	-12.37
224.583	10.64
224.968	-10.36
225.352	-12.96
225.736	1.12
226.121	-4.58
226.505	-9.01
226.889	2.16
227.273	-5.09
227.657	2.99
228.041	4.89
228.425	-1.17
228.809	1.75
229.193	1.28
229.577	0.55
229.961	1.74
230.344	1.69
230.728	2.77
231.112	3.04
231.495	0.12
231.879	3.65
232.263	3.25
232.646	1.76
233.03	4.1
233.413	1.03
233.797	0.56
234.18	1.47
234.563	-0.05
234.946	-0.19
235.33	2.81
235.713	2.3
236.096	3.62
236.479	4.11
236.862	1.16
237.245	0.16
237.628	2.23
238.011	2.21
238.394	2.19
238.777	1.39
239.16	2.23
239.543	3.79
239.925	0.91
240.308	1.16
240.691	2.32
241.073	3.01
241.456	2.71
241.838	1.58
242.221	2.57
242.603	2.43
242.986	2.2
243.368	2.55
243.75	2.07
244.133	2.81
244.515	2.66
244.897	2.24
245.279	2.01
245.661	1.9
246.043	2.5
246.425	2.99
246.807	1.94
247.189	1.42
247.571	1.89
247.953	1.94
248.335	2.21
248.717	2.51
249.098	2.46
249.48	2.57
249.862	2.48
250.243	2.86
250.625	2.71
251.006	3.35
251.388	2.47
251.769	2.25
252.151	2.52
252.532	2.12
252.913	1.42
253.295	2.58
253.676	2.26
254.057	2.74
254.438	2.65
254.819	2.02
255.2	3.2
255.581	3.43
255.962	3.55
256.343	3.2
256.724	2.43
257.105	2.28
257.486	1.58
257.867	2.93
258.247	2.09
258.628	2.45
259.009	2.57
259.389	1.9
259.77	1.93
260.15	2.77
260.531	2.64
260.911	2.75
261.292	2.41
261.672	2.56
262.052	2.58
262.432	2.24
262.813	2.45
263.193	2.96
263.573	2.62
263.953	1.59
264.333	1.73
264.713	2.35
265.093	2.19
265.473	2.17
265.853	1.94
266.233	3.44
266.612	1.8
266.992	1.91
267.372	2.82
267.752	2.59
268.131	2.04
268.511	2.39
268.89	2.51
269.27	2.48
269.649	2.16
270.029	1.8
270.408	2.02
270.787	2.53
271.167	2.56
271.546	3.16
271.925	2.21
272.304	2.13
272.683	2.32
273.062	2.35
273.441	1.86
273.82	2.17
274.199	2.39
274.578	2.4
274.957	1.93
275.336	2.4
275.715	2.12
276.093	2.15
276.472	2.13
276.851	2.53
277.229	2.29
277.608	1.81
277.986	2.68
278.365	2.75
278.743	2.12
279.122	2.34
279.5	1.62
279.878	1.49
280.257	2.14
280.635	2.48
281.013	1.76
281.391	2.25
281.769	2.04
282.147	1.96
282.525	2.24
282.903	1.83
283.281	2.35
283.659	2.59
284.037	2.21
284.415	1.57
284.792	2.54
285.17	2.28
285.548	2.43
285.925	2.17
286.303	2.77
286.68	2.43
287.058	2.37
287.435	2.39
287.813	2.5
288.19	1.95
288.567	2.78
288.945	2.1
289.322	2.48
289.699	2.33
290.076	2.16
290.453	2.42
290.83	2.35
291.207	2.75
291.584	2.63
291.961	2.58
292.338	2.06
292.715	2.22
293.092	2.56
293.469	2.76
293.845	2.41
294.222	3.49
294.599	1.88
294.975	2.29
295.352	2.58
295.728	2.67
296.105	2.48
296.481	2.7
296.858	2.64
297.234	2.22
297.61	2.75
297.986	2.96
298.363	2.94
298.739	3.13
299.115	2.5
299.491	3.05
299.867	2.69
300.243	2.79
300.619	2.54
300.995	3.22
301.371	3.22
301.746	2.97
302.122	2.48
302.498	3.06
302.874	3
303.249	2.91
303.625	2.62
304	3.16
304.376	2.87
304.751	3.13
305.127	2.86
305.502	3.01
305.878	3.83
306.253	2.96
306.628	3.55
307.003	2.84
307.378	2.55
307.754	2.97
308.129	3.11
308.504	3.72
308.879	3.62
309.254	3.66
309.629	3.4
310.003	3.17
310.378	3.84
310.753	3.48
311.128	3.27
311.502	3.86
311.877	3.32
312.252	3.81
312.626	3.57
313.001	3.77
313.375	3.96
313.75	3.9
314.124	3.69
314.498	4.11
314.873	4.08
315.247	3.97
315.621	3.49
315.995	3.6
316.369	3.53
316.743	3.7
317.117	3.88
317.491	4.01
317.865	3.87
318.239	4.23
318.613	3.83
318.987	3.5
319.361	4.39
319.734	4
320.108	3.93
320.482	4.47
320.855	4.44
321.229	4.07
321.602	4.44
321.976	4.39
322.349	5.12
322.723	4.84
323.096	3.92
323.469	4.53
323.843	4.36
324.216	4.78
324.589	4.65
324.962	4.89
325.335	4.21
325.708	4.75
326.081	4.55
326.454	5.08
326.827	5.11
327.2	4
327.573	4.94
327.945	4.37
328.318	4.72
328.691	4.4
329.063	4.54
329.436	4.38
329.809	5.33
330.181	5.46
330.553	4.96
330.926	5.06
331.298	5.05
331.671	4.8
332.043	5.2
332.415	5.04
332.787	5.37
333.159	4.76
333.532	5.4
333.904	5.31
334.276	5.43
334.648	5.18
335.02	5.27
335.391	5.12
335.763	5.07
336.135	5.12
336.507	4.78
336.879	5.42
337.25	5.5
337.622	5.27
337.993	5.37
338.365	5.42
338.736	5.53
339.108	5.36
339.479	5.06
339.851	5.58
340.222	5.98
340.593	5.84
340.964	5.61
341.336	5.36
341.707	5.39
342.078	5.44
342.449	5.52
342.82	5.38
343.191	5.37
343.562	5.99
343.933	5.42
344.303	5.91
344.674	5.87
345.045	5.72
345.416	6.27
345.786	5.87
346.157	6.17
346.527	5.66
346.898	5.56
347.268	6.03
347.639	5.88
348.009	5.87
348.38	5.73
348.75	5.98
349.12	6.55
349.49	6.44
349.861	6.27
350.231	5.74
350.601	5.61
350.971	5.91
351.341	6.06
351.711	6.73
352.081	6.27
352.45	6.07
352.82	5.65
353.19	6.14
353.56	6.04
353.929	6.32
354.299	6.39
354.669	6.41
355.038	6.3
355.408	6.38
355.777	6.64
356.147	6.42
356.516	6.07
356.885	6.46
357.254	6.6
357.624	6.17
357.993	6.6
358.362	6.45
358.731	6.86
359.1	6.4
359.469	6.8
359.838	6.74
360.207	6.77
360.576	6.97
360.945	6.65
361.314	6.68
361.682	6.63
362.051	6.93
362.42	6.59
362.788	6.96
363.157	6.79
363.525	6.85
363.894	6.77
364.262	6.88
364.631	7.21
364.999	6.86
365.367	7.18
365.735	6.67
366.104	6.98
366.472	6.88
366.84	7.12
367.208	7.36
367.576	7.22
367.944	7.23
368.312	7.18
368.68	7.32
369.048	7.31
369.416	7.13
369.783	7.45
370.151	7.54
370.519	7.63
370.886	7.35
371.254	7.42
371.621	7.53
371.989	7.49
372.356	7.27
372.724	7.4
373.091	7.42
373.458	7.27
373.826	7.56
374.193	7.43
374.56	7.57
374.927	7.67
375.294	7.96
375.661	7.9
376.028	7.66
376.395	7.87
376.762	7.89
377.129	7.99
377.496	7.81
377.863	7.92
378.229	8.01
378.596	8.15
378.963	8.05
379.329	7.84
379.696	7.79
380.062	8.14
380.429	7.57
380.795	8.4
381.161	7.65
381.528	8.16
381.894	8.26
382.26	8.23
382.626	8.22
382.993	8.61
383.359	8.1
383.725	8.1
384.091	8.37
384.457	7.92
384.823	8.4
385.188	8.23
385.554	8.61
385.92	8.05
386.286	8.43
386.651	8.46
387.017	8.54
387.383	8.38
387.748	8.81
388.114	8.9
388.479	8.57
388.845	8.26
389.21	8.81
389.575	9.17
389.94	9.12
390.306	8.98
390.671	8.66
391.036	8.8
391.401	9.01
391.766	8.94
392.131	9.19
392.496	8.77
392.861	8.79
393.226	8.82
393.591	9.22
393.956	9.04
394.32	9.07
394.685	8.97
395.05	8.96
395.414	9.13
395.779	9.24
396.143	8.95
396.508	9.09
396.872	9.11
397.236	9.55
397.601	9.31
397.965	9.3
398.329	9.3
398.694	9.16
399.058	9.27
399.422	9.36
399.786	9.23
400.15	9.41
400.514	9.53
400.878	9.63
401.242	9.68
401.605	9.66
401.969	9.63
402.333	9.35
402.697	9.81
403.06	9.65
403.424	9.68
403.787	9.62
404.151	9.77
404.514	9.54
404.878	9.52
405.241	9.64
405.604	9.59
405.968	9.84
406.331	10.02
406.694	9.92
407.057	9.7
407.42	9.84
407.783	10.1
408.146	9.99
408.509	10.16
408.872	10.1
409.235	10.2
409.598	10.02
409.961	10.44
410.323	10.04
410.686	10.31
411.049	10.39
411.411	10.09
411.774	10.23
412.136	10.24
412.499	10.36
412.861	10.08
413.223	10.19
413.586	10.45
413.948	10.61
414.31	10.62
414.672	10.48
415.035	10.47
415.397	10.35
415.759	10.41
416.121	10.8
416.483	10.62
416.845	10.64
417.206	10.44
417.568	10.45
417.93	10.55
418.292	10.52
418.653	10.56
419.015	10.63
419.377	10.48
419.738	10.63
420.1	10.59
420.461	10.58
420.822	10.72
421.184	10.73
421.545	10.62
421.906	10.57
422.267	10.58
422.629	10.56
422.99	10.64
423.351	10.68
423.712	10.75
424.073	10.76
424.434	10.8
424.795	10.68
425.155	10.75
425.516	10.76
425.877	10.81
426.238	10.76
426.598	10.77
426.959	10.99
427.32	11.03
427.68	11.22
428.041	11.21
428.401	11.18
428.761	11.31
429.122	11.26
429.482	11.26
429.842	11.34
430.202	11.45
430.563	11.4
430.923	11.35
431.283	11.58
431.643	11.68
432.003	11.57
432.363	11.66
432.722	11.46
433.082	11.59
433.442	11.62
433.802	11.57
434.161	11.62
434.521	11.64
434.881	11.65
435.24	11.74
435.6	11.64
435.959	11.85
436.319	11.69
436.678	11.96
437.037	11.78
437.396	11.82
437.756	11.87
438.115	11.97
438.474	11.98
438.833	12.05
439.192	12.04
439.551	12.02
439.91	12
440.269	11.97
440.628	12
440.987	12.07
441.345	12.06
441.704	12.07
442.063	12.13
442.421	12.01
442.78	12.1
443.138	12.19
443.497	12.18
443.855	12.16
444.214	12.11
444.572	12.56
444.93	12.37
445.288	12.44
445.647	12.26
446.005	12.45
446.363	12.4
446.721	12.41
447.079	12.31
447.437	12.39
447.795	12.46
448.153	12.35
448.51	12.4
448.868	12.24
449.226	12.4
449.584	12.59
449.941	12.65
450.299	12.71
450.656	12.79
451.014	12.89
451.371	12.94
451.729	13.01
452.086	13.05
452.443	13.18
452.801	13
453.158	13.13
453.515	12.98
453.872	13.05
454.229	12.74
454.586	12.95
454.943	13.19
455.3	13.31
455.657	13.23
456.014	13.22
456.371	13.38
456.727	13.43
457.084	13.45
457.441	13.56
457.797	13.48
458.154	13.55
458.51	13.39
458.867	13.61
459.223	13.31
459.58	13.35
459.936	13.43
460.292	13.32
460.648	13.3
461.005	13.27
461.361	13.31
461.717	13.3
462.073	13.39
462.429	13.55
462.785	13.71
463.141	13.73
463.496	13.9
463.852	13.98
464.208	13.87
464.564	13.76
464.919	13.83
465.275	14.05
465.631	14.12
465.986	14.15
466.342	13.94
466.697	13.88
467.052	14.4
467.408	14.39
467.763	14.23
468.118	14.07
468.473	14.36
468.829	14.14
469.184	14.39
469.539	14.35
469.894	14.45
470.249	14.33
470.603	14.46
470.958	14.59
471.313	14.51
471.668	14.49
472.023	14.61
472.377	14.58
472.732	14.58
473.086	14.8
473.441	14.71
473.795	14.81
474.15	14.75
474.504	14.75
474.859	14.57
475.213	14.85
475.567	14.92
475.921	14.82
476.275	15.05
476.63	15.05
476.984	14.71
477.338	15.14
477.692	15.15
478.045	14.94
478.399	15.1
478.753	14.99
479.107	15.11
479.461	15.03
479.814	15.06
480.168	14.98
480.521	15.18
480.875	15.22
481.228	15.31
481.582	15.34
481.935	15.46
482.289	15.3
482.642	15.32
482.995	15.29
483.348	15.13
483.701	15.22
484.055	15.14
484.408	14.88
484.761	14.74
485.114	14.45
485.466	14.41
485.819	14.47
486.172	14.69
486.525	14.95
486.878	15.05
487.23	15.22
487.583	15.29
487.936	15.18
488.288	15.16
488.641	14.94
488.993	14.88
489.345	14.99
489.698	15.08
490.05	15.12
490.402	15.35
490.754	15.47
491.107	15.58
491.459	15.72
491.811	15.8
492.163	15.78
492.515	15.5
492.866	15.37
493.218	15.31
493.57	15.4
493.922	15.67
494.274	15.9
494.625	16.01
494.977	16.15
495.328	16.37
495.68	16.45
496.031	16.48
496.383	16.34
496.734	16.51
497.086	16.63
497.437	16.56
497.788	16.6
498.139	16.37
498.49	16.46
498.842	16.6
499.193	16.55
499.544	16.6
499.894	16.65
500.245	16.73
500.596	16.78
500.947	16.93
501.298	16.84
501.648	17.08
501.999	17.05
502.35	16.82
502.7	17.32
503.051	17.15
503.401	17.21
503.752	17.19
504.102	17.09
504.452	17.18
504.803	17.31
505.153	17.34
505.503	17.33
505.853	17.36
506.203	17.35
506.553	17.39
506.903	17.45
507.253	17.41
507.603	17.49
507.953	17.58
508.303	17.49
508.652	17.46
509.002	17.69
509.352	17.56
509.701	17.45
510.051	17.71
510.4	17.72
510.75	17.62
511.099	17.6
511.449	17.71
511.798	17.65
512.147	17.81
512.496	17.83
512.846	17.86
513.195	17.96
513.544	17.87
513.893	17.87
514.242	17.91
514.591	17.92
514.939	18.02
515.288	18.2
515.637	18.21
515.986	18.3
516.334	18.25
516.683	18.23
517.032	18.4
517.38	18.51
517.729	18.52
518.077	18.48
518.426	18.38
518.774	18.17
519.122	18.31
519.47	18.26
519.819	18.17
520.167	18.08
520.515	18.09
520.863	18.23
521.211	18.35
521.559	18.42
521.907	18.59
522.255	18.7
522.602	18.77
522.95	18.91
523.298	18.78
523.645	18.94
523.993	18.84
524.341	18.97
524.688	18.83
525.036	18.99
525.383	19.04
525.73	19.05
526.078	19.02
526.425	18.82
526.772	18.63
527.119	18.61
527.466	18.76
527.814	18.83
528.161	18.76
528.508	18.93
528.854	18.85
529.201	18.78
529.548	18.5
529.895	18.27
530.242	18.3
530.588	18.38
530.935	18.63
531.282	18.77
531.628	18.94
531.975	19
532.321	19.22
532.667	19.3
533.014	19.4
533.36	19.36
533.706	19.42
534.052	19.29
534.399	19.12
534.745	19
535.091	18.95
535.437	19.16
535.783	19.44
536.129	19.59
536.474	19.86
536.82	19.99
537.166	19.87
537.512	19.78
537.857	19.77
538.203	19.67
538.549	19.64
538.894	19.73
539.239	19.99
539.585	20.22
539.93	20.32
540.276	20.44
540.621	20.45
540.966	20.32
541.311	20.34
541.656	20.28
542.001	20.24
542.346	20
542.691	19.6
543.036	19.6
543.381	19.77
543.726	19.94
544.071	20.12
544.415	20.34
544.76	20.25
545.105	20.35
545.449	20.57
545.794	20.63
546.138	20.84
546.483	20.95
546.827	20.71
547.171	20.75
547.516	20.82
547.86	20.82
548.204	20.83
548.548	20.78
548.892	20.83
549.236	20.96
549.58	21.15
549.924	21.54
550.268	21.4
550.612	21.42
550.956	21.79
551.3	21.85
551.643	21.68
551.987	21.86
552.33	21.78
552.674	21.77
553.017	21.73
553.361	21.93
553.704	21.75
554.048	21.64
554.391	21.74
554.734	21.61
555.077	21.81
555.42	22
555.764	21.95
556.107	22.15
556.45	22.12
556.793	22.24
557.135	22.09
557.478	22.26
557.821	22.35
558.164	22.2
558.507	22.18
558.849	22.47
559.192	22.46
559.534	22.52
559.877	22.59
560.219	22.44
560.562	22.45
560.904	22.98
561.246	22.42
561.589	22.75
561.931	22.62
562.273	22.82
562.615	22.78
562.957	22.63
563.299	22.68
563.641	22.84
563.983	22.87
564.325	22.88
564.667	22.95
565.008	22.86
565.35	22.94
565.692	23.19
566.033	22.84
566.375	23.01
566.716	22.95
567.058	23.07
567.399	22.99
567.741	22.89
568.082	22.94
568.423	23
568.764	23.16
569.105	23.19
569.447	23.34
569.788	23.38
570.129	23.56
570.47	23.48
570.811	23.42
571.151	23.41
571.492	23.37
571.833	23.5
572.174	23.63
572.514	23.53
572.855	23.44
573.195	23.36
573.536	23.51
573.876	23.39
574.217	23.48
574.557	23.43
574.898	23.75
575.238	23.86
575.578	23.85
575.918	23.99
576.258	23.99
576.598	23.94
576.938	23.72
577.278	23.95
577.618	23.97
577.958	24.11
578.298	23.94
578.638	24.24
578.977	24.36
579.317	24.29
579.657	24.37
579.996	24.61
580.336	24.61
580.675	24.71
581.014	24.61
581.354	24.37
581.693	24.86
582.032	24.68
582.372	24.98
582.711	24.7
583.05	25.15
583.389	24.86
583.728	25.2
584.067	25.01
584.406	24.9
584.745	24.87
585.083	24.74
585.422	24.94
585.761	25.12
586.1	25.15
586.438	25.1
586.777	25.08
587.115	25.36
587.454	25.04
587.792	25.22
588.13	25.31
588.469	25.31
588.807	25.51
589.145	25.61
589.483	25.24
589.821	25.43
590.159	25.42
590.497	25.35
590.835	25.35
591.173	25.59
591.511	25.53
591.849	25.46
592.187	25.39
592.524	25.81
592.862	25.38
593.2	25.92
593.537	25.74
593.875	25.57
594.212	25.69
594.55	25.91
594.887	25.92
595.224	25.85
595.561	25.7
595.899	25.6
596.236	25.86
596.573	26.2
596.91	26.11
597.247	25.95
597.584	26.12
597.921	25.72
598.258	25.84
598.594	26.03
598.931	25.98
599.268	25.78
599.604	26.1
599.941	26.27
600.277	26.14
600.614	26.31
600.95	26.44
601.287	26.22
601.623	26.34
601.959	26.82
602.296	26.55
602.632	26.41
602.968	26.71
603.304	26.38
603.64	26.59
603.976	26.71
604.312	26.62
604.648	26.74
604.984	26.55
605.319	26.68
605.655	26.55
605.991	26.34
606.326	26.51
606.662	26.4
606.998	26.56
607.333	26.92
607.668	26.84
608.004	26.64
608.339	26.99
608.674	27.16
609.01	27.37
609.345	27.25
609.68	27.05
610.015	27.24
610.35	27.07
610.685	26.96
611.02	26.92
611.355	27.06
611.689	27.16
612.024	27.44
612.359	27.4
612.694	27.78
613.028	27.37
613.363	27.51
613.697	27.64
614.032	27.81
614.366	27.52
614.7	27.77
615.035	27.64
615.369	27.49
615.703	28.25
616.037	28.47
616.371	27.91
616.705	27.88
617.039	28.24
617.373	28.19
617.707	28.18
618.041	28
618.375	27.68
618.709	28.23
619.042	28.32
619.376	28.19
619.71	28.24
620.043	28.43
620.377	28.16
620.71	28.27
621.043	28.35
621.377	28.48
621.71	28.56
622.043	28.23
622.376	28.55
622.709	28.92
623.043	28.59
623.376	28.65
623.709	28.76
624.041	28.68
624.374	29.04
624.707	28.82
625.04	28.25
625.373	28.9
625.705	28.92
626.038	28.83
626.37	28.65
626.703	28.65
627.035	28.99
627.368	29.11
627.7	28.77
628.032	28.6
628.365	28.72
628.697	28.88
629.029	28.69
629.361	29.25
629.693	28.92
630.025	28.84
630.357	29.41
630.689	29.1
631.021	29.38
631.353	29.33
631.684	28.95
632.016	29.21
632.348	29.26
632.679	29.47
633.011	29.21
633.342	29.68
633.674	29.5
634.005	29.77
634.336	29.65
634.668	29.42
634.999	29.7
635.33	29.73
635.661	29.01
635.992	29.84
636.323	29.88
636.654	29.65
636.985	29.65
637.316	29.54
637.647	29.55
637.977	29.7
638.308	30.6
638.639	30.12
638.969	29.87
639.3	30
639.63	30.08
639.961	30.31
640.291	29.83
640.622	30.16
640.952	30.57
641.282	29.68
641.612	29.98
641.943	29.57
642.273	30.01
642.603	30.12
642.933	30.77
643.263	30.83
643.592	30.78
643.922	30.64
644.252	30.73
644.582	31.02
644.911	30.62
645.241	30.43
645.571	30.65
645.9	30.48
646.23	31.05
646.559	30.58
646.888	31.27
647.218	30.77
647.547	31.09
647.876	31.08
648.205	30.62
648.534	30.76
648.863	30.7
649.192	31.17
649.521	31.58
649.85	31.15
650.179	30.72
650.508	30.87
650.837	31.14
651.165	31.07
651.494	31.15
651.822	30.93
652.151	30.61
652.479	31.2
652.808	31.43
653.136	30.89
653.465	30.58
653.793	30.82
654.121	31.15
654.449	30.74
654.777	30.98
655.105	30.53
655.433	31.53
655.761	31.39
656.089	31.6
656.417	31.5
656.745	31.76
657.073	31.51
657.4	31.98
657.728	31.04
658.056	31.29
658.383	31.73
658.711	31.74
659.038	32.23
659.365	31.61
659.693	32.17
660.02	31.14
660.347	31.93
660.674	31.4
661.001	31.43
661.329	31.05
661.656	31.54
661.982	31.39
662.309	32.19
662.636	31.4
662.963	31.37
663.29	31.7
663.616	31.48
663.943	32.46
664.27	31.66
664.596	32.18
664.923	31.97
665.249	32.08
665.576	31.77
665.902	31.94
666.228	32.55
666.554	32.73
666.881	32.07
667.207	32.46
667.533	32.77
667.859	32.19
668.185	32.74
668.511	32.81
668.837	32.72
669.162	32.35
669.488	32.42
669.814	32.19
670.139	31.95
670.465	32.95
670.791	32.73
671.116	32.15
671.442	32.5
671.767	32.68
672.092	32.21
672.418	32.77
672.743	33.05
673.068	32.63
673.393	33.21
673.718	32.71
674.043	32.19
