Data from 0010_crown_Reflection__1__323.txt Node

Date: Thu Dec 15 19:11:17 CST 2022
User: ToomeyLab
Spectrometer: FLMS14357
Trigger mode: 0
Integration Time (sec): 1.000000E-2
Scans to average: 100
Electric dark correction enabled: true
Nonlinearity correction enabled: false
Boxcar width: 0
XAxis mode: Wavelengths
Number of Pixels in Spectrum: 2048
>>>>>Begin Spectral Data<<<<<
189.047	7.82
189.435	7.82
189.823	7.82
190.211	162.74
190.599	25.71
190.987	12.87
191.375	-227.01
191.763	108.67
192.151	298.52
192.538	61.81
192.926	448.68
193.314	281.65
193.702	-20.26
194.089	90.25
194.477	256.76
194.864	120
195.252	32.13
195.639	96.3
196.027	-219.44
196.414	48.13
196.801	11.03
197.189	254.19
197.576	732.27
197.963	412.21
198.351	-2.67
198.738	-144.13
199.125	-31.74
199.512	28.24
199.899	-40.6
200.286	-44.27
200.673	50.09
201.06	-54.9
201.447	-14.99
201.833	34.36
202.22	-52.25
202.607	-30.92
202.994	-13.56
203.38	-10.96
203.767	20.48
204.154	-12.86
204.54	36.43
204.927	-9.8
205.313	47.31
205.699	28.2
206.086	8.05
206.472	6.03
206.858	-2.76
207.245	-24.51
207.631	-1.98
208.017	66.44
208.403	16.87
208.789	17.15
209.175	-30.38
209.561	-98.25
209.947	-44
210.333	-36.01
210.719	25.96
211.105	25.61
211.491	35.02
211.876	-74.88
212.262	0.37
212.648	5.18
213.034	-26.42
213.419	-20.86
213.805	-61.36
214.19	-22.36
214.576	-20.96
214.961	-2.01
215.346	-40.03
215.732	-31.37
216.117	-8.44
216.502	7.47
216.888	-8.42
217.273	-5.46
217.658	-9.46
218.043	-43.22
218.428	-22.37
218.813	6.21
219.198	-41.2
219.583	-14.66
219.968	20.93
220.353	-39.18
220.738	-0.57
221.122	-33.08
221.507	0.11
221.892	-43.62
222.276	-44.91
222.661	-15.15
223.046	-12.51
223.43	-1.14
223.815	-3.17
224.199	4.03
224.583	-2.18
224.968	0.71
225.352	-16.01
225.736	3.2
226.121	-1.17
226.505	-7.84
226.889	-0.27
227.273	0.67
227.657	3.32
228.041	-0.98
228.425	-4.89
228.809	-1.61
229.193	1.07
229.577	1.69
229.961	1.82
230.344	2.4
230.728	3.32
231.112	2.81
231.495	1.53
231.879	2.62
232.263	3.2
232.646	3.69
233.03	4.02
233.413	0.83
233.797	-0.14
234.18	3.48
234.563	3.04
234.946	-0.73
235.33	2.13
235.713	1.1
236.096	2.54
236.479	2.42
236.862	1.67
237.245	1.67
237.628	3.36
238.011	1.65
238.394	1.4
238.777	1.78
239.16	4.3
239.543	3.96
239.925	2.24
240.308	0.53
240.691	1.53
241.073	0.97
241.456	2.86
241.838	1.57
242.221	2.92
242.603	3.21
242.986	2.56
243.368	3.07
243.75	2.53
244.133	2.85
244.515	2.58
244.897	2.09
245.279	2.99
245.661	2.92
246.043	1.81
246.425	2.18
246.807	2.04
247.189	2.29
247.571	1.99
247.953	2.41
248.335	2.43
248.717	2.7
249.098	2.6
249.48	2.54
249.862	2.88
250.243	2.47
250.625	2.42
251.006	3
251.388	2.52
251.769	1.48
252.151	3.44
252.532	2.28
252.913	1.83
253.295	2.18
253.676	2.26
254.057	2.59
254.438	2.54
254.819	2.48
255.2	2.69
255.581	3.48
255.962	2.4
256.343	2.72
256.724	2.32
257.105	2.09
257.486	1.94
257.867	1.58
258.247	2.81
258.628	2.44
259.009	2.32
259.389	1.59
259.77	1.97
260.15	2.89
260.531	2.2
260.911	2.43
261.292	2.57
261.672	2.47
262.052	2.46
262.432	2.12
262.813	2.64
263.193	2.24
263.573	2.79
263.953	2.41
264.333	2.22
264.713	2.18
265.093	1.85
265.473	0.84
265.853	2.25
266.233	2.46
266.612	1.11
266.992	1.53
267.372	2.52
267.752	2.73
268.131	2.19
268.511	2.08
268.89	3.17
269.27	2.02
269.649	2.41
270.029	2.37
270.408	1.7
270.787	2.29
271.167	2.15
271.546	2.56
271.925	2.13
272.304	1.7
272.683	1.77
273.062	2.4
273.441	2.06
273.82	2.15
274.199	1.87
274.578	2.38
274.957	2.4
275.336	2.63
275.715	2.69
276.093	1.97
276.472	1.5
276.851	1.96
277.229	2.08
277.608	1.87
277.986	1.5
278.365	1.98
278.743	2.14
279.122	2.01
279.5	1.39
279.878	1.8
280.257	1.83
280.635	2.37
281.013	1.32
281.391	1.95
281.769	2.56
282.147	2.47
282.525	1.79
282.903	1.75
283.281	2
283.659	2.53
284.037	1.66
284.415	1.58
284.792	2.23
285.17	1.88
285.548	1.97
285.925	1.67
286.303	2.24
286.68	2.02
287.058	2.19
287.435	1.92
287.813	2.09
288.19	1.87
288.567	2.08
288.945	1.35
289.322	2.4
289.699	2.41
290.076	1.55
290.453	1.56
290.83	1.72
291.207	1.76
291.584	2.34
291.961	2.09
292.338	1.67
292.715	1.84
293.092	2.08
293.469	1.75
293.845	2.26
294.222	2.08
294.599	1.74
294.975	0.92
295.352	2.26
295.728	2.04
296.105	2.41
296.481	2.1
296.858	2.09
297.234	1.6
297.61	1.99
297.986	2.7
298.363	2.18
298.739	2.47
299.115	2.05
299.491	2.35
299.867	2.11
300.243	2.1
300.619	1.7
300.995	2.17
301.371	2.43
301.746	2.12
302.122	1.66
302.498	1.69
302.874	2.23
303.249	2.19
303.625	2.04
304	2.42
304.376	2.08
304.751	2.22
305.127	2.17
305.502	2.18
305.878	2.68
306.253	2.1
306.628	2.04
307.003	1.8
307.378	1.77
307.754	1.99
308.129	1.86
308.504	1.87
308.879	1.93
309.254	2.19
309.629	2.18
310.003	2.16
310.378	2.42
310.753	2.16
311.128	1.88
311.502	2.36
311.877	2.36
312.252	2.21
312.626	2.65
313.001	2.16
313.375	2.3
313.75	2.32
314.124	2.47
314.498	2.64
314.873	1.97
315.247	2.41
315.621	1.65
315.995	1.85
316.369	1.94
316.743	2.22
317.117	2.02
317.491	2.86
317.865	1.31
318.239	2.43
318.613	1.62
318.987	1.72
319.361	2.08
319.734	1.63
320.108	2.41
320.482	1.74
320.855	2.21
321.229	1.91
321.602	1.86
321.976	1.56
322.349	2.53
322.723	1.98
323.096	2.13
323.469	2.29
323.843	1.65
324.216	2.27
324.589	2.13
324.962	2.12
325.335	2.31
325.708	1.99
326.081	1.89
326.454	2.15
326.827	1.88
327.2	1.75
327.573	2.63
327.945	1.69
328.318	2.16
328.691	2.78
329.063	2.23
329.436	1.53
329.809	2.39
330.181	3.5
330.553	3.3
330.926	2.7
331.298	2.15
331.671	2.55
332.043	2.28
332.415	2.38
332.787	2.17
333.159	1.86
333.532	3.14
333.904	2.57
334.276	3.03
334.648	2.23
335.02	2.09
335.391	2.31
335.763	1.97
336.135	2.95
336.507	2.24
336.879	2.31
337.25	2.09
337.622	2.44
337.993	2.52
338.365	2.36
338.736	2.64
339.108	2.02
339.479	2.38
339.851	2.34
340.222	2.45
340.593	2.28
340.964	2.26
341.336	2.21
341.707	2.76
342.078	2.24
342.449	2.39
342.82	2.26
343.191	1.69
343.562	2.49
343.933	2.29
344.303	2.52
344.674	2
345.045	2.37
345.416	2.67
345.786	2.16
346.157	2.3
346.527	2.38
346.898	1.94
347.268	2.41
347.639	2.14
348.009	2.7
348.38	2.46
348.75	2.61
349.12	2.65
349.49	2.25
349.861	2.43
350.231	1.94
350.601	2.35
350.971	2.17
351.341	2.48
351.711	2.35
352.081	1.91
352.45	1.84
352.82	2.25
353.19	2.12
353.56	2.44
353.929	2.55
354.299	2.62
354.669	2.58
355.038	2.83
355.408	2.57
355.777	2.25
356.147	2.35
356.516	2.31
356.885	2.44
357.254	2.43
357.624	1.74
357.993	2.44
358.362	2.55
358.731	2.89
359.1	2.39
359.469	2.75
359.838	2.59
360.207	2.49
360.576	2.72
360.945	2.74
361.314	2.39
361.682	2.15
362.051	2.51
362.42	2.35
362.788	2.52
363.157	2.48
363.525	2.38
363.894	2.31
364.262	2.57
364.631	2.58
364.999	2.59
365.367	2.39
365.735	2.39
366.104	2.34
366.472	2.72
366.84	2.39
367.208	2.75
367.576	2.55
367.944	2.63
368.312	2.28
368.68	2.55
369.048	2.23
369.416	1.85
369.783	2.34
370.151	2.66
370.519	2.69
370.886	2.47
371.254	2.53
371.621	2.5
371.989	2.54
372.356	2.61
372.724	2.46
373.091	2.24
373.458	2.14
373.826	2.46
374.193	2.31
374.56	2.47
374.927	2.27
375.294	2.85
375.661	2.36
376.028	2.26
376.395	2.61
376.762	2.01
377.129	2.39
377.496	2.53
377.863	2.51
378.229	2.78
378.596	2.59
378.963	2.6
379.329	2.59
379.696	2.38
380.062	2.79
380.429	2.13
380.795	2.49
381.161	2.21
381.528	2.11
381.894	2.35
382.26	2.55
382.626	2.65
382.993	2.68
383.359	2.48
383.725	2.2
384.091	2.76
384.457	2.64
384.823	2.66
385.188	2.64
385.554	2.98
385.92	2.46
386.286	2.68
386.651	2.62
387.017	2.7
387.383	2.35
387.748	2.59
388.114	2.46
388.479	2.27
388.845	2.23
389.21	2.73
389.575	2.88
389.94	2.84
390.306	2.76
390.671	2.74
391.036	2.49
391.401	2.61
391.766	2.55
392.131	2.9
392.496	2.62
392.861	2.38
393.226	2.52
393.591	2.77
393.956	2.59
394.32	2.72
394.685	2.63
395.05	2.76
395.414	2.66
395.779	2.9
396.143	2.64
396.508	2.56
396.872	2.59
397.236	3.12
397.601	2.63
397.965	2.48
398.329	2.51
398.694	2.65
399.058	2.57
399.422	2.6
399.786	2.45
400.15	2.62
400.514	2.69
400.878	2.7
401.242	2.68
401.605	2.62
401.969	2.54
402.333	2.59
402.697	2.93
403.06	2.49
403.424	2.84
403.787	2.57
404.151	2.83
404.514	2.82
404.878	2.48
405.241	2.51
405.604	2.75
405.968	2.67
406.331	2.7
406.694	2.71
407.057	2.76
407.42	2.66
407.783	2.73
408.146	2.62
408.509	2.68
408.872	2.78
409.235	2.65
409.598	2.75
409.961	2.72
410.323	2.67
410.686	2.75
411.049	2.72
411.411	2.6
411.774	2.58
412.136	2.43
412.499	2.96
412.861	2.38
413.223	2.43
413.586	2.7
413.948	2.87
414.31	2.86
414.672	2.52
415.035	2.79
415.397	2.61
415.759	2.58
416.121	3.02
416.483	2.49
416.845	2.66
417.206	2.55
417.568	2.75
417.93	2.6
418.292	2.45
418.653	2.58
419.015	2.76
419.377	2.68
419.738	2.81
420.1	2.65
420.461	2.58
420.822	2.72
421.184	2.66
421.545	2.74
421.906	2.71
422.267	2.78
422.629	2.67
422.99	2.69
423.351	2.68
423.712	2.67
424.073	2.71
424.434	2.81
424.795	2.6
425.155	2.61
425.516	2.66
425.877	2.69
426.238	2.6
426.598	2.77
426.959	2.71
427.32	2.61
427.68	2.73
428.041	2.71
428.401	2.59
428.761	2.76
429.122	2.74
429.482	2.69
429.842	2.67
430.202	2.92
430.563	2.66
430.923	2.8
431.283	2.75
431.643	2.91
432.003	2.76
432.363	2.68
432.722	2.78
433.082	2.87
433.442	2.91
433.802	2.7
434.161	2.72
434.521	2.75
434.881	2.74
435.24	2.83
435.6	2.75
435.959	2.85
436.319	2.78
436.678	2.77
437.037	2.79
437.396	2.74
437.756	2.63
438.115	2.73
438.474	2.66
438.833	2.85
439.192	2.75
439.551	2.66
439.91	2.88
440.269	2.73
440.628	2.69
440.987	2.68
441.345	2.8
441.704	2.74
442.063	2.78
442.421	2.68
442.78	2.83
443.138	2.65
443.497	2.71
443.855	2.81
444.214	2.67
444.572	2.85
444.93	2.79
445.288	2.74
445.647	2.63
446.005	2.8
446.363	2.68
446.721	2.77
447.079	2.62
447.437	2.75
447.795	2.83
448.153	2.8
448.51	2.79
448.868	2.69
449.226	2.72
449.584	2.76
449.941	2.75
450.299	2.69
450.656	2.75
451.014	2.77
451.371	2.87
451.729	2.82
452.086	2.78
452.443	2.85
452.801	2.84
453.158	2.98
453.515	2.86
453.872	2.75
454.229	2.73
454.586	2.71
454.943	2.77
455.3	2.68
455.657	2.76
456.014	2.81
456.371	2.92
456.727	2.91
457.084	2.93
457.441	2.88
457.797	2.83
458.154	2.86
458.51	2.58
458.867	2.73
459.223	2.64
459.58	2.81
459.936	2.83
460.292	2.66
460.648	2.79
461.005	2.7
461.361	2.76
461.717	2.77
462.073	2.81
462.429	2.88
462.785	2.89
463.141	2.79
463.496	2.95
463.852	3.04
464.208	2.77
464.564	2.65
464.919	2.69
465.275	2.82
465.631	2.98
465.986	3
466.342	2.56
466.697	2.85
467.052	2.99
467.408	2.79
467.763	2.76
468.118	2.75
468.473	2.79
468.829	2.69
469.184	2.76
469.539	2.71
469.894	2.95
470.249	2.79
470.603	2.84
470.958	2.95
471.313	2.9
471.668	2.85
472.023	2.87
472.377	2.87
472.732	2.97
473.086	2.79
473.441	2.78
473.795	3.05
474.15	2.75
474.504	2.8
474.859	2.61
475.213	2.88
475.567	2.69
475.921	2.96
476.275	2.82
476.63	2.98
476.984	2.84
477.338	2.91
477.692	2.75
478.045	2.83
478.399	2.72
478.753	2.82
479.107	2.86
479.461	2.78
479.814	2.81
480.168	2.73
480.521	2.91
480.875	2.89
481.228	2.81
481.582	2.87
481.935	3.02
482.289	2.99
482.642	2.94
482.995	2.81
483.348	2.78
483.701	2.85
484.055	2.72
484.408	2.79
484.761	2.72
485.114	2.61
485.466	2.63
485.819	2.63
486.172	2.67
486.525	2.7
486.878	2.78
487.23	2.77
487.583	2.78
487.936	2.76
488.288	2.74
488.641	2.74
488.993	2.69
489.345	2.67
489.698	2.71
490.05	2.7
490.402	2.69
490.754	2.71
491.107	2.67
491.459	2.84
491.811	2.77
492.163	2.79
492.515	2.7
492.866	2.7
493.218	2.71
493.57	2.74
493.922	2.72
494.274	2.82
494.625	2.91
494.977	2.83
495.328	2.93
495.68	2.85
496.031	2.79
496.383	2.82
496.734	2.84
497.086	2.98
497.437	2.87
497.788	2.96
498.139	2.82
498.49	2.84
498.842	2.91
499.193	2.78
499.544	2.9
499.894	2.91
500.245	2.97
500.596	2.93
500.947	2.83
501.298	2.74
501.648	2.92
501.999	3.01
502.35	2.72
502.7	2.94
503.051	2.94
503.401	2.92
503.752	2.88
504.102	2.78
504.452	2.81
504.803	2.83
505.153	2.91
505.503	2.78
505.853	3
506.203	2.96
506.553	2.83
506.903	2.88
507.253	2.78
507.603	2.92
507.953	2.86
508.303	2.98
508.652	2.71
509.002	2.9
509.352	2.87
509.701	2.65
510.051	2.94
510.4	2.87
510.75	2.81
511.099	2.82
511.449	2.86
511.798	2.86
512.147	2.78
512.496	2.9
512.846	2.74
513.195	2.88
513.544	2.95
513.893	2.98
514.242	2.84
514.591	2.92
514.939	2.93
515.288	2.95
515.637	2.95
515.986	2.93
516.334	2.94
516.683	2.91
517.032	2.75
517.38	2.85
517.729	2.92
518.077	2.81
518.426	2.93
518.774	2.74
519.122	2.89
519.47	2.87
519.819	2.85
520.167	2.85
520.515	2.83
520.863	2.81
521.211	2.82
521.559	2.82
521.907	2.92
522.255	2.76
522.602	2.87
522.95	2.87
523.298	3.04
523.645	2.91
523.993	2.91
524.341	2.93
524.688	2.86
525.036	2.81
525.383	2.88
525.73	2.77
526.078	2.94
526.425	2.85
526.772	2.87
527.119	2.84
527.466	2.9
527.814	2.85
528.161	2.88
528.508	2.94
528.854	2.82
529.201	2.79
529.548	2.8
529.895	2.74
530.242	2.71
530.588	2.71
530.935	2.79
531.282	2.78
531.628	2.82
531.975	2.84
532.321	2.86
532.667	2.94
533.014	2.95
533.36	2.85
533.706	2.86
534.052	2.86
534.399	2.83
534.745	2.81
535.091	2.79
535.437	2.79
535.783	2.84
536.129	2.84
536.474	2.99
536.82	2.9
537.166	2.85
537.512	2.93
537.857	2.85
538.203	2.88
538.549	2.83
538.894	2.89
539.239	2.89
539.585	2.97
539.93	2.95
540.276	2.92
540.621	3
540.966	2.9
541.311	2.91
541.656	2.88
542.001	2.84
542.346	2.78
542.691	2.78
543.036	2.78
543.381	2.77
543.726	2.9
544.071	2.88
544.415	2.84
544.76	2.81
545.105	2.84
545.449	2.89
545.794	2.91
546.138	2.9
546.483	2.92
546.827	2.9
547.171	2.92
547.516	2.96
547.86	3.01
548.204	2.95
548.548	2.88
548.892	2.87
549.236	2.94
549.58	3.01
549.924	2.93
550.268	3.04
550.612	3.07
550.956	2.95
551.3	3.12
551.643	2.96
551.987	3.2
552.33	3.11
552.674	3.05
553.017	3.12
553.361	3.08
553.704	3.13
554.048	3.02
554.391	3.04
554.734	2.94
555.077	2.96
555.42	2.89
555.764	2.95
556.107	3.14
556.45	3.05
556.793	3.12
557.135	3.09
557.478	3
557.821	3.05
558.164	3.08
558.507	2.92
558.849	3.24
559.192	2.96
559.534	3.02
559.877	2.98
560.219	3
560.562	3.02
560.904	3.33
561.246	2.9
561.589	3.18
561.931	3.04
562.273	2.9
562.615	2.84
562.957	2.98
563.299	2.98
563.641	2.91
563.983	2.81
564.325	2.91
564.667	3.05
565.008	3.06
565.35	2.92
565.692	2.97
566.033	2.82
566.375	3.04
566.716	2.81
567.058	2.87
567.399	2.91
567.741	2.96
568.082	3.03
568.423	2.99
568.764	2.98
569.105	3.04
569.447	3.01
569.788	3.04
570.129	2.9
570.47	2.95
570.811	2.94
571.151	3.03
571.492	2.99
571.833	2.96
572.174	3.07
572.514	2.99
572.855	3.03
573.195	3.03
573.536	3.16
573.876	3.03
574.217	3.06
574.557	2.93
574.898	2.91
575.238	3.12
575.578	3.2
575.918	3.14
576.258	3.16
576.598	2.99
576.938	2.98
577.278	3.21
577.618	3.06
577.958	3.19
578.298	3.05
578.638	2.92
578.977	3.15
579.317	3.04
579.657	3.03
579.996	3
580.336	3.09
580.675	2.93
581.014	3.05
581.354	2.83
581.693	3.11
582.032	3.27
582.372	2.98
582.711	3.12
583.05	3.01
583.389	3.2
583.728	3.37
584.067	3.12
584.406	3.16
584.745	2.88
585.083	2.93
585.422	3.21
585.761	3.13
586.1	3.15
586.438	3
586.777	3.27
587.115	3.4
587.454	2.93
587.792	3.07
588.13	3.19
588.469	3.09
588.807	3.22
589.145	3.44
589.483	2.86
589.821	2.99
590.159	3.07
590.497	3.23
590.835	3.16
591.173	3.23
591.511	3.39
591.849	3.19
592.187	2.93
592.524	3.32
592.862	3.19
593.2	3.04
593.537	2.97
593.875	3.28
594.212	3.09
594.55	3.17
594.887	3.06
595.224	3.26
595.561	3.09
595.899	3.06
596.236	3.4
596.573	2.97
596.91	3.31
597.247	3.19
597.584	3.18
597.921	3.01
598.258	3.12
598.594	2.99
598.931	2.78
599.268	3.04
599.604	3.07
599.941	3.05
600.277	3.23
600.614	3.25
600.95	3.26
601.287	2.9
601.623	2.83
601.959	3.41
602.296	3.16
602.632	2.9
602.968	3
603.304	2.98
603.64	2.92
603.976	3.13
604.312	3.17
604.648	3.19
604.984	3.14
605.319	3.04
605.655	3
605.991	3.18
606.326	3.35
606.662	3.02
606.998	3.23
607.333	3.3
607.668	3.01
608.004	3.16
608.339	3.07
608.674	3.16
609.01	3.12
609.345	3.09
609.68	3
610.015	3.15
610.35	3.21
610.685	2.99
611.02	3.04
611.355	2.96
611.689	3.19
612.024	3.13
612.359	3.34
612.694	3.21
613.028	3.07
613.363	3.15
613.697	3.15
614.032	3.25
614.366	3.01
614.7	3.33
615.035	3.15
615.369	3.37
615.703	3.27
616.037	3.17
616.371	3.18
616.705	3.09
617.039	2.95
617.373	3.22
617.707	2.87
618.041	2.82
618.375	2.74
618.709	3.44
619.042	3.33
619.376	3.11
619.71	3.13
620.043	3.5
620.377	3.13
620.71	3.6
621.043	3.38
621.377	3.47
621.71	3.5
622.043	3.44
622.376	3.08
622.709	3.46
623.043	3.1
623.376	3.01
623.709	3.5
624.041	3.35
624.374	3.46
624.707	3.07
625.04	3.1
625.373	3.35
625.705	3.44
626.038	3.13
626.37	3.03
626.703	3.35
627.035	3.37
627.368	3.41
627.7	3.18
628.032	3.27
628.365	3.77
628.697	3.58
629.029	3.14
629.361	3.54
629.693	3.24
630.025	3.51
630.357	3.38
630.689	3.13
631.021	3.43
631.353	3.24
631.684	2.97
632.016	2.94
632.348	3.01
632.679	3.56
633.011	3.21
633.342	3.27
633.674	2.66
634.005	3.53
634.336	3.2
634.668	3.14
634.999	3.25
635.33	3.61
635.661	3.04
635.992	3.38
636.323	3.24
636.654	3.34
636.985	3.31
637.316	3.2
637.647	3.53
637.977	3.46
638.308	3.33
638.639	3.12
638.969	3.2
639.3	3.41
639.63	3.37
639.961	3.04
640.291	2.92
640.622	3.57
640.952	3.53
641.282	3.16
641.612	2.92
641.943	3.23
642.273	3.21
642.603	3.55
642.933	3.83
643.263	3.67
643.592	3.77
643.922	3.84
644.252	3.52
644.582	3.29
644.911	3.35
645.241	3.26
645.571	3.67
645.9	3.44
646.23	3.92
646.559	2.93
646.888	3.95
647.218	3.32
647.547	3.18
647.876	3.14
648.205	3.44
648.534	3.3
648.863	3.36
649.192	3.44
649.521	3.22
649.85	3.48
650.179	3.48
650.508	3.28
650.837	3.52
651.165	3.22
651.494	3.58
651.822	3.76
652.151	2.97
652.479	3.5
652.808	3.7
653.136	2.99
653.465	2.97
653.793	3.33
654.121	3.45
654.449	3.02
654.777	3.18
655.105	3.09
655.433	3.47
655.761	2.85
656.089	3.35
656.417	3.62
656.745	3.68
657.073	3.58
657.4	3.43
657.728	3.02
658.056	3.62
658.383	3.29
658.711	3.42
659.038	4.15
659.365	3.47
659.693	3.53
660.02	3.39
660.347	3.33
660.674	3.42
661.001	3.35
661.329	3.34
661.656	3.21
661.982	3.52
662.309	3.29
662.636	3.47
662.963	3.38
663.29	3.35
663.616	3.01
663.943	3.41
664.27	3.76
664.596	3.1
664.923	3.59
665.249	3.73
665.576	3.54
665.902	2.82
666.228	3.44
666.554	3.95
666.881	2.91
667.207	3.27
667.533	3.48
667.859	3.43
668.185	3
668.511	4.04
668.837	3.69
669.162	3.58
669.488	3.66
669.814	3.37
670.139	2.89
670.465	3.3
670.791	3.07
671.116	3.49
671.442	2.95
671.767	3.69
672.092	3.14
672.418	3.7
672.743	3.36
673.068	3.15
673.393	3.77
673.718	2.93
674.043	3.36
674.368	3.52
674.693	3.19
675.018	3.32
675.343	3.55
675.667	3.22
675.992	3.46
676.317	2.91
676.641	3.82
676.966	3.47
677.29	3.03
677.615	2.98
677.939	3.29
678.264	3.01
678.588	3.54
678.912	3.54
679.236	3.21
679.56	2.99
679.885	3.86
680.209	3.73
680.532	3.68
680.856	3.24
681.18	4.45
681.504	3.46
681.828	3.39
682.152	3.78
682.475	3.7
682.799	3.44
683.122	3.62
683.446	3.04
683.769	3.89
684.093	3.48
684.416	2.84
684.739	2.99
685.062	3.37
685.386	3.25
685.709	3.66
686.032	3.62
686.355	4.03
686.678	4.49
687.001	3.92
687.324	3.1
687.646	3.48
687.969	3.27
688.292	2.7
688.614	3.54
688.937	3.9
689.26	4.25
689.582	3.87
689.904	3.71
690.227	3.55
690.549	3.69
690.871	3.3
691.194	3.71
691.516	3.66
691.838	3.45
