Data from 0010_chest_Reflection__2__319.txt Node

Date: Thu Dec 15 19:09:55 CST 2022
User: ToomeyLab
Spectrometer: FLMS14357
Trigger mode: 0
Integration Time (sec): 1.000000E-2
Scans to average: 100
Electric dark correction enabled: true
Nonlinearity correction enabled: false
Boxcar width: 0
XAxis mode: Wavelengths
Number of Pixels in Spectrum: 2048
>>>>>Begin Spectral Data<<<<<
189.047	-55.1
189.435	-55.1
189.823	-55.1
190.211	-179.14
190.599	-18.04
190.987	128.12
191.375	44.66
191.763	98.77
192.151	34.1
192.538	0.38
192.926	-27.27
193.314	-2.03
193.702	-92.21
194.089	-198.74
194.477	185.2
194.864	18.08
195.252	234.75
195.639	140.88
196.027	-275.15
196.414	34.49
196.801	46.06
197.189	223.08
197.576	735
197.963	42.89
198.351	7.36
198.738	-160.03
199.125	-114.09
199.512	29.16
199.899	-58.2
200.286	-14.78
200.673	28.78
201.06	-42.35
201.447	2.41
201.833	5.24
202.22	21.91
202.607	-2.17
202.994	48.04
203.38	-13.31
203.767	-23.25
204.154	10.55
204.54	68.24
204.927	27.8
205.313	14.26
205.699	22.31
206.086	28.88
206.472	32.56
206.858	28.68
207.245	-39.24
207.631	-20.19
208.017	50.4
208.403	-37.75
208.789	-19.68
209.175	1.65
209.561	-35.5
209.947	-77.18
210.333	-53.01
210.719	10.86
211.105	17.39
211.491	46.78
211.876	18.18
212.262	-6.34
212.648	-4.81
213.034	-26.65
213.419	-6.13
213.805	-45.09
214.19	4.32
214.576	-15.46
214.961	-15.35
215.346	-57.05
215.732	-19.42
216.117	-17.23
216.502	-10.29
216.888	-17.41
217.273	3.89
217.658	-11.07
218.043	-46.3
218.428	-10.8
218.813	-14.46
219.198	-32.73
219.583	5.23
219.968	-8.28
220.353	-33.65
220.738	13.45
221.122	-9.57
221.507	-0.26
221.892	-22.32
222.276	-38.64
222.661	-17.38
223.046	-30.64
223.43	4.94
223.815	-10.27
224.199	-14.37
224.583	4.75
224.968	-0.39
225.352	-14.95
225.736	9.35
226.121	-6.15
226.505	0.21
226.889	-1.53
227.273	-7.27
227.657	4.74
228.041	2.67
228.425	-2.05
228.809	3.89
229.193	3.35
229.577	4.09
229.961	3.31
230.344	2.9
230.728	4.34
231.112	3.6
231.495	2.47
231.879	3.17
232.263	4.3
232.646	3.66
233.03	6.19
233.413	2.7
233.797	0.03
234.18	2.24
234.563	2.21
234.946	1.14
235.33	2.85
235.713	3.87
236.096	4.06
236.479	3.56
236.862	1.19
237.245	4.35
237.628	3.66
238.011	3.06
238.394	1.57
238.777	2.59
239.16	4.25
239.543	4.01
239.925	2.74
240.308	0.54
240.691	2.1
241.073	1.34
241.456	3.59
241.838	3.95
242.221	3.48
242.603	3.76
242.986	3.45
243.368	3.65
243.75	3.84
244.133	4.25
244.515	3.74
244.897	3.42
245.279	2.87
245.661	2.65
246.043	2.75
246.425	3.55
246.807	3.43
247.189	3.88
247.571	3.47
247.953	3.76
248.335	4.07
248.717	3.84
249.098	3.78
249.48	3.64
249.862	3.75
250.243	3.56
250.625	3.55
251.006	4.71
251.388	3.55
251.769	2
252.151	3.69
252.532	2.64
252.913	3.43
253.295	3.24
253.676	4.13
254.057	3.93
254.438	4.37
254.819	3.1
255.2	3.83
255.581	3.74
255.962	3.68
256.343	3.44
256.724	3.07
257.105	2.97
257.486	2.06
257.867	2.73
258.247	3.54
258.628	3.03
259.009	2.91
259.389	2.52
259.77	3.36
260.15	3.69
260.531	3.73
260.911	3.36
261.292	3.58
261.672	3.5
262.052	3.62
262.432	3.7
262.813	3.49
263.193	4.16
263.573	3.26
263.953	3.13
264.333	3.82
264.713	3.13
265.093	3.12
265.473	3.19
265.853	3.73
266.233	3.88
266.612	3.07
266.992	3.02
267.372	3.25
267.752	3.52
268.131	3.11
268.511	3
268.89	4.03
269.27	2.72
269.649	2.75
270.029	3.05
270.408	3.5
270.787	3.49
271.167	2.79
271.546	4.31
271.925	3.48
272.304	2.78
272.683	3.02
273.062	2.97
273.441	3.04
273.82	3.16
274.199	3.14
274.578	3.58
274.957	3.42
275.336	3.64
275.715	3.47
276.093	3.25
276.472	2.36
276.851	3.24
277.229	3.27
277.608	2.98
277.986	3.6
278.365	3.35
278.743	3.26
279.122	2.88
279.5	3.29
279.878	3
280.257	3
280.635	3.24
281.013	2.75
281.391	2.72
281.769	3.71
282.147	2.44
282.525	3.07
282.903	3.18
283.281	3.35
283.659	3.48
284.037	3.14
284.415	3.26
284.792	3.57
285.17	2.63
285.548	3.02
285.925	3.01
286.303	3.53
286.68	3.45
287.058	3.35
287.435	3.01
287.813	3.36
288.19	2.95
288.567	2.92
288.945	3.1
289.322	3.3
289.699	3.56
290.076	2.99
290.453	2.8
290.83	3.54
291.207	3.15
291.584	3.02
291.961	3.36
292.338	3.16
292.715	2.73
293.092	3.41
293.469	3.19
293.845	3.44
294.222	3.38
294.599	2.8
294.975	3.03
295.352	3.51
295.728	3.24
296.105	3.52
296.481	3.3
296.858	3.11
297.234	3.06
297.61	3.15
297.986	3.93
298.363	3.58
298.739	3.67
299.115	3.55
299.491	3.53
299.867	3.31
300.243	3.28
300.619	3.04
300.995	3.82
301.371	3.61
301.746	3.14
302.122	2.78
302.498	3.19
302.874	3.6
303.249	3.76
303.625	3.24
304	3.75
304.376	3.73
304.751	3.14
305.127	2.88
305.502	3.57
305.878	3.32
306.253	3.15
306.628	3.46
307.003	3.51
307.378	3.34
307.754	3.31
308.129	2.99
308.504	3.31
308.879	3.51
309.254	3.33
309.629	3.64
310.003	3.67
310.378	3.85
310.753	3.36
311.128	3.39
311.502	3.42
311.877	3.42
312.252	3.59
312.626	3.94
313.001	3.43
313.375	3.7
313.75	3.56
314.124	3.42
314.498	4.2
314.873	2.98
315.247	3.33
315.621	3.23
315.995	3.41
316.369	3.13
316.743	3.24
317.117	3.37
317.491	4.22
317.865	3.18
318.239	3.68
318.613	3.44
318.987	3
319.361	3.89
319.734	3.31
320.108	3.38
320.482	4.09
320.855	3.45
321.229	3.21
321.602	3.71
321.976	2.72
322.349	4.1
322.723	3.31
323.096	3.37
323.469	3.23
323.843	3.26
324.216	2.89
324.589	4.01
324.962	3.31
325.335	3.21
325.708	3.54
326.081	3.36
326.454	4.07
326.827	3.48
327.2	3.14
327.573	3.93
327.945	3.04
328.318	3.07
328.691	3.94
329.063	3.56
329.436	3.05
329.809	3.62
330.181	3.57
330.553	3.68
330.926	3.75
331.298	3.54
331.671	3.86
332.043	3.65
332.415	3.94
332.787	3.72
333.159	3.36
333.532	3.74
333.904	3.49
334.276	3.99
334.648	3.77
335.02	3.6
335.391	3.63
335.763	3.6
336.135	3.63
336.507	3.12
336.879	4.03
337.25	3.61
337.622	3.77
337.993	3.49
338.365	3.77
338.736	3.77
339.108	3.74
339.479	3.38
339.851	3.95
340.222	3.67
340.593	3.55
340.964	3.45
341.336	3.71
341.707	3.6
342.078	3.56
342.449	3.71
342.82	4
343.191	3.84
343.562	3.74
343.933	3.61
344.303	3.56
344.674	3.81
345.045	3.35
345.416	4.17
345.786	3.41
346.157	3.98
346.527	3.81
346.898	3.48
347.268	3.64
347.639	3.46
348.009	3.91
348.38	3.49
348.75	3.77
349.12	3.76
349.49	3.49
349.861	3.6
350.231	3.17
350.601	3.89
350.971	3.79
351.341	3.5
351.711	3.74
352.081	3.59
352.45	3.31
352.82	3.23
353.19	3.27
353.56	3.4
353.929	3.74
354.299	4.09
354.669	3.83
355.038	3.99
355.408	3.41
355.777	3.88
356.147	3.8
356.516	3.35
356.885	3.76
357.254	3.57
357.624	3.25
357.993	3.75
358.362	3.7
358.731	3.87
359.1	3.68
359.469	3.66
359.838	3.88
360.207	3.93
360.576	4.01
360.945	3.85
361.314	3.46
361.682	3.22
362.051	3.95
362.42	3.9
362.788	3.79
363.157	3.44
363.525	3.81
363.894	3.72
364.262	3.39
364.631	3.78
364.999	3.94
365.367	3.83
365.735	3.83
366.104	3.86
366.472	3.53
366.84	3.71
367.208	3.86
367.576	3.54
367.944	3.86
368.312	3.68
368.68	4.1
369.048	3.87
369.416	3.36
369.783	3.64
370.151	4.29
370.519	4.27
370.886	3.9
371.254	4.14
371.621	4.01
371.989	4.12
372.356	4.14
372.724	3.81
373.091	3.99
373.458	3.6
373.826	3.95
374.193	4.25
374.56	3.85
374.927	3.71
375.294	4.04
375.661	3.87
376.028	3.51
376.395	3.94
376.762	3.82
377.129	3.83
377.496	3.87
377.863	3.85
378.229	4.02
378.596	3.93
378.963	4.19
379.329	3.91
379.696	3.77
380.062	4.02
380.429	3.77
380.795	4.07
381.161	3.45
381.528	3.7
381.894	3.86
382.26	3.85
382.626	4.06
382.993	4.21
383.359	3.78
383.725	3.93
384.091	4.12
384.457	3.81
384.823	3.94
385.188	4.14
385.554	4.15
385.92	3.83
386.286	3.87
386.651	3.75
387.017	4.06
387.383	3.8
387.748	4.13
388.114	4.31
388.479	4.05
388.845	3.78
389.21	4.22
389.575	4.22
389.94	4.15
390.306	4.08
390.671	4.07
391.036	4.07
391.401	4.19
391.766	4.05
392.131	4.28
392.496	4.1
392.861	4.1
393.226	3.86
393.591	4.34
393.956	4.04
394.32	4.07
394.685	4.08
395.05	4.13
395.414	3.93
395.779	4.09
396.143	3.95
396.508	4.05
396.872	4.12
397.236	4.22
397.601	4.2
397.965	4.07
398.329	4.15
398.694	3.81
399.058	4.12
399.422	4.01
399.786	3.89
400.15	3.95
400.514	4.21
400.878	3.99
401.242	3.93
401.605	4.23
401.969	4.15
402.333	3.94
402.697	4.24
403.06	4.14
403.424	4.24
403.787	4.01
404.151	4.06
404.514	4.11
404.878	3.87
405.241	4.11
405.604	4.12
405.968	4.15
406.331	4.24
406.694	4.17
407.057	3.99
407.42	4.11
407.783	4.21
408.146	4.22
408.509	4.19
408.872	4.3
409.235	4.29
409.598	4.11
409.961	4.16
410.323	4.08
410.686	4.25
411.049	4.32
411.411	4.1
411.774	4.27
412.136	4.08
412.499	4.26
412.861	3.92
413.223	4.36
413.586	4.2
413.948	4.38
414.31	4.21
414.672	4.05
415.035	4.28
415.397	4.02
415.759	4.06
416.121	4.35
416.483	4.19
416.845	4.2
417.206	4.14
417.568	3.97
417.93	4.23
418.292	4.15
418.653	4.1
419.015	4.17
419.377	4.12
419.738	4.28
420.1	4.21
420.461	4.04
420.822	4.21
421.184	4.17
421.545	4.25
421.906	4.24
422.267	4.18
422.629	4.21
422.99	4.11
423.351	4.2
423.712	4.21
424.073	4.3
424.434	4.27
424.795	4.16
425.155	4.09
425.516	4.1
425.877	4.27
426.238	4.18
426.598	4.31
426.959	4.28
427.32	4.13
427.68	4.29
428.041	4.28
428.401	4.1
428.761	4.28
429.122	4.26
429.482	4.14
429.842	4.23
430.202	4.21
430.563	4.31
430.923	4.34
431.283	4.35
431.643	4.41
432.003	4.29
432.363	4.49
432.722	4.28
433.082	4.35
433.442	4.46
433.802	4.4
434.161	4.26
434.521	4.32
434.881	4.23
435.24	4.3
435.6	4.46
435.959	4.5
436.319	4.6
436.678	4.51
437.037	4.48
437.396	4.36
437.756	4.11
438.115	4.45
438.474	4.39
438.833	4.37
439.192	4.32
439.551	4.26
439.91	4.33
440.269	4.45
440.628	4.5
440.987	4.38
441.345	4.27
441.704	4.34
442.063	4.45
442.421	4.41
442.78	4.41
443.138	4.39
443.497	4.23
443.855	4.42
444.214	4.28
444.572	4.63
444.93	4.4
445.288	4.48
445.647	4.4
446.005	4.42
446.363	4.47
446.721	4.34
447.079	4.4
447.437	4.47
447.795	4.4
448.153	4.4
448.51	4.45
448.868	4.36
449.226	4.45
449.584	4.43
449.941	4.51
450.299	4.5
450.656	4.34
451.014	4.63
451.371	4.55
451.729	4.45
452.086	4.43
452.443	4.58
452.801	4.4
453.158	4.61
453.515	4.42
453.872	4.49
454.229	4.44
454.586	4.43
454.943	4.54
455.3	4.57
455.657	4.52
456.014	4.61
456.371	4.53
456.727	4.61
457.084	4.68
457.441	4.71
457.797	4.7
458.154	4.63
458.51	4.64
458.867	4.56
459.223	4.58
459.58	4.56
459.936	4.53
460.292	4.62
460.648	4.6
461.005	4.64
461.361	4.51
461.717	4.6
462.073	4.69
462.429	4.68
462.785	4.74
463.141	4.62
463.496	4.7
463.852	4.81
464.208	4.77
464.564	4.51
464.919	4.59
465.275	4.66
465.631	4.9
465.986	4.73
466.342	4.48
466.697	4.69
467.052	4.66
467.408	4.8
467.763	4.65
468.118	4.56
468.473	4.79
468.829	4.66
469.184	4.74
469.539	4.77
469.894	4.88
470.249	4.65
470.603	4.81
470.958	4.84
471.313	4.74
471.668	4.78
472.023	4.83
472.377	4.74
472.732	4.81
473.086	4.76
473.441	4.63
473.795	4.96
474.15	4.74
474.504	4.65
474.859	4.54
475.213	4.91
475.567	4.75
475.921	4.78
476.275	4.83
476.63	4.83
476.984	4.61
477.338	4.87
477.692	4.73
478.045	4.87
478.399	4.77
478.753	4.68
479.107	4.81
479.461	4.73
479.814	4.81
480.168	4.77
480.521	5.04
480.875	4.82
481.228	4.87
481.582	4.87
481.935	4.87
482.289	5.08
482.642	5.04
482.995	4.81
483.348	4.79
483.701	4.84
484.055	4.87
484.408	4.83
484.761	4.72
485.114	4.55
485.466	4.57
485.819	4.6
486.172	4.66
486.525	4.67
486.878	4.77
487.23	4.77
487.583	4.81
487.936	4.79
488.288	4.79
488.641	4.75
488.993	4.66
489.345	4.71
489.698	4.74
490.05	4.73
490.402	4.84
490.754	4.79
491.107	4.86
491.459	4.98
491.811	5
492.163	4.96
492.515	4.82
492.866	4.78
493.218	4.83
493.57	4.9
493.922	4.88
494.274	4.98
494.625	4.98
494.977	5
495.328	5.09
495.68	4.99
496.031	5.15
496.383	5.03
496.734	4.85
497.086	5.1
497.437	5.17
497.788	5.16
498.139	5.02
498.49	5.1
498.842	5.18
499.193	4.99
499.544	5.21
499.894	5.11
500.245	5.1
500.596	5.11
500.947	5.08
501.298	5.11
501.648	5.08
501.999	5.22
502.35	4.98
502.7	5.37
503.051	5.28
503.401	5.15
503.752	5.25
504.102	5.22
504.452	5.16
504.803	5.23
505.153	5.36
505.503	5.28
505.853	5.3
506.203	5.27
506.553	5.16
506.903	5.28
507.253	5.25
507.603	5.44
507.953	5.3
508.303	5.3
508.652	5.15
509.002	5.39
509.352	5.25
509.701	5.22
510.051	5.36
510.4	5.32
510.75	5.33
511.099	5.33
511.449	5.3
511.798	5.25
512.147	5.34
512.496	5.44
512.846	5.36
513.195	5.36
513.544	5.46
513.893	5.36
514.242	5.38
514.591	5.36
514.939	5.44
515.288	5.42
515.637	5.42
515.986	5.47
516.334	5.66
516.683	5.52
517.032	5.37
517.38	5.37
517.729	5.48
518.077	5.54
518.426	5.51
518.774	5.4
519.122	5.49
519.47	5.5
519.819	5.48
520.167	5.44
520.515	5.48
520.863	5.44
521.211	5.56
521.559	5.44
521.907	5.56
522.255	5.61
522.602	5.61
522.95	5.75
523.298	5.69
523.645	5.78
523.993	5.66
524.341	5.65
524.688	5.74
525.036	5.78
525.383	5.76
525.73	5.62
526.078	5.74
526.425	5.73
526.772	5.62
527.119	5.67
527.466	5.62
527.814	5.62
528.161	5.73
528.508	5.81
528.854	5.74
529.201	5.64
529.548	5.61
529.895	5.54
530.242	5.53
530.588	5.59
530.935	5.61
531.282	5.64
531.628	5.74
531.975	5.73
532.321	5.84
532.667	5.82
533.014	5.87
533.36	5.81
533.706	5.93
534.052	5.91
534.399	5.91
534.745	5.78
535.091	5.79
535.437	5.8
535.783	5.88
536.129	5.89
536.474	5.97
536.82	6.03
537.166	5.9
537.512	6
537.857	6
538.203	6.08
538.549	6.01
538.894	6.04
539.239	6.1
539.585	6.15
539.93	6.17
540.276	6.17
540.621	6.26
540.966	6.18
541.311	6.2
541.656	6.12
542.001	6.22
542.346	6.15
542.691	6
543.036	6.06
543.381	6.11
543.726	6.19
544.071	6.21
544.415	6.2
544.76	6.24
545.105	6.25
545.449	6.29
545.794	6.3
546.138	6.33
546.483	6.46
546.827	6.37
547.171	6.6
547.516	6.54
547.86	6.48
548.204	6.48
548.548	6.54
548.892	6.47
549.236	6.45
549.58	6.59
549.924	6.66
550.268	6.73
550.612	6.61
550.956	6.75
551.3	6.9
551.643	6.77
551.987	6.77
552.33	6.91
552.674	6.65
553.017	7
553.361	6.91
553.704	6.9
554.048	6.84
554.391	6.95
554.734	6.77
555.077	6.87
555.42	6.82
555.764	6.93
556.107	7.05
556.45	7.03
556.793	7.25
557.135	7.01
557.478	7.01
557.821	7.32
558.164	7.16
558.507	6.97
558.849	7.29
559.192	6.94
559.534	7.1
559.877	7.05
560.219	7.17
560.562	7.29
560.904	7.34
561.246	7.02
561.589	7.55
561.931	7.39
562.273	7.42
562.615	7.35
562.957	7.23
563.299	7.46
563.641	7.54
563.983	7.29
564.325	7.38
564.667	7.5
565.008	7.33
565.35	7.29
565.692	7.51
566.033	7.41
566.375	7.7
566.716	7.34
567.058	7.58
567.399	7.77
567.741	7.67
568.082	7.71
568.423	7.59
568.764	7.64
569.105	7.57
569.447	7.61
569.788	7.71
570.129	7.65
570.47	7.71
570.811	7.81
571.151	7.79
571.492	7.83
571.833	7.88
572.174	8.01
572.514	7.94
572.855	8.14
573.195	7.91
573.536	8.07
573.876	7.98
574.217	7.97
574.557	7.88
574.898	7.92
575.238	8.2
575.578	8.18
575.918	8.1
576.258	8.26
576.598	8.32
576.938	8.28
577.278	8.43
577.618	8.16
577.958	8.28
578.298	8.25
578.638	8.3
578.977	8.53
579.317	8.58
579.657	8.57
579.996	8.5
580.336	8.55
580.675	8.48
581.014	8.55
581.354	8.4
581.693	8.61
582.032	8.71
582.372	8.67
582.711	8.83
583.05	8.52
583.389	8.79
583.728	9.14
584.067	8.82
584.406	8.86
584.745	8.76
585.083	8.81
585.422	9.15
585.761	9.12
586.1	9.04
586.438	9.01
586.777	8.91
587.115	9.15
587.454	9.07
587.792	9.16
588.13	8.88
588.469	9.1
588.807	9.44
589.145	9.28
589.483	8.92
589.821	9.12
590.159	9.37
590.497	9.31
590.835	9.44
591.173	9.39
591.511	9.53
591.849	9.58
592.187	9.27
592.524	9.53
592.862	9.43
593.2	9.78
593.537	9.58
593.875	9.54
594.212	9.58
594.55	9.7
594.887	9.62
595.224	9.73
595.561	9.62
595.899	9.71
596.236	10
596.573	9.68
596.91	9.85
597.247	9.77
597.584	9.97
597.921	10.05
598.258	10.08
598.594	9.89
598.931	9.78
599.268	9.89
599.604	10.15
599.941	10.11
600.277	9.95
600.614	10.07
600.95	10.03
601.287	9.8
601.623	9.98
601.959	10.63
602.296	10.4
602.632	10.32
602.968	10.41
603.304	10.33
603.64	10.59
603.976	10.31
604.312	10.44
604.648	10.63
604.984	10.7
605.319	10.65
605.655	10.43
605.991	10.78
606.326	10.59
606.662	10.41
606.998	10.85
607.333	10.66
607.668	10.53
608.004	10.62
608.339	10.6
608.674	10.99
609.01	11.21
609.345	10.89
609.68	10.82
610.015	11.03
610.35	11.17
610.685	10.71
611.02	10.74
611.355	10.95
611.689	11.05
612.024	11.15
612.359	11.26
612.694	11.54
613.028	11.15
613.363	11.41
613.697	11.42
614.032	11.29
614.366	11.26
614.7	11.5
615.035	11.35
615.369	11.42
615.703	11.42
616.037	11.74
616.371	11.45
616.705	11.75
617.039	11.66
617.373	11.85
617.707	11.62
618.041	11.68
618.375	11.18
618.709	12
619.042	11.76
619.376	12.06
619.71	11.76
620.043	12.14
620.377	12.09
620.71	11.83
621.043	12.04
621.377	12.38
621.71	12.25
622.043	12.42
622.376	12.09
622.709	12.38
623.043	12.42
623.376	12.17
623.709	12.91
624.041	12.55
624.374	12.35
624.707	12.41
625.04	12.5
625.373	12.57
625.705	12.63
626.038	12.82
626.37	12.58
626.703	12.58
627.035	12.61
627.368	12.84
627.7	12.83
628.032	12.78
628.365	12.97
628.697	13.03
629.029	12.84
629.361	13.31
629.693	12.78
630.025	12.75
630.357	12.86
630.689	12.85
631.021	13.21
631.353	13.25
631.684	12.87
632.016	13.02
632.348	13.16
632.679	13.22
633.011	13.12
633.342	13.17
633.674	12.86
634.005	13.4
634.336	13.22
634.668	13.43
634.999	13.22
635.33	13.59
635.661	13.41
635.992	13.67
636.323	13.5
636.654	13.47
636.985	13.37
637.316	13.5
637.647	13.99
637.977	13.81
638.308	13.94
638.639	13.79
638.969	13.57
639.3	13.82
639.63	13.48
639.961	14.12
640.291	13.95
640.622	13.73
640.952	14.38
641.282	13.72
641.612	14.02
641.943	13.92
642.273	14.08
642.603	14.17
642.933	14.23
643.263	14.22
643.592	14.96
643.922	14.38
644.252	14.45
644.582	14.61
644.911	14.39
645.241	14.07
645.571	14.17
645.9	14.96
646.23	14.69
646.559	14.14
646.888	15.14
647.218	14.69
647.547	15.13
647.876	14.84
648.205	14.41
648.534	14.54
648.863	14.73
649.192	14.62
649.521	15.18
649.85	15.05
650.179	15.51
650.508	15
650.837	15.11
651.165	14.85
651.494	15.01
651.822	15.64
652.151	15.28
652.479	15.12
652.808	15.22
653.136	15.3
653.465	15.26
653.793	15.37
654.121	15.77
654.449	15.37
654.777	15.15
655.105	15.3
655.433	15.8
655.761	15.9
656.089	15.39
656.417	16.12
656.745	16.19
657.073	15.81
657.4	15.52
657.728	15.39
658.056	15.61
658.383	15.76
658.711	15.98
659.038	16.46
659.365	16.23
659.693	16.31
660.02	15.68
660.347	16.04
660.674	15.86
661.001	16.23
661.329	16.17
661.656	15.82
661.982	15.92
662.309	16.06
662.636	16.21
662.963	16.24
663.29	16.3
663.616	16.22
663.943	16.51
664.27	16.36
664.596	16.3
664.923	16.46
665.249	16.93
665.576	16.51
665.902	16.34
666.228	16.4
666.554	16.88
666.881	16.37
667.207	16.3
667.533	16.83
667.859	17.05
668.185	16.77
668.511	16.73
668.837	16.89
669.162	16.83
669.488	16.45
669.814	16.7
670.139	16.42
670.465	16.85
670.791	16.69
671.116	16.82
671.442	16.4
671.767	16.62
672.092	16.93
672.418	17.65
672.743	17.04
673.068	17.03
673.393	17.07
673.718	17.02
674.043	17.16
674.368	17.12
674.693	17.52
675.018	18.06
675.343	18.39
675.667	17.19
675.992	17.98
676.317	17.13
676.641	18.12
676.966	17.84
677.29	17.66
677.615	17.48
677.939	17.82
678.264	17.98
678.588	17.83
678.912	18.04
679.236	18.08
679.56	17.68
679.885	18.38
680.209	18.44
680.532	18.44
680.856	18.27
681.18	19.28
681.504	18.45
681.828	18.27
682.152	18.58
682.475	18.24
682.799	17.94
683.122	18.48
683.446	18.14
683.769	18.7
684.093	19.33
684.416	18.12
684.739	17.51
685.062	18.57
685.386	18.81
685.709	18.72
686.032	18.69
