Data from 21-5_chest_Reflection__1__01.txt Node

Date: Thu Dec 15 16:26:06 CST 2022
User: ToomeyLab
Spectrometer: FLMS14357
Trigger mode: 0
Integration Time (sec): 1.000000E-2
Scans to average: 100
Electric dark correction enabled: true
Nonlinearity correction enabled: false
Boxcar width: 0
XAxis mode: Wavelengths
Number of Pixels in Spectrum: 2048
>>>>>Begin Spectral Data<<<<<
189.047	1245.33
189.435	1245.33
189.823	1245.33
190.211	-25.38
190.599	404.53
190.987	109.56
191.375	28.27
191.763	188.43
192.151	43.86
192.538	125.9
192.926	455.48
193.314	84.77
193.702	519.02
194.089	44.58
194.477	-22.99
194.864	15.48
195.252	82.56
195.639	192.3
196.027	141.59
196.414	107
196.801	23.17
197.189	126.23
197.576	-57.78
197.963	-68.46
198.351	22.04
198.738	4.81
199.125	-38.83
199.512	12.91
199.899	-5.66
200.286	-18.71
200.673	39.28
201.06	-32.7
201.447	29.13
201.833	17.5
202.22	14.61
202.607	14.95
202.994	-7.45
203.38	39.65
203.767	20.04
204.154	15.24
204.54	-15.25
204.927	35.21
205.313	44.16
205.699	37.05
206.086	40.27
206.472	20.4
206.858	8.92
207.245	-1.8
207.631	-16.02
208.017	44.39
208.403	-29.38
208.789	-48.82
209.175	16.99
209.561	-58.63
209.947	-7.56
210.333	14.61
210.719	29.27
211.105	26.96
211.491	34.88
211.876	14.46
212.262	19.94
212.648	36.07
213.034	-6.87
213.419	4.06
213.805	3.04
214.19	-4
214.576	21.33
214.961	4.17
215.346	4.58
215.732	-2.9
216.117	32.65
216.502	12.46
216.888	31.19
217.273	9.47
217.658	1.59
218.043	-8.62
218.428	8.58
218.813	20.64
219.198	4.74
219.583	-9.35
219.968	8.06
220.353	12.04
220.738	7.42
221.122	10.33
221.507	11.49
221.892	-5.44
222.276	-0.39
222.661	6
223.046	0.33
223.43	4.77
223.815	-0.28
224.199	6.68
224.583	1.87
224.968	4.19
225.352	9.1
225.736	8.48
226.121	4.04
226.505	-3.57
226.889	5.44
227.273	0.12
227.657	5.41
228.041	1.73
228.425	-0.67
228.809	-0.6
229.193	1.68
229.577	0.94
229.961	0.76
230.344	1.68
230.728	2.51
231.112	2.25
231.495	0.11
231.879	1.7
232.263	1.46
232.646	2.42
233.03	2.47
233.413	1.6
233.797	1.38
234.18	1.99
234.563	1.64
234.946	0.22
235.33	1.15
235.713	2.32
236.096	2.63
236.479	2.45
236.862	1.35
237.245	1.08
237.628	1.68
238.011	2.3
238.394	1.83
238.777	1.52
239.16	2.55
239.543	2.71
239.925	0.54
240.308	0.61
240.691	2.2
241.073	2.17
241.456	1.18
241.838	2.26
242.221	1.3
242.603	1.78
242.986	2
243.368	2.16
243.75	1.99
244.133	2.44
244.515	1.88
244.897	1.68
245.279	2.05
245.661	1.71
246.043	2.88
246.425	2.52
246.807	2.49
247.189	1.91
247.571	1.74
247.953	1.99
248.335	1.89
248.717	2.06
249.098	1.94
249.48	2.03
249.862	1.96
250.243	2.12
250.625	2.19
251.006	2.63
251.388	1.95
251.769	2.56
252.151	2.92
252.532	1.8
252.913	1.54
253.295	1.9
253.676	2.08
254.057	1.8
254.438	2.35
254.819	2.34
255.2	2.51
255.581	2.96
255.962	2.94
256.343	2.92
256.724	2.71
257.105	1.81
257.486	1.33
257.867	2.14
258.247	2.55
258.628	3.02
259.009	2.1
259.389	2.05
259.77	1.84
260.15	2.59
260.531	2
260.911	1.87
261.292	2.06
261.672	1.86
262.052	2.13
262.432	1.64
262.813	2.16
263.193	2.46
263.573	1.93
263.953	1.8
264.333	2.27
264.713	2.33
265.093	1.53
265.473	1.45
265.853	2.75
266.233	2.32
266.612	1.7
266.992	1.81
267.372	2.15
267.752	2.19
268.131	2.12
268.511	1.75
268.89	2.58
269.27	1.5
269.649	1.87
270.029	1.78
270.408	2.05
270.787	1.96
271.167	2.76
271.546	3.09
271.925	2.43
272.304	1.91
272.683	1.94
273.062	1.92
273.441	1.85
273.82	2.09
274.199	1.72
274.578	2.18
274.957	1.95
275.336	1.97
275.715	2.48
276.093	1.87
276.472	1.63
276.851	1.45
277.229	2
277.608	1.83
277.986	2.13
278.365	2.27
278.743	2.04
279.122	1.54
279.5	1.79
279.878	1.94
280.257	2.05
280.635	2.66
281.013	2.05
281.391	1.97
281.769	2.6
282.147	1.92
282.525	1.49
282.903	1.64
283.281	2.21
283.659	2.22
284.037	1.82
284.415	1.97
284.792	2.35
285.17	1.76
285.548	1.78
285.925	1.8
286.303	2.27
286.68	1.88
287.058	1.99
287.435	1.93
287.813	1.85
288.19	1.76
288.567	1.8
288.945	1.6
289.322	2.52
289.699	2.21
290.076	2.28
290.453	1.92
290.83	2.26
291.207	1.84
291.584	2.3
291.961	1.82
292.338	1.8
292.715	2.15
293.092	2.35
293.469	2.1
293.845	2.07
294.222	2.45
294.599	2.28
294.975	2.36
295.352	2.04
295.728	2.49
296.105	2.25
296.481	2.27
296.858	2.17
297.234	2
297.61	2.34
297.986	2.78
298.363	2.66
298.739	2.51
299.115	2.11
299.491	2.56
299.867	2.41
300.243	2.24
300.619	2.17
300.995	2.32
301.371	2.65
301.746	2.53
302.122	2.19
302.498	2.15
302.874	2.58
303.249	2.34
303.625	2.34
304	2.79
304.376	2.77
304.751	2.47
305.127	2.32
305.502	2.43
305.878	2.94
306.253	2.54
306.628	2.83
307.003	2.87
307.378	2.6
307.754	1.97
308.129	2.73
308.504	2.84
308.879	2.93
309.254	2.96
309.629	2.85
310.003	2.75
310.378	3.04
310.753	2.84
311.128	2.76
311.502	2.66
311.877	2.76
312.252	2.88
312.626	3.04
313.001	2.91
313.375	2.95
313.75	2.98
314.124	3.12
314.498	3.15
314.873	2.65
315.247	2.83
315.621	2.91
315.995	2.73
316.369	2.65
316.743	2.55
317.117	2.97
317.491	2.62
317.865	2.36
318.239	3.04
318.613	3.22
318.987	2.42
319.361	3.03
319.734	3.18
320.108	2.87
320.482	3.16
320.855	3.19
321.229	3.18
321.602	3.22
321.976	2.61
322.349	4.01
322.723	3.58
323.096	3.27
323.469	3.02
323.843	2.71
324.216	3.36
324.589	3.06
324.962	3.14
325.335	2.78
325.708	3.1
326.081	2.84
326.454	3.19
326.827	3.15
327.2	2.65
327.573	3.15
327.945	2.86
328.318	2.98
328.691	3.09
329.063	3.03
329.436	2.67
329.809	3.71
330.181	3.66
330.553	3.2
330.926	3.24
331.298	3.01
331.671	3.26
332.043	2.82
332.415	2.98
332.787	3.35
333.159	3
333.532	3.42
333.904	3.2
334.276	3.29
334.648	3.06
335.02	3.45
335.391	2.96
335.763	3.6
336.135	3.37
336.507	3.07
336.879	3.42
337.25	3.65
337.622	3.65
337.993	3.2
338.365	3.55
338.736	2.83
339.108	3.6
339.479	2.97
339.851	3.63
340.222	3.26
340.593	3.29
340.964	3.69
341.336	2.99
341.707	3.01
342.078	2.75
342.449	3.25
342.82	3.27
343.191	3.19
343.562	3.5
343.933	3.15
344.303	3.18
344.674	3.36
345.045	3.09
345.416	3.5
345.786	3.15
346.157	3.29
346.527	3.26
346.898	2.82
347.268	3.51
347.639	2.89
348.009	3.37
348.38	2.95
348.75	3.47
349.12	3.62
349.49	3.15
349.861	3.29
350.231	3.21
350.601	3.28
350.971	3.09
351.341	3.22
351.711	3.47
352.081	2.91
352.45	3.04
352.82	2.93
353.19	3.48
353.56	3.06
353.929	3.33
354.299	3.32
354.669	3.25
355.038	3.14
355.408	3.24
355.777	3.65
356.147	3.04
356.516	2.95
356.885	3.34
357.254	2.93
357.624	3.18
357.993	3.51
358.362	3.47
358.731	3.48
359.1	3.13
359.469	3.37
359.838	3.33
360.207	3.43
360.576	3.49
360.945	3.31
361.314	3.41
361.682	3.02
362.051	3.11
362.42	3.11
362.788	3.38
363.157	3.15
363.525	3.22
363.894	3.2
364.262	3.23
364.631	3.42
364.999	3.3
365.367	3.31
365.735	3.15
366.104	3.31
366.472	3.2
366.84	3.35
367.208	3.6
367.576	3.31
367.944	3.34
368.312	3.62
368.68	3.48
369.048	3.26
369.416	3.14
369.783	3.37
370.151	3.79
370.519	3.88
370.886	3.61
371.254	3.65
371.621	3.41
371.989	3.51
372.356	3.37
372.724	3.13
373.091	3.27
373.458	3.27
373.826	3.6
374.193	3.41
374.56	3.13
374.927	3.26
375.294	3.58
375.661	3.5
376.028	3.42
376.395	3.79
376.762	3.41
377.129	3.36
377.496	3.53
377.863	3.37
378.229	3.51
378.596	3.61
378.963	3.59
379.329	3.37
379.696	3.22
380.062	3.44
380.429	3.26
380.795	3.61
381.161	3.25
381.528	3.15
381.894	3.26
382.26	3.51
382.626	3.47
382.993	3.69
383.359	3.54
383.725	3.37
384.091	3.29
384.457	3.32
384.823	3.56
385.188	3.41
385.554	3.47
385.92	3.45
386.286	3.56
386.651	3.46
387.017	3.47
387.383	3.47
387.748	3.57
388.114	3.45
388.479	3.53
388.845	3.33
389.21	3.56
389.575	3.65
389.94	3.97
390.306	3.59
390.671	3.51
391.036	3.54
391.401	3.64
391.766	3.57
392.131	3.8
392.496	3.67
392.861	3.38
393.226	3.39
393.591	3.46
393.956	3.62
394.32	3.71
394.685	3.64
395.05	3.68
395.414	3.76
395.779	3.73
396.143	3.39
396.508	3.59
396.872	3.51
397.236	3.81
397.601	3.68
397.965	3.48
398.329	3.74
398.694	3.4
399.058	3.76
399.422	3.93
399.786	3.7
400.15	3.6
400.514	3.61
400.878	3.52
401.242	3.68
401.605	3.64
401.969	3.59
402.333	3.76
402.697	3.75
403.06	3.55
403.424	3.69
403.787	3.68
404.151	3.87
404.514	3.74
404.878	3.54
405.241	3.72
405.604	3.52
405.968	3.69
406.331	3.78
406.694	3.67
407.057	3.61
407.42	3.62
407.783	3.8
408.146	3.57
408.509	3.85
408.872	3.68
409.235	3.87
409.598	3.78
409.961	3.72
410.323	3.79
410.686	3.74
411.049	3.71
411.411	3.65
411.774	3.63
412.136	3.51
412.499	3.67
412.861	3.45
413.223	3.65
413.586	3.84
413.948	3.84
414.31	3.85
414.672	3.76
415.035	4.03
415.397	3.65
415.759	3.56
416.121	3.9
416.483	3.82
416.845	3.64
417.206	3.64
417.568	3.7
417.93	3.79
418.292	3.47
418.653	3.45
419.015	3.51
419.377	3.65
419.738	3.68
420.1	3.61
420.461	3.55
420.822	3.72
421.184	3.59
421.545	3.75
421.906	3.72
422.267	3.61
422.629	3.56
422.99	3.54
423.351	3.6
423.712	3.62
424.073	3.71
424.434	3.69
424.795	3.62
425.155	3.53
425.516	3.59
425.877	3.61
426.238	3.6
426.598	3.7
426.959	3.69
427.32	3.63
427.68	3.76
428.041	3.77
428.401	3.77
428.761	4
429.122	3.92
429.482	3.8
429.842	3.78
430.202	3.91
430.563	3.98
430.923	3.91
431.283	4.03
431.643	3.99
432.003	3.9
432.363	3.97
432.722	3.72
433.082	3.9
433.442	4.02
433.802	3.88
434.161	3.82
434.521	3.9
434.881	3.95
435.24	3.85
435.6	4.05
435.959	3.87
436.319	3.93
436.678	4.15
437.037	4.03
437.396	4
437.756	3.93
438.115	3.88
438.474	3.97
438.833	4.14
439.192	3.9
439.551	3.92
439.91	3.9
440.269	4
440.628	4.06
440.987	3.87
441.345	3.9
441.704	3.84
442.063	3.79
442.421	3.99
442.78	4.04
443.138	3.9
443.497	3.93
443.855	4.03
444.214	3.88
444.572	4.01
444.93	3.99
445.288	4.08
445.647	3.97
446.005	4.03
446.363	3.93
446.721	4.11
447.079	3.89
447.437	3.91
447.795	4.01
448.153	3.93
448.51	3.92
448.868	3.89
449.226	3.97
449.584	3.9
449.941	4
450.299	4.03
450.656	4.03
451.014	4.16
451.371	4.18
451.729	4.08
452.086	3.98
452.443	4.22
452.801	4.23
453.158	4.33
453.515	4.16
453.872	4.05
454.229	4.01
454.586	3.98
454.943	4.22
455.3	4.09
455.657	4.12
456.014	4.15
456.371	4.22
456.727	4.36
457.084	4.23
457.441	4.07
457.797	4.24
458.154	4.3
458.51	4.29
458.867	4.21
459.223	4.12
459.58	4.27
459.936	4.11
460.292	4.18
460.648	4.16
461.005	4.13
461.361	4.12
461.717	4.11
462.073	4.18
462.429	4.27
462.785	4.39
463.141	4.37
463.496	4.36
463.852	4.38
464.208	4.24
464.564	4.35
464.919	4.34
465.275	4.37
465.631	4.46
465.986	4.45
466.342	4.25
466.697	4.43
467.052	4.46
467.408	4.48
467.763	4.2
468.118	4.4
468.473	4.45
468.829	4.36
469.184	4.45
469.539	4.38
469.894	4.48
470.249	4.39
470.603	4.55
470.958	4.42
471.313	4.56
471.668	4.37
472.023	4.6
472.377	4.43
472.732	4.59
473.086	4.41
473.441	4.36
473.795	4.64
474.15	4.46
474.504	4.41
474.859	4.26
475.213	4.56
475.567	4.49
475.921	4.5
476.275	4.59
476.63	4.6
476.984	4.48
477.338	4.64
477.692	4.57
478.045	4.65
478.399	4.54
478.753	4.56
479.107	4.56
479.461	4.6
479.814	4.53
480.168	4.57
480.521	4.67
480.875	4.62
481.228	4.62
481.582	4.55
481.935	4.66
482.289	4.63
482.642	4.65
482.995	4.61
483.348	4.49
483.701	4.55
484.055	4.43
484.408	4.48
484.761	4.4
485.114	4.32
485.466	4.28
485.819	4.27
486.172	4.31
486.525	4.4
486.878	4.41
487.23	4.48
487.583	4.55
487.936	4.57
488.288	4.5
488.641	4.45
488.993	4.41
489.345	4.43
489.698	4.47
490.05	4.43
490.402	4.52
490.754	4.51
491.107	4.5
491.459	4.66
491.811	4.67
492.163	4.71
492.515	4.51
492.866	4.46
493.218	4.52
493.57	4.57
493.922	4.58
494.274	4.67
494.625	4.83
494.977	4.79
495.328	4.88
495.68	4.81
496.031	4.84
496.383	4.78
496.734	4.91
497.086	4.95
497.437	4.96
497.788	4.93
498.139	4.76
498.49	4.81
498.842	4.89
499.193	4.79
499.544	4.89
499.894	4.89
500.245	4.91
500.596	4.91
500.947	4.93
501.298	4.99
501.648	4.9
501.999	4.95
502.35	4.83
502.7	5.07
503.051	4.97
503.401	5.1
503.752	5.02
504.102	4.93
504.452	4.97
504.803	5.07
505.153	5.01
505.503	5.07
505.853	5.13
506.203	5.13
506.553	4.96
506.903	5.12
507.253	5.14
507.603	5.12
507.953	5.12
508.303	5.1
508.652	4.98
509.002	5.1
509.352	5.16
509.701	5.06
510.051	5.22
510.4	5.11
510.75	5.07
511.099	5.03
511.449	5.12
511.798	5.12
512.147	5.07
512.496	5.24
512.846	5.18
513.195	5.14
513.544	5.29
513.893	5.25
514.242	5.31
514.591	5.19
514.939	5.27
515.288	5.37
515.637	5.24
515.986	5.4
516.334	5.42
516.683	5.29
517.032	5.34
517.38	5.36
517.729	5.41
518.077	5.38
518.426	5.35
518.774	5.32
519.122	5.34
519.47	5.35
519.819	5.38
520.167	5.39
520.515	5.31
520.863	5.34
521.211	5.35
521.559	5.32
521.907	5.4
522.255	5.48
522.602	5.48
522.95	5.54
523.298	5.48
523.645	5.51
523.993	5.61
524.341	5.54
524.688	5.55
525.036	5.63
525.383	5.66
525.73	5.5
526.078	5.55
526.425	5.54
526.772	5.52
527.119	5.55
527.466	5.65
527.814	5.59
528.161	5.64
528.508	5.64
528.854	5.61
529.201	5.56
529.548	5.55
529.895	5.47
530.242	5.45
530.588	5.46
530.935	5.5
531.282	5.49
531.628	5.54
531.975	5.66
532.321	5.72
532.667	5.65
533.014	5.75
533.36	5.79
533.706	5.8
534.052	5.81
534.399	5.74
534.745	5.71
535.091	5.65
535.437	5.78
535.783	5.85
536.129	5.76
536.474	5.92
536.82	6
537.166	5.82
537.512	5.91
537.857	5.95
538.203	5.9
538.549	5.91
538.894	6
539.239	6.02
539.585	6.18
539.93	6.18
540.276	6.14
540.621	6.18
540.966	6.24
541.311	6.18
541.656	6.15
542.001	6.12
542.346	6.12
542.691	5.96
543.036	6
543.381	6.04
543.726	6.09
544.071	6.11
544.415	6.23
544.76	6.18
545.105	6.26
545.449	6.26
545.794	6.26
546.138	6.37
546.483	6.36
546.827	6.3
547.171	6.42
547.516	6.36
547.86	6.44
548.204	6.48
548.548	6.52
548.892	6.47
549.236	6.45
549.58	6.54
549.924	6.62
550.268	6.68
550.612	6.73
550.956	6.81
551.3	6.94
551.643	6.86
551.987	6.93
552.33	6.88
552.674	6.74
553.017	7.06
553.361	6.91
553.704	6.97
554.048	6.87
554.391	6.9
554.734	6.93
555.077	6.95
555.42	6.92
555.764	6.96
556.107	7.06
556.45	6.96
556.793	7.22
557.135	7.17
557.478	7.15
557.821	7.16
558.164	7.24
558.507	7.13
558.849	7.24
559.192	7.21
559.534	7.18
559.877	7.18
560.219	7.28
560.562	7.13
560.904	7.52
561.246	7.26
561.589	7.47
561.931	7.3
562.273	7.36
562.615	7.4
562.957	7.49
563.299	7.5
563.641	7.61
563.983	7.47
564.325	7.54
564.667	7.46
565.008	7.47
565.35	7.34
565.692	7.74
566.033	7.58
566.375	7.69
566.716	7.44
567.058	7.54
567.399	7.79
567.741	7.73
568.082	7.55
568.423	7.65
568.764	7.69
569.105	7.63
569.447	7.7
569.788	7.7
570.129	7.84
570.47	7.94
570.811	7.75
571.151	7.83
571.492	7.93
571.833	7.97
572.174	8.04
572.514	8.05
572.855	8.13
573.195	7.81
573.536	8.07
573.876	7.94
574.217	8.07
574.557	7.93
574.898	8.07
575.238	7.97
575.578	8.12
575.918	8.22
576.258	8.21
576.598	8.2
576.938	8.11
577.278	8.18
577.618	8.24
577.958	8.44
578.298	8.26
578.638	8.44
578.977	8.58
579.317	8.59
579.657	8.23
579.996	8.63
580.336	8.57
580.675	8.65
581.014	8.65
581.354	8.5
581.693	8.75
582.032	8.77
582.372	8.77
582.711	8.77
583.05	8.72
583.389	8.86
583.728	8.96
584.067	8.8
584.406	8.93
584.745	8.74
585.083	8.98
585.422	9.02
585.761	9.17
586.1	9.27
586.438	8.87
586.777	8.97
587.115	9.29
587.454	9.12
587.792	9.13
588.13	9.16
588.469	9.18
588.807	9.34
589.145	9.38
589.483	9.3
589.821	9.33
590.159	9.5
590.497	9.3
590.835	9.31
591.173	9.42
591.511	9.52
591.849	9.49
592.187	9.28
592.524	9.61
592.862	9.52
593.2	9.56
593.537	9.51
593.875	9.55
594.212	9.81
594.55	9.74
594.887	9.66
595.224	9.87
595.561	9.65
595.899	9.74
596.236	10.07
596.573	9.82
596.91	9.85
597.247	9.93
597.584	10.07
597.921	9.84
598.258	9.8
598.594	9.89
598.931	9.66
599.268	9.65
599.604	9.89
599.941	10.14
600.277	10.19
600.614	10.3
600.95	10.16
601.287	10.15
601.623	9.94
601.959	10.54
602.296	10.39
602.632	10.13
602.968	10.36
603.304	10.42
603.64	10.36
603.976	10.33
604.312	10.26
604.648	10.59
604.984	10.42
605.319	10.39
605.655	10.48
605.991	10.35
606.326	10.54
606.662	10.31
606.998	10.54
607.333	10.51
607.668	10.75
608.004	10.68
608.339	10.69
608.674	11.06
609.01	10.99
609.345	10.87
609.68	10.85
610.015	10.9
610.35	11.12
610.685	10.53
611.02	10.79
611.355	10.88
611.689	10.83
612.024	11.01
612.359	11.42
612.694	11.25
613.028	10.95
613.363	11.22
613.697	11.45
614.032	11.46
614.366	11.49
614.7	11.45
615.035	11.45
615.369	11.75
615.703	11.73
616.037	11.45
616.371	11.48
616.705	11.61
617.039	11.46
617.373	11.97
617.707	11.7
618.041	11.62
618.375	11.19
618.709	11.79
619.042	11.97
619.376	12.06
619.71	11.79
620.043	11.93
620.377	11.79
620.71	12.27
621.043	12.26
621.377	12.02
621.71	12.4
622.043	12.24
622.376	12.07
622.709	12.54
623.043	12.19
623.376	12.29
623.709	12.47
624.041	12.36
624.374	12.22
624.707	12.67
625.04	12.28
625.373	12.23
625.705	12.45
626.038	12.57
626.37	12.64
626.703	12.61
627.035	12.47
627.368	12.72
627.7	12.44
628.032	12.46
628.365	12.79
628.697	12.66
629.029	12.61
629.361	12.87
629.693	12.94
630.025	12.8
630.357	12.91
630.689	13.03
631.021	13.09
631.353	13.19
631.684	12.94
632.016	12.86
632.348	13.08
632.679	13.38
633.011	13.33
633.342	13.37
633.674	13.11
634.005	13.47
634.336	13.41
634.668	13.62
634.999	13.46
635.33	13.68
635.661	13.42
635.992	13.43
636.323	13.4
636.654	13.37
636.985	13.62
637.316	13.59
637.647	13.9
637.977	13.72
638.308	13.94
638.639	13.76
638.969	13.72
639.3	13.87
639.63	13.64
639.961	13.98
640.291	13.91
640.622	14.25
640.952	14.3
641.282	13.87
641.612	14.02
641.943	13.95
642.273	14.28
642.603	14.48
642.933	14.45
643.263	14.5
643.592	14.19
643.922	14.6
644.252	14.28
644.582	14.5
644.911	14.62
645.241	14.53
645.571	14.81
645.9	14.68
646.23	15.1
646.559	14.84
646.888	15
647.218	14.75
647.547	14.55
647.876	14.88
648.205	14.77
648.534	14.83
648.863	14.63
649.192	15.14
649.521	14.93
649.85	14.96
650.179	15.09
650.508	15
650.837	15.5
651.165	15.12
651.494	15.44
651.822	15
652.151	15.22
652.479	15.61
652.808	15.43
653.136	15.1
653.465	15.29
653.793	15.49
654.121	15.13
654.449	15.42
654.777	15.24
655.105	15.49
655.433	15.97
655.761	15.66
656.089	15.81
656.417	15.96
656.745	16.25
657.073	15.77
657.4	15.88
657.728	15.33
658.056	15.94
658.383	16.52
658.711	16.26
659.038	16.51
659.365	16.36
659.693	15.94
660.02	15.93
660.347	16.19
660.674	16.03
661.001	16.15
661.329	15.99
661.656	15.89
661.982	16.44
662.309	16.34
662.636	15.98
662.963	16.62
663.29	16.79
663.616	16.5
663.943	16.44
664.27	16.52
664.596	16.59
664.923	16.68
665.249	16.96
665.576	16.52
665.902	16.96
666.228	16.93
666.554	17.71
666.881	17.13
667.207	16.81
667.533	17.22
667.859	17.24
668.185	16.58
668.511	17.23
668.837	17.16
669.162	17.2
669.488	16.93
669.814	16.98
670.139	16.97
670.465	17.55
670.791	16.98
671.116	17.3
671.442	16.64
671.767	16.82
672.092	17.32
672.418	17.34
672.743	17.52
673.068	17.36
673.393	17.84
673.718	17.48
674.043	17.62
674.368	17.6
674.693	18.21
675.018	17.62
675.343	18.09
675.667	17.94
675.992	17.69
676.317	17.47
676.641	18.3
676.966	18.54
677.29	18.31
677.615	17.87
677.939	18.22
678.264	17.57
678.588	18.56
678.912	17.97
679.236	18.7
679.56	18.52
679.885	18.61
680.209	19.23
680.532	18.97
680.856	18.94
681.18	19.08
681.504	19.03
681.828	18.19
682.152	18.8
682.475	18.43
682.799	18.41
683.122	19
683.446	18.48
683.769	19.25
684.093	19.38
684.416	18.96
684.739	18.91
685.062	18.56
685.386	19.33
685.709	19.84
686.032	19.18
686.355	19.09
686.678	20.13
687.001	19.48
