Data from 21-5_forehead_Reflection__2__12.txt Node

Date: Thu Dec 15 16:30:09 CST 2022
User: ToomeyLab
Spectrometer: FLMS14357
Trigger mode: 0
Integration Time (sec): 1.000000E-2
Scans to average: 100
Electric dark correction enabled: true
Nonlinearity correction enabled: false
Boxcar width: 0
XAxis mode: Wavelengths
Number of Pixels in Spectrum: 2048
>>>>>Begin Spectral Data<<<<<
189.047	-248.67
189.435	-248.67
189.823	-248.67
190.211	-178.17
190.599	474.6
190.987	296.24
191.375	-137.93
191.763	116.3
192.151	131.16
192.538	79.12
192.926	174.01
193.314	107.17
193.702	-158.59
194.089	-2.04
194.477	95.78
194.864	131.03
195.252	76.42
195.639	185.9
196.027	-174.04
196.414	7.87
196.801	60.27
197.189	-4.67
197.576	195.98
197.963	-0.25
198.351	46.12
198.738	-9.92
199.125	1.38
199.512	45.54
199.899	15.95
200.286	12.03
200.673	38.75
201.06	-13.93
201.447	6.95
201.833	12.25
202.22	20.3
202.607	9.19
202.994	9.73
203.38	66.45
203.767	-3.59
204.154	31.27
204.54	11.75
204.927	2.38
205.313	34.93
205.699	37.34
206.086	32.07
206.472	28.02
206.858	0.56
207.245	24.84
207.631	-2.69
208.017	31.75
208.403	-18.72
208.789	24.7
209.175	25.38
209.561	-35.35
209.947	13.86
210.333	24.61
210.719	27.77
211.105	27.91
211.491	40.43
211.876	-26.1
212.262	18.92
212.648	16.92
213.034	5.21
213.419	11.84
213.805	-3.7
214.19	-9.36
214.576	26.73
214.961	15.82
215.346	23.42
215.732	4.53
216.117	23.34
216.502	12.65
216.888	18.11
217.273	11.16
217.658	7.76
218.043	1
218.428	13
218.813	29.34
219.198	-10.55
219.583	12.61
219.968	18.5
220.353	10.66
220.738	14.51
221.122	9.58
221.507	9.59
221.892	6.08
222.276	-14.3
222.661	-5.27
223.046	-5.03
223.43	12.02
223.815	10.13
224.199	-2.13
224.583	3.88
224.968	3.09
225.352	-0.58
225.736	13.26
226.121	0.07
226.505	1.68
226.889	0.42
227.273	3.81
227.657	4.62
228.041	6.85
228.425	2.25
228.809	1.89
229.193	1.41
229.577	1.97
229.961	1.52
230.344	2.16
230.728	2.11
231.112	2.13
231.495	0.83
231.879	2.31
232.263	2.85
232.646	1.74
233.03	3.47
233.413	2.74
233.797	-0.03
234.18	2.66
234.563	3.46
234.946	2.37
235.33	2.55
235.713	2.01
236.096	2.3
236.479	3.62
236.862	2.29
237.245	1.05
237.628	2.42
238.011	2.01
238.394	1.91
238.777	4.96
239.16	4.06
239.543	3.55
239.925	1.61
240.308	1.19
240.691	1.79
241.073	1.98
241.456	3.43
241.838	1.68
242.221	2.43
242.603	1.9
242.986	2.08
243.368	1.75
243.75	2.33
244.133	2.09
244.515	2.12
244.897	2.13
245.279	2.06
245.661	2.15
246.043	2.21
246.425	3.32
246.807	2.44
247.189	2.4
247.571	1.83
247.953	1.92
248.335	1.76
248.717	1.87
249.098	2.05
249.48	1.88
249.862	1.96
250.243	2.32
250.625	1.82
251.006	2.49
251.388	2.36
251.769	1.22
252.151	2.57
252.532	2.09
252.913	2.04
253.295	1.86
253.676	2.29
254.057	1.68
254.438	2.56
254.819	2.67
255.2	2.94
255.581	3.88
255.962	2.61
256.343	3.22
256.724	1.7
257.105	1.97
257.486	1.27
257.867	1.64
258.247	2.31
258.628	2.32
259.009	2.23
259.389	1.62
259.77	1.52
260.15	2.77
260.531	2.39
260.911	1.86
261.292	1.87
261.672	1.74
262.052	1.97
262.432	1.81
262.813	1.97
263.193	2.09
263.573	2.09
263.953	0.98
264.333	2.59
264.713	2.06
265.093	2.1
265.473	1.63
265.853	2.83
266.233	2.34
266.612	1.3
266.992	2.34
267.372	2.17
267.752	2.07
268.131	1.76
268.511	2.32
268.89	2.77
269.27	1.57
269.649	1.57
270.029	1.51
270.408	2.09
270.787	1.92
271.167	2.13
271.546	2.6
271.925	2.3
272.304	2.21
272.683	1.85
273.062	1.9
273.441	1.77
273.82	2.01
274.199	2.17
274.578	1.89
274.957	1.82
275.336	2.26
275.715	2.07
276.093	1.66
276.472	1.08
276.851	2.11
277.229	2.1
277.608	1.48
277.986	1.81
278.365	2.56
278.743	1.97
279.122	1.72
279.5	1.72
279.878	1.73
280.257	1.87
280.635	2.08
281.013	1.4
281.391	2.02
281.769	2.34
282.147	1.92
282.525	1.33
282.903	1.45
283.281	2.41
283.659	2.15
284.037	1.81
284.415	1.78
284.792	1.5
285.17	2.12
285.548	1.58
285.925	1.58
286.303	2.11
286.68	2.18
287.058	1.91
287.435	1.72
287.813	1.89
288.19	1.59
288.567	2
288.945	1.8
289.322	1.95
289.699	2.09
290.076	1.9
290.453	2.09
290.83	2.38
291.207	1.5
291.584	1.79
291.961	1.87
292.338	1.85
292.715	1.69
293.092	2.23
293.469	1.96
293.845	2.2
294.222	2.71
294.599	1.92
294.975	1.48
295.352	2.82
295.728	2.2
296.105	2.07
296.481	1.83
296.858	2.32
297.234	2.15
297.61	2.56
297.986	2.61
298.363	2.04
298.739	2.29
299.115	2.27
299.491	2.43
299.867	2.27
300.243	2.42
300.619	2.37
300.995	2.35
301.371	2.25
301.746	2.59
302.122	1.92
302.498	2.55
302.874	2.66
303.249	2.54
303.625	2.03
304	2.56
304.376	3.02
304.751	2.6
305.127	2.44
305.502	2.77
305.878	2.91
306.253	2.7
306.628	2.68
307.003	2.68
307.378	2.6
307.754	2.74
308.129	2.98
308.504	3.15
308.879	3.05
309.254	3.06
309.629	2.7
310.003	2.93
310.378	3.13
310.753	3.12
311.128	2.5
311.502	2.94
311.877	2.81
312.252	2.85
312.626	3.31
313.001	2.77
313.375	2.99
313.75	3.04
314.124	3.41
314.498	3.49
314.873	3.06
315.247	3.43
315.621	3.19
315.995	2.7
316.369	2.82
316.743	3.12
317.117	3.04
317.491	3.36
317.865	2.89
318.239	3.52
318.613	3.24
318.987	3.25
319.361	3.25
319.734	3.53
320.108	3.01
320.482	3.6
320.855	3.2
321.229	3.06
321.602	3.83
321.976	2.83
322.349	4.42
322.723	3.39
323.096	3.34
323.469	3.15
323.843	3.44
324.216	3.31
324.589	3.71
324.962	3.33
325.335	3.55
325.708	4.04
326.081	3.73
326.454	4.14
326.827	3.66
327.2	3.15
327.573	3.96
327.945	3.67
328.318	3.44
328.691	3.8
329.063	3.49
329.436	3.53
329.809	4.06
330.181	4.42
330.553	4.06
330.926	3.77
331.298	3.76
331.671	3.93
332.043	3.58
332.415	4.15
332.787	4.14
333.159	3.56
333.532	4.12
333.904	3.87
334.276	3.78
334.648	3.93
335.02	3.75
335.391	3.94
335.763	4
336.135	3.98
336.507	3.76
336.879	3.98
337.25	4.01
337.622	4.38
337.993	4.2
338.365	3.97
338.736	4.09
339.108	4
339.479	4.21
339.851	4.09
340.222	4.51
340.593	3.92
340.964	4.15
341.336	3.93
341.707	4.26
342.078	3.73
342.449	4.03
342.82	4.09
343.191	4.17
343.562	4.49
343.933	3.8
344.303	4.36
344.674	4.2
345.045	4.11
345.416	4.37
345.786	3.95
346.157	4.01
346.527	4.09
346.898	4.03
347.268	4.39
347.639	4.23
348.009	4.16
348.38	4.04
348.75	4.26
349.12	4.34
349.49	4.42
349.861	4.38
350.231	4.25
350.601	4.39
350.971	4.23
351.341	4.33
351.711	4.49
352.081	4.22
352.45	4.26
352.82	4.3
353.19	4.2
353.56	4.41
353.929	4.32
354.299	4.23
354.669	4.71
355.038	4.57
355.408	4.55
355.777	4.54
356.147	4.6
356.516	4.23
356.885	4.56
357.254	4.21
357.624	4.1
357.993	4.65
358.362	4.48
358.731	4.91
359.1	4.42
359.469	4.66
359.838	4.5
360.207	4.95
360.576	4.88
360.945	4.63
361.314	4.31
361.682	4.27
362.051	4.45
362.42	4.66
362.788	4.64
363.157	4.39
363.525	4.67
363.894	4.23
364.262	4.38
364.631	4.76
364.999	4.86
365.367	4.61
365.735	4.52
366.104	4.78
366.472	4.73
366.84	4.77
367.208	4.71
367.576	4.8
367.944	4.66
368.312	4.71
368.68	4.87
369.048	4.58
369.416	4.5
369.783	4.76
370.151	4.89
370.519	5.14
370.886	5.23
371.254	5.32
371.621	4.98
371.989	5.03
372.356	4.79
372.724	4.74
373.091	4.88
373.458	4.92
373.826	4.91
374.193	4.95
374.56	5.23
374.927	4.83
375.294	5.12
375.661	5.05
376.028	5.1
376.395	5.14
376.762	4.68
377.129	4.84
377.496	4.96
377.863	5.05
378.229	5.18
378.596	5.07
378.963	5.29
379.329	5.2
379.696	4.88
380.062	5.19
380.429	4.91
380.795	5.08
381.161	4.79
381.528	5
381.894	5.08
382.26	5.04
382.626	5.01
382.993	5.15
383.359	5.13
383.725	5.07
384.091	5.1
384.457	5.05
384.823	5.14
385.188	5.45
385.554	4.86
385.92	4.7
386.286	5.21
386.651	5.4
387.017	5.18
387.383	4.99
387.748	5.16
388.114	4.97
388.479	4.92
388.845	4.77
389.21	5.35
389.575	5.33
389.94	5.19
390.306	5.47
390.671	5.18
391.036	5.11
391.401	5.25
391.766	5.01
392.131	5.41
392.496	5.1
392.861	4.83
393.226	4.69
393.591	5.04
393.956	5.19
394.32	5.12
394.685	4.99
395.05	5.15
395.414	4.97
395.779	5.15
396.143	4.75
396.508	4.99
396.872	5.01
397.236	5.25
397.601	5.2
397.965	5.2
398.329	4.82
398.694	4.9
399.058	5
399.422	5.02
399.786	4.78
400.15	4.92
400.514	5.01
400.878	4.72
401.242	4.93
401.605	4.92
401.969	4.87
402.333	4.84
402.697	5.09
403.06	4.7
403.424	4.98
403.787	4.8
404.151	5.08
404.514	4.76
404.878	4.81
405.241	4.81
405.604	4.83
405.968	4.86
406.331	4.66
406.694	4.7
407.057	4.64
407.42	4.51
407.783	4.71
408.146	4.75
408.509	4.75
408.872	4.73
409.235	4.75
409.598	4.66
409.961	4.74
410.323	4.7
410.686	4.57
411.049	4.86
411.411	4.56
411.774	4.59
412.136	4.44
412.499	4.84
412.861	4.41
413.223	4.6
413.586	4.7
413.948	4.61
414.31	4.71
414.672	4.62
415.035	4.85
415.397	4.49
415.759	4.43
416.121	4.76
416.483	4.79
416.845	4.84
417.206	4.75
417.568	4.75
417.93	4.73
418.292	4.68
418.653	4.63
419.015	4.87
419.377	4.58
419.738	4.75
420.1	4.77
420.461	4.79
420.822	4.86
421.184	4.84
421.545	4.97
421.906	4.88
422.267	4.78
422.629	4.88
422.99	4.86
423.351	4.92
423.712	5.02
424.073	5.11
424.434	5.27
424.795	5.12
425.155	5.17
425.516	5.12
425.877	5.24
426.238	5.24
426.598	5.35
426.959	5.38
427.32	5.43
427.68	5.44
428.041	5.62
428.401	5.58
428.761	5.69
429.122	5.87
429.482	5.81
429.842	5.79
430.202	5.96
430.563	6.07
430.923	6.05
431.283	6.09
431.643	6.26
432.003	6.21
432.363	6.21
432.722	6.28
433.082	6.12
433.442	6.29
433.802	6.22
434.161	6.27
434.521	6.39
434.881	6.32
435.24	6.41
435.6	6.49
435.959	6.55
436.319	6.63
436.678	6.76
437.037	6.69
437.396	6.64
437.756	6.62
438.115	6.83
438.474	6.78
438.833	6.91
439.192	6.75
439.551	6.69
439.91	6.97
440.269	6.91
440.628	6.99
440.987	6.85
441.345	7.05
441.704	7
442.063	6.92
442.421	7.12
442.78	7.14
443.138	7.28
443.497	7.16
443.855	7.34
444.214	7.27
444.572	7.51
444.93	7.38
445.288	7.42
445.647	7.38
446.005	7.32
446.363	7.4
446.721	7.46
447.079	7.37
447.437	7.45
447.795	7.41
448.153	7.4
448.51	7.5
448.868	7.45
449.226	7.65
449.584	7.59
449.941	7.69
450.299	7.79
450.656	7.83
451.014	7.81
451.371	8
451.729	7.9
452.086	8.05
452.443	8.26
452.801	8.04
453.158	8.2
453.515	8.01
453.872	8.16
454.229	8.05
454.586	8.11
454.943	8.28
455.3	8.31
455.657	8.37
456.014	8.28
456.371	8.38
456.727	8.5
457.084	8.49
457.441	8.45
457.797	8.63
458.154	8.45
458.51	8.47
458.867	8.5
459.223	8.52
459.58	8.62
459.936	8.62
460.292	8.57
460.648	8.39
461.005	8.39
461.361	8.52
461.717	8.6
462.073	8.81
462.429	8.75
462.785	9.05
463.141	8.94
463.496	8.95
463.852	9
464.208	9.13
464.564	9.1
464.919	9.08
465.275	9.23
465.631	9.44
465.986	9.36
466.342	9.06
466.697	9.24
467.052	9.44
467.408	9.6
467.763	9.28
468.118	9.44
468.473	9.5
468.829	9.29
469.184	9.45
469.539	9.35
469.894	9.59
470.249	9.59
470.603	9.76
470.958	9.74
471.313	9.78
471.668	9.68
472.023	9.95
472.377	9.8
472.732	9.86
473.086	9.87
473.441	9.82
473.795	10.12
474.15	9.91
474.504	9.95
474.859	9.73
475.213	9.95
475.567	9.78
475.921	9.95
476.275	10.11
476.63	10.14
476.984	10.06
477.338	10.1
477.692	10.17
478.045	10.17
478.399	10.25
478.753	10.17
479.107	10.15
479.461	10.16
479.814	10.25
480.168	10.17
480.521	10.43
480.875	10.32
481.228	10.36
481.582	10.39
481.935	10.6
482.289	10.29
482.642	10.46
482.995	10.28
483.348	10.23
483.701	10.4
484.055	10.23
484.408	10.15
484.761	9.97
485.114	9.81
485.466	9.73
485.819	9.85
486.172	10
486.525	10.18
486.878	10.38
487.23	10.41
487.583	10.48
487.936	10.49
488.288	10.35
488.641	10.25
488.993	10.15
489.345	10.21
489.698	10.29
490.05	10.37
490.402	10.54
490.754	10.66
491.107	10.69
491.459	10.88
491.811	10.84
492.163	10.89
492.515	10.72
492.866	10.51
493.218	10.44
493.57	10.62
493.922	10.8
494.274	10.96
494.625	11.07
494.977	11.22
495.328	11.3
495.68	11.32
496.031	11.35
496.383	11.34
496.734	11.43
497.086	11.5
497.437	11.5
497.788	11.44
498.139	11.29
498.49	11.38
498.842	11.48
499.193	11.41
499.544	11.44
499.894	11.56
500.245	11.58
500.596	11.65
500.947	11.63
501.298	11.63
501.648	11.71
501.999	11.87
502.35	11.66
502.7	11.9
503.051	11.82
503.401	12.02
503.752	11.79
504.102	11.98
504.452	11.79
504.803	11.94
505.153	12.09
505.503	11.94
505.853	11.98
506.203	12.11
506.553	12.03
506.903	12.14
507.253	12.07
507.603	12.24
507.953	12.17
508.303	12.18
508.652	12.15
509.002	12.17
509.352	12.18
509.701	11.97
510.051	12.2
510.4	12.19
510.75	12.03
511.099	11.98
511.449	12.14
511.798	12.11
512.147	12.19
512.496	12.22
512.846	12.18
513.195	12.2
513.544	12.26
513.893	12.25
514.242	12.31
514.591	12.35
514.939	12.53
515.288	12.43
515.637	12.35
515.986	12.38
516.334	12.43
516.683	12.34
517.032	12.44
517.38	12.5
517.729	12.47
518.077	12.58
518.426	12.62
518.774	12.44
519.122	12.35
519.47	12.33
519.819	12.19
520.167	12.13
520.515	12.23
520.863	12.26
521.211	12.34
521.559	12.35
521.907	12.54
522.255	12.52
522.602	12.66
522.95	12.68
523.298	12.6
523.645	12.74
523.993	12.66
524.341	12.85
524.688	12.74
525.036	12.75
525.383	12.76
525.73	12.68
526.078	12.68
526.425	12.57
526.772	12.44
527.119	12.38
527.466	12.35
527.814	12.49
528.161	12.58
528.508	12.65
528.854	12.57
529.201	12.37
529.548	12.2
529.895	12.04
530.242	12
530.588	12.13
530.935	12.32
531.282	12.36
531.628	12.45
531.975	12.59
532.321	12.68
532.667	12.91
533.014	12.89
533.36	12.83
533.706	12.77
534.052	12.75
534.399	12.56
534.745	12.44
535.091	12.42
535.437	12.56
535.783	12.77
536.129	12.82
536.474	13.02
536.82	13.05
537.166	13.1
537.512	13.02
537.857	12.95
538.203	13.02
538.549	12.9
538.894	13.08
539.239	13.18
539.585	13.4
539.93	13.43
540.276	13.35
540.621	13.72
540.966	13.59
541.311	13.51
541.656	13.32
542.001	13.31
542.346	13.02
542.691	12.89
543.036	12.91
543.381	12.97
543.726	13.19
544.071	13.27
544.415	13.37
544.76	13.25
545.105	13.35
545.449	13.54
545.794	13.75
546.138	13.69
546.483	13.85
546.827	13.7
547.171	13.78
547.516	13.73
547.86	13.86
548.204	13.82
548.548	13.78
548.892	13.85
549.236	13.92
549.58	14.02
549.924	14.3
550.268	14.22
550.612	14.38
550.956	14.64
551.3	14.52
551.643	14.29
551.987	14.57
552.33	14.53
552.674	14.54
553.017	14.7
553.361	14.49
553.704	14.45
554.048	14.41
554.391	14.43
554.734	14.48
555.077	14.45
555.42	14.46
555.764	14.64
556.107	14.95
556.45	14.8
556.793	15.07
557.135	14.88
557.478	14.89
557.821	14.84
558.164	14.97
558.507	14.83
558.849	14.97
559.192	14.97
559.534	15.04
559.877	15.03
560.219	15.23
560.562	15.11
560.904	15.31
561.246	14.96
561.589	15.09
561.931	15.25
562.273	15.17
562.615	15.17
562.957	15.05
563.299	15.13
563.641	15.23
563.983	15.09
564.325	15.29
564.667	15.31
565.008	15.31
565.35	15.43
565.692	15.29
566.033	15.42
566.375	15.38
566.716	15.24
567.058	15.36
567.399	15.33
567.741	15.45
568.082	15.33
568.423	15.47
568.764	15.46
569.105	15.57
569.447	15.71
569.788	15.79
570.129	15.69
570.47	15.72
570.811	15.75
571.151	15.89
571.492	15.81
571.833	15.91
572.174	15.94
572.514	15.87
572.855	15.88
573.195	15.83
573.536	15.83
573.876	15.86
574.217	15.89
574.557	16.05
574.898	15.95
575.238	16.06
575.578	16.16
575.918	16.28
576.258	16.33
576.598	16.17
576.938	16.17
577.278	16.23
577.618	16.48
577.958	16.55
578.298	16.43
578.638	16.52
578.977	16.61
579.317	16.6
579.657	16.6
579.996	16.83
580.336	16.68
580.675	16.75
581.014	16.84
581.354	16.62
581.693	16.99
582.032	17.24
582.372	17.07
582.711	16.98
583.05	17.1
583.389	17.39
583.728	17.26
584.067	17.34
584.406	17.04
584.745	17.25
585.083	17.52
585.422	17.5
585.761	17.47
586.1	17.66
586.438	17.29
586.777	17.54
587.115	17.76
587.454	17.35
587.792	17.6
588.13	17.78
588.469	17.85
588.807	17.79
589.145	17.77
589.483	17.69
589.821	17.68
590.159	17.89
590.497	17.62
590.835	17.77
591.173	17.95
591.511	18.09
591.849	17.96
592.187	17.7
592.524	18
592.862	17.97
593.2	17.9
593.537	18.08
593.875	18.28
594.212	18.41
594.55	18.39
594.887	18.25
595.224	18.47
595.561	18.26
595.899	18.46
596.236	18.56
596.573	18.33
596.91	18.47
597.247	18.61
597.584	18.42
597.921	18.25
598.258	18.36
598.594	18.45
598.931	18.42
599.268	18.41
599.604	18.77
599.941	18.65
600.277	18.86
600.614	18.97
600.95	18.88
601.287	18.92
601.623	18.97
601.959	19.3
602.296	19.14
602.632	19.09
602.968	19.15
603.304	19.19
603.64	19.17
603.976	19.14
604.312	19.08
604.648	19.16
604.984	19.21
605.319	19.08
605.655	19.14
605.991	18.97
606.326	19.12
606.662	19.04
606.998	19.46
607.333	19.44
607.668	19.42
608.004	19.59
608.339	19.68
608.674	19.82
609.01	20.22
609.345	19.76
609.68	19.61
610.015	20.06
610.35	19.81
610.685	19.68
611.02	19.58
611.355	19.83
611.689	19.88
612.024	20.32
612.359	19.98
612.694	20.19
613.028	20.14
613.363	20.3
613.697	20.42
614.032	20.33
614.366	20.42
614.7	20.13
615.035	20.44
615.369	20.69
615.703	20.47
616.037	20.73
616.371	21.09
616.705	20.73
617.039	20.69
617.373	21.1
617.707	20.71
618.041	20.83
618.375	20.34
618.709	21.14
619.042	20.89
619.376	20.85
619.71	21.09
620.043	21.57
620.377	21.4
620.71	21.12
621.043	21.06
621.377	21.5
621.71	21.49
622.043	21.16
622.376	21.2
622.709	21.39
623.043	21.8
623.376	21.21
623.709	22.07
624.041	21.56
624.374	21.87
624.707	21.7
625.04	21.5
625.373	21.89
625.705	21.97
626.038	21.75
626.37	21.81
626.703	22.01
627.035	21.64
627.368	22.01
627.7	21.95
628.032	21.68
628.365	21.79
628.697	22.08
629.029	21.87
629.361	22.17
629.693	22.28
630.025	22.07
630.357	22.24
630.689	22.42
631.021	22.5
631.353	22.34
631.684	21.94
632.016	22.14
632.348	22.25
632.679	22.6
633.011	22.63
633.342	22.78
633.674	22.25
634.005	22.85
634.336	22.52
634.668	22.5
634.999	22.5
635.33	22.84
635.661	22.73
635.992	22.66
636.323	22.83
636.654	22.72
636.985	23
637.316	22.81
637.647	23.14
637.977	23.09
638.308	23.22
638.639	23.38
638.969	22.84
639.3	23.29
639.63	23.33
639.961	23.1
640.291	23.42
640.622	23.45
640.952	23.83
641.282	23.25
641.612	23.15
641.943	23.61
642.273	23.55
642.603	23.49
642.933	24.13
643.263	24
643.592	23.71
643.922	23.88
644.252	24.01
644.582	24.3
644.911	24.37
645.241	24.08
645.571	24.45
645.9	24
646.23	24.04
646.559	24.04
646.888	24.66
647.218	24.34
647.547	24.1
647.876	24.29
648.205	24.37
648.534	24.54
648.863	24.47
649.192	24.78
649.521	24.57
649.85	24.66
650.179	24.5
650.508	24.44
650.837	25.07
651.165	24.59
651.494	25.24
651.822	25.02
652.151	24.54
652.479	24.59
652.808	24.84
653.136	24.62
653.465	24.65
653.793	24.78
654.121	25.09
654.449	25.06
654.777	24.36
655.105	25.53
655.433	25.64
655.761	25.12
656.089	25.45
656.417	25.14
656.745	25.69
657.073	25.3
657.4	25.77
657.728	25
658.056	25.43
658.383	25.94
658.711	25.61
659.038	26.36
659.365	25.86
659.693	25.32
660.02	25.65
660.347	25.19
660.674	25.42
661.001	25.96
661.329	25.36
661.656	25.58
661.982	25.69
662.309	25.93
662.636	25.93
662.963	26.19
663.29	26.18
663.616	26.29
663.943	26.07
664.27	26.33
664.596	25.79
664.923	26.46
665.249	26.81
665.576	26.12
665.902	26.57
666.228	26.51
666.554	26.78
666.881	26
667.207	26.5
667.533	26.51
667.859	26.55
668.185	26.44
668.511	26.86
668.837	26.6
669.162	26.33
669.488	26.97
669.814	27.04
670.139	26.19
670.465	27.26
670.791	26.84
671.116	27.08
671.442	26.63
671.767	27.34
672.092	27.05
672.418	27.28
672.743	27.51
673.068	26.93
673.393	27.45
673.718	26.7
674.043	27.47
674.368	27.62
674.693	27.58
675.018	27.84
675.343	27.9
675.667	27.57
675.992	27.29
676.317	27.37
676.641	28.14
676.966	28.25
677.29	27.63
677.615	27.36
677.939	27.33
678.264	28.06
678.588	28.8
678.912	28.19
679.236	28.12
