Data from 21-5_crown_Reflection__1__06.txt Node

Date: Thu Dec 15 16:28:38 CST 2022
User: ToomeyLab
Spectrometer: FLMS14357
Trigger mode: 0
Integration Time (sec): 1.000000E-2
Scans to average: 100
Electric dark correction enabled: true
Nonlinearity correction enabled: false
Boxcar width: 0
XAxis mode: Wavelengths
Number of Pixels in Spectrum: 2048
>>>>>Begin Spectral Data<<<<<
189.047	-1754.67
189.435	-1754.67
189.823	-1754.67
190.211	-89.82
190.599	488.03
190.987	177.68
191.375	124.37
191.763	261.18
192.151	219.13
192.538	24.76
192.926	90.44
193.314	134.8
193.702	-223.31
194.089	-60.69
194.477	-30.98
194.864	39.31
195.252	23.35
195.639	172.71
196.027	95.81
196.414	148.75
196.801	-30.66
197.189	140.19
197.576	51.85
197.963	64.06
198.351	15.97
198.738	7.88
199.125	-5.36
199.512	29.87
199.899	4.24
200.286	-33.83
200.673	25.22
201.06	14.46
201.447	6.71
201.833	12.94
202.22	34.79
202.607	-34.97
202.994	22.85
203.38	57.5
203.767	-9.07
204.154	22
204.54	43.89
204.927	8.1
205.313	30.8
205.699	13.56
206.086	34.38
206.472	23.78
206.858	9.21
207.245	4.1
207.631	25.33
208.017	45.77
208.403	-23.09
208.789	41.16
209.175	0.72
209.561	-11.69
209.947	8.54
210.333	10.25
210.719	30.58
211.105	26.47
211.491	34.52
211.876	11.42
212.262	20.6
212.648	33.64
213.034	6.54
213.419	26.93
213.805	-7.84
214.19	5.08
214.576	16.5
214.961	34.05
215.346	4.33
215.732	30.28
216.117	32.17
216.502	-0.03
216.888	13.89
217.273	19.65
217.658	22.91
218.043	0.8
218.428	15.09
218.813	15.85
219.198	15.85
219.583	10.8
219.968	10.66
220.353	3.94
220.738	22.77
221.122	14.14
221.507	13.63
221.892	-4.41
222.276	-3.94
222.661	7.66
223.046	2.11
223.43	19.01
223.815	12.84
224.199	17.53
224.583	4.45
224.968	9.38
225.352	6.63
225.736	12.93
226.121	0.94
226.505	10.39
226.889	4.39
227.273	5.82
227.657	11
228.041	7.65
228.425	5.16
228.809	6.18
229.193	7.32
229.577	7.45
229.961	7.64
230.344	7.36
230.728	8.12
231.112	7.68
231.495	6.02
231.879	8.05
232.263	7.59
232.646	7.49
233.03	9.43
233.413	7.65
233.797	6.4
234.18	6.09
234.563	5.63
234.946	7.61
235.33	7.45
235.713	7.31
236.096	7.45
236.479	9.14
236.862	6.44
237.245	5.97
237.628	6.75
238.011	6.44
238.394	7
238.777	8.35
239.16	9.5
239.543	8.33
239.925	7.74
240.308	6.51
240.691	7.98
241.073	7.14
241.456	7.64
241.838	7.75
242.221	7.47
242.603	7.81
242.986	7.61
243.368	7.16
243.75	7.65
244.133	7.81
244.515	7.53
244.897	7.34
245.279	7.74
245.661	8.09
246.043	7.96
246.425	7.71
246.807	7.15
247.189	7.29
247.571	7.09
247.953	7.38
248.335	7.47
248.717	7.76
249.098	7.44
249.48	7.34
249.862	7.58
250.243	7.51
250.625	7.88
251.006	8.4
251.388	7.74
251.769	7.4
252.151	7.18
252.532	7.86
252.913	7.13
253.295	7.43
253.676	7.42
254.057	7.48
254.438	7.69
254.819	8.01
255.2	8.05
255.581	8.05
255.962	7.81
256.343	8.38
256.724	8.73
257.105	7.63
257.486	7.11
257.867	7.78
258.247	8.19
258.628	7.24
259.009	8.06
259.389	7.16
259.77	6.78
260.15	7.56
260.531	7.42
260.911	7.22
261.292	7.3
261.672	7.16
262.052	7.26
262.432	7
262.813	7.13
263.193	7.4
263.573	7.4
263.953	6.82
264.333	7.35
264.713	7.77
265.093	6.46
265.473	7.01
265.853	7.4
266.233	7.56
266.612	7.12
266.992	7.1
267.372	7.48
267.752	7.44
268.131	6.94
268.511	6.88
268.89	7.77
269.27	6.52
269.649	6.59
270.029	6.81
270.408	6.8
270.787	7.13
271.167	7.14
271.546	7.78
271.925	7.4
272.304	6.83
272.683	6.54
273.062	6.87
273.441	6.38
273.82	6.59
274.199	6.48
274.578	6.61
274.957	6.62
275.336	6.62
275.715	7.14
276.093	6.33
276.472	6.71
276.851	6.84
277.229	6.46
277.608	6.42
277.986	6.59
278.365	7.15
278.743	6.87
279.122	6.5
279.5	6.45
279.878	6.89
280.257	6.78
280.635	6.5
281.013	6.45
281.391	6.77
281.769	7.58
282.147	6.33
282.525	6.54
282.903	6.5
283.281	7.17
283.659	6.83
284.037	6.65
284.415	6.65
284.792	6.97
285.17	6.53
285.548	6.53
285.925	6.47
286.303	6.98
286.68	6.6
287.058	6.76
287.435	6.31
287.813	6.69
288.19	6.56
288.567	6.68
288.945	7.1
289.322	6.89
289.699	7.13
290.076	6.47
290.453	6.99
290.83	7
291.207	6.81
291.584	6.98
291.961	6.94
292.338	6.92
292.715	6.68
293.092	7.21
293.469	7.44
293.845	7.14
294.222	7.45
294.599	7.05
294.975	6.85
295.352	7.51
295.728	7.22
296.105	7.22
296.481	7.4
296.858	7.32
297.234	7.29
297.61	7.25
297.986	7.65
298.363	7.38
298.739	7.57
299.115	7.45
299.491	7.77
299.867	7.45
300.243	7.49
300.619	7.33
300.995	7.49
301.371	7.98
301.746	7.71
302.122	7.44
302.498	7.83
302.874	7.7
303.249	7.65
303.625	7.39
304	7.77
304.376	7.91
304.751	7.49
305.127	7.8
305.502	8.15
305.878	8.01
306.253	7.57
306.628	7.75
307.003	7.73
307.378	7.64
307.754	7.86
308.129	7.68
308.504	8.19
308.879	8.04
309.254	8.09
309.629	7.98
310.003	7.39
310.378	8.03
310.753	7.66
311.128	7.52
311.502	7.52
311.877	7.57
312.252	7.84
312.626	7.96
313.001	7.74
313.375	7.88
313.75	7.78
314.124	8.17
314.498	8.63
314.873	7.54
315.247	8.07
315.621	7.41
315.995	7.49
316.369	7.5
316.743	7.96
317.117	7.85
317.491	7.98
317.865	7.39
318.239	8.15
318.613	7.97
318.987	7.9
319.361	8.22
319.734	7.84
320.108	8.16
320.482	8
320.855	7.73
321.229	8
321.602	8.37
321.976	7.31
322.349	8.69
322.723	8.07
323.096	8.52
323.469	7.93
323.843	7.6
324.216	7.94
324.589	7.84
324.962	7.86
325.335	7.61
325.708	8.22
326.081	8
326.454	8.04
326.827	8.12
327.2	7.61
327.573	8.25
327.945	7.68
328.318	7.83
328.691	7.77
329.063	8.06
329.436	7.48
329.809	8.07
330.181	8.1
330.553	8.48
330.926	8.24
331.298	8.17
331.671	7.84
332.043	7.54
332.415	7.5
332.787	7.69
333.159	7.96
333.532	8.01
333.904	8.15
334.276	7.89
334.648	7.62
335.02	7.92
335.391	7.84
335.763	8.06
336.135	7.93
336.507	7.53
336.879	7.92
337.25	8.08
337.622	8.67
337.993	7.73
338.365	7.92
338.736	7.71
339.108	8.16
339.479	8.02
339.851	7.75
340.222	7.94
340.593	7.87
340.964	7.62
341.336	7.67
341.707	7.64
342.078	7.34
342.449	7.49
342.82	8
343.191	7.58
343.562	7.81
343.933	7.62
344.303	8.06
344.674	7.84
345.045	7.81
345.416	8.38
345.786	7.77
346.157	7.78
346.527	7.87
346.898	7.47
347.268	7.88
347.639	7.7
348.009	8.15
348.38	7.75
348.75	8.17
349.12	7.89
349.49	7.73
349.861	7.86
350.231	7.85
350.601	7.55
350.971	7.89
351.341	7.79
351.711	7.77
352.081	7.19
352.45	7.53
352.82	7.4
353.19	7.73
353.56	7.72
353.929	7.83
354.299	7.62
354.669	8.01
355.038	7.79
355.408	7.74
355.777	8.01
356.147	7.65
356.516	7.59
356.885	7.69
357.254	7.49
357.624	7.34
357.993	7.75
358.362	7.63
358.731	7.91
359.1	7.43
359.469	7.92
359.838	7.83
360.207	7.66
360.576	7.61
360.945	7.68
361.314	7.76
361.682	7.48
362.051	7.53
362.42	7.49
362.788	7.69
363.157	7.53
363.525	7.49
363.894	7.4
364.262	7.81
364.631	7.63
364.999	7.65
365.367	7.52
365.735	7.36
366.104	7.42
366.472	7.63
366.84	7.72
367.208	7.64
367.576	7.92
367.944	7.61
368.312	7.46
368.68	7.99
369.048	7.81
369.416	7.63
369.783	7.57
370.151	7.96
370.519	7.57
370.886	7.71
371.254	7.76
371.621	7.9
371.989	7.73
372.356	7.68
372.724	7.49
373.091	7.67
373.458	7.44
373.826	7.93
374.193	7.76
374.56	7.79
374.927	7.85
375.294	7.87
375.661	7.83
376.028	7.74
376.395	7.71
376.762	7.51
377.129	7.32
377.496	7.87
377.863	7.65
378.229	8.08
378.596	7.88
378.963	7.75
379.329	7.72
379.696	7.57
380.062	7.82
380.429	7.33
380.795	7.58
381.161	7.58
381.528	7.86
381.894	7.65
382.26	7.78
382.626	7.75
382.993	7.8
383.359	7.57
383.725	7.56
384.091	7.73
384.457	7.41
384.823	8.01
385.188	7.83
385.554	7.72
385.92	7.61
386.286	7.89
386.651	7.66
387.017	7.86
387.383	7.42
387.748	7.91
388.114	8.05
388.479	7.7
388.845	7.36
389.21	8.04
389.575	8.02
389.94	8.03
390.306	7.75
390.671	8.04
391.036	7.78
391.401	7.78
391.766	7.68
392.131	7.81
392.496	7.91
392.861	7.68
393.226	7.63
393.591	7.69
393.956	7.71
394.32	7.86
394.685	7.86
395.05	7.8
395.414	7.65
395.779	7.75
396.143	7.64
396.508	7.54
396.872	7.85
397.236	7.78
397.601	7.88
397.965	7.79
398.329	7.7
398.694	7.75
399.058	7.76
399.422	7.66
399.786	7.54
400.15	7.85
400.514	7.89
400.878	7.77
401.242	7.76
401.605	7.9
401.969	7.61
402.333	7.61
402.697	7.85
403.06	7.82
403.424	7.88
403.787	7.89
404.151	7.92
404.514	8.04
404.878	7.67
405.241	7.72
405.604	7.76
405.968	7.88
406.331	7.81
406.694	7.74
407.057	7.73
407.42	7.83
407.783	7.89
408.146	7.64
408.509	7.82
408.872	7.73
409.235	7.84
409.598	7.82
409.961	7.85
410.323	7.72
410.686	7.72
411.049	7.83
411.411	7.72
411.774	7.98
412.136	7.72
412.499	8.15
412.861	7.78
413.223	7.85
413.586	7.93
413.948	8.23
414.31	7.93
414.672	7.8
415.035	8.04
415.397	7.86
415.759	7.76
416.121	8.03
416.483	7.93
416.845	8.01
417.206	7.81
417.568	7.84
417.93	7.77
418.292	7.81
418.653	7.72
419.015	7.67
419.377	7.82
419.738	7.79
420.1	7.85
420.461	7.81
420.822	7.79
421.184	7.78
421.545	7.88
421.906	7.79
422.267	7.6
422.629	7.68
422.99	7.63
423.351	7.69
423.712	7.76
424.073	7.82
424.434	7.89
424.795	7.81
425.155	7.71
425.516	7.66
425.877	7.69
426.238	7.76
426.598	7.79
426.959	7.88
427.32	7.86
427.68	7.91
428.041	7.88
428.401	8.02
428.761	7.99
429.122	7.96
429.482	7.91
429.842	8.07
430.202	8.07
430.563	8.01
430.923	8.14
431.283	8.22
431.643	8.1
432.003	8
432.363	8.06
432.722	8.02
433.082	8.02
433.442	8.25
433.802	8.01
434.161	7.91
434.521	8.1
434.881	8
435.24	8.06
435.6	8.11
435.959	8.07
436.319	8.18
436.678	8.15
437.037	8.11
437.396	8.36
437.756	8.06
438.115	8.04
438.474	8.13
438.833	8.04
439.192	8.06
439.551	7.93
439.91	8.19
440.269	8.23
440.628	7.95
440.987	8.07
441.345	8
441.704	8.03
442.063	7.97
442.421	7.94
442.78	8.04
443.138	8.01
443.497	8.03
443.855	8.11
444.214	7.95
444.572	8.36
444.93	8.04
445.288	8.07
445.647	8.08
446.005	8.16
446.363	8.12
446.721	8.14
447.079	8.11
447.437	7.99
447.795	8.1
448.153	8
448.51	8.11
448.868	8.16
449.226	8.15
449.584	8.18
449.941	8.21
450.299	8.2
450.656	8.25
451.014	8.42
451.371	8.28
451.729	8.24
452.086	8.2
452.443	8.43
452.801	8.26
453.158	8.37
453.515	8.27
453.872	8.47
454.229	8.07
454.586	8.23
454.943	8.34
455.3	8.43
455.657	8.39
456.014	8.31
456.371	8.34
456.727	8.54
457.084	8.42
457.441	8.39
457.797	8.43
458.154	8.49
458.51	8.27
458.867	8.36
459.223	8.36
459.58	8.5
459.936	8.32
460.292	8.33
460.648	8.29
461.005	8.19
461.361	8.23
461.717	8.25
462.073	8.34
462.429	8.39
462.785	8.48
463.141	8.48
463.496	8.55
463.852	8.57
464.208	8.39
464.564	8.45
464.919	8.42
465.275	8.5
465.631	8.67
465.986	8.62
466.342	8.63
466.697	8.52
467.052	8.57
467.408	8.72
467.763	8.6
468.118	8.61
468.473	8.61
468.829	8.52
469.184	8.63
469.539	8.6
469.894	8.8
470.249	8.69
470.603	8.78
470.958	8.77
471.313	8.71
471.668	8.71
472.023	8.74
472.377	8.74
472.732	8.76
473.086	8.72
473.441	8.71
473.795	9.05
474.15	8.75
474.504	8.73
474.859	8.48
475.213	8.77
475.567	8.71
475.921	8.92
476.275	8.85
476.63	8.76
476.984	8.53
477.338	8.94
477.692	8.79
478.045	8.86
478.399	8.77
478.753	8.75
479.107	8.83
479.461	8.81
479.814	8.8
480.168	8.78
480.521	8.72
480.875	8.9
481.228	8.86
481.582	8.83
481.935	8.89
482.289	8.78
482.642	8.9
482.995	8.77
483.348	8.61
483.701	8.76
484.055	8.63
484.408	8.68
484.761	8.49
485.114	8.34
485.466	8.3
485.819	8.31
486.172	8.44
486.525	8.51
486.878	8.63
487.23	8.6
487.583	8.65
487.936	8.64
488.288	8.67
488.641	8.58
488.993	8.51
489.345	8.48
489.698	8.52
490.05	8.6
490.402	8.66
490.754	8.72
491.107	8.69
491.459	8.86
491.811	8.87
492.163	8.82
492.515	8.77
492.866	8.59
493.218	8.61
493.57	8.7
493.922	8.74
494.274	8.83
494.625	8.88
494.977	8.94
495.328	9.1
495.68	9.03
496.031	9.18
496.383	9.02
496.734	9.08
497.086	9.12
497.437	9.14
497.788	9.2
498.139	9.03
498.49	9.08
498.842	9.15
499.193	9.04
499.544	9.06
499.894	9.04
500.245	9.17
500.596	9.15
500.947	9.14
501.298	9.16
501.648	9.23
501.999	9.18
502.35	9.27
502.7	9.33
503.051	9.21
503.401	9.3
503.752	9.22
504.102	9.3
504.452	9.3
504.803	9.29
505.153	9.4
505.503	9.36
505.853	9.37
506.203	9.38
506.553	9.36
506.903	9.29
507.253	9.3
507.603	9.53
507.953	9.33
508.303	9.29
508.652	9.32
509.002	9.45
509.352	9.24
509.701	9.31
510.051	9.27
510.4	9.41
510.75	9.23
511.099	9.29
511.449	9.4
511.798	9.35
512.147	9.27
512.496	9.4
512.846	9.31
513.195	9.4
513.544	9.43
513.893	9.47
514.242	9.47
514.591	9.4
514.939	9.53
515.288	9.49
515.637	9.45
515.986	9.44
516.334	9.55
516.683	9.54
517.032	9.48
517.38	9.53
517.729	9.51
518.077	9.42
518.426	9.6
518.774	9.5
519.122	9.52
519.47	9.44
519.819	9.45
520.167	9.36
520.515	9.44
520.863	9.44
521.211	9.47
521.559	9.49
521.907	9.57
522.255	9.55
522.602	9.65
522.95	9.78
523.298	9.77
523.645	9.69
523.993	9.72
524.341	9.7
524.688	9.65
525.036	9.54
525.383	9.76
525.73	9.65
526.078	9.71
526.425	9.65
526.772	9.57
527.119	9.59
527.466	9.64
527.814	9.6
528.161	9.71
528.508	9.7
528.854	9.61
529.201	9.42
529.548	9.36
529.895	9.26
530.242	9.33
530.588	9.35
530.935	9.42
531.282	9.44
531.628	9.52
531.975	9.53
532.321	9.64
532.667	9.68
533.014	9.73
533.36	9.77
533.706	9.75
534.052	9.74
534.399	9.63
534.745	9.54
535.091	9.58
535.437	9.65
535.783	9.65
536.129	9.74
536.474	9.88
536.82	9.88
537.166	9.75
537.512	9.74
537.857	9.81
538.203	9.8
538.549	9.82
538.894	9.8
539.239	9.89
539.585	10.01
539.93	10.04
540.276	10.09
540.621	10.08
540.966	10.1
541.311	10.04
541.656	9.89
542.001	9.9
542.346	9.78
542.691	9.77
543.036	9.73
543.381	9.78
543.726	9.91
544.071	9.89
544.415	9.86
544.76	10.01
545.105	9.99
545.449	10.06
545.794	10.1
546.138	10.04
546.483	10.25
546.827	10.1
547.171	10.21
547.516	10.23
547.86	10.3
548.204	10.1
548.548	10.14
548.892	10.23
549.236	10.24
549.58	10.44
549.924	10.45
550.268	10.59
550.612	10.52
550.956	10.45
551.3	10.75
551.643	10.56
551.987	10.51
552.33	10.63
552.674	10.52
553.017	10.56
553.361	10.57
553.704	10.52
554.048	10.42
554.391	10.57
554.734	10.4
555.077	10.6
555.42	10.5
555.764	10.65
556.107	10.75
556.45	10.77
556.793	10.87
557.135	10.82
557.478	10.7
557.821	10.8
558.164	10.68
558.507	10.65
558.849	10.93
559.192	10.72
559.534	10.87
559.877	10.83
560.219	10.97
560.562	10.75
560.904	10.76
561.246	10.91
561.589	11.03
561.931	10.83
562.273	10.87
562.615	10.77
562.957	10.83
563.299	10.78
563.641	10.88
563.983	10.79
564.325	10.93
564.667	11.01
565.008	10.81
565.35	10.87
565.692	10.94
566.033	11.07
566.375	10.85
566.716	10.75
567.058	10.94
567.399	10.81
567.741	10.86
568.082	10.9
568.423	10.84
568.764	11.03
569.105	10.93
569.447	10.89
569.788	10.99
570.129	10.93
570.47	11.15
570.811	11.04
571.151	10.98
571.492	11.16
571.833	11.05
572.174	11.05
572.514	11.12
572.855	11.24
573.195	10.94
573.536	11.19
573.876	11.04
574.217	10.9
574.557	11.13
574.898	11.01
575.238	11.28
575.578	11.21
575.918	11.2
576.258	11.27
576.598	11.09
576.938	11.22
577.278	11.25
577.618	11.21
577.958	11.27
578.298	11.25
578.638	11.1
578.977	11.38
579.317	11.42
579.657	11.33
579.996	11.18
580.336	11.25
580.675	11.42
581.014	11.34
581.354	11.31
581.693	11.73
582.032	11.41
582.372	11.62
582.711	11.7
583.05	11.38
583.389	11.8
583.728	11.54
584.067	11.5
584.406	11.52
584.745	11.46
585.083	11.46
585.422	11.67
585.761	11.65
586.1	11.7
586.438	11.6
586.777	11.56
587.115	11.66
587.454	11.53
587.792	11.67
588.13	11.54
588.469	11.59
588.807	11.84
589.145	11.8
589.483	11.69
589.821	11.72
590.159	11.75
590.497	11.71
590.835	11.78
591.173	11.76
591.511	11.73
591.849	11.93
592.187	11.65
592.524	11.96
592.862	11.72
593.2	11.87
593.537	11.68
593.875	11.55
594.212	11.94
594.55	11.95
594.887	11.97
595.224	12.14
595.561	11.86
595.899	12.02
596.236	12.18
596.573	11.82
596.91	12.08
597.247	12.2
597.584	11.91
597.921	11.92
598.258	12.05
598.594	11.84
598.931	11.71
599.268	11.71
599.604	11.92
599.941	11.95
600.277	12.12
600.614	11.83
600.95	11.96
601.287	11.81
601.623	12.01
601.959	12.21
602.296	11.89
602.632	12.1
602.968	11.87
603.304	12.05
603.64	12.29
603.976	12.17
604.312	12.13
604.648	12.19
604.984	12.08
605.319	12.04
605.655	12.08
605.991	11.96
606.326	12.07
606.662	11.98
606.998	12.22
607.333	12.2
607.668	12.17
608.004	12.31
608.339	12.14
608.674	12.33
609.01	12.5
609.345	12.42
609.68	12.46
610.015	12.43
610.35	12.27
610.685	12.15
611.02	12.26
611.355	12.33
611.689	12.32
612.024	12.37
612.359	12.47
612.694	12.49
613.028	12.34
613.363	12.58
613.697	12.28
614.032	12.44
614.366	12.66
614.7	12.57
615.035	12.59
615.369	12.46
615.703	12.62
616.037	12.32
616.371	12.54
616.705	12.67
617.039	12.8
617.373	12.84
617.707	12.62
618.041	12.72
618.375	12.29
618.709	12.56
619.042	12.89
619.376	12.4
619.71	12.68
620.043	13.05
620.377	12.73
620.71	12.57
621.043	12.87
621.377	12.99
621.71	13.09
622.043	12.9
622.376	12.93
622.709	12.9
623.043	12.5
623.376	12.71
623.709	13.16
624.041	13.05
624.374	13.06
624.707	13.13
625.04	12.67
625.373	12.97
625.705	13.29
626.038	12.92
626.37	12.89
626.703	12.77
627.035	12.95
627.368	13.23
627.7	12.97
628.032	12.98
628.365	13.15
628.697	13.24
629.029	12.65
629.361	13.21
629.693	13.05
630.025	13.22
630.357	13.19
630.689	13.02
631.021	13.2
631.353	13.11
631.684	13.05
632.016	13.01
632.348	13.03
632.679	13.43
633.011	13.27
633.342	13.29
633.674	12.84
634.005	13.18
634.336	13.61
634.668	13.38
634.999	13.06
635.33	13.38
635.661	13.06
635.992	13.65
636.323	13.41
636.654	13.01
636.985	13.52
637.316	13.57
637.647	13.57
637.977	13.41
638.308	13.48
638.639	13.24
638.969	13.05
639.3	13.76
639.63	13.11
639.961	13.11
640.291	13.21
640.622	13.67
640.952	13.72
641.282	12.91
641.612	13.34
641.943	13.36
642.273	13.27
642.603	13.99
642.933	13.83
643.263	13.84
643.592	13.98
643.922	13.9
644.252	14.14
644.582	14.12
644.911	13.69
645.241	13.47
645.571	13.99
645.9	13.81
646.23	13.88
646.559	13.78
646.888	14.05
647.218	13.45
647.547	13.76
647.876	13.43
648.205	13.74
648.534	13.86
648.863	13.41
649.192	13.98
649.521	13.89
649.85	13.84
650.179	14.05
650.508	13.77
650.837	13.9
651.165	13.91
651.494	13.83
651.822	13.96
652.151	13.85
652.479	13.92
652.808	14.26
653.136	13.35
653.465	13.91
653.793	14.18
654.121	14.04
654.449	13.91
654.777	13.64
655.105	13.67
655.433	14.14
655.761	13.77
656.089	13.59
656.417	14.16
656.745	14.57
657.073	14.02
657.4	13.8
657.728	13.89
658.056	14.15
658.383	14.33
658.711	14.04
659.038	14.29
659.365	14.52
659.693	14.13
660.02	13.84
660.347	14.08
660.674	14.12
661.001	14.08
661.329	14.08
661.656	14.04
661.982	14.15
662.309	14.4
662.636	14.01
662.963	14.24
663.29	14.46
663.616	14.37
663.943	14.08
664.27	13.84
664.596	14.2
664.923	14.7
665.249	14.82
665.576	14.09
665.902	14.23
666.228	14.23
666.554	15.18
666.881	14.58
667.207	14.48
667.533	14.99
667.859	14.83
668.185	14.23
668.511	15.14
668.837	14.36
669.162	14.59
669.488	14.26
669.814	14.97
670.139	14.24
670.465	15.02
670.791	14.68
671.116	14.79
671.442	14.24
671.767	14.6
672.092	14.64
672.418	14.6
672.743	15.3
673.068	14.6
673.393	14.67
673.718	14.56
674.043	14.37
674.368	14.78
674.693	15.13
675.018	15.08
675.343	15.38
675.667	14.71
675.992	14.64
676.317	14.25
676.641	14.6
676.966	15.35
677.29	14.87
677.615	14.65
677.939	15.36
678.264	15.12
678.588	15.44
678.912	15.02
679.236	14.92
679.56	14.82
679.885	15.07
680.209	15.8
680.532	15.31
680.856	15.04
681.18	15.46
681.504	15.4
681.828	14.77
682.152	14.82
682.475	14.76
682.799	15.03
683.122	15.34
