Data from 21-5_crown_Reflection__2__07.txt Node

Date: Thu Dec 15 16:28:50 CST 2022
User: ToomeyLab
Spectrometer: FLMS14357
Trigger mode: 0
Integration Time (sec): 1.000000E-2
Scans to average: 100
Electric dark correction enabled: true
Nonlinearity correction enabled: false
Boxcar width: 0
XAxis mode: Wavelengths
Number of Pixels in Spectrum: 2048
>>>>>Begin Spectral Data<<<<<
189.047	-1260.67
189.435	-1260.67
189.823	-1260.67
190.211	-93.51
190.599	419.9
190.987	-75.38
191.375	83.84
191.763	250.78
192.151	72.51
192.538	23.7
192.926	-25.76
193.314	261.16
193.702	-1164.11
194.089	42.08
194.477	23.61
194.864	60.07
195.252	90.37
195.639	99.38
196.027	123.11
196.414	112.62
196.801	-11.07
197.189	52.16
197.576	173.32
197.963	50.67
198.351	22.52
198.738	-10.48
199.125	-14.38
199.512	30.8
199.899	18.73
200.286	-23.4
200.673	43.61
201.06	24.44
201.447	14.75
201.833	30.49
202.22	14.28
202.607	-25.16
202.994	-2.7
203.38	28.68
203.767	4.7
204.154	27.99
204.54	15.19
204.927	2.14
205.313	41.11
205.699	21.08
206.086	8.98
206.472	19.43
206.858	14.56
207.245	1.74
207.631	13.05
208.017	30.71
208.403	8.7
208.789	23.15
209.175	6.3
209.561	-44.8
209.947	18.88
210.333	2.57
210.719	28.69
211.105	21.96
211.491	28.12
211.876	15.31
212.262	19.68
212.648	3.79
213.034	9.92
213.419	6.02
213.805	-6.24
214.19	-10.47
214.576	3.49
214.961	21.14
215.346	5.96
215.732	22.1
216.117	34
216.502	14.41
216.888	21.49
217.273	6.25
217.658	-2.2
218.043	18.75
218.428	2.54
218.813	15.47
219.198	12.77
219.583	3.72
219.968	12.18
220.353	-3.3
220.738	5.77
221.122	5.37
221.507	-3.4
221.892	-14.83
222.276	-6.12
222.661	7.91
223.046	1.37
223.43	16.45
223.815	5.38
224.199	8.17
224.583	1.2
224.968	5.45
225.352	-3.94
225.736	4.72
226.121	4.15
226.505	4.91
226.889	8.84
227.273	1.87
227.657	7.09
228.041	5.8
228.425	2.97
228.809	3.82
229.193	4.86
229.577	3.5
229.961	3.26
230.344	4.17
230.728	4.43
231.112	4.86
231.495	2.79
231.879	3.94
232.263	4.82
232.646	3.55
233.03	5.34
233.413	4.9
233.797	2.83
234.18	3.51
234.563	5.93
234.946	2.99
235.33	4.25
235.713	3.22
236.096	6.12
236.479	4.17
236.862	2.9
237.245	3.69
237.628	3.88
238.011	4.68
238.394	3.09
238.777	4.57
239.16	3.94
239.543	5.75
239.925	3.74
240.308	3.46
240.691	3.52
241.073	3.01
241.456	3.56
241.838	3.25
242.221	3.86
242.603	4.32
242.986	4.29
243.368	4.16
243.75	3.74
244.133	4.13
244.515	4.06
244.897	3.93
245.279	3.28
245.661	3.2
246.043	3.76
246.425	4.55
246.807	3.7
247.189	3.28
247.571	3.77
247.953	3.98
248.335	3.72
248.717	3.85
249.098	3.76
249.48	3.27
249.862	4.12
250.243	4.18
250.625	4
251.006	4.59
251.388	3.93
251.769	2.84
252.151	3.8
252.532	3.36
252.913	3.64
253.295	3.68
253.676	4
254.057	3.79
254.438	3.95
254.819	3.46
255.2	4.53
255.581	4.84
255.962	5.02
256.343	3.94
256.724	4.36
257.105	4.53
257.486	2.94
257.867	3.82
258.247	4.62
258.628	3.97
259.009	3.24
259.389	3.13
259.77	3.72
260.15	3.8
260.531	3.51
260.911	3.1
261.292	3.38
261.672	3.38
262.052	3.67
262.432	3.37
262.813	3.67
263.193	3.48
263.573	2.82
263.953	3.03
264.333	3.73
264.713	4.13
265.093	3.87
265.473	3.02
265.853	3.79
266.233	3.44
266.612	3
266.992	3.62
267.372	3.79
267.752	3.39
268.131	3.12
268.511	3.14
268.89	3.99
269.27	2.91
269.649	3.32
270.029	3.45
270.408	3.12
270.787	3.31
271.167	3.58
271.546	4.36
271.925	3.54
272.304	3.26
272.683	3.23
273.062	3.11
273.441	2.99
273.82	3.7
274.199	3.17
274.578	3.53
274.957	3.32
275.336	3.67
275.715	3.5
276.093	3.19
276.472	3.17
276.851	3.46
277.229	3.43
277.608	3.01
277.986	3.21
278.365	3.85
278.743	3.39
279.122	3.39
279.5	3.04
279.878	2.81
280.257	2.96
280.635	3.02
281.013	2.92
281.391	3.07
281.769	3.75
282.147	3.58
282.525	2.91
282.903	3.22
283.281	3.28
283.659	3.43
284.037	2.91
284.415	3.28
284.792	3.42
285.17	3.3
285.548	2.91
285.925	3.1
286.303	3.81
286.68	3.19
287.058	3.23
287.435	3.22
287.813	3.41
288.19	3.03
288.567	3.15
288.945	3.23
289.322	3.3
289.699	3.48
290.076	3.08
290.453	2.82
290.83	3.52
291.207	3.38
291.584	3.23
291.961	3.19
292.338	2.99
292.715	3.36
293.092	3.65
293.469	3.45
293.845	3.35
294.222	3.94
294.599	2.9
294.975	3.07
295.352	3.42
295.728	3.62
296.105	3.27
296.481	3.65
296.858	3.31
297.234	3.19
297.61	3.32
297.986	3.54
298.363	3.41
298.739	3.55
299.115	3.4
299.491	3.37
299.867	3.38
300.243	3.37
300.619	3.48
300.995	3.13
301.371	3.32
301.746	3.42
302.122	3.25
302.498	3.31
302.874	3.57
303.249	3.65
303.625	2.87
304	3.56
304.376	4.25
304.751	3.47
305.127	3.06
305.502	3.7
305.878	3.62
306.253	3.44
306.628	3.08
307.003	3.3
307.378	3.51
307.754	3.93
308.129	3.37
308.504	3.69
308.879	3.64
309.254	3.99
309.629	3.98
310.003	3.45
310.378	3.46
310.753	3.57
311.128	3.53
311.502	3.57
311.877	3.35
312.252	3.69
312.626	3.89
313.001	3.5
313.375	3.32
313.75	3.5
314.124	3.74
314.498	3.7
314.873	3.52
315.247	3.44
315.621	3.25
315.995	3.43
316.369	3.22
316.743	3.57
317.117	3.35
317.491	3.44
317.865	3.21
318.239	3.68
318.613	3.39
318.987	3.46
319.361	3.56
319.734	3.68
320.108	3.49
320.482	3.43
320.855	3.32
321.229	3.05
321.602	3.72
321.976	3.21
322.349	4.39
322.723	3.56
323.096	3.33
323.469	3.67
323.843	3.21
324.216	3.77
324.589	3.93
324.962	3.78
325.335	3.24
325.708	3.61
326.081	3.48
326.454	3.86
326.827	3.68
327.2	3.39
327.573	4.05
327.945	3.48
328.318	3.08
328.691	3.47
329.063	3.1
329.436	3.21
329.809	3.78
330.181	3.92
330.553	3.69
330.926	3.76
331.298	3.56
331.671	3.69
332.043	3.25
332.415	3.95
332.787	4.15
333.159	3.15
333.532	3.9
333.904	4
334.276	3.61
334.648	3.39
335.02	3.26
335.391	3.76
335.763	3.34
336.135	3.8
336.507	3.29
336.879	3.59
337.25	3.44
337.622	3.87
337.993	3.73
338.365	3.77
338.736	3.44
339.108	3.66
339.479	3.56
339.851	3.73
340.222	3.71
340.593	3.38
340.964	3.84
341.336	3.23
341.707	3.81
342.078	3.55
342.449	3.79
342.82	3.65
343.191	3.61
343.562	3.58
343.933	3.32
344.303	3.65
344.674	3.75
345.045	3.4
345.416	3.68
345.786	3.51
346.157	3.86
346.527	3.48
346.898	3.27
347.268	3.32
347.639	3.23
348.009	3.53
348.38	3.87
348.75	3.6
349.12	3.5
349.49	3.51
349.861	3.86
350.231	3.72
350.601	3.33
350.971	3.28
351.341	3.71
351.711	3.8
352.081	3.27
352.45	3.55
352.82	3.07
353.19	3.33
353.56	3.31
353.929	3.5
354.299	3.47
354.669	3.81
355.038	3.76
355.408	3.37
355.777	3.76
356.147	3.7
356.516	3.3
356.885	3.5
357.254	3.09
357.624	3.23
357.993	3.45
358.362	3.68
358.731	3.8
359.1	3.54
359.469	3.69
359.838	3.44
360.207	3.31
360.576	3.54
360.945	3.55
361.314	3.64
361.682	3.04
362.051	3.65
362.42	3.26
362.788	3.61
363.157	3.46
363.525	3.65
363.894	3.28
364.262	3.59
364.631	3.9
364.999	3.54
365.367	3.47
365.735	3.18
366.104	3.4
366.472	3.47
366.84	3.65
367.208	3.87
367.576	3.74
367.944	3.73
368.312	3.43
368.68	3.8
369.048	3.7
369.416	3.43
369.783	3.26
370.151	3.68
370.519	3.9
370.886	3.68
371.254	3.94
371.621	3.63
371.989	3.71
372.356	3.48
372.724	3.5
373.091	3.33
373.458	3.43
373.826	3.81
374.193	3.55
374.56	3.96
374.927	3.59
375.294	3.98
375.661	3.65
376.028	3.47
376.395	3.75
376.762	3.38
377.129	3.76
377.496	3.58
377.863	3.65
378.229	3.78
378.596	3.54
378.963	3.67
379.329	3.65
379.696	3.53
380.062	3.59
380.429	3.25
380.795	3.63
381.161	3.25
381.528	3.19
381.894	3.41
382.26	3.59
382.626	3.8
382.993	3.91
383.359	3.69
383.725	3.35
384.091	3.76
384.457	3.41
384.823	3.65
385.188	3.77
385.554	3.43
385.92	3.59
386.286	3.49
386.651	3.52
387.017	3.68
387.383	3.51
387.748	3.66
388.114	3.4
388.479	3.47
388.845	3.48
389.21	4
389.575	3.85
389.94	3.72
390.306	3.81
390.671	3.64
391.036	3.55
391.401	3.63
391.766	3.42
392.131	3.73
392.496	3.63
392.861	3.63
393.226	3.39
393.591	3.68
393.956	3.76
394.32	3.75
394.685	3.51
395.05	3.53
395.414	3.78
395.779	3.65
396.143	3.47
396.508	3.43
396.872	3.39
397.236	3.92
397.601	3.85
397.965	3.42
398.329	3.45
398.694	3.4
399.058	3.64
399.422	3.6
399.786	3.5
400.15	3.68
400.514	3.74
400.878	3.6
401.242	3.73
401.605	3.55
401.969	3.54
402.333	3.52
402.697	3.87
403.06	3.71
403.424	3.78
403.787	3.56
404.151	3.72
404.514	3.58
404.878	3.27
405.241	3.63
405.604	3.43
405.968	3.68
406.331	3.67
406.694	3.64
407.057	3.39
407.42	3.43
407.783	3.61
408.146	3.57
408.509	3.47
408.872	3.64
409.235	3.6
409.598	3.54
409.961	3.49
410.323	3.55
410.686	3.65
411.049	3.73
411.411	3.55
411.774	3.72
412.136	3.59
412.499	4.02
412.861	3.4
413.223	3.53
413.586	3.49
413.948	3.58
414.31	3.69
414.672	3.53
415.035	3.96
415.397	3.43
415.759	3.53
416.121	3.67
416.483	3.54
416.845	3.62
417.206	3.52
417.568	3.46
417.93	3.65
418.292	3.45
418.653	3.52
419.015	3.59
419.377	3.5
419.738	3.59
420.1	3.52
420.461	3.41
420.822	3.49
421.184	3.58
421.545	3.59
421.906	3.57
422.267	3.45
422.629	3.46
422.99	3.42
423.351	3.49
423.712	3.56
424.073	3.47
424.434	3.64
424.795	3.4
425.155	3.52
425.516	3.47
425.877	3.5
426.238	3.5
426.598	3.55
426.959	3.64
427.32	3.56
427.68	3.59
428.041	3.73
428.401	3.49
428.761	3.76
429.122	3.65
429.482	3.84
429.842	3.58
430.202	3.7
430.563	3.7
430.923	3.74
431.283	3.79
431.643	3.72
432.003	3.68
432.363	3.85
432.722	3.8
433.082	3.75
433.442	3.85
433.802	3.73
434.161	3.64
434.521	3.66
434.881	3.71
435.24	3.8
435.6	3.75
435.959	3.87
436.319	3.75
436.678	3.79
437.037	3.63
437.396	3.77
437.756	3.76
438.115	3.79
438.474	3.8
438.833	3.74
439.192	3.76
439.551	3.61
439.91	3.68
440.269	3.77
440.628	3.71
440.987	3.67
441.345	3.75
441.704	3.67
442.063	3.73
442.421	3.85
442.78	3.71
443.138	3.8
443.497	3.68
443.855	3.93
444.214	3.74
444.572	3.95
444.93	3.89
445.288	3.79
445.647	3.7
446.005	3.73
446.363	3.72
446.721	3.72
447.079	3.63
447.437	3.79
447.795	3.74
448.153	3.7
448.51	3.71
448.868	3.76
449.226	3.86
449.584	3.72
449.941	3.82
450.299	3.73
450.656	3.8
451.014	3.9
451.371	3.95
451.729	3.9
452.086	3.74
452.443	3.98
452.801	3.87
453.158	3.93
453.515	3.75
453.872	3.84
454.229	3.79
454.586	3.84
454.943	3.75
455.3	3.96
455.657	3.79
456.014	3.78
456.371	3.9
456.727	3.91
457.084	4.03
457.441	4.01
457.797	3.94
458.154	3.93
458.51	3.95
458.867	3.9
459.223	3.82
459.58	4.01
459.936	3.75
460.292	3.85
460.648	3.85
461.005	3.67
461.361	3.72
461.717	3.77
462.073	3.87
462.429	3.9
462.785	3.95
463.141	3.91
463.496	3.96
463.852	4.05
464.208	3.99
464.564	3.9
464.919	3.86
465.275	3.96
465.631	4.05
465.986	4.05
466.342	3.88
466.697	4.03
467.052	4.09
467.408	4.02
467.763	3.87
468.118	3.79
468.473	4.01
468.829	4
469.184	4.15
469.539	3.86
469.894	4.06
470.249	3.91
470.603	4.03
470.958	4.02
471.313	4.07
471.668	4.12
472.023	4.07
472.377	4.12
472.732	4.1
473.086	4.11
473.441	4.02
473.795	4.22
474.15	4.04
474.504	4.08
474.859	3.87
475.213	4.17
475.567	3.96
475.921	3.94
476.275	4.19
476.63	4.04
476.984	3.94
477.338	4.13
477.692	4.06
478.045	4.13
478.399	4.03
478.753	3.97
479.107	4
479.461	4.06
479.814	4.08
480.168	3.96
480.521	4.12
480.875	4.1
481.228	4.12
481.582	4.12
481.935	4.15
482.289	4.06
482.642	4.23
482.995	4.05
483.348	3.99
483.701	4.02
484.055	3.97
484.408	3.94
484.761	3.78
485.114	3.71
485.466	3.7
485.819	3.72
486.172	3.81
486.525	3.83
486.878	3.93
487.23	3.94
487.583	3.91
487.936	3.89
488.288	3.86
488.641	3.83
488.993	3.81
489.345	3.84
489.698	3.8
490.05	3.86
490.402	3.91
490.754	3.96
491.107	3.92
491.459	4.07
491.811	4.02
492.163	3.91
492.515	3.85
492.866	3.85
493.218	3.88
493.57	3.9
493.922	3.93
494.274	4.05
494.625	4.17
494.977	4.04
495.328	4.13
495.68	3.98
496.031	4.15
496.383	4.05
496.734	4.13
497.086	4.16
497.437	4.16
497.788	4.21
498.139	4.07
498.49	4.13
498.842	4.08
499.193	4.09
499.544	4.06
499.894	3.99
500.245	4.2
500.596	4.14
500.947	4.12
501.298	4.23
501.648	4.13
501.999	4.25
502.35	4.12
502.7	4.25
503.051	4.13
503.401	4.26
503.752	4.15
504.102	4.1
504.452	4.02
504.803	4.11
505.153	4.23
505.503	4.19
505.853	4.26
506.203	4.23
506.553	4.21
506.903	4.17
507.253	4.11
507.603	4.18
507.953	4.17
508.303	4.26
508.652	4.02
509.002	4.3
509.352	4.19
509.701	4.11
510.051	4.29
510.4	4.19
510.75	4.14
511.099	4.1
511.449	4.16
511.798	4.05
512.147	4.2
512.496	4.27
512.846	4.18
513.195	4.14
513.544	4.28
513.893	4.13
514.242	4.12
514.591	4.1
514.939	4.31
515.288	4.3
515.637	4.16
515.986	4.2
516.334	4.27
516.683	4.21
517.032	4.17
517.38	4.18
517.729	4.21
518.077	4.27
518.426	4.31
518.774	4.24
519.122	4.21
519.47	4.08
519.819	4.17
520.167	4.13
520.515	4.2
520.863	4.13
521.211	4.16
521.559	4.21
521.907	4.21
522.255	4.21
522.602	4.19
522.95	4.22
523.298	4.34
523.645	4.3
523.993	4.34
524.341	4.31
524.688	4.17
525.036	4.43
525.383	4.3
525.73	4.33
526.078	4.28
526.425	4.18
526.772	4.18
527.119	4.15
527.466	4.17
527.814	4.18
528.161	4.26
528.508	4.28
528.854	4.24
529.201	4.12
529.548	4.09
529.895	3.98
530.242	3.98
530.588	4
530.935	4.08
531.282	4.08
531.628	4.17
531.975	4.17
532.321	4.23
532.667	4.21
533.014	4.29
533.36	4.19
533.706	4.28
534.052	4.23
534.399	4.13
534.745	4.12
535.091	4.1
535.437	4.17
535.783	4.25
536.129	4.17
536.474	4.22
536.82	4.39
537.166	4.24
537.512	4.27
537.857	4.23
538.203	4.24
538.549	4.19
538.894	4.24
539.239	4.33
539.585	4.38
539.93	4.37
540.276	4.29
540.621	4.5
540.966	4.42
541.311	4.39
541.656	4.24
542.001	4.22
542.346	4.18
542.691	4.06
543.036	4.11
543.381	4.14
543.726	4.28
544.071	4.24
544.415	4.26
544.76	4.25
545.105	4.27
545.449	4.33
545.794	4.29
546.138	4.43
546.483	4.46
546.827	4.32
547.171	4.39
547.516	4.4
547.86	4.35
548.204	4.35
548.548	4.18
548.892	4.32
549.236	4.37
549.58	4.43
549.924	4.58
550.268	4.44
550.612	4.47
550.956	4.58
551.3	4.71
551.643	4.65
551.987	4.54
552.33	4.61
552.674	4.47
553.017	4.62
553.361	4.51
553.704	4.6
554.048	4.48
554.391	4.54
554.734	4.31
555.077	4.45
555.42	4.44
555.764	4.64
556.107	4.59
556.45	4.57
556.793	4.57
557.135	4.65
557.478	4.68
557.821	4.7
558.164	4.61
558.507	4.68
558.849	4.61
559.192	4.74
559.534	4.64
559.877	4.7
560.219	4.5
560.562	4.48
560.904	4.66
561.246	4.43
561.589	4.9
561.931	4.66
562.273	4.63
562.615	4.6
562.957	4.52
563.299	4.51
563.641	4.62
563.983	4.49
564.325	4.76
564.667	4.66
565.008	4.53
565.35	4.5
565.692	4.67
566.033	4.65
566.375	4.61
566.716	4.45
567.058	4.55
567.399	4.59
567.741	4.69
568.082	4.58
568.423	4.42
568.764	4.49
569.105	4.65
569.447	4.56
569.788	4.57
570.129	4.68
570.47	4.51
570.811	4.61
571.151	4.62
571.492	4.59
571.833	4.65
572.174	4.74
572.514	4.71
572.855	4.8
573.195	4.5
573.536	4.71
573.876	4.55
574.217	4.65
574.557	4.62
574.898	4.7
575.238	4.84
575.578	4.81
575.918	4.63
576.258	4.84
576.598	4.57
576.938	4.54
577.278	4.77
577.618	4.74
577.958	4.83
578.298	4.73
578.638	4.78
578.977	4.76
579.317	4.86
579.657	4.8
579.996	4.92
580.336	4.86
580.675	4.78
581.014	4.92
581.354	4.81
581.693	4.89
582.032	5.02
582.372	4.78
582.711	4.76
583.05	4.65
583.389	4.84
583.728	5.02
584.067	4.79
584.406	4.95
584.745	4.74
585.083	4.87
585.422	5.04
585.761	4.93
586.1	4.94
586.438	4.77
586.777	4.87
587.115	4.8
587.454	4.66
587.792	4.89
588.13	4.79
588.469	4.86
588.807	4.97
589.145	4.85
589.483	4.72
589.821	4.87
590.159	4.97
590.497	4.99
590.835	4.98
591.173	5.03
591.511	4.98
591.849	4.91
592.187	4.82
592.524	4.94
592.862	4.81
593.2	5.06
593.537	4.83
593.875	5.07
594.212	4.79
594.55	4.85
594.887	4.91
595.224	5.03
595.561	4.94
595.899	4.92
596.236	5.04
596.573	4.7
596.91	4.87
597.247	4.91
597.584	4.92
597.921	4.81
598.258	4.99
598.594	4.9
598.931	4.68
599.268	4.67
599.604	4.9
599.941	4.99
600.277	5.07
600.614	4.85
600.95	4.84
601.287	4.68
601.623	4.67
601.959	5.22
602.296	4.88
602.632	5.03
602.968	5.06
603.304	4.97
603.64	5.19
603.976	4.79
604.312	4.7
604.648	4.96
604.984	4.91
605.319	4.89
605.655	5.02
605.991	4.91
606.326	4.89
606.662	4.8
606.998	5.05
607.333	4.77
607.668	4.93
608.004	5
608.339	5.03
608.674	5.2
609.01	5.24
609.345	5.17
609.68	5.06
610.015	5.17
610.35	5.1
610.685	5.02
611.02	4.89
611.355	5.13
611.689	5.03
612.024	5.08
612.359	5.1
612.694	5.08
613.028	4.79
613.363	5.21
613.697	5.04
614.032	5.06
614.366	5.1
614.7	5.3
615.035	5.34
615.369	5.46
615.703	5.17
616.037	5.1
616.371	4.98
616.705	4.96
617.039	5.14
617.373	5.41
617.707	5.13
618.041	4.83
618.375	4.6
618.709	5.2
619.042	5.13
619.376	5.15
619.71	5.29
620.043	5.27
620.377	5.28
620.71	4.99
621.043	5.46
621.377	5.53
621.71	5.5
622.043	5.14
622.376	5
622.709	5.46
623.043	5.3
623.376	5.27
623.709	5.76
624.041	5.2
624.374	5.61
624.707	5.13
625.04	5.62
625.373	5.7
625.705	5.6
626.038	5.65
626.37	5.15
626.703	5.3
627.035	5.15
627.368	5.5
627.7	5.04
628.032	4.93
628.365	5.43
628.697	5.24
629.029	5.2
629.361	5.27
629.693	5.21
630.025	5.31
630.357	5.19
630.689	5.28
631.021	5.52
631.353	5.51
631.684	5.1
632.016	5.3
632.348	5.51
632.679	5.26
633.011	5.12
633.342	5.45
633.674	5.28
634.005	5.29
634.336	5.42
634.668	5.77
634.999	5.03
635.33	5.41
635.661	5.22
635.992	5.18
636.323	5.58
636.654	5.27
636.985	5.3
637.316	5.38
637.647	5.25
637.977	5.2
638.308	5.47
638.639	5.43
638.969	4.86
639.3	5.36
639.63	5.31
639.961	5.65
640.291	5.19
640.622	5.63
640.952	5.56
641.282	4.97
641.612	5.61
641.943	5.32
642.273	5.29
642.603	5.38
642.933	5.65
643.263	5.94
643.592	5.71
643.922	5.77
644.252	5.5
644.582	5.71
644.911	5.3
645.241	5.43
645.571	5.87
645.9	5.85
646.23	5.46
646.559	5.51
646.888	5.6
647.218	5.66
647.547	5.45
647.876	5.15
648.205	5.17
648.534	5.57
648.863	5.9
649.192	5.34
649.521	5.48
649.85	5.62
650.179	6.05
650.508	5.43
650.837	5.59
651.165	5.55
651.494	5.39
651.822	5.64
652.151	5.3
652.479	5.64
652.808	5.49
653.136	5.4
653.465	5.54
653.793	5.45
654.121	5.49
654.449	5.1
654.777	5.1
655.105	5.42
655.433	5.87
655.761	5.97
656.089	5.65
656.417	5.52
656.745	5.89
657.073	5.46
657.4	5.5
657.728	5.73
658.056	5.56
658.383	5.7
658.711	5.28
659.038	6.04
659.365	6.03
659.693	5.61
660.02	5.6
660.347	5.6
660.674	5.53
661.001	5.61
661.329	5.7
661.656	5.35
661.982	5.58
662.309	5.66
662.636	5.49
662.963	5.89
663.29	5.56
663.616	5.36
663.943	5.55
664.27	5.57
664.596	6.03
664.923	5.84
665.249	5.79
665.576	5.64
665.902	5.45
666.228	5.6
666.554	6.54
666.881	5.64
667.207	5.4
667.533	6
667.859	5.89
668.185	5.91
668.511	6.26
668.837	5.64
669.162	5.76
669.488	5.37
669.814	6.04
670.139	5.63
670.465	6.02
670.791	5.64
671.116	5.85
671.442	5.07
671.767	5.62
672.092	5.7
672.418	5.72
672.743	5.63
673.068	4.99
673.393	5.83
673.718	5.89
674.043	5.88
674.368	6.05
674.693	5.9
675.018	5.94
675.343	6.58
675.667	5.86
675.992	5.99
676.317	5.04
676.641	6.14
676.966	5.71
677.29	5.1
677.615	5.51
677.939	5.81
678.264	6.07
678.588	5.91
678.912	6
679.236	5.5
679.56	5.53
679.885	5.78
680.209	5.94
680.532	6.46
680.856	5.7
681.18	6.83
681.504	5.77
681.828	5.76
682.152	5.45
682.475	6.2
682.799	5.53
683.122	5.95
683.446	5.07
683.769	6.4
684.093	6.12
684.416	5.98
684.739	6.19
685.062	6.82
685.386	5.69
685.709	5.94
686.032	5.84
686.355	6.48
686.678	6.62
687.001	5.49
687.324	5.83
687.646	6.14
687.969	6.58
688.292	5.89
688.614	5.98
688.937	6.27
689.26	6.78
689.582	5.84
689.904	5.88
690.227	5.93
690.549	6.48
690.871	5.91
691.194	5.84
691.516	5.81
691.838	6.32
692.16	5.85
692.482	5.85
692.804	6.29
693.126	5.74
693.448	6.43
693.769	5.68
