Data from 21-5_crown_Reflection__0__05.txt Node

Date: Thu Dec 15 16:28:24 CST 2022
User: ToomeyLab
Spectrometer: FLMS14357
Trigger mode: 0
Integration Time (sec): 1.000000E-2
Scans to average: 100
Electric dark correction enabled: true
Nonlinearity correction enabled: false
Boxcar width: 0
XAxis mode: Wavelengths
Number of Pixels in Spectrum: 2048
>>>>>Begin Spectral Data<<<<<
189.047	-874
189.435	-874
189.823	-874
190.211	-97.14
190.599	328.64
190.987	72.39
191.375	-70.32
191.763	154
192.151	80.43
192.538	177.93
192.926	-22.49
193.314	21.14
193.702	289.88
194.089	-11.14
194.477	45.02
194.864	63.84
195.252	41.09
195.639	204.15
196.027	-15.63
196.414	173.64
196.801	-6.86
197.189	46.7
197.576	-2.93
197.963	59.56
198.351	27.02
198.738	9.85
199.125	-2.71
199.512	33.22
199.899	19.28
200.286	11.02
200.673	29.33
201.06	-5.09
201.447	2.19
201.833	8.96
202.22	-2.58
202.607	-19.71
202.994	-15.72
203.38	22.42
203.767	22.81
204.154	13.77
204.54	24.19
204.927	25.61
205.313	17.29
205.699	12.37
206.086	5.62
206.472	4.33
206.858	-12.87
207.245	3.03
207.631	-1.17
208.017	35.55
208.403	-12.09
208.789	24.42
209.175	9.36
209.561	-24.5
209.947	13.99
210.333	-0.01
210.719	8.89
211.105	32.37
211.491	29.31
211.876	-2.99
212.262	3.78
212.648	34.82
213.034	0.69
213.419	12.01
213.805	-9.42
214.19	20.02
214.576	6.58
214.961	27.77
215.346	-4.7
215.732	17.31
216.117	6.68
216.502	-4.64
216.888	4.23
217.273	24.37
217.658	10.07
218.043	-9.83
218.428	-5.13
218.813	16.12
219.198	-5.99
219.583	21.05
219.968	11.03
220.353	-7.1
220.738	4.43
221.122	2.37
221.507	3.86
221.892	-6.68
222.276	-1.93
222.661	-3.63
223.046	-3.46
223.43	14.61
223.815	13.68
224.199	5.54
224.583	4.49
224.968	-2.33
225.352	-0.88
225.736	11.34
226.121	8.09
226.505	1.53
226.889	9.06
227.273	6.52
227.657	5.67
228.041	5.51
228.425	7.55
228.809	5.2
229.193	6.82
229.577	4.9
229.961	4.2
230.344	5.96
230.728	5.6
231.112	6.19
231.495	4.11
231.879	4.78
232.263	6.28
232.646	5.04
233.03	6.24
233.413	4.76
233.797	3.6
234.18	4.72
234.563	5.83
234.946	3.35
235.33	4.54
235.713	5.09
236.096	6.91
236.479	6.07
236.862	4.52
237.245	4.57
237.628	4.38
238.011	4.28
238.394	4.13
238.777	4.85
239.16	5.93
239.543	5.6
239.925	4.9
240.308	3.67
240.691	5.88
241.073	3.77
241.456	6.58
241.838	5.71
242.221	5.11
242.603	5.18
242.986	5.28
243.368	5.43
243.75	5.31
244.133	5.47
244.515	5.35
244.897	5.32
245.279	5.04
245.661	4.71
246.043	5.29
246.425	6.26
246.807	4.96
247.189	5.56
247.571	5.02
247.953	4.89
248.335	4.84
248.717	5.09
249.098	5.1
249.48	4.88
249.862	5.38
250.243	4.96
250.625	5.21
251.006	5.51
251.388	4.59
251.769	4.77
252.151	5.16
252.532	4.87
252.913	5.6
253.295	4.93
253.676	5.25
254.057	4.85
254.438	4.81
254.819	4.71
255.2	5.52
255.581	5.58
255.962	4.94
256.343	5.18
256.724	5.18
257.105	4.43
257.486	4.53
257.867	5.3
258.247	4.24
258.628	5.16
259.009	4.2
259.389	4.11
259.77	4.19
260.15	5.49
260.531	4.78
260.911	4.84
261.292	4.71
261.672	4.69
262.052	4.63
262.432	4.44
262.813	4.97
263.193	5.21
263.573	4.57
263.953	4.5
264.333	4.77
264.713	4.46
265.093	4.69
265.473	3.74
265.853	4.83
266.233	4.55
266.612	4.58
266.992	4.56
267.372	5.05
267.752	5.12
268.131	4.77
268.511	4.69
268.89	4.8
269.27	4.43
269.649	4.75
270.029	4.53
270.408	4.16
270.787	5.08
271.167	4.78
271.546	5.37
271.925	4.59
272.304	4.51
272.683	4.37
273.062	4.22
273.441	4.4
273.82	4.66
274.199	4.54
274.578	4.78
274.957	4.45
275.336	5.02
275.715	4.59
276.093	3.88
276.472	4.28
276.851	4.45
277.229	4.68
277.608	4.01
277.986	4.85
278.365	4.79
278.743	4.48
279.122	3.8
279.5	4.68
279.878	4.32
280.257	4.52
280.635	4.7
281.013	4.08
281.391	3.95
281.769	4.77
282.147	4.34
282.525	4.3
282.903	4.19
283.281	4.44
283.659	4.54
284.037	4.21
284.415	4.34
284.792	4.29
285.17	4.12
285.548	4
285.925	4.39
286.303	4.64
286.68	4.45
287.058	4.54
287.435	4.35
287.813	4.43
288.19	4.49
288.567	4.62
288.945	4.3
289.322	4.07
289.699	4.82
290.076	4.82
290.453	4.57
290.83	4.72
291.207	4.45
291.584	4.34
291.961	4.22
292.338	4.29
292.715	4.04
293.092	5
293.469	4.62
293.845	4.42
294.222	4.81
294.599	4.09
294.975	3.88
295.352	4.31
295.728	4.19
296.105	3.97
296.481	4.47
296.858	4.58
297.234	4
297.61	4.34
297.986	4.49
298.363	4.43
298.739	4.42
299.115	4.33
299.491	4.46
299.867	4.27
300.243	4.4
300.619	4.26
300.995	4.2
301.371	4.64
301.746	4.82
302.122	4.18
302.498	4.13
302.874	4.46
303.249	4.44
303.625	3.84
304	4.35
304.376	4.76
304.751	4.28
305.127	4.2
305.502	4.49
305.878	4.56
306.253	4.14
306.628	4.5
307.003	4.21
307.378	4.19
307.754	4.76
308.129	4.24
308.504	4.21
308.879	4.6
309.254	4.45
309.629	4.74
310.003	4.25
310.378	4.49
310.753	4.5
311.128	4.15
311.502	4.31
311.877	4.11
312.252	4.2
312.626	4.58
313.001	4.24
313.375	4.61
313.75	4.38
314.124	4.55
314.498	4.42
314.873	4.2
315.247	4.34
315.621	4.66
315.995	4.74
316.369	4.32
316.743	4.04
317.117	4.27
317.491	4.51
317.865	4.11
318.239	4.84
318.613	4.31
318.987	3.91
319.361	4.64
319.734	4.24
320.108	4.33
320.482	4.18
320.855	4.3
321.229	4.45
321.602	4.68
321.976	3.91
322.349	4.96
322.723	4.23
323.096	4.63
323.469	3.8
323.843	3.94
324.216	4.25
324.589	4.36
324.962	4.2
325.335	4.13
325.708	4.28
326.081	4.61
326.454	4.64
326.827	4.25
327.2	3.87
327.573	4.13
327.945	3.85
328.318	4.07
328.691	4.21
329.063	4.19
329.436	4.1
329.809	4.62
330.181	4.5
330.553	4.59
330.926	4.31
331.298	4.4
331.671	4.59
332.043	4.19
332.415	4.69
332.787	4.71
333.159	4.18
333.532	4.35
333.904	4.71
334.276	4.26
334.648	4.36
335.02	4.32
335.391	3.94
335.763	4.08
336.135	4.48
336.507	3.93
336.879	4.22
337.25	4.29
337.622	4.39
337.993	4.18
338.365	4.35
338.736	4.59
339.108	4.38
339.479	4.35
339.851	4.3
340.222	4.26
340.593	4.13
340.964	4.48
341.336	3.48
341.707	3.96
342.078	4.17
342.449	4.02
342.82	4.4
343.191	4.32
343.562	4.09
343.933	3.81
344.303	4.15
344.674	3.79
345.045	4.45
345.416	4.78
345.786	4.09
346.157	4.4
346.527	4.1
346.898	3.85
347.268	4.36
347.639	3.84
348.009	4.16
348.38	4.16
348.75	4.58
349.12	4.09
349.49	4.29
349.861	4.53
350.231	4.15
350.601	4.31
350.971	3.86
351.341	4.33
351.711	4.19
352.081	4.24
352.45	3.85
352.82	3.82
353.19	3.94
353.56	4.07
353.929	4.36
354.299	4.2
354.669	4.69
355.038	4.46
355.408	4.05
355.777	4.43
356.147	4.21
356.516	4.14
356.885	4.09
357.254	3.7
357.624	4.1
357.993	4.13
358.362	4.23
358.731	4.53
359.1	4.15
359.469	4.32
359.838	4.35
360.207	4.24
360.576	4.38
360.945	4.35
361.314	4.22
361.682	4.06
362.051	4.1
362.42	4.18
362.788	4.33
363.157	3.86
363.525	4.12
363.894	3.93
364.262	4.11
364.631	4.52
364.999	4.04
365.367	4.15
365.735	4.08
366.104	4.3
366.472	4.11
366.84	4.28
367.208	4.59
367.576	4.29
367.944	4.25
368.312	3.94
368.68	4.35
369.048	4.02
369.416	4
369.783	4.23
370.151	4.28
370.519	4.33
370.886	4.19
371.254	4.22
371.621	4.31
371.989	4.4
372.356	4.35
372.724	4.01
373.091	4.03
373.458	4
373.826	4.47
374.193	4.25
374.56	4.48
374.927	4.19
375.294	4.37
375.661	4.29
376.028	4
376.395	4.24
376.762	4.12
377.129	4.25
377.496	4.15
377.863	4.31
378.229	4.5
378.596	4.42
378.963	4.35
379.329	4.33
379.696	4.25
380.062	4.37
380.429	3.98
380.795	4.39
381.161	3.88
381.528	4.24
381.894	4.24
382.26	4.43
382.626	4.34
382.993	4.58
383.359	4.06
383.725	4.35
384.091	4.36
384.457	4.15
384.823	4.25
385.188	4.09
385.554	4.3
385.92	4.19
386.286	4.33
386.651	4.2
387.017	4.31
387.383	4.23
387.748	4.62
388.114	4.53
388.479	4.35
388.845	3.96
389.21	4.7
389.575	4.59
389.94	4.44
390.306	4.49
390.671	4.45
391.036	4.4
391.401	4.39
391.766	4.22
392.131	4.35
392.496	4.15
392.861	4.23
393.226	4.17
393.591	4.5
393.956	4.35
394.32	4.22
394.685	4.3
395.05	4.38
395.414	4.5
395.779	4.41
396.143	4.18
396.508	4.13
396.872	4.24
397.236	4.62
397.601	4.45
397.965	4.39
398.329	4.52
398.694	4.35
399.058	4.48
399.422	4.34
399.786	4.27
400.15	4.28
400.514	4.46
400.878	4.21
401.242	4.44
401.605	4.47
401.969	4.34
402.333	4.15
402.697	4.6
403.06	4.32
403.424	4.51
403.787	4.47
404.151	4.35
404.514	4.35
404.878	4.16
405.241	4.35
405.604	4.29
405.968	4.16
406.331	4.41
406.694	4.4
407.057	4.21
407.42	4.32
407.783	4.39
408.146	4.5
408.509	4.58
408.872	4.27
409.235	4.72
409.598	4.53
409.961	4.55
410.323	4.34
410.686	4.45
411.049	4.38
411.411	4.41
411.774	4.37
412.136	4.33
412.499	4.57
412.861	4.16
413.223	4.41
413.586	4.47
413.948	4.35
414.31	4.52
414.672	4.46
415.035	4.71
415.397	4.44
415.759	4.19
416.121	4.71
416.483	4.43
416.845	4.32
417.206	4.34
417.568	4.43
417.93	4.47
418.292	4.19
418.653	4.3
419.015	4.36
419.377	4.33
419.738	4.31
420.1	4.29
420.461	4.33
420.822	4.51
421.184	4.23
421.545	4.36
421.906	4.31
422.267	4.32
422.629	4.26
422.99	4.33
423.351	4.34
423.712	4.42
424.073	4.42
424.434	4.47
424.795	4.32
425.155	4.21
425.516	4.25
425.877	4.32
426.238	4.35
426.598	4.36
426.959	4.42
427.32	4.34
427.68	4.46
428.041	4.58
428.401	4.43
428.761	4.59
429.122	4.53
429.482	4.52
429.842	4.43
430.202	4.55
430.563	4.47
430.923	4.42
431.283	4.65
431.643	4.73
432.003	4.55
432.363	4.59
432.722	4.62
433.082	4.46
433.442	4.68
433.802	4.57
434.161	4.45
434.521	4.48
434.881	4.57
435.24	4.54
435.6	4.68
435.959	4.53
436.319	4.71
436.678	4.69
437.037	4.61
437.396	4.65
437.756	4.56
438.115	4.63
438.474	4.81
438.833	4.66
439.192	4.59
439.551	4.62
439.91	4.68
440.269	4.55
440.628	4.65
440.987	4.53
441.345	4.68
441.704	4.62
442.063	4.51
442.421	4.54
442.78	4.58
443.138	4.61
443.497	4.54
443.855	4.74
444.214	4.5
444.572	4.7
444.93	4.68
445.288	4.62
445.647	4.55
446.005	4.6
446.363	4.57
446.721	4.64
447.079	4.5
447.437	4.53
447.795	4.54
448.153	4.54
448.51	4.57
448.868	4.58
449.226	4.6
449.584	4.57
449.941	4.7
450.299	4.66
450.656	4.65
451.014	4.74
451.371	4.75
451.729	4.68
452.086	4.78
452.443	4.85
452.801	4.59
453.158	4.82
453.515	4.69
453.872	4.71
454.229	4.55
454.586	4.69
454.943	4.79
455.3	4.85
455.657	4.73
456.014	4.58
456.371	4.79
456.727	4.89
457.084	4.88
457.441	4.73
457.797	4.62
458.154	4.75
458.51	4.7
458.867	4.71
459.223	4.73
459.58	4.79
459.936	4.73
460.292	4.7
460.648	4.65
461.005	4.72
461.361	4.59
461.717	4.53
462.073	4.7
462.429	4.84
462.785	4.87
463.141	4.8
463.496	4.84
463.852	4.89
464.208	4.92
464.564	4.77
464.919	5.08
465.275	4.92
465.631	4.96
465.986	4.93
466.342	4.8
466.697	4.85
467.052	5.05
467.408	4.91
467.763	4.94
468.118	4.68
468.473	4.91
468.829	4.7
469.184	4.91
469.539	4.79
469.894	4.97
470.249	4.88
470.603	5.03
470.958	4.99
471.313	4.71
471.668	4.88
472.023	5.03
472.377	4.86
472.732	4.9
473.086	4.96
473.441	4.9
473.795	5.08
474.15	4.84
474.504	4.87
474.859	4.8
475.213	5.02
475.567	4.88
475.921	5.03
476.275	5.06
476.63	4.88
476.984	4.82
477.338	5.1
477.692	4.93
478.045	4.94
478.399	4.89
478.753	4.82
479.107	4.92
479.461	4.82
479.814	4.84
480.168	4.84
480.521	4.99
480.875	4.88
481.228	4.9
481.582	4.96
481.935	4.94
482.289	4.93
482.642	5.01
482.995	4.99
483.348	4.89
483.701	4.82
484.055	4.79
484.408	4.79
484.761	4.62
485.114	4.57
485.466	4.54
485.819	4.52
486.172	4.58
486.525	4.7
486.878	4.77
487.23	4.79
487.583	4.79
487.936	4.72
488.288	4.74
488.641	4.72
488.993	4.63
489.345	4.65
489.698	4.7
490.05	4.69
490.402	4.8
490.754	4.83
491.107	4.81
491.459	4.94
491.811	4.9
492.163	4.81
492.515	4.78
492.866	4.61
493.218	4.7
493.57	4.79
493.922	4.78
494.274	4.92
494.625	4.93
494.977	5.03
495.328	5.01
495.68	4.98
496.031	4.9
496.383	4.94
496.734	4.82
497.086	5.04
497.437	5.01
497.788	5.07
498.139	4.97
498.49	5
498.842	4.99
499.193	5.04
499.544	5.04
499.894	4.9
500.245	4.92
500.596	4.92
500.947	5.02
501.298	5
501.648	5.01
501.999	5.09
502.35	4.97
502.7	5.14
503.051	4.98
503.401	5.09
503.752	5.02
504.102	5.11
504.452	4.88
504.803	5.01
505.153	5.09
505.503	5.11
505.853	5.08
506.203	5.24
506.553	5
506.903	5.15
507.253	5
507.603	5.05
507.953	5.02
508.303	5.14
508.652	4.98
509.002	5.07
509.352	5.17
509.701	4.98
510.051	5.12
510.4	5.17
510.75	4.92
511.099	4.97
511.449	5.12
511.798	4.93
512.147	5.1
512.496	5.09
512.846	5.05
513.195	5.08
513.544	5.14
513.893	5.09
514.242	4.99
514.591	5.11
514.939	5.05
515.288	5.07
515.637	5.08
515.986	5.2
516.334	5.22
516.683	5.07
517.032	5.04
517.38	5.02
517.729	5.09
518.077	5.09
518.426	5.22
518.774	5.1
519.122	5.16
519.47	5.02
519.819	5.14
520.167	4.96
520.515	5.01
520.863	5.07
521.211	5.11
521.559	5.01
521.907	5.19
522.255	5.11
522.602	5.2
522.95	5.24
523.298	5.22
523.645	5.2
523.993	5.16
524.341	5.23
524.688	5.11
525.036	5.1
525.383	5.17
525.73	5.13
526.078	5.19
526.425	5.07
526.772	5.07
527.119	5.05
527.466	5.03
527.814	5.03
528.161	5.1
528.508	5.21
528.854	5.11
529.201	4.98
529.548	4.92
529.895	4.86
530.242	4.85
530.588	4.87
530.935	4.95
531.282	4.95
531.628	5.06
531.975	5.04
532.321	5.08
532.667	5.13
533.014	5.19
533.36	5.16
533.706	5.13
534.052	5.17
534.399	5.11
534.745	4.99
535.091	4.98
535.437	5.03
535.783	5.06
536.129	5.12
536.474	5.19
536.82	5.28
537.166	5.18
537.512	5.14
537.857	5.2
538.203	5.14
538.549	5.09
538.894	5.23
539.239	5.19
539.585	5.26
539.93	5.18
540.276	5.28
540.621	5.36
540.966	5.37
541.311	5.3
541.656	5.21
542.001	5.15
542.346	5.05
542.691	4.93
543.036	5
543.381	5.05
543.726	5.18
544.071	5.14
544.415	5.14
544.76	5.13
545.105	5.17
545.449	5.19
545.794	5.22
546.138	5.23
546.483	5.29
546.827	5.25
547.171	5.35
547.516	5.29
547.86	5.25
548.204	5.34
548.548	5.22
548.892	5.25
549.236	5.37
549.58	5.37
549.924	5.43
550.268	5.58
550.612	5.46
550.956	5.51
551.3	5.61
551.643	5.47
551.987	5.62
552.33	5.62
552.674	5.44
553.017	5.69
553.361	5.59
553.704	5.47
554.048	5.37
554.391	5.51
554.734	5.42
555.077	5.52
555.42	5.44
555.764	5.43
556.107	5.57
556.45	5.57
556.793	5.57
557.135	5.46
557.478	5.58
557.821	5.55
558.164	5.62
558.507	5.38
558.849	5.59
559.192	5.52
559.534	5.41
559.877	5.37
560.219	5.47
560.562	5.43
560.904	5.74
561.246	5.52
561.589	5.73
561.931	5.66
562.273	5.42
562.615	5.43
562.957	5.38
563.299	5.49
563.641	5.42
563.983	5.46
564.325	5.6
564.667	5.58
565.008	5.39
565.35	5.5
565.692	5.66
566.033	5.43
566.375	5.52
566.716	5.48
567.058	5.42
567.399	5.49
567.741	5.56
568.082	5.5
568.423	5.48
568.764	5.52
569.105	5.49
569.447	5.59
569.788	5.66
570.129	5.66
570.47	5.48
570.811	5.48
571.151	5.66
571.492	5.45
571.833	5.56
572.174	5.59
572.514	5.55
572.855	5.54
573.195	5.48
573.536	5.59
573.876	5.44
574.217	5.55
574.557	5.54
574.898	5.47
575.238	5.72
575.578	5.66
575.918	5.61
576.258	5.66
576.598	5.56
576.938	5.54
577.278	5.61
577.618	5.49
577.958	5.64
578.298	5.66
578.638	5.58
578.977	5.72
579.317	5.68
579.657	5.55
579.996	5.71
580.336	5.56
580.675	5.49
581.014	5.71
581.354	5.59
581.693	5.87
582.032	5.94
582.372	5.85
582.711	5.64
583.05	5.77
583.389	5.91
583.728	5.88
584.067	5.64
584.406	5.87
584.745	5.78
585.083	5.77
585.422	5.82
585.761	5.86
586.1	5.96
586.438	5.65
586.777	5.54
587.115	5.9
587.454	5.65
587.792	5.66
588.13	5.75
588.469	5.83
588.807	6.05
589.145	5.67
589.483	5.51
589.821	5.86
590.159	5.67
590.497	5.88
590.835	5.91
591.173	6.08
591.511	5.91
591.849	5.76
592.187	5.66
592.524	5.81
592.862	5.68
593.2	5.91
593.537	5.9
593.875	5.63
594.212	6.05
594.55	6.08
594.887	5.99
595.224	6.24
595.561	5.65
595.899	5.9
596.236	5.86
596.573	5.57
596.91	5.79
597.247	5.83
597.584	5.89
597.921	5.86
598.258	5.76
598.594	5.66
598.931	5.61
599.268	5.6
599.604	6.01
599.941	5.78
600.277	5.85
600.614	6.02
600.95	5.99
601.287	5.58
601.623	5.74
601.959	6.3
602.296	5.92
602.632	5.85
602.968	5.95
603.304	6.14
603.64	5.96
603.976	5.81
604.312	5.83
604.648	5.77
604.984	5.92
605.319	5.77
605.655	5.66
605.991	5.73
606.326	5.84
606.662	5.68
606.998	5.9
607.333	5.96
607.668	5.86
608.004	5.81
608.339	5.88
608.674	5.94
609.01	5.94
609.345	6.15
609.68	5.86
610.015	6.02
610.35	6.03
610.685	5.53
611.02	5.8
611.355	5.79
611.689	5.89
612.024	6.01
612.359	6.21
612.694	6.13
613.028	5.89
613.363	5.84
613.697	5.91
614.032	5.93
614.366	5.96
614.7	5.99
615.035	6.14
615.369	6.35
615.703	6.07
616.037	6
616.371	6.12
616.705	6.11
617.039	6.13
617.373	6.13
617.707	6.1
618.041	5.71
618.375	5.45
618.709	6.02
619.042	5.97
619.376	6.06
619.71	6.13
620.043	6.27
620.377	6.18
620.71	5.91
621.043	6.3
621.377	6.32
621.71	6.54
622.043	6.05
622.376	6.25
622.709	6.51
623.043	6.21
623.376	6.12
623.709	6.45
624.041	5.82
624.374	6.29
624.707	6.33
625.04	6.26
625.373	6.27
625.705	6.17
626.038	6.34
626.37	5.89
626.703	6.19
627.035	6.21
627.368	6.25
627.7	6.21
628.032	6.06
628.365	6.31
628.697	6.25
629.029	6.04
629.361	6.26
629.693	6.11
630.025	6.28
630.357	6.08
630.689	6.4
631.021	6.39
631.353	6.13
631.684	6.07
632.016	5.91
632.348	5.98
632.679	6.41
633.011	6.36
633.342	6.07
633.674	5.89
634.005	6.03
634.336	6.43
634.668	6.09
634.999	5.86
635.33	6.22
635.661	6.12
635.992	6.07
636.323	6.32
636.654	6.17
636.985	5.69
637.316	6.02
637.647	6.07
637.977	6.33
638.308	6.4
638.639	6.06
638.969	5.97
639.3	6.42
639.63	6.13
639.961	6.35
640.291	6.17
640.622	6.41
640.952	6.36
641.282	5.63
641.612	6.27
641.943	6
642.273	5.99
642.603	6.43
642.933	6.64
643.263	6.22
643.592	6.7
643.922	6.26
644.252	5.91
644.582	6.3
644.911	6.36
645.241	5.98
645.571	6.21
645.9	6.73
646.23	6.46
646.559	6.02
646.888	6.49
647.218	6.37
647.547	6.45
647.876	6.53
648.205	6.21
648.534	6.36
648.863	6.5
649.192	6.34
649.521	6.24
649.85	6.11
650.179	6.75
650.508	6.34
650.837	6.55
651.165	6.35
651.494	6.7
651.822	6.66
652.151	6.29
652.479	6.63
652.808	6.37
653.136	5.69
653.465	6.15
653.793	6.32
654.121	6.29
654.449	6.06
654.777	5.96
655.105	5.82
655.433	6.48
655.761	6.38
656.089	6.37
656.417	6.76
656.745	7.24
657.073	6.82
657.4	6.51
657.728	5.88
658.056	6.39
658.383	6.21
658.711	6.47
659.038	6.93
659.365	6.78
659.693	6.16
660.02	6.45
660.347	6.38
660.674	6.28
661.001	6.21
661.329	6.39
661.656	5.92
661.982	6.1
662.309	6.52
662.636	6.67
662.963	6.6
663.29	6.39
663.616	6.04
663.943	6.24
664.27	6.24
664.596	6.45
664.923	7.02
665.249	6.39
665.576	6.29
665.902	6.31
666.228	6.57
666.554	7.11
666.881	6.09
667.207	6.48
667.533	6.3
667.859	6.54
668.185	6.39
668.511	7.18
668.837	7.06
669.162	6.79
669.488	5.97
669.814	6.4
670.139	6.21
670.465	6.9
670.791	6.33
671.116	6.29
671.442	5.61
671.767	6.19
672.092	6.37
672.418	6.57
672.743	6.23
673.068	6.33
673.393	6.3
673.718	6.53
674.043	6.24
674.368	6.16
674.693	6.63
675.018	6.65
675.343	6.83
675.667	6.63
675.992	6.1
676.317	6.14
676.641	6.77
676.966	6.47
677.29	6.51
677.615	6.63
677.939	6.48
678.264	6.53
678.588	6.73
678.912	6.65
679.236	6.73
679.56	6.51
679.885	6.77
680.209	6.92
680.532	7
680.856	7.08
681.18	7.22
681.504	6.81
681.828	6.24
682.152	6.77
682.475	6.8
682.799	5.97
683.122	6.71
683.446	6.63
683.769	6.63
684.093	6.82
684.416	6.66
684.739	6.52
685.062	6.73
685.386	6.78
685.709	6.3
686.032	6.91
686.355	6.55
686.678	7.15
687.001	5.95
687.324	6.88
687.646	7.03
687.969	6.62
688.292	6.35
688.614	7.08
688.937	6.58
689.26	7.32
689.582	6.31
689.904	6.93
690.227	6.7
690.549	7.3
690.871	6.81
691.194	6.33
691.516	6.58
691.838	6.82
692.16	6.16
692.482	6.78
692.804	6.6
693.126	6.41
693.448	6.47
