Data from 21-5_forehead_Reflection__4__14.txt Node

Date: Thu Dec 15 16:30:57 CST 2022
User: ToomeyLab
Spectrometer: FLMS14357
Trigger mode: 0
Integration Time (sec): 1.000000E-2
Scans to average: 100
Electric dark correction enabled: true
Nonlinearity correction enabled: false
Boxcar width: 0
XAxis mode: Wavelengths
Number of Pixels in Spectrum: 2048
>>>>>Begin Spectral Data<<<<<
189.047	2406.67
189.435	2406.67
189.823	2406.67
190.211	-526.22
190.599	78.64
190.987	126.99
191.375	3.9
191.763	125.14
192.151	134.2
192.538	138.53
192.926	636.6
193.314	14.79
193.702	1396.93
194.089	-29.12
194.477	177.45
194.864	111.79
195.252	37.02
195.639	137.56
196.027	77.38
196.414	167.18
196.801	50.87
197.189	77.56
197.576	91.17
197.963	3.72
198.351	41.31
198.738	3.63
199.125	15.89
199.512	14.76
199.899	5.27
200.286	2.81
200.673	37.97
201.06	-16.46
201.447	4.15
201.833	5.76
202.22	-11.75
202.607	2.59
202.994	-21.41
203.38	43.65
203.767	4.37
204.154	16.17
204.54	31.27
204.927	17.81
205.313	37.91
205.699	15.72
206.086	42.28
206.472	32.2
206.858	14.4
207.245	2.77
207.631	-27.48
208.017	26.07
208.403	9.29
208.789	25.99
209.175	7.97
209.561	-13.3
209.947	-1.67
210.333	-20.05
210.719	37.03
211.105	32.91
211.491	13.62
211.876	1.36
212.262	16.94
212.648	46.66
213.034	-7.78
213.419	16.35
213.805	-3.28
214.19	-1.78
214.576	-3.99
214.961	13.33
215.346	21.05
215.732	9.78
216.117	21.14
216.502	14.61
216.888	26.51
217.273	14.95
217.658	4.21
218.043	-15.93
218.428	-8.67
218.813	23.99
219.198	-16.86
219.583	-0.52
219.968	0.76
220.353	-7.44
220.738	6.77
221.122	4.13
221.507	0.64
221.892	-10.13
222.276	-10.14
222.661	-1.9
223.046	-2.76
223.43	5.83
223.815	7.4
224.199	8.66
224.583	7.87
224.968	-3.58
225.352	1.53
225.736	11.45
226.121	0.49
226.505	2.05
226.889	3.63
227.273	-3.51
227.657	4.81
228.041	1.86
228.425	1.87
228.809	0.7
229.193	1.85
229.577	0.84
229.961	1.93
230.344	1.8
230.728	2.23
231.112	2.07
231.495	1.41
231.879	1.63
232.263	2.54
232.646	2.29
233.03	3.63
233.413	2.6
233.797	0.8
234.18	3.54
234.563	3.42
234.946	1.14
235.33	2.34
235.713	2.16
236.096	2.74
236.479	2.65
236.862	2.06
237.245	2.05
237.628	2.79
238.011	2.16
238.394	2.32
238.777	2.9
239.16	5.09
239.543	1.9
239.925	2.13
240.308	2.53
240.691	2.7
241.073	2.59
241.456	2.38
241.838	1.8
242.221	1.78
242.603	1.75
242.986	2.26
243.368	2.15
243.75	2.1
244.133	2.32
244.515	1.97
244.897	2.19
245.279	1.51
245.661	2.22
246.043	2.32
246.425	1.83
246.807	2.34
247.189	1.62
247.571	1.65
247.953	2.01
248.335	1.99
248.717	2.06
249.098	2.22
249.48	1.95
249.862	2.09
250.243	2.11
250.625	2.17
251.006	2.36
251.388	2.24
251.769	2.2
252.151	2.69
252.532	2.4
252.913	1.64
253.295	2.05
253.676	2.44
254.057	2.07
254.438	2.06
254.819	2.31
255.2	2.2
255.581	2.61
255.962	3.55
256.343	2.09
256.724	2.57
257.105	2.31
257.486	0.98
257.867	2.07
258.247	2.32
258.628	2.72
259.009	1.9
259.389	1.44
259.77	2
260.15	2.02
260.531	1.91
260.911	1.87
261.292	1.92
261.672	1.85
262.052	1.97
262.432	1.77
262.813	2.14
263.193	2.41
263.573	1.76
263.953	1.6
264.333	2.29
264.713	1.96
265.093	1.72
265.473	1.97
265.853	2.19
266.233	1.57
266.612	1.77
266.992	2.09
267.372	2.37
267.752	2.05
268.131	1.98
268.511	1.62
268.89	2.03
269.27	1.65
269.649	1.51
270.029	1.72
270.408	1.81
270.787	2.18
271.167	1.87
271.546	2.48
271.925	2.27
272.304	1.71
272.683	1.69
273.062	1.72
273.441	1.65
273.82	1.96
274.199	1.58
274.578	1.96
274.957	1.53
275.336	2
275.715	2.04
276.093	1.66
276.472	1.58
276.851	1.99
277.229	1.83
277.608	1.73
277.986	2.17
278.365	2.34
278.743	2.18
279.122	2.44
279.5	1.99
279.878	2.23
280.257	1.88
280.635	2.17
281.013	1.26
281.391	2.23
281.769	2.34
282.147	2.15
282.525	1.65
282.903	2.05
283.281	2.56
283.659	2.1
284.037	1.91
284.415	1.86
284.792	2.21
285.17	1.7
285.548	2
285.925	1.97
286.303	2.17
286.68	2.12
287.058	2.01
287.435	1.95
287.813	1.94
288.19	1.71
288.567	2.06
288.945	1.76
289.322	2.03
289.699	2.48
290.076	1.98
290.453	1.72
290.83	1.93
291.207	2.02
291.584	2.29
291.961	2.12
292.338	1.62
292.715	1.88
293.092	2.57
293.469	1.83
293.845	2.17
294.222	2.66
294.599	2.05
294.975	1.81
295.352	2.07
295.728	2.1
296.105	2.19
296.481	2.55
296.858	2.19
297.234	1.61
297.61	2.23
297.986	2.45
298.363	2.37
298.739	2.22
299.115	2.13
299.491	2.52
299.867	2.04
300.243	2.45
300.619	2.3
300.995	2.54
301.371	2.32
301.746	2.61
302.122	2.13
302.498	2.33
302.874	2.89
303.249	2.38
303.625	2.42
304	2.2
304.376	2.97
304.751	2.68
305.127	2.41
305.502	2.49
305.878	2.42
306.253	2.14
306.628	2.93
307.003	2.32
307.378	2.3
307.754	2.86
308.129	2.36
308.504	2.57
308.879	2.69
309.254	3.06
309.629	2.98
310.003	2.88
310.378	3.17
310.753	2.89
311.128	2.72
311.502	2.74
311.877	2.5
312.252	2.92
312.626	3.08
313.001	2.92
313.375	3
313.75	3.1
314.124	3.35
314.498	3.44
314.873	2.69
315.247	3.1
315.621	2.78
315.995	2.76
316.369	2.69
316.743	2.9
317.117	3.18
317.491	2.98
317.865	2.52
318.239	3.48
318.613	2.82
318.987	2.8
319.361	2.85
319.734	3.15
320.108	3.33
320.482	3.89
320.855	3.37
321.229	3.28
321.602	3.32
321.976	3.09
322.349	4.01
322.723	3.59
323.096	3.46
323.469	3.04
323.843	2.98
324.216	3.2
324.589	3.27
324.962	2.59
325.335	3.14
325.708	2.97
326.081	3.44
326.454	3.48
326.827	2.88
327.2	3.01
327.573	3.88
327.945	3.11
328.318	3.2
328.691	3.3
329.063	2.94
329.436	3.36
329.809	3.29
330.181	4.08
330.553	3.87
330.926	3.77
331.298	3.27
331.671	3.61
332.043	3.25
332.415	3.58
332.787	3.97
333.159	3.32
333.532	3.33
333.904	3.62
334.276	3.62
334.648	3.33
335.02	3.67
335.391	3.28
335.763	3.41
336.135	3.45
336.507	3.48
336.879	3.51
337.25	3.57
337.622	3.55
337.993	3.32
338.365	3.44
338.736	3.4
339.108	3.82
339.479	3.37
339.851	3.68
340.222	4.1
340.593	3.52
340.964	3.77
341.336	3.51
341.707	3.48
342.078	3.46
342.449	3.6
342.82	3.73
343.191	3.4
343.562	3.87
343.933	3.75
344.303	3.77
344.674	3.14
345.045	3.74
345.416	4.02
345.786	3.49
346.157	3.66
346.527	3.45
346.898	3.44
347.268	3.68
347.639	3.53
348.009	3.62
348.38	3.65
348.75	3.87
349.12	3.7
349.49	3.45
349.861	3.85
350.231	3.74
350.601	3.31
350.971	3.46
351.341	4.06
351.711	4.02
352.081	3.44
352.45	3.6
352.82	3.55
353.19	4
353.56	3.72
353.929	3.7
354.299	4
354.669	3.78
355.038	3.85
355.408	3.56
355.777	3.99
356.147	3.86
356.516	3.53
356.885	3.88
357.254	3.79
357.624	3.4
357.993	4.11
358.362	3.73
358.731	4.16
359.1	3.8
359.469	3.91
359.838	4.12
360.207	3.97
360.576	4.18
360.945	4.17
361.314	3.7
361.682	3.68
362.051	3.79
362.42	3.96
362.788	3.99
363.157	3.73
363.525	3.91
363.894	3.71
364.262	3.9
364.631	4.18
364.999	3.93
365.367	3.94
365.735	3.72
366.104	4
366.472	3.96
366.84	4.03
367.208	4.08
367.576	3.85
367.944	4.32
368.312	3.76
368.68	4.23
369.048	3.96
369.416	4.08
369.783	3.91
370.151	4.45
370.519	4.27
370.886	4.1
371.254	4.16
371.621	4.21
371.989	4.29
372.356	4.25
372.724	4.17
373.091	3.82
373.458	4.11
373.826	4.36
374.193	4.22
374.56	4.18
374.927	4.01
375.294	4.14
375.661	4.21
376.028	4.08
376.395	4.3
376.762	3.97
377.129	3.98
377.496	4.06
377.863	4.26
378.229	4.33
378.596	4.11
378.963	4.23
379.329	4.06
379.696	4.18
380.062	4.22
380.429	4.07
380.795	4.61
381.161	4.08
381.528	3.95
381.894	4.13
382.26	4.08
382.626	4.26
382.993	4.43
383.359	4.11
383.725	4.2
384.091	4.6
384.457	4.23
384.823	4.35
385.188	4.22
385.554	4.23
385.92	4.29
386.286	4.22
386.651	4.18
387.017	4.57
387.383	4.14
387.748	4.39
388.114	4.55
388.479	4.18
388.845	4.11
389.21	4.49
389.575	4.43
389.94	4.49
390.306	4.39
390.671	4.3
391.036	4.31
391.401	4.31
391.766	4.29
392.131	4.39
392.496	4.21
392.861	4.16
393.226	4.21
393.591	4.49
393.956	4.51
394.32	4.59
394.685	4.29
395.05	4.27
395.414	4.27
395.779	4.36
396.143	4.19
396.508	4.25
396.872	4.22
397.236	4.6
397.601	4.52
397.965	4.36
398.329	4.26
398.694	4.22
399.058	4.49
399.422	4.38
399.786	4.3
400.15	4.26
400.514	4.18
400.878	4.26
401.242	4.26
401.605	4.38
401.969	4.11
402.333	4.27
402.697	4.45
403.06	4.21
403.424	4.51
403.787	4.15
404.151	4.33
404.514	4.28
404.878	4.1
405.241	4.14
405.604	4.23
405.968	4.19
406.331	4.32
406.694	4.24
407.057	4.12
407.42	4.07
407.783	4.19
408.146	4.25
408.509	4.45
408.872	4.28
409.235	4.34
409.598	4.12
409.961	4.43
410.323	4.36
410.686	4.33
411.049	4.37
411.411	4.34
411.774	4.25
412.136	4.25
412.499	4.46
412.861	4.16
413.223	4.15
413.586	4.27
413.948	4.41
414.31	4.46
414.672	4.37
415.035	4.47
415.397	4.37
415.759	4.1
416.121	4.47
416.483	4.35
416.845	4.38
417.206	4.33
417.568	4.44
417.93	4.31
418.292	4.29
418.653	4.2
419.015	4.31
419.377	4.29
419.738	4.36
420.1	4.41
420.461	4.21
420.822	4.39
421.184	4.4
421.545	4.35
421.906	4.39
422.267	4.32
422.629	4.3
422.99	4.35
423.351	4.35
423.712	4.53
424.073	4.53
424.434	4.56
424.795	4.45
425.155	4.47
425.516	4.48
425.877	4.51
426.238	4.57
426.598	4.59
426.959	4.65
427.32	4.71
427.68	4.69
428.041	4.78
428.401	4.74
428.761	5.03
429.122	4.97
429.482	4.99
429.842	4.96
430.202	4.89
430.563	4.93
430.923	4.86
431.283	5.05
431.643	5.13
432.003	5.09
432.363	5.18
432.722	5.03
433.082	5.09
433.442	5.2
433.802	5.03
434.161	5.23
434.521	5.23
434.881	5.13
435.24	5.22
435.6	5.32
435.959	5.23
436.319	5.37
436.678	5.42
437.037	5.37
437.396	5.37
437.756	5.23
438.115	5.29
438.474	5.45
438.833	5.29
439.192	5.49
439.551	5.26
439.91	5.37
440.269	5.35
440.628	5.34
440.987	5.48
441.345	5.44
441.704	5.31
442.063	5.38
442.421	5.5
442.78	5.49
443.138	5.53
443.497	5.52
443.855	5.6
444.214	5.48
444.572	5.84
444.93	5.74
445.288	5.55
445.647	5.58
446.005	5.74
446.363	5.65
446.721	5.71
447.079	5.64
447.437	5.57
447.795	5.64
448.153	5.59
448.51	5.73
448.868	5.61
449.226	5.73
449.584	5.78
449.941	5.78
450.299	5.87
450.656	5.91
451.014	5.95
451.371	6.15
451.729	6.01
452.086	6.14
452.443	6.09
452.801	5.99
453.158	6.13
453.515	5.97
453.872	6.06
454.229	5.93
454.586	5.92
454.943	6.14
455.3	6.06
455.657	6.03
456.014	6.12
456.371	6.29
456.727	6.29
457.084	6.32
457.441	6.26
457.797	6.34
458.154	6.29
458.51	6.1
458.867	6.35
459.223	6.28
459.58	6.28
459.936	6.26
460.292	6.28
460.648	6.2
461.005	6.24
461.361	6.25
461.717	6.18
462.073	6.34
462.429	6.29
462.785	6.55
463.141	6.41
463.496	6.45
463.852	6.62
464.208	6.43
464.564	6.49
464.919	6.57
465.275	6.52
465.631	6.85
465.986	6.72
466.342	6.42
466.697	6.73
467.052	6.84
467.408	6.68
467.763	6.62
468.118	6.53
468.473	6.69
468.829	6.69
469.184	6.78
469.539	6.7
469.894	6.74
470.249	6.89
470.603	6.93
470.958	6.98
471.313	6.9
471.668	6.83
472.023	6.81
472.377	6.77
472.732	7.12
473.086	6.9
473.441	6.85
473.795	7.21
474.15	7.05
474.504	7.06
474.859	6.93
475.213	6.96
475.567	6.94
475.921	7.03
476.275	7.08
476.63	7.14
476.984	7.04
477.338	7.17
477.692	7.07
478.045	7.05
478.399	7.05
478.753	7.13
479.107	7.17
479.461	7.04
479.814	7.2
480.168	7.14
480.521	7.18
480.875	7.22
481.228	7.22
481.582	7.13
481.935	7.38
482.289	7.24
482.642	7.23
482.995	7.1
483.348	7.22
483.701	7.21
484.055	7.11
484.408	7.13
484.761	6.92
485.114	6.79
485.466	6.7
485.819	6.79
486.172	6.91
486.525	7.04
486.878	7.13
487.23	7.18
487.583	7.21
487.936	7.15
488.288	7.1
488.641	7.12
488.993	7
489.345	7.01
489.698	7.06
490.05	7.19
490.402	7.19
490.754	7.3
491.107	7.32
491.459	7.51
491.811	7.47
492.163	7.43
492.515	7.33
492.866	7.19
493.218	7.21
493.57	7.31
493.922	7.37
494.274	7.58
494.625	7.69
494.977	7.6
495.328	7.72
495.68	7.74
496.031	7.71
496.383	7.63
496.734	7.92
497.086	7.91
497.437	7.83
497.788	7.94
498.139	7.77
498.49	7.78
498.842	7.9
499.193	7.87
499.544	7.87
499.894	7.8
500.245	7.91
500.596	7.91
500.947	7.87
501.298	8
501.648	8.08
501.999	8.19
502.35	8.03
502.7	8.3
503.051	8.12
503.401	8.22
503.752	8.13
504.102	8.09
504.452	8.13
504.803	8.15
505.153	8.21
505.503	8.14
505.853	8.35
506.203	8.21
506.553	8.24
506.903	8.39
507.253	8.37
507.603	8.38
507.953	8.35
508.303	8.42
508.652	8.29
509.002	8.38
509.352	8.37
509.701	8.22
510.051	8.32
510.4	8.38
510.75	8.29
511.099	8.31
511.449	8.4
511.798	8.32
512.147	8.37
512.496	8.49
512.846	8.29
513.195	8.44
513.544	8.49
513.893	8.52
514.242	8.41
514.591	8.5
514.939	8.65
515.288	8.69
515.637	8.5
515.986	8.66
516.334	8.72
516.683	8.64
517.032	8.75
517.38	8.68
517.729	8.83
518.077	8.79
518.426	8.83
518.774	8.66
519.122	8.7
519.47	8.6
519.819	8.71
520.167	8.54
520.515	8.66
520.863	8.64
521.211	8.71
521.559	8.69
521.907	8.83
522.255	8.79
522.602	8.89
522.95	8.95
523.298	8.9
523.645	9
523.993	8.95
524.341	8.98
524.688	9.01
525.036	9.05
525.383	8.99
525.73	8.96
526.078	9
526.425	8.93
526.772	8.87
527.119	8.83
527.466	8.84
527.814	8.94
528.161	9
528.508	9.11
528.854	8.95
529.201	8.91
529.548	8.68
529.895	8.59
530.242	8.58
530.588	8.64
530.935	8.78
531.282	8.82
531.628	8.97
531.975	8.99
532.321	9.09
532.667	9.21
533.014	9.3
533.36	9.23
533.706	9.19
534.052	9.16
534.399	9.01
534.745	8.89
535.091	8.95
535.437	9.13
535.783	9.17
536.129	9.29
536.474	9.42
536.82	9.46
537.166	9.41
537.512	9.35
537.857	9.3
538.203	9.36
538.549	9.29
538.894	9.45
539.239	9.5
539.585	9.58
539.93	9.72
540.276	9.7
540.621	9.82
540.966	9.81
541.311	9.77
541.656	9.65
542.001	9.58
542.346	9.44
542.691	9.31
543.036	9.3
543.381	9.42
543.726	9.52
544.071	9.6
544.415	9.62
544.76	9.64
545.105	9.75
545.449	9.73
545.794	9.79
546.138	10.03
546.483	10.08
546.827	9.95
547.171	9.96
547.516	10.07
547.86	9.99
548.204	10.03
548.548	10.04
548.892	10.04
549.236	10.06
549.58	10.15
549.924	10.33
550.268	10.46
550.612	10.42
550.956	10.42
551.3	10.73
551.643	10.49
551.987	10.56
552.33	10.69
552.674	10.6
553.017	10.59
553.361	10.65
553.704	10.59
554.048	10.49
554.391	10.59
554.734	10.51
555.077	10.6
555.42	10.53
555.764	10.66
556.107	10.86
556.45	10.89
556.793	11.03
557.135	10.75
557.478	11.03
557.821	10.91
558.164	11.06
558.507	10.8
558.849	11.1
559.192	11.02
559.534	11
559.877	10.86
560.219	11.03
560.562	10.93
560.904	11.29
561.246	10.96
561.589	11.39
561.931	11.21
562.273	11.12
562.615	11.07
562.957	11.24
563.299	11.14
563.641	11.26
563.983	11.07
564.325	11.45
564.667	11.26
565.008	11.24
565.35	11.44
565.692	11.31
566.033	11.38
566.375	11.45
566.716	11.22
567.058	11.36
567.399	11.32
567.741	11.27
568.082	11.37
568.423	11.36
568.764	11.42
569.105	11.63
569.447	11.46
569.788	11.53
570.129	11.54
570.47	11.77
570.811	11.57
571.151	11.52
571.492	11.81
571.833	11.65
572.174	11.63
572.514	11.77
572.855	11.93
573.195	11.55
573.536	11.79
573.876	11.73
574.217	11.87
574.557	11.83
574.898	11.87
575.238	11.98
575.578	11.94
575.918	11.91
576.258	12.27
576.598	12.09
576.938	11.97
577.278	12.18
577.618	12.15
577.958	12.25
578.298	12.19
578.638	12.15
578.977	12.34
579.317	12.26
579.657	12.24
579.996	12.47
580.336	12.37
580.675	12.21
581.014	12.66
581.354	12.23
581.693	12.69
582.032	12.73
582.372	12.78
582.711	12.77
583.05	12.55
583.389	13.03
583.728	13
584.067	12.74
584.406	12.83
584.745	12.77
585.083	12.84
585.422	13.06
585.761	13.02
586.1	13.05
586.438	12.9
586.777	13.1
587.115	13.07
587.454	12.74
587.792	13.1
588.13	12.93
588.469	13.06
588.807	13.27
589.145	13.27
589.483	13.01
589.821	13.18
590.159	13.19
590.497	13.14
590.835	13.32
591.173	13.31
591.511	13.4
591.849	13.41
592.187	13.19
592.524	13.25
592.862	13.33
593.2	13.34
593.537	13.64
593.875	13.39
594.212	13.71
594.55	13.47
594.887	13.85
595.224	14.01
595.561	13.47
595.899	13.55
596.236	13.71
596.573	13.68
596.91	13.6
597.247	13.74
597.584	13.77
597.921	13.56
598.258	13.67
598.594	13.57
598.931	13.62
599.268	13.69
599.604	13.87
599.941	13.9
600.277	13.92
600.614	14.09
600.95	14.04
601.287	13.97
601.623	14.06
601.959	14.39
602.296	14.31
602.632	14.2
602.968	14.18
603.304	14.18
603.64	14.33
603.976	14.31
604.312	13.93
604.648	14.09
604.984	14.22
605.319	14.37
605.655	14.28
605.991	14.02
606.326	14.19
606.662	14.01
606.998	14.35
607.333	14.15
607.668	14.65
608.004	14.52
608.339	14.37
608.674	14.79
609.01	14.79
609.345	14.7
609.68	14.69
610.015	14.86
610.35	14.78
610.685	14.35
611.02	14.45
611.355	14.43
611.689	14.64
612.024	14.75
612.359	15.01
612.694	14.9
613.028	14.75
613.363	15.27
613.697	15.08
614.032	15.16
614.366	15.09
614.7	15.18
615.035	15.21
615.369	15.31
615.703	15.16
616.037	15.31
616.371	15.64
616.705	15.53
617.039	15.42
617.373	15.55
617.707	15.19
618.041	15.11
618.375	15.1
618.709	15.52
619.042	15.39
619.376	15.54
619.71	15.51
620.043	15.93
620.377	15.81
620.71	15.58
621.043	15.73
621.377	15.8
621.71	15.87
622.043	15.81
622.376	15.72
622.709	16.13
623.043	15.97
623.376	15.78
623.709	16.04
624.041	16.1
624.374	15.91
624.707	16.21
625.04	15.76
625.373	16.33
625.705	15.98
626.038	16.34
626.37	16.05
626.703	16.04
627.035	16.4
627.368	16.37
627.7	16.18
628.032	15.86
628.365	16.03
628.697	16.36
629.029	16.33
629.361	16.29
629.693	16.37
630.025	16.27
630.357	16.25
630.689	16.22
631.021	16.65
631.353	16.55
631.684	16.51
632.016	16.74
632.348	16.7
632.679	16.87
633.011	16.64
633.342	16.96
633.674	16.33
634.005	16.65
634.336	16.69
634.668	16.62
634.999	16.58
635.33	16.64
635.661	16.53
635.992	16.89
636.323	17.01
636.654	16.83
636.985	17.05
637.316	17.24
637.647	17.16
637.977	16.87
638.308	17.17
638.639	16.94
638.969	17.04
639.3	17.19
639.63	17.17
639.961	16.94
640.291	17.27
640.622	17.43
640.952	17.5
641.282	17.02
641.612	16.97
641.943	17.23
642.273	17.17
642.603	17.78
642.933	17.7
643.263	17.74
643.592	17.62
643.922	17.82
644.252	17.34
644.582	18.12
644.911	17.8
645.241	17.78
645.571	17.69
645.9	17.62
646.23	18.24
646.559	17.87
646.888	17.94
647.218	17.93
647.547	17.32
647.876	17.9
648.205	17.73
648.534	17.99
648.863	17.85
649.192	18.23
649.521	18.18
649.85	18.42
650.179	18.19
650.508	17.91
650.837	18.43
651.165	18.24
651.494	18.41
651.822	18.12
652.151	17.95
652.479	18.25
652.808	18.07
653.136	17.94
653.465	18.55
653.793	18.65
654.121	18.43
654.449	18.07
654.777	18.23
655.105	18.45
655.433	18.53
655.761	18.34
656.089	18.56
656.417	19.12
656.745	18.92
657.073	18.36
657.4	18.8
657.728	18.36
658.056	18.06
658.383	19.08
658.711	18.92
659.038	19.21
659.365	18.65
659.693	18.69
660.02	18.19
660.347	18.26
660.674	18.31
661.001	18.42
661.329	18.86
661.656	18.58
661.982	18.69
662.309	18.91
662.636	18.74
662.963	18.68
663.29	19.35
663.616	18.58
663.943	19.49
664.27	18.96
664.596	18.67
664.923	19.71
665.249	19.45
665.576	18.84
665.902	19.43
666.228	19.18
666.554	19.31
666.881	19.13
667.207	19.46
667.533	19.24
667.859	19.76
668.185	19.36
668.511	19.09
668.837	19.78
669.162	19.42
669.488	19.41
669.814	19.4
670.139	19.09
670.465	19.47
670.791	18.92
671.116	19.31
671.442	19.19
671.767	19.55
672.092	19.63
672.418	19.56
672.743	19.63
673.068	19.14
673.393	19.86
673.718	19.39
674.043	20.33
674.368	20.3
674.693	20.31
675.018	19.96
675.343	20.1
675.667	20.48
675.992	20.18
676.317	19.52
676.641	20.33
676.966	20.51
677.29	20.31
677.615	19.94
677.939	20.79
678.264	19.81
678.588	20.49
678.912	19.97
679.236	20.07
679.56	19.84
679.885	20.31
680.209	20.01
680.532	20.85
680.856	20.4
681.18	20.76
681.504	19.8
681.828	19.81
682.152	19.91
682.475	20.51
682.799	20.38
683.122	20.63
683.446	19.98
