Data from 21-5_chest_Reflection__0__00.txt Node

Date: Thu Dec 15 16:25:51 CST 2022
User: ToomeyLab
Spectrometer: FLMS14357
Trigger mode: 0
Integration Time (sec): 1.000000E-2
Scans to average: 100
Electric dark correction enabled: true
Nonlinearity correction enabled: false
Boxcar width: 0
XAxis mode: Wavelengths
Number of Pixels in Spectrum: 2048
>>>>>Begin Spectral Data<<<<<
189.047	-3872
189.435	-3872
189.823	-3872
190.211	-151.74
190.599	295.15
190.987	59.52
191.375	9.17
191.763	234.93
192.151	-124.44
192.538	4.75
192.926	-154.78
193.314	100.71
193.702	623.31
194.089	91.8
194.477	65.91
194.864	22.46
195.252	60.68
195.639	175.92
196.027	-55.57
196.414	171.61
196.801	7.7
197.189	44.39
197.576	168.57
197.963	39.12
198.351	22.21
198.738	0.37
199.125	-8.51
199.512	22.02
199.899	-11.85
200.286	23.57
200.673	52.35
201.06	34.43
201.447	19.99
201.833	1.23
202.22	-25.09
202.607	0.99
202.994	44.92
203.38	6.73
203.767	-1.52
204.154	16.84
204.54	32.68
204.927	9.12
205.313	19.96
205.699	23.14
206.086	30.9
206.472	45.32
206.858	-1.32
207.245	4.25
207.631	-9.33
208.017	40.06
208.403	7.53
208.789	32.17
209.175	30.41
209.561	-18.25
209.947	-2.16
210.333	2.65
210.719	25.74
211.105	41.58
211.491	33.8
211.876	8.55
212.262	16.72
212.648	25.01
213.034	4.8
213.419	29.25
213.805	-1.05
214.19	-22.78
214.576	14.54
214.961	21.27
215.346	5.09
215.732	3.65
216.117	26.3
216.502	12.82
216.888	15.49
217.273	28.37
217.658	12.52
218.043	-4.81
218.428	22.91
218.813	20.63
219.198	18.81
219.583	2.74
219.968	11.92
220.353	4.15
220.738	8.02
221.122	5.14
221.507	-3.92
221.892	-8.16
222.276	-12.33
222.661	-9.21
223.046	1.87
223.43	13.33
223.815	2.99
224.199	3.63
224.583	7.8
224.968	3.31
225.352	0.41
225.736	8.14
226.121	1.1
226.505	2.83
226.889	1.67
227.273	3.09
227.657	-0.33
228.041	2.63
228.425	2.7
228.809	2.63
229.193	3.23
229.577	2.1
229.961	1.27
230.344	2.21
230.728	2.82
231.112	2.65
231.495	0.23
231.879	1.67
232.263	2.33
232.646	2.54
233.03	3.57
233.413	4.94
233.797	2.72
234.18	2.71
234.563	3.34
234.946	0.15
235.33	2.37
235.713	2.47
236.096	3.72
236.479	3.76
236.862	1.93
237.245	2.92
237.628	3.11
238.011	2.48
238.394	2.3
238.777	1.47
239.16	3.4
239.543	3.1
239.925	2.67
240.308	2.04
240.691	2.29
241.073	1.52
241.456	3.72
241.838	2.3
242.221	3.26
242.603	2.79
242.986	2.7
243.368	2.65
243.75	2.57
244.133	2.85
244.515	2.38
244.897	2.65
245.279	2.01
245.661	2.54
246.043	2.65
246.425	2.96
246.807	2.23
247.189	2.56
247.571	2.15
247.953	2.42
248.335	2.67
248.717	2.47
249.098	2.5
249.48	2.44
249.862	2.68
250.243	2.72
250.625	2.49
251.006	3.05
251.388	2.31
251.769	1.95
252.151	3.25
252.532	2.23
252.913	2.26
253.295	2.34
253.676	2.81
254.057	2.81
254.438	2.72
254.819	2.37
255.2	2.73
255.581	3.86
255.962	1.88
256.343	3.29
256.724	3.64
257.105	3.07
257.486	0.64
257.867	2.5
258.247	2.68
258.628	2.93
259.009	2.3
259.389	1.99
259.77	2.57
260.15	2.44
260.531	2.54
260.911	2.26
261.292	2.57
261.672	2.38
262.052	2.21
262.432	2.15
262.813	2.44
263.193	2.53
263.573	2.31
263.953	1.46
264.333	2.67
264.713	2.88
265.093	2.32
265.473	2.75
265.853	2.88
266.233	2.64
266.612	1.97
266.992	2.26
267.372	2.69
267.752	2.71
268.131	2.33
268.511	2.49
268.89	3.03
269.27	2.01
269.649	1.86
270.029	2.29
270.408	1.97
270.787	2.79
271.167	2.96
271.546	2.88
271.925	2.68
272.304	2.21
272.683	2.07
273.062	2.5
273.441	1.89
273.82	2.27
274.199	2.36
274.578	2.32
274.957	2.19
275.336	2.73
275.715	2.46
276.093	2.19
276.472	2.1
276.851	2.22
277.229	2.5
277.608	1.52
277.986	2.53
278.365	2.58
278.743	2.24
279.122	2.6
279.5	1.82
279.878	2.3
280.257	2.55
280.635	3.12
281.013	1.87
281.391	2.54
281.769	2.6
282.147	2.19
282.525	2.31
282.903	1.89
283.281	2.57
283.659	2.58
284.037	2.23
284.415	2.15
284.792	2.53
285.17	2.07
285.548	2.33
285.925	2.06
286.303	2.89
286.68	2.33
287.058	2.4
287.435	2.24
287.813	2.36
288.19	2.17
288.567	2.5
288.945	2.38
289.322	2.68
289.699	2.68
290.076	2.29
290.453	2.37
290.83	2.69
291.207	2.52
291.584	2.54
291.961	2.17
292.338	2.32
292.715	2.57
293.092	2.96
293.469	2.8
293.845	2.87
294.222	2.83
294.599	2.49
294.975	2.36
295.352	2.82
295.728	2.48
296.105	2.9
296.481	2.64
296.858	2.78
297.234	2.46
297.61	2.62
297.986	3.09
298.363	3
298.739	2.87
299.115	2.65
299.491	2.94
299.867	2.64
300.243	2.85
300.619	2.6
300.995	3.16
301.371	2.77
301.746	3.19
302.122	2.66
302.498	2.83
302.874	3.15
303.249	2.99
303.625	2.78
304	3.25
304.376	3.21
304.751	3.25
305.127	2.89
305.502	3.22
305.878	3.11
306.253	2.67
306.628	2.62
307.003	2.64
307.378	3.2
307.754	3.36
308.129	3.13
308.504	3.15
308.879	3.35
309.254	2.76
309.629	3.2
310.003	3.01
310.378	3.13
310.753	3.51
311.128	2.83
311.502	3.01
311.877	2.8
312.252	3.09
312.626	3.32
313.001	3.03
313.375	3.21
313.75	3.23
314.124	3.71
314.498	3.67
314.873	3.07
315.247	3.25
315.621	2.98
315.995	3.64
316.369	2.81
316.743	3.15
317.117	3
317.491	3.22
317.865	2.65
318.239	3.51
318.613	3.41
318.987	3.13
319.361	3.67
319.734	3.47
320.108	3.52
320.482	3.46
320.855	3.09
321.229	3.64
321.602	3.23
321.976	3.01
322.349	3.87
322.723	3.48
323.096	3.41
323.469	2.94
323.843	3.05
324.216	3.12
324.589	3.52
324.962	3.01
325.335	3.15
325.708	3.25
326.081	3.64
326.454	3.84
326.827	3.24
327.2	3.14
327.573	3.69
327.945	3.03
328.318	3.64
328.691	3.27
329.063	3.52
329.436	2.96
329.809	4.05
330.181	3.76
330.553	3.6
330.926	3.67
331.298	3.35
331.671	3.55
332.043	3.66
332.415	4.11
332.787	3.92
333.159	3.44
333.532	3.42
333.904	3.61
334.276	3.59
334.648	3.59
335.02	3.67
335.391	3.49
335.763	3.59
336.135	3.67
336.507	3.56
336.879	3.54
337.25	3.66
337.622	3.77
337.993	3.59
338.365	3.8
338.736	4.12
339.108	3.5
339.479	3.44
339.851	3.77
340.222	3.63
340.593	3.58
340.964	3.47
341.336	3.13
341.707	3.41
342.078	3.36
342.449	3.36
342.82	3.47
343.191	3.64
343.562	3.4
343.933	3.17
344.303	3.54
344.674	3.41
345.045	3.7
345.416	3.92
345.786	3.37
346.157	3.63
346.527	3.38
346.898	3.16
347.268	3.67
347.639	3.3
348.009	3.54
348.38	3.37
348.75	3.61
349.12	3.71
349.49	3.36
349.861	3.51
350.231	3.48
350.601	3.51
350.971	3.35
351.341	3.74
351.711	3.65
352.081	3.26
352.45	3.16
352.82	3.23
353.19	3.52
353.56	3.83
353.929	3.72
354.299	3.78
354.669	3.52
355.038	3.63
355.408	3.46
355.777	3.53
356.147	3.41
356.516	3.52
356.885	3.5
357.254	3.29
357.624	3.22
357.993	3.48
358.362	3.44
358.731	3.65
359.1	3.59
359.469	3.61
359.838	3.5
360.207	3.53
360.576	3.59
360.945	3.43
361.314	3.34
361.682	3.28
362.051	3.56
362.42	3.49
362.788	3.46
363.157	3.31
363.525	3.57
363.894	3.33
364.262	3.37
364.631	3.8
364.999	3.48
365.367	3.25
365.735	3.49
366.104	3.44
366.472	3.41
366.84	3.53
367.208	3.62
367.576	3.47
367.944	3.42
368.312	3.53
368.68	3.55
369.048	3.44
369.416	3.48
369.783	3.67
370.151	3.93
370.519	3.92
370.886	4.03
371.254	3.92
371.621	3.81
371.989	3.88
372.356	3.43
372.724	3.67
373.091	3.64
373.458	3.38
373.826	3.86
374.193	3.7
374.56	4.08
374.927	3.6
375.294	3.81
375.661	3.63
376.028	3.7
376.395	3.56
376.762	3.68
377.129	3.57
377.496	3.47
377.863	3.55
378.229	3.62
378.596	3.71
378.963	3.59
379.329	3.7
379.696	3.34
380.062	3.41
380.429	3.57
380.795	3.98
381.161	3.29
381.528	3.43
381.894	3.48
382.26	3.73
382.626	3.86
382.993	3.88
383.359	3.65
383.725	3.59
384.091	3.79
384.457	3.57
384.823	3.52
385.188	3.84
385.554	3.72
385.92	3.41
386.286	3.69
386.651	3.65
387.017	3.83
387.383	3.59
387.748	3.69
388.114	3.89
388.479	3.63
388.845	3.63
389.21	3.77
389.575	3.86
389.94	3.83
390.306	3.68
390.671	3.64
391.036	3.66
391.401	3.8
391.766	3.62
392.131	3.83
392.496	3.64
392.861	3.56
393.226	3.58
393.591	3.53
393.956	3.77
394.32	3.81
394.685	3.66
395.05	3.75
395.414	3.75
395.779	3.74
396.143	3.65
396.508	3.56
396.872	3.61
397.236	3.85
397.601	3.96
397.965	3.63
398.329	3.89
398.694	3.52
399.058	3.68
399.422	3.84
399.786	3.61
400.15	3.63
400.514	3.7
400.878	3.62
401.242	3.83
401.605	3.78
401.969	3.63
402.333	3.58
402.697	3.97
403.06	3.7
403.424	3.84
403.787	3.71
404.151	3.79
404.514	3.89
404.878	3.52
405.241	3.53
405.604	3.69
405.968	3.83
406.331	3.74
406.694	3.77
407.057	3.72
407.42	3.68
407.783	3.81
408.146	3.77
408.509	4.05
408.872	3.72
409.235	3.89
409.598	3.68
409.961	3.9
410.323	3.52
410.686	3.59
411.049	3.74
411.411	3.74
411.774	3.74
412.136	3.63
412.499	3.96
412.861	3.53
413.223	3.66
413.586	3.66
413.948	3.91
414.31	4.06
414.672	3.68
415.035	3.87
415.397	3.66
415.759	3.68
416.121	3.95
416.483	3.69
416.845	3.8
417.206	3.79
417.568	3.71
417.93	3.9
418.292	3.7
418.653	3.52
419.015	3.69
419.377	3.77
419.738	3.77
420.1	3.57
420.461	3.74
420.822	3.74
421.184	3.63
421.545	3.74
421.906	3.61
422.267	3.65
422.629	3.79
422.99	3.68
423.351	3.59
423.712	3.71
424.073	3.73
424.434	3.8
424.795	3.61
425.155	3.68
425.516	3.72
425.877	3.77
426.238	3.75
426.598	3.67
426.959	3.72
427.32	3.7
427.68	3.77
428.041	3.76
428.401	3.7
428.761	3.76
429.122	3.79
429.482	3.86
429.842	3.99
430.202	3.97
430.563	4.06
430.923	3.73
431.283	4
431.643	4.05
432.003	4.08
432.363	3.97
432.722	3.93
433.082	3.88
433.442	4.03
433.802	3.97
434.161	3.92
434.521	3.84
434.881	4.11
435.24	3.88
435.6	4.06
435.959	3.88
436.319	4.04
436.678	4.04
437.037	4.03
437.396	3.87
437.756	4.01
438.115	3.87
438.474	4.05
438.833	3.97
439.192	3.84
439.551	3.85
439.91	3.99
440.269	3.99
440.628	3.9
440.987	4
441.345	4.01
441.704	3.92
442.063	3.91
442.421	4.01
442.78	3.96
443.138	4.07
443.497	3.93
443.855	4.19
444.214	3.79
444.572	4.05
444.93	3.92
445.288	3.98
445.647	3.9
446.005	4.08
446.363	3.93
446.721	3.99
447.079	3.85
447.437	3.94
447.795	3.96
448.153	3.98
448.51	3.98
448.868	3.97
449.226	4
449.584	3.91
449.941	4.03
450.299	4.04
450.656	3.95
451.014	4.11
451.371	4.18
451.729	4.12
452.086	4.11
452.443	4.21
452.801	4.03
453.158	4.24
453.515	4.18
453.872	4.15
454.229	4.05
454.586	4.07
454.943	4.16
455.3	4.27
455.657	4.15
456.014	4.03
456.371	4.19
456.727	4.22
457.084	4.4
457.441	4.22
457.797	4.12
458.154	4.15
458.51	4.34
458.867	4.18
459.223	4.08
459.58	4.3
459.936	4.23
460.292	4.11
460.648	4.12
461.005	4.11
461.361	4.1
461.717	4.11
462.073	4.18
462.429	4.22
462.785	4.38
463.141	4.21
463.496	4.27
463.852	4.34
464.208	4.29
464.564	4.34
464.919	4.16
465.275	4.31
465.631	4.56
465.986	4.39
466.342	4.1
466.697	4.32
467.052	4.43
467.408	4.4
467.763	4.29
468.118	4.12
468.473	4.26
468.829	4.29
469.184	4.46
469.539	4.14
469.894	4.44
470.249	4.38
470.603	4.5
470.958	4.4
471.313	4.35
471.668	4.53
472.023	4.4
472.377	4.4
472.732	4.46
473.086	4.45
473.441	4.34
473.795	4.55
474.15	4.41
474.504	4.36
474.859	4.16
475.213	4.5
475.567	4.42
475.921	4.56
476.275	4.53
476.63	4.52
476.984	4.36
477.338	4.58
477.692	4.46
478.045	4.47
478.399	4.46
478.753	4.43
479.107	4.48
479.461	4.4
479.814	4.49
480.168	4.32
480.521	4.55
480.875	4.51
481.228	4.45
481.582	4.41
481.935	4.53
482.289	4.41
482.642	4.48
482.995	4.43
483.348	4.43
483.701	4.46
484.055	4.39
484.408	4.34
484.761	4.28
485.114	4.2
485.466	4.14
485.819	4.18
486.172	4.21
486.525	4.32
486.878	4.34
487.23	4.34
487.583	4.39
487.936	4.37
488.288	4.35
488.641	4.32
488.993	4.32
489.345	4.32
489.698	4.32
490.05	4.36
490.402	4.36
490.754	4.4
491.107	4.4
491.459	4.46
491.811	4.5
492.163	4.47
492.515	4.49
492.866	4.38
493.218	4.4
493.57	4.4
493.922	4.45
494.274	4.53
494.625	4.58
494.977	4.63
495.328	4.55
495.68	4.69
496.031	4.69
496.383	4.68
496.734	4.66
497.086	4.74
497.437	4.83
497.788	4.8
498.139	4.71
498.49	4.74
498.842	4.77
499.193	4.65
499.544	4.69
499.894	4.66
500.245	4.75
500.596	4.7
500.947	4.71
501.298	4.8
501.648	4.79
501.999	4.82
502.35	4.75
502.7	4.85
503.051	4.84
503.401	4.79
503.752	4.86
504.102	4.86
504.452	4.81
504.803	4.82
505.153	4.93
505.503	4.84
505.853	4.87
506.203	4.9
506.553	4.91
506.903	4.88
507.253	4.86
507.603	4.92
507.953	4.97
508.303	5.08
508.652	4.79
509.002	4.97
509.352	5.05
509.701	4.87
510.051	5.04
510.4	5
510.75	4.86
511.099	4.84
511.449	4.95
511.798	4.91
512.147	4.91
512.496	4.98
512.846	5.02
513.195	5.02
513.544	4.99
513.893	5.02
514.242	4.91
514.591	5.02
514.939	5.04
515.288	5.12
515.637	5.07
515.986	5.16
516.334	5.08
516.683	5.21
517.032	5.17
517.38	5.13
517.729	5.18
518.077	5.24
518.426	5.24
518.774	4.98
519.122	5.13
519.47	5.05
519.819	5.05
520.167	5.04
520.515	5
520.863	5.1
521.211	5.14
521.559	5.11
521.907	5.2
522.255	5.14
522.602	5.28
522.95	5.25
523.298	5.34
523.645	5.27
523.993	5.21
524.341	5.27
524.688	5.26
525.036	5.29
525.383	5.29
525.73	5.27
526.078	5.26
526.425	5.33
526.772	5.24
527.119	5.22
527.466	5.27
527.814	5.23
528.161	5.28
528.508	5.36
528.854	5.26
529.201	5.16
529.548	5.18
529.895	5.07
530.242	5.1
530.588	5.12
530.935	5.21
531.282	5.2
531.628	5.25
531.975	5.33
532.321	5.29
532.667	5.39
533.014	5.47
533.36	5.46
533.706	5.47
534.052	5.41
534.399	5.42
534.745	5.32
535.091	5.34
535.437	5.35
535.783	5.41
536.129	5.41
536.474	5.55
536.82	5.58
537.166	5.6
537.512	5.64
537.857	5.58
538.203	5.59
538.549	5.57
538.894	5.59
539.239	5.71
539.585	5.74
539.93	5.72
540.276	5.68
540.621	5.76
540.966	5.78
541.311	5.78
541.656	5.66
542.001	5.68
542.346	5.65
542.691	5.55
543.036	5.57
543.381	5.57
543.726	5.69
544.071	5.64
544.415	5.69
544.76	5.73
545.105	5.74
545.449	5.83
545.794	5.83
546.138	5.88
546.483	5.91
546.827	5.88
547.171	5.96
547.516	6.03
547.86	5.98
548.204	5.97
548.548	5.97
548.892	6.02
549.236	6.02
549.58	6.1
549.924	6.27
550.268	6.12
550.612	6.13
550.956	6.26
551.3	6.48
551.643	6.24
551.987	6.33
552.33	6.4
552.674	6.34
553.017	6.41
553.361	6.39
553.704	6.26
554.048	6.42
554.391	6.47
554.734	6.3
555.077	6.5
555.42	6.28
555.764	6.31
556.107	6.52
556.45	6.48
556.793	6.58
557.135	6.61
557.478	6.55
557.821	6.61
558.164	6.69
558.507	6.52
558.849	6.65
559.192	6.6
559.534	6.72
559.877	6.7
560.219	6.65
560.562	6.77
560.904	6.84
561.246	6.78
561.589	6.72
561.931	6.77
562.273	6.74
562.615	6.6
562.957	6.73
563.299	6.73
563.641	6.81
563.983	6.64
564.325	6.89
564.667	6.73
565.008	6.68
565.35	6.73
565.692	6.92
566.033	6.9
566.375	6.9
566.716	6.71
567.058	6.85
567.399	7
567.741	6.95
568.082	7.07
568.423	6.93
568.764	7.04
569.105	7.04
569.447	7
569.788	7
570.129	7.04
570.47	7.12
570.811	7.13
571.151	7.16
571.492	7.09
571.833	6.99
572.174	7.31
572.514	7.07
572.855	7.29
573.195	7.18
573.536	7.39
573.876	7.27
574.217	7.16
574.557	7.22
574.898	7.31
575.238	7.44
575.578	7.35
575.918	7.41
576.258	7.59
576.598	7.4
576.938	7.32
577.278	7.43
577.618	7.57
577.958	7.55
578.298	7.54
578.638	7.42
578.977	7.44
579.317	7.67
579.657	7.6
579.996	7.59
580.336	7.73
580.675	7.6
581.014	7.77
581.354	7.6
581.693	7.91
582.032	7.84
582.372	7.9
582.711	7.82
583.05	7.87
583.389	8.02
583.728	7.91
584.067	7.85
584.406	7.9
584.745	7.91
585.083	7.84
585.422	8
585.761	8.17
586.1	8.13
586.438	7.96
586.777	8.22
587.115	7.92
587.454	7.91
587.792	8.16
588.13	8.05
588.469	8.19
588.807	8.09
589.145	8.29
589.483	8.05
589.821	8.3
590.159	8.28
590.497	8.25
590.835	8.32
591.173	8.3
591.511	8.37
591.849	8.48
592.187	8.27
592.524	8.38
592.862	8.41
593.2	8.24
593.537	8.57
593.875	8.44
594.212	8.67
594.55	8.43
594.887	8.39
595.224	8.79
595.561	8.63
595.899	8.38
596.236	8.64
596.573	8.42
596.91	8.47
597.247	8.69
597.584	8.72
597.921	8.59
598.258	8.76
598.594	8.48
598.931	8.52
599.268	8.54
599.604	8.71
599.941	8.92
600.277	8.79
600.614	8.77
600.95	8.99
601.287	8.78
601.623	8.56
601.959	8.94
602.296	8.91
602.632	8.98
602.968	8.86
603.304	9.25
603.64	8.98
603.976	9.04
604.312	8.94
604.648	8.87
604.984	9.01
605.319	9.16
605.655	8.92
605.991	9.01
606.326	8.95
606.662	8.98
606.998	9.29
607.333	9.13
607.668	9.19
608.004	9.57
608.339	9.25
608.674	9.37
609.01	9.57
609.345	9.3
609.68	9.38
610.015	9.34
610.35	9.42
610.685	9.28
611.02	9.27
611.355	9.51
611.689	9.45
612.024	9.39
612.359	9.77
612.694	9.63
613.028	9.44
613.363	9.53
613.697	9.66
614.032	9.69
614.366	9.61
614.7	9.76
615.035	9.63
615.369	10.14
615.703	9.93
616.037	9.88
616.371	9.95
616.705	9.85
617.039	10.05
617.373	10.19
617.707	10.29
618.041	9.77
618.375	9.57
618.709	10.2
619.042	10.1
619.376	10.11
619.71	10.03
620.043	10.51
620.377	10.09
620.71	10.25
621.043	10.37
621.377	10.5
621.71	10.34
622.043	10.3
622.376	10.32
622.709	10.76
623.043	10.42
623.376	10.16
623.709	10.68
624.041	10.45
624.374	10.47
624.707	10.58
625.04	10.43
625.373	10.42
625.705	10.63
626.038	10.61
626.37	10.6
626.703	10.59
627.035	10.57
627.368	10.93
627.7	10.52
628.032	10.58
628.365	10.76
628.697	10.98
629.029	10.77
629.361	11.12
629.693	10.6
630.025	10.62
630.357	10.76
630.689	10.84
631.021	11.14
631.353	10.84
631.684	10.58
632.016	10.42
632.348	11.06
632.679	11.11
633.011	11.08
633.342	11.32
633.674	11
634.005	11.27
634.336	11.4
634.668	11.15
634.999	10.76
635.33	11.28
635.661	11.28
635.992	11.09
636.323	11.51
636.654	11.35
636.985	11.19
637.316	10.8
637.647	11.49
637.977	11.09
638.308	11.22
638.639	11.1
638.969	11.4
639.3	11.34
639.63	11.64
639.961	11.31
640.291	11.42
640.622	12
640.952	11.81
641.282	11.29
641.612	11.65
641.943	11.28
642.273	11.39
642.603	11.64
642.933	11.84
643.263	11.74
643.592	11.73
643.922	12.25
644.252	11.35
644.582	12.09
644.911	11.87
645.241	11.62
645.571	11.84
645.9	12.11
646.23	12.06
646.559	11.89
646.888	12.21
647.218	12
647.547	11.77
647.876	12
648.205	12
648.534	12.27
648.863	12.18
649.192	12
649.521	12.28
649.85	12.21
650.179	12.3
650.508	12.7
650.837	12.63
651.165	12.59
651.494	12.29
651.822	12.42
652.151	12.27
652.479	12.17
652.808	12.3
653.136	12.36
653.465	12.09
653.793	12.33
654.121	12.43
654.449	12.12
654.777	12.43
655.105	12.35
655.433	12.27
655.761	12.36
656.089	12.65
656.417	13.23
656.745	13
657.073	12.33
657.4	12.63
657.728	12.24
658.056	12.75
658.383	13.06
658.711	12.6
659.038	13.26
659.365	13.05
659.693	13.06
660.02	12.61
660.347	12.85
660.674	12.73
661.001	12.48
661.329	12.41
661.656	12.76
661.982	12.77
662.309	12.48
662.636	13.07
662.963	13.09
663.29	12.97
663.616	12.79
663.943	13.22
664.27	13.01
664.596	13.14
664.923	13.41
665.249	13.24
665.576	13.04
665.902	12.92
666.228	13.43
666.554	13.52
666.881	12.83
667.207	13.47
667.533	13.62
667.859	13.66
668.185	13.39
668.511	14.02
668.837	13.41
669.162	13.49
669.488	13.02
669.814	12.82
670.139	13.27
670.465	14.01
670.791	13.86
671.116	13.7
671.442	13.08
671.767	13.66
672.092	13.27
672.418	13.76
672.743	13.66
673.068	13.07
673.393	13.64
673.718	13.2
674.043	13.75
674.368	14.23
674.693	13.83
675.018	14.31
675.343	14.02
675.667	13.66
675.992	14.14
676.317	13.21
676.641	14.47
676.966	13.88
677.29	13.76
677.615	13.36
677.939	14.37
678.264	14.15
678.588	14.64
678.912	14.23
679.236	14.16
679.56	14.25
679.885	13.72
680.209	14.44
680.532	15.05
680.856	14.44
681.18	14.79
681.504	13.98
681.828	13.76
682.152	14.48
682.475	14.13
682.799	14.02
683.122	14.77
683.446	13.5
683.769	14.71
684.093	14.77
684.416	14.39
684.739	13.94
685.062	14.46
685.386	14.57
685.709	14.96
686.032	14.7
686.355	15.02
686.678	15.47
687.001	14.35
687.324	14.91
687.646	15.03
687.969	14.77
688.292	14.64
688.614	15.17
