Data from 21-5_crown_Reflection__4__09.txt Node

Date: Thu Dec 15 16:29:13 CST 2022
User: ToomeyLab
Spectrometer: FLMS14357
Trigger mode: 0
Integration Time (sec): 1.000000E-2
Scans to average: 100
Electric dark correction enabled: true
Nonlinearity correction enabled: false
Boxcar width: 0
XAxis mode: Wavelengths
Number of Pixels in Spectrum: 2048
>>>>>Begin Spectral Data<<<<<
189.047	1412.67
189.435	1412.67
189.823	1412.67
190.211	167.99
190.599	672.01
190.987	158.97
191.375	15.01
191.763	382.15
192.151	25.85
192.538	15.63
192.926	288.23
193.314	-28.83
193.702	1106.44
194.089	-7.97
194.477	77.92
194.864	74.31
195.252	89.92
195.639	79
196.027	-11.09
196.414	85.07
196.801	1.59
197.189	13.85
197.576	156.73
197.963	-10.57
198.351	12.24
198.738	5.03
199.125	-26.04
199.512	38.49
199.899	-25.15
200.286	-14.53
200.673	24.9
201.06	24.49
201.447	28.02
201.833	4.99
202.22	9.39
202.607	-13.85
202.994	8.79
203.38	38.19
203.767	15.28
204.154	41.6
204.54	43
204.927	15.93
205.313	22.74
205.699	41.52
206.086	34.96
206.472	41.92
206.858	5.69
207.245	-13
207.631	-2.38
208.017	60.68
208.403	-14.98
208.789	25.31
209.175	12.51
209.561	-52.71
209.947	-1.5
210.333	23.41
210.719	38.69
211.105	24.02
211.491	21.23
211.876	-16.75
212.262	10.16
212.648	22.7
213.034	-3.05
213.419	11.4
213.805	-3.48
214.19	-3.98
214.576	-8.36
214.961	21.72
215.346	17.36
215.732	0.44
216.117	15.82
216.502	6.87
216.888	12.92
217.273	8.8
217.658	10.69
218.043	-6.79
218.428	-14.63
218.813	8
219.198	-4.28
219.583	3.81
219.968	14.09
220.353	-12.48
220.738	-1.01
221.122	-4.71
221.507	-0.92
221.892	-22.86
222.276	-11.71
222.661	6.01
223.046	4.02
223.43	9.04
223.815	10.94
224.199	-2.07
224.583	5.09
224.968	5.15
225.352	-0.53
225.736	8.7
226.121	-0.16
226.505	3.99
226.889	5.43
227.273	-1.58
227.657	5.96
228.041	3.78
228.425	3.26
228.809	0.42
229.193	3.22
229.577	3.26
229.961	1.63
230.344	2.6
230.728	3.04
231.112	2.55
231.495	1.51
231.879	2.5
232.263	2.64
232.646	3.17
233.03	3.13
233.413	3.02
233.797	1.58
234.18	2.82
234.563	2.25
234.946	1.14
235.33	3.19
235.713	2.63
236.096	3.73
236.479	2.37
236.862	1.3
237.245	0.97
237.628	3.55
238.011	1.94
238.394	2.05
238.777	3.08
239.16	3.98
239.543	3.81
239.925	1.41
240.308	1.6
240.691	3.24
241.073	1.65
241.456	3.4
241.838	2.66
242.221	2.57
242.603	3.05
242.986	2.18
243.368	2.4
243.75	2.35
244.133	2.77
244.515	2.4
244.897	2.2
245.279	2.25
245.661	2.25
246.043	3.2
246.425	2.73
246.807	2.36
247.189	1.79
247.571	2.18
247.953	2.54
248.335	2.35
248.717	2.21
249.098	2.19
249.48	2.29
249.862	2.66
250.243	2.5
250.625	2.45
251.006	3.12
251.388	2
251.769	2.74
252.151	2.73
252.532	2.17
252.913	2.08
253.295	1.97
253.676	2
254.057	2.15
254.438	2.68
254.819	2.64
255.2	2.42
255.581	3.74
255.962	3.17
256.343	3.27
256.724	2.71
257.105	3.41
257.486	1.79
257.867	2.81
258.247	2.78
258.628	2.2
259.009	2.15
259.389	2.42
259.77	2.56
260.15	2.58
260.531	1.94
260.911	2.05
261.292	2.14
261.672	2.11
262.052	2.25
262.432	1.82
262.813	1.84
263.193	2.27
263.573	2.38
263.953	2.39
264.333	2.78
264.713	2.93
265.093	2.06
265.473	1.89
265.853	2.48
266.233	2.41
266.612	1.64
266.992	1.71
267.372	2.43
267.752	2.53
268.131	2.56
268.511	1.9
268.89	2.46
269.27	1.67
269.649	2.07
270.029	1.93
270.408	2.13
270.787	2
271.167	2.42
271.546	2.72
271.925	2.58
272.304	2.17
272.683	2.27
273.062	2.41
273.441	1.96
273.82	2.57
274.199	2.11
274.578	2.42
274.957	2.11
275.336	2.42
275.715	2.12
276.093	1.94
276.472	1.7
276.851	2.08
277.229	2.11
277.608	1.77
277.986	2.01
278.365	2.29
278.743	2.47
279.122	2.12
279.5	2.14
279.878	1.87
280.257	2.51
280.635	2.23
281.013	1.64
281.391	2.18
281.769	2.41
282.147	1.81
282.525	1.84
282.903	1.73
283.281	2.42
283.659	2.56
284.037	1.92
284.415	2.06
284.792	2.46
285.17	1.51
285.548	2.19
285.925	1.91
286.303	2.57
286.68	1.91
287.058	2.36
287.435	1.87
287.813	2.16
288.19	1.88
288.567	2.38
288.945	1.64
289.322	2.61
289.699	2.64
290.076	2.25
290.453	1.86
290.83	2.07
291.207	2.17
291.584	2.17
291.961	2.32
292.338	2.14
292.715	2.33
293.092	2.46
293.469	2.34
293.845	2.5
294.222	2.4
294.599	2.3
294.975	1.69
295.352	2.38
295.728	2.2
296.105	2.27
296.481	2.32
296.858	2.11
297.234	2.24
297.61	2.21
297.986	2.47
298.363	2.65
298.739	2.48
299.115	2.42
299.491	2.58
299.867	2.22
300.243	2.23
300.619	1.85
300.995	2.54
301.371	2.44
301.746	2.35
302.122	2.11
302.498	2.27
302.874	2.45
303.249	2.3
303.625	1.99
304	2.67
304.376	2.65
304.751	2.87
305.127	2.12
305.502	2.66
305.878	2.41
306.253	2.05
306.628	2.4
307.003	2.16
307.378	2.34
307.754	2.77
308.129	2.54
308.504	2.58
308.879	2.76
309.254	2.78
309.629	2.23
310.003	2.45
310.378	2.62
310.753	2.59
311.128	2.15
311.502	2.61
311.877	2.43
312.252	2.67
312.626	2.83
313.001	2.27
313.375	2.52
313.75	2.75
314.124	2.68
314.498	3.01
314.873	2.51
315.247	2.55
315.621	2.51
315.995	2.38
316.369	2.43
316.743	2.25
317.117	2.19
317.491	2.47
317.865	2.26
318.239	2.74
318.613	2.55
318.987	2.37
319.361	2.64
319.734	3.01
320.108	2.4
320.482	2.38
320.855	2.89
321.229	2.51
321.602	2.77
321.976	2.46
322.349	3.11
322.723	2.91
323.096	2.51
323.469	2.37
323.843	2.25
324.216	2.96
324.589	2.83
324.962	2.19
325.335	2.34
325.708	2.66
326.081	2.41
326.454	2.81
326.827	2.77
327.2	2.53
327.573	2.98
327.945	2
328.318	2.55
328.691	2.9
329.063	2.46
329.436	2.13
329.809	3
330.181	3.21
330.553	3.11
330.926	2.84
331.298	2.88
331.671	2.88
332.043	2.7
332.415	2.84
332.787	2.88
333.159	2.72
333.532	2.49
333.904	2.77
334.276	2.65
334.648	2.63
335.02	2.47
335.391	2.57
335.763	3.07
336.135	2.71
336.507	2.28
336.879	2.93
337.25	2.88
337.622	3.07
337.993	2.83
338.365	2.93
338.736	2.91
339.108	2.8
339.479	2.66
339.851	2.95
340.222	2.93
340.593	2.76
340.964	2.74
341.336	2.31
341.707	2.58
342.078	2.55
342.449	2.8
342.82	2.51
343.191	2.57
343.562	2.72
343.933	2.49
344.303	2.85
344.674	2.94
345.045	2.73
345.416	2.99
345.786	2.99
346.157	2.54
346.527	2.58
346.898	2.11
347.268	2.66
347.639	2.63
348.009	2.86
348.38	2.48
348.75	3.05
349.12	2.94
349.49	2.73
349.861	3.16
350.231	2.91
350.601	2.71
350.971	2.55
351.341	2.57
351.711	2.71
352.081	2.58
352.45	2.21
352.82	2.01
353.19	2.57
353.56	2.82
353.929	2.82
354.299	2.87
354.669	2.72
355.038	2.62
355.408	2.63
355.777	2.87
356.147	2.98
356.516	2.72
356.885	2.84
357.254	2.55
357.624	2.37
357.993	2.67
358.362	2.76
358.731	2.59
359.1	2.6
359.469	2.93
359.838	2.82
360.207	2.98
360.576	2.59
360.945	2.71
361.314	2.31
361.682	2.19
362.051	2.74
362.42	2.63
362.788	2.57
363.157	2.57
363.525	2.67
363.894	2.48
364.262	2.66
364.631	2.87
364.999	2.53
365.367	2.62
365.735	2.43
366.104	2.65
366.472	2.49
366.84	2.64
367.208	3.16
367.576	2.57
367.944	2.54
368.312	2.41
368.68	2.83
369.048	2.47
369.416	2.51
369.783	2.63
370.151	2.97
370.519	3.09
370.886	3.09
371.254	2.52
371.621	2.67
371.989	2.77
372.356	2.47
372.724	2.62
373.091	2.59
373.458	2.49
373.826	2.74
374.193	3.02
374.56	2.86
374.927	2.59
375.294	2.88
375.661	2.61
376.028	2.81
376.395	2.79
376.762	2.44
377.129	2.55
377.496	2.63
377.863	2.84
378.229	2.79
378.596	3.09
378.963	2.62
379.329	2.66
379.696	2.72
380.062	2.75
380.429	2.13
380.795	3.05
381.161	2.37
381.528	2.34
381.894	2.33
382.26	2.81
382.626	2.83
382.993	3.02
383.359	2.52
383.725	2.32
384.091	2.75
384.457	2.37
384.823	2.68
385.188	2.64
385.554	2.75
385.92	2.46
386.286	2.8
386.651	2.78
387.017	2.95
387.383	2.58
387.748	2.79
388.114	2.86
388.479	2.65
388.845	2.54
389.21	2.52
389.575	2.75
389.94	2.95
390.306	2.69
390.671	2.77
391.036	2.63
391.401	2.97
391.766	2.55
392.131	2.88
392.496	2.71
392.861	2.69
393.226	2.53
393.591	2.8
393.956	2.75
394.32	2.89
394.685	2.74
395.05	2.93
395.414	2.75
395.779	2.87
396.143	2.56
396.508	2.57
396.872	2.74
397.236	3.02
397.601	3.07
397.965	2.88
398.329	2.78
398.694	2.49
399.058	2.9
399.422	2.49
399.786	2.67
400.15	2.71
400.514	2.66
400.878	2.51
401.242	2.7
401.605	2.77
401.969	2.65
402.333	2.74
402.697	2.93
403.06	2.7
403.424	2.85
403.787	2.71
404.151	2.79
404.514	2.78
404.878	2.64
405.241	2.62
405.604	2.68
405.968	2.76
406.331	2.74
406.694	2.72
407.057	2.7
407.42	2.77
407.783	2.71
408.146	2.54
408.509	2.87
408.872	2.65
409.235	2.81
409.598	2.61
409.961	2.85
410.323	2.69
410.686	2.71
411.049	2.64
411.411	2.51
411.774	2.82
412.136	2.69
412.499	2.95
412.861	2.37
413.223	2.55
413.586	2.81
413.948	3.01
414.31	2.79
414.672	2.43
415.035	2.89
415.397	2.62
415.759	2.58
416.121	2.81
416.483	2.83
416.845	2.79
417.206	2.65
417.568	2.63
417.93	2.75
418.292	2.59
418.653	2.41
419.015	2.69
419.377	2.66
419.738	2.66
420.1	2.67
420.461	2.58
420.822	2.68
421.184	2.61
421.545	2.65
421.906	2.78
422.267	2.63
422.629	2.61
422.99	2.56
423.351	2.68
423.712	2.7
424.073	2.66
424.434	2.81
424.795	2.62
425.155	2.59
425.516	2.68
425.877	2.66
426.238	2.7
426.598	2.73
426.959	2.74
427.32	2.72
427.68	2.7
428.041	2.79
428.401	2.75
428.761	2.92
429.122	2.84
429.482	2.78
429.842	2.78
430.202	3.04
430.563	2.85
430.923	2.81
431.283	3.03
431.643	2.84
432.003	2.83
432.363	2.8
432.722	2.82
433.082	2.83
433.442	2.94
433.802	2.77
434.161	2.85
434.521	2.86
434.881	2.78
435.24	2.77
435.6	2.78
435.959	2.85
436.319	2.92
436.678	2.89
437.037	2.79
437.396	2.93
437.756	2.81
438.115	2.89
438.474	2.94
438.833	2.99
439.192	2.84
439.551	2.83
439.91	2.9
440.269	2.81
440.628	2.77
440.987	2.82
441.345	2.9
441.704	2.96
442.063	2.84
442.421	2.91
442.78	2.92
443.138	2.91
443.497	2.91
443.855	3.03
444.214	2.76
444.572	3.01
444.93	2.99
445.288	2.95
445.647	2.87
446.005	2.88
446.363	2.87
446.721	2.94
447.079	2.86
447.437	2.92
447.795	2.92
448.153	2.8
448.51	2.94
448.868	2.86
449.226	2.9
449.584	2.93
449.941	2.94
450.299	2.94
450.656	2.89
451.014	3.01
451.371	3.02
451.729	3.05
452.086	2.91
452.443	2.95
452.801	2.91
453.158	3.22
453.515	2.92
453.872	3.02
454.229	2.93
454.586	2.86
454.943	2.92
455.3	3.01
455.657	2.99
456.014	3.14
456.371	3.03
456.727	3.06
457.084	3.23
457.441	3.07
457.797	3.02
458.154	3.14
458.51	3.05
458.867	3.06
459.223	2.99
459.58	3.06
459.936	2.99
460.292	2.97
460.648	2.9
461.005	2.97
461.361	2.97
461.717	2.99
462.073	3.05
462.429	3.08
462.785	3.13
463.141	3.06
463.496	3.14
463.852	3.17
464.208	3.05
464.564	3.1
464.919	3.15
465.275	3.14
465.631	3.32
465.986	3.22
466.342	2.9
466.697	3.12
467.052	3.23
467.408	3.19
467.763	3.06
468.118	2.9
468.473	3.04
468.829	2.92
469.184	3.12
469.539	3.04
469.894	3.18
470.249	3.07
470.603	3.2
470.958	3.22
471.313	3.2
471.668	3.21
472.023	3.04
472.377	3.11
472.732	3.32
473.086	3.13
473.441	3.14
473.795	3.42
474.15	3.21
474.504	3.31
474.859	2.97
475.213	3.22
475.567	3.09
475.921	3.25
476.275	3.22
476.63	3.2
476.984	3.07
477.338	3.16
477.692	3.09
478.045	3.19
478.399	3.14
478.753	3.1
479.107	3.15
479.461	3.08
479.814	3.13
480.168	3.15
480.521	3.2
480.875	3.21
481.228	3.18
481.582	3.27
481.935	3.3
482.289	3.13
482.642	3.24
482.995	3.04
483.348	3.14
483.701	3.12
484.055	3.04
484.408	3.07
484.761	2.97
485.114	2.85
485.466	2.84
485.819	2.9
486.172	2.96
486.525	2.97
486.878	3.06
487.23	3.03
487.583	3.12
487.936	3
488.288	3.03
488.641	3.02
488.993	2.97
489.345	3
489.698	2.93
490.05	2.98
490.402	3.08
490.754	3.07
491.107	3.03
491.459	3.18
491.811	3.18
492.163	3.1
492.515	3.04
492.866	2.98
493.218	2.95
493.57	3.03
493.922	3.04
494.274	3.17
494.625	3.2
494.977	3.18
495.328	3.19
495.68	3.17
496.031	3.19
496.383	3.15
496.734	3.17
497.086	3.25
497.437	3.24
497.788	3.23
498.139	3.18
498.49	3.18
498.842	3.24
499.193	3.12
499.544	3.2
499.894	3.19
500.245	3.2
500.596	3.21
500.947	3.19
501.298	3.3
501.648	3.14
501.999	3.33
502.35	3.17
502.7	3.34
503.051	3.21
503.401	3.23
503.752	3.23
504.102	3.22
504.452	3.25
504.803	3.25
505.153	3.28
505.503	3.24
505.853	3.34
506.203	3.29
506.553	3.2
506.903	3.37
507.253	3.24
507.603	3.35
507.953	3.34
508.303	3.32
508.652	3.14
509.002	3.33
509.352	3.33
509.701	3.22
510.051	3.3
510.4	3.27
510.75	3.13
511.099	3.16
511.449	3.29
511.798	3.18
512.147	3.25
512.496	3.26
512.846	3.25
513.195	3.21
513.544	3.39
513.893	3.32
514.242	3.19
514.591	3.21
514.939	3.27
515.288	3.35
515.637	3.19
515.986	3.3
516.334	3.36
516.683	3.27
517.032	3.33
517.38	3.33
517.729	3.28
518.077	3.29
518.426	3.26
518.774	3.21
519.122	3.32
519.47	3.2
519.819	3.22
520.167	3.22
520.515	3.23
520.863	3.26
521.211	3.26
521.559	3.25
521.907	3.33
522.255	3.35
522.602	3.31
522.95	3.37
523.298	3.35
523.645	3.36
523.993	3.32
524.341	3.3
524.688	3.34
525.036	3.29
525.383	3.35
525.73	3.25
526.078	3.32
526.425	3.29
526.772	3.22
527.119	3.18
527.466	3.26
527.814	3.3
528.161	3.3
528.508	3.34
528.854	3.26
529.201	3.14
529.548	3.17
529.895	3.09
530.242	3.08
530.588	3.1
530.935	3.14
531.282	3.16
531.628	3.23
531.975	3.28
532.321	3.32
532.667	3.39
533.014	3.27
533.36	3.36
533.706	3.23
534.052	3.31
534.399	3.27
534.745	3.22
535.091	3.15
535.437	3.22
535.783	3.2
536.129	3.23
536.474	3.38
536.82	3.28
537.166	3.27
537.512	3.32
537.857	3.23
538.203	3.27
538.549	3.24
538.894	3.33
539.239	3.33
539.585	3.38
539.93	3.48
540.276	3.33
540.621	3.46
540.966	3.36
541.311	3.42
541.656	3.33
542.001	3.25
542.346	3.27
542.691	3.14
543.036	3.2
543.381	3.24
543.726	3.28
544.071	3.31
544.415	3.32
544.76	3.36
545.105	3.25
545.449	3.3
545.794	3.37
546.138	3.34
546.483	3.5
546.827	3.29
547.171	3.42
547.516	3.48
547.86	3.38
548.204	3.39
548.548	3.45
548.892	3.38
549.236	3.43
549.58	3.38
549.924	3.52
550.268	3.48
550.612	3.55
550.956	3.48
551.3	3.74
551.643	3.53
551.987	3.56
552.33	3.66
552.674	3.6
553.017	3.54
553.361	3.59
553.704	3.53
554.048	3.43
554.391	3.55
554.734	3.56
555.077	3.56
555.42	3.47
555.764	3.4
556.107	3.6
556.45	3.52
556.793	3.77
557.135	3.64
557.478	3.66
557.821	3.53
558.164	3.56
558.507	3.55
558.849	3.76
559.192	3.71
559.534	3.58
559.877	3.54
560.219	3.59
560.562	3.52
560.904	3.77
561.246	3.51
561.589	3.79
561.931	3.68
562.273	3.56
562.615	3.5
562.957	3.43
563.299	3.58
563.641	3.51
563.983	3.48
564.325	3.68
564.667	3.62
565.008	3.55
565.35	3.4
565.692	3.67
566.033	3.62
566.375	3.59
566.716	3.42
567.058	3.61
567.399	3.56
567.741	3.47
568.082	3.61
568.423	3.51
568.764	3.61
569.105	3.72
569.447	3.55
569.788	3.53
570.129	3.6
570.47	3.6
570.811	3.4
571.151	3.63
571.492	3.73
571.833	3.58
572.174	3.65
572.514	3.57
572.855	3.6
573.195	3.46
573.536	3.64
573.876	3.62
574.217	3.56
574.557	3.55
574.898	3.57
575.238	3.55
575.578	3.8
575.918	3.57
576.258	3.76
576.598	3.59
576.938	3.48
577.278	3.6
577.618	3.59
577.958	3.56
578.298	3.73
578.638	3.58
578.977	3.65
579.317	3.6
579.657	3.57
579.996	3.93
580.336	3.73
580.675	3.81
581.014	3.59
581.354	3.55
581.693	3.82
582.032	3.88
582.372	3.85
582.711	3.74
583.05	3.58
583.389	3.97
583.728	3.92
584.067	3.64
584.406	3.82
584.745	3.77
585.083	3.78
585.422	3.86
585.761	3.78
586.1	3.76
586.438	3.73
586.777	3.87
587.115	3.86
587.454	3.56
587.792	3.71
588.13	3.66
588.469	3.67
588.807	3.84
589.145	3.9
589.483	3.58
589.821	3.73
590.159	3.75
590.497	3.75
590.835	3.78
591.173	3.83
591.511	3.89
591.849	3.86
592.187	3.72
592.524	3.97
592.862	3.67
593.2	3.73
593.537	3.62
593.875	3.92
594.212	4.03
594.55	3.82
594.887	3.96
595.224	3.9
595.561	3.86
595.899	4
596.236	3.87
596.573	3.68
596.91	3.73
597.247	3.91
597.584	3.73
597.921	3.63
598.258	3.9
598.594	3.72
598.931	3.62
599.268	3.65
599.604	3.9
599.941	3.87
600.277	3.89
600.614	3.72
600.95	4.05
601.287	3.6
601.623	3.78
601.959	3.95
602.296	3.64
602.632	3.85
602.968	3.74
603.304	3.67
603.64	3.99
603.976	3.97
604.312	3.89
604.648	3.82
604.984	3.68
605.319	3.96
605.655	3.83
605.991	3.65
606.326	3.75
606.662	3.62
606.998	3.89
607.333	3.84
607.668	3.71
608.004	3.91
608.339	3.95
608.674	4.08
609.01	4.2
609.345	4.18
609.68	3.66
610.015	3.8
610.35	4.17
610.685	3.46
611.02	3.63
611.355	3.63
611.689	3.77
612.024	3.98
612.359	3.84
612.694	3.94
613.028	3.75
613.363	3.81
613.697	3.7
614.032	3.85
614.366	3.89
614.7	4.11
615.035	3.76
615.369	4.07
615.703	4
616.037	3.94
616.371	4.09
616.705	4.13
617.039	4.05
617.373	4.2
617.707	3.89
618.041	3.75
618.375	3.47
618.709	3.93
619.042	4.03
619.376	4.2
619.71	3.64
620.043	4.14
620.377	3.94
620.71	3.87
621.043	4.19
621.377	3.97
621.71	4.39
622.043	4.02
622.376	4.4
622.709	4.35
623.043	4.14
623.376	3.65
623.709	4.04
624.041	4.29
624.374	4.09
624.707	3.98
625.04	4.25
625.373	4.35
625.705	4.19
626.038	4.3
626.37	3.77
626.703	3.99
627.035	4.2
627.368	4.41
627.7	3.97
628.032	3.94
628.365	4.28
628.697	4.22
629.029	3.92
629.361	4.24
629.693	3.99
630.025	4.02
630.357	4.31
630.689	3.86
631.021	4.37
631.353	3.98
631.684	4.05
632.016	3.73
632.348	3.98
632.679	4.14
633.011	3.91
633.342	4
633.674	3.77
634.005	4.36
634.336	4.09
634.668	4.22
634.999	3.93
635.33	4.37
635.661	3.96
635.992	4.42
636.323	4.15
636.654	4.15
636.985	4.1
637.316	4.01
637.647	4.24
637.977	4.06
638.308	4.55
638.639	4.22
638.969	4.14
639.3	4.33
639.63	4.19
639.961	4.13
640.291	3.86
640.622	4.6
640.952	4.26
641.282	3.97
641.612	4.17
641.943	4.21
642.273	4.04
642.603	4.17
642.933	4.38
643.263	4.41
643.592	4.59
643.922	4.85
644.252	4.42
644.582	4.34
644.911	3.92
645.241	4.16
645.571	4.26
645.9	4.49
646.23	4.31
646.559	4.01
646.888	4.48
647.218	4.28
647.547	4.15
647.876	4.12
648.205	3.97
648.534	4.4
648.863	4.57
649.192	4.63
649.521	4.47
649.85	4.26
650.179	4.48
650.508	4.18
650.837	4.55
651.165	4.42
651.494	4.36
651.822	4.83
652.151	4.08
652.479	4.51
652.808	4.66
653.136	4.05
653.465	4.06
653.793	4.37
654.121	4.25
654.449	4.07
654.777	4.16
655.105	3.95
655.433	4.75
655.761	4.03
656.089	4.42
656.417	4.4
656.745	4.68
657.073	4.36
657.4	4.72
657.728	3.86
658.056	4.05
658.383	4.43
658.711	4.45
659.038	4.73
659.365	4.62
659.693	4.25
660.02	4.39
660.347	4.46
660.674	4.14
661.001	4.28
661.329	4.13
661.656	3.7
661.982	4.01
662.309	3.91
662.636	4.58
662.963	4.37
663.29	3.99
663.616	4.16
663.943	4.48
664.27	4.58
664.596	4.32
664.923	4.31
665.249	4.71
665.576	4.1
665.902	4.23
666.228	5.06
666.554	4.36
666.881	4.05
667.207	4.69
667.533	4.19
667.859	4.38
668.185	4.42
668.511	4.81
668.837	4.57
669.162	4.28
669.488	4.26
669.814	3.44
670.139	3.62
670.465	4.71
670.791	3.86
671.116	4.52
671.442	3.67
671.767	4.12
672.092	4.65
672.418	4.82
672.743	3.88
673.068	3.87
673.393	4.72
673.718	4.22
674.043	4.18
674.368	4.61
674.693	4.17
675.018	4.72
675.343	4.57
675.667	4.1
675.992	4.33
676.317	3.92
676.641	4.73
676.966	4.51
677.29	4.2
677.615	3.78
677.939	4.81
678.264	4.74
678.588	4.72
678.912	4.97
679.236	4.37
679.56	4.41
679.885	4.42
680.209	4.56
680.532	4.89
680.856	4.52
681.18	5.06
681.504	4.42
681.828	4.08
682.152	4.16
682.475	4.5
682.799	4.59
683.122	4.71
683.446	3.93
683.769	5.06
684.093	4.7
684.416	4.15
684.739	4.46
685.062	4.72
685.386	4.86
685.709	4.18
686.032	4.97
686.355	4.71
686.678	4.94
687.001	4.23
687.324	4.42
687.646	4.61
687.969	4.64
688.292	4.6
688.614	5.38
688.937	5.3
689.26	5.06
689.582	5.1
689.904	4.74
690.227	4.79
690.549	5.06
690.871	4.32
691.194	4.46
691.516	5.02
691.838	5.32
692.16	4.42
692.482	4.24
692.804	3.94
