Data from 21-5_chest_Reflection__4__04.txt Node

Date: Thu Dec 15 16:27:30 CST 2022
User: ToomeyLab
Spectrometer: FLMS14357
Trigger mode: 0
Integration Time (sec): 1.000000E-2
Scans to average: 100
Electric dark correction enabled: true
Nonlinearity correction enabled: false
Boxcar width: 0
XAxis mode: Wavelengths
Number of Pixels in Spectrum: 2048
>>>>>Begin Spectral Data<<<<<
189.047	-1236
189.435	-1236
189.823	-1236
190.211	168.34
190.599	188.67
190.987	94.02
191.375	-118.03
191.763	348.05
192.151	81.26
192.538	71.77
192.926	309.32
193.314	81.42
193.702	776.07
194.089	-55.49
194.477	57.67
194.864	92.38
195.252	-12.9
195.639	130.93
196.027	-121.73
196.414	135.07
196.801	49.88
197.189	126.36
197.576	165.03
197.963	-35.22
198.351	1.17
198.738	-5.91
199.125	-12.67
199.512	19.29
199.899	-1.06
200.286	-31.02
200.673	20.97
201.06	7.74
201.447	10.33
201.833	-20.52
202.22	9.64
202.607	12.08
202.994	21.33
203.38	1.85
203.767	-11.01
204.154	25.81
204.54	16.27
204.927	-4.72
205.313	20.18
205.699	13.12
206.086	51.01
206.472	27.26
206.858	11.45
207.245	-13.18
207.631	-8.57
208.017	15.92
208.403	-23.89
208.789	-1.78
209.175	-11.47
209.561	-47.65
209.947	-6.04
210.333	3.35
210.719	10.6
211.105	41.64
211.491	15.33
211.876	0.93
212.262	20.69
212.648	-6.81
213.034	-9.45
213.419	-7.26
213.805	-13.79
214.19	-9.63
214.576	-6.23
214.961	25.41
215.346	11.23
215.732	5.83
216.117	2.91
216.502	1.09
216.888	11.38
217.273	23.39
217.658	10.47
218.043	7.65
218.428	-4.94
218.813	13.74
219.198	-9.71
219.583	8.63
219.968	7.45
220.353	-12.34
220.738	11.75
221.122	1.47
221.507	9.79
221.892	-23.51
222.276	0.64
222.661	-5.88
223.046	10.29
223.43	11.91
223.815	2.47
224.199	2.13
224.583	2.48
224.968	8.33
225.352	-0.52
225.736	7.77
226.121	2.31
226.505	-1.9
226.889	3.29
227.273	1.7
227.657	6.31
228.041	5.51
228.425	0.86
228.809	0.63
229.193	2.41
229.577	3.45
229.961	2.33
230.344	3.35
230.728	3.95
231.112	3.58
231.495	2.13
231.879	2.05
232.263	3.73
232.646	1.54
233.03	4.93
233.413	2.75
233.797	3.32
234.18	3.81
234.563	4.47
234.946	3.67
235.33	2.02
235.713	3.74
236.096	2.99
236.479	3.62
236.862	3.73
237.245	2.35
237.628	4.19
238.011	3.43
238.394	3.3
238.777	3.17
239.16	3.8
239.543	4.72
239.925	3.19
240.308	2.19
240.691	2.71
241.073	2.31
241.456	3.3
241.838	2.8
242.221	3.2
242.603	3.29
242.986	3.3
243.368	3.29
243.75	3.52
244.133	3.27
244.515	3.22
244.897	3.37
245.279	3.38
245.661	4.4
246.043	3.28
246.425	2.73
246.807	3.24
247.189	3.36
247.571	2.64
247.953	3.13
248.335	3.15
248.717	3.11
249.098	3.22
249.48	3.07
249.862	3.37
250.243	3.28
250.625	3.25
251.006	3.37
251.388	3.47
251.769	2.62
252.151	3.48
252.532	3.18
252.913	3.06
253.295	3.13
253.676	3
254.057	3.51
254.438	3.16
254.819	3.15
255.2	3.36
255.581	3.69
255.962	4.13
256.343	4.31
256.724	3.06
257.105	3.01
257.486	2.51
257.867	3.03
258.247	3.44
258.628	3.19
259.009	2.89
259.389	2.25
259.77	2.61
260.15	3.39
260.531	3.13
260.911	3.11
261.292	3.04
261.672	2.8
262.052	2.99
262.432	2.91
262.813	2.76
263.193	2.95
263.573	2.95
263.953	3.02
264.333	3.47
264.713	2.88
265.093	3.15
265.473	3.02
265.853	3.46
266.233	2.59
266.612	3.16
266.992	3.47
267.372	3.16
267.752	3.34
268.131	2.85
268.511	2.98
268.89	3.35
269.27	2.75
269.649	2.43
270.029	2.96
270.408	3.03
270.787	3.14
271.167	3.24
271.546	3.85
271.925	2.9
272.304	2.99
272.683	2.47
273.062	3.04
273.441	2.68
273.82	3.09
274.199	2.91
274.578	3.02
274.957	2.96
275.336	3.58
275.715	3.15
276.093	3.3
276.472	2.62
276.851	3.1
277.229	3.05
277.608	2.75
277.986	2.76
278.365	3.33
278.743	3.02
279.122	2.95
279.5	2.78
279.878	3.12
280.257	3.31
280.635	2.92
281.013	2.37
281.391	2.63
281.769	3.23
282.147	2.85
282.525	2.7
282.903	2.69
283.281	2.88
283.659	2.89
284.037	2.8
284.415	2.77
284.792	2.56
285.17	3.02
285.548	2.95
285.925	2.74
286.303	3.42
286.68	3.06
287.058	3.18
287.435	2.47
287.813	3.11
288.19	2.97
288.567	2.71
288.945	2.61
289.322	2.81
289.699	3.09
290.076	2.74
290.453	2.43
290.83	3.41
291.207	2.87
291.584	3.31
291.961	2.91
292.338	2.96
292.715	2.85
293.092	3.13
293.469	3.17
293.845	3.32
294.222	2.95
294.599	3.17
294.975	2.53
295.352	3.04
295.728	2.99
296.105	2.91
296.481	2.9
296.858	3.13
297.234	2.73
297.61	3.36
297.986	3.27
298.363	3.14
298.739	3.28
299.115	3.18
299.491	3.2
299.867	2.9
300.243	2.97
300.619	3.06
300.995	3.09
301.371	3.59
301.746	3.67
302.122	2.56
302.498	3.04
302.874	3.23
303.249	3.16
303.625	2.65
304	3.63
304.376	3.36
304.751	3.46
305.127	3.14
305.502	3.12
305.878	3.67
306.253	2.91
306.628	3.3
307.003	3.14
307.378	3.22
307.754	3.03
308.129	3.31
308.504	3.41
308.879	3.07
309.254	3.12
309.629	3.54
310.003	3.3
310.378	3.56
310.753	3.39
311.128	3.34
311.502	3.3
311.877	3.14
312.252	3.63
312.626	3.49
313.001	3.31
313.375	3.33
313.75	3.68
314.124	3.62
314.498	3.54
314.873	2.63
315.247	3.38
315.621	3.58
315.995	3.17
316.369	2.9
316.743	2.75
317.117	3.09
317.491	3.15
317.865	2.81
318.239	3.75
318.613	3.13
318.987	3.15
319.361	3.54
319.734	3.52
320.108	3.74
320.482	3.32
320.855	3.25
321.229	3.32
321.602	3.57
321.976	3.08
322.349	4.29
322.723	3.02
323.096	3.25
323.469	3.12
323.843	3.2
324.216	3.29
324.589	3.78
324.962	3.22
325.335	3.15
325.708	3.47
326.081	3.66
326.454	3.39
326.827	3.58
327.2	3.01
327.573	4.03
327.945	2.93
328.318	3.13
328.691	3.24
329.063	3.04
329.436	3.55
329.809	3.51
330.181	3.91
330.553	3.35
330.926	4.09
331.298	3.45
331.671	3.8
332.043	3.32
332.415	3.41
332.787	3.46
333.159	3.54
333.532	3.83
333.904	3.88
334.276	3.69
334.648	3.61
335.02	3.89
335.391	3.47
335.763	3.53
336.135	4.04
336.507	3.48
336.879	3.65
337.25	3.67
337.622	4.11
337.993	3.59
338.365	3.47
338.736	3.21
339.108	3.94
339.479	3.21
339.851	3.45
340.222	3.97
340.593	3.49
340.964	3.44
341.336	3.29
341.707	3.44
342.078	3.75
342.449	3.44
342.82	3.66
343.191	3.76
343.562	3.57
343.933	3.23
344.303	3.53
344.674	3.28
345.045	3.94
345.416	3.47
345.786	3.46
346.157	3.38
346.527	3.31
346.898	3.43
347.268	3.79
347.639	3.52
348.009	3.44
348.38	3.31
348.75	3.75
349.12	3.59
349.49	3.81
349.861	3.77
350.231	3.55
350.601	3.4
350.971	3.17
351.341	3.67
351.711	3.7
352.081	3.43
352.45	3.4
352.82	3.35
353.19	3.52
353.56	3.45
353.929	3.66
354.299	3.5
354.669	3.7
355.038	3.38
355.408	3.42
355.777	3.5
356.147	3.56
356.516	3.14
356.885	3.35
357.254	3.33
357.624	3.06
357.993	3.58
358.362	3.63
358.731	3.6
359.1	3.52
359.469	3.71
359.838	3.77
360.207	3.44
360.576	3.28
360.945	3.61
361.314	3.55
361.682	3.2
362.051	3.48
362.42	3.62
362.788	3.54
363.157	3.46
363.525	3.51
363.894	3.42
364.262	3.41
364.631	3.81
364.999	3.52
365.367	3.26
365.735	3.47
366.104	3.56
366.472	3.62
366.84	3.71
367.208	4.04
367.576	3.63
367.944	3.59
368.312	3.31
368.68	3.93
369.048	3.52
369.416	3.27
369.783	3.62
370.151	3.73
370.519	4.03
370.886	3.67
371.254	3.75
371.621	3.65
371.989	3.77
372.356	3.44
372.724	3.73
373.091	3.59
373.458	3.63
373.826	3.83
374.193	3.67
374.56	3.95
374.927	3.51
375.294	3.84
375.661	3.57
376.028	3.49
376.395	3.76
376.762	3.58
377.129	3.38
377.496	3.51
377.863	3.81
378.229	3.83
378.596	3.86
378.963	3.7
379.329	3.73
379.696	3.43
380.062	3.6
380.429	3.53
380.795	3.87
381.161	3.52
381.528	3.54
381.894	3.46
382.26	3.73
382.626	3.77
382.993	4.14
383.359	3.51
383.725	3.22
384.091	3.71
384.457	3.44
384.823	3.85
385.188	3.8
385.554	3.81
385.92	3.42
386.286	3.7
386.651	3.41
387.017	3.97
387.383	3.49
387.748	3.84
388.114	3.72
388.479	3.57
388.845	3.61
389.21	3.8
389.575	3.89
389.94	3.97
390.306	3.87
390.671	3.69
391.036	3.46
391.401	3.72
391.766	3.7
392.131	4.02
392.496	3.65
392.861	3.54
393.226	3.6
393.591	3.83
393.956	3.77
394.32	3.91
394.685	3.81
395.05	3.75
395.414	3.68
395.779	3.92
396.143	3.6
396.508	3.72
396.872	3.59
397.236	3.94
397.601	3.85
397.965	3.88
398.329	3.86
398.694	3.59
399.058	3.75
399.422	3.69
399.786	3.74
400.15	3.63
400.514	3.82
400.878	3.79
401.242	3.89
401.605	3.71
401.969	3.77
402.333	3.73
402.697	3.84
403.06	3.71
403.424	3.97
403.787	3.85
404.151	3.74
404.514	3.84
404.878	3.73
405.241	3.83
405.604	3.69
405.968	3.76
406.331	3.75
406.694	3.7
407.057	3.66
407.42	3.8
407.783	3.89
408.146	3.72
408.509	3.83
408.872	3.93
409.235	3.96
409.598	3.91
409.961	4.05
410.323	3.62
410.686	3.85
411.049	3.87
411.411	3.73
411.774	3.76
412.136	3.82
412.499	4.18
412.861	3.79
413.223	3.85
413.586	3.92
413.948	4.1
414.31	3.81
414.672	3.59
415.035	3.94
415.397	3.79
415.759	3.65
416.121	3.96
416.483	3.98
416.845	3.89
417.206	3.82
417.568	3.79
417.93	3.9
418.292	3.79
418.653	3.71
419.015	3.75
419.377	3.78
419.738	3.89
420.1	3.94
420.461	3.73
420.822	3.85
421.184	3.89
421.545	3.86
421.906	3.88
422.267	3.79
422.629	3.73
422.99	3.79
423.351	3.82
423.712	3.91
424.073	3.91
424.434	3.92
424.795	3.76
425.155	3.83
425.516	3.76
425.877	3.92
426.238	3.79
426.598	3.82
426.959	3.83
427.32	3.87
427.68	3.88
428.041	3.95
428.401	3.92
428.761	3.98
429.122	3.91
429.482	4.22
429.842	3.83
430.202	4.02
430.563	4.1
430.923	4.03
431.283	4.18
431.643	4.19
432.003	4.12
432.363	4.15
432.722	4.07
433.082	3.98
433.442	4.11
433.802	4.17
434.161	4.13
434.521	3.92
434.881	4.11
435.24	4.01
435.6	4.16
435.959	4.07
436.319	4.19
436.678	4.17
437.037	4.1
437.396	4.06
437.756	4.08
438.115	4.06
438.474	4.25
438.833	4.11
439.192	4.09
439.551	3.95
439.91	4.07
440.269	4.1
440.628	4.17
440.987	4.07
441.345	4.16
441.704	4.1
442.063	4
442.421	4.1
442.78	4.16
443.138	4.15
443.497	4.16
443.855	4.21
444.214	3.95
444.572	4.24
444.93	4.19
445.288	4.27
445.647	4.07
446.005	4.16
446.363	4.21
446.721	4.14
447.079	4.06
447.437	4.18
447.795	4.18
448.153	4.14
448.51	4.13
448.868	4.17
449.226	4.14
449.584	4.17
449.941	4.19
450.299	4.21
450.656	4.25
451.014	4.27
451.371	4.41
451.729	4.3
452.086	4.37
452.443	4.33
452.801	4.15
453.158	4.26
453.515	4.31
453.872	4.37
454.229	4.08
454.586	4.15
454.943	4.19
455.3	4.38
455.657	4.15
456.014	4.42
456.371	4.31
456.727	4.52
457.084	4.41
457.441	4.46
457.797	4.38
458.154	4.41
458.51	4.23
458.867	4.43
459.223	4.37
459.58	4.42
459.936	4.38
460.292	4.32
460.648	4.34
461.005	4.23
461.361	4.22
461.717	4.3
462.073	4.29
462.429	4.3
462.785	4.55
463.141	4.46
463.496	4.43
463.852	4.5
464.208	4.64
464.564	4.45
464.919	4.5
465.275	4.46
465.631	4.67
465.986	4.54
466.342	4.39
466.697	4.56
467.052	4.59
467.408	4.53
467.763	4.5
468.118	4.42
468.473	4.48
468.829	4.56
469.184	4.62
469.539	4.38
469.894	4.7
470.249	4.59
470.603	4.75
470.958	4.67
471.313	4.61
471.668	4.66
472.023	4.59
472.377	4.58
472.732	4.73
473.086	4.57
473.441	4.6
473.795	4.89
474.15	4.52
474.504	4.69
474.859	4.39
475.213	4.71
475.567	4.55
475.921	4.7
476.275	4.67
476.63	4.69
476.984	4.68
477.338	4.84
477.692	4.74
478.045	4.72
478.399	4.64
478.753	4.76
479.107	4.67
479.461	4.7
479.814	4.74
480.168	4.63
480.521	4.84
480.875	4.78
481.228	4.89
481.582	4.7
481.935	4.88
482.289	4.72
482.642	4.91
482.995	4.6
483.348	4.74
483.701	4.74
484.055	4.65
484.408	4.58
484.761	4.53
485.114	4.49
485.466	4.46
485.819	4.49
486.172	4.52
486.525	4.58
486.878	4.67
487.23	4.69
487.583	4.74
487.936	4.76
488.288	4.72
488.641	4.62
488.993	4.62
489.345	4.64
489.698	4.63
490.05	4.72
490.402	4.72
490.754	4.73
491.107	4.8
491.459	4.95
491.811	4.77
492.163	4.79
492.515	4.71
492.866	4.69
493.218	4.68
493.57	4.78
493.922	4.8
494.274	4.93
494.625	5
494.977	5
495.328	4.92
495.68	4.96
496.031	5.02
496.383	5.02
496.734	5.03
497.086	5.07
497.437	5.03
497.788	5.17
498.139	4.91
498.49	5.05
498.842	5.13
499.193	5.04
499.544	5.06
499.894	5.12
500.245	5.22
500.596	5.12
500.947	5.1
501.298	5.12
501.648	5.15
501.999	5.27
502.35	5.04
502.7	5.38
503.051	5.29
503.401	5.27
503.752	5.18
504.102	5.22
504.452	5.2
504.803	5.16
505.153	5.34
505.503	5.32
505.853	5.23
506.203	5.38
506.553	5.33
506.903	5.3
507.253	5.37
507.603	5.41
507.953	5.39
508.303	5.43
508.652	5.31
509.002	5.44
509.352	5.37
509.701	5.28
510.051	5.46
510.4	5.43
510.75	5.37
511.099	5.34
511.449	5.43
511.798	5.43
512.147	5.45
512.496	5.49
512.846	5.46
513.195	5.34
513.544	5.49
513.893	5.47
514.242	5.47
514.591	5.52
514.939	5.54
515.288	5.7
515.637	5.62
515.986	5.53
516.334	5.7
516.683	5.62
517.032	5.63
517.38	5.63
517.729	5.68
518.077	5.69
518.426	5.61
518.774	5.79
519.122	5.55
519.47	5.56
519.819	5.64
520.167	5.64
520.515	5.68
520.863	5.65
521.211	5.62
521.559	5.68
521.907	5.79
522.255	5.85
522.602	5.79
522.95	5.95
523.298	5.82
523.645	5.88
523.993	5.9
524.341	5.92
524.688	5.91
525.036	5.92
525.383	5.94
525.73	5.84
526.078	5.92
526.425	5.95
526.772	5.84
527.119	5.84
527.466	5.94
527.814	5.86
528.161	5.99
528.508	6.01
528.854	5.93
529.201	5.86
529.548	5.83
529.895	5.77
530.242	5.73
530.588	5.78
530.935	5.85
531.282	5.89
531.628	5.99
531.975	6.03
532.321	6.17
532.667	6.12
533.014	6.15
533.36	6.26
533.706	6.19
534.052	6.12
534.399	6.09
534.745	6.02
535.091	6.03
535.437	6.12
535.783	6.16
536.129	6.16
536.474	6.37
536.82	6.4
537.166	6.22
537.512	6.39
537.857	6.3
538.203	6.3
538.549	6.37
538.894	6.4
539.239	6.51
539.585	6.56
539.93	6.6
540.276	6.62
540.621	6.69
540.966	6.59
541.311	6.71
541.656	6.59
542.001	6.53
542.346	6.52
542.691	6.4
543.036	6.51
543.381	6.47
543.726	6.59
544.071	6.61
544.415	6.62
544.76	6.63
545.105	6.74
545.449	6.84
545.794	6.82
546.138	6.88
546.483	7
546.827	6.82
547.171	6.96
547.516	7.01
547.86	6.97
548.204	6.96
548.548	6.89
548.892	7
549.236	7.05
549.58	7.07
549.924	7.27
550.268	7.22
550.612	7.18
550.956	7.37
551.3	7.54
551.643	7.3
551.987	7.56
552.33	7.56
552.674	7.36
553.017	7.51
553.361	7.47
553.704	7.41
554.048	7.42
554.391	7.46
554.734	7.34
555.077	7.57
555.42	7.49
555.764	7.49
556.107	7.74
556.45	7.58
556.793	7.75
557.135	7.6
557.478	7.79
557.821	7.77
558.164	7.87
558.507	7.68
558.849	7.94
559.192	7.72
559.534	7.85
559.877	7.87
560.219	7.94
560.562	7.91
560.904	8.08
561.246	7.97
561.589	8.23
561.931	8.17
562.273	8.08
562.615	8.06
562.957	7.91
563.299	8.11
563.641	8.22
563.983	8.1
564.325	8.29
564.667	8.26
565.008	8.2
565.35	8.15
565.692	8.36
566.033	8.32
566.375	8.28
566.716	8.28
567.058	8.23
567.399	8.44
567.741	8.33
568.082	8.4
568.423	8.36
568.764	8.5
569.105	8.42
569.447	8.39
569.788	8.54
570.129	8.61
570.47	8.54
570.811	8.68
571.151	8.69
571.492	8.79
571.833	8.74
572.174	8.85
572.514	8.83
572.855	9.02
573.195	8.87
573.536	8.91
573.876	8.94
574.217	9.01
574.557	9.01
574.898	9.05
575.238	9
575.578	9.03
575.918	9.09
576.258	9.31
576.598	9.07
576.938	8.94
577.278	9.14
577.618	9.15
577.958	9.35
578.298	9.27
578.638	9.26
578.977	9.35
579.317	9.51
579.657	9.44
579.996	9.76
580.336	9.52
580.675	9.54
581.014	9.82
581.354	9.55
581.693	9.96
582.032	9.95
582.372	9.81
582.711	9.62
583.05	9.8
583.389	9.99
583.728	9.85
584.067	9.71
584.406	9.97
584.745	9.98
585.083	10
585.422	10.06
585.761	10.13
586.1	10.24
586.438	10.06
586.777	10.23
587.115	10.33
587.454	10.27
587.792	10.33
588.13	10.17
588.469	10.4
588.807	10.64
589.145	10.48
589.483	10.25
589.821	10.58
590.159	10.41
590.497	10.45
590.835	10.57
591.173	10.57
591.511	10.78
591.849	10.6
592.187	10.37
592.524	10.69
592.862	10.66
593.2	10.83
593.537	10.86
593.875	10.91
594.212	10.89
594.55	11.02
594.887	11.04
595.224	10.78
595.561	11.02
595.899	11.23
596.236	11.06
596.573	11.05
596.91	11.19
597.247	11.17
597.584	11.09
597.921	11.22
598.258	11.3
598.594	11.1
598.931	11.15
599.268	11.12
599.604	11.47
599.941	11.33
600.277	11.51
600.614	11.77
600.95	11.5
601.287	11.37
601.623	11.4
601.959	11.87
602.296	11.82
602.632	11.79
602.968	11.77
603.304	11.75
603.64	11.82
603.976	11.72
604.312	11.54
604.648	11.86
604.984	11.91
605.319	12.05
605.655	11.88
605.991	11.84
606.326	11.99
606.662	11.88
606.998	12.24
607.333	12
607.668	12.1
608.004	12.31
608.339	12.07
608.674	12.4
609.01	12.71
609.345	12.63
609.68	12.38
610.015	12.39
610.35	12.7
610.685	12.28
611.02	12.41
611.355	12.45
611.689	12.41
612.024	12.68
612.359	12.76
612.694	12.76
613.028	12.81
613.363	12.74
613.697	13
614.032	12.95
614.366	12.91
614.7	13.24
615.035	13.08
615.369	13.4
615.703	13.18
616.037	13.01
616.371	13.08
616.705	13.27
617.039	13.28
617.373	13.65
617.707	13.32
618.041	13.41
618.375	13.15
618.709	13.6
619.042	13.34
619.376	13.54
619.71	13.59
620.043	13.67
620.377	13.86
620.71	13.45
621.043	14.21
621.377	14
621.71	13.7
622.043	13.72
622.376	13.85
622.709	14.2
623.043	13.95
623.376	14
623.709	14.33
624.041	14.11
624.374	14.23
624.707	14.14
625.04	13.9
625.373	13.84
625.705	14.33
626.038	14.44
626.37	14.11
626.703	14.36
627.035	14.35
627.368	14.41
627.7	14.38
628.032	14.34
628.365	14.58
628.697	14.67
629.029	14.61
629.361	14.66
629.693	14.7
630.025	14.72
630.357	14.83
630.689	14.68
631.021	14.84
631.353	14.92
631.684	14.95
632.016	14.34
632.348	14.66
632.679	15.16
633.011	14.71
633.342	15.13
633.674	15.16
634.005	15.32
634.336	15.35
634.668	15.43
634.999	14.81
635.33	15.46
635.661	15.05
635.992	15.48
636.323	15.71
636.654	15.5
636.985	15.71
637.316	15.46
637.647	15.65
637.977	15.84
638.308	15.97
638.639	15.79
638.969	15.63
639.3	15.98
639.63	15.71
639.961	16.07
640.291	15.65
640.622	16.1
640.952	16.32
641.282	15.8
641.612	15.82
641.943	16.16
642.273	16.09
642.603	16.87
642.933	16.94
643.263	16.48
643.592	16.76
643.922	16.45
644.252	16.24
644.582	16.55
644.911	16.61
645.241	16.04
645.571	16.63
645.9	17.15
646.23	16.39
646.559	16.09
646.888	16.98
647.218	16.53
647.547	16.8
647.876	16.84
648.205	16.61
648.534	16.86
648.863	17.15
649.192	16.89
649.521	16.99
649.85	16.82
650.179	17.25
650.508	17.26
650.837	17.55
651.165	17.43
651.494	17.1
651.822	17.3
652.151	17.17
652.479	17.47
652.808	17.47
653.136	16.81
653.465	17.32
653.793	17.89
654.121	17.59
654.449	17.22
654.777	17.41
655.105	17.73
655.433	17.6
655.761	17.97
656.089	17.31
656.417	17.88
656.745	18.31
657.073	17.71
657.4	17.77
657.728	17.4
658.056	18.19
658.383	18.04
658.711	18.11
659.038	18.28
659.365	18.53
659.693	17.93
660.02	18.02
660.347	18.13
660.674	18.06
661.001	18.22
661.329	18.07
661.656	18.62
661.982	17.99
662.309	18.79
662.636	18.8
662.963	18.52
663.29	18.91
663.616	18.72
663.943	18.71
664.27	18.99
664.596	18.69
664.923	19.22
665.249	19.3
665.576	18.99
665.902	18.68
666.228	19.16
666.554	19.51
666.881	18.71
667.207	19.39
667.533	19.18
667.859	19
668.185	19.34
668.511	19.61
668.837	19.29
669.162	19.36
669.488	19.36
669.814	19.51
670.139	19.73
670.465	19.67
670.791	19.35
671.116	19.65
671.442	18.91
671.767	19.82
672.092	19.33
672.418	20.12
672.743	19.5
673.068	19.76
673.393	20.1
673.718	19.77
674.043	20.41
674.368	19.94
674.693	20.15
675.018	20.36
675.343	20.44
675.667	19.57
675.992	20.41
676.317	19.58
676.641	20.53
676.966	20.45
677.29	20.54
677.615	20.33
677.939	20.85
678.264	20.11
678.588	20.66
678.912	20.03
679.236	20.73
679.56	20.26
679.885	21.07
680.209	21.02
680.532	20.67
680.856	20.78
681.18	21.39
681.504	20.57
681.828	20.91
682.152	21.07
682.475	21.29
682.799	20.56
683.122	20.91
683.446	20.68
683.769	21.43
684.093	22.13
684.416	21.12
684.739	20.73
685.062	21.41
685.386	20.81
685.709	21.37
