Data from 0191_chest_Reflection__3__411.txt Node

Date: Fri Dec 15 20:26:02 CST 2023
User: ToomeyLab
Spectrometer: FLMS14357
Trigger mode: 0
Integration Time (sec): 1.000000E-2
Scans to average: 100
Electric dark correction enabled: true
Nonlinearity correction enabled: false
Boxcar width: 0
XAxis mode: Wavelengths
Number of Pixels in Spectrum: 2048
>>>>>Begin Spectral Data<<<<<
189.047	-54.3
189.435	-54.3
189.823	-54.3
190.211	-1723.42
190.599	-105.51
190.987	301.11
191.375	-61.55
191.763	3.17
192.151	-32.08
192.538	119.72
192.926	140.63
193.314	38.35
193.702	-44.54
194.089	-215.57
194.477	457.09
194.864	-1166.37
195.252	86.85
195.639	60.38
196.027	33.45
196.414	75.33
196.801	124.62
197.189	272.54
197.576	2.71
197.963	111.46
198.351	-112.39
198.738	-34.38
199.125	27.19
199.512	-53.14
199.899	69.31
200.286	-7.15
200.673	-23.9
201.06	16.23
201.447	-37.74
201.833	38.61
202.22	32.68
202.607	48.13
202.994	14.94
203.38	-1.55
203.767	44.14
204.154	-16.86
204.54	24.41
204.927	-48.6
205.313	4.28
205.699	24.1
206.086	28.37
206.472	38.2
206.858	-4.89
207.245	-68.39
207.631	-14.08
208.017	-1.54
208.403	3.87
208.789	-24.75
209.175	15.45
209.561	-43.76
209.947	-48
210.333	-162.53
210.719	-1.22
211.105	16.29
211.491	-60.17
211.876	-1.03
212.262	23.41
212.648	-6.77
213.034	34.74
213.419	-26.54
213.805	-31.55
214.19	1.21
214.576	-24.91
214.961	-50.65
215.346	-93.4
215.732	17.72
216.117	-11.77
216.502	-57.25
216.888	7.82
217.273	13.07
217.658	-46.73
218.043	14.99
218.428	-35.67
218.813	-26.75
219.198	-69.25
219.583	-10.51
219.968	15.29
220.353	-23.93
220.738	28.92
221.122	-2.84
221.507	-38.08
221.892	-22.57
222.276	-13.31
222.661	-15.35
223.046	12.42
223.43	11.29
223.815	6.75
224.199	-11.99
224.583	1.14
224.968	0.57
225.352	10.08
225.736	-13.74
226.121	-13.34
226.505	1.79
226.889	-6.58
227.273	-1.72
227.657	9.85
228.041	2.35
228.425	1.67
228.809	5.92
229.193	2.9
229.577	3.94
229.961	3.71
230.344	5.02
230.728	4.92
231.112	5.31
231.495	4.25
231.879	3.77
232.263	6.18
232.646	5.31
233.03	4.65
233.413	5.37
233.797	3.17
234.18	2.19
234.563	2.81
234.946	4.76
235.33	5.37
235.713	6.67
236.096	4.22
236.479	5.35
236.862	3.45
237.245	6.81
237.628	4.68
238.011	5.47
238.394	5.07
238.777	5.25
239.16	3.39
239.543	4.13
239.925	6.28
240.308	5.15
240.691	5.89
241.073	5.56
241.456	4.62
241.838	3.91
242.221	4.91
242.603	5.24
242.986	5.71
243.368	5.57
243.75	5.68
244.133	5.3
244.515	5.54
244.897	5.95
245.279	5.17
245.661	4.95
246.043	3.92
246.425	2.7
246.807	6.25
247.189	5.31
247.571	5.6
247.953	6.1
248.335	5.35
248.717	5.26
249.098	5.25
249.48	5.33
249.862	5.01
250.243	5.32
250.625	4.97
251.006	5.33
251.388	4.2
251.769	4.38
252.151	4.3
252.532	3.81
252.913	4.17
253.295	4.55
253.676	5.23
254.057	5.15
254.438	5.06
254.819	4.36
255.2	4.39
255.581	5.17
255.962	3.76
256.343	5.34
256.724	5.57
257.105	5.59
257.486	3.89
257.867	4.25
258.247	3.88
258.628	4.92
259.009	4.53
259.389	5.08
259.77	4.59
260.15	4.92
260.531	4.16
260.911	5.19
261.292	4.86
261.672	5.2
262.052	4.97
262.432	5.2
262.813	4.97
263.193	4.23
263.573	4.79
263.953	4.42
264.333	5.56
264.713	4.86
265.093	3.86
265.473	4.77
265.853	3.71
266.233	5.28
266.612	2.85
266.992	3.88
267.372	4.69
267.752	4.21
268.131	4.57
268.511	5.08
268.89	4.8
269.27	4.55
269.649	3.97
270.029	4.17
270.408	5.77
270.787	5.39
271.167	5.27
271.546	4.93
271.925	4.02
272.304	5.01
272.683	4.92
273.062	4.49
273.441	4.93
273.82	4.19
274.199	4.73
274.578	4.83
274.957	4.3
275.336	4.4
275.715	4.25
276.093	4.36
276.472	4.17
276.851	3.95
277.229	4.28
277.608	4.2
277.986	4.04
278.365	5.02
278.743	3.77
279.122	4.59
279.5	4.49
279.878	4.5
280.257	4.51
280.635	3.72
281.013	3.72
281.391	4.83
281.769	4.52
282.147	5.03
282.525	5.26
282.903	4.49
283.281	4.76
283.659	4.61
284.037	4.76
284.415	4.9
284.792	4.71
285.17	4.03
285.548	4.77
285.925	5.17
286.303	4.41
286.68	4.19
287.058	4.79
287.435	4.77
287.813	4.48
288.19	4.33
288.567	4.38
288.945	4.61
289.322	4.29
289.699	4.47
290.076	4.45
290.453	4.52
290.83	4.17
291.207	4.34
291.584	5.01
291.961	5.05
292.338	4.7
292.715	4.84
293.092	4.69
293.469	5.02
293.845	5.03
294.222	3.91
294.599	4.79
294.975	4.44
295.352	4.71
295.728	4.47
296.105	4.35
296.481	4.92
296.858	4.52
297.234	4.79
297.61	4.69
297.986	4.68
298.363	4.81
298.739	5.04
299.115	4.39
299.491	4.48
299.867	4.75
300.243	4.73
300.619	3.94
300.995	4.28
301.371	4.82
301.746	4.63
302.122	5.02
302.498	4.28
302.874	4.62
303.249	4.62
303.625	4.69
304	4.95
304.376	4.82
304.751	4.22
305.127	5.16
305.502	4.2
305.878	4.11
306.253	4.97
306.628	5.37
307.003	4.93
307.378	5.09
307.754	4.34
308.129	4.14
308.504	4.6
308.879	4.2
309.254	5.82
309.629	4.83
310.003	5.03
310.378	4.99
310.753	5.08
311.128	5.17
311.502	4.92
311.877	5.08
312.252	4.17
312.626	4.7
313.001	4.6
313.375	5.19
313.75	4.45
314.124	4.62
314.498	4.55
314.873	4.77
315.247	4.79
315.621	4.87
315.995	3.86
316.369	4.47
316.743	4.71
317.117	5.26
317.491	4.39
317.865	5.16
318.239	4.44
318.613	4.7
318.987	4.96
319.361	4.17
319.734	5.21
320.108	5.04
320.482	4.16
320.855	4.92
321.229	4.48
321.602	4.19
321.976	5.21
322.349	5.62
322.723	4.88
323.096	4.85
323.469	3.85
323.843	4.42
324.216	4.58
324.589	4.72
324.962	4.33
325.335	4.74
325.708	4.35
326.081	4.99
326.454	5.01
326.827	4.66
327.2	4.98
327.573	4.97
327.945	5.06
328.318	3.83
328.691	4.3
329.063	4.39
329.436	4.59
329.809	5.34
330.181	4.35
330.553	4.96
330.926	5.19
331.298	5.21
331.671	4.72
332.043	5.52
332.415	4.87
332.787	4.68
333.159	5.29
333.532	5.04
333.904	4.92
334.276	4.79
334.648	4.91
335.02	4.67
335.391	4.61
335.763	4.49
336.135	4.3
336.507	5.42
336.879	4.29
337.25	4.36
337.622	4.61
337.993	5.29
338.365	5.04
338.736	4.92
339.108	4.75
339.479	4.59
339.851	4.84
340.222	4.86
340.593	5.17
340.964	4.8
341.336	5.44
341.707	4.36
342.078	5.12
342.449	4.89
342.82	4.79
343.191	4.74
343.562	4.9
343.933	4.57
344.303	4.5
344.674	5.02
345.045	4.76
345.416	5.18
345.786	4.58
346.157	5.43
346.527	4.69
346.898	4.57
347.268	5.19
347.639	5.26
348.009	5.15
348.38	4.67
348.75	4.92
349.12	4.87
349.49	5.01
349.861	4.94
350.231	4.61
350.601	5.22
350.971	5.09
351.341	4.47
351.711	4.89
352.081	4.91
352.45	4.74
352.82	5.56
353.19	4.91
353.56	4.81
353.929	5.29
354.299	4.77
354.669	4.64
355.038	5.1
355.408	4.97
355.777	4.83
356.147	4.64
356.516	4.7
356.885	5.23
357.254	5.22
357.624	5.4
357.993	5.25
358.362	4.9
358.731	4.49
359.1	5.19
359.469	5.3
359.838	5.23
360.207	4.97
360.576	4.87
360.945	4.82
361.314	5.41
361.682	4.64
362.051	4.87
362.42	5.54
362.788	4.85
363.157	5.3
363.525	5.24
363.894	5.37
364.262	5.2
364.631	4.71
364.999	5.23
365.367	4.97
365.735	5.95
366.104	5.13
366.472	5.51
366.84	5.18
367.208	4.82
367.576	5.24
367.944	5.25
368.312	4.94
368.68	4.89
369.048	5.49
369.416	5.25
369.783	5.23
370.151	5.17
370.519	5.61
370.886	5.23
371.254	4.81
371.621	5.54
371.989	5.41
372.356	4.98
372.724	5.16
373.091	4.88
373.458	5.13
373.826	5.33
374.193	5.25
374.56	5.31
374.927	5.31
375.294	5.31
375.661	4.99
376.028	4.89
376.395	5.05
376.762	5.28
377.129	5.34
377.496	5.11
377.863	5.06
378.229	4.73
378.596	5.17
378.963	5.26
379.329	4.98
379.696	5.44
380.062	5.08
380.429	5.12
380.795	5.28
381.161	5.39
381.528	5.4
381.894	5.47
382.26	5.1
382.626	5.17
382.993	5.14
383.359	5.55
383.725	4.71
384.091	5.23
384.457	5.58
384.823	5.16
385.188	5.48
385.554	5.22
385.92	5.23
386.286	5.31
386.651	5.32
387.017	5.4
387.383	5.23
387.748	5.12
388.114	5.46
388.479	5.21
388.845	5.47
389.21	5.27
389.575	5.31
389.94	5.65
390.306	5.42
390.671	5.62
391.036	5.18
391.401	5.01
391.766	5.02
392.131	5.2
392.496	5.24
392.861	5.12
393.226	5.47
393.591	5.27
393.956	5.31
394.32	5.64
394.685	5.13
395.05	5.45
395.414	5.28
395.779	5.13
396.143	5.23
396.508	5.34
396.872	5.43
397.236	5.46
397.601	5.12
397.965	5.12
398.329	5.36
398.694	5.35
399.058	5.24
399.422	5.08
399.786	5.77
400.15	5.59
400.514	5.44
400.878	5.56
401.242	5.91
401.605	5.51
401.969	5.53
402.333	5.5
402.697	5.27
403.06	5.51
403.424	5.16
403.787	5.22
404.151	5.45
404.514	5.5
404.878	5.24
405.241	5.38
405.604	5.48
405.968	5.54
406.331	5.46
406.694	5.51
407.057	5.37
407.42	5.63
407.783	5.39
408.146	5.38
408.509	5.29
408.872	5.37
409.235	5.51
409.598	5.76
409.961	5.5
410.323	5.37
410.686	5.4
411.049	5.54
411.411	5.48
411.774	5.59
412.136	5.36
412.499	5.52
412.861	5.46
413.223	5.2
413.586	5.31
413.948	5.67
414.31	5.3
414.672	5.3
415.035	5.43
415.397	5.66
415.759	5.43
416.121	5.67
416.483	5.37
416.845	5.42
417.206	5.55
417.568	5.56
417.93	5.33
418.292	5.54
418.653	5.55
419.015	5.55
419.377	5.46
419.738	5.68
420.1	5.46
420.461	5.55
420.822	5.56
421.184	5.28
421.545	5.39
421.906	5.29
422.267	5.37
422.629	5.36
422.99	5.38
423.351	5.35
423.712	5.51
424.073	5.47
424.434	5.42
424.795	5.34
425.155	5.43
425.516	5.31
425.877	5.4
426.238	5.39
426.598	5.45
426.959	5.42
427.32	5.46
427.68	5.42
428.041	5.39
428.401	5.5
428.761	5.51
429.122	5.5
429.482	5.36
429.842	5.73
430.202	5.5
430.563	5.59
430.923	5.36
431.283	5.62
431.643	5.31
432.003	5.59
432.363	5.62
432.722	5.56
433.082	5.46
433.442	5.52
433.802	5.48
434.161	5.37
434.521	5.7
434.881	5.54
435.24	5.59
435.6	5.51
435.959	5.41
436.319	5.46
436.678	5.51
437.037	5.41
437.396	5.41
437.756	5.62
438.115	5.52
438.474	5.78
438.833	5.42
439.192	5.48
439.551	5.64
439.91	5.6
440.269	5.55
440.628	5.42
440.987	5.61
441.345	5.38
441.704	5.62
442.063	5.54
442.421	5.42
442.78	5.6
443.138	5.44
443.497	5.54
443.855	5.38
444.214	5.67
444.572	5.48
444.93	5.39
445.288	5.6
445.647	5.83
446.005	5.47
446.363	5.65
446.721	5.57
447.079	5.48
447.437	5.52
447.795	5.63
448.153	5.41
448.51	5.44
448.868	5.57
449.226	5.41
449.584	5.42
449.941	5.48
450.299	5.64
450.656	5.51
451.014	5.65
451.371	5.51
451.729	5.67
452.086	5.67
452.443	5.66
452.801	5.74
453.158	5.64
453.515	5.5
453.872	5.7
454.229	5.45
454.586	5.49
454.943	5.65
455.3	5.68
455.657	5.46
456.014	5.55
456.371	5.47
456.727	5.51
457.084	5.8
457.441	5.49
457.797	5.66
458.154	5.74
458.51	5.59
458.867	5.76
459.223	5.75
459.58	5.74
459.936	5.55
460.292	5.54
460.648	5.61
461.005	5.54
461.361	5.74
461.717	5.65
462.073	5.54
462.429	5.62
462.785	5.61
463.141	5.49
463.496	5.56
463.852	5.83
464.208	5.66
464.564	5.8
464.919	5.62
465.275	5.58
465.631	5.88
465.986	5.6
466.342	5.73
466.697	5.72
467.052	5.83
467.408	5.72
467.763	5.62
468.118	5.71
468.473	5.67
468.829	5.49
469.184	5.73
469.539	5.62
469.894	5.54
470.249	5.87
470.603	5.84
470.958	5.86
471.313	5.85
471.668	5.69
472.023	5.66
472.377	5.6
472.732	5.63
473.086	5.67
473.441	5.71
473.795	6.01
474.15	5.98
474.504	5.74
474.859	5.9
475.213	5.6
475.567	5.72
475.921	5.56
476.275	5.74
476.63	5.78
476.984	5.8
477.338	5.81
477.692	5.69
478.045	5.71
478.399	5.71
478.753	5.8
479.107	5.8
479.461	5.84
479.814	5.75
480.168	5.73
480.521	5.61
480.875	5.69
481.228	5.72
481.582	5.71
481.935	5.57
482.289	5.81
482.642	5.61
482.995	5.73
483.348	5.66
483.701	5.75
484.055	5.77
484.408	5.85
484.761	5.71
485.114	5.64
485.466	5.53
485.819	5.52
486.172	5.48
486.525	5.44
486.878	5.47
487.23	5.5
487.583	5.6
487.936	5.64
488.288	5.71
488.641	5.74
488.993	5.59
489.345	5.6
489.698	5.63
490.05	5.57
490.402	5.64
490.754	5.63
491.107	5.71
491.459	5.7
491.811	5.79
492.163	5.75
492.515	5.7
492.866	5.87
493.218	5.77
493.57	5.67
493.922	5.62
494.274	5.69
494.625	5.7
494.977	5.72
495.328	5.91
495.68	5.82
496.031	5.84
496.383	5.86
496.734	5.85
497.086	5.89
497.437	5.84
497.788	5.97
498.139	5.81
498.49	6.04
498.842	5.82
499.193	5.9
499.544	5.87
499.894	5.91
500.245	5.89
500.596	5.85
500.947	6.02
501.298	5.95
501.648	6.08
501.999	5.95
502.35	5.87
502.7	5.93
503.051	5.96
503.401	5.93
503.752	6.13
504.102	5.86
504.452	5.83
504.803	5.94
505.153	5.96
505.503	5.91
505.853	6.05
506.203	5.93
506.553	5.94
506.903	5.91
507.253	5.82
507.603	5.79
507.953	6.04
508.303	6.07
508.652	5.89
509.002	6.08
509.352	6.14
509.701	6.03
510.051	5.96
510.4	5.97
510.75	5.99
511.099	6.07
511.449	5.95
511.798	6.03
512.147	6.07
512.496	6.01
512.846	6.02
513.195	5.94
513.544	6.14
513.893	6.09
514.242	5.98
514.591	6.13
514.939	6.06
515.288	5.86
515.637	6.14
515.986	6.02
516.334	6.08
516.683	6.1
517.032	6.04
517.38	6.09
517.729	6.12
518.077	6.01
518.426	6.15
518.774	6.34
519.122	6.06
519.47	6.13
519.819	6
520.167	6.06
520.515	6.16
520.863	6.11
521.211	6.13
521.559	6.09
521.907	5.88
522.255	6.1
522.602	6.15
522.95	6.12
523.298	6.15
523.645	6.13
523.993	6.17
524.341	6.2
524.688	6.23
525.036	6.28
525.383	6.27
525.73	6.28
526.078	6.22
526.425	6.2
526.772	6.33
527.119	6.18
527.466	6.29
527.814	6.16
528.161	6.19
528.508	6.18
528.854	6.09
529.201	6.13
529.548	6.18
529.895	6.13
530.242	6.1
530.588	6.07
530.935	5.98
531.282	6.06
531.628	6.01
531.975	6.12
532.321	6.1
532.667	6.22
533.014	6.27
533.36	6.22
533.706	6.27
534.052	6.28
534.399	6.21
534.745	6.24
535.091	6.25
535.437	6.2
535.783	6.27
536.129	6.21
536.474	6.23
536.82	6.28
537.166	6.32
537.512	6.46
537.857	6.36
538.203	6.38
538.549	6.35
538.894	6.36
539.239	6.47
539.585	6.3
539.93	6.42
540.276	6.5
540.621	6.56
540.966	6.35
541.311	6.41
541.656	6.32
542.001	6.44
542.346	6.62
542.691	6.48
543.036	6.48
543.381	6.31
543.726	6.41
544.071	6.4
544.415	6.43
544.76	6.48
545.105	6.5
545.449	6.59
545.794	6.54
546.138	6.51
546.483	6.58
546.827	6.7
547.171	6.71
547.516	6.85
547.86	6.59
548.204	6.61
548.548	6.55
548.892	6.71
549.236	6.57
549.58	6.73
549.924	6.71
550.268	6.72
550.612	6.81
550.956	6.78
551.3	6.62
551.643	6.93
551.987	7.05
552.33	6.74
552.674	7.02
553.017	6.74
553.361	6.76
553.704	7.04
554.048	6.84
554.391	6.82
554.734	6.82
555.077	6.92
555.42	6.89
555.764	6.94
556.107	6.8
556.45	6.75
556.793	6.86
557.135	6.91
557.478	7.02
557.821	7.19
558.164	7.03
558.507	6.98
558.849	6.98
559.192	7.08
559.534	7.11
559.877	7.07
560.219	7.07
560.562	7.53
560.904	7.19
561.246	7.3
561.589	7.27
561.931	7.14
562.273	7.07
562.615	7.16
562.957	7.23
563.299	6.96
563.641	7.19
563.983	7.28
564.325	7.08
564.667	7.27
565.008	7.15
565.35	7.42
565.692	7.2
566.033	7.21
566.375	7.55
566.716	7.39
567.058	7.33
567.399	7.28
567.741	7.25
568.082	7.32
568.423	7.41
568.764	7.26
569.105	7.28
569.447	7.43
569.788	7.42
570.129	7.54
570.47	7.5
570.811	7.62
571.151	7.61
571.492	7.58
571.833	7.64
572.174	7.51
572.514	7.65
572.855	7.64
573.195	7.61
573.536	7.6
573.876	7.54
574.217	7.71
574.557	7.79
574.898	7.78
575.238	7.69
575.578	7.33
575.918	7.61
576.258	7.93
576.598	7.79
576.938	7.75
577.278	7.87
577.618	7.72
577.958	7.5
578.298	7.71
578.638	7.5
578.977	7.67
579.317	7.75
579.657	7.89
579.996	7.76
580.336	7.76
580.675	7.89
581.014	7.91
581.354	8.08
581.693	8.15
582.032	7.87
582.372	7.84
582.711	8.04
583.05	7.78
583.389	8.14
583.728	8.1
584.067	8.17
584.406	8.17
584.745	7.98
585.083	8.18
585.422	8.21
585.761	8.2
586.1	8.22
586.438	8.39
586.777	8.25
587.115	8.5
587.454	8.19
587.792	8.26
588.13	8.5
588.469	8.41
588.807	8.61
589.145	8.23
589.483	8.44
589.821	8.39
590.159	8.33
590.497	8.68
590.835	8.66
591.173	8.41
591.511	8.85
591.849	8.4
592.187	8.46
592.524	8.67
592.862	8.85
593.2	8.73
593.537	8.66
593.875	8.52
594.212	8.41
594.55	8.61
594.887	8.75
595.224	8.56
595.561	8.66
595.899	8.67
596.236	8.66
596.573	8.96
596.91	8.37
597.247	8.58
597.584	8.8
597.921	8.84
598.258	8.71
598.594	8.93
598.931	8.96
599.268	8.89
599.604	8.76
599.941	9.08
600.277	8.78
600.614	9.01
600.95	8.98
601.287	9.09
601.623	8.85
601.959	8.86
602.296	8.98
602.632	9.18
602.968	9.39
603.304	9.42
603.64	9.07
603.976	9.51
604.312	9
604.648	9.12
604.984	9.22
605.319	9.23
605.655	9.39
605.991	9.42
606.326	9.35
606.662	9.31
606.998	9.06
607.333	9.38
607.668	9.37
608.004	9.28
608.339	10.02
608.674	9.55
609.01	9.47
609.345	9.3
609.68	9.67
610.015	9.38
610.35	9.63
610.685	9.43
611.02	9.47
611.355	9.73
611.689	9.8
612.024	9.79
612.359	9.66
612.694	9.78
613.028	9.78
613.363	10.01
613.697	9.58
614.032	9.99
614.366	9.68
614.7	10.18
615.035	9.98
615.369	10.13
615.703	9.86
616.037	9.9
616.371	9.62
616.705	9.93
617.039	10.02
617.373	9.8
617.707	9.88
618.041	10.16
618.375	10.24
618.709	10.29
619.042	10.1
619.376	10.62
619.71	10.42
620.043	10.18
620.377	10.56
620.71	10.55
621.043	10.14
621.377	10.66
621.71	10.66
622.043	10.15
622.376	9.96
622.709	10.77
623.043	10.49
623.376	10.67
623.709	10.39
624.041	10.91
624.374	10.37
624.707	10.65
625.04	10.69
625.373	10.33
625.705	10.58
626.038	10.63
626.37	10.79
626.703	10.75
627.035	10.96
627.368	11.03
627.7	10.75
628.032	10.71
628.365	10.96
628.697	10.71
629.029	10.64
629.361	10.81
629.693	10.69
630.025	10.87
630.357	11.31
630.689	10.95
631.021	11.07
631.353	11.25
631.684	10.86
632.016	10.89
632.348	10.95
632.679	10.96
633.011	11.18
633.342	11.11
633.674	11.32
634.005	11.78
634.336	10.94
634.668	11.75
634.999	11.3
635.33	11.28
635.661	11.41
635.992	11.56
636.323	11.55
636.654	11.69
636.985	11.65
637.316	11.39
637.647	11.42
637.977	11.57
638.308	11.49
638.639	11.53
638.969	11.56
639.3	11.59
639.63	11.18
639.961	11.45
640.291	11.81
640.622	12
640.952	11.08
641.282	11.91
641.612	12.21
641.943	11.68
642.273	11.51
642.603	12.35
642.933	11.9
643.263	12.11
643.592	11.65
643.922	11.92
644.252	11.98
644.582	12.09
644.911	11.62
645.241	12.01
645.571	11.93
645.9	11.98
646.23	12.08
646.559	12.49
646.888	12.05
647.218	11.94
647.547	12.33
647.876	11.85
648.205	12.26
648.534	12.37
648.863	12.13
649.192	12.84
649.521	12.44
649.85	12.06
650.179	12.15
650.508	12.41
650.837	12.38
651.165	11.91
651.494	12.35
651.822	12.48
652.151	12.33
652.479	12.65
652.808	12.12
653.136	12.41
653.465	12.32
653.793	12.18
654.121	12.69
654.449	12.91
654.777	12.92
655.105	12.76
655.433	12.44
655.761	12.74
656.089	13.01
656.417	13.11
656.745	12.65
657.073	12.8
657.4	13.03
657.728	12.81
658.056	12.44
658.383	13.15
658.711	13.15
659.038	13.19
659.365	13.23
659.693	13.06
660.02	13.01
660.347	13.35
660.674	13.24
661.001	13.33
661.329	12.84
661.656	13.38
661.982	13.87
662.309	13.49
662.636	13.01
662.963	13.86
663.29	13.68
663.616	13.83
663.943	13.27
664.27	13.43
664.596	13.77
664.923	13.78
665.249	13.32
665.576	13.59
665.902	14.1
666.228	13.66
666.554	13.97
666.881	13.93
667.207	13.37
667.533	13.77
667.859	14.08
668.185	12.98
668.511	12.78
668.837	12.78
669.162	13.51
669.488	13.45
669.814	14.12
670.139	14.48
670.465	14.74
670.791	14.15
671.116	14.99
671.442	13.68
671.767	14.11
672.092	14.38
672.418	14.13
672.743	14.21
673.068	13.47
673.393	14.29
673.718	14.29
674.043	14.28
674.368	14.46
674.693	15.26
675.018	14.31
675.343	13.88
675.667	14.39
675.992	14.48
676.317	15.17
676.641	14.69
676.966	14.86
677.29	14.67
677.615	14.94
677.939	15.74
678.264	15.23
678.588	15.1
678.912	15.17
679.236	14.98
679.56	14.37
679.885	15.25
680.209	14.22
680.532	15.11
680.856	15.5
681.18	14.99
681.504	14.61
681.828	15.3
682.152	14.85
682.475	15.16
682.799	15.37
683.122	15.21
683.446	15.11
683.769	15.99
684.093	15.08
684.416	15.35
684.739	15.5
685.062	14.75
685.386	15.26
685.709	14.98
686.032	15.37
686.355	15.17
