Data from 0191_crown_Reflection__2__416.txt Node

Date: Fri Dec 15 20:27:12 CST 2023
User: ToomeyLab
Spectrometer: FLMS14357
Trigger mode: 0
Integration Time (sec): 1.000000E-2
Scans to average: 100
Electric dark correction enabled: true
Nonlinearity correction enabled: false
Boxcar width: 0
XAxis mode: Wavelengths
Number of Pixels in Spectrum: 2048
>>>>>Begin Spectral Data<<<<<
189.047	-119.62
189.435	-119.62
189.823	-119.62
190.211	557.66
190.599	-71.85
190.987	49.2
191.375	-87.02
191.763	-52.46
192.151	55.78
192.538	96.47
192.926	433.39
193.314	36.13
193.702	389.37
194.089	-141.26
194.477	1142.21
194.864	629.15
195.252	128.67
195.639	54.92
196.027	84.21
196.414	-17.64
196.801	113.86
197.189	134.67
197.576	342.44
197.963	51.89
198.351	-134.31
198.738	-156.43
199.125	33.77
199.512	-61.79
199.899	6.22
200.286	6.85
200.673	-12.79
201.06	-105.34
201.447	-16.91
201.833	-12.8
202.22	16.68
202.607	73.12
202.994	5.9
203.38	21.48
203.767	30.45
204.154	-3.98
204.54	0.25
204.927	-176.32
205.313	25.67
205.699	0.64
206.086	11.21
206.472	-10.89
206.858	-29.32
207.245	-33.49
207.631	30.18
208.017	-7.63
208.403	-9.64
208.789	6.64
209.175	-10.49
209.561	-16.14
209.947	22.71
210.333	-43.84
210.719	-4.62
211.105	19.1
211.491	-49.77
211.876	42.87
212.262	7.24
212.648	-5.6
213.034	4.72
213.419	-45.79
213.805	-80.43
214.19	-41.63
214.576	-30.11
214.961	-36.32
215.346	-98.63
215.732	-11.26
216.117	12.91
216.502	-82.31
216.888	29.31
217.273	15.11
217.658	-3.28
218.043	9.5
218.428	-63.35
218.813	-79.61
219.198	-59.41
219.583	-18.31
219.968	-18.03
220.353	-45.95
220.738	27.06
221.122	13.54
221.507	-6.73
221.892	-54.42
222.276	-22.12
222.661	-48.36
223.046	4.04
223.43	11.59
223.815	3.03
224.199	-10.39
224.583	4.29
224.968	-7.34
225.352	10.3
225.736	-18.76
226.121	-12.94
226.505	-8.36
226.889	1.29
227.273	-1.62
227.657	4.52
228.041	-3.64
228.425	4.26
228.809	5.19
229.193	4.8
229.577	3.38
229.961	4.21
230.344	2.56
230.728	3.64
231.112	4
231.495	4.41
231.879	3.02
232.263	3.78
232.646	4.33
233.03	4
233.413	2.4
233.797	4.59
234.18	3.06
234.563	0.98
234.946	2.34
235.33	4.96
235.713	4.52
236.096	3.68
236.479	4.34
236.862	2.71
237.245	5.84
237.628	4.3
238.011	3.91
238.394	5.6
238.777	2.58
239.16	1.75
239.543	3.8
239.925	3.9
240.308	2.82
240.691	5.87
241.073	2.71
241.456	3.76
241.838	2.8
242.221	2.61
242.603	4.38
242.986	4.12
243.368	3.59
243.75	4.3
244.133	4.1
244.515	4.6
244.897	4.76
245.279	4.57
245.661	3.75
246.043	3.27
246.425	4.32
246.807	5.13
247.189	3.42
247.571	4.2
247.953	4.32
248.335	4
248.717	4.5
249.098	3.98
249.48	4.3
249.862	4.05
250.243	4.48
250.625	4.09
251.006	4.32
251.388	2.85
251.769	3.86
252.151	4.71
252.532	4.61
252.913	2.83
253.295	3.56
253.676	3.24
254.057	3.77
254.438	4.37
254.819	3.02
255.2	3.19
255.581	3.68
255.962	2.63
256.343	2.34
256.724	2.09
257.105	2.96
257.486	2.59
257.867	2.63
258.247	3.8
258.628	2.86
259.009	3.19
259.389	3.6
259.77	4.02
260.15	3.45
260.531	2.78
260.911	4.09
261.292	3.7
261.672	3.97
262.052	3.95
262.432	4.06
262.813	3.92
263.193	3.88
263.573	3.88
263.953	3.2
264.333	4.06
264.713	3.88
265.093	2.86
265.473	3.26
265.853	2.52
266.233	3.42
266.612	1.98
266.992	2.27
267.372	3.81
267.752	3.54
268.131	3.84
268.511	4.44
268.89	4.88
269.27	3.24
269.649	2.79
270.029	3.25
270.408	5.05
270.787	3.7
271.167	4.21
271.546	4.39
271.925	2.95
272.304	3.78
272.683	3.79
273.062	3.56
273.441	3.32
273.82	3.03
274.199	3.95
274.578	3.95
274.957	4.02
275.336	3.82
275.715	3.35
276.093	3.46
276.472	3.58
276.851	3.11
277.229	3.27
277.608	2.89
277.986	3.57
278.365	3.52
278.743	2.92
279.122	3.74
279.5	3.84
279.878	4.42
280.257	4.09
280.635	2.88
281.013	2.95
281.391	3.33
281.769	2.18
282.147	3.9
282.525	4.04
282.903	3.36
283.281	3.59
283.659	3.82
284.037	3.75
284.415	3.73
284.792	3.83
285.17	2.64
285.548	3.13
285.925	3.69
286.303	3.57
286.68	3.36
287.058	3.71
287.435	3.48
287.813	3.49
288.19	3.78
288.567	3.47
288.945	3.57
289.322	3.23
289.699	3.5
290.076	3.4
290.453	3.36
290.83	3.18
291.207	3.31
291.584	3.4
291.961	3.86
292.338	3.78
292.715	4.01
293.092	3.27
293.469	3.71
293.845	4.17
294.222	2.95
294.599	3.54
294.975	3.07
295.352	3.51
295.728	2.69
296.105	3.18
296.481	3.9
296.858	3.72
297.234	3.02
297.61	3.37
297.986	3.74
298.363	3.83
298.739	3.75
299.115	3.72
299.491	3.44
299.867	3.68
300.243	4.07
300.619	3.44
300.995	3.72
301.371	4.06
301.746	3.26
302.122	3.63
302.498	3.58
302.874	3.49
303.249	3.19
303.625	3.64
304	3.61
304.376	3.75
304.751	2.89
305.127	4.08
305.502	2.83
305.878	2.48
306.253	3.64
306.628	3.73
307.003	3.6
307.378	3.69
307.754	3.75
308.129	3.63
308.504	3.47
308.879	2.79
309.254	4.39
309.629	4.08
310.003	3.84
310.378	4.25
310.753	3.86
311.128	3.93
311.502	3.48
311.877	4.09
312.252	3.11
312.626	3.52
313.001	3.64
313.375	4.21
313.75	3.4
314.124	3.76
314.498	3.41
314.873	3.9
315.247	3.64
315.621	3.66
315.995	2.63
316.369	3.96
316.743	2.81
317.117	3.97
317.491	3.61
317.865	3.95
318.239	3.72
318.613	3.81
318.987	4.08
319.361	2.98
319.734	4.55
320.108	4.12
320.482	3.52
320.855	3.43
321.229	3.17
321.602	3.32
321.976	3.81
322.349	3.5
322.723	2.99
323.096	3.88
323.469	2.75
323.843	3.72
324.216	4.13
324.589	3.13
324.962	3.61
325.335	2.85
325.708	3.4
326.081	3.36
326.454	3.36
326.827	3.5
327.2	3.53
327.573	3.82
327.945	3.67
328.318	3.2
328.691	3.25
329.063	3.67
329.436	3.38
329.809	4.06
330.181	3.78
330.553	3.48
330.926	3.72
331.298	3.43
331.671	3.47
332.043	4.37
332.415	3.78
332.787	3.72
333.159	3.94
333.532	4.13
333.904	3.77
334.276	3.4
334.648	4.56
335.02	3.69
335.391	3.79
335.763	3.14
336.135	3.68
336.507	3.92
336.879	3.46
337.25	3.34
337.622	3.46
337.993	3.95
338.365	3.46
338.736	3.83
339.108	3.91
339.479	3.01
339.851	4.13
340.222	3.66
340.593	4.08
340.964	3.43
341.336	4.31
341.707	3.49
342.078	4.05
342.449	4.03
342.82	3.99
343.191	3.61
343.562	3.63
343.933	3.88
344.303	3.52
344.674	4.05
345.045	3.88
345.416	3.81
345.786	3.64
346.157	4.18
346.527	3.49
346.898	3.66
347.268	4.22
347.639	3.71
348.009	3.96
348.38	3.18
348.75	3.61
349.12	3.86
349.49	4
349.861	3.72
350.231	3.66
350.601	3.8
350.971	3.9
351.341	3.83
351.711	3.87
352.081	3.81
352.45	3.72
352.82	3.74
353.19	3.94
353.56	3.95
353.929	3.84
354.299	3.4
354.669	3.01
355.038	4.11
355.408	3.8
355.777	3.79
356.147	3.53
356.516	3.84
356.885	3.88
357.254	3.61
357.624	4.06
357.993	3.82
358.362	3.58
358.731	3.48
359.1	3.81
359.469	4.18
359.838	4.03
360.207	3.94
360.576	3.91
360.945	3.76
361.314	4.19
361.682	3.66
362.051	3.78
362.42	4.09
362.788	3.96
363.157	4.07
363.525	4.16
363.894	4.03
364.262	4.01
364.631	4.14
364.999	3.77
365.367	3.14
365.735	4.5
366.104	4.12
366.472	3.85
366.84	3.83
367.208	3.98
367.576	4.37
367.944	4.23
368.312	3.69
368.68	3.5
369.048	4.16
369.416	4.24
369.783	3.5
370.151	4.11
370.519	4.34
370.886	4.26
371.254	3.77
371.621	4.19
371.989	4.18
372.356	3.72
372.724	4.43
373.091	3.74
373.458	3.98
373.826	3.99
374.193	4.1
374.56	4.05
374.927	4.24
375.294	3.89
375.661	3.77
376.028	3.62
376.395	3.62
376.762	4.15
377.129	3.8
377.496	3.68
377.863	4.23
378.229	3.7
378.596	3.96
378.963	3.9
379.329	3.9
379.696	4.16
380.062	4.17
380.429	4.03
380.795	3.59
381.161	3.97
381.528	4.44
381.894	4.46
382.26	3.91
382.626	4.26
382.993	3.68
383.359	4.47
383.725	4.01
384.091	3.99
384.457	4.31
384.823	4.14
385.188	3.85
385.554	4.33
385.92	3.92
386.286	4.16
386.651	4.39
387.017	4.1
387.383	4.12
387.748	3.98
388.114	4.24
388.479	3.99
388.845	4.31
389.21	4.1
389.575	4.12
389.94	3.95
390.306	4.17
390.671	4.46
391.036	4.05
391.401	3.92
391.766	4.04
392.131	4.14
392.496	4.24
392.861	4.14
393.226	4.3
393.591	4.08
393.956	3.98
394.32	4.12
394.685	4.38
395.05	4.07
395.414	4.24
395.779	4.05
396.143	4.3
396.508	4.19
396.872	4.34
397.236	4.21
397.601	3.95
397.965	4.42
398.329	4.4
398.694	4.26
399.058	4.24
399.422	4.26
399.786	4.44
400.15	4.64
400.514	4.43
400.878	4.28
401.242	4.52
401.605	4.33
401.969	4.52
402.333	4.44
402.697	4.05
403.06	4.35
403.424	4.36
403.787	4.31
404.151	4.54
404.514	4.41
404.878	4.31
405.241	4.36
405.604	4.36
405.968	4.2
406.331	4.34
406.694	4.29
407.057	4.42
407.42	4.47
407.783	4.11
408.146	4.09
408.509	4.29
408.872	4.23
409.235	4.4
409.598	4.51
409.961	4.34
410.323	4.46
410.686	4.37
411.049	4.27
411.411	4.4
411.774	4.41
412.136	4.31
412.499	4.3
412.861	4.25
413.223	4.17
413.586	4.3
413.948	4.31
414.31	4.41
414.672	4.21
415.035	4.12
415.397	4.71
415.759	4.34
416.121	4.53
416.483	4.09
416.845	4.34
417.206	4.34
417.568	4.32
417.93	4.15
418.292	4.24
418.653	4.36
419.015	4.43
419.377	4.32
419.738	4.31
420.1	4.3
420.461	4.37
420.822	4.43
421.184	4.29
421.545	4.28
421.906	4.24
422.267	4.39
422.629	4.35
422.99	4.23
423.351	4.23
423.712	4.37
424.073	4.26
424.434	4.26
424.795	4.22
425.155	4.29
425.516	4.23
425.877	4.2
426.238	4.22
426.598	4.42
426.959	4.24
427.32	4.37
427.68	4.46
428.041	4.32
428.401	4.43
428.761	4.3
429.122	4.34
429.482	4.02
429.842	4.54
430.202	4.48
430.563	4.4
430.923	4.32
431.283	4.5
431.643	4.35
432.003	4.27
432.363	4.46
432.722	4.37
433.082	4.52
433.442	4.35
433.802	4.4
434.161	4.24
434.521	4.58
434.881	4.58
435.24	4.33
435.6	4.54
435.959	4.35
436.319	4.41
436.678	4.39
437.037	4.46
437.396	4.32
437.756	4.5
438.115	4.47
438.474	4.53
438.833	4.38
439.192	4.42
439.551	4.43
439.91	4.48
440.269	4.46
440.628	4.27
440.987	4.34
441.345	4.25
441.704	4.36
442.063	4.24
442.421	4.3
442.78	4.2
443.138	4.34
443.497	4.4
443.855	4.28
444.214	4.47
444.572	4.64
444.93	4.47
445.288	4.53
445.647	4.53
446.005	4.31
446.363	4.51
446.721	4.47
447.079	4.31
447.437	4.36
447.795	4.4
448.153	4.37
448.51	4.37
448.868	4.41
449.226	4.34
449.584	4.4
449.941	4.51
450.299	4.47
450.656	4.48
451.014	4.49
451.371	4.3
451.729	4.29
452.086	4.61
452.443	4.48
452.801	4.64
453.158	4.48
453.515	4.16
453.872	4.46
454.229	4.44
454.586	4.47
454.943	4.5
455.3	4.55
455.657	4.47
456.014	4.21
456.371	4.4
456.727	4.5
457.084	4.68
457.441	4.43
457.797	4.38
458.154	4.8
458.51	4.62
458.867	4.75
459.223	4.51
459.58	4.52
459.936	4.4
460.292	4.39
460.648	4.37
461.005	4.25
461.361	4.43
461.717	4.39
462.073	4.34
462.429	4.38
462.785	4.57
463.141	4.37
463.496	4.55
463.852	4.63
464.208	4.58
464.564	4.67
464.919	4.66
465.275	4.5
465.631	4.68
465.986	4.49
466.342	4.45
466.697	4.4
467.052	4.55
467.408	4.44
467.763	4.56
468.118	4.34
468.473	4.39
468.829	4.57
469.184	4.36
469.539	4.35
469.894	4.43
470.249	4.71
470.603	4.57
470.958	4.5
471.313	4.71
471.668	4.62
472.023	4.59
472.377	4.54
472.732	4.56
473.086	4.41
473.441	4.34
473.795	4.54
474.15	4.68
474.504	4.42
474.859	4.49
475.213	4.23
475.567	4.38
475.921	4.37
476.275	4.52
476.63	4.54
476.984	4.7
477.338	4.58
477.692	4.41
478.045	4.32
478.399	4.58
478.753	4.52
479.107	4.58
479.461	4.54
479.814	4.54
480.168	4.58
480.521	4.55
480.875	4.47
481.228	4.57
481.582	4.44
481.935	4.48
482.289	4.48
482.642	4.44
482.995	4.41
483.348	4.5
483.701	4.58
484.055	4.55
484.408	4.52
484.761	4.42
485.114	4.27
485.466	4.2
485.819	4.15
486.172	4.21
486.525	4.37
486.878	4.41
487.23	4.45
487.583	4.55
487.936	4.53
488.288	4.45
488.641	4.46
488.993	4.32
489.345	4.33
489.698	4.36
490.05	4.32
490.402	4.4
490.754	4.49
491.107	4.53
491.459	4.54
491.811	4.49
492.163	4.55
492.515	4.5
492.866	4.5
493.218	4.41
493.57	4.3
493.922	4.38
494.274	4.53
494.625	4.61
494.977	4.66
495.328	4.64
495.68	4.68
496.031	4.74
496.383	4.48
496.734	4.67
497.086	4.74
497.437	4.6
497.788	4.61
498.139	4.49
498.49	4.68
498.842	4.47
499.193	4.57
499.544	4.58
499.894	4.62
500.245	4.59
500.596	4.58
500.947	4.56
501.298	4.58
501.648	4.69
501.999	4.73
502.35	4.7
502.7	4.63
503.051	4.39
503.401	4.61
503.752	4.69
504.102	4.62
504.452	4.56
504.803	4.79
505.153	4.61
505.503	4.72
505.853	4.63
506.203	4.56
506.553	4.58
506.903	4.56
507.253	4.48
507.603	4.48
507.953	4.83
508.303	4.72
508.652	4.58
509.002	4.59
509.352	4.65
509.701	4.59
510.051	4.55
510.4	4.51
510.75	4.48
511.099	4.54
511.449	4.53
511.798	4.57
512.147	4.57
512.496	4.57
512.846	4.58
513.195	4.53
513.544	4.54
513.893	4.62
514.242	4.48
514.591	4.74
514.939	4.61
515.288	4.53
515.637	4.67
515.986	4.59
516.334	4.71
516.683	4.75
517.032	4.79
517.38	4.79
517.729	4.75
518.077	4.63
518.426	4.56
518.774	4.67
519.122	4.52
519.47	4.66
519.819	4.47
520.167	4.54
520.515	4.49
520.863	4.64
521.211	4.65
521.559	4.7
521.907	4.64
522.255	4.67
522.602	4.61
522.95	4.66
523.298	4.51
523.645	4.62
523.993	4.63
524.341	4.73
524.688	4.8
525.036	4.53
525.383	4.65
525.73	4.71
526.078	4.67
526.425	4.54
526.772	4.65
527.119	4.53
527.466	4.48
527.814	4.46
528.161	4.48
528.508	4.65
528.854	4.57
529.201	4.53
529.548	4.52
529.895	4.5
530.242	4.32
530.588	4.34
530.935	4.4
531.282	4.48
531.628	4.53
531.975	4.6
532.321	4.67
532.667	4.69
533.014	4.79
533.36	4.65
533.706	4.64
534.052	4.7
534.399	4.5
534.745	4.5
535.091	4.53
535.437	4.47
535.783	4.56
536.129	4.58
536.474	4.62
536.82	4.64
537.166	4.72
537.512	4.77
537.857	4.58
538.203	4.56
538.549	4.57
538.894	4.63
539.239	4.61
539.585	4.61
539.93	4.73
540.276	4.79
540.621	4.84
540.966	4.71
541.311	4.59
541.656	4.57
542.001	4.61
542.346	4.61
542.691	4.44
543.036	4.49
543.381	4.32
543.726	4.44
544.071	4.6
544.415	4.65
544.76	4.67
545.105	4.62
545.449	4.69
545.794	4.78
546.138	4.72
546.483	4.77
546.827	4.71
547.171	4.66
547.516	4.87
547.86	4.56
548.204	4.57
548.548	4.55
548.892	4.74
549.236	4.6
549.58	4.72
549.924	4.71
550.268	4.74
550.612	4.76
550.956	4.92
551.3	4.65
551.643	4.78
551.987	4.68
552.33	4.74
552.674	4.82
553.017	4.62
553.361	4.64
553.704	4.87
554.048	4.66
554.391	4.7
554.734	4.56
555.077	4.67
555.42	4.66
555.764	4.64
556.107	4.64
556.45	4.52
556.793	4.69
557.135	4.74
557.478	4.85
557.821	4.89
558.164	4.68
558.507	4.67
558.849	4.78
559.192	4.87
559.534	4.71
559.877	4.74
560.219	4.68
560.562	4.96
560.904	4.66
561.246	4.67
561.589	4.63
561.931	4.89
562.273	4.59
562.615	4.65
562.957	4.86
563.299	4.61
563.641	4.6
563.983	4.81
564.325	4.58
564.667	4.64
565.008	4.69
565.35	4.72
565.692	4.59
566.033	4.62
566.375	5
566.716	5
567.058	4.77
567.399	4.76
567.741	4.53
568.082	4.72
568.423	4.65
568.764	4.56
569.105	4.9
569.447	4.81
569.788	4.75
570.129	4.78
570.47	4.55
570.811	4.78
571.151	4.83
571.492	4.67
571.833	4.72
572.174	4.84
572.514	4.74
572.855	4.84
573.195	4.69
573.536	4.66
573.876	4.55
574.217	4.5
574.557	4.77
574.898	4.93
575.238	4.86
575.578	4.63
575.918	4.83
576.258	4.7
576.598	4.82
576.938	4.85
577.278	4.71
577.618	4.69
577.958	4.63
578.298	4.74
578.638	4.55
578.977	4.7
579.317	4.81
579.657	4.8
579.996	4.86
580.336	4.59
580.675	4.79
581.014	4.79
581.354	4.89
581.693	4.82
582.032	4.63
582.372	4.64
582.711	4.79
583.05	4.58
583.389	4.66
583.728	4.57
584.067	4.76
584.406	4.89
584.745	4.71
585.083	4.89
585.422	5.06
585.761	4.89
586.1	4.97
586.438	4.63
586.777	4.87
587.115	4.76
587.454	4.83
587.792	4.69
588.13	4.98
588.469	4.74
588.807	4.68
589.145	4.7
589.483	5.01
589.821	4.78
590.159	4.63
590.497	4.96
590.835	5.15
591.173	4.93
591.511	4.91
591.849	4.58
592.187	4.64
592.524	4.88
592.862	4.88
593.2	5.04
593.537	4.82
593.875	4.44
594.212	4.65
594.55	4.66
594.887	4.87
595.224	4.74
595.561	4.84
595.899	4.71
596.236	4.5
596.573	4.79
596.91	4.59
597.247	4.65
597.584	5
597.921	4.87
598.258	4.5
598.594	4.64
598.931	4.81
599.268	4.84
599.604	4.75
599.941	4.69
600.277	4.81
600.614	4.78
600.95	4.39
601.287	4.86
601.623	4.52
601.959	4.76
602.296	4.74
602.632	4.61
602.968	4.97
603.304	4.7
603.64	4.84
603.976	4.97
604.312	4.69
604.648	4.63
604.984	4.75
605.319	4.94
605.655	4.69
605.991	4.91
606.326	4.71
606.662	4.67
606.998	4.63
607.333	4.63
607.668	4.9
608.004	4.76
608.339	5.08
608.674	4.84
609.01	4.62
609.345	4.69
609.68	4.88
610.015	4.62
610.35	4.81
610.685	4.76
611.02	4.82
611.355	4.67
611.689	4.77
612.024	4.88
612.359	4.84
612.694	4.72
613.028	4.7
613.363	5.01
613.697	5.11
614.032	4.84
614.366	4.81
614.7	4.92
615.035	4.54
615.369	4.37
615.703	4.6
616.037	5.06
616.371	4.88
616.705	4.76
617.039	4.95
617.373	4.39
617.707	4.71
618.041	4.68
618.375	5.14
618.709	5.04
619.042	4.65
619.376	5
619.71	4.96
620.043	4.76
620.377	4.76
620.71	5.02
621.043	4.95
621.377	4.86
621.71	4.6
622.043	4.61
622.376	4.61
622.709	4.86
623.043	4.92
623.376	5.04
623.709	4.89
624.041	5.03
624.374	4.48
624.707	4.56
625.04	4.76
625.373	4.38
625.705	4.69
626.038	4.93
626.37	4.63
626.703	4.75
627.035	4.85
627.368	5.24
627.7	4.6
628.032	5.22
628.365	5.04
628.697	4.6
629.029	4.5
629.361	4.93
629.693	4.88
630.025	4.49
630.357	5.18
630.689	5.3
631.021	5.1
631.353	5.03
631.684	5
632.016	4.56
632.348	4.99
632.679	4.87
633.011	4.92
633.342	4.73
633.674	4.48
634.005	5.14
634.336	4.7
634.668	5.48
634.999	4.62
635.33	5.03
635.661	5.19
635.992	4.93
636.323	4.86
636.654	5.03
636.985	4.67
637.316	4.74
637.647	4.46
637.977	5.08
638.308	5.28
638.639	4.44
638.969	4.78
639.3	4.74
639.63	4.41
639.961	5
640.291	5.06
640.622	5.08
640.952	5.19
641.282	5.09
641.612	5.23
641.943	4.67
642.273	5.01
642.603	5.33
642.933	5.28
643.263	5.17
643.592	4.72
643.922	4.66
644.252	4.52
644.582	4.69
644.911	4.96
645.241	5
645.571	4.64
645.9	4.15
646.23	4.97
646.559	5.08
646.888	4.66
647.218	4.38
647.547	5.38
647.876	4.74
648.205	4.53
648.534	4.72
648.863	4.5
649.192	4.33
649.521	4.84
649.85	4.56
650.179	4.43
650.508	4.79
650.837	4.73
651.165	5.26
651.494	4.87
651.822	4.81
652.151	4.71
652.479	5.17
652.808	4.73
653.136	4.67
653.465	4.28
653.793	4.41
654.121	4.66
654.449	4.86
654.777	5.11
655.105	5.09
655.433	4.6
655.761	4.38
656.089	4.9
656.417	4.82
656.745	4.59
657.073	4.89
657.4	5.51
657.728	5.3
658.056	4.93
658.383	5.06
658.711	5.26
659.038	5.02
659.365	5.45
659.693	5.05
660.02	5.08
660.347	4.58
660.674	5.1
661.001	5.3
661.329	4.44
661.656	5.06
661.982	5.46
662.309	4.89
662.636	4.35
662.963	5.53
663.29	4.9
663.616	5.32
663.943	4.72
664.27	5.27
664.596	4.87
664.923	4.89
665.249	5.08
665.576	4.97
665.902	5.66
666.228	5.63
666.554	5
666.881	4.76
667.207	5.06
667.533	5.16
667.859	5.79
668.185	4.99
668.511	4.37
668.837	4.35
669.162	5.31
669.488	4.28
669.814	5.14
670.139	4.99
670.465	4.64
670.791	4.75
671.116	5.81
671.442	4.65
671.767	4.86
672.092	5.7
672.418	5.26
672.743	5.89
673.068	5.14
673.393	5.09
673.718	4.19
674.043	5.1
674.368	5.08
674.693	5.69
675.018	5.5
675.343	5.1
675.667	5.29
675.992	5.88
676.317	5.42
676.641	4.63
676.966	5.26
677.29	5.06
677.615	5.45
677.939	5.14
678.264	5.43
678.588	5.26
678.912	4.96
679.236	6.04
679.56	3.75
679.885	5.52
680.209	5.72
680.532	5.08
680.856	5.91
681.18	5.32
681.504	4.83
681.828	5.78
682.152	4.89
682.475	5.21
682.799	5.36
683.122	5.42
683.446	5.02
683.769	5.83
684.093	4.52
684.416	5.52
684.739	4.86
685.062	4.81
685.386	5.37
685.709	4.39
686.032	4.66
686.355	5.38
686.678	4.25
687.001	5.56
687.324	5.57
687.646	4.08
687.969	4.65
688.292	4.29
688.614	4.52
688.937	5.41
689.26	4.81
689.582	5.73
689.904	5.49
690.227	5.49
690.549	5.74
690.871	5.79
691.194	4.91
691.516	5.44
691.838	5.12
692.16	4.5
