Data from 0191_forehead_Reflection__0__419.txt Node

Date: Fri Dec 15 20:28:01 CST 2023
User: ToomeyLab
Spectrometer: FLMS14357
Trigger mode: 0
Integration Time (sec): 1.000000E-2
Scans to average: 100
Electric dark correction enabled: true
Nonlinearity correction enabled: false
Boxcar width: 0
XAxis mode: Wavelengths
Number of Pixels in Spectrum: 2048
>>>>>Begin Spectral Data<<<<<
189.047	-45.4
189.435	-45.4
189.823	-45.4
190.211	-1282.88
190.599	-128.67
190.987	63.53
191.375	170.77
191.763	114.79
192.151	21.42
192.538	108.42
192.926	27.98
193.314	71.05
193.702	208.18
194.089	93.6
194.477	-155.02
194.864	1564.13
195.252	64.47
195.639	46.87
196.027	372.07
196.414	63.3
196.801	116.1
197.189	224.77
197.576	194.58
197.963	106.3
198.351	29.93
198.738	-3.06
199.125	74.23
199.512	-12.7
199.899	34.29
200.286	47.17
200.673	16.82
201.06	-24.24
201.447	-127.28
201.833	46.48
202.22	32.34
202.607	101.24
202.994	34.7
203.38	16.69
203.767	13.01
204.154	24.58
204.54	30.19
204.927	-7.67
205.313	-63.23
205.699	35.33
206.086	31.85
206.472	45
206.858	43.49
207.245	-13.98
207.631	36.56
208.017	-0.65
208.403	-37.62
208.789	18.48
209.175	18.77
209.561	15.04
209.947	-34.47
210.333	-83.32
210.719	22.15
211.105	36.16
211.491	-5.23
211.876	19.83
212.262	25.24
212.648	20.4
213.034	8.33
213.419	8.47
213.805	-41.31
214.19	-13.09
214.576	10.64
214.961	-90.2
215.346	-57.22
215.732	6.95
216.117	13.87
216.502	3.32
216.888	5.66
217.273	21.81
217.658	-18.16
218.043	18.11
218.428	-93.63
218.813	-18.64
219.198	11.57
219.583	15.45
219.968	5
220.353	-0.95
220.738	28.96
221.122	-0.79
221.507	-1.39
221.892	-45.15
222.276	-3.42
222.661	16.5
223.046	15.6
223.43	13.57
223.815	10.52
224.199	-6.75
224.583	-1.36
224.968	0.36
225.352	6.37
225.736	-8.11
226.121	-7.34
226.505	0.67
226.889	4.37
227.273	0.2
227.657	12.63
228.041	-0.47
228.425	0.34
228.809	3.69
229.193	5.89
229.577	0.45
229.961	1.96
230.344	3.71
230.728	3.4
231.112	2.54
231.495	3.52
231.879	1.93
232.263	4.36
232.646	5.22
233.03	2.69
233.413	4.03
233.797	3.37
234.18	4.62
234.563	4.03
234.946	3.63
235.33	5.25
235.713	3.33
236.096	4.53
236.479	4.85
236.862	4.27
237.245	6.17
237.628	2.49
238.011	4.58
238.394	3.95
238.777	1.99
239.16	4.48
239.543	2.68
239.925	4.55
240.308	3.35
240.691	5.04
241.073	6.59
241.456	3.93
241.838	1.8
242.221	2.61
242.603	3.81
242.986	3.1
243.368	4.13
243.75	3.46
244.133	3.13
244.515	3.75
244.897	3.68
245.279	3.87
245.661	3.47
246.043	3.03
246.425	1.85
246.807	5.04
247.189	3.71
247.571	4.41
247.953	4.29
248.335	3.36
248.717	3.91
249.098	3.53
249.48	3.88
249.862	3.51
250.243	3.7
250.625	3.19
251.006	3.92
251.388	2.95
251.769	3.24
252.151	4.95
252.532	3.67
252.913	3.16
253.295	3.77
253.676	3.35
254.057	4.12
254.438	3.36
254.819	2.86
255.2	2.22
255.581	3.6
255.962	4.36
256.343	2.75
256.724	4.64
257.105	2.22
257.486	2.7
257.867	3.91
258.247	3.29
258.628	3.43
259.009	3.83
259.389	4.04
259.77	3.35
260.15	2.88
260.531	2.77
260.911	3.96
261.292	3.28
261.672	3.76
262.052	3.75
262.432	3.78
262.813	4.06
263.193	4.26
263.573	3.34
263.953	3.5
264.333	4.33
264.713	4.49
265.093	3.45
265.473	2.75
265.853	2.83
266.233	4.23
266.612	1.98
266.992	3.24
267.372	4.38
267.752	3.28
268.131	3.32
268.511	4.15
268.89	3.72
269.27	3.27
269.649	3.7
270.029	3.28
270.408	4.46
270.787	4.68
271.167	4.13
271.546	3.99
271.925	3.37
272.304	3.63
272.683	4.3
273.062	3.84
273.441	3.89
273.82	3.41
274.199	3.5
274.578	3.84
274.957	3.41
275.336	3.42
275.715	3.29
276.093	3.27
276.472	3.7
276.851	3.17
277.229	3.07
277.608	2.96
277.986	3.36
278.365	4.1
278.743	3.18
279.122	3.54
279.5	3.4
279.878	3.56
280.257	3.57
280.635	3.47
281.013	3.74
281.391	3.85
281.769	3.89
282.147	4.04
282.525	4.59
282.903	3.22
283.281	3.69
283.659	3.97
284.037	3.46
284.415	3.76
284.792	3.74
285.17	2.71
285.548	3.67
285.925	4.08
286.303	3.81
286.68	3.35
287.058	3.53
287.435	3.56
287.813	3.79
288.19	3.74
288.567	3.98
288.945	3.94
289.322	3.91
289.699	4.3
290.076	3.6
290.453	3.75
290.83	3.52
291.207	3.48
291.584	4.14
291.961	4.08
292.338	4.22
292.715	4.28
293.092	3.95
293.469	4.05
293.845	4.02
294.222	3.42
294.599	3.69
294.975	3.3
295.352	4.06
295.728	4.04
296.105	4.14
296.481	3.86
296.858	4.14
297.234	3.69
297.61	4.34
297.986	4.34
298.363	4.23
298.739	4.25
299.115	4.12
299.491	4.15
299.867	4.26
300.243	4.32
300.619	4.11
300.995	4.36
301.371	4.48
301.746	4.22
302.122	5.21
302.498	4.58
302.874	4.91
303.249	5.05
303.625	4.71
304	4.64
304.376	4.59
304.751	4.43
305.127	5.27
305.502	4.54
305.878	4.33
306.253	4.84
306.628	5.73
307.003	5.46
307.378	5.61
307.754	5.3
308.129	4.55
308.504	5.02
308.879	5.01
309.254	6.35
309.629	5.89
310.003	5.77
310.378	6.55
310.753	5.72
311.128	5.53
311.502	5.84
311.877	5.98
312.252	5.45
312.626	5.44
313.001	5.21
313.375	6.14
313.75	5.42
314.124	5.63
314.498	6.16
314.873	6.41
315.247	5.33
315.621	6.42
315.995	5.32
316.369	6.33
316.743	5.88
317.117	6.49
317.491	6.06
317.865	6.07
318.239	6.35
318.613	6.5
318.987	6.54
319.361	6.22
319.734	7.08
320.108	7.05
320.482	6.27
320.855	6.55
321.229	6.75
321.602	6.94
321.976	6.89
322.349	6.92
322.723	6.88
323.096	7.19
323.469	6.86
323.843	6.92
324.216	7.79
324.589	7.32
324.962	6.97
325.335	6.98
325.708	6.92
326.081	6.86
326.454	7.24
326.827	6.7
327.2	7.23
327.573	7.79
327.945	7.81
328.318	6.91
328.691	7.12
329.063	7.57
329.436	7.57
329.809	8.26
330.181	7.84
330.553	7.56
330.926	7.65
331.298	8.32
331.671	7.89
332.043	7.68
332.415	7.87
332.787	8.28
333.159	8.56
333.532	8.7
333.904	7.9
334.276	8.25
334.648	8.21
335.02	7.69
335.391	7.96
335.763	7.9
336.135	8.3
336.507	8.85
336.879	7.99
337.25	8.11
337.622	7.96
337.993	8.53
338.365	8.9
338.736	8.53
339.108	9.05
339.479	8.61
339.851	8.77
340.222	8.34
340.593	8.77
340.964	8.59
341.336	8.94
341.707	8.43
342.078	9.3
342.449	9.54
342.82	8.45
343.191	8.94
343.562	9.11
343.933	9.09
344.303	8.79
344.674	9.72
345.045	9.1
345.416	9.58
345.786	8.88
346.157	9.06
346.527	8.8
346.898	9.12
347.268	9.58
347.639	8.79
348.009	9.56
348.38	9.34
348.75	9.28
349.12	9.55
349.49	10.24
349.861	9.69
350.231	9.79
350.601	9.97
350.971	10.2
351.341	10.31
351.711	9.91
352.081	9.68
352.45	9.75
352.82	10.15
353.19	9.86
353.56	10.04
353.929	9.85
354.299	9.78
354.669	9.96
355.038	10.59
355.408	9.67
355.777	10.52
356.147	9.9
356.516	10.37
356.885	10.42
357.254	10.09
357.624	10.62
357.993	10.48
358.362	9.98
358.731	10.41
359.1	10.58
359.469	10.63
359.838	10.62
360.207	10.72
360.576	10.77
360.945	10.86
361.314	10.69
361.682	10.92
362.051	10.53
362.42	11.09
362.788	10.9
363.157	10.99
363.525	11.05
363.894	10.75
364.262	10.96
364.631	10.86
364.999	11.07
365.367	10.95
365.735	11.77
366.104	11.3
366.472	11.14
366.84	11.18
367.208	11.51
367.576	11.75
367.944	11.73
368.312	11.22
368.68	11.27
369.048	11.34
369.416	11.85
369.783	11.64
370.151	11.64
370.519	11.99
370.886	11.98
371.254	11.66
371.621	11.85
371.989	12.17
372.356	11.38
372.724	11.85
373.091	12.09
373.458	12.24
373.826	11.85
374.193	11.86
374.56	12.29
374.927	12.76
375.294	12.51
375.661	12.03
376.028	12.3
376.395	12.28
376.762	12.83
377.129	12.23
377.496	12.3
377.863	12.57
378.229	12.21
378.596	12.62
378.963	12.6
379.329	12.62
379.696	12.73
380.062	12.73
380.429	12.86
380.795	12.73
381.161	13.07
381.528	13.11
381.894	12.95
382.26	12.82
382.626	13.3
382.993	13.35
383.359	13.19
383.725	13.31
384.091	13.31
384.457	13.6
384.823	13.62
385.188	13.54
385.554	13.52
385.92	13.65
386.286	13.53
386.651	13.94
387.017	13.54
387.383	13.76
387.748	13.51
388.114	13.82
388.479	13.9
388.845	13.81
389.21	14.08
389.575	13.89
389.94	14
390.306	13.98
390.671	13.88
391.036	13.9
391.401	13.86
391.766	14.15
392.131	14.14
392.496	14.47
392.861	14.14
393.226	14.32
393.591	14.46
393.956	14.35
394.32	14.59
394.685	14.26
395.05	14.21
395.414	14.57
395.779	14.31
396.143	14.47
396.508	14.55
396.872	14.9
397.236	14.62
397.601	14.52
397.965	14.79
398.329	14.96
398.694	15.22
399.058	15.04
399.422	14.71
399.786	15.06
400.15	15.33
400.514	15.13
400.878	15.14
401.242	15.57
401.605	15.21
401.969	15.09
402.333	15.38
402.697	15.1
403.06	15.79
403.424	15.4
403.787	15.18
404.151	15.75
404.514	15.64
404.878	15.63
405.241	15.74
405.604	15.9
405.968	15.65
406.331	15.52
406.694	15.61
407.057	15.93
407.42	15.99
407.783	15.57
408.146	15.84
408.509	16.11
408.872	15.94
409.235	15.81
409.598	16.17
409.961	16.18
410.323	16.38
410.686	15.81
411.049	16.03
411.411	16.1
411.774	16.45
412.136	16.63
412.499	16.21
412.861	16.6
413.223	16.29
413.586	16.76
413.948	16.63
414.31	16.61
414.672	16.78
415.035	16.33
415.397	16.8
415.759	16.45
416.121	16.88
416.483	16.75
416.845	16.75
417.206	16.69
417.568	16.69
417.93	16.74
418.292	17.04
418.653	17.1
419.015	17
419.377	16.84
419.738	17.04
420.1	17
420.461	16.96
420.822	16.88
421.184	17.17
421.545	16.93
421.906	17.1
422.267	17.08
422.629	17.03
422.99	17.1
423.351	17.12
423.712	17.27
424.073	17.26
424.434	17.31
424.795	17.31
425.155	17.21
425.516	17.5
425.877	17.55
426.238	17.61
426.598	17.49
426.959	17.44
427.32	17.59
427.68	17.85
428.041	17.6
428.401	17.93
428.761	18
429.122	18.05
429.482	17.95
429.842	18.42
430.202	18.11
430.563	18.53
430.923	18.11
431.283	18.33
431.643	18.21
432.003	18.43
432.363	18.37
432.722	18.52
433.082	18.63
433.442	18.37
433.802	18.25
434.161	18.64
434.521	18.73
434.881	18.6
435.24	18.46
435.6	18.58
435.959	18.59
436.319	18.6
436.678	18.77
437.037	18.81
437.396	18.95
437.756	19.07
438.115	19.14
438.474	19.2
438.833	19.09
439.192	19.09
439.551	19.46
439.91	19.21
440.269	19.34
440.628	19.17
440.987	19.22
441.345	19.27
441.704	19.2
442.063	19.3
442.421	19.32
442.78	19.32
443.138	19.34
443.497	19.51
443.855	19.5
444.214	19.63
444.572	19.72
444.93	19.77
445.288	19.74
445.647	19.99
446.005	19.96
446.363	19.87
446.721	20.02
447.079	19.7
447.437	19.67
447.795	19.92
448.153	19.8
448.51	19.77
448.868	20
449.226	19.9
449.584	19.97
449.941	20.24
450.299	20.13
450.656	20.24
451.014	20.24
451.371	20.35
451.729	20.59
452.086	20.76
452.443	20.73
452.801	20.68
453.158	20.79
453.515	20.79
453.872	20.84
454.229	20.69
454.586	20.65
454.943	20.84
455.3	20.8
455.657	20.97
456.014	20.98
456.371	21.25
456.727	21.12
457.084	21.2
457.441	21.05
457.797	21.41
458.154	21.57
458.51	21.59
458.867	21.54
459.223	21.4
459.58	21.54
459.936	21.57
460.292	21.53
460.648	21.59
461.005	21.51
461.361	21.53
461.717	21.3
462.073	21.25
462.429	21.35
462.785	21.73
463.141	21.72
463.496	21.74
463.852	22
464.208	21.81
464.564	22.2
464.919	22.22
465.275	22.03
465.631	22.3
465.986	22.08
466.342	22.35
466.697	22.22
467.052	22.23
467.408	22.59
467.763	22.63
468.118	22.5
468.473	22.58
468.829	22.8
469.184	22.48
469.539	22.69
469.894	22.76
470.249	22.93
470.603	22.97
470.958	22.79
471.313	23.1
471.668	23.26
472.023	23
472.377	22.99
472.732	23.32
473.086	23.07
473.441	22.95
473.795	23.57
474.15	23.15
474.504	23.41
474.859	23.33
475.213	23.37
475.567	23.34
475.921	23.5
476.275	23.42
476.63	23.81
476.984	23.79
477.338	23.8
477.692	23.47
478.045	23.64
478.399	23.62
478.753	23.86
479.107	23.8
479.461	23.89
479.814	23.85
480.168	23.78
480.521	23.99
480.875	23.91
481.228	24.02
481.582	24.22
481.935	24.17
482.289	24.27
482.642	24.2
482.995	24.04
483.348	24.29
483.701	24.11
484.055	24.09
484.408	24.09
484.761	23.78
485.114	23.56
485.466	23.23
485.819	23.25
486.172	23.36
486.525	23.42
486.878	23.69
487.23	23.7
487.583	24.01
487.936	24.28
488.288	24.28
488.641	24.07
488.993	23.97
489.345	23.85
489.698	23.91
490.05	23.98
490.402	24.14
490.754	24.26
491.107	24.45
491.459	24.73
491.811	24.86
492.163	24.98
492.515	25.01
492.866	24.92
493.218	24.8
493.57	24.5
493.922	24.59
494.274	24.78
494.625	25.16
494.977	25.33
495.328	25.54
495.68	25.77
496.031	25.87
496.383	25.81
496.734	26.18
497.086	26.17
497.437	25.91
497.788	26.08
498.139	25.98
498.49	25.98
498.842	25.88
499.193	25.98
499.544	26.13
499.894	25.97
500.245	26.2
500.596	26.17
500.947	26.22
501.298	26.4
501.648	26.5
501.999	26.64
502.35	26.82
502.7	26.69
503.051	26.76
503.401	26.86
503.752	27
504.102	27.09
504.452	27.03
504.803	26.91
505.153	27.14
505.503	27.31
505.853	27.24
506.203	27.21
506.553	27.27
506.903	27.18
507.253	27.41
507.603	27.5
507.953	27.5
508.303	27.7
508.652	27.54
509.002	27.61
509.352	27.71
509.701	27.64
510.051	27.67
510.4	27.72
510.75	27.74
511.099	27.84
511.449	27.53
511.798	27.86
512.147	27.85
512.496	27.66
512.846	27.86
513.195	27.84
513.544	28.01
513.893	28.14
514.242	27.9
514.591	28.23
514.939	28.22
515.288	28.08
515.637	28.4
515.986	28.47
516.334	28.41
516.683	28.51
517.032	28.77
517.38	28.6
517.729	28.78
518.077	28.55
518.426	28.8
518.774	28.85
519.122	28.68
519.47	28.67
519.819	28.66
520.167	28.6
520.515	28.57
520.863	28.56
521.211	28.7
521.559	28.8
521.907	29
522.255	29.02
522.602	29.12
522.95	29.43
523.298	29.55
523.645	29.46
523.993	29.43
524.341	29.58
524.688	29.77
525.036	29.59
525.383	29.8
525.73	30.01
526.078	29.53
526.425	29.54
526.772	29.81
527.119	29.75
527.466	29.27
527.814	29.47
528.161	29.58
528.508	29.68
528.854	29.75
529.201	29.45
529.548	29.62
529.895	29.34
530.242	29.09
530.588	29.01
530.935	29.09
531.282	29.18
531.628	29.48
531.975	29.68
532.321	29.75
532.667	29.97
533.014	30.21
533.36	30.49
533.706	30.5
534.052	30.26
534.399	30.35
534.745	30.27
535.091	30.1
535.437	30.04
535.783	30.15
536.129	30.44
536.474	30.48
536.82	30.82
537.166	30.88
537.512	31.07
537.857	31.02
538.203	30.96
538.549	30.93
538.894	30.87
539.239	31.22
539.585	31.28
539.93	31.35
540.276	31.59
540.621	31.65
540.966	31.83
541.311	31.81
541.656	31.76
542.001	31.7
542.346	31.82
542.691	31.44
543.036	31.13
543.381	30.95
543.726	31.17
544.071	31.33
544.415	31.51
544.76	31.57
545.105	31.77
545.449	31.87
545.794	32.04
546.138	32.16
546.483	32.21
546.827	32.33
547.171	32.39
547.516	32.49
547.86	32.4
548.204	32.56
548.548	32.32
548.892	32.55
549.236	32.72
549.58	32.82
549.924	32.93
550.268	33.01
550.612	33.02
550.956	33.3
551.3	33.34
551.643	33.41
551.987	33.72
552.33	33.33
552.674	33.94
553.017	33.67
553.361	33.58
553.704	33.86
554.048	33.68
554.391	33.91
554.734	33.76
555.077	33.81
555.42	33.61
555.764	33.87
556.107	33.88
556.45	33.91
556.793	33.98
557.135	34.19
557.478	34.31
557.821	34.72
558.164	34.22
558.507	34.79
558.849	34.26
559.192	34.61
559.534	34.65
559.877	35.06
560.219	34.94
560.562	35
560.904	34.74
561.246	35.21
561.589	35.08
561.931	35.27
562.273	35.08
562.615	35.12
562.957	35.13
563.299	35.13
563.641	35.32
563.983	35.58
564.325	35.09
564.667	35.3
565.008	35.44
565.35	35.41
565.692	35.35
566.033	35.66
566.375	35.93
566.716	35.86
567.058	35.71
567.399	35.48
567.741	35.66
568.082	35.56
568.423	35.47
568.764	35.6
569.105	35.62
569.447	35.93
569.788	35.78
570.129	35.95
570.47	36.14
570.811	36.33
571.151	36.29
571.492	36.27
571.833	36.39
572.174	36.36
572.514	36.26
572.855	36.52
573.195	36.35
573.536	36.47
573.876	36.37
574.217	36.28
574.557	36.5
574.898	36.65
575.238	36.52
575.578	36.76
575.918	36.69
576.258	36.87
576.598	37.04
576.938	36.76
577.278	37.06
577.618	36.72
577.958	37.22
578.298	37.15
578.638	36.89
578.977	37.28
579.317	37.36
579.657	37.49
579.996	37.67
580.336	37.6
580.675	37.69
581.014	37.83
581.354	37.71
581.693	38.09
582.032	37.66
582.372	38.09
582.711	37.95
583.05	37.55
583.389	37.77
583.728	38.37
584.067	38.19
584.406	38.3
584.745	38.46
585.083	38.45
585.422	38.4
585.761	38.58
586.1	38.79
586.438	38.84
586.777	38.79
587.115	38.79
587.454	38.74
587.792	39.03
588.13	38.81
588.469	38.62
588.807	39.06
589.145	39.13
589.483	38.64
589.821	39.13
590.159	39.08
590.497	39.08
590.835	39.64
591.173	39.15
591.511	39.45
591.849	39.34
592.187	39.4
592.524	39.31
592.862	39.65
593.2	39.61
593.537	39.61
593.875	39.63
594.212	39.55
594.55	39.66
594.887	39.94
595.224	39.67
595.561	39.61
595.899	39.71
596.236	39.75
596.573	39.91
596.91	40.03
597.247	39.62
597.584	40.11
597.921	39.96
598.258	40.2
598.594	40.06
598.931	39.85
599.268	40.15
599.604	39.7
599.941	40.28
600.277	40.2
600.614	40.14
600.95	40.3
601.287	40.52
601.623	40.29
601.959	40.55
602.296	40.78
602.632	41.16
602.968	40.86
603.304	41.25
603.64	40.81
603.976	41.15
604.312	40.73
604.648	40.76
604.984	40.66
605.319	40.9
605.655	41.13
605.991	41.13
606.326	40.79
606.662	40.9
606.998	40.86
607.333	40.98
607.668	41.29
608.004	41.16
608.339	41.42
608.674	41.17
609.01	41.37
609.345	41.32
609.68	41.9
610.015	41.43
610.35	41.94
610.685	41.7
611.02	41.57
611.355	41.83
611.689	41.8
612.024	41.82
612.359	41.59
612.694	41.59
613.028	41.96
613.363	42.19
613.697	42.07
614.032	42.45
614.366	42.35
614.7	42.43
615.035	42.08
615.369	42.5
615.703	42.58
616.037	42.65
616.371	42.65
616.705	42.27
617.039	42.72
617.373	42.57
617.707	42.66
618.041	42.84
618.375	43.04
618.709	42.86
619.042	42.6
619.376	43.05
619.71	43.5
620.043	43.23
620.377	43.26
620.71	42.94
621.043	43.22
621.377	43.38
621.71	43.8
622.043	43.43
622.376	43.65
622.709	43.34
623.043	43.14
623.376	43.77
623.709	43.67
624.041	44.09
624.374	43.62
624.707	43.71
625.04	43.71
625.373	43.66
625.705	43.43
626.038	43.8
626.37	43.81
626.703	43.7
627.035	44.35
627.368	44.56
627.7	43.76
628.032	43.92
628.365	43.94
628.697	44.28
629.029	44.08
629.361	44.34
629.693	44.22
630.025	44.11
630.357	43.94
630.689	44.5
631.021	44.48
631.353	44.85
631.684	44.13
632.016	45
632.348	45.19
632.679	44.7
633.011	45
633.342	44.87
633.674	45.11
634.005	44.9
634.336	45.19
634.668	45.76
634.999	45.04
635.33	45.44
635.661	45.29
635.992	45.28
636.323	45.78
636.654	45.01
636.985	45.45
637.316	45.53
637.647	45.29
637.977	45.28
638.308	45.55
638.639	45.82
638.969	45.41
639.3	45.52
639.63	45.2
639.961	45.47
640.291	45.56
640.622	46.68
640.952	45.89
641.282	46.18
641.612	46.72
641.943	45.8
642.273	45.63
642.603	46.68
642.933	46.26
643.263	46.25
643.592	46
643.922	45.99
644.252	46.23
644.582	46.57
644.911	46.66
645.241	46.31
645.571	46.77
645.9	45.89
646.23	46.59
646.559	46.4
646.888	46.42
647.218	46.36
647.547	46.97
647.876	47.04
648.205	47.42
648.534	47.14
648.863	47.04
649.192	47.32
649.521	46.51
649.85	46.9
650.179	46.87
650.508	46.75
650.837	47.28
651.165	46.95
651.494	46.81
651.822	46.75
652.151	47.15
652.479	47.75
652.808	46.45
653.136	47.52
653.465	46.75
653.793	47.31
654.121	46.97
654.449	47.39
654.777	47.55
655.105	47.49
655.433	47.44
655.761	48.17
656.089	47.01
656.417	47.98
656.745	48.01
657.073	47.91
657.4	48.1
657.728	47.79
658.056	48.13
658.383	48.4
658.711	48.93
659.038	48.49
659.365	48.82
659.693	48.19
660.02	48.27
660.347	48.23
660.674	47.83
661.001	48.17
661.329	47.99
661.656	48.59
661.982	48.76
662.309	48.06
662.636	48.26
662.963	48.42
663.29	48.45
663.616	48.87
663.943	48.09
664.27	48.72
664.596	49.07
664.923	48.83
665.249	48.37
665.576	48.87
665.902	49.61
666.228	49.25
666.554	49.55
666.881	49.24
667.207	49.55
667.533	49.67
667.859	49.53
668.185	49.09
668.511	48.54
668.837	48.28
669.162	49.63
669.488	49.15
669.814	49.7
670.139	49.22
670.465	49.77
670.791	49.79
671.116	48.9
671.442	49.73
671.767	49.78
