Data from 0191_chest_Reflection__1__409.txt Node

Date: Fri Dec 15 20:25:42 CST 2023
User: ToomeyLab
Spectrometer: FLMS14357
Trigger mode: 0
Integration Time (sec): 1.000000E-2
Scans to average: 100
Electric dark correction enabled: true
Nonlinearity correction enabled: false
Boxcar width: 0
XAxis mode: Wavelengths
Number of Pixels in Spectrum: 2048
>>>>>Begin Spectral Data<<<<<
189.047	-120.4
189.435	-120.4
189.823	-120.4
190.211	393.69
190.599	61.13
190.987	-11.82
191.375	258.76
191.763	-37.14
192.151	-40.7
192.538	37.06
192.926	103.5
193.314	133.61
193.702	80.52
194.089	94.47
194.477	557.44
194.864	-2365.47
195.252	50.07
195.639	64.18
196.027	181.97
196.414	32.73
196.801	275.9
197.189	23.62
197.576	40.42
197.963	-55.36
198.351	9.78
198.738	-12.06
199.125	55.62
199.512	-77.23
199.899	-31.07
200.286	63.05
200.673	20.92
201.06	91.4
201.447	-99.03
201.833	-10.9
202.22	4.96
202.607	46.69
202.994	15.21
203.38	26.41
203.767	39
204.154	50.79
204.54	30.05
204.927	2.93
205.313	-87.8
205.699	34.46
206.086	16.83
206.472	-16.2
206.858	10.06
207.245	-25.01
207.631	31.54
208.017	10.9
208.403	-12.54
208.789	10.57
209.175	24.1
209.561	-34.43
209.947	17.28
210.333	-27.06
210.719	1.77
211.105	14.34
211.491	-66.47
211.876	29.21
212.262	20.08
212.648	-5.41
213.034	19.34
213.419	-27.06
213.805	-49.36
214.19	0.21
214.576	4.3
214.961	-100.88
215.346	-66.16
215.732	6.24
216.117	31.89
216.502	-37.57
216.888	11.89
217.273	22.13
217.658	-26.88
218.043	7.64
218.428	-58.5
218.813	-38.6
219.198	-23.5
219.583	10.84
219.968	32.8
220.353	28.93
220.738	14.53
221.122	18.09
221.507	-2.63
221.892	-44.56
222.276	-36.75
222.661	0.9
223.046	-2.97
223.43	9.66
223.815	17.32
224.199	-3.3
224.583	1.2
224.968	-8.91
225.352	4.02
225.736	0.03
226.121	-10.2
226.505	-3.13
226.889	4.68
227.273	-5.4
227.657	5.92
228.041	8.58
228.425	3.22
228.809	7.08
229.193	4.1
229.577	4.24
229.961	4.5
230.344	4.46
230.728	5.3
231.112	5.96
231.495	4.46
231.879	4.56
232.263	5.72
232.646	5.59
233.03	4.5
233.413	4.62
233.797	5.33
234.18	5.25
234.563	4.4
234.946	5.31
235.33	7.14
235.713	5.76
236.096	5.34
236.479	6.08
236.862	4.48
237.245	6.24
237.628	3.28
238.011	4.63
238.394	7.26
238.777	6.92
239.16	2.11
239.543	3.75
239.925	4.87
240.308	4.03
240.691	6.46
241.073	4.8
241.456	6.13
241.838	3.45
242.221	3.88
242.603	5.7
242.986	5.12
243.368	4.87
243.75	5.21
244.133	5.14
244.515	5.59
244.897	5.19
245.279	4.6
245.661	4.97
246.043	4.29
246.425	4.03
246.807	4.91
247.189	6
247.571	5.08
247.953	6.02
248.335	5.04
248.717	5.11
249.098	4.98
249.48	4.8
249.862	5.3
250.243	4.84
250.625	5.06
251.006	5.3
251.388	3.75
251.769	4.71
252.151	4.7
252.532	4.37
252.913	3.94
253.295	4.73
253.676	4.96
254.057	5.18
254.438	4.79
254.819	4.74
255.2	4.16
255.581	5.03
255.962	3.91
256.343	5.56
256.724	4.29
257.105	4.07
257.486	4.19
257.867	3.46
258.247	4.02
258.628	4.51
259.009	5.09
259.389	4.05
259.77	4.52
260.15	4.83
260.531	4.07
260.911	5.17
261.292	4.81
261.672	4.96
262.052	4.78
262.432	4.77
262.813	4.67
263.193	4.47
263.573	4.27
263.953	4.33
264.333	5.4
264.713	4.77
265.093	4.45
265.473	4.35
265.853	3.72
266.233	4.39
266.612	3.22
266.992	2.46
267.372	5.12
267.752	5.04
268.131	3.75
268.511	5.13
268.89	5.14
269.27	4.39
269.649	3.63
270.029	4.43
270.408	5.48
270.787	4.54
271.167	5.53
271.546	4.85
271.925	4.64
272.304	4.13
272.683	5.33
273.062	4.08
273.441	4.96
273.82	3.65
274.199	4.4
274.578	5.01
274.957	4.34
275.336	4.85
275.715	3.98
276.093	4.22
276.472	4.51
276.851	3.92
277.229	4.32
277.608	3.82
277.986	4.32
278.365	4.63
278.743	3.52
279.122	4.64
279.5	4.41
279.878	5.05
280.257	4.11
280.635	4.7
281.013	3.73
281.391	4.47
281.769	4.63
282.147	5.1
282.525	4.7
282.903	4.17
283.281	4.38
283.659	5.06
284.037	4.61
284.415	4.52
284.792	4.81
285.17	3.55
285.548	3.89
285.925	4.63
286.303	4.89
286.68	4.49
287.058	4.8
287.435	4.69
287.813	4.46
288.19	4.5
288.567	4.28
288.945	4.82
289.322	3.96
289.699	4.56
290.076	4.68
290.453	4.46
290.83	4.96
291.207	4.44
291.584	4.35
291.961	4.97
292.338	4.3
292.715	4.95
293.092	4.73
293.469	4.42
293.845	4.39
294.222	4.07
294.599	4.36
294.975	4.16
295.352	4.9
295.728	4.01
296.105	4.27
296.481	4.84
296.858	4.77
297.234	4.7
297.61	4.81
297.986	4.64
298.363	5.18
298.739	4.88
299.115	4.76
299.491	4.61
299.867	4.77
300.243	5.05
300.619	4.59
300.995	4.83
301.371	4.8
301.746	5.01
302.122	4.82
302.498	4.65
302.874	5.05
303.249	4.89
303.625	4.74
304	5.23
304.376	4.87
304.751	4.62
305.127	5.76
305.502	4.24
305.878	4.76
306.253	4.9
306.628	5.33
307.003	4.18
307.378	5.23
307.754	5.24
308.129	4.05
308.504	4.82
308.879	5.64
309.254	5.88
309.629	5.51
310.003	5.23
310.378	5.96
310.753	5.25
311.128	5.23
311.502	4.72
311.877	5.54
312.252	4.44
312.626	4.82
313.001	4.91
313.375	5.31
313.75	4.91
314.124	5.24
314.498	4.59
314.873	4.38
315.247	4.95
315.621	4.8
315.995	4.37
316.369	5.19
316.743	4.75
317.117	4.75
317.491	4.87
317.865	5.65
318.239	4.78
318.613	5.46
318.987	5.07
319.361	5.05
319.734	6.01
320.108	5.72
320.482	4.34
320.855	5.57
321.229	5.2
321.602	5.03
321.976	5.44
322.349	5.11
322.723	4.67
323.096	5.82
323.469	4.69
323.843	4.81
324.216	5.63
324.589	5.03
324.962	5.28
325.335	4.78
325.708	5.19
326.081	5.32
326.454	5.21
326.827	5.03
327.2	5.23
327.573	5.54
327.945	5.47
328.318	5.24
328.691	5.08
329.063	5.53
329.436	4.97
329.809	5.87
330.181	4.76
330.553	5.28
330.926	5.37
331.298	5.14
331.671	4.77
332.043	5.72
332.415	5.66
332.787	5.07
333.159	5.63
333.532	5.38
333.904	5.16
334.276	4.91
334.648	4.9
335.02	5.22
335.391	5.42
335.763	4.71
336.135	5.37
336.507	5.4
336.879	5.2
337.25	4.85
337.622	5.16
337.993	5.83
338.365	5.32
338.736	5.86
339.108	5.5
339.479	5.23
339.851	5.72
340.222	5.04
340.593	5.35
340.964	5.19
341.336	6.1
341.707	5.04
342.078	5.54
342.449	5.93
342.82	5.45
343.191	5.67
343.562	4.95
343.933	5.2
344.303	5.55
344.674	5.9
345.045	5.09
345.416	5.81
345.786	4.98
346.157	5.34
346.527	4.97
346.898	5.33
347.268	5.76
347.639	5.77
348.009	5.79
348.38	5.58
348.75	5.17
349.12	5.03
349.49	6.1
349.861	5.12
350.231	5.28
350.601	5.41
350.971	5.77
351.341	5.56
351.711	5.33
352.081	5.53
352.45	5.23
352.82	5.67
353.19	5.33
353.56	5.23
353.929	5.99
354.299	5.53
354.669	5.48
355.038	5.64
355.408	5.36
355.777	5.43
356.147	5.48
356.516	6.11
356.885	5.73
357.254	5.52
357.624	5.73
357.993	5.96
358.362	5.39
358.731	5.46
359.1	5.86
359.469	5.71
359.838	5.62
360.207	6
360.576	5.56
360.945	5.54
361.314	5.88
361.682	5.9
362.051	5.55
362.42	5.83
362.788	5.57
363.157	5.85
363.525	6.07
363.894	5.92
364.262	5.72
364.631	5.73
364.999	5.96
365.367	5.52
365.735	6.44
366.104	5.6
366.472	5.92
366.84	5.51
367.208	5.82
367.576	6.01
367.944	5.87
368.312	5.83
368.68	5.41
369.048	5.82
369.416	5.64
369.783	5.78
370.151	5.49
370.519	6.16
370.886	5.82
371.254	5.92
371.621	6.12
371.989	6.14
372.356	5.53
372.724	5.85
373.091	5.55
373.458	6.23
373.826	5.73
374.193	5.59
374.56	6.28
374.927	5.77
375.294	6.17
375.661	5.69
376.028	5.74
376.395	5.69
376.762	5.69
377.129	6.23
377.496	5.96
377.863	6.01
378.229	6
378.596	5.95
378.963	5.78
379.329	5.83
379.696	5.92
380.062	5.61
380.429	5.85
380.795	5.85
381.161	5.92
381.528	6.04
381.894	6.02
382.26	5.82
382.626	6.08
382.993	5.65
383.359	6.03
383.725	6.03
384.091	5.72
384.457	6.18
384.823	5.92
385.188	5.93
385.554	5.89
385.92	6.31
386.286	6.13
386.651	6.12
387.017	6.26
387.383	6.04
387.748	5.71
388.114	6.19
388.479	5.75
388.845	6.24
389.21	6.02
389.575	5.98
389.94	5.82
390.306	6.1
390.671	6.3
391.036	5.88
391.401	5.66
391.766	6.07
392.131	5.85
392.496	5.91
392.861	5.99
393.226	6.19
393.591	5.97
393.956	5.91
394.32	6.05
394.685	5.79
395.05	6.09
395.414	6.32
395.779	5.84
396.143	6.31
396.508	6.3
396.872	6.26
397.236	6.09
397.601	5.83
397.965	6.17
398.329	6.14
398.694	6.14
399.058	6.07
399.422	5.85
399.786	6.21
400.15	6.19
400.514	6.26
400.878	6.28
401.242	6.38
401.605	5.94
401.969	6.22
402.333	6.21
402.697	6.3
403.06	6.16
403.424	6.2
403.787	6.1
404.151	6.56
404.514	6.24
404.878	6.08
405.241	6.18
405.604	6.17
405.968	6.22
406.331	5.92
406.694	6.36
407.057	6.33
407.42	6.36
407.783	6
408.146	6.13
408.509	6.09
408.872	6.3
409.235	6.34
409.598	6.29
409.961	6.08
410.323	6.49
410.686	6.05
411.049	6.27
411.411	6.05
411.774	6.31
412.136	6.19
412.499	6.12
412.861	6.24
413.223	6.13
413.586	6.33
413.948	6.15
414.31	5.97
414.672	6.22
415.035	6.08
415.397	6.41
415.759	5.91
416.121	6.44
416.483	6.2
416.845	6.22
417.206	6.19
417.568	6.44
417.93	6.16
418.292	6.24
418.653	6.18
419.015	6.36
419.377	6.37
419.738	6.43
420.1	6.23
420.461	6.2
420.822	6.25
421.184	6.21
421.545	6.22
421.906	6.07
422.267	6.24
422.629	6.2
422.99	6.25
423.351	6.18
423.712	6.18
424.073	6.2
424.434	6.16
424.795	6.07
425.155	6.19
425.516	6.22
425.877	6.25
426.238	6.3
426.598	6.15
426.959	6.15
427.32	6.03
427.68	6.24
428.041	6.12
428.401	6.33
428.761	6.47
429.122	6.39
429.482	6.22
429.842	6.3
430.202	6.24
430.563	6.35
430.923	6.23
431.283	6.35
431.643	6.18
432.003	6.35
432.363	6.46
432.722	6.29
433.082	6.31
433.442	6.31
433.802	6.21
434.161	6.45
434.521	6.62
434.881	6.55
435.24	6.35
435.6	6.43
435.959	6.25
436.319	6.37
436.678	6.4
437.037	6.19
437.396	6.48
437.756	6.45
438.115	6.32
438.474	6.63
438.833	6.42
439.192	6.45
439.551	6.71
439.91	6.54
440.269	6.53
440.628	6.34
440.987	6.46
441.345	6.24
441.704	6.33
442.063	6.29
442.421	6.44
442.78	6.45
443.138	6.32
443.497	6.4
443.855	6.27
444.214	6.44
444.572	6.6
444.93	6.55
445.288	6.56
445.647	6.62
446.005	6.46
446.363	6.52
446.721	6.6
447.079	6.39
447.437	6.42
447.795	6.54
448.153	6.36
448.51	6.33
448.868	6.49
449.226	6.35
449.584	6.43
449.941	6.54
450.299	6.42
450.656	6.47
451.014	6.6
451.371	6.34
451.729	6.58
452.086	6.65
452.443	6.55
452.801	6.58
453.158	6.45
453.515	6.48
453.872	6.83
454.229	6.51
454.586	6.4
454.943	6.57
455.3	6.66
455.657	6.5
456.014	6.53
456.371	6.58
456.727	6.62
457.084	6.72
457.441	6.7
457.797	6.67
458.154	6.81
458.51	6.65
458.867	6.63
459.223	6.7
459.58	6.66
459.936	6.61
460.292	6.61
460.648	6.63
461.005	6.55
461.361	6.68
461.717	6.62
462.073	6.5
462.429	6.52
462.785	6.63
463.141	6.52
463.496	6.67
463.852	6.81
464.208	6.7
464.564	6.79
464.919	6.64
465.275	6.79
465.631	6.89
465.986	6.69
466.342	6.92
466.697	6.63
467.052	6.67
467.408	6.84
467.763	6.58
468.118	6.79
468.473	6.45
468.829	6.91
469.184	6.62
469.539	6.63
469.894	6.62
470.249	6.94
470.603	6.88
470.958	6.76
471.313	6.94
471.668	6.86
472.023	6.76
472.377	6.71
472.732	6.81
473.086	6.82
473.441	6.7
473.795	6.88
474.15	6.94
474.504	6.86
474.859	6.98
475.213	6.59
475.567	6.78
475.921	6.72
476.275	6.82
476.63	6.88
476.984	6.85
477.338	6.86
477.692	6.78
478.045	6.84
478.399	6.88
478.753	6.9
479.107	6.8
479.461	6.84
479.814	6.89
480.168	7
480.521	6.81
480.875	6.8
481.228	6.92
481.582	6.84
481.935	6.92
482.289	6.93
482.642	6.81
482.995	6.79
483.348	6.81
483.701	6.9
484.055	7
484.408	6.85
484.761	6.7
485.114	6.8
485.466	6.64
485.819	6.56
486.172	6.5
486.525	6.46
486.878	6.51
487.23	6.55
487.583	6.67
487.936	6.68
488.288	6.69
488.641	6.83
488.993	6.69
489.345	6.64
489.698	6.63
490.05	6.58
490.402	6.62
490.754	6.6
491.107	6.65
491.459	6.74
491.811	6.74
492.163	6.76
492.515	6.82
492.866	6.95
493.218	6.83
493.57	6.76
493.922	6.67
494.274	6.69
494.625	6.75
494.977	6.8
495.328	6.91
495.68	6.93
496.031	7.11
496.383	6.97
496.734	7.08
497.086	7.05
497.437	7.04
497.788	6.99
498.139	6.91
498.49	7.01
498.842	7.01
499.193	6.98
499.544	7
499.894	7.03
500.245	6.95
500.596	6.91
500.947	7.09
501.298	6.99
501.648	6.98
501.999	7.2
502.35	7.01
502.7	7.05
503.051	7.02
503.401	7.09
503.752	7.35
504.102	7.01
504.452	7.21
504.803	7.11
505.153	7.2
505.503	7.22
505.853	7.19
506.203	7.18
506.553	7.17
506.903	7.12
507.253	7.22
507.603	7.16
507.953	7.25
508.303	7.29
508.652	7.18
509.002	7.24
509.352	7.27
509.701	7.19
510.051	7.03
510.4	7.16
510.75	7.22
511.099	7.27
511.449	7.03
511.798	7.15
512.147	7.21
512.496	7.03
512.846	7.29
513.195	7.22
513.544	7.24
513.893	7.24
514.242	7.27
514.591	7.42
514.939	7.27
515.288	7.15
515.637	7.33
515.986	7.39
516.334	7.24
516.683	7.3
517.032	7.34
517.38	7.42
517.729	7.38
518.077	7.3
518.426	7.43
518.774	7.5
519.122	7.3
519.47	7.25
519.819	7.18
520.167	7.31
520.515	7.34
520.863	7.36
521.211	7.3
521.559	7.41
521.907	7.3
522.255	7.33
522.602	7.45
522.95	7.6
523.298	7.41
523.645	7.52
523.993	7.46
524.341	7.42
524.688	7.67
525.036	7.59
525.383	7.55
525.73	7.67
526.078	7.42
526.425	7.46
526.772	7.68
527.119	7.59
527.466	7.48
527.814	7.54
528.161	7.45
528.508	7.5
528.854	7.44
529.201	7.41
529.548	7.4
529.895	7.49
530.242	7.3
530.588	7.31
530.935	7.31
531.282	7.28
531.628	7.29
531.975	7.36
532.321	7.45
532.667	7.49
533.014	7.57
533.36	7.59
533.706	7.61
534.052	7.53
534.399	7.56
534.745	7.56
535.091	7.6
535.437	7.59
535.783	7.59
536.129	7.54
536.474	7.54
536.82	7.6
537.166	7.77
537.512	7.77
537.857	7.73
538.203	7.7
538.549	7.79
538.894	7.76
539.239	7.77
539.585	7.75
539.93	7.76
540.276	7.88
540.621	7.97
540.966	7.97
541.311	7.88
541.656	7.87
542.001	8.02
542.346	8.05
542.691	7.87
543.036	7.81
543.381	7.69
543.726	7.75
544.071	7.76
544.415	7.76
544.76	7.79
545.105	7.86
545.449	7.89
545.794	8
546.138	7.98
546.483	8.01
546.827	8.06
547.171	7.92
547.516	8.1
547.86	8
548.204	8.08
548.548	7.98
548.892	8.25
549.236	8.09
549.58	8
549.924	8.19
550.268	8.29
550.612	8.28
550.956	8.4
551.3	8.23
551.643	8.49
551.987	8.32
552.33	8.35
552.674	8.5
553.017	8.35
553.361	8.32
553.704	8.72
554.048	8.22
554.391	8.35
554.734	8.32
555.077	8.55
555.42	8.25
555.764	8.28
556.107	8.23
556.45	8.22
556.793	8.58
557.135	8.39
557.478	8.51
557.821	8.76
558.164	8.61
558.507	8.77
558.849	8.62
559.192	8.73
559.534	8.59
559.877	8.59
560.219	8.71
560.562	8.94
560.904	8.67
561.246	8.41
561.589	8.67
561.931	8.7
562.273	8.59
562.615	8.61
562.957	8.76
563.299	8.71
563.641	8.62
563.983	8.73
564.325	8.63
564.667	8.87
565.008	8.78
565.35	8.79
565.692	8.73
566.033	8.87
566.375	8.94
566.716	9.16
567.058	8.92
567.399	8.84
567.741	8.86
568.082	8.93
568.423	8.89
568.764	8.89
569.105	9.01
569.447	9.1
569.788	9.01
570.129	8.95
570.47	9.02
570.811	9.09
571.151	9.1
571.492	9.03
571.833	9.12
572.174	9.19
572.514	9.15
572.855	9.42
573.195	9.1
573.536	9.23
573.876	9.04
574.217	9.04
574.557	9.34
574.898	9.24
575.238	9.25
575.578	9.2
575.918	9.44
576.258	9.35
576.598	9.39
576.938	9.29
577.278	9.41
577.618	9.28
577.958	9.3
578.298	9.27
578.638	9.41
578.977	9.37
579.317	9.52
579.657	9.48
579.996	9.6
580.336	9.43
580.675	9.46
581.014	9.72
581.354	9.77
581.693	9.61
582.032	9.45
582.372	9.39
582.711	9.47
583.05	9.74
583.389	9.79
583.728	9.79
584.067	9.97
584.406	9.82
584.745	9.89
585.083	9.93
585.422	9.8
585.761	9.91
586.1	10.12
586.438	9.94
586.777	10.26
587.115	9.94
587.454	9.97
587.792	9.97
588.13	10.25
588.469	10.02
588.807	10.12
589.145	10.14
589.483	10.16
589.821	10.03
590.159	10.07
590.497	10.47
590.835	10.42
591.173	10.53
591.511	10.33
591.849	10.31
592.187	10.28
592.524	10.44
592.862	10.4
593.2	10.49
593.537	10.1
593.875	10.26
594.212	10.17
594.55	10.35
594.887	10.49
595.224	10.24
595.561	10.51
595.899	10.37
596.236	10.15
596.573	10.72
596.91	10.25
597.247	10.24
597.584	10.8
597.921	10.88
598.258	10.66
598.594	10.75
598.931	10.62
599.268	10.74
599.604	10.42
599.941	10.9
600.277	10.76
600.614	10.58
600.95	10.74
601.287	11.12
601.623	11.03
601.959	10.67
602.296	11.02
602.632	10.93
602.968	10.9
603.304	11.05
603.64	10.8
603.976	10.8
604.312	10.91
604.648	11.12
604.984	11.22
605.319	11.25
605.655	11.13
605.991	11.15
606.326	11.1
606.662	11.01
606.998	10.89
607.333	11.19
607.668	11.1
608.004	11.08
608.339	11.37
608.674	11.03
609.01	11.19
609.345	11.35
609.68	11.57
610.015	11.26
610.35	11.54
610.685	11.36
611.02	11.43
611.355	11.6
611.689	11.35
612.024	11.68
612.359	11.52
612.694	11.51
613.028	11.4
613.363	11.74
613.697	11.92
614.032	11.65
614.366	11.67
614.7	11.75
615.035	11.71
615.369	11.61
615.703	11.79
616.037	11.83
616.371	11.24
616.705	11.93
617.039	11.73
617.373	11.53
617.707	11.86
618.041	11.94
618.375	12.19
618.709	12.05
619.042	11.44
619.376	12.15
619.71	12.07
620.043	12.08
620.377	11.89
620.71	12.16
621.043	12.08
621.377	12.32
621.71	12.24
622.043	12.13
622.376	12.01
622.709	12.41
623.043	12.71
623.376	12.53
623.709	12.29
624.041	12.35
624.374	12.21
624.707	12.09
625.04	12.61
625.373	11.81
625.705	12.48
626.038	12.71
626.37	12.44
626.703	12.35
627.035	12.68
627.368	13.07
627.7	12.55
628.032	12.3
628.365	12.89
628.697	12.86
629.029	12.73
629.361	12.86
629.693	12.76
630.025	12.57
630.357	12.97
630.689	12.7
631.021	12.61
631.353	13.01
631.684	12.74
632.016	12.56
632.348	12.87
632.679	12.77
633.011	13.16
633.342	13.18
633.674	13.2
634.005	13.29
634.336	13.09
634.668	13.26
634.999	12.96
635.33	12.98
635.661	13.5
635.992	13.06
636.323	13.31
636.654	13.31
636.985	13.37
637.316	13.15
637.647	12.99
637.977	13.38
638.308	13.78
638.639	12.93
638.969	13.22
639.3	13.56
639.63	13.59
639.961	13.17
640.291	13.2
640.622	13.84
640.952	13.52
641.282	14.17
641.612	13.67
641.943	13.67
642.273	13.87
642.603	14.11
642.933	13.68
643.263	13.81
643.592	13.37
643.922	13.71
644.252	13.73
644.582	13.83
644.911	13.45
645.241	13.39
645.571	13.75
645.9	13.48
646.23	13.87
646.559	14.02
646.888	13.84
647.218	14
647.547	14.31
647.876	14.04
648.205	14.45
648.534	14.1
648.863	13.53
649.192	14.58
649.521	14.19
649.85	14.62
650.179	14.65
650.508	14.11
650.837	14.32
651.165	14.12
651.494	14.4
651.822	14.12
652.151	14.08
652.479	14.69
652.808	14.03
653.136	14.21
653.465	13.86
653.793	14.15
654.121	14.16
654.449	14.46
654.777	14.66
655.105	14.49
655.433	14.54
655.761	14.75
656.089	14.88
656.417	14.71
656.745	14.19
657.073	15.07
657.4	15.3
657.728	15.11
658.056	15.02
658.383	14.9
658.711	15.2
659.038	14.97
659.365	15.21
659.693	15.31
660.02	15.24
660.347	14.48
660.674	15.13
661.001	15.33
661.329	14.54
661.656	14.98
661.982	15.32
662.309	15.08
662.636	14.99
662.963	15.95
663.29	15.07
663.616	15.78
663.943	15.2
664.27	15.25
664.596	15.55
664.923	15.48
665.249	15.85
665.576	15.72
665.902	16.11
666.228	15.32
666.554	16.05
666.881	15.69
667.207	16.61
667.533	16.03
667.859	16.11
668.185	16.25
668.511	15.12
668.837	15.07
669.162	15.88
669.488	15.41
669.814	15.59
670.139	15.96
670.465	16.41
670.791	16.45
671.116	16.58
671.442	15.87
671.767	15.98
672.092	16.19
672.418	15.75
672.743	16.27
673.068	16.1
673.393	16.64
673.718	16.01
674.043	15.72
674.368	15.66
674.693	16.48
675.018	16.99
675.343	15.78
675.667	15.98
675.992	16.54
676.317	16.52
676.641	16.69
676.966	17.09
677.29	16.74
677.615	17.24
677.939	17.04
678.264	17.35
678.588	16.7
678.912	16.62
679.236	16.93
679.56	16.52
679.885	17.41
680.209	16.32
680.532	17.09
680.856	17.85
681.18	17.37
681.504	17.09
681.828	17.58
682.152	16.66
682.475	17.25
682.799	16.9
683.122	17.77
683.446	16.27
683.769	17.05
684.093	17.1
684.416	17.89
684.739	16.84
685.062	16.83
685.386	17.33
685.709	16.66
