Data from 0191_forehead_Reflection__1__420.txt Node

Date: Fri Dec 15 20:28:11 CST 2023
User: ToomeyLab
Spectrometer: FLMS14357
Trigger mode: 0
Integration Time (sec): 1.000000E-2
Scans to average: 100
Electric dark correction enabled: true
Nonlinearity correction enabled: false
Boxcar width: 0
XAxis mode: Wavelengths
Number of Pixels in Spectrum: 2048
>>>>>Begin Spectral Data<<<<<
189.047	-33.32
189.435	-33.32
189.823	-33.32
190.211	1066.67
190.599	137.01
190.987	175.65
191.375	-41.72
191.763	11.48
192.151	61.08
192.538	123.4
192.926	-137.22
193.314	85.09
193.702	-36.88
194.089	-269.41
194.477	570.24
194.864	-394.62
195.252	39.56
195.639	51.91
196.027	306.98
196.414	63.97
196.801	48.72
197.189	238.07
197.576	219.79
197.963	-69.47
198.351	14.67
198.738	-7.8
199.125	1.89
199.512	48.24
199.899	37.37
200.286	23.88
200.673	41.96
201.06	-117.25
201.447	67.72
201.833	24.77
202.22	1.22
202.607	32.77
202.994	32.52
203.38	27.27
203.767	35.44
204.154	-12.22
204.54	45.24
204.927	-64.1
205.313	-37.41
205.699	20.31
206.086	35.87
206.472	18.49
206.858	36.27
207.245	-54.54
207.631	26.08
208.017	62.41
208.403	-44.15
208.789	14.4
209.175	19.96
209.561	-14.33
209.947	-22.89
210.333	-4.54
210.719	14.12
211.105	16.01
211.491	-135.79
211.876	27.54
212.262	44.24
212.648	27.78
213.034	41.87
213.419	38.17
213.805	-2.82
214.19	-4.07
214.576	-4.35
214.961	-98.08
215.346	-47.03
215.732	17.66
216.117	17.48
216.502	-48.72
216.888	20.66
217.273	3.62
217.658	-15
218.043	22.75
218.428	-31.81
218.813	-20.76
219.198	-95.85
219.583	-6.28
219.968	-0.11
220.353	-21.67
220.738	7.17
221.122	-11.43
221.507	-32.41
221.892	-7.8
222.276	-18.57
222.661	-3.13
223.046	20.37
223.43	11.57
223.815	1.31
224.199	-2.45
224.583	-6.85
224.968	5.24
225.352	14.13
225.736	-3.43
226.121	-10.8
226.505	-2.16
226.889	0.97
227.273	3.25
227.657	6.79
228.041	1.7
228.425	-1.54
228.809	7.02
229.193	2.41
229.577	6.05
229.961	2.26
230.344	3.39
230.728	4.01
231.112	4.06
231.495	3.57
231.879	2.84
232.263	4.12
232.646	3.61
233.03	2.4
233.413	1.64
233.797	3.61
234.18	3.71
234.563	5.87
234.946	5.57
235.33	2.58
235.713	5
236.096	4.71
236.479	3.78
236.862	3.01
237.245	7.28
237.628	1.7
238.011	5.33
238.394	5.36
238.777	4.06
239.16	2.48
239.543	6.25
239.925	5.63
240.308	6.66
240.691	5.53
241.073	4.92
241.456	1.8
241.838	4.26
242.221	2.99
242.603	6.03
242.986	4.13
243.368	4.07
243.75	4.67
244.133	4.17
244.515	4.46
244.897	4.61
245.279	5.04
245.661	3.99
246.043	3.09
246.425	3.05
246.807	3.81
247.189	4.71
247.571	4.19
247.953	4.32
248.335	4.64
248.717	4.37
249.098	4.16
249.48	4.51
249.862	4.63
250.243	4.39
250.625	4.59
251.006	4.72
251.388	3.61
251.769	4.11
252.151	5.9
252.532	3.14
252.913	3.85
253.295	3.64
253.676	4.3
254.057	4.97
254.438	4.66
254.819	5.08
255.2	4.44
255.581	3.83
255.962	2.82
256.343	4.68
256.724	3.51
257.105	4.5
257.486	5.58
257.867	4.44
258.247	4.49
258.628	3.92
259.009	5.11
259.389	4.21
259.77	3.52
260.15	3.83
260.531	3.69
260.911	4.59
261.292	4.55
261.672	4.54
262.052	4.36
262.432	4.59
262.813	4.47
263.193	3.83
263.573	3.59
263.953	4.57
264.333	5.09
264.713	4.44
265.093	3.2
265.473	4.65
265.853	3.93
266.233	5.54
266.612	2.91
266.992	3.8
267.372	4.16
267.752	4.43
268.131	4.25
268.511	5.24
268.89	4.54
269.27	4.06
269.649	3.43
270.029	4.1
270.408	5.44
270.787	3.93
271.167	4.59
271.546	4.5
271.925	3.61
272.304	4.04
272.683	4.47
273.062	3.94
273.441	4.16
273.82	3.34
274.199	4.54
274.578	4.29
274.957	4.31
275.336	4.17
275.715	3.76
276.093	4
276.472	4.1
276.851	3.95
277.229	4.11
277.608	3.23
277.986	4.6
278.365	3.96
278.743	4.03
279.122	4.13
279.5	4.1
279.878	4.25
280.257	4.53
280.635	4.19
281.013	4.19
281.391	4.35
281.769	4.65
282.147	4.62
282.525	5.08
282.903	4.2
283.281	4.52
283.659	4.85
284.037	4.13
284.415	4.48
284.792	4.85
285.17	3.51
285.548	3.79
285.925	3.58
286.303	4.43
286.68	4.12
287.058	4.19
287.435	3.95
287.813	4.46
288.19	4.26
288.567	4.18
288.945	4.81
289.322	4.24
289.699	4.54
290.076	5.01
290.453	4.36
290.83	4.02
291.207	4.13
291.584	4.73
291.961	4.62
292.338	4.37
292.715	4.81
293.092	4.63
293.469	4.56
293.845	4.63
294.222	3.97
294.599	4.46
294.975	4.97
295.352	5.15
295.728	4.16
296.105	4.76
296.481	5.47
296.858	4.99
297.234	5.16
297.61	4.9
297.986	4.75
298.363	5
298.739	5.04
299.115	5.15
299.491	4.85
299.867	5.06
300.243	5.24
300.619	5.45
300.995	5.34
301.371	5.29
301.746	5.27
302.122	5.45
302.498	5.83
302.874	5.14
303.249	5.1
303.625	5.37
304	5.76
304.376	5.4
304.751	5
305.127	6.17
305.502	5.18
305.878	5.37
306.253	5.33
306.628	6.3
307.003	5.22
307.378	6.3
307.754	6
308.129	5.35
308.504	6.08
308.879	5.71
309.254	6.54
309.629	6.72
310.003	6.23
310.378	6.55
310.753	6.59
311.128	6.65
311.502	6.45
311.877	6.86
312.252	6.16
312.626	6.52
313.001	6.25
313.375	6.56
313.75	5.9
314.124	6.77
314.498	6.62
314.873	6.67
315.247	6.22
315.621	6.71
315.995	5.92
316.369	6.55
316.743	6.43
317.117	7.64
317.491	6.89
317.865	6.79
318.239	6.74
318.613	7.5
318.987	7.87
319.361	6.33
319.734	8.03
320.108	7.16
320.482	7.4
320.855	7.95
321.229	7.3
321.602	7.29
321.976	7.78
322.349	7.32
322.723	7.65
323.096	8.19
323.469	6.85
323.843	8.1
324.216	8.2
324.589	7.73
324.962	8.2
325.335	7.53
325.708	8.17
326.081	7.81
326.454	8.02
326.827	8.09
327.2	7.82
327.573	8.01
327.945	8.42
328.318	7.35
328.691	7.32
329.063	7.97
329.436	7.65
329.809	8.65
330.181	8.09
330.553	8.35
330.926	8.5
331.298	8.31
331.671	8.21
332.043	9.11
332.415	9.21
332.787	8.55
333.159	8.82
333.532	8.49
333.904	8.57
334.276	8.86
334.648	8.8
335.02	9.29
335.391	8.85
335.763	8.12
336.135	8.81
336.507	9.23
336.879	8.92
337.25	8.64
337.622	8.23
337.993	8.67
338.365	9.08
338.736	9.45
339.108	8.81
339.479	8.75
339.851	9.24
340.222	8.8
340.593	8.87
340.964	8.69
341.336	9.66
341.707	8.77
342.078	9.11
342.449	9.5
342.82	9.47
343.191	9.43
343.562	9.24
343.933	9.23
344.303	9.32
344.674	9.47
345.045	9.23
345.416	9.8
345.786	8.93
346.157	9.66
346.527	9.33
346.898	9.29
347.268	9.55
347.639	9.32
348.009	9.62
348.38	9.38
348.75	9.79
349.12	9.55
349.49	10.36
349.861	9.46
350.231	9.38
350.601	10.04
350.971	9.86
351.341	10.37
351.711	9.89
352.081	10.13
352.45	9.91
352.82	10.43
353.19	10.64
353.56	10.13
353.929	10.27
354.299	10.81
354.669	10.08
355.038	10.75
355.408	10.62
355.777	10.32
356.147	10.64
356.516	10.66
356.885	10.2
357.254	10.41
357.624	10.37
357.993	10.66
358.362	10.48
358.731	10.52
359.1	10.6
359.469	10.74
359.838	10.63
360.207	10.82
360.576	10.62
360.945	10.98
361.314	11.14
361.682	10.78
362.051	10.76
362.42	11.44
362.788	11.28
363.157	11.16
363.525	11.32
363.894	10.91
364.262	11.44
364.631	11.16
364.999	11.17
365.367	11.04
365.735	11.88
366.104	11.57
366.472	11.65
366.84	11.04
367.208	11.18
367.576	11.93
367.944	11.99
368.312	11.87
368.68	11.46
369.048	11.65
369.416	11.84
369.783	11.7
370.151	11.92
370.519	11.94
370.886	11.91
371.254	11.8
371.621	12.65
371.989	12.11
372.356	11.67
372.724	12.07
373.091	11.53
373.458	11.89
373.826	11.85
374.193	12.15
374.56	12.48
374.927	12.6
375.294	12.25
375.661	12.22
376.028	11.66
376.395	12.1
376.762	12.47
377.129	12.53
377.496	12.46
377.863	12.44
378.229	12.12
378.596	12.56
378.963	12.31
379.329	12.39
379.696	12.55
380.062	12.62
380.429	12.61
380.795	12.61
381.161	12.74
381.528	13.18
381.894	12.42
382.26	12.87
382.626	13.24
382.993	12.38
383.359	13.16
383.725	12.72
384.091	12.95
384.457	13.24
384.823	13.31
385.188	13.24
385.554	12.92
385.92	13.1
386.286	13.41
386.651	13.3
387.017	13.81
387.383	13.48
387.748	12.93
388.114	13.59
388.479	13.19
388.845	13.59
389.21	13.65
389.575	13.7
389.94	13.52
390.306	13.78
390.671	14.14
391.036	13.47
391.401	13.28
391.766	13.55
392.131	13.75
392.496	13.95
392.861	13.99
393.226	13.95
393.591	14.03
393.956	13.68
394.32	13.8
394.685	13.93
395.05	14.09
395.414	14.19
395.779	13.91
396.143	13.99
396.508	14.18
396.872	14.36
397.236	14.32
397.601	14.34
397.965	14.72
398.329	14.27
398.694	14.5
399.058	14.63
399.422	14.21
399.786	14.42
400.15	14.54
400.514	14.66
400.878	14.36
401.242	14.81
401.605	14.82
401.969	14.91
402.333	14.9
402.697	14.9
403.06	14.99
403.424	14.93
403.787	14.75
404.151	15.04
404.514	15.03
404.878	14.85
405.241	15.32
405.604	15.17
405.968	15.05
406.331	15.15
406.694	15.23
407.057	14.95
407.42	15.14
407.783	15.05
408.146	15.46
408.509	15.28
408.872	15.31
409.235	15.27
409.598	15.65
409.961	15.19
410.323	15.74
410.686	15.51
411.049	15.19
411.411	15.21
411.774	15.41
412.136	15.76
412.499	15.37
412.861	15.23
413.223	15.75
413.586	15.75
413.948	16.04
414.31	16.2
414.672	15.68
415.035	15.63
415.397	16
415.759	15.68
416.121	16.23
416.483	15.71
416.845	15.86
417.206	15.84
417.568	16.13
417.93	15.95
418.292	15.95
418.653	16.13
419.015	16.17
419.377	15.88
419.738	16.22
420.1	16.06
420.461	16.26
420.822	16.26
421.184	16.02
421.545	16.13
421.906	15.94
422.267	16.12
422.629	16.16
422.99	16.08
423.351	16.21
423.712	16.31
424.073	16.39
424.434	16.37
424.795	16.16
425.155	16.31
425.516	16.47
425.877	16.42
426.238	16.36
426.598	16.54
426.959	16.36
427.32	16.47
427.68	16.59
428.041	16.6
428.401	16.86
428.761	16.91
429.122	16.88
429.482	16.9
429.842	17.06
430.202	17.15
430.563	17.11
430.923	17.21
431.283	17.35
431.643	16.99
432.003	17.24
432.363	17.37
432.722	17.51
433.082	17.34
433.442	17.41
433.802	17.47
434.161	17.29
434.521	17.76
434.881	17.48
435.24	17.34
435.6	17.29
435.959	17.43
436.319	17.52
436.678	17.77
437.037	17.69
437.396	17.74
437.756	18.02
438.115	17.71
438.474	17.93
438.833	17.77
439.192	17.74
439.551	18.06
439.91	17.96
440.269	18.07
440.628	17.75
440.987	18.06
441.345	17.91
441.704	18.23
442.063	18.04
442.421	17.95
442.78	17.93
443.138	18.02
443.497	18.18
443.855	18.18
444.214	18.32
444.572	18.42
444.93	18.54
445.288	18.51
445.647	18.64
446.005	18.42
446.363	18.44
446.721	18.59
447.079	18.21
447.437	18.52
447.795	18.52
448.153	18.48
448.51	18.41
448.868	18.45
449.226	18.41
449.584	18.56
449.941	18.85
450.299	18.82
450.656	18.81
451.014	18.9
451.371	18.97
451.729	18.88
452.086	19.32
452.443	19.07
452.801	19.17
453.158	19.05
453.515	19.07
453.872	19.42
454.229	19.29
454.586	19.31
454.943	19.41
455.3	19.52
455.657	19.2
456.014	19.47
456.371	19.43
456.727	19.5
457.084	19.73
457.441	19.79
457.797	19.7
458.154	20
458.51	19.74
458.867	19.85
459.223	19.88
459.58	19.91
459.936	19.75
460.292	19.86
460.648	19.74
461.005	19.71
461.361	19.82
461.717	19.68
462.073	19.62
462.429	19.8
462.785	19.83
463.141	19.83
463.496	20.02
463.852	20.31
464.208	20.07
464.564	20.52
464.919	20.53
465.275	20.6
465.631	20.55
465.986	20.56
466.342	20.58
466.697	20.45
467.052	20.69
467.408	20.63
467.763	20.77
468.118	20.58
468.473	20.63
468.829	20.83
469.184	20.8
469.539	20.95
469.894	20.86
470.249	21.03
470.603	21.24
470.958	20.91
471.313	21.24
471.668	21.33
472.023	21.33
472.377	20.92
472.732	21.07
473.086	21.11
473.441	21.04
473.795	21.44
474.15	21.32
474.504	21.62
474.859	21.53
475.213	21.3
475.567	21.39
475.921	21.42
476.275	21.55
476.63	21.61
476.984	21.5
477.338	21.84
477.692	21.77
478.045	21.69
478.399	21.57
478.753	22.01
479.107	21.65
479.461	21.82
479.814	21.76
480.168	21.84
480.521	22.02
480.875	21.9
481.228	21.88
481.582	21.86
481.935	21.94
482.289	22.03
482.642	22.14
482.995	22.07
483.348	21.98
483.701	21.97
484.055	22.06
484.408	22.14
484.761	21.82
485.114	21.61
485.466	21.36
485.819	21.29
486.172	21.3
486.525	21.31
486.878	21.29
487.23	21.55
487.583	21.7
487.936	21.95
488.288	22.15
488.641	22.11
488.993	21.93
489.345	21.79
489.698	21.83
490.05	21.83
490.402	21.78
490.754	21.98
491.107	22.13
491.459	22.51
491.811	22.57
492.163	22.76
492.515	22.74
492.866	22.71
493.218	22.56
493.57	22.39
493.922	22.42
494.274	22.51
494.625	22.59
494.977	22.77
495.328	23.02
495.68	23.25
496.031	23.52
496.383	23.52
496.734	23.74
497.086	23.83
497.437	23.63
497.788	23.8
498.139	23.55
498.49	23.71
498.842	23.61
499.193	23.58
499.544	23.73
499.894	23.57
500.245	23.6
500.596	23.93
500.947	24.04
501.298	23.95
501.648	24.14
501.999	24.15
502.35	24.23
502.7	24.17
503.051	24.31
503.401	24.2
503.752	24.62
504.102	24.41
504.452	24.4
504.803	24.52
505.153	24.5
505.503	24.86
505.853	24.5
506.203	24.6
506.553	24.8
506.903	24.61
507.253	24.87
507.603	24.72
507.953	24.92
508.303	24.87
508.652	24.96
509.002	24.99
509.352	24.97
509.701	24.88
510.051	24.84
510.4	25.09
510.75	24.95
511.099	25.06
511.449	24.92
511.798	25.06
512.147	25.09
512.496	24.94
512.846	25.12
513.195	25.12
513.544	25.21
513.893	25.38
514.242	25.2
514.591	25.28
514.939	25.36
515.288	25.36
515.637	25.66
515.986	25.8
516.334	25.81
516.683	25.83
517.032	25.87
517.38	25.88
517.729	25.72
518.077	25.9
518.426	25.94
518.774	26.07
519.122	25.9
519.47	25.67
519.819	25.7
520.167	25.86
520.515	25.62
520.863	25.66
521.211	25.64
521.559	25.97
521.907	25.89
522.255	26
522.602	26.12
522.95	26.48
523.298	26.38
523.645	26.46
523.993	26.55
524.341	26.64
524.688	26.47
525.036	26.55
525.383	26.52
525.73	26.84
526.078	26.64
526.425	26.66
526.772	26.84
527.119	26.53
527.466	26.65
527.814	26.48
528.161	26.38
528.508	26.49
528.854	26.66
529.201	26.55
529.548	26.66
529.895	26.55
530.242	26.24
530.588	26.25
530.935	26.12
531.282	26.06
531.628	26.17
531.975	26.31
532.321	26.5
532.667	26.86
533.014	27
533.36	27.16
533.706	27.24
534.052	27.33
534.399	27.26
534.745	27.16
535.091	27.1
535.437	27.09
535.783	26.99
536.129	27.04
536.474	27.1
536.82	27.37
537.166	27.64
537.512	27.83
537.857	27.71
538.203	27.94
538.549	27.83
538.894	27.67
539.239	27.72
539.585	27.83
539.93	28.1
540.276	28.16
540.621	28.28
540.966	28.35
541.311	28.24
541.656	28.47
542.001	28.39
542.346	28.35
542.691	28.33
543.036	28.05
543.381	27.7
543.726	27.77
544.071	27.97
544.415	27.85
544.76	28.05
545.105	28.19
545.449	28.5
545.794	28.58
546.138	28.73
546.483	28.8
546.827	28.91
547.171	28.77
547.516	29.13
547.86	28.93
548.204	29
548.548	28.95
548.892	29.06
549.236	29.14
549.58	29.17
549.924	29.51
550.268	29.42
550.612	29.6
550.956	29.74
551.3	29.74
551.643	29.8
551.987	29.89
552.33	30
552.674	30.32
553.017	30.04
553.361	30.04
553.704	30.38
554.048	30.02
554.391	30.19
554.734	30.13
555.077	30.3
555.42	29.98
555.764	30.1
556.107	30.44
556.45	30.14
556.793	30.15
557.135	30.63
557.478	30.65
557.821	31.04
558.164	30.87
558.507	30.98
558.849	30.78
559.192	30.95
559.534	30.83
559.877	31.19
560.219	31.05
560.562	31.3
560.904	31.05
561.246	31.35
561.589	31.22
561.931	31.43
562.273	31.36
562.615	31.31
562.957	31.45
563.299	31.27
563.641	31.29
563.983	31.43
564.325	31.42
564.667	31.45
565.008	31.78
565.35	31.53
565.692	31.65
566.033	31.76
566.375	31.85
566.716	31.72
567.058	31.69
567.399	31.69
567.741	31.85
568.082	32.01
568.423	31.8
568.764	31.77
569.105	31.66
569.447	31.93
569.788	31.93
570.129	32.22
570.47	32.12
570.811	32.19
571.151	32.39
571.492	32.38
571.833	32.39
572.174	32.37
572.514	32.33
572.855	32.54
573.195	32.5
573.536	32.59
573.876	32.13
574.217	32.51
574.557	32.28
574.898	32.59
575.238	32.39
575.578	32.41
575.918	32.63
576.258	32.72
576.598	32.96
576.938	32.8
577.278	32.98
577.618	32.79
577.958	32.9
578.298	32.8
578.638	33.1
578.977	33.2
579.317	33.44
579.657	33.51
579.996	33.16
580.336	33.31
580.675	33.55
581.014	33.84
581.354	33.64
581.693	33.72
582.032	33.44
582.372	33.91
582.711	33.88
583.05	33.34
583.389	33.73
583.728	33.75
584.067	34.14
584.406	33.99
584.745	34.01
585.083	34.3
585.422	34.25
585.761	34.08
586.1	34.43
586.438	34.27
586.777	34.27
587.115	34.5
587.454	34.64
587.792	34.56
588.13	34.33
588.469	34.32
588.807	34.29
589.145	34.46
589.483	34.15
589.821	34.72
590.159	34.77
590.497	34.75
590.835	34.98
591.173	34.95
591.511	34.97
591.849	34.8
592.187	34.87
592.524	35.08
592.862	34.91
593.2	35.03
593.537	34.9
593.875	35.07
594.212	35.25
594.55	35.26
594.887	35.48
595.224	34.96
595.561	35.02
595.899	35.73
596.236	35.43
596.573	35.53
596.91	35.22
597.247	35.62
597.584	35.48
597.921	35.66
598.258	35.65
598.594	36.01
598.931	35.75
599.268	35.86
599.604	35.54
599.941	35.59
600.277	35.47
600.614	35.17
600.95	35.71
601.287	36.2
601.623	36
601.959	35.95
602.296	36.13
602.632	36.48
602.968	36.14
603.304	36.37
603.64	36.19
603.976	36.53
604.312	36.05
604.648	36.2
604.984	36.19
605.319	36.25
605.655	36.5
605.991	36.32
606.326	36.18
606.662	36.18
606.998	36.27
607.333	36.29
607.668	36.52
608.004	36.59
608.339	36.93
608.674	36.51
609.01	36.8
609.345	36.49
609.68	36.76
610.015	36.88
610.35	36.81
610.685	37.36
611.02	37.07
611.355	37.16
611.689	37.28
612.024	37.14
612.359	36.85
612.694	37.26
613.028	37.37
613.363	37.34
613.697	37.21
614.032	37.35
614.366	37.57
614.7	37.79
615.035	37.42
615.369	37.53
615.703	37.56
616.037	37.72
616.371	37.44
616.705	37.83
617.039	37.91
617.373	37.82
617.707	37.88
618.041	38.4
618.375	38.04
618.709	38.09
619.042	38.11
619.376	38.33
619.71	38.47
620.043	38.64
620.377	38.23
620.71	38.06
621.043	38.03
621.377	38.18
621.71	38.42
622.043	38.35
622.376	37.99
622.709	38.3
623.043	38.59
623.376	38.49
623.709	38.5
624.041	39.13
624.374	39.17
624.707	38.88
625.04	38.62
625.373	38.76
625.705	39.1
626.038	38.69
626.37	38.71
626.703	39.42
627.035	38.83
627.368	39.63
627.7	38.98
628.032	38.85
628.365	39.29
628.697	39.32
629.029	39.24
629.361	39.28
629.693	39.03
630.025	38.94
630.357	39.04
630.689	39.51
631.021	39.72
631.353	39.57
631.684	39.51
632.016	39.44
632.348	39.85
632.679	39.83
633.011	39.64
633.342	39.73
633.674	39.42
634.005	39.93
634.336	40.15
634.668	40.2
634.999	40.07
635.33	40.1
635.661	40.09
635.992	39.81
636.323	40.78
636.654	40.19
636.985	40.54
637.316	40.54
637.647	40.23
637.977	40.37
638.308	40.44
638.639	40.26
638.969	40.4
639.3	40.1
639.63	40.19
639.961	40.28
640.291	40.43
640.622	40.57
640.952	40.23
641.282	40.92
641.612	40.86
641.943	41.12
642.273	41.07
642.603	41.65
642.933	41.16
643.263	41.21
643.592	40.93
643.922	40.88
644.252	41.31
644.582	41.38
644.911	40.96
645.241	41.19
645.571	41.39
645.9	40.81
646.23	41.56
646.559	41.85
646.888	41.66
647.218	41.47
647.547	41.65
647.876	41.66
648.205	42.42
648.534	41.34
648.863	41.59
649.192	42.26
649.521	41.23
649.85	41.84
650.179	41.76
650.508	41.73
650.837	41.82
651.165	40.94
651.494	41.65
651.822	42.1
652.151	41.44
652.479	41.88
652.808	41.48
653.136	42.27
653.465	41.47
653.793	41.87
654.121	41.6
654.449	42.92
654.777	41.47
655.105	42.13
655.433	41.94
655.761	42.42
656.089	42.44
656.417	42.24
656.745	41.95
657.073	41.9
657.4	42.46
657.728	42.56
658.056	42.59
658.383	42.58
658.711	42.58
659.038	42.73
659.365	42.95
659.693	43.38
660.02	42.66
660.347	42.69
660.674	43.21
661.001	42.55
661.329	43.03
661.656	42.71
661.982	43.37
662.309	42.45
662.636	42.71
662.963	43.27
663.29	43.1
663.616	43.64
663.943	42.91
664.27	43.26
664.596	42.64
664.923	43.28
665.249	43.59
665.576	43.52
665.902	43.49
666.228	43.59
666.554	43.35
666.881	43.46
667.207	43.42
667.533	43.91
667.859	43.89
668.185	43.53
668.511	43.33
668.837	42.95
669.162	44.28
669.488	43.14
669.814	43.46
670.139	44.46
670.465	43.98
670.791	44.52
