Data from 0191_forehead_Reflection__2__421.txt Node

Date: Fri Dec 15 20:28:22 CST 2023
User: ToomeyLab
Spectrometer: FLMS14357
Trigger mode: 0
Integration Time (sec): 1.000000E-2
Scans to average: 100
Electric dark correction enabled: true
Nonlinearity correction enabled: false
Boxcar width: 0
XAxis mode: Wavelengths
Number of Pixels in Spectrum: 2048
>>>>>Begin Spectral Data<<<<<
189.047	-54.36
189.435	-54.36
189.823	-54.36
190.211	2069.37
190.599	-48.18
190.987	101.58
191.375	65.43
191.763	-6.13
192.151	170.9
192.538	120.96
192.926	104.5
193.314	38.75
193.702	-129.14
194.089	11.94
194.477	196.19
194.864	-1000.45
195.252	67.79
195.639	34.9
196.027	194.84
196.414	51.71
196.801	204.5
197.189	139.65
197.576	102.07
197.963	150.46
198.351	-61.53
198.738	-16.31
199.125	-12.61
199.512	-40.49
199.899	-1.35
200.286	62.14
200.673	49.6
201.06	-2.29
201.447	-153.36
201.833	51.44
202.22	21.71
202.607	39.13
202.994	61.26
203.38	15.25
203.767	9.98
204.154	24.5
204.54	10.87
204.927	-16.32
205.313	16.72
205.699	29.86
206.086	49.24
206.472	23.07
206.858	-13.25
207.245	-2.93
207.631	24.69
208.017	20.66
208.403	-0.71
208.789	50.43
209.175	12.56
209.561	1.92
209.947	-18.3
210.333	-59.25
210.719	21.82
211.105	38.17
211.491	-21.36
211.876	-14.88
212.262	-8.87
212.648	28.51
213.034	36.71
213.419	10.14
213.805	6.21
214.19	14.79
214.576	-20.57
214.961	-18.9
215.346	-45.28
215.732	6.32
216.117	-13.23
216.502	-31.77
216.888	22.81
217.273	-8.58
217.658	-16.26
218.043	-2.97
218.428	-116
218.813	3.73
219.198	-142.28
219.583	-21.69
219.968	17.32
220.353	-38.64
220.738	21.75
221.122	-4.57
221.507	-17.81
221.892	-66.73
222.276	-21.79
222.661	6.8
223.046	5.12
223.43	9.81
223.815	10.49
224.199	-9.92
224.583	3.42
224.968	3.45
225.352	5.78
225.736	-3.6
226.121	-26.33
226.505	-4.59
226.889	7.95
227.273	2.58
227.657	2.22
228.041	2.07
228.425	0.55
228.809	3.47
229.193	5.53
229.577	0.86
229.961	3.16
230.344	1.94
230.728	2.57
231.112	3.07
231.495	1.49
231.879	1.46
232.263	3.16
232.646	3.66
233.03	3.2
233.413	0.93
233.797	3.33
234.18	0.97
234.563	3.09
234.946	0.69
235.33	1.58
235.713	4.63
236.096	3.75
236.479	4.13
236.862	1.29
237.245	4.66
237.628	1.25
238.011	3.37
238.394	3.27
238.777	3.5
239.16	0.82
239.543	1.69
239.925	3.07
240.308	1.52
240.691	4.51
241.073	3.01
241.456	2.14
241.838	1.43
242.221	0.91
242.603	3.63
242.986	2.85
243.368	2.46
243.75	3.02
244.133	2.56
244.515	2.61
244.897	2.74
245.279	2.55
245.661	2.43
246.043	0.81
246.425	1.97
246.807	3.29
247.189	2.81
247.571	2.64
247.953	3.09
248.335	2.81
248.717	2.59
249.098	2.77
249.48	2.86
249.862	2.82
250.243	2.75
250.625	2.34
251.006	2.88
251.388	1.81
251.769	2.46
252.151	2.64
252.532	2.96
252.913	1
253.295	2.19
253.676	2.47
254.057	2.84
254.438	1.81
254.819	2.07
255.2	2.32
255.581	2.88
255.962	1.14
256.343	2.54
256.724	2.72
257.105	2.23
257.486	2.29
257.867	2.54
258.247	2.57
258.628	2.59
259.009	1.45
259.389	2.2
259.77	2.91
260.15	2.64
260.531	2.1
260.911	2.97
261.292	2.74
261.672	2.87
262.052	2.97
262.432	2.91
262.813	2.53
263.193	2.71
263.573	2.52
263.953	2.49
264.333	2.97
264.713	3.27
265.093	2.02
265.473	2.72
265.853	1.66
266.233	3.49
266.612	1.64
266.992	2.25
267.372	2.84
267.752	3.08
268.131	2.34
268.511	2.76
268.89	2.83
269.27	2.2
269.649	1.67
270.029	2.11
270.408	3.71
270.787	3.04
271.167	2.89
271.546	2.99
271.925	1.73
272.304	3.14
272.683	2.84
273.062	2.52
273.441	3.06
273.82	1.86
274.199	2.29
274.578	2.85
274.957	2.24
275.336	2.58
275.715	2.47
276.093	2.11
276.472	2.94
276.851	2.27
277.229	2.36
277.608	2.53
277.986	2.6
278.365	3.2
278.743	1.79
279.122	2.43
279.5	2.67
279.878	3.39
280.257	2.6
280.635	1.79
281.013	1.93
281.391	3.06
281.769	2.49
282.147	2.91
282.525	3.56
282.903	2.56
283.281	2.64
283.659	3.1
284.037	2.35
284.415	2.97
284.792	2.67
285.17	1.86
285.548	2.19
285.925	2.95
286.303	2.9
286.68	2.98
287.058	2.72
287.435	2.86
287.813	2.53
288.19	2.58
288.567	2.62
288.945	2.89
289.322	3.04
289.699	2.76
290.076	2.78
290.453	2.04
290.83	2.34
291.207	2.3
291.584	2.81
291.961	3.06
292.338	3.04
292.715	2.92
293.092	2.9
293.469	2.59
293.845	2.7
294.222	2.8
294.599	2.75
294.975	2.59
295.352	3.88
295.728	2.61
296.105	3.24
296.481	3.48
296.858	2.92
297.234	2.78
297.61	2.98
297.986	3.03
298.363	3.19
298.739	3.18
299.115	2.7
299.491	2.97
299.867	2.98
300.243	3.2
300.619	2.56
300.995	3.04
301.371	3.66
301.746	2.78
302.122	3.4
302.498	2.81
302.874	3.58
303.249	3.46
303.625	3.6
304	4
304.376	3.44
304.751	2.62
305.127	3.92
305.502	2.98
305.878	2.87
306.253	3.15
306.628	3.7
307.003	3.01
307.378	3.79
307.754	3.69
308.129	3.02
308.504	3.57
308.879	3.4
309.254	4.04
309.629	4.47
310.003	4.09
310.378	4.36
310.753	3.91
311.128	3.69
311.502	4.01
311.877	4.57
312.252	3.37
312.626	3.9
313.001	3.68
313.375	4.21
313.75	3.9
314.124	4.15
314.498	4.1
314.873	3.49
315.247	4.13
315.621	4.54
315.995	3.95
316.369	4.22
316.743	4.35
317.117	4.33
317.491	4.87
317.865	4.24
318.239	4.07
318.613	4.05
318.987	5.02
319.361	3.98
319.734	5.09
320.108	4.94
320.482	4.13
320.855	4.86
321.229	4.7
321.602	4.45
321.976	4.37
322.349	4.98
322.723	4.61
323.096	4.86
323.469	4.46
323.843	4.8
324.216	5.21
324.589	5.03
324.962	5.14
325.335	5.33
325.708	4.86
326.081	4.53
326.454	4.96
326.827	5.1
327.2	5.36
327.573	5.67
327.945	5.11
328.318	4.69
328.691	4.77
329.063	4.35
329.436	5
329.809	5.74
330.181	5.11
330.553	4.95
330.926	5.06
331.298	5.58
331.671	5.2
332.043	5.31
332.415	5.69
332.787	5.2
333.159	5.61
333.532	5.6
333.904	5.53
334.276	6.11
334.648	5.62
335.02	5.21
335.391	5.33
335.763	5.1
336.135	5.47
336.507	5.49
336.879	5.6
337.25	5.26
337.622	5.21
337.993	5.34
338.365	5.29
338.736	5.65
339.108	6.18
339.479	5.39
339.851	5.94
340.222	5.77
340.593	6.11
340.964	5.75
341.336	6.71
341.707	5.69
342.078	6.17
342.449	6.09
342.82	5.77
343.191	6.43
343.562	5.97
343.933	5.89
344.303	6.1
344.674	6.17
345.045	6.44
345.416	6.5
345.786	5.61
346.157	6.17
346.527	5.84
346.898	5.68
347.268	6.61
347.639	6
348.009	6.71
348.38	5.9
348.75	6.26
349.12	5.98
349.49	6.67
349.861	6.57
350.231	6.32
350.601	6.25
350.971	6.62
351.341	6.88
351.711	6.43
352.081	6.65
352.45	6.31
352.82	6.87
353.19	6.79
353.56	6.59
353.929	6.58
354.299	6.27
354.669	6.3
355.038	6.82
355.408	6.97
355.777	7.1
356.147	6.88
356.516	6.71
356.885	6.9
357.254	7
357.624	7.14
357.993	7.05
358.362	6.73
358.731	7.03
359.1	6.86
359.469	6.87
359.838	7.5
360.207	6.76
360.576	7.11
360.945	7.15
361.314	7.33
361.682	7.2
362.051	7.22
362.42	7.32
362.788	7.28
363.157	7.45
363.525	7.45
363.894	7.37
364.262	7.41
364.631	7.3
364.999	7.44
365.367	6.84
365.735	8.1
366.104	7.56
366.472	7.52
366.84	7.36
367.208	7.21
367.576	7.3
367.944	7.87
368.312	7.45
368.68	7.61
369.048	7.74
369.416	7.61
369.783	7.44
370.151	7.72
370.519	7.68
370.886	7.88
371.254	7.68
371.621	8.28
371.989	8.19
372.356	7.57
372.724	8.02
373.091	7.82
373.458	7.67
373.826	7.86
374.193	8.04
374.56	8.22
374.927	8.37
375.294	8.05
375.661	7.75
376.028	8.08
376.395	8.1
376.762	8.17
377.129	8.21
377.496	7.99
377.863	8.42
378.229	7.87
378.596	8.25
378.963	8.28
379.329	7.92
379.696	8.16
380.062	8.09
380.429	8.21
380.795	8.21
381.161	8.14
381.528	8.58
381.894	8.53
382.26	8.55
382.626	8.57
382.993	8.31
383.359	8.65
383.725	8.31
384.091	8.54
384.457	8.8
384.823	8.57
385.188	8.9
385.554	8.68
385.92	8.88
386.286	8.81
386.651	8.73
387.017	9.13
387.383	8.62
387.748	8.88
388.114	8.78
388.479	8.95
388.845	8.95
389.21	9.12
389.575	9.01
389.94	9.09
390.306	9.18
390.671	9.47
391.036	8.76
391.401	8.89
391.766	8.77
392.131	8.89
392.496	9.28
392.861	9.36
393.226	9.52
393.591	9.4
393.956	9.24
394.32	9.47
394.685	9.13
395.05	9.27
395.414	9.23
395.779	9.23
396.143	9.34
396.508	9.49
396.872	9.34
397.236	9.78
397.601	8.98
397.965	9.51
398.329	9.45
398.694	9.55
399.058	9.49
399.422	9.46
399.786	9.82
400.15	9.79
400.514	9.71
400.878	9.84
401.242	10.1
401.605	9.68
401.969	9.87
402.333	9.8
402.697	9.74
403.06	9.85
403.424	9.89
403.787	9.95
404.151	10.1
404.514	10
404.878	9.79
405.241	10.07
405.604	9.88
405.968	9.83
406.331	10.06
406.694	10.07
407.057	10.03
407.42	10.32
407.783	10.13
408.146	10.1
408.509	10.07
408.872	10.01
409.235	10.19
409.598	10.39
409.961	10.25
410.323	10.61
410.686	10.28
411.049	10.23
411.411	10.4
411.774	10.58
412.136	10.47
412.499	10.04
412.861	10.36
413.223	10.41
413.586	10.55
413.948	10.66
414.31	10.24
414.672	10.38
415.035	10.24
415.397	10.74
415.759	10.78
416.121	10.83
416.483	10.69
416.845	10.65
417.206	10.43
417.568	10.79
417.93	10.57
418.292	10.5
418.653	10.79
419.015	10.74
419.377	10.72
419.738	10.81
420.1	10.65
420.461	10.74
420.822	10.81
421.184	10.88
421.545	10.85
421.906	10.72
422.267	10.9
422.629	10.84
422.99	10.8
423.351	10.85
423.712	10.79
424.073	10.77
424.434	10.83
424.795	10.93
425.155	11.09
425.516	10.94
425.877	11.02
426.238	11.04
426.598	11.11
426.959	11.01
427.32	10.91
427.68	11
428.041	11.08
428.401	11.08
428.761	11.4
429.122	11.3
429.482	11.06
429.842	11.57
430.202	11.33
430.563	11.42
430.923	11.44
431.283	11.7
431.643	11.56
432.003	11.56
432.363	11.58
432.722	11.51
433.082	11.37
433.442	11.85
433.802	11.58
434.161	11.6
434.521	11.83
434.881	11.87
435.24	11.54
435.6	11.69
435.959	11.82
436.319	11.72
436.678	11.7
437.037	11.85
437.396	11.87
437.756	11.88
438.115	11.66
438.474	12.03
438.833	11.92
439.192	11.97
439.551	12.1
439.91	12.04
440.269	12.09
440.628	12.17
440.987	12.05
441.345	11.99
441.704	12.05
442.063	11.92
442.421	12.21
442.78	11.94
443.138	11.95
443.497	11.93
443.855	12.15
444.214	12.22
444.572	12.56
444.93	12.18
445.288	12.37
445.647	12.55
446.005	12.46
446.363	12.51
446.721	12.5
447.079	12.24
447.437	12.27
447.795	12.24
448.153	12.23
448.51	12.34
448.868	12.4
449.226	12.31
449.584	12.37
449.941	12.51
450.299	12.51
450.656	12.52
451.014	12.49
451.371	12.56
451.729	12.5
452.086	12.85
452.443	12.62
452.801	12.89
453.158	12.98
453.515	12.74
453.872	12.9
454.229	12.85
454.586	12.78
454.943	12.81
455.3	12.92
455.657	12.88
456.014	12.98
456.371	13.01
456.727	13.15
457.084	13.31
457.441	13.15
457.797	13.15
458.154	13.2
458.51	13.33
458.867	13.37
459.223	13.17
459.58	13.53
459.936	13.44
460.292	13.35
460.648	13.34
461.005	13.22
461.361	13.32
461.717	13.26
462.073	12.99
462.429	13.14
462.785	13.17
463.141	13.28
463.496	13.41
463.852	13.55
464.208	13.57
464.564	13.77
464.919	13.7
465.275	13.52
465.631	13.61
465.986	13.7
466.342	13.77
466.697	13.67
467.052	13.83
467.408	13.92
467.763	13.85
468.118	13.82
468.473	13.98
468.829	14.03
469.184	13.85
469.539	14
469.894	13.9
470.249	13.96
470.603	14.08
470.958	13.98
471.313	14.02
471.668	14.19
472.023	14.09
472.377	14.14
472.732	13.98
473.086	14.24
473.441	13.94
473.795	14.39
474.15	14.41
474.504	14.25
474.859	14.32
475.213	14.37
475.567	14.12
475.921	14.27
476.275	14.33
476.63	14.55
476.984	14.59
477.338	14.28
477.692	14.34
478.045	14.59
478.399	14.53
478.753	14.71
479.107	14.57
479.461	14.69
479.814	14.58
480.168	14.59
480.521	14.64
480.875	14.7
481.228	14.8
481.582	14.68
481.935	14.75
482.289	14.77
482.642	14.69
482.995	14.75
483.348	14.7
483.701	14.79
484.055	14.77
484.408	14.85
484.761	14.7
485.114	14.55
485.466	14.28
485.819	14.18
486.172	14.13
486.525	14.15
486.878	14.19
487.23	14.44
487.583	14.55
487.936	14.66
488.288	14.78
488.641	14.77
488.993	14.65
489.345	14.6
489.698	14.52
490.05	14.49
490.402	14.53
490.754	14.72
491.107	14.9
491.459	14.89
491.811	14.99
492.163	15.15
492.515	15.04
492.866	15.2
493.218	15.14
493.57	14.89
493.922	14.87
494.274	14.95
494.625	15.04
494.977	15.18
495.328	15.34
495.68	15.5
496.031	15.68
496.383	15.52
496.734	15.82
497.086	15.71
497.437	15.86
497.788	15.71
498.139	15.58
498.49	15.86
498.842	15.76
499.193	15.64
499.544	15.86
499.894	15.85
500.245	15.88
500.596	15.8
500.947	15.94
501.298	15.94
501.648	16.05
501.999	16.11
502.35	15.96
502.7	16.14
503.051	16.08
503.401	16.21
503.752	16.25
504.102	16.16
504.452	16.35
504.803	16.23
505.153	16.32
505.503	16.35
505.853	16.46
506.203	16.4
506.553	16.41
506.903	16.27
507.253	16.45
507.603	16.51
507.953	16.51
508.303	16.63
508.652	16.54
509.002	16.53
509.352	16.53
509.701	16.72
510.051	16.74
510.4	16.75
510.75	16.67
511.099	16.85
511.449	16.56
511.798	16.49
512.147	16.71
512.496	16.52
512.846	16.83
513.195	16.73
513.544	16.68
513.893	16.85
514.242	16.77
514.591	16.93
514.939	16.99
515.288	16.96
515.637	16.93
515.986	16.97
516.334	16.95
516.683	17.17
517.032	17.17
517.38	17.2
517.729	17.05
518.077	17.26
518.426	17.3
518.774	17.29
519.122	17.2
519.47	17.25
519.819	17.12
520.167	17.21
520.515	17.1
520.863	17.14
521.211	17.16
521.559	17.31
521.907	17.21
522.255	17.27
522.602	17.32
522.95	17.39
523.298	17.47
523.645	17.52
523.993	17.51
524.341	17.69
524.688	17.71
525.036	17.64
525.383	17.65
525.73	17.88
526.078	17.87
526.425	17.62
526.772	17.65
527.119	17.7
527.466	17.59
527.814	17.6
528.161	17.53
528.508	17.62
528.854	17.54
529.201	17.46
529.548	17.58
529.895	17.54
530.242	17.29
530.588	17.19
530.935	17.25
531.282	17.17
531.628	17.24
531.975	17.34
532.321	17.56
532.667	17.59
533.014	17.82
533.36	17.89
533.706	17.88
534.052	17.93
534.399	17.92
534.745	17.89
535.091	17.86
535.437	17.79
535.783	17.76
536.129	17.79
536.474	17.91
536.82	17.96
537.166	18.19
537.512	18.26
537.857	18.29
538.203	18.36
538.549	18.25
538.894	18.24
539.239	18.27
539.585	18.39
539.93	18.35
540.276	18.69
540.621	18.7
540.966	18.6
541.311	18.63
541.656	18.58
542.001	18.69
542.346	18.68
542.691	18.52
543.036	18.31
543.381	18.15
543.726	18.2
544.071	18.31
544.415	18.29
544.76	18.39
545.105	18.52
545.449	18.6
545.794	18.62
546.138	18.8
546.483	18.84
546.827	18.94
547.171	18.91
547.516	19.24
547.86	19.04
548.204	19.09
548.548	18.99
548.892	19.31
549.236	19.14
549.58	19.04
549.924	19.17
550.268	19.42
550.612	19.27
550.956	19.57
551.3	19.52
551.643	19.53
551.987	19.63
552.33	19.71
552.674	19.82
553.017	19.71
553.361	19.73
553.704	19.95
554.048	19.69
554.391	19.8
554.734	19.73
555.077	19.63
555.42	19.62
555.764	19.62
556.107	19.7
556.45	19.58
556.793	19.76
557.135	19.89
557.478	20.31
557.821	20.12
558.164	20.1
558.507	20.11
558.849	20.02
559.192	20.25
559.534	20.28
559.877	20.19
560.219	20.22
560.562	20.44
560.904	20.23
561.246	20.42
561.589	20.21
561.931	20.32
562.273	20.5
562.615	20.37
562.957	20.55
563.299	20.3
563.641	20.46
563.983	20.6
564.325	20.4
564.667	20.4
565.008	20.5
565.35	20.62
565.692	20.36
566.033	20.53
566.375	20.82
566.716	20.86
567.058	20.83
567.399	20.52
567.741	20.48
568.082	20.66
568.423	20.57
568.764	20.52
569.105	20.49
569.447	20.69
569.788	20.63
570.129	20.71
570.47	20.76
570.811	20.88
571.151	20.9
571.492	20.96
571.833	20.9
572.174	21.02
572.514	20.73
572.855	20.96
573.195	20.84
573.536	20.93
573.876	20.68
574.217	21.02
574.557	21.21
574.898	21.2
575.238	21.06
575.578	20.69
575.918	21.28
576.258	21.33
576.598	21.21
576.938	21.11
577.278	21.3
577.618	21.31
577.958	21.1
578.298	21.27
578.638	21.03
578.977	21.39
579.317	21.39
579.657	21.32
579.996	21.63
580.336	21.64
580.675	21.72
581.014	21.68
581.354	21.72
581.693	21.72
582.032	21.41
582.372	21.7
582.711	21.71
583.05	21.44
583.389	21.92
583.728	21.91
584.067	22.11
584.406	21.97
584.745	21.81
585.083	22.32
585.422	22
585.761	22.23
586.1	22.1
586.438	21.93
586.777	22.09
587.115	22.36
587.454	22.23
587.792	22.21
588.13	22.75
588.469	22.07
588.807	22.39
589.145	21.92
589.483	22.13
589.821	22.21
590.159	22.13
590.497	22.43
590.835	22.5
591.173	22.25
591.511	22.42
591.849	22.13
592.187	22.52
592.524	22.42
592.862	22.5
593.2	22.71
593.537	22.64
593.875	22.37
594.212	22.36
594.55	22.64
594.887	22.63
595.224	22.8
595.561	22.6
595.899	22.54
596.236	22.76
596.573	22.68
596.91	22.47
597.247	22.63
597.584	22.75
597.921	22.61
598.258	22.75
598.594	22.71
598.931	22.88
599.268	22.86
599.604	22.67
599.941	22.78
600.277	22.59
600.614	22.72
600.95	22.69
601.287	23.04
601.623	22.96
601.959	22.83
602.296	22.99
602.632	23.28
602.968	23.36
603.304	23.07
603.64	23.35
603.976	23.25
604.312	23.04
604.648	22.94
604.984	23.31
605.319	23.25
605.655	23.28
605.991	23.23
606.326	23
606.662	23.13
606.998	23.12
607.333	23.16
607.668	23.32
608.004	23.31
608.339	23.32
608.674	23.46
609.01	23.59
609.345	23.23
609.68	23.43
610.015	23.21
610.35	23.77
610.685	23.49
611.02	23.81
611.355	23.75
611.689	23.57
612.024	23.6
612.359	23.33
612.694	23.48
613.028	23.49
613.363	24.02
613.697	23.88
614.032	24.15
614.366	23.99
614.7	23.85
615.035	23.72
615.369	24.03
615.703	23.76
616.037	23.78
616.371	23.66
616.705	23.89
617.039	23.82
617.373	23.87
617.707	24.01
618.041	23.8
618.375	24.62
618.709	24.13
619.042	24.31
619.376	24.27
619.71	24.65
620.043	24.44
620.377	24.68
620.71	24.06
621.043	24.43
621.377	24.31
621.71	24.53
622.043	24.18
622.376	24.61
622.709	24.25
623.043	24.36
623.376	24.41
623.709	24.42
624.041	25.2
624.374	24.54
624.707	24.83
625.04	24.77
625.373	24.15
625.705	24.17
626.038	24.79
626.37	24.45
626.703	24.39
627.035	25.1
627.368	25.13
627.7	24.77
628.032	24.64
628.365	24.9
628.697	24.5
629.029	24.54
629.361	24.66
629.693	24.62
630.025	24.62
630.357	25.14
630.689	24.92
631.021	24.85
631.353	25.22
631.684	25.2
632.016	24.95
632.348	24.85
632.679	25.42
633.011	25.43
633.342	25.28
633.674	25.48
634.005	25.21
634.336	25.1
634.668	25.98
634.999	25.66
635.33	25.63
635.661	25.2
635.992	25.18
636.323	25
636.654	25
636.985	25.38
637.316	25.44
637.647	25.15
637.977	25.3
638.308	25.7
638.639	25.32
638.969	25.04
639.3	25.56
639.63	25.35
639.961	25.68
640.291	25.32
640.622	25.56
640.952	25.48
641.282	26.18
641.612	25.55
641.943	25.78
642.273	25.85
642.603	26.51
642.933	25.21
643.263	25.68
643.592	25.6
643.922	25.6
644.252	25.88
644.582	26.24
644.911	25.54
645.241	25.62
645.571	25.74
645.9	25.39
646.23	26.12
646.559	26.07
646.888	26.2
647.218	26.19
647.547	26.1
647.876	25.52
648.205	26.39
648.534	25.94
648.863	25.69
649.192	26.29
649.521	25.7
649.85	26.12
650.179	26.23
650.508	25.9
650.837	25.99
651.165	25.93
651.494	26.24
651.822	26.32
652.151	26.45
652.479	26.67
652.808	25.69
653.136	26.18
653.465	25.55
653.793	26
654.121	26.25
654.449	26.46
654.777	26.13
655.105	26.86
655.433	25.9
655.761	25.91
656.089	26.65
656.417	27.01
656.745	26.38
657.073	26.72
657.4	26.93
657.728	26.06
658.056	26.77
658.383	26.64
658.711	26.72
659.038	27.16
659.365	27.03
659.693	27.23
660.02	26.39
660.347	26.68
660.674	26.69
661.001	26.85
661.329	26.4
661.656	27
661.982	27.16
662.309	26.66
662.636	26.84
662.963	26.81
663.29	26.82
663.616	27.32
663.943	26.74
664.27	26.66
664.596	26.89
664.923	27.22
665.249	27.72
665.576	27.02
665.902	27.28
666.228	26.52
666.554	27.06
666.881	26.68
667.207	26.66
667.533	27.21
667.859	27.48
668.185	27.23
668.511	26.6
668.837	26
669.162	27.89
669.488	26.92
669.814	26.68
670.139	27.47
670.465	27.25
670.791	27.44
671.116	27.55
671.442	27.89
671.767	27.57
672.092	27.58
672.418	27.54
672.743	27.32
673.068	27.32
673.393	27.88
673.718	27.49
674.043	27.83
674.368	27.32
