Data from 0191_crown_Reflection__4__418.txt Node

Date: Fri Dec 15 20:27:32 CST 2023
User: ToomeyLab
Spectrometer: FLMS14357
Trigger mode: 0
Integration Time (sec): 1.000000E-2
Scans to average: 100
Electric dark correction enabled: true
Nonlinearity correction enabled: false
Boxcar width: 0
XAxis mode: Wavelengths
Number of Pixels in Spectrum: 2048
>>>>>Begin Spectral Data<<<<<
189.047	40.66
189.435	40.66
189.823	40.66
190.211	-2755.86
190.599	-69.32
190.987	228.53
191.375	-154.09
191.763	-64.73
192.151	-81.56
192.538	109.31
192.926	168.11
193.314	65.47
193.702	245.28
194.089	-324.82
194.477	825.95
194.864	-1235.43
195.252	85.52
195.639	79.83
196.027	-71.1
196.414	37.58
196.801	118.59
197.189	88.52
197.576	43.18
197.963	-44.59
198.351	-48.14
198.738	-17.21
199.125	32.23
199.512	-39.93
199.899	14.21
200.286	5.82
200.673	10.05
201.06	90.95
201.447	54.66
201.833	24.03
202.22	29.39
202.607	28.85
202.994	-9.9
203.38	1.25
203.767	10.33
204.154	10.44
204.54	38.11
204.927	-59.66
205.313	-84.19
205.699	0.74
206.086	37.82
206.472	17.93
206.858	7.09
207.245	-33.05
207.631	32.39
208.017	11.14
208.403	5.19
208.789	32.8
209.175	17.1
209.561	-3.7
209.947	-49.15
210.333	-149.31
210.719	-8.52
211.105	12.76
211.491	-21.71
211.876	15.32
212.262	-20.26
212.648	9.55
213.034	34.81
213.419	-24.03
213.805	51.44
214.19	-27.8
214.576	7.77
214.961	-18.97
215.346	-87.55
215.732	18.74
216.117	15.05
216.502	17.65
216.888	32.62
217.273	30.1
217.658	-13.47
218.043	15.57
218.428	-49.86
218.813	4.26
219.198	-108.19
219.583	-18.42
219.968	-3.73
220.353	-22.6
220.738	14.14
221.122	0.66
221.507	0.02
221.892	-36.83
222.276	-21.24
222.661	-3.2
223.046	2.26
223.43	12.95
223.815	-1.21
224.199	-11.13
224.583	4.33
224.968	5.11
225.352	13.22
225.736	-2.77
226.121	-5.39
226.505	-1.38
226.889	6.66
227.273	-0.17
227.657	7.06
228.041	0.1
228.425	1.39
228.809	7.92
229.193	5.54
229.577	2.31
229.961	3.18
230.344	2.56
230.728	1.59
231.112	2.8
231.495	2.23
231.879	1.41
232.263	2.96
232.646	3.66
233.03	2.76
233.413	1.69
233.797	0.07
234.18	3.04
234.563	2.89
234.946	1.62
235.33	2.06
235.713	1.57
236.096	4.55
236.479	3.93
236.862	2.02
237.245	2.9
237.628	1.48
238.011	4.38
238.394	3.87
238.777	4.44
239.16	0.95
239.543	1.16
239.925	2.47
240.308	1.76
240.691	2.44
241.073	1.41
241.456	2.96
241.838	0.86
242.221	2.02
242.603	3.35
242.986	2.61
243.368	3.15
243.75	2.84
244.133	2.53
244.515	3.36
244.897	3.07
245.279	2.39
245.661	2.18
246.043	1.57
246.425	1.22
246.807	3.8
247.189	3.49
247.571	2.01
247.953	2.71
248.335	2.58
248.717	2.63
249.098	2.61
249.48	2.88
249.862	2.64
250.243	2.6
250.625	3.01
251.006	3.09
251.388	1.51
251.769	3.03
252.151	3.76
252.532	1.13
252.913	2.87
253.295	2.03
253.676	2.79
254.057	2.56
254.438	2.42
254.819	2.77
255.2	2.26
255.581	2.26
255.962	1.72
256.343	2.1
256.724	2.6
257.105	2.27
257.486	2.38
257.867	3.77
258.247	2.49
258.628	1.46
259.009	2.75
259.389	2.78
259.77	1.6
260.15	1.65
260.531	1.6
260.911	2.82
261.292	2.68
261.672	2.56
262.052	2.47
262.432	2.91
262.813	2.46
263.193	2.59
263.573	2.44
263.953	2.28
264.333	3.02
264.713	2.02
265.093	1.71
265.473	2.2
265.853	1.43
266.233	3.32
266.612	0.62
266.992	0.94
267.372	3.12
267.752	2.45
268.131	2.52
268.511	2.78
268.89	2.92
269.27	2.33
269.649	2.2
270.029	2.32
270.408	3.3
270.787	2.39
271.167	2.84
271.546	2.75
271.925	1.75
272.304	2.15
272.683	2.44
273.062	2.6
273.441	2.26
273.82	1.86
274.199	2.21
274.578	2.7
274.957	2.4
275.336	2.23
275.715	2.16
276.093	1.78
276.472	2.14
276.851	1.65
277.229	1.72
277.608	1.92
277.986	2.03
278.365	2.29
278.743	2.02
279.122	2.18
279.5	2.13
279.878	2.93
280.257	2.12
280.635	2.02
281.013	2.25
281.391	3.13
281.769	2.31
282.147	2.35
282.525	2.7
282.903	1.81
283.281	2.39
283.659	2.36
284.037	2.54
284.415	2.42
284.792	2.63
285.17	1.59
285.548	2.15
285.925	2.13
286.303	2.9
286.68	2.08
287.058	2.35
287.435	2.04
287.813	2.28
288.19	2.22
288.567	2.73
288.945	2.59
289.322	2.52
289.699	2.24
290.076	2.62
290.453	2.71
290.83	1.99
291.207	2.08
291.584	2.28
291.961	2.61
292.338	2.5
292.715	2.64
293.092	2.68
293.469	2.45
293.845	2.82
294.222	1.84
294.599	2.52
294.975	2.03
295.352	3.11
295.728	1.77
296.105	2.12
296.481	2.66
296.858	2.45
297.234	2.51
297.61	1.89
297.986	2.47
298.363	2.91
298.739	2.93
299.115	2.31
299.491	2.38
299.867	2.27
300.243	2.5
300.619	2.11
300.995	2.69
301.371	3.04
301.746	2.29
302.122	3.65
302.498	2.85
302.874	2.99
303.249	2.7
303.625	2.72
304	2.85
304.376	3.15
304.751	2.25
305.127	3.67
305.502	2.11
305.878	2.33
306.253	2.85
306.628	3.14
307.003	2.91
307.378	3.35
307.754	2.59
308.129	2.19
308.504	2.19
308.879	2.42
309.254	3.68
309.629	3.36
310.003	2.91
310.378	2.82
310.753	2.38
311.128	2.58
311.502	3.02
311.877	3.22
312.252	2.62
312.626	2.76
313.001	2.76
313.375	2.9
313.75	2.51
314.124	2.93
314.498	2.88
314.873	2.58
315.247	2.59
315.621	2.54
315.995	1.96
316.369	2.49
316.743	2.88
317.117	3.37
317.491	3.41
317.865	3.09
318.239	3.08
318.613	1.87
318.987	2.93
319.361	2.84
319.734	2.91
320.108	2.45
320.482	2.36
320.855	3.39
321.229	2.76
321.602	3.17
321.976	3.3
322.349	3.19
322.723	3
323.096	3.49
323.469	1.9
323.843	2.74
324.216	2.83
324.589	2.38
324.962	3.28
325.335	2.9
325.708	2.51
326.081	2.43
326.454	3.25
326.827	2.9
327.2	2.61
327.573	2.9
327.945	2.92
328.318	2.27
328.691	2.61
329.063	2.57
329.436	2.99
329.809	3.47
330.181	2.65
330.553	2.65
330.926	3.4
331.298	3.24
331.671	2.81
332.043	3.59
332.415	3.27
332.787	3.13
333.159	3.79
333.532	3.03
333.904	2.87
334.276	2.99
334.648	2.86
335.02	3.27
335.391	3.09
335.763	3.07
336.135	3.19
336.507	3.2
336.879	2.97
337.25	2.64
337.622	2.97
337.993	2.93
338.365	3.06
338.736	3.18
339.108	3.06
339.479	3.01
339.851	2.92
340.222	3.14
340.593	2.98
340.964	2.62
341.336	3.83
341.707	2.53
342.078	3.35
342.449	3.39
342.82	2.69
343.191	2.95
343.562	2.65
343.933	3.34
344.303	2.73
344.674	3.28
345.045	2.43
345.416	2.99
345.786	2.41
346.157	3.3
346.527	2.58
346.898	3.1
347.268	2.86
347.639	3.04
348.009	2.71
348.38	2.55
348.75	3.04
349.12	2.8
349.49	3.49
349.861	3.35
350.231	2.8
350.601	3.29
350.971	3.22
351.341	2.9
351.711	2.92
352.081	3.03
352.45	2.96
352.82	3.01
353.19	3
353.56	3.12
353.929	3.33
354.299	2.77
354.669	2.77
355.038	3.17
355.408	2.93
355.777	2.94
356.147	3.3
356.516	3.2
356.885	3.07
357.254	2.9
357.624	3.27
357.993	3.22
358.362	2.77
358.731	2.61
359.1	2.89
359.469	3.08
359.838	3.19
360.207	2.93
360.576	3.02
360.945	3.16
361.314	3.32
361.682	2.82
362.051	2.67
362.42	3.38
362.788	3.04
363.157	3.27
363.525	3.14
363.894	3.14
364.262	3.15
364.631	2.8
364.999	2.86
365.367	2.83
365.735	3.64
366.104	3.25
366.472	2.92
366.84	2.95
367.208	2.87
367.576	3.45
367.944	3.45
368.312	2.78
368.68	2.92
369.048	3.03
369.416	3.33
369.783	3.18
370.151	2.79
370.519	3.39
370.886	3.45
371.254	3.29
371.621	3.21
371.989	3.39
372.356	3.29
372.724	3.05
373.091	2.88
373.458	2.78
373.826	3.16
374.193	2.99
374.56	3.37
374.927	3.29
375.294	3.15
375.661	3.07
376.028	2.79
376.395	2.94
376.762	3.21
377.129	3.24
377.496	2.8
377.863	3.29
378.229	2.87
378.596	2.95
378.963	2.96
379.329	2.97
379.696	3.38
380.062	3.26
380.429	3.06
380.795	3.2
381.161	3.38
381.528	3.36
381.894	3.25
382.26	3.22
382.626	3.31
382.993	2.88
383.359	3.8
383.725	3.04
384.091	3.01
384.457	3.31
384.823	3.11
385.188	3.11
385.554	3.05
385.92	3.68
386.286	3.63
386.651	3.54
387.017	3.49
387.383	3.46
387.748	3.11
388.114	3.21
388.479	3.16
388.845	3.53
389.21	3.48
389.575	3.32
389.94	3.24
390.306	3.16
390.671	3.26
391.036	2.93
391.401	2.8
391.766	3.12
392.131	3
392.496	3.21
392.861	3.26
393.226	3.49
393.591	3.29
393.956	3.29
394.32	3.18
394.685	3.04
395.05	3.13
395.414	3.42
395.779	3.17
396.143	3.49
396.508	3.32
396.872	3.53
397.236	3.44
397.601	3.23
397.965	3.42
398.329	3.34
398.694	3.43
399.058	3.44
399.422	3.15
399.786	3.54
400.15	3.54
400.514	3.54
400.878	3.5
401.242	3.59
401.605	3.41
401.969	3.21
402.333	3.43
402.697	3.25
403.06	3.34
403.424	3.61
403.787	3.18
404.151	3.33
404.514	3.39
404.878	3.28
405.241	3.56
405.604	3.55
405.968	3.47
406.331	3.3
406.694	3.55
407.057	3.39
407.42	3.39
407.783	3.32
408.146	3.33
408.509	3.45
408.872	3.35
409.235	3.44
409.598	3.51
409.961	3.23
410.323	3.6
410.686	3.39
411.049	3.16
411.411	3.3
411.774	3.4
412.136	3.3
412.499	3.3
412.861	3.29
413.223	2.98
413.586	3.63
413.948	3.4
414.31	3.28
414.672	3.31
415.035	3.27
415.397	3.71
415.759	3.08
416.121	3.49
416.483	3.34
416.845	3.36
417.206	3.4
417.568	3.55
417.93	3.14
418.292	3.5
418.653	3.6
419.015	3.41
419.377	3.35
419.738	3.38
420.1	3.25
420.461	3.42
420.822	3.47
421.184	3.34
421.545	3.43
421.906	3.29
422.267	3.31
422.629	3.4
422.99	3.45
423.351	3.34
423.712	3.43
424.073	3.37
424.434	3.25
424.795	3.51
425.155	3.34
425.516	3.37
425.877	3.35
426.238	3.27
426.598	3.52
426.959	3.44
427.32	3.49
427.68	3.38
428.041	3.38
428.401	3.62
428.761	3.61
429.122	3.55
429.482	3.31
429.842	3.6
430.202	3.58
430.563	3.44
430.923	3.61
431.283	3.7
431.643	3.46
432.003	3.64
432.363	3.62
432.722	3.26
433.082	3.56
433.442	3.43
433.802	3.51
434.161	3.48
434.521	3.57
434.881	3.58
435.24	3.29
435.6	3.41
435.959	3.42
436.319	3.49
436.678	3.45
437.037	3.47
437.396	3.54
437.756	3.54
438.115	3.47
438.474	3.67
438.833	3.49
439.192	3.47
439.551	3.66
439.91	3.52
440.269	3.53
440.628	3.46
440.987	3.72
441.345	3.42
441.704	3.51
442.063	3.4
442.421	3.44
442.78	3.46
443.138	3.46
443.497	3.5
443.855	3.52
444.214	3.48
444.572	3.59
444.93	3.65
445.288	3.48
445.647	3.72
446.005	3.45
446.363	3.56
446.721	3.5
447.079	3.37
447.437	3.51
447.795	3.54
448.153	3.39
448.51	3.45
448.868	3.51
449.226	3.42
449.584	3.51
449.941	3.7
450.299	3.55
450.656	3.67
451.014	3.55
451.371	3.44
451.729	3.48
452.086	3.73
452.443	3.48
452.801	3.53
453.158	3.57
453.515	3.55
453.872	3.68
454.229	3.5
454.586	3.45
454.943	3.7
455.3	3.72
455.657	3.68
456.014	3.54
456.371	3.47
456.727	3.68
457.084	3.62
457.441	3.63
457.797	3.65
458.154	3.86
458.51	3.72
458.867	3.76
459.223	3.81
459.58	3.64
459.936	3.56
460.292	3.6
460.648	3.67
461.005	3.51
461.361	3.53
461.717	3.52
462.073	3.38
462.429	3.59
462.785	3.65
463.141	3.68
463.496	3.62
463.852	3.8
464.208	3.59
464.564	3.65
464.919	3.71
465.275	3.66
465.631	3.83
465.986	3.6
466.342	3.64
466.697	3.46
467.052	3.83
467.408	3.75
467.763	3.62
468.118	3.68
468.473	3.63
468.829	3.71
469.184	3.51
469.539	3.67
469.894	3.69
470.249	3.67
470.603	3.8
470.958	3.83
471.313	3.83
471.668	3.79
472.023	3.67
472.377	3.44
472.732	3.66
473.086	3.68
473.441	3.66
473.795	3.92
474.15	3.64
474.504	3.76
474.859	3.85
475.213	3.59
475.567	3.72
475.921	3.6
476.275	3.72
476.63	3.64
476.984	3.81
477.338	3.74
477.692	3.65
478.045	3.52
478.399	3.8
478.753	3.86
479.107	3.75
479.461	3.67
479.814	3.79
480.168	3.77
480.521	3.66
480.875	3.67
481.228	3.81
481.582	3.8
481.935	3.64
482.289	3.66
482.642	3.73
482.995	3.65
483.348	3.62
483.701	3.56
484.055	3.67
484.408	3.72
484.761	3.66
485.114	3.52
485.466	3.37
485.819	3.37
486.172	3.46
486.525	3.54
486.878	3.61
487.23	3.62
487.583	3.77
487.936	3.66
488.288	3.68
488.641	3.55
488.993	3.5
489.345	3.47
489.698	3.55
490.05	3.55
490.402	3.63
490.754	3.7
491.107	3.73
491.459	3.72
491.811	3.73
492.163	3.66
492.515	3.71
492.866	3.71
493.218	3.59
493.57	3.5
493.922	3.55
494.274	3.76
494.625	3.8
494.977	3.91
495.328	3.81
495.68	3.84
496.031	3.89
496.383	3.81
496.734	3.96
497.086	3.92
497.437	3.84
497.788	3.72
498.139	3.69
498.49	3.82
498.842	3.7
499.193	3.78
499.544	3.79
499.894	3.79
500.245	3.79
500.596	3.78
500.947	3.87
501.298	3.82
501.648	3.89
501.999	4.03
502.35	3.88
502.7	4.03
503.051	3.8
503.401	3.85
503.752	3.81
504.102	3.89
504.452	3.79
504.803	3.76
505.153	3.91
505.503	3.85
505.853	3.91
506.203	3.81
506.553	3.83
506.903	3.75
507.253	3.8
507.603	3.76
507.953	4.02
508.303	3.97
508.652	3.81
509.002	3.84
509.352	4.01
509.701	3.81
510.051	3.8
510.4	3.8
510.75	3.87
511.099	3.86
511.449	3.86
511.798	3.85
512.147	3.87
512.496	3.78
512.846	3.81
513.195	3.86
513.544	3.82
513.893	3.87
514.242	3.77
514.591	4
514.939	3.89
515.288	3.84
515.637	3.93
515.986	3.95
516.334	4
516.683	4.05
517.032	3.89
517.38	3.89
517.729	4.03
518.077	3.69
518.426	3.91
518.774	4.1
519.122	3.76
519.47	3.87
519.819	3.75
520.167	3.88
520.515	3.75
520.863	3.95
521.211	3.82
521.559	4.08
521.907	3.82
522.255	3.89
522.602	3.95
522.95	3.88
523.298	3.94
523.645	4.02
523.993	3.98
524.341	3.95
524.688	3.99
525.036	3.83
525.383	4.04
525.73	4.1
526.078	3.9
526.425	3.88
526.772	3.85
527.119	3.71
527.466	3.79
527.814	3.87
528.161	3.85
528.508	3.9
528.854	3.9
529.201	3.89
529.548	3.78
529.895	3.75
530.242	3.59
530.588	3.61
530.935	3.68
531.282	3.83
531.628	3.82
531.975	3.91
532.321	3.94
532.667	4.06
533.014	3.97
533.36	3.95
533.706	3.94
534.052	3.93
534.399	3.8
534.745	3.75
535.091	3.77
535.437	3.71
535.783	3.82
536.129	3.91
536.474	3.98
536.82	3.97
537.166	4.04
537.512	3.99
537.857	3.91
538.203	4.02
538.549	3.85
538.894	3.79
539.239	4.02
539.585	4
539.93	3.89
540.276	4.19
540.621	4.16
540.966	4.1
541.311	3.96
541.656	3.96
542.001	3.93
542.346	4.04
542.691	3.88
543.036	3.81
543.381	3.7
543.726	3.8
544.071	4
544.415	3.96
544.76	3.98
545.105	4.06
545.449	3.96
545.794	4.07
546.138	3.97
546.483	4.17
546.827	4.09
547.171	3.91
547.516	4.13
547.86	3.97
548.204	4.06
548.548	3.98
548.892	4.03
549.236	3.96
549.58	3.97
549.924	4.09
550.268	4.2
550.612	4.25
550.956	4.32
551.3	4.04
551.643	4.35
551.987	4.25
552.33	4.02
552.674	4.15
553.017	3.98
553.361	4.08
553.704	4.34
554.048	4.04
554.391	3.88
554.734	4.08
555.077	4.08
555.42	4.05
555.764	4.11
556.107	4.07
556.45	3.93
556.793	4.03
557.135	4.15
557.478	4.21
557.821	4.2
558.164	4.22
558.507	4.09
558.849	4
559.192	4.26
559.534	4.11
559.877	4.37
560.219	4.14
560.562	4.43
560.904	4.17
561.246	4.21
561.589	4.18
561.931	4.08
562.273	3.85
562.615	4.12
562.957	4.22
563.299	4.15
563.641	4.15
563.983	4.16
564.325	4.03
564.667	4.22
565.008	4.18
565.35	4.19
565.692	3.81
566.033	3.99
566.375	4.43
566.716	4.3
567.058	4.08
567.399	3.96
567.741	4.02
568.082	4.09
568.423	4.12
568.764	4.2
569.105	4.29
569.447	4.23
569.788	4.12
570.129	4.15
570.47	4.11
570.811	4.39
571.151	4.04
571.492	4.11
571.833	4.26
572.174	4.3
572.514	4.24
572.855	3.98
573.195	4.1
573.536	4.1
573.876	4.17
574.217	4.18
574.557	4.18
574.898	4.26
575.238	4.29
575.578	4.05
575.918	4.38
576.258	4.18
576.598	4.31
576.938	4.26
577.278	4.13
577.618	4.18
577.958	4.39
578.298	4.22
578.638	4.05
578.977	4.3
579.317	4.11
579.657	4.21
579.996	4.3
580.336	4.33
580.675	4.46
581.014	4.48
581.354	4.13
581.693	4.29
582.032	4.26
582.372	4.19
582.711	4.36
583.05	4
583.389	4.44
583.728	3.91
584.067	4.35
584.406	4.33
584.745	4.37
585.083	4.21
585.422	4.24
585.761	4.25
586.1	4.37
586.438	4.42
586.777	4.53
587.115	4.29
587.454	4.15
587.792	4.22
588.13	4.43
588.469	4.22
588.807	4.4
589.145	4.34
589.483	4.07
589.821	4.35
590.159	4.18
590.497	4.23
590.835	4.51
591.173	4.3
591.511	4.52
591.849	4.09
592.187	4.41
592.524	4.2
592.862	4.59
593.2	4.37
593.537	4.14
593.875	4.27
594.212	4.23
594.55	4.39
594.887	4.72
595.224	4.25
595.561	4.4
595.899	4.25
596.236	4.26
596.573	4.39
596.91	3.96
597.247	4.09
597.584	4.35
597.921	4.23
598.258	4.16
598.594	4.29
598.931	4.21
599.268	4.36
599.604	4.41
599.941	4.51
600.277	4.23
600.614	4.42
600.95	4.34
601.287	4.54
601.623	4.29
601.959	4.11
602.296	4.54
602.632	4.17
602.968	4.44
603.304	4.49
603.64	4.63
603.976	4.51
604.312	4.2
604.648	4.28
604.984	4.34
605.319	4.35
605.655	4.41
605.991	4.34
606.326	4.39
606.662	4.33
606.998	4.16
607.333	4.51
607.668	4.36
608.004	4.38
608.339	4.69
608.674	4.62
609.01	4.29
609.345	4.42
609.68	4.69
610.015	4.23
610.35	4.46
610.685	4.48
611.02	4.35
611.355	4.6
611.689	4.34
612.024	4.64
612.359	4.34
612.694	4.45
613.028	4.41
613.363	4.62
613.697	4.77
614.032	4.48
614.366	4.57
614.7	4.54
615.035	4.54
615.369	4.38
615.703	4.53
616.037	4.58
616.371	4.11
616.705	4.22
617.039	4.47
617.373	4.22
617.707	4.45
618.041	4.21
618.375	4.6
618.709	4.39
619.042	4.23
619.376	4.44
619.71	4.66
620.043	5
620.377	4.28
620.71	4.63
621.043	4.81
621.377	4.48
621.71	4.35
622.043	4.18
622.376	4.37
622.709	4.43
623.043	4.32
623.376	4.41
623.709	4.32
624.041	5.16
624.374	4.69
624.707	4.64
625.04	4.62
625.373	3.91
625.705	4.46
626.038	4.36
626.37	4.31
626.703	4.67
627.035	4.45
627.368	4.67
627.7	4.51
628.032	3.82
628.365	4.79
628.697	4.41
629.029	4.35
629.361	4.33
629.693	4.48
630.025	4.61
630.357	4.75
630.689	4.72
631.021	4.33
631.353	4.56
631.684	4.2
632.016	4.57
632.348	5.04
632.679	4.92
633.011	4.95
633.342	4.65
633.674	4.91
634.005	5.05
634.336	4.56
634.668	4.68
634.999	4.63
635.33	4.81
635.661	4.97
635.992	4.69
636.323	4.67
636.654	4.86
636.985	4.65
637.316	4.17
637.647	4.38
637.977	4.68
638.308	4.85
638.639	4.43
638.969	4.41
639.3	4.81
639.63	4.22
639.961	4.82
640.291	4.84
640.622	4.94
640.952	4.73
641.282	5.27
641.612	4.48
641.943	4.39
642.273	4.85
642.603	5.25
642.933	4.58
643.263	5.09
643.592	4.03
643.922	4.56
644.252	4.63
644.582	4.74
644.911	4.09
645.241	4.48
645.571	4.01
645.9	4.25
646.23	4.6
646.559	4.66
646.888	4.36
647.218	4.85
647.547	5.19
647.876	4.74
648.205	4.91
648.534	4.87
648.863	4.4
649.192	4.86
649.521	4.6
649.85	4.6
650.179	4.8
650.508	4.9
650.837	4.47
651.165	4.42
651.494	4.83
651.822	4.88
652.151	4.81
652.479	4.97
652.808	4.23
653.136	4.74
653.465	3.57
653.793	4.05
654.121	4.67
654.449	4.88
654.777	4.57
655.105	5.08
655.433	4.3
655.761	4.64
656.089	4.67
656.417	4.64
656.745	4.7
657.073	4.26
657.4	5.48
657.728	5.03
658.056	4.57
658.383	4.55
658.711	5.02
659.038	5.12
659.365	4.74
659.693	4.85
660.02	4.45
660.347	4.52
660.674	4.69
661.001	4.88
661.329	4.39
661.656	4.75
661.982	4.92
662.309	4.78
662.636	4.64
662.963	5.23
663.29	5.03
663.616	5.2
663.943	4.7
664.27	4.64
664.596	5.12
664.923	4.92
665.249	4.83
665.576	4.51
665.902	5.54
666.228	5.43
666.554	4.95
666.881	5.14
667.207	5.38
667.533	4.47
667.859	5.16
668.185	5.28
668.511	4.31
668.837	3.68
669.162	5.16
669.488	4.2
669.814	4.43
670.139	4.96
670.465	5.11
670.791	4.6
671.116	5.14
671.442	4.5
671.767	5.02
672.092	5.72
672.418	5.52
672.743	4.72
673.068	4.8
673.393	4.7
673.718	5.31
674.043	5.62
674.368	4.87
674.693	5.64
675.018	4.84
675.343	4.96
675.667	4.57
675.992	5.54
676.317	5.38
676.641	4.79
676.966	5.22
677.29	4.78
677.615	5.05
677.939	5.2
678.264	5.72
678.588	5.11
678.912	5.23
679.236	5.95
679.56	4.76
679.885	5.12
680.209	4.59
680.532	5.31
680.856	5.31
681.18	4.54
681.504	4.5
681.828	5.23
682.152	4.92
682.475	5.04
682.799	5.17
683.122	5.39
683.446	5.2
683.769	5.43
684.093	4.94
684.416	5.65
684.739	4.91
685.062	5.04
685.386	6.24
685.709	5.17
686.032	4.83
686.355	5.4
686.678	4.82
687.001	5.18
687.324	5.37
687.646	4.88
687.969	4.57
688.292	5.26
688.614	5.3
688.937	5.92
689.26	5.15
689.582	5.29
689.904	4.84
690.227	5.16
690.549	5.54
690.871	5.2
691.194	4.56
691.516	4.14
691.838	5.09
692.16	4.99
692.482	4.61
