Data from 0191_forehead_Reflection__4__423.txt Node

Date: Fri Dec 15 20:28:42 CST 2023
User: ToomeyLab
Spectrometer: FLMS14357
Trigger mode: 0
Integration Time (sec): 1.000000E-2
Scans to average: 100
Electric dark correction enabled: true
Nonlinearity correction enabled: false
Boxcar width: 0
XAxis mode: Wavelengths
Number of Pixels in Spectrum: 2048
>>>>>Begin Spectral Data<<<<<
189.047	-14.55
189.435	-14.55
189.823	-14.55
190.211	-661.26
190.599	-289.35
190.987	27.04
191.375	-53.49
191.763	-49.66
192.151	13.39
192.538	112.2
192.926	185.01
193.314	105.36
193.702	99.78
194.089	207.27
194.477	929.41
194.864	1335.43
195.252	61.68
195.639	63.69
196.027	81.72
196.414	61.75
196.801	99.06
197.189	172.3
197.576	73.36
197.963	67.48
198.351	-11.11
198.738	-5.88
199.125	37.28
199.512	58.36
199.899	87.85
200.286	29.5
200.673	-10.23
201.06	-5.49
201.447	18.39
201.833	-0.32
202.22	32.59
202.607	37.13
202.994	-14.35
203.38	32.41
203.767	50.24
204.154	-15.57
204.54	49.44
204.927	13.11
205.313	-17.31
205.699	16.93
206.086	36.57
206.472	33.82
206.858	61.61
207.245	-10.52
207.631	31.83
208.017	26.12
208.403	15.42
208.789	18.47
209.175	55.5
209.561	6.14
209.947	0.76
210.333	-48.82
210.719	13.2
211.105	27.54
211.491	42.38
211.876	8.18
212.262	-11.36
212.648	16.63
213.034	18.21
213.419	-25.15
213.805	5.13
214.19	-6.24
214.576	9.82
214.961	2.41
215.346	-62.24
215.732	-16.03
216.117	11.11
216.502	8.39
216.888	6.63
217.273	13.09
217.658	-32.02
218.043	27.22
218.428	7.53
218.813	-25.02
219.198	-98.64
219.583	-8.29
219.968	20.67
220.353	-26.65
220.738	7.44
221.122	4.81
221.507	-5.99
221.892	-45.67
222.276	0.4
222.661	25.62
223.046	8.2
223.43	5.04
223.815	8.56
224.199	2.12
224.583	3.54
224.968	2.52
225.352	9.02
225.736	2.03
226.121	-9.82
226.505	3.36
226.889	5.15
227.273	3.13
227.657	12.93
228.041	8.03
228.425	2.09
228.809	11.7
229.193	6.37
229.577	7.68
229.961	5.36
230.344	4.14
230.728	4.18
231.112	5.02
231.495	3.22
231.879	4.01
232.263	5.22
232.646	5.6
233.03	4.27
233.413	4.4
233.797	4.91
234.18	4.38
234.563	4.89
234.946	4.07
235.33	5.33
235.713	5.71
236.096	5.81
236.479	5.06
236.862	4.51
237.245	7.6
237.628	2.36
238.011	5.33
238.394	4.58
238.777	4.71
239.16	4.27
239.543	3.93
239.925	4.67
240.308	6.05
240.691	8.05
241.073	5.83
241.456	4.59
241.838	4.34
242.221	3.18
242.603	5.58
242.986	4.26
243.368	5.27
243.75	4.76
244.133	4.02
244.515	5.33
244.897	5.36
245.279	4.64
245.661	4.82
246.043	3.95
246.425	3.59
246.807	4.66
247.189	6.57
247.571	4.8
247.953	4.93
248.335	4.87
248.717	4.7
249.098	4.4
249.48	5.18
249.862	5.23
250.243	5.18
250.625	5.09
251.006	5.08
251.388	4.45
251.769	4.64
252.151	6.03
252.532	4.72
252.913	4.58
253.295	3.52
253.676	4.34
254.057	4.91
254.438	5.01
254.819	4.59
255.2	4.91
255.581	4.13
255.962	3.76
256.343	6.43
256.724	4.07
257.105	4.99
257.486	5.54
257.867	5.11
258.247	5.1
258.628	5.25
259.009	3.75
259.389	5.01
259.77	3.85
260.15	4.59
260.531	4.04
260.911	5.42
261.292	4.83
261.672	4.75
262.052	4.88
262.432	5.18
262.813	4.55
263.193	5.14
263.573	5.19
263.953	4.45
264.333	5.56
264.713	5.49
265.093	4.33
265.473	4.99
265.853	3.6
266.233	4.52
266.612	3.66
266.992	3.52
267.372	4.63
267.752	4.39
268.131	4.22
268.511	5.41
268.89	5.39
269.27	4.56
269.649	4.39
270.029	4.54
270.408	5.55
270.787	5.12
271.167	4.99
271.546	5.35
271.925	4.4
272.304	3.97
272.683	5.32
273.062	4.58
273.441	4.74
273.82	4.54
274.199	4.47
274.578	4.92
274.957	4.93
275.336	4.66
275.715	4.42
276.093	4.61
276.472	5.33
276.851	4.77
277.229	4.57
277.608	3.73
277.986	4.44
278.365	4.97
278.743	4.43
279.122	4.51
279.5	4.74
279.878	4.24
280.257	4.76
280.635	4.27
281.013	4.46
281.391	4.71
281.769	4.55
282.147	4.9
282.525	5.24
282.903	4.83
283.281	4.98
283.659	5.27
284.037	5.2
284.415	4.86
284.792	4.95
285.17	4.03
285.548	4.63
285.925	4.57
286.303	4.83
286.68	4.52
287.058	4.21
287.435	4.61
287.813	4.75
288.19	4.77
288.567	4.53
288.945	5.17
289.322	4.35
289.699	4.32
290.076	4.73
290.453	4.56
290.83	5.03
291.207	4.87
291.584	5.3
291.961	4.94
292.338	5.29
292.715	5.29
293.092	5
293.469	5.25
293.845	5.56
294.222	4.99
294.599	5.32
294.975	4.95
295.352	5.14
295.728	4.95
296.105	5.44
296.481	5.44
296.858	5.29
297.234	5.44
297.61	5.67
297.986	5.32
298.363	5.55
298.739	5.5
299.115	5.32
299.491	5.3
299.867	5.59
300.243	5.75
300.619	5.87
300.995	5.41
301.371	5.97
301.746	5.54
302.122	6.03
302.498	6.03
302.874	6.18
303.249	6.09
303.625	5.83
304	6.47
304.376	5.87
304.751	6.01
305.127	6.65
305.502	5.39
305.878	5.22
306.253	5.82
306.628	6.51
307.003	6.08
307.378	6.74
307.754	5.88
308.129	5.71
308.504	6.67
308.879	5.91
309.254	7.06
309.629	6.67
310.003	6.25
310.378	6.92
310.753	7.32
311.128	6.91
311.502	7.23
311.877	6.82
312.252	6.78
312.626	6.89
313.001	6.69
313.375	7.19
313.75	6.76
314.124	7.54
314.498	6.99
314.873	6.98
315.247	6.77
315.621	7.41
315.995	7.02
316.369	7.04
316.743	7.19
317.117	7.49
317.491	7.59
317.865	7.68
318.239	7.46
318.613	7.98
318.987	7.75
319.361	7.42
319.734	7.91
320.108	7.62
320.482	7.66
320.855	8.03
321.229	7.83
321.602	7.26
321.976	7.96
322.349	7.94
322.723	8.19
323.096	8.43
323.469	6.66
323.843	7.71
324.216	8.43
324.589	7.48
324.962	7.82
325.335	7.72
325.708	8.28
326.081	8.2
326.454	8.34
326.827	8.39
327.2	8.94
327.573	8.97
327.945	8.17
328.318	8.04
328.691	8.06
329.063	8.43
329.436	8.61
329.809	9.07
330.181	8.06
330.553	8.47
330.926	8.85
331.298	8.87
331.671	8.15
332.043	9.25
332.415	8.91
332.787	8.82
333.159	9.84
333.532	9.28
333.904	9.13
334.276	8.74
334.648	9.14
335.02	9.17
335.391	9.04
335.763	8.4
336.135	9.48
336.507	9.97
336.879	9.72
337.25	8.52
337.622	9.19
337.993	9.46
338.365	9.02
338.736	9.5
339.108	9.1
339.479	8.9
339.851	9.35
340.222	8.96
340.593	9.67
340.964	9.29
341.336	10.06
341.707	9.19
342.078	9.99
342.449	9.56
342.82	9.49
343.191	9.74
343.562	9.78
343.933	10
344.303	9.69
344.674	9.94
345.045	10.02
345.416	10.46
345.786	9.86
346.157	9.75
346.527	9.8
346.898	9.67
347.268	10.34
347.639	9.98
348.009	10.33
348.38	10.13
348.75	10.01
349.12	9.95
349.49	10.89
349.861	10.37
350.231	10.85
350.601	10.61
350.971	10.32
351.341	10.55
351.711	10.39
352.081	10.53
352.45	10.64
352.82	10.81
353.19	10.87
353.56	10.94
353.929	10.63
354.299	10.51
354.669	10.56
355.038	11.04
355.408	10.99
355.777	10.86
356.147	10.9
356.516	10.87
356.885	10.96
357.254	11.27
357.624	11.18
357.993	11.49
358.362	10.75
358.731	10.84
359.1	10.89
359.469	11.02
359.838	11.23
360.207	11.48
360.576	11.29
360.945	11.27
361.314	11.79
361.682	11.33
362.051	11.23
362.42	11.5
362.788	11.46
363.157	11.34
363.525	11.61
363.894	11.49
364.262	11.56
364.631	11.65
364.999	11.62
365.367	11.5
365.735	12.14
366.104	11.78
366.472	12.13
366.84	11.52
367.208	12.21
367.576	12.26
367.944	12.33
368.312	11.76
368.68	11.53
369.048	12.1
369.416	11.84
369.783	11.97
370.151	12.22
370.519	12.5
370.886	12.64
371.254	12.22
371.621	12.84
371.989	12.8
372.356	12.17
372.724	12.78
373.091	12.27
373.458	12.71
373.826	12.35
374.193	12.57
374.56	13.06
374.927	12.76
375.294	12.77
375.661	12.59
376.028	12.57
376.395	12.45
376.762	12.95
377.129	12.56
377.496	12.84
377.863	12.76
378.229	12.13
378.596	12.98
378.963	12.78
379.329	12.88
379.696	13.12
380.062	13.35
380.429	13.16
380.795	12.82
381.161	13.26
381.528	13.51
381.894	13.47
382.26	13.26
382.626	13.47
382.993	13.36
383.359	13.83
383.725	13.44
384.091	13.5
384.457	13.73
384.823	13.57
385.188	13.83
385.554	13.71
385.92	13.72
386.286	13.93
386.651	14.16
387.017	14.07
387.383	14.11
387.748	13.53
388.114	14.27
388.479	13.94
388.845	14.2
389.21	14.29
389.575	13.98
389.94	13.92
390.306	14.25
390.671	14.46
391.036	13.99
391.401	14.07
391.766	14.15
392.131	14.22
392.496	14.61
392.861	14.06
393.226	14.43
393.591	14.31
393.956	14.35
394.32	14.7
394.685	14.51
395.05	14.49
395.414	14.9
395.779	14.29
396.143	14.75
396.508	14.41
396.872	14.44
397.236	14.63
397.601	14.76
397.965	14.87
398.329	15.04
398.694	15.06
399.058	14.74
399.422	15.14
399.786	15.19
400.15	14.98
400.514	15.03
400.878	15.13
401.242	15.15
401.605	15.27
401.969	15.28
402.333	15.48
402.697	15.39
403.06	15.46
403.424	15.56
403.787	15.35
404.151	15.56
404.514	15.38
404.878	15.29
405.241	15.49
405.604	15.44
405.968	15.55
406.331	15.46
406.694	15.71
407.057	15.81
407.42	15.73
407.783	15.59
408.146	15.83
408.509	15.9
408.872	16
409.235	15.98
409.598	16.14
409.961	15.99
410.323	16.08
410.686	15.98
411.049	15.83
411.411	16.15
411.774	16.16
412.136	16.13
412.499	16.02
412.861	16.14
413.223	16.29
413.586	16.09
413.948	16.43
414.31	16.28
414.672	16.09
415.035	16.19
415.397	16.63
415.759	16.12
416.121	16.6
416.483	16.21
416.845	16.61
417.206	16.42
417.568	16.66
417.93	16.2
418.292	16.52
418.653	16.59
419.015	16.48
419.377	16.46
419.738	16.67
420.1	16.53
420.461	16.68
420.822	16.67
421.184	16.57
421.545	16.72
421.906	16.49
422.267	16.83
422.629	16.76
422.99	16.68
423.351	16.71
423.712	16.78
424.073	16.94
424.434	16.91
424.795	16.91
425.155	17.06
425.516	16.87
425.877	16.91
426.238	17.05
426.598	17.1
426.959	17.02
427.32	17.19
427.68	17.22
428.041	17.23
428.401	17.46
428.761	17.49
429.122	17.81
429.482	17.63
429.842	17.72
430.202	17.89
430.563	17.79
430.923	17.92
431.283	18.01
431.643	17.83
432.003	18
432.363	18.01
432.722	18.13
433.082	18.12
433.442	18.1
433.802	18.11
434.161	17.99
434.521	18.33
434.881	18.23
435.24	18.07
435.6	18.03
435.959	18.14
436.319	18.06
436.678	18.17
437.037	18.21
437.396	18.55
437.756	18.8
438.115	18.57
438.474	18.53
438.833	18.23
439.192	18.62
439.551	18.73
439.91	18.65
440.269	18.58
440.628	18.5
440.987	18.61
441.345	18.44
441.704	18.59
442.063	18.6
442.421	18.57
442.78	18.69
443.138	18.61
443.497	18.7
443.855	18.88
444.214	18.97
444.572	19.14
444.93	19.07
445.288	19.04
445.647	19.27
446.005	19.18
446.363	19.12
446.721	19.09
447.079	18.93
447.437	18.99
447.795	19.11
448.153	19.01
448.51	19.08
448.868	19.12
449.226	19.09
449.584	19.22
449.941	19.44
450.299	19.52
450.656	19.62
451.014	19.62
451.371	19.58
451.729	19.79
452.086	19.85
452.443	19.84
452.801	19.8
453.158	19.95
453.515	19.8
453.872	19.96
454.229	19.69
454.586	20.03
454.943	19.9
455.3	20.19
455.657	20.04
456.014	20.04
456.371	20.14
456.727	20.11
457.084	20.21
457.441	20.42
457.797	20.42
458.154	20.52
458.51	20.67
458.867	20.32
459.223	20.41
459.58	20.58
459.936	20.55
460.292	20.5
460.648	20.49
461.005	20.4
461.361	20.4
461.717	20.36
462.073	20.31
462.429	20.54
462.785	20.78
463.141	20.73
463.496	20.97
463.852	21.04
464.208	20.92
464.564	21.18
464.919	21.17
465.275	20.86
465.631	21.46
465.986	21.04
466.342	21.22
466.697	21.09
467.052	21.42
467.408	21.39
467.763	21.55
468.118	21.72
468.473	21.09
468.829	21.48
469.184	21.31
469.539	21.54
469.894	21.47
470.249	21.66
470.603	21.86
470.958	21.83
471.313	21.73
471.668	21.97
472.023	21.94
472.377	21.98
472.732	21.98
473.086	22.17
473.441	21.88
473.795	22.24
474.15	22.19
474.504	22.11
474.859	22.35
475.213	22.2
475.567	22.25
475.921	22.14
476.275	22.48
476.63	22.51
476.984	22.54
477.338	22.48
477.692	22.35
478.045	22.4
478.399	22.35
478.753	22.64
479.107	22.63
479.461	22.72
479.814	22.79
480.168	22.52
480.521	22.63
480.875	22.54
481.228	22.68
481.582	22.8
481.935	22.91
482.289	22.95
482.642	23.01
482.995	22.68
483.348	22.7
483.701	22.64
484.055	22.83
484.408	22.78
484.761	22.49
485.114	22.23
485.466	21.76
485.819	21.74
486.172	22.04
486.525	22.26
486.878	22.44
487.23	22.59
487.583	22.87
487.936	22.91
488.288	22.91
488.641	22.67
488.993	22.44
489.345	22.51
489.698	22.54
490.05	22.66
490.402	22.83
490.754	23
491.107	23.27
491.459	23.38
491.811	23.54
492.163	23.6
492.515	23.69
492.866	23.42
493.218	23.17
493.57	22.96
493.922	23.18
494.274	23.47
494.625	23.69
494.977	23.91
495.328	24.19
495.68	24.39
496.031	24.44
496.383	24.28
496.734	24.56
497.086	24.4
497.437	24.61
497.788	24.57
498.139	24.43
498.49	24.59
498.842	24.58
499.193	24.5
499.544	24.68
499.894	24.65
500.245	24.62
500.596	24.55
500.947	24.93
501.298	24.9
501.648	25.04
501.999	25.19
502.35	25.06
502.7	25.11
503.051	25.1
503.401	25.34
503.752	25.55
504.102	25.32
504.452	25.52
504.803	25.54
505.153	25.68
505.503	25.59
505.853	25.52
506.203	25.57
506.553	25.47
506.903	25.74
507.253	25.87
507.603	25.78
507.953	25.85
508.303	25.92
508.652	25.73
509.002	25.92
509.352	25.92
509.701	25.89
510.051	25.87
510.4	26.02
510.75	25.76
511.099	26.09
511.449	25.97
511.798	25.89
512.147	25.99
512.496	26.05
512.846	26.26
513.195	26.05
513.544	26.26
513.893	26.27
514.242	26.24
514.591	26.59
514.939	26.55
515.288	26.33
515.637	26.57
515.986	26.67
516.334	26.75
516.683	27
517.032	26.89
517.38	26.82
517.729	26.87
518.077	27.03
518.426	27.01
518.774	27.05
519.122	26.9
519.47	26.83
519.819	26.78
520.167	26.84
520.515	26.69
520.863	26.77
521.211	26.91
521.559	27.15
521.907	27.11
522.255	27.26
522.602	27.4
522.95	27.61
523.298	27.52
523.645	27.48
523.993	27.61
524.341	27.86
524.688	27.73
525.036	27.8
525.383	27.89
525.73	28.01
526.078	28.08
526.425	27.76
526.772	27.91
527.119	27.66
527.466	27.53
527.814	27.59
528.161	27.61
528.508	27.74
528.854	27.66
529.201	27.6
529.548	27.72
529.895	27.41
530.242	27.03
530.588	26.99
530.935	27.19
531.282	27.39
531.628	27.64
531.975	27.65
532.321	27.87
532.667	28.11
533.014	28.41
533.36	28.29
533.706	28.5
534.052	28.41
534.399	28.33
534.745	28.2
535.091	28.07
535.437	27.96
535.783	28.22
536.129	28.47
536.474	28.58
536.82	28.8
537.166	28.96
537.512	29
537.857	28.99
538.203	28.94
538.549	28.74
538.894	28.85
539.239	29.05
539.585	29.24
539.93	29.34
540.276	29.55
540.621	29.61
540.966	29.62
541.311	29.69
541.656	29.4
542.001	29.51
542.346	29.39
542.691	29.12
543.036	29.01
543.381	28.77
543.726	29.11
544.071	29.32
544.415	29.37
544.76	29.46
545.105	29.66
545.449	29.71
545.794	29.97
546.138	30.13
546.483	30.37
546.827	30.26
547.171	30.28
547.516	30.31
547.86	30.38
548.204	30.38
548.548	30.15
548.892	30.28
549.236	30.42
549.58	30.54
549.924	30.75
550.268	30.82
550.612	31
550.956	31.24
551.3	31
551.643	31.34
551.987	31.51
552.33	31.28
552.674	31.55
553.017	31.53
553.361	31.36
553.704	31.42
554.048	31.25
554.391	31.44
554.734	31.35
555.077	31.66
555.42	31.23
555.764	31.46
556.107	31.72
556.45	31.73
556.793	31.96
557.135	32.06
557.478	32.11
557.821	32.22
558.164	32.31
558.507	32.43
558.849	32.35
559.192	32.24
559.534	32.25
559.877	32.56
560.219	32.79
560.562	32.69
560.904	32.59
561.246	32.49
561.589	32.47
561.931	32.74
562.273	33.25
562.615	32.53
562.957	32.85
563.299	32.76
563.641	32.78
563.983	33.11
564.325	32.63
564.667	33.08
565.008	33.02
565.35	32.8
565.692	33.24
566.033	33.01
566.375	33.41
566.716	33.58
567.058	33.06
567.399	33.06
567.741	33.29
568.082	33.07
568.423	33.31
568.764	33.33
569.105	33.35
569.447	33.49
569.788	33.4
570.129	33.48
570.47	33.72
570.811	33.63
571.151	33.74
571.492	33.92
571.833	33.88
572.174	33.95
572.514	33.99
572.855	34.04
573.195	33.91
573.536	33.87
573.876	33.8
574.217	34.02
574.557	33.86
574.898	34.11
575.238	34.07
575.578	34.07
575.918	33.9
576.258	34.54
576.598	34.4
576.938	34.08
577.278	34.47
577.618	34.28
577.958	34.37
578.298	34.41
578.638	34.52
578.977	34.61
579.317	34.93
579.657	34.78
579.996	34.92
580.336	34.87
580.675	35.17
581.014	35.25
581.354	35.3
581.693	35.32
582.032	35.08
582.372	35.06
582.711	35.55
583.05	34.89
583.389	35.21
583.728	35.35
584.067	35.83
584.406	35.57
584.745	35.2
585.083	35.51
585.422	35.56
585.761	35.75
586.1	35.9
586.438	35.97
586.777	35.98
587.115	36.08
587.454	36.18
587.792	35.9
588.13	35.94
588.469	35.64
588.807	35.86
589.145	35.7
589.483	35.79
589.821	36.26
590.159	36.33
590.497	36.56
590.835	36.65
591.173	36.24
591.511	36.36
591.849	36.54
592.187	36.81
592.524	36.62
592.862	36.69
593.2	36.35
593.537	36.76
593.875	36.86
594.212	36.88
594.55	36.45
594.887	36.87
595.224	36.96
595.561	36.75
595.899	37
596.236	36.83
596.573	37.03
596.91	36.69
597.247	36.86
597.584	37.42
597.921	37.01
598.258	37.02
598.594	36.84
598.931	36.9
599.268	37.25
599.604	37.08
599.941	37.43
600.277	37.17
600.614	37.37
600.95	37.43
601.287	37.45
601.623	37.28
601.959	37.53
602.296	37.63
602.632	37.6
602.968	37.83
603.304	37.79
603.64	38.32
603.976	37.99
604.312	37.68
604.648	37.67
604.984	37.96
605.319	37.65
605.655	38.19
605.991	37.98
606.326	37.74
606.662	37.8
606.998	37.77
607.333	37.84
607.668	38.28
608.004	38.1
608.339	38.51
608.674	38.49
609.01	38.65
609.345	38.37
609.68	38.34
610.015	38.19
610.35	38.92
610.685	38.38
611.02	38.41
611.355	38.74
611.689	38.45
612.024	38.45
612.359	38.6
612.694	38.66
613.028	39.12
613.363	39.26
613.697	38.96
614.032	39.35
614.366	39.31
614.7	39.22
615.035	39.09
615.369	39.17
615.703	39.47
616.037	39.63
616.371	39.14
616.705	39.64
617.039	39.66
617.373	39.74
617.707	39.51
618.041	39.62
618.375	39.63
618.709	39.58
619.042	39.81
619.376	40.08
619.71	40.05
620.043	39.87
620.377	39.53
620.71	40.03
621.043	40.18
621.377	39.95
621.71	40.45
622.043	40.1
622.376	39.99
622.709	40.09
623.043	40.33
623.376	39.83
623.709	40.35
624.041	40.58
624.374	40.45
624.707	40.51
625.04	40.52
625.373	40.17
625.705	40.35
626.038	40.67
626.37	40.54
626.703	40.84
627.035	40.87
627.368	41.04
627.7	40.63
628.032	40.75
628.365	40.82
628.697	40.68
629.029	40.8
629.361	40.84
629.693	40.85
630.025	40.87
630.357	40.95
630.689	40.83
631.021	41.47
631.353	41.25
631.684	40.73
632.016	41.1
632.348	41.34
632.679	41.19
633.011	41.37
633.342	41.73
633.674	41.08
634.005	41.79
634.336	41.29
634.668	42.13
634.999	41.83
635.33	41.72
635.661	41.74
635.992	41.69
636.323	41.5
636.654	41.59
636.985	41.83
637.316	41.69
637.647	42.13
637.977	42.14
638.308	41.86
638.639	42.14
638.969	41.82
639.3	41.56
639.63	41.8
639.961	42.07
640.291	41.87
640.622	42.49
640.952	42.19
641.282	42.43
641.612	42.27
641.943	42.47
642.273	42.36
642.603	42.82
642.933	42.07
643.263	42.88
643.592	42.37
643.922	42.47
644.252	42.76
644.582	42.8
644.911	42.73
645.241	43.39
645.571	42.6
645.9	42.45
646.23	43.2
646.559	42.73
646.888	42.76
647.218	43
647.547	43.08
647.876	43.18
648.205	42.93
648.534	43.64
648.863	42.81
649.192	43.47
649.521	42.75
649.85	43.21
650.179	43.5
650.508	43.49
650.837	43.58
651.165	43.6
651.494	43.57
651.822	42.84
652.151	43.19
652.479	43.89
652.808	42.86
653.136	43.55
653.465	43.4
653.793	43.51
654.121	43.95
654.449	44.16
654.777	43.9
655.105	43.42
655.433	43.72
655.761	44.19
656.089	43.36
656.417	43.87
656.745	43.2
657.073	44.19
657.4	43.89
657.728	44.16
658.056	44.26
658.383	44.36
658.711	44.22
659.038	44.26
659.365	45.17
659.693	44.26
660.02	44.41
660.347	44.37
660.674	44.24
661.001	44.18
661.329	44.34
661.656	44.51
661.982	44.79
662.309	44.25
662.636	44.59
662.963	44.26
663.29	44.94
663.616	44.41
663.943	44.47
664.27	45.56
664.596	44.49
664.923	44.35
665.249	44.98
665.576	45.43
665.902	45.16
666.228	44.73
666.554	45.06
666.881	44.72
667.207	45.2
667.533	44.88
667.859	45.37
668.185	45.01
668.511	44.33
668.837	44.82
669.162	46.05
669.488	44.83
669.814	45.18
670.139	44.96
670.465	45.62
