Data from 0191_crown_Reflection__0__414.txt Node

Date: Fri Dec 15 20:26:55 CST 2023
User: ToomeyLab
Spectrometer: FLMS14357
Trigger mode: 0
Integration Time (sec): 1.000000E-2
Scans to average: 100
Electric dark correction enabled: true
Nonlinearity correction enabled: false
Boxcar width: 0
XAxis mode: Wavelengths
Number of Pixels in Spectrum: 2048
>>>>>Begin Spectral Data<<<<<
189.047	-33.9
189.435	-33.9
189.823	-33.9
190.211	-1107.21
190.599	-65.3
190.987	204.06
191.375	-94.3
191.763	1.41
192.151	113.29
192.538	123.78
192.926	79.68
193.314	24.79
193.702	93.75
194.089	-146.96
194.477	-637.72
194.864	-1326.01
195.252	93.22
195.639	70.42
196.027	126.47
196.414	43.52
196.801	16.16
197.189	26.71
197.576	327.08
197.963	70.3
198.351	-57.23
198.738	-72.18
199.125	-18.78
199.512	-38.78
199.899	-50.55
200.286	10.25
200.673	27.94
201.06	101.74
201.447	-25.59
201.833	-39.47
202.22	-18.16
202.607	19.58
202.994	-79.65
203.38	-9.52
203.767	51
204.154	43.58
204.54	16.97
204.927	0.22
205.313	-61.74
205.699	15.12
206.086	5.29
206.472	14.86
206.858	-20.41
207.245	-24.75
207.631	24.35
208.017	-1.5
208.403	-20.83
208.789	14.57
209.175	12.49
209.561	-38.42
209.947	37.58
210.333	-80.65
210.719	1.01
211.105	10
211.491	-70.01
211.876	4.63
212.262	5.72
212.648	4.27
213.034	13.21
213.419	-39.67
213.805	-12.72
214.19	12.81
214.576	6.26
214.961	-48.96
215.346	-107.24
215.732	-31.68
216.117	-21.99
216.502	-80.65
216.888	-14.41
217.273	-5.19
217.658	-5.2
218.043	8.46
218.428	-60.27
218.813	-5.39
219.198	-84.33
219.583	-18.46
219.968	12.25
220.353	-28.14
220.738	-2.71
221.122	5.88
221.507	-13.27
221.892	-39.14
222.276	-32.91
222.661	-3.23
223.046	-4.3
223.43	9.67
223.815	7.29
224.199	-26.22
224.583	-8.75
224.968	-1.86
225.352	13.7
225.736	-5.39
226.121	-6.81
226.505	-4.69
226.889	10.09
227.273	0.54
227.657	10.68
228.041	0.59
228.425	5.4
228.809	7.6
229.193	5.05
229.577	4.14
229.961	4.31
230.344	3.97
230.728	3.48
231.112	4.83
231.495	4.23
231.879	3.98
232.263	5.96
232.646	6.35
233.03	5.27
233.413	3.94
233.797	2.92
234.18	3.91
234.563	1.85
234.946	3.85
235.33	4.05
235.713	5.33
236.096	4.12
236.479	5.67
236.862	2.5
237.245	4.35
237.628	4.92
238.011	4.49
238.394	5.94
238.777	5.37
239.16	2
239.543	5.33
239.925	6.68
240.308	2.75
240.691	5.73
241.073	4.49
241.456	3.77
241.838	3.81
242.221	3.06
242.603	5.33
242.986	4.56
243.368	4.21
243.75	4.56
244.133	4.49
244.515	4.63
244.897	4.94
245.279	4.35
245.661	4.13
246.043	3.77
246.425	4.04
246.807	3.97
247.189	4.65
247.571	4.05
247.953	4.44
248.335	4.08
248.717	4.56
249.098	4.26
249.48	4.02
249.862	4.15
250.243	4.68
250.625	4.14
251.006	4.1
251.388	3.06
251.769	4.65
252.151	3.69
252.532	4.33
252.913	3.69
253.295	4.32
253.676	3.83
254.057	4.3
254.438	4.02
254.819	3.51
255.2	3.67
255.581	3.61
255.962	2.6
256.343	4.88
256.724	2.7
257.105	2.77
257.486	3.14
257.867	4.02
258.247	3.86
258.628	3.27
259.009	3.59
259.389	2.87
259.77	3.53
260.15	3.07
260.531	2.93
260.911	4.39
261.292	3.78
261.672	3.89
262.052	3.9
262.432	4.11
262.813	4.03
263.193	3.96
263.573	3.4
263.953	3.08
264.333	3.98
264.713	4.32
265.093	3.07
265.473	3.63
265.853	2.53
266.233	3.79
266.612	1.68
266.992	2.9
267.372	3.72
267.752	3.66
268.131	3.51
268.511	4.02
268.89	4.19
269.27	3.64
269.649	3.14
270.029	3.22
270.408	4.65
270.787	3.71
271.167	3.98
271.546	3.92
271.925	2.97
272.304	3.38
272.683	3.92
273.062	3.26
273.441	3.97
273.82	3.34
274.199	3.46
274.578	3.71
274.957	3.54
275.336	3.56
275.715	3.51
276.093	3.06
276.472	3.74
276.851	3.7
277.229	3.58
277.608	3.2
277.986	3.52
278.365	3.27
278.743	2.98
279.122	3.07
279.5	3.27
279.878	3.56
280.257	3.11
280.635	2.49
281.013	3.4
281.391	3.5
281.769	3.74
282.147	3.77
282.525	3.89
282.903	3.35
283.281	3.76
283.659	3.75
284.037	3.51
284.415	3.67
284.792	3.46
285.17	2.5
285.548	2.63
285.925	3.45
286.303	3.46
286.68	3.24
287.058	3.18
287.435	3.59
287.813	3.58
288.19	3.23
288.567	3.3
288.945	3.55
289.322	3.6
289.699	3.37
290.076	2.68
290.453	2.88
290.83	3.14
291.207	3.12
291.584	3.75
291.961	3.65
292.338	3.12
292.715	3.74
293.092	3.49
293.469	3.16
293.845	3.8
294.222	3.04
294.599	3.21
294.975	2.92
295.352	3.62
295.728	2.77
296.105	3.39
296.481	3.64
296.858	3.36
297.234	3.13
297.61	3.2
297.986	3.51
298.363	3.37
298.739	3.74
299.115	3.1
299.491	3.03
299.867	3.06
300.243	3.23
300.619	2.99
300.995	3.03
301.371	3.61
301.746	3.74
302.122	3.19
302.498	2.88
302.874	3.49
303.249	3.25
303.625	3.31
304	3.63
304.376	3.37
304.751	3.13
305.127	3.56
305.502	2.98
305.878	2.4
306.253	2.77
306.628	3.41
307.003	2.94
307.378	3.53
307.754	3.16
308.129	2.94
308.504	3.37
308.879	3.05
309.254	3.89
309.629	3.61
310.003	3.42
310.378	3.67
310.753	3.31
311.128	3.32
311.502	3.19
311.877	3.67
312.252	2.82
312.626	2.98
313.001	3.05
313.375	3.58
313.75	2.95
314.124	3.03
314.498	3.24
314.873	3.02
315.247	2.87
315.621	3.38
315.995	2.8
316.369	3.35
316.743	2.95
317.117	3.02
317.491	2.88
317.865	2.83
318.239	3.17
318.613	2.83
318.987	3.53
319.361	3.24
319.734	3.73
320.108	3.13
320.482	2.78
320.855	3.64
321.229	3.34
321.602	3.06
321.976	3.08
322.349	3.39
322.723	3.11
323.096	3.72
323.469	2.21
323.843	2.68
324.216	2.78
324.589	3.47
324.962	3.31
325.335	2.97
325.708	3.13
326.081	2.77
326.454	3.03
326.827	3.17
327.2	3.01
327.573	3.8
327.945	3.4
328.318	2.76
328.691	2.8
329.063	3.36
329.436	3.01
329.809	3.78
330.181	3.03
330.553	2.77
330.926	3.22
331.298	2.98
331.671	3.23
332.043	3.65
332.415	3.55
332.787	3.19
333.159	3.42
333.532	3.5
333.904	3.06
334.276	3.4
334.648	2.98
335.02	3.62
335.391	3.01
335.763	3.01
336.135	3.7
336.507	3.44
336.879	3.33
337.25	2.83
337.622	2.97
337.993	3.63
338.365	3.23
338.736	3.55
339.108	3.16
339.479	3.02
339.851	3.39
340.222	3.09
340.593	3.26
340.964	3.3
341.336	3.99
341.707	2.83
342.078	3.68
342.449	3.27
342.82	3.21
343.191	3.23
343.562	3.03
343.933	3.58
344.303	2.92
344.674	3.36
345.045	3.49
345.416	4.26
345.786	2.92
346.157	3.32
346.527	3.19
346.898	2.95
347.268	3.47
347.639	3.29
348.009	3.71
348.38	3.22
348.75	3.12
349.12	3.43
349.49	3.97
349.861	3.47
350.231	3.54
350.601	3.95
350.971	3.61
351.341	3.37
351.711	3.73
352.081	3.74
352.45	3.2
352.82	3.94
353.19	3.19
353.56	2.98
353.929	3.71
354.299	3.55
354.669	3.15
355.038	3.57
355.408	3.25
355.777	3.63
356.147	3.25
356.516	3.4
356.885	3.84
357.254	3.78
357.624	3.82
357.993	3.5
358.362	3
358.731	3.08
359.1	3.67
359.469	3.59
359.838	3.6
360.207	3.49
360.576	3.4
360.945	3.13
361.314	3.87
361.682	3.38
362.051	3.32
362.42	3.72
362.788	3.62
363.157	3.62
363.525	3.8
363.894	3.77
364.262	3.47
364.631	3.59
364.999	3.75
365.367	3.34
365.735	4.33
366.104	3.66
366.472	3.56
366.84	3.69
367.208	3.57
367.576	3.56
367.944	4.05
368.312	3.44
368.68	3.36
369.048	4.02
369.416	3.56
369.783	3.22
370.151	3.53
370.519	3.9
370.886	3.87
371.254	3.65
371.621	3.7
371.989	3.52
372.356	3.49
372.724	3.52
373.091	3.46
373.458	3.49
373.826	3.44
374.193	3.55
374.56	3.74
374.927	4.11
375.294	3.67
375.661	3.54
376.028	3.33
376.395	3.62
376.762	3.72
377.129	3.81
377.496	3.57
377.863	3.57
378.229	3.14
378.596	3.91
378.963	3.61
379.329	3.41
379.696	3.76
380.062	3.66
380.429	3.59
380.795	3.59
381.161	3.63
381.528	4.11
381.894	3.78
382.26	3.76
382.626	3.86
382.993	3.22
383.359	4
383.725	3.45
384.091	3.69
384.457	3.96
384.823	3.89
385.188	3.85
385.554	3.75
385.92	3.98
386.286	3.76
386.651	4
387.017	4.31
387.383	3.76
387.748	3.76
388.114	3.77
388.479	3.45
388.845	3.8
389.21	4.08
389.575	3.72
389.94	3.67
390.306	3.72
390.671	4.22
391.036	3.46
391.401	3.46
391.766	3.88
392.131	3.77
392.496	3.81
392.861	3.82
393.226	4.06
393.591	3.8
393.956	3.56
394.32	3.82
394.685	3.99
395.05	3.75
395.414	3.98
395.779	3.67
396.143	3.76
396.508	3.89
396.872	3.98
397.236	3.9
397.601	3.48
397.965	3.77
398.329	4.04
398.694	3.78
399.058	3.78
399.422	3.59
399.786	3.97
400.15	3.85
400.514	4
400.878	3.78
401.242	4.06
401.605	3.89
401.969	4.01
402.333	4.05
402.697	4.02
403.06	4.01
403.424	3.9
403.787	3.77
404.151	4.15
404.514	3.74
404.878	3.74
405.241	4.26
405.604	3.68
405.968	4.08
406.331	4.02
406.694	3.99
407.057	3.9
407.42	4.07
407.783	3.95
408.146	3.96
408.509	3.95
408.872	3.73
409.235	3.75
409.598	4.2
409.961	3.88
410.323	4.05
410.686	3.56
411.049	3.86
411.411	3.77
411.774	3.98
412.136	4.14
412.499	3.93
412.861	3.89
413.223	3.91
413.586	3.9
413.948	4.17
414.31	3.83
414.672	3.85
415.035	3.76
415.397	4.38
415.759	3.77
416.121	4.01
416.483	3.75
416.845	4.07
417.206	4.01
417.568	4.02
417.93	3.75
418.292	3.89
418.653	3.92
419.015	4.06
419.377	3.96
419.738	3.97
420.1	3.96
420.461	3.91
420.822	4.07
421.184	3.97
421.545	3.97
421.906	3.82
422.267	3.88
422.629	3.89
422.99	3.89
423.351	3.82
423.712	3.93
424.073	3.95
424.434	3.82
424.795	3.84
425.155	3.96
425.516	3.83
425.877	4.04
426.238	3.86
426.598	3.97
426.959	3.94
427.32	3.92
427.68	3.91
428.041	3.94
428.401	4.04
428.761	3.99
429.122	4.05
429.482	3.99
429.842	4.1
430.202	3.98
430.563	3.84
430.923	4.04
431.283	4
431.643	3.91
432.003	3.85
432.363	4.05
432.722	3.87
433.082	3.91
433.442	4.07
433.802	3.95
434.161	3.86
434.521	4.26
434.881	4.05
435.24	3.88
435.6	4.15
435.959	3.94
436.319	3.96
436.678	3.96
437.037	4.02
437.396	4.12
437.756	4.07
438.115	3.87
438.474	4.01
438.833	3.83
439.192	4.14
439.551	4.15
439.91	4.06
440.269	3.92
440.628	3.94
440.987	3.98
441.345	3.81
441.704	4.07
442.063	3.95
442.421	3.84
442.78	3.77
443.138	3.92
443.497	4
443.855	3.85
444.214	4.03
444.572	4.04
444.93	4.07
445.288	3.99
445.647	4.14
446.005	3.89
446.363	4.03
446.721	4.1
447.079	3.74
447.437	3.84
447.795	4.01
448.153	3.83
448.51	3.97
448.868	3.97
449.226	3.99
449.584	3.89
449.941	4.05
450.299	4.02
450.656	4.02
451.014	4
451.371	3.91
451.729	3.96
452.086	4.24
452.443	4.08
452.801	4.12
453.158	3.99
453.515	3.83
453.872	4.22
454.229	3.89
454.586	4.03
454.943	4.14
455.3	4.07
455.657	4.14
456.014	3.99
456.371	4.08
456.727	3.93
457.084	4.19
457.441	3.93
457.797	4.18
458.154	4.16
458.51	4.12
458.867	4.15
459.223	4.21
459.58	4.11
459.936	4.02
460.292	4.08
460.648	4.15
461.005	4
461.361	4.08
461.717	4.02
462.073	3.93
462.429	3.97
462.785	4.03
463.141	3.99
463.496	3.96
463.852	4.13
464.208	4.09
464.564	4.13
464.919	4.04
465.275	4.13
465.631	4.21
465.986	3.9
466.342	3.94
466.697	4.12
467.052	4.05
467.408	4.24
467.763	4.13
468.118	4
468.473	3.89
468.829	3.98
469.184	3.94
469.539	4.03
469.894	4.04
470.249	4.12
470.603	4.06
470.958	4.29
471.313	4.13
471.668	4.08
472.023	4.24
472.377	4
472.732	4.02
473.086	3.95
473.441	3.86
473.795	4.22
474.15	4.14
474.504	4.03
474.859	4.14
475.213	4
475.567	3.99
475.921	4.05
476.275	4.04
476.63	3.99
476.984	4.12
477.338	4.29
477.692	3.79
478.045	4.07
478.399	4.04
478.753	4.1
479.107	4.13
479.461	4.08
479.814	4.13
480.168	4.11
480.521	3.97
480.875	4.11
481.228	4.12
481.582	4.02
481.935	3.99
482.289	4.05
482.642	4
482.995	3.91
483.348	3.87
483.701	4.02
484.055	3.95
484.408	3.98
484.761	4.02
485.114	3.92
485.466	3.8
485.819	3.75
486.172	3.76
486.525	3.83
486.878	3.8
487.23	3.92
487.583	4
487.936	3.99
488.288	3.98
488.641	3.98
488.993	3.85
489.345	3.84
489.698	3.81
490.05	3.82
490.402	3.93
490.754	3.92
491.107	3.98
491.459	4.04
491.811	3.98
492.163	3.98
492.515	4.02
492.866	4
493.218	3.99
493.57	3.88
493.922	3.87
494.274	3.96
494.625	3.98
494.977	4.03
495.328	4.07
495.68	4.08
496.031	4.18
496.383	3.99
496.734	4.2
497.086	4.13
497.437	4.02
497.788	4.09
498.139	4.05
498.49	4.09
498.842	3.96
499.193	3.93
499.544	4.09
499.894	3.95
500.245	3.96
500.596	4.03
500.947	4.07
501.298	4.06
501.648	3.91
501.999	4.11
502.35	4.02
502.7	4.18
503.051	3.91
503.401	4
503.752	4.17
504.102	4.05
504.452	4.1
504.803	3.98
505.153	4.08
505.503	4
505.853	4.11
506.203	4
506.553	4.08
506.903	3.93
507.253	4.05
507.603	3.95
507.953	4.12
508.303	4.19
508.652	3.83
509.002	4.04
509.352	4.15
509.701	4.01
510.051	3.98
510.4	3.94
510.75	3.89
511.099	4.05
511.449	4.03
511.798	4.1
512.147	3.99
512.496	4.03
512.846	4.11
513.195	3.88
513.544	4.03
513.893	4
514.242	4.04
514.591	4.13
514.939	4
515.288	4.04
515.637	4.13
515.986	4.1
516.334	4.08
516.683	4.11
517.032	3.99
517.38	4.17
517.729	4.07
518.077	3.8
518.426	4.18
518.774	4.14
519.122	3.97
519.47	3.97
519.819	3.91
520.167	3.99
520.515	3.95
520.863	4.03
521.211	3.96
521.559	4.01
521.907	4.01
522.255	4.01
522.602	4
522.95	3.95
523.298	3.96
523.645	3.96
523.993	4.02
524.341	3.95
524.688	4.05
525.036	3.93
525.383	4.01
525.73	4.13
526.078	4
526.425	4
526.772	4.12
527.119	3.98
527.466	3.81
527.814	3.92
528.161	3.99
528.508	3.99
528.854	3.91
529.201	3.95
529.548	3.87
529.895	3.82
530.242	3.8
530.588	3.76
530.935	3.8
531.282	3.83
531.628	3.8
531.975	3.89
532.321	3.98
532.667	3.98
533.014	4
533.36	3.96
533.706	3.95
534.052	3.96
534.399	3.83
534.745	3.88
535.091	3.86
535.437	3.88
535.783	3.89
536.129	3.91
536.474	3.9
536.82	3.95
537.166	4.08
537.512	4.06
537.857	3.82
538.203	4
538.549	3.89
538.894	3.96
539.239	3.98
539.585	3.92
539.93	3.92
540.276	4.06
540.621	4.11
540.966	3.96
541.311	3.84
541.656	3.77
542.001	3.83
542.346	3.95
542.691	3.83
543.036	3.86
543.381	3.81
543.726	3.79
544.071	3.89
544.415	3.88
544.76	3.97
545.105	3.87
545.449	3.96
545.794	3.95
546.138	3.93
546.483	4.01
546.827	3.92
547.171	3.94
547.516	4.11
547.86	3.97
548.204	3.89
548.548	3.9
548.892	3.96
549.236	3.9
549.58	3.88
549.924	3.96
550.268	4.11
550.612	4.07
550.956	4.14
551.3	3.92
551.643	4.3
551.987	4.2
552.33	3.95
552.674	4.16
553.017	4.04
553.361	3.91
553.704	4.03
554.048	3.81
554.391	4.03
554.734	3.84
555.077	3.95
555.42	3.76
555.764	3.91
556.107	3.81
556.45	3.85
556.793	3.84
557.135	3.97
557.478	4.1
557.821	3.92
558.164	4
558.507	3.9
558.849	3.98
559.192	3.88
559.534	4.15
559.877	4.17
560.219	3.92
560.562	4.15
560.904	3.93
561.246	3.94
561.589	3.99
561.931	4.07
562.273	3.87
562.615	4.15
562.957	3.91
563.299	3.65
563.641	3.82
563.983	3.99
564.325	3.8
564.667	4
565.008	3.9
565.35	3.94
565.692	3.65
566.033	3.88
566.375	3.91
566.716	4.08
567.058	3.98
567.399	3.91
567.741	3.8
568.082	3.84
568.423	3.89
568.764	3.79
569.105	4.05
569.447	4.05
569.788	3.87
570.129	3.94
570.47	4.01
570.811	4
571.151	3.96
571.492	4.22
571.833	4.01
572.174	3.85
572.514	3.92
572.855	3.88
573.195	3.98
573.536	3.87
573.876	3.71
574.217	3.75
574.557	3.95
574.898	4.11
575.238	4
575.578	3.95
575.918	4.04
576.258	3.97
576.598	4.02
576.938	3.93
577.278	3.91
577.618	3.9
577.958	3.81
578.298	3.93
578.638	3.84
578.977	4.01
579.317	4.01
579.657	3.82
579.996	3.99
580.336	3.86
580.675	3.82
581.014	3.85
581.354	3.84
581.693	4.05
582.032	3.91
582.372	3.78
582.711	3.89
583.05	3.94
583.389	3.81
583.728	3.89
584.067	4.18
584.406	3.67
584.745	3.88
585.083	3.93
585.422	4.02
585.761	4.27
586.1	3.93
586.438	3.82
586.777	4.04
587.115	3.85
587.454	3.64
587.792	3.81
588.13	4.19
588.469	3.72
588.807	3.91
589.145	3.33
589.483	3.88
589.821	4.03
590.159	3.95
590.497	4
590.835	4.41
591.173	3.99
591.511	4.08
591.849	4.09
592.187	3.99
592.524	3.74
592.862	4.06
593.2	4.15
593.537	4.02
593.875	3.81
594.212	3.69
594.55	3.78
594.887	4.09
595.224	3.92
595.561	4.03
595.899	3.95
596.236	3.91
596.573	4.01
596.91	3.65
597.247	3.62
597.584	4.17
597.921	4.01
598.258	3.68
598.594	3.89
598.931	3.76
599.268	3.65
599.604	3.75
599.941	3.92
600.277	3.73
600.614	3.77
600.95	3.65
601.287	4.1
601.623	3.74
601.959	4.04
602.296	3.93
602.632	3.72
602.968	3.94
603.304	3.93
603.64	3.96
603.976	4.21
604.312	3.77
604.648	3.85
604.984	4.05
605.319	4.02
605.655	3.97
605.991	3.9
606.326	3.89
606.662	3.76
606.998	3.76
607.333	3.94
607.668	3.96
608.004	3.81
608.339	4.08
608.674	3.68
609.01	3.91
609.345	3.86
609.68	4.17
610.015	3.93
610.35	3.75
610.685	3.59
611.02	3.75
611.355	3.87
611.689	3.56
612.024	3.93
612.359	3.7
612.694	3.69
613.028	3.62
613.363	4.01
613.697	3.88
614.032	4.01
614.366	3.67
614.7	3.94
615.035	4.01
615.369	3.88
615.703	3.77
616.037	3.89
616.371	3.64
616.705	3.71
617.039	3.73
617.373	3.82
617.707	3.98
618.041	4.02
618.375	3.93
618.709	3.72
619.042	3.71
619.376	3.93
619.71	4.19
620.043	4.11
620.377	3.97
620.71	3.85
621.043	3.72
621.377	3.86
621.71	3.62
622.043	3.61
622.376	3.85
622.709	3.87
623.043	3.87
623.376	4.1
623.709	3.86
624.041	4.13
624.374	3.89
624.707	3.75
625.04	3.65
625.373	3.49
625.705	3.77
626.038	3.9
626.37	3.76
626.703	3.69
627.035	3.62
627.368	4.11
627.7	3.86
628.032	3.57
628.365	4.05
628.697	3.83
629.029	3.73
629.361	3.65
629.693	3.95
630.025	3.55
630.357	4.03
630.689	3.75
631.021	3.68
631.353	3.92
631.684	3.49
632.016	3.49
632.348	4.05
632.679	3.69
633.011	4.2
633.342	4.01
633.674	3.65
634.005	3.9
634.336	3.6
634.668	4.54
634.999	3.61
635.33	4.03
635.661	3.94
635.992	3.82
636.323	4.12
636.654	3.92
636.985	3.9
637.316	3.4
637.647	3.62
637.977	4.18
638.308	4.3
638.639	3.48
638.969	3.6
639.3	3.77
639.63	3.58
639.961	3.81
640.291	3.62
640.622	4.11
640.952	3.47
641.282	4.49
641.612	3.78
641.943	3.74
642.273	3.53
642.603	4.01
642.933	3.85
643.263	4.31
643.592	3.62
643.922	3.75
644.252	3.98
644.582	4.18
644.911	3.36
645.241	3.59
645.571	3.68
645.9	3.41
646.23	3.77
646.559	4.34
646.888	3.7
647.218	3.55
647.547	4.28
647.876	3.85
648.205	4.28
648.534	3.62
648.863	3.81
649.192	3.88
649.521	3.43
649.85	3.54
650.179	3.77
650.508	3.37
650.837	3.53
651.165	3.7
651.494	4.02
651.822	3.64
652.151	3.57
652.479	4.11
652.808	3.65
653.136	3.78
653.465	3.5
653.793	3.47
654.121	3.87
654.449	4.09
654.777	3.84
655.105	3.79
655.433	3.53
655.761	4.09
656.089	4.05
656.417	3.8
656.745	3.47
657.073	3.65
657.4	4.46
657.728	3.66
658.056	3.65
658.383	3.57
658.711	4.3
659.038	4.37
659.365	4.28
659.693	4.52
660.02	3.64
660.347	3.7
660.674	4.28
661.001	4
661.329	3.39
661.656	3.95
661.982	4.09
662.309	3.82
662.636	3.41
662.963	3.91
663.29	3.9
663.616	4.31
663.943	3.77
664.27	4.38
664.596	4.16
664.923	4.28
665.249	4.04
665.576	3.75
665.902	4.86
666.228	3.96
666.554	4.08
666.881	3.99
667.207	3.63
667.533	4.39
667.859	3.76
668.185	4.71
668.511	3.4
668.837	3.34
669.162	3.95
669.488	3.34
669.814	4.25
670.139	4.13
670.465	4.18
670.791	4.49
671.116	4.39
671.442	4
671.767	4.4
672.092	4.46
672.418	4.22
672.743	3.98
673.068	3.56
673.393	3.96
673.718	3.89
674.043	3.45
674.368	4.08
674.693	4.64
675.018	3.32
675.343	4
675.667	3.93
675.992	4.09
676.317	4.14
676.641	4.45
676.966	3.87
677.29	3.37
677.615	4.01
677.939	4.72
678.264	4.2
678.588	4.18
678.912	3.61
679.236	4.48
679.56	3.2
679.885	4.01
680.209	3.47
680.532	3.9
680.856	4.73
681.18	3.91
681.504	3.7
681.828	4.39
682.152	4.08
682.475	4.28
682.799	4.46
683.122	4.3
683.446	3.79
683.769	4.94
684.093	3.73
684.416	5.01
684.739	4.32
685.062	3.86
685.386	4.33
685.709	3.85
686.032	4.1
686.355	3.94
686.678	4.26
687.001	3.49
687.324	4.34
687.646	3.29
687.969	4.1
688.292	4.09
688.614	4.39
688.937	4.62
689.26	4.52
689.582	4.37
689.904	4.37
690.227	3.63
690.549	4.48
690.871	4.84
691.194	3
691.516	3.79
691.838	4.21
692.16	2.9
692.482	4.44
692.804	3.91
693.126	4.18
693.448	4.33
