Data from 0191_forehead_Reflection__3__422.txt Node

Date: Fri Dec 15 20:28:32 CST 2023
User: ToomeyLab
Spectrometer: FLMS14357
Trigger mode: 0
Integration Time (sec): 1.000000E-2
Scans to average: 100
Electric dark correction enabled: true
Nonlinearity correction enabled: false
Boxcar width: 0
XAxis mode: Wavelengths
Number of Pixels in Spectrum: 2048
>>>>>Begin Spectral Data<<<<<
189.047	25.57
189.435	25.57
189.823	25.57
190.211	130.63
190.599	-34.48
190.987	112.09
191.375	54.28
191.763	-11.13
192.151	-67.48
192.538	105.25
192.926	-1.42
193.314	42.75
193.702	92.71
194.089	15.1
194.477	176.82
194.864	-1448.88
195.252	97.41
195.639	56.81
196.027	34.06
196.414	1.82
196.801	155.52
197.189	145.67
197.576	190.69
197.963	86.89
198.351	-61.98
198.738	9.45
199.125	63.24
199.512	72.03
199.899	10.46
200.286	107.22
200.673	59.15
201.06	-14.86
201.447	59.89
201.833	29.8
202.22	6.08
202.607	79.1
202.994	90.75
203.38	2.7
203.767	15.58
204.154	-13.62
204.54	26.72
204.927	-55.62
205.313	3.49
205.699	52.99
206.086	28.69
206.472	35.46
206.858	-10.44
207.245	-37.31
207.631	57.79
208.017	40.84
208.403	36.62
208.789	14.68
209.175	23.43
209.561	-12.62
209.947	93.13
210.333	-47.89
210.719	48.17
211.105	49.66
211.491	-14.62
211.876	48.09
212.262	32.89
212.648	41.33
213.034	7.39
213.419	-18.56
213.805	63.83
214.19	-3.06
214.576	-36.94
214.961	-39.41
215.346	14.8
215.732	-14.68
216.117	21.09
216.502	-53.32
216.888	13.15
217.273	29.13
217.658	-27.01
218.043	26.11
218.428	7.74
218.813	-10.18
219.198	-89.26
219.583	25.12
219.968	17.83
220.353	5.81
220.738	39.74
221.122	-1.95
221.507	-3.12
221.892	-34.22
222.276	-15.97
222.661	13.78
223.046	29.22
223.43	19.09
223.815	16.94
224.199	2.26
224.583	17.14
224.968	11.69
225.352	21.23
225.736	2.13
226.121	-12.41
226.505	5.67
226.889	10.72
227.273	6.27
227.657	11.65
228.041	0.34
228.425	2.41
228.809	4.65
229.193	7.44
229.577	1.4
229.961	3.73
230.344	3.21
230.728	3.12
231.112	3.85
231.495	2.98
231.879	3.52
232.263	5.3
232.646	4.83
233.03	3.89
233.413	3.86
233.797	3.19
234.18	5.72
234.563	5.68
234.946	1.07
235.33	6.6
235.713	4.98
236.096	4.75
236.479	3.91
236.862	2.63
237.245	4.64
237.628	3.1
238.011	6.3
238.394	5.67
238.777	4.57
239.16	2.63
239.543	4.38
239.925	5.53
240.308	5.34
240.691	5.38
241.073	5.72
241.456	4.4
241.838	4.92
242.221	2.55
242.603	3.64
242.986	4.52
243.368	4.06
243.75	4.44
244.133	3.7
244.515	4.52
244.897	4
245.279	4.39
245.661	3.94
246.043	2.85
246.425	2.79
246.807	6.16
247.189	4.71
247.571	4.94
247.953	4.24
248.335	3.99
248.717	4.46
249.098	4
249.48	4.21
249.862	4.17
250.243	3.76
250.625	4.26
251.006	4.36
251.388	3.02
251.769	4.77
252.151	5.11
252.532	3.8
252.913	4.18
253.295	3.93
253.676	4.22
254.057	4.2
254.438	4.09
254.819	4.95
255.2	3.72
255.581	3.85
255.962	4.25
256.343	4.01
256.724	4.08
257.105	4.33
257.486	4.15
257.867	4.12
258.247	4.61
258.628	4.07
259.009	4.64
259.389	4.89
259.77	4.21
260.15	3.43
260.531	3.34
260.911	4.8
261.292	4.04
261.672	4.13
262.052	4.17
262.432	4.36
262.813	4.34
263.193	3.89
263.573	4.41
263.953	4.07
264.333	4.67
264.713	4.36
265.093	4.21
265.473	4.4
265.853	2.97
266.233	4.6
266.612	1.95
266.992	3.39
267.372	4.34
267.752	4.02
268.131	4.68
268.511	4.81
268.89	4.44
269.27	3.94
269.649	3.12
270.029	3.38
270.408	4.56
270.787	4.03
271.167	5.02
271.546	4.41
271.925	3.57
272.304	4.39
272.683	3.96
273.062	4.25
273.441	3.94
273.82	3.56
274.199	4.32
274.578	4.38
274.957	4.08
275.336	4.15
275.715	4.17
276.093	3.85
276.472	4.31
276.851	3.62
277.229	3.89
277.608	2.84
277.986	4.1
278.365	4.52
278.743	3.86
279.122	4.03
279.5	4.61
279.878	4.4
280.257	4.27
280.635	3.34
281.013	3.21
281.391	4.23
281.769	4.16
282.147	4.92
282.525	4.48
282.903	3.92
283.281	4.72
283.659	4.52
284.037	4.25
284.415	4
284.792	4.55
285.17	3.75
285.548	3.39
285.925	4.06
286.303	3.97
286.68	4.08
287.058	4.03
287.435	4.07
287.813	3.96
288.19	3.79
288.567	4.13
288.945	4.61
289.322	4.6
289.699	3.94
290.076	4.3
290.453	4.12
290.83	4.05
291.207	4.1
291.584	4.3
291.961	4.61
292.338	4.57
292.715	4.33
293.092	4.85
293.469	5.04
293.845	4.29
294.222	3.71
294.599	4.3
294.975	4.15
295.352	4.93
295.728	4.03
296.105	4.3
296.481	4.74
296.858	4.64
297.234	4.93
297.61	5.18
297.986	4.78
298.363	5.09
298.739	4.97
299.115	4.67
299.491	4.4
299.867	4.66
300.243	4.99
300.619	4.52
300.995	4.69
301.371	5.29
301.746	4.41
302.122	5.43
302.498	5.02
302.874	5.08
303.249	4.96
303.625	5.39
304	5.57
304.376	5.06
304.751	4.72
305.127	5.84
305.502	4.96
305.878	5.54
306.253	5.54
306.628	5.96
307.003	5.13
307.378	5.58
307.754	6.17
308.129	5
308.504	5.75
308.879	5.65
309.254	6.59
309.629	5.84
310.003	6.37
310.378	6.51
310.753	6.33
311.128	5.73
311.502	6.44
311.877	6.34
312.252	6.01
312.626	6.5
313.001	5.85
313.375	6.9
313.75	6.34
314.124	6.73
314.498	6.18
314.873	6.56
315.247	6.2
315.621	6.66
315.995	6.34
316.369	6.72
316.743	6.83
317.117	7.23
317.491	7.23
317.865	7.26
318.239	7.2
318.613	6.76
318.987	6.95
319.361	6.8
319.734	7.34
320.108	7.43
320.482	7.52
320.855	7.73
321.229	7.94
321.602	7.97
321.976	8.3
322.349	7.6
322.723	7.48
323.096	8.25
323.469	7.4
323.843	7.9
324.216	8.5
324.589	7.57
324.962	7.56
325.335	8.16
325.708	7.98
326.081	8.38
326.454	8.79
326.827	8.11
327.2	8.28
327.573	7.94
327.945	8.67
328.318	8.47
328.691	8.22
329.063	8.27
329.436	8.46
329.809	8.68
330.181	8.08
330.553	8.23
330.926	8.83
331.298	8.21
331.671	8.72
332.043	9.12
332.415	9.27
332.787	8.5
333.159	9.47
333.532	9.37
333.904	8.41
334.276	8.99
334.648	9.16
335.02	9.04
335.391	9.17
335.763	9.14
336.135	8.96
336.507	9.74
336.879	8.93
337.25	9.54
337.622	9.64
337.993	9.88
338.365	9.98
338.736	9.89
339.108	9.89
339.479	9.49
339.851	9.53
340.222	9.69
340.593	9.4
340.964	9.59
341.336	10.89
341.707	9.66
342.078	10.34
342.449	10.47
342.82	9.97
343.191	9.85
343.562	10.06
343.933	10.25
344.303	10.66
344.674	9.81
345.045	10.49
345.416	10.9
345.786	9.84
346.157	10.34
346.527	10
346.898	10.07
347.268	11.07
347.639	10.33
348.009	11.18
348.38	10.54
348.75	10.77
349.12	10.23
349.49	11.01
349.861	10.81
350.231	10.71
350.601	11.03
350.971	11.28
351.341	11.12
351.711	11.23
352.081	11.03
352.45	10.96
352.82	11.14
353.19	11.13
353.56	10.65
353.929	11.33
354.299	11.34
354.669	11.32
355.038	11.87
355.408	11.45
355.777	11.98
356.147	11.33
356.516	11.92
356.885	11.86
357.254	11.43
357.624	11.81
357.993	11.59
358.362	11.46
358.731	11.35
359.1	12.14
359.469	11.91
359.838	11.94
360.207	11.96
360.576	12.12
360.945	12.04
361.314	12.25
361.682	11.83
362.051	11.93
362.42	12.41
362.788	12.41
363.157	12.4
363.525	12.35
363.894	12.43
364.262	12.5
364.631	12.14
364.999	12.89
365.367	11.98
365.735	13.31
366.104	12.68
366.472	12.78
366.84	12.7
367.208	12.74
367.576	13.13
367.944	13
368.312	12.52
368.68	13.02
369.048	12.95
369.416	13.08
369.783	12.7
370.151	13.47
370.519	13.59
370.886	13.46
371.254	13.4
371.621	13.71
371.989	13.49
372.356	13.06
372.724	13.78
373.091	13.61
373.458	13.62
373.826	13.51
374.193	13.68
374.56	13.99
374.927	13.79
375.294	14.33
375.661	14.35
376.028	14.14
376.395	13.75
376.762	13.94
377.129	14
377.496	14.28
377.863	14.32
378.229	13.73
378.596	14.23
378.963	14.11
379.329	14.09
379.696	14.62
380.062	14.66
380.429	14.58
380.795	14.21
381.161	14.66
381.528	14.54
381.894	14.89
382.26	14.42
382.626	14.83
382.993	14.56
383.359	14.89
383.725	14.84
384.091	14.7
384.457	15.33
384.823	14.97
385.188	15.37
385.554	15.03
385.92	15.22
386.286	15.53
386.651	15.51
387.017	15.58
387.383	15.51
387.748	14.98
388.114	15.59
388.479	15.57
388.845	15.74
389.21	15.84
389.575	15.99
389.94	15.8
390.306	15.76
390.671	16.06
391.036	15.72
391.401	15.55
391.766	16.27
392.131	15.85
392.496	16.1
392.861	16.23
393.226	16.12
393.591	16.2
393.956	15.98
394.32	16.22
394.685	16.35
395.05	16.25
395.414	16.41
395.779	16.22
396.143	16.63
396.508	16.63
396.872	16.57
397.236	16.68
397.601	16.27
397.965	16.63
398.329	16.64
398.694	16.99
399.058	17.14
399.422	16.57
399.786	16.78
400.15	17.3
400.514	16.97
400.878	16.92
401.242	17.44
401.605	17.52
401.969	17.3
402.333	17.23
402.697	17.07
403.06	17.23
403.424	17.31
403.787	17.18
404.151	17.91
404.514	17.16
404.878	17.33
405.241	17.72
405.604	17.38
405.968	17.69
406.331	17.44
406.694	17.98
407.057	17.75
407.42	17.84
407.783	17.56
408.146	17.58
408.509	18.05
408.872	17.95
409.235	17.89
409.598	18.08
409.961	18.16
410.323	18.45
410.686	18.34
411.049	18.11
411.411	18.15
411.774	18.47
412.136	18.47
412.499	18.34
412.861	18.01
413.223	18.46
413.586	18.63
413.948	18.73
414.31	18.83
414.672	18.51
415.035	18.74
415.397	18.78
415.759	18.84
416.121	19.16
416.483	18.51
416.845	18.86
417.206	18.68
417.568	19.23
417.93	19.12
418.292	19.19
418.653	19.07
419.015	18.97
419.377	19.07
419.738	19.26
420.1	19.09
420.461	19.17
420.822	19.16
421.184	19.26
421.545	19.31
421.906	19.13
422.267	19.2
422.629	19.22
422.99	19.18
423.351	19.09
423.712	19.15
424.073	19.47
424.434	19.16
424.795	19.52
425.155	19.54
425.516	19.51
425.877	19.64
426.238	19.75
426.598	19.61
426.959	19.64
427.32	19.68
427.68	19.74
428.041	19.92
428.401	19.95
428.761	20.03
429.122	19.96
429.482	19.96
429.842	20.52
430.202	20.5
430.563	20.57
430.923	20.44
431.283	20.57
431.643	20.61
432.003	20.68
432.363	20.52
432.722	20.97
433.082	21.02
433.442	20.89
433.802	20.95
434.161	20.94
434.521	20.99
434.881	21
435.24	20.85
435.6	20.95
435.959	20.92
436.319	20.86
436.678	21.1
437.037	21.26
437.396	21.19
437.756	21.29
438.115	21.26
438.474	21.32
438.833	21.26
439.192	21.57
439.551	21.68
439.91	21.49
440.269	21.6
440.628	21.62
440.987	21.6
441.345	21.49
441.704	21.72
442.063	21.54
442.421	21.48
442.78	21.74
443.138	21.58
443.497	21.83
443.855	21.7
444.214	21.92
444.572	21.98
444.93	21.87
445.288	22.16
445.647	22.41
446.005	22.2
446.363	22.46
446.721	22.35
447.079	22.13
447.437	22.31
447.795	22.28
448.153	22.2
448.51	22.26
448.868	22.24
449.226	22.3
449.584	22.05
449.941	22.6
450.299	22.55
450.656	22.61
451.014	22.72
451.371	22.66
451.729	22.89
452.086	22.98
452.443	23.04
452.801	23.13
453.158	23.12
453.515	23.01
453.872	23.55
454.229	23.27
454.586	23.26
454.943	23.22
455.3	23.38
455.657	23.26
456.014	23.63
456.371	23.56
456.727	23.57
457.084	23.71
457.441	23.71
457.797	23.88
458.154	24.09
458.51	24.15
458.867	24.19
459.223	23.84
459.58	24.06
459.936	24.06
460.292	24
460.648	24.31
461.005	24.14
461.361	24.23
461.717	24.18
462.073	23.87
462.429	23.83
462.785	23.93
463.141	23.9
463.496	24.21
463.852	24.5
464.208	24.6
464.564	24.62
464.919	24.78
465.275	24.78
465.631	24.88
465.986	24.82
466.342	25.09
466.697	24.92
467.052	25.03
467.408	25.03
467.763	25.04
468.118	25.27
468.473	25.16
468.829	25.3
469.184	25.21
469.539	25.31
469.894	25.19
470.249	25.24
470.603	25.4
470.958	25.62
471.313	25.68
471.668	25.65
472.023	25.49
472.377	25.55
472.732	25.6
473.086	25.8
473.441	25.86
473.795	26.05
474.15	25.93
474.504	26.22
474.859	26.29
475.213	26.21
475.567	26.08
475.921	26.23
476.275	26.26
476.63	26.02
476.984	26.35
477.338	26.61
477.692	26.13
478.045	26.42
478.399	26.57
478.753	26.56
479.107	26.5
479.461	26.57
479.814	26.8
480.168	26.62
480.521	26.59
480.875	26.68
481.228	26.65
481.582	26.92
481.935	26.93
482.289	26.84
482.642	26.82
482.995	26.72
483.348	26.84
483.701	27.01
484.055	26.94
484.408	26.93
484.761	26.83
485.114	26.57
485.466	26.5
485.819	26.42
486.172	26.18
486.525	25.96
486.878	25.83
487.23	26.09
487.583	26.37
487.936	26.75
488.288	26.92
488.641	27.03
488.993	26.91
489.345	26.83
489.698	26.88
490.05	26.78
490.402	26.74
490.754	26.67
491.107	27
491.459	27.19
491.811	27.32
492.163	27.6
492.515	27.8
492.866	27.8
493.218	27.8
493.57	27.62
493.922	27.44
494.274	27.35
494.625	27.36
494.977	27.57
495.328	27.88
495.68	28.09
496.031	28.38
496.383	28.42
496.734	28.66
497.086	28.9
497.437	28.6
497.788	28.72
498.139	29.06
498.49	29.2
498.842	28.86
499.193	28.8
499.544	28.92
499.894	28.85
500.245	28.97
500.596	29.07
500.947	29.2
501.298	28.97
501.648	29.29
501.999	29.58
502.35	29.45
502.7	29.59
503.051	29.63
503.401	29.43
503.752	29.89
504.102	29.86
504.452	29.75
504.803	29.79
505.153	30.07
505.503	29.91
505.853	29.88
506.203	29.96
506.553	30.14
506.903	29.98
507.253	30.13
507.603	30.23
507.953	30.32
508.303	30.46
508.652	30.04
509.002	30.36
509.352	30.49
509.701	30.6
510.051	30.34
510.4	30.56
510.75	30.51
511.099	30.49
511.449	30.3
511.798	30.5
512.147	30.67
512.496	30.62
512.846	30.63
513.195	30.61
513.544	30.66
513.893	30.97
514.242	30.98
514.591	31.01
514.939	30.93
515.288	30.99
515.637	31.11
515.986	31.27
516.334	31.33
516.683	31.4
517.032	31.6
517.38	31.36
517.729	31.37
518.077	31.74
518.426	31.76
518.774	31.81
519.122	31.71
519.47	31.59
519.819	31.5
520.167	31.57
520.515	31.55
520.863	31.45
521.211	31.47
521.559	31.64
521.907	31.64
522.255	31.71
522.602	31.79
522.95	32
523.298	32.29
523.645	32.16
523.993	32.1
524.341	32.37
524.688	32.31
525.036	32.35
525.383	32.39
525.73	32.49
526.078	32.6
526.425	32.56
526.772	32.53
527.119	32.68
527.466	32.55
527.814	32.47
528.161	32.25
528.508	32.32
528.854	32.21
529.201	32.28
529.548	32.55
529.895	32.49
530.242	32.29
530.588	32.35
530.935	31.96
531.282	31.88
531.628	31.76
531.975	31.88
532.321	32.09
532.667	32.55
533.014	32.67
533.36	32.83
533.706	32.98
534.052	33.15
534.399	33.08
534.745	33.35
535.091	33.19
535.437	33.18
535.783	32.9
536.129	32.74
536.474	32.79
536.82	33.01
537.166	33.47
537.512	33.75
537.857	33.65
538.203	33.99
538.549	33.72
538.894	33.76
539.239	33.8
539.585	33.63
539.93	33.9
540.276	33.88
540.621	34.31
540.966	34.36
541.311	34.44
541.656	34.36
542.001	34.49
542.346	34.58
542.691	34.37
543.036	34.34
543.381	34.12
543.726	33.94
544.071	33.95
544.415	33.79
544.76	33.94
545.105	34.2
545.449	34.33
545.794	34.53
546.138	34.72
546.483	34.66
546.827	34.92
547.171	34.95
547.516	35.26
547.86	35.07
548.204	35.16
548.548	35.14
548.892	35.37
549.236	35.35
549.58	35.45
549.924	35.33
550.268	35.25
550.612	35.52
550.956	35.74
551.3	35.65
551.643	35.76
551.987	36.23
552.33	36.03
552.674	36.54
553.017	36.06
553.361	36.25
553.704	36.45
554.048	36.32
554.391	36.55
554.734	36.36
555.077	36.48
555.42	36.37
555.764	36.35
556.107	36.4
556.45	36.5
556.793	36.65
557.135	36.73
557.478	36.86
557.821	36.99
558.164	37.22
558.507	36.95
558.849	37.03
559.192	37.37
559.534	37.17
559.877	37.31
560.219	37.49
560.562	37.46
560.904	37.34
561.246	37.44
561.589	37.6
561.931	37.64
562.273	37.39
562.615	37.71
562.957	37.47
563.299	37.89
563.641	37.61
563.983	37.86
564.325	37.76
564.667	37.83
565.008	37.89
565.35	37.93
565.692	37.99
566.033	38.06
566.375	38.33
566.716	38.29
567.058	38.04
567.399	38.01
567.741	38.07
568.082	38.18
568.423	38.12
568.764	38.25
569.105	38.04
569.447	38.29
569.788	38.28
570.129	38.35
570.47	38.43
570.811	38.78
571.151	38.61
571.492	38.7
571.833	38.74
572.174	38.6
572.514	38.77
572.855	38.78
573.195	39
573.536	39.24
573.876	39
574.217	38.98
574.557	38.9
574.898	38.84
575.238	38.67
575.578	38.72
575.918	38.99
576.258	39.29
576.598	39.45
576.938	39.36
577.278	39.49
577.618	39.23
577.958	39.22
578.298	39.42
578.638	39.23
578.977	39.51
579.317	39.87
579.657	39.67
579.996	39.73
580.336	39.75
580.675	39.94
581.014	39.91
581.354	40.25
581.693	40.42
582.032	40.06
582.372	40.09
582.711	40.31
583.05	40
583.389	40.35
583.728	40.52
584.067	40.73
584.406	40.26
584.745	40.48
585.083	40.68
585.422	40.6
585.761	40.96
586.1	40.86
586.438	41.13
586.777	40.87
587.115	41.01
587.454	41.04
587.792	41.17
588.13	41.25
588.469	40.85
588.807	41.19
589.145	40.94
589.483	41.07
589.821	41.46
590.159	41.13
590.497	41.27
590.835	41.79
591.173	41.42
591.511	41.77
591.849	41.35
592.187	41.66
592.524	41.71
592.862	41.51
593.2	41.83
593.537	41.75
593.875	41.5
594.212	41.6
594.55	41.95
594.887	42.13
595.224	41.85
595.561	41.81
595.899	42.11
596.236	41.97
596.573	41.87
596.91	41.81
597.247	42.21
597.584	42.1
597.921	42.35
598.258	42.48
598.594	42.31
598.931	42.18
599.268	42.27
599.604	42.15
599.941	42.07
600.277	41.88
600.614	42.05
600.95	42.31
601.287	42.61
601.623	42.12
601.959	42.43
602.296	42.61
602.632	42.77
602.968	42.62
603.304	43.12
603.64	42.84
603.976	43.11
604.312	42.95
604.648	43.29
604.984	43.26
605.319	43.25
605.655	43.3
605.991	42.99
606.326	42.93
606.662	43.12
606.998	42.85
607.333	42.86
607.668	42.74
608.004	42.9
608.339	43.37
608.674	43.19
609.01	43.06
609.345	43.17
609.68	43.75
610.015	43.58
610.35	43.68
610.685	43.66
611.02	43.72
611.355	43.9
611.689	43.64
612.024	43.99
612.359	43.26
612.694	43.45
613.028	43.89
613.363	43.98
613.697	43.55
614.032	44.07
614.366	44.17
614.7	43.92
615.035	44.08
615.369	43.87
615.703	43.7
616.037	44.66
616.371	43.96
616.705	44.34
617.039	44.67
617.373	44.5
617.707	44.04
618.041	44.7
618.375	44.76
618.709	44.69
619.042	44.4
619.376	45
619.71	44.97
620.043	44.51
620.377	44.97
620.71	45.28
621.043	44.91
621.377	44.94
621.71	45.01
622.043	45.12
622.376	44.84
622.709	45.04
623.043	45.15
623.376	45.33
623.709	45.1
624.041	45.31
624.374	45.63
624.707	45.61
625.04	45.76
625.373	45.66
625.705	45.62
626.038	45.56
626.37	45.35
626.703	45.59
627.035	45.99
627.368	46.22
627.7	45.73
628.032	45.47
628.365	46.1
628.697	45.94
629.029	46.28
629.361	45.94
629.693	46.05
630.025	45.97
630.357	45.8
630.689	46.52
631.021	46.18
631.353	46.49
631.684	45.88
632.016	46.53
632.348	46.39
632.679	46.17
633.011	46.33
633.342	46.78
633.674	46.43
634.005	46.72
634.336	47.03
634.668	47.34
634.999	46.67
635.33	46.84
635.661	47.17
635.992	46.99
636.323	47.11
636.654	46.73
636.985	47
637.316	46.87
637.647	47.14
637.977	46.73
638.308	47.16
638.639	46.83
638.969	46.7
639.3	47.04
639.63	46.96
639.961	47.03
640.291	47.28
640.622	47.45
640.952	47.33
641.282	47.64
641.612	47.41
641.943	47.05
642.273	47.74
642.603	47.76
642.933	47.49
643.263	47.38
643.592	47.8
643.922	47.18
644.252	48.12
644.582	48.33
644.911	47.29
645.241	47.72
645.571	47.49
645.9	47.52
646.23	47.88
646.559	48.02
646.888	47.6
647.218	47.46
647.547	48.48
647.876	48.44
648.205	48.26
648.534	48.46
648.863	48.24
649.192	48.49
649.521	47.79
649.85	48.86
650.179	48.81
650.508	47.95
650.837	48.78
651.165	48.63
651.494	48.64
651.822	48.5
652.151	48.43
652.479	49.18
652.808	48.02
653.136	48.9
653.465	48.11
653.793	48.78
654.121	48.36
654.449	48.68
654.777	48.65
655.105	49.08
655.433	48.85
655.761	48.73
656.089	48.82
656.417	49.29
656.745	49.41
657.073	48.56
657.4	49.2
657.728	49.59
658.056	49.85
658.383	49.47
658.711	49.6
659.038	49.94
659.365	49.19
659.693	50.31
660.02	49.63
660.347	49.39
660.674	49.82
661.001	50.2
661.329	49.73
661.656	49.36
661.982	49.78
662.309	50
662.636	49.27
662.963	49.79
663.29	49.48
663.616	50.02
663.943	49.18
664.27	50.52
664.596	49.6
664.923	49.95
665.249	49.76
665.576	50.3
665.902	50.3
666.228	49.62
666.554	50.14
666.881	50.61
667.207	50.25
667.533	50.55
667.859	50.18
668.185	50.91
668.511	49.91
668.837	49.51
669.162	50.94
669.488	50.44
669.814	50.49
670.139	50.9
670.465	50.3
670.791	51.23
