Data from 0391_forehead_Reflection__4__199.txt Node

Date: Fri Dec 15 18:15:39 CST 2023
User: ToomeyLab
Spectrometer: FLMS14357
Trigger mode: 0
Integration Time (sec): 1.000000E-2
Scans to average: 100
Electric dark correction enabled: true
Nonlinearity correction enabled: false
Boxcar width: 0
XAxis mode: Wavelengths
Number of Pixels in Spectrum: 2048
>>>>>Begin Spectral Data<<<<<
189.047	58.98
189.435	58.98
189.823	58.98
190.211	-135.58
190.599	1870.55
190.987	134.32
191.375	28.38
191.763	134.02
192.151	-19.46
192.538	88.53
192.926	-67.99
193.314	47.23
193.702	109.26
194.089	-128.01
194.477	77.35
194.864	-189.18
195.252	66.66
195.639	61.08
196.027	97.7
196.414	71.09
196.801	461.11
197.189	114.2
197.576	85.53
197.963	102.9
198.351	5.78
198.738	30.21
199.125	44.05
199.512	-4.02
199.899	45.91
200.286	28.89
200.673	25.68
201.06	44.85
201.447	-67.16
201.833	22.67
202.22	81.19
202.607	109.77
202.994	34.74
203.38	6.81
203.767	22.44
204.154	38.77
204.54	43.71
204.927	2.49
205.313	-12.23
205.699	40.75
206.086	59.25
206.472	31.18
206.858	58.37
207.245	8.17
207.631	31.54
208.017	27.59
208.403	34.09
208.789	18.24
209.175	42.72
209.561	16.08
209.947	68.08
210.333	-46.11
210.719	-17.48
211.105	33.09
211.491	-12.32
211.876	32.75
212.262	81.13
212.648	25.22
213.034	25.81
213.419	16.61
213.805	-7.33
214.19	-0.36
214.576	-6.96
214.961	27.91
215.346	-18.49
215.732	-5.94
216.117	31.14
216.502	25.42
216.888	-4.35
217.273	17.42
217.658	26.36
218.043	30.59
218.428	38.35
218.813	-23.03
219.198	-8.72
219.583	-7.89
219.968	29.73
220.353	19.97
220.738	39.87
221.122	37.73
221.507	10.64
221.892	-17.18
222.276	-8.29
222.661	-1.18
223.046	19.08
223.43	13.41
223.815	17.06
224.199	-6.74
224.583	11.56
224.968	6.27
225.352	20.97
225.736	11.04
226.121	13.34
226.505	7.64
226.889	5.26
227.273	4.28
227.657	13.04
228.041	12.15
228.425	7.68
228.809	9.83
229.193	7.79
229.577	7.16
229.961	4.83
230.344	5.41
230.728	6.16
231.112	6.52
231.495	5.8
231.879	5.54
232.263	8.42
232.646	8
233.03	4.77
233.413	6.22
233.797	6.08
234.18	4.32
234.563	6.86
234.946	7.1
235.33	7.86
235.713	6.05
236.096	6.93
236.479	6.85
236.862	4.84
237.245	7.79
237.628	4.28
238.011	6.81
238.394	8.77
238.777	7.08
239.16	5.05
239.543	7.14
239.925	7.99
240.308	7.29
240.691	8.9
241.073	7.47
241.456	6.79
241.838	7.26
242.221	4.23
242.603	6.65
242.986	6.34
243.368	6.58
243.75	7.08
244.133	6.61
244.515	6.53
244.897	6.52
245.279	6.08
245.661	6.52
246.043	6.38
246.425	6.21
246.807	7.44
247.189	7.34
247.571	7.18
247.953	7.11
248.335	6.37
248.717	6.91
249.098	6.27
249.48	6.54
249.862	6.22
250.243	6.71
250.625	7.03
251.006	6.95
251.388	6.31
251.769	6.79
252.151	7.7
252.532	6.83
252.913	6.23
253.295	6.56
253.676	5.79
254.057	6.7
254.438	6.26
254.819	6.38
255.2	6.94
255.581	5.53
255.962	6.15
256.343	7.6
256.724	6.55
257.105	5.5
257.486	6.24
257.867	7.96
258.247	6.3
258.628	6.2
259.009	6.9
259.389	6.7
259.77	6.4
260.15	5.94
260.531	6.38
260.911	6.58
261.292	6.41
261.672	6.56
262.052	6.32
262.432	6.54
262.813	6.54
263.193	6.09
263.573	6.6
263.953	6.15
264.333	6.65
264.713	6.4
265.093	6.64
265.473	6.97
265.853	5.94
266.233	6.63
266.612	4.85
266.992	5.6
267.372	6.85
267.752	7.07
268.131	6.37
268.511	6.63
268.89	6.83
269.27	6.3
269.649	5.88
270.029	6.03
270.408	6.99
270.787	7.06
271.167	6.82
271.546	7.23
271.925	5.91
272.304	6.48
272.683	6.27
273.062	6.3
273.441	6.03
273.82	5.86
274.199	6.44
274.578	6.33
274.957	6.47
275.336	5.69
275.715	5.82
276.093	5.42
276.472	6.1
276.851	5.71
277.229	5.79
277.608	5.51
277.986	5.67
278.365	5.92
278.743	5.7
279.122	6.17
279.5	6.55
279.878	6.88
280.257	5.6
280.635	5.54
281.013	6.26
281.391	6.5
281.769	5.63
282.147	6.34
282.525	7
282.903	6.35
283.281	6.59
283.659	6.52
284.037	6.47
284.415	7.01
284.792	6.79
285.17	5.55
285.548	5.77
285.925	6.19
286.303	6.44
286.68	6.27
287.058	6.28
287.435	6.46
287.813	6.37
288.19	6.1
288.567	6.11
288.945	6.91
289.322	7
289.699	6.39
290.076	6.73
290.453	6.77
290.83	6.4
291.207	6.55
291.584	7.15
291.961	6.8
292.338	6.79
292.715	7.13
293.092	6.46
293.469	7.14
293.845	7.07
294.222	6.49
294.599	7.52
294.975	6.58
295.352	7.24
295.728	6.82
296.105	7.06
296.481	7.68
296.858	7.34
297.234	7.14
297.61	7.19
297.986	7.44
298.363	7.8
298.739	7.68
299.115	7.5
299.491	7.37
299.867	7.47
300.243	7.75
300.619	7.24
300.995	7.74
301.371	8.26
301.746	7.48
302.122	8.11
302.498	7.65
302.874	7.69
303.249	7.71
303.625	7.94
304	8.28
304.376	8
304.751	7.83
305.127	8.96
305.502	7.59
305.878	7.83
306.253	8.11
306.628	8.78
307.003	8.58
307.378	9.07
307.754	8.81
308.129	8.45
308.504	8.68
308.879	9.37
309.254	9.9
309.629	9.25
310.003	9.26
310.378	9.4
310.753	9.37
311.128	9.51
311.502	9.54
311.877	9.51
312.252	9.06
312.626	9.28
313.001	9.84
313.375	9.54
313.75	9.08
314.124	9.4
314.498	9.42
314.873	9.86
315.247	9.29
315.621	9.59
315.995	9.52
316.369	9.72
316.743	9.64
317.117	9.76
317.491	9.97
317.865	9.52
318.239	10.3
318.613	10.7
318.987	10.48
319.361	9.69
319.734	10.78
320.108	10.04
320.482	10.71
320.855	10.53
321.229	10.27
321.602	9.69
321.976	10.44
322.349	10.11
322.723	10.68
323.096	11.17
323.469	10.4
323.843	10.99
324.216	11.17
324.589	10.78
324.962	11.23
325.335	11.51
325.708	10.84
326.081	11.17
326.454	11.57
326.827	10.8
327.2	11.01
327.573	11.33
327.945	11.66
328.318	11.3
328.691	10.95
329.063	11.41
329.436	11.13
329.809	11.24
330.181	11.68
330.553	11.54
330.926	11.46
331.298	11.99
331.671	11
332.043	12.63
332.415	11.59
332.787	12.18
333.159	12.42
333.532	12.52
333.904	11.8
334.276	12.22
334.648	11.56
335.02	11.96
335.391	12.22
335.763	12.02
336.135	12.22
336.507	12.04
336.879	11.79
337.25	11.63
337.622	12.23
337.993	11.98
338.365	12.58
338.736	12.22
339.108	12.61
339.479	12.29
339.851	12.53
340.222	12.21
340.593	12.82
340.964	12.36
341.336	13.33
341.707	12.52
342.078	12.77
342.449	12.82
342.82	12.64
343.191	12.77
343.562	12.9
343.933	12.97
344.303	12.92
344.674	12.63
345.045	12.79
345.416	13.43
345.786	12.81
346.157	12.97
346.527	12.74
346.898	12.61
347.268	13.3
347.639	13.17
348.009	13.14
348.38	13.1
348.75	12.77
349.12	12.96
349.49	13.34
349.861	13.1
350.231	13.2
350.601	13.55
350.971	13.72
351.341	13.02
351.711	13.18
352.081	13.7
352.45	13.1
352.82	14.04
353.19	13.66
353.56	13.41
353.929	13.78
354.299	13.47
354.669	13
355.038	13.65
355.408	13.83
355.777	13.8
356.147	13.47
356.516	13.64
356.885	13.72
357.254	14.08
357.624	14.35
357.993	14.07
358.362	13.74
358.731	13.78
359.1	14.01
359.469	14.52
359.838	14.47
360.207	13.96
360.576	14.42
360.945	14.49
361.314	14.52
361.682	14.33
362.051	14.22
362.42	14.33
362.788	14.3
363.157	14.78
363.525	14.69
363.894	14.56
364.262	14.45
364.631	14.24
364.999	14.59
365.367	14.26
365.735	15.09
366.104	14.91
366.472	14.72
366.84	14.73
367.208	14.57
367.576	15.08
367.944	15.2
368.312	14.78
368.68	14.83
369.048	15.38
369.416	15.22
369.783	14.81
370.151	15.4
370.519	15.77
370.886	15.84
371.254	15.44
371.621	15.73
371.989	15.35
372.356	15.19
372.724	15.4
373.091	15.61
373.458	15.83
373.826	15.57
374.193	15.41
374.56	15.65
374.927	15.78
375.294	15.81
375.661	15.8
376.028	15.46
376.395	15.51
376.762	15.76
377.129	15.87
377.496	15.7
377.863	15.84
378.229	15.62
378.596	15.99
378.963	16.01
379.329	15.79
379.696	16.02
380.062	15.78
380.429	15.9
380.795	15.91
381.161	16.26
381.528	16.49
381.894	16.47
382.26	16.38
382.626	16.65
382.993	15.71
383.359	16.55
383.725	16.01
384.091	16.63
384.457	16.7
384.823	16.64
385.188	16.42
385.554	16.34
385.92	16.7
386.286	17.14
386.651	16.71
387.017	16.75
387.383	16.98
387.748	16.71
388.114	16.94
388.479	16.68
388.845	17.1
389.21	16.7
389.575	17.11
389.94	17.01
390.306	17.15
390.671	17.11
391.036	16.79
391.401	16.69
391.766	17.09
392.131	17.1
392.496	17.28
392.861	17.21
393.226	17.37
393.591	17.42
393.956	17.12
394.32	17.32
394.685	16.99
395.05	17.22
395.414	17.3
395.779	17.36
396.143	17.64
396.508	17.47
396.872	17.53
397.236	17.53
397.601	17.4
397.965	17.71
398.329	17.78
398.694	17.55
399.058	17.84
399.422	17.32
399.786	17.74
400.15	17.97
400.514	17.65
400.878	17.79
401.242	18.2
401.605	17.93
401.969	18.18
402.333	17.98
402.697	17.94
403.06	17.99
403.424	18.02
403.787	17.93
404.151	18.53
404.514	18.22
404.878	18.15
405.241	18.4
405.604	18.21
405.968	18.34
406.331	18.39
406.694	18.53
407.057	18.47
407.42	18.53
407.783	18.4
408.146	18.57
408.509	18.52
408.872	18.54
409.235	18.72
409.598	18.78
409.961	18.92
410.323	18.88
410.686	19
411.049	18.74
411.411	18.96
411.774	18.61
412.136	18.76
412.499	18.53
412.861	19.03
413.223	19.07
413.586	19.09
413.948	19.33
414.31	19.07
414.672	18.84
415.035	19.06
415.397	19.18
415.759	19.1
416.121	19.36
416.483	19.41
416.845	19.57
417.206	19.08
417.568	19.57
417.93	19.17
418.292	19.44
418.653	19.65
419.015	19.61
419.377	19.6
419.738	19.67
420.1	19.29
420.461	19.64
420.822	19.32
421.184	19.48
421.545	19.65
421.906	19.49
422.267	19.5
422.629	19.58
422.99	19.6
423.351	19.4
423.712	19.49
424.073	19.51
424.434	19.57
424.795	19.8
425.155	19.98
425.516	19.74
425.877	19.72
426.238	19.89
426.598	19.84
426.959	19.94
427.32	19.74
427.68	19.86
428.041	19.98
428.401	20.09
428.761	20.19
429.122	20.14
429.482	20.27
429.842	20.47
430.202	20.4
430.563	20.47
430.923	20.49
431.283	20.64
431.643	20.53
432.003	20.71
432.363	20.82
432.722	20.5
433.082	20.53
433.442	20.65
433.802	20.53
434.161	20.88
434.521	21.01
434.881	20.99
435.24	20.76
435.6	20.76
435.959	20.81
436.319	20.86
436.678	21.01
437.037	21.02
437.396	21.21
437.756	21.08
438.115	21.08
438.474	21.33
438.833	20.97
439.192	21.17
439.551	21.57
439.91	21.37
440.269	21.4
440.628	21.54
440.987	21.42
441.345	21.4
441.704	21.52
442.063	21.53
442.421	21.5
442.78	21.6
443.138	21.41
443.497	21.55
443.855	21.45
444.214	21.59
444.572	21.75
444.93	21.71
445.288	21.97
445.647	21.76
446.005	22.02
446.363	22.02
446.721	22.11
447.079	22.12
447.437	22.04
447.795	21.98
448.153	21.89
448.51	21.91
448.868	21.88
449.226	21.83
449.584	21.99
449.941	22.06
450.299	22.08
450.656	22.29
451.014	22.29
451.371	22.04
451.729	22.15
452.086	22.47
452.443	22.54
452.801	22.53
453.158	22.45
453.515	22.46
453.872	22.73
454.229	22.72
454.586	22.82
454.943	22.78
455.3	22.83
455.657	22.74
456.014	22.79
456.371	22.8
456.727	22.85
457.084	23.12
457.441	22.87
457.797	23.18
458.154	23.13
458.51	23.1
458.867	23.36
459.223	23.46
459.58	23.22
459.936	23.27
460.292	23.35
460.648	23.17
461.005	23.34
461.361	23.6
461.717	23.43
462.073	23.23
462.429	23.06
462.785	23.13
463.141	23.25
463.496	23.28
463.852	23.54
464.208	23.72
464.564	23.55
464.919	23.89
465.275	23.62
465.631	24.03
465.986	23.84
466.342	24.06
466.697	23.86
467.052	24.11
467.408	23.92
467.763	24.11
468.118	23.79
468.473	23.96
468.829	24.24
469.184	24.14
469.539	24.21
469.894	24.14
470.249	24.42
470.603	24.46
470.958	24.56
471.313	24.58
471.668	24.74
472.023	24.53
472.377	24.55
472.732	24.51
473.086	24.52
473.441	24.5
473.795	24.87
474.15	24.73
474.504	24.71
474.859	24.76
475.213	24.88
475.567	24.69
475.921	24.65
476.275	25.1
476.63	25.13
476.984	25.05
477.338	25.06
477.692	25.11
478.045	25.2
478.399	25.37
478.753	25.38
479.107	25.34
479.461	25.28
479.814	25.29
480.168	25.36
480.521	25.36
480.875	25.51
481.228	25.3
481.582	25.4
481.935	25.37
482.289	25.59
482.642	25.55
482.995	25.58
483.348	25.53
483.701	25.46
484.055	25.51
484.408	25.85
484.761	25.43
485.114	25.39
485.466	25.33
485.819	25.27
486.172	24.96
486.525	24.68
486.878	24.59
487.23	24.78
487.583	25.07
487.936	25.34
488.288	25.56
488.641	25.69
488.993	25.54
489.345	25.53
489.698	25.47
490.05	25.33
490.402	25.37
490.754	25.29
491.107	25.49
491.459	25.67
491.811	25.98
492.163	26.26
492.515	26.2
492.866	26.49
493.218	26.37
493.57	26.26
493.922	25.97
494.274	25.86
494.625	25.87
494.977	26.11
495.328	26.32
495.68	26.63
496.031	26.63
496.383	26.8
496.734	26.9
497.086	27.08
497.437	27.03
497.788	27.14
498.139	27.04
498.49	27.34
498.842	27.17
499.193	27.07
499.544	27.1
499.894	27.04
500.245	27.24
500.596	27.31
500.947	27.47
501.298	27.39
501.648	27.59
501.999	27.79
502.35	27.78
502.7	27.64
503.051	27.62
503.401	27.65
503.752	27.68
504.102	27.89
504.452	28.1
504.803	27.96
505.153	28.16
505.503	28.24
505.853	28.22
506.203	28.23
506.553	28.18
506.903	28.14
507.253	28.29
507.603	28.32
507.953	28.41
508.303	28.63
508.652	28.44
509.002	28.55
509.352	28.55
509.701	28.63
510.051	28.74
510.4	28.7
510.75	28.77
511.099	28.54
511.449	28.69
511.798	28.64
512.147	28.93
512.496	28.77
512.846	28.94
513.195	29.03
513.544	28.92
513.893	29.13
514.242	28.87
514.591	29.15
514.939	29.08
515.288	29.19
515.637	29.14
515.986	29.08
516.334	29.21
516.683	29.36
517.032	29.45
517.38	29.66
517.729	29.46
518.077	29.61
518.426	29.66
518.774	29.9
519.122	29.58
519.47	29.77
519.819	29.73
520.167	29.7
520.515	29.65
520.863	29.69
521.211	29.7
521.559	29.69
521.907	29.54
522.255	29.84
522.602	29.99
522.95	29.97
523.298	30.14
523.645	30.35
523.993	30.36
524.341	30.43
524.688	30.47
525.036	30.49
525.383	30.52
525.73	30.78
526.078	30.72
526.425	30.47
526.772	30.86
527.119	30.82
527.466	30.66
527.814	30.54
528.161	30.59
528.508	30.56
528.854	30.55
529.201	30.68
529.548	30.66
529.895	30.6
530.242	30.73
530.588	30.62
530.935	30.41
531.282	30.18
531.628	29.98
531.975	30.17
532.321	30.55
532.667	30.59
533.014	31.03
533.36	31.08
533.706	31.18
534.052	31.35
534.399	31.33
534.745	31.45
535.091	31.4
535.437	31.39
535.783	31.27
536.129	31.17
536.474	31.15
536.82	31.35
537.166	31.7
537.512	31.79
537.857	31.96
538.203	32.26
538.549	32.14
538.894	31.86
539.239	31.97
539.585	32.02
539.93	31.92
540.276	32.27
540.621	32.36
540.966	32.53
541.311	32.54
541.656	32.63
542.001	32.78
542.346	32.91
542.691	32.71
543.036	32.55
543.381	32.39
543.726	32.3
544.071	32.1
544.415	32.22
544.76	32.22
545.105	32.38
545.449	32.76
545.794	32.74
546.138	32.95
546.483	32.9
546.827	33.03
547.171	33.28
547.516	33.42
547.86	33.37
548.204	33.57
548.548	33.37
548.892	33.7
549.236	33.64
549.58	33.47
549.924	33.64
550.268	33.69
550.612	33.67
550.956	33.86
551.3	33.83
551.643	34.18
551.987	34.23
552.33	34.5
552.674	34.19
553.017	34.68
553.361	34.6
553.704	34.53
554.048	34.62
554.391	34.55
554.734	34.53
555.077	34.72
555.42	34.47
555.764	34.36
556.107	34.65
556.45	34.79
556.793	34.86
557.135	34.88
557.478	35.29
557.821	35.15
558.164	35.28
558.507	35.54
558.849	35.37
559.192	35.43
559.534	35.4
559.877	35.62
560.219	35.46
560.562	35.85
560.904	35.45
561.246	35.71
561.589	35.76
561.931	35.94
562.273	35.65
562.615	35.96
562.957	36.16
563.299	36.08
563.641	36.16
563.983	36.04
564.325	36.04
564.667	35.91
565.008	36.07
565.35	36.22
565.692	36.26
566.033	36.25
566.375	36.67
566.716	36.59
567.058	36.49
567.399	36.64
567.741	36.28
568.082	36.57
568.423	36.78
568.764	36.5
569.105	36.59
569.447	36.33
569.788	36.67
570.129	36.88
570.47	36.92
570.811	37.04
571.151	36.9
571.492	37.01
571.833	37.33
572.174	37.27
572.514	37.18
572.855	37.34
573.195	37.51
573.536	37.39
573.876	37.13
574.217	37.22
574.557	37.36
574.898	37.53
575.238	37.33
575.578	37.49
575.918	37.58
576.258	37.87
576.598	37.76
576.938	37.7
577.278	37.82
577.618	37.85
577.958	37.85
578.298	37.8
578.638	37.89
578.977	38.03
579.317	38.12
579.657	38.37
579.996	38.45
580.336	38.38
580.675	38.66
581.014	38.6
581.354	38.66
581.693	38.71
582.032	38.54
582.372	38.49
582.711	38.78
583.05	38.93
583.389	39.06
583.728	39
584.067	38.93
584.406	39.18
584.745	39.39
585.083	39.29
585.422	39.43
585.761	39.35
586.1	39.62
586.438	39.92
586.777	39.9
587.115	39.95
587.454	39.76
587.792	39.41
588.13	39.86
588.469	39.89
588.807	39.52
589.145	39.96
589.483	39.93
589.821	39.89
590.159	39.84
590.497	40.01
590.835	40.19
591.173	40.24
591.511	40.47
591.849	40.41
592.187	40.33
592.524	40.16
592.862	40.52
593.2	40.24
593.537	40.28
593.875	40.32
594.212	40.61
594.55	40.61
594.887	40.69
595.224	40.65
595.561	40.28
595.899	40.78
596.236	41.1
596.573	41.24
596.91	40.71
597.247	41.06
597.584	41.01
597.921	41.35
598.258	41.15
598.594	41.26
598.931	41.2
599.268	41.42
599.604	41.13
599.941	41.42
600.277	41.11
600.614	41.31
600.95	41.18
601.287	41.36
601.623	41.62
601.959	41.37
602.296	42.05
602.632	41.72
602.968	41.91
603.304	41.97
603.64	41.91
603.976	41.73
604.312	41.67
604.648	42.04
604.984	42.59
605.319	42.33
605.655	42.27
605.991	42.16
606.326	42.15
606.662	42.15
606.998	42.11
607.333	42.5
607.668	42.45
608.004	42.34
608.339	42.51
608.674	42.59
609.01	42.31
609.345	42.45
609.68	43.26
610.015	42.89
610.35	43.08
610.685	43.26
611.02	43.3
611.355	43.37
611.689	43.41
612.024	43.11
612.359	42.92
612.694	43.08
613.028	43.05
613.363	43.51
613.697	43.26
614.032	43.34
614.366	43.17
614.7	43.52
615.035	43.82
615.369	43.7
615.703	43.87
616.037	43.84
616.371	43.81
616.705	43.69
617.039	43.76
617.373	44.16
617.707	44.16
618.041	44.13
618.375	44.11
618.709	43.99
619.042	44.03
619.376	44.82
619.71	44.17
620.043	44.28
620.377	44.35
620.71	44.29
621.043	44.53
621.377	44.18
621.71	44.42
622.043	44.52
622.376	44.08
622.709	44.82
623.043	44.74
623.376	45.23
623.709	44.84
624.041	45.21
624.374	44.94
624.707	45.47
625.04	46
625.373	45.07
625.705	45.4
626.038	45.45
626.37	45.08
626.703	45.56
627.035	45.76
627.368	45.68
627.7	45.69
628.032	45.85
628.365	46.16
628.697	45.53
629.029	45.79
629.361	45.82
629.693	45.85
630.025	45.81
630.357	46.29
630.689	46.02
631.021	45.98
631.353	46.27
631.684	46.12
632.016	45.99
632.348	46.45
632.679	46.09
633.011	46.81
633.342	46.75
633.674	45.97
634.005	46.86
634.336	46.67
634.668	47.12
634.999	46.4
635.33	47.45
635.661	46.74
635.992	46.68
636.323	46.8
636.654	46.78
636.985	46.74
637.316	46.72
637.647	47.12
637.977	47.33
638.308	47.3
638.639	46.53
638.969	47.35
639.3	46.76
639.63	47.05
639.961	47.2
640.291	46.92
640.622	46.92
640.952	47.64
641.282	47.81
641.612	47.07
641.943	47.45
642.273	47.26
642.603	47.52
642.933	47.89
643.263	47.84
643.592	48.1
643.922	47.46
644.252	47.58
644.582	48.14
644.911	47.8
645.241	48.03
645.571	47.63
645.9	47.79
646.23	48.25
646.559	48.88
646.888	48.52
647.218	47.98
647.547	48.36
647.876	48.47
648.205	48.45
648.534	48.68
648.863	47.97
649.192	48.98
649.521	48.81
649.85	48.83
650.179	49.11
650.508	48.25
650.837	49.26
651.165	48.19
651.494	49.28
651.822	49.07
652.151	48.86
652.479	49.17
652.808	48.86
653.136	48.89
653.465	49.49
653.793	49.52
654.121	49.68
654.449	49.5
654.777	49.51
655.105	49.07
655.433	49.12
655.761	49.26
656.089	49.88
656.417	49.71
656.745	50
657.073	49.73
657.4	50.39
657.728	49.42
658.056	49.09
658.383	49.22
658.711	49.81
659.038	50.28
659.365	50.28
659.693	50.2
660.02	50.41
660.347	50.35
660.674	49.99
661.001	50.66
661.329	50.61
661.656	50.23
661.982	50.38
662.309	50.36
662.636	50.11
662.963	50.62
663.29	50.5
663.616	50.62
663.943	49.64
664.27	50.41
664.596	50.43
664.923	50.23
665.249	50.29
665.576	49.67
665.902	50.8
666.228	50.94
666.554	51.47
666.881	51.37
667.207	51.85
667.533	51.19
667.859	50.37
668.185	51.12
668.511	50.88
668.837	51.53
669.162	50.7
