Data from 0391_forehead_Reflection__2__197.txt Node

Date: Fri Dec 15 18:15:20 CST 2023
User: ToomeyLab
Spectrometer: FLMS14357
Trigger mode: 0
Integration Time (sec): 1.000000E-2
Scans to average: 100
Electric dark correction enabled: true
Nonlinearity correction enabled: false
Boxcar width: 0
XAxis mode: Wavelengths
Number of Pixels in Spectrum: 2048
>>>>>Begin Spectral Data<<<<<
189.047	-3.97
189.435	-3.97
189.823	-3.97
190.211	-212.49
190.599	-2538.36
190.987	109.11
191.375	-89.26
191.763	-2.84
192.151	-54.33
192.538	41.98
192.926	16.02
193.314	162.87
193.702	29.84
194.089	32.91
194.477	-77.45
194.864	-372.44
195.252	76.15
195.639	64.77
196.027	149.32
196.414	274.82
196.801	326.51
197.189	189.62
197.576	100.08
197.963	49.47
198.351	-36.35
198.738	158.72
199.125	46.69
199.512	37.72
199.899	57.3
200.286	28.66
200.673	20.41
201.06	1.18
201.447	-16.18
201.833	53.38
202.22	61.14
202.607	128.85
202.994	38.25
203.38	11.25
203.767	60.42
204.154	-17.97
204.54	57.39
204.927	-72.82
205.313	-1.45
205.699	57.72
206.086	45.47
206.472	23.78
206.858	54.98
207.245	-9.24
207.631	18.06
208.017	38.41
208.403	-23.18
208.789	44.89
209.175	41.36
209.561	38.06
209.947	25.08
210.333	42.9
210.719	45.41
211.105	33
211.491	32.22
211.876	58.58
212.262	24.54
212.648	28.61
213.034	25.06
213.419	41.58
213.805	15.33
214.19	-1.93
214.576	-16.5
214.961	-7.1
215.346	-32.61
215.732	16.66
216.117	37.01
216.502	8.06
216.888	38.02
217.273	37.48
217.658	6.47
218.043	40.98
218.428	-35.48
218.813	-7.37
219.198	17.33
219.583	46.7
219.968	1.14
220.353	-9.72
220.738	27.2
221.122	11.62
221.507	-2.33
221.892	-24.07
222.276	2.74
222.661	11.94
223.046	24.47
223.43	15.49
223.815	18.22
224.199	-12.2
224.583	-2.38
224.968	0.62
225.352	16.91
225.736	0.36
226.121	-3.26
226.505	8.28
226.889	14.95
227.273	-0.06
227.657	15.51
228.041	6.49
228.425	6.81
228.809	10.64
229.193	9.98
229.577	6.22
229.961	7.68
230.344	7.28
230.728	7.1
231.112	6.83
231.495	6.6
231.879	6.33
232.263	7.15
232.646	8.72
233.03	6.75
233.413	5.64
233.797	7.91
234.18	5.22
234.563	9.95
234.946	6.71
235.33	9.54
235.713	8.6
236.096	6.41
236.479	6.95
236.862	5.08
237.245	6.58
237.628	5.34
238.011	5.75
238.394	8.49
238.777	7.6
239.16	7.52
239.543	7.72
239.925	7.24
240.308	7.51
240.691	8
241.073	8.06
241.456	7.47
241.838	6.28
242.221	7.52
242.603	7.32
242.986	7.16
243.368	7.72
243.75	7.61
244.133	6.92
244.515	7.78
244.897	7.73
245.279	7.37
245.661	7.74
246.043	6.83
246.425	7.03
246.807	8.87
247.189	7.61
247.571	7.78
247.953	7.81
248.335	7.37
248.717	7.63
249.098	7.3
249.48	7.55
249.862	7.3
250.243	6.96
250.625	7.63
251.006	7.51
251.388	6.6
251.769	7.94
252.151	7.54
252.532	6.5
252.913	7.41
253.295	7.27
253.676	7.41
254.057	7.98
254.438	7.67
254.819	7.06
255.2	7.64
255.581	8.41
255.962	6.37
256.343	7.53
256.724	7.68
257.105	7.35
257.486	7.46
257.867	8.19
258.247	7.73
258.628	6.57
259.009	7.78
259.389	7.77
259.77	7.11
260.15	7.56
260.531	7.09
260.911	8.08
261.292	7.05
261.672	7.72
262.052	7.4
262.432	7.41
262.813	7.62
263.193	8.15
263.573	7.21
263.953	6.87
264.333	7.97
264.713	7.47
265.093	7.38
265.473	8.06
265.853	6.82
266.233	7.94
266.612	5.02
266.992	6.3
267.372	8.27
267.752	7.56
268.131	7.69
268.511	7.97
268.89	7.82
269.27	6.79
269.649	6.91
270.029	7.17
270.408	8.2
270.787	7.5
271.167	8.24
271.546	6.99
271.925	7.13
272.304	7.31
272.683	7.43
273.062	7.35
273.441	7.69
273.82	6.89
274.199	7.37
274.578	7.54
274.957	7.43
275.336	7.16
275.715	7.12
276.093	6.8
276.472	7.73
276.851	6.46
277.229	6.38
277.608	6.36
277.986	7.44
278.365	7.53
278.743	6.42
279.122	7.15
279.5	7.69
279.878	7.07
280.257	7.51
280.635	6.82
281.013	6.82
281.391	7.34
281.769	8.15
282.147	7.5
282.525	8.5
282.903	6.83
283.281	7.58
283.659	7.82
284.037	7.22
284.415	7.4
284.792	7.67
285.17	6.47
285.548	7.23
285.925	7.45
286.303	7.42
286.68	7.25
287.058	7.52
287.435	7.39
287.813	7.23
288.19	7.38
288.567	7.02
288.945	7.71
289.322	7.48
289.699	7.69
290.076	7.66
290.453	7.5
290.83	7.16
291.207	7.47
291.584	7.73
291.961	8.12
292.338	7.82
292.715	8.31
293.092	7.75
293.469	7.93
293.845	8.27
294.222	8.09
294.599	8.07
294.975	8.38
295.352	8.78
295.728	8.38
296.105	8.9
296.481	8.54
296.858	8.39
297.234	8.57
297.61	8.89
297.986	8.73
298.363	9.08
298.739	8.86
299.115	9.03
299.491	8.88
299.867	8.96
300.243	9.15
300.619	8.89
300.995	9.05
301.371	9.94
301.746	9.25
302.122	9.67
302.498	9.41
302.874	10
303.249	9.73
303.625	10.04
304	9.97
304.376	9.94
304.751	9.76
305.127	10.77
305.502	9.66
305.878	9.48
306.253	10.39
306.628	10.93
307.003	10.54
307.378	10.94
307.754	10.87
308.129	9.79
308.504	10.82
308.879	10.69
309.254	11.78
309.629	11.46
310.003	11.02
310.378	11.65
310.753	11.55
311.128	11.04
311.502	11.29
311.877	11.73
312.252	11.03
312.626	11.45
313.001	11.63
313.375	12.4
313.75	11.49
314.124	11.86
314.498	11.91
314.873	11.6
315.247	12.36
315.621	12.11
315.995	11.84
316.369	12.61
316.743	12.28
317.117	12.81
317.491	12.32
317.865	12.31
318.239	13.07
318.613	12.99
318.987	13.1
319.361	12.71
319.734	13.72
320.108	13.43
320.482	13.57
320.855	13.76
321.229	13.57
321.602	13.33
321.976	14.3
322.349	13.17
322.723	13.13
323.096	14.25
323.469	13.56
323.843	13.3
324.216	14.38
324.589	13.61
324.962	13.99
325.335	14.35
325.708	13.59
326.081	14.29
326.454	14.47
326.827	14.33
327.2	14.54
327.573	14.61
327.945	14.72
328.318	14.19
328.691	14.48
329.063	14.2
329.436	14.47
329.809	15.13
330.181	14.68
330.553	15.16
330.926	15.06
331.298	15.43
331.671	15.26
332.043	15.48
332.415	15.47
332.787	15.49
333.159	15.26
333.532	16
333.904	15.8
334.276	15.32
334.648	15.57
335.02	15.02
335.391	15.46
335.763	15.1
336.135	15.49
336.507	15.88
336.879	15.77
337.25	14.91
337.622	15.29
337.993	15.77
338.365	15.79
338.736	16.61
339.108	16.16
339.479	16.41
339.851	16.16
340.222	15.78
340.593	16.12
340.964	16.43
341.336	17.22
341.707	16.56
342.078	17.18
342.449	16.79
342.82	16.09
343.191	16.76
343.562	16.46
343.933	16.78
344.303	17.26
344.674	16.78
345.045	16.79
345.416	17.07
345.786	16.74
346.157	17.37
346.527	16.75
346.898	16.69
347.268	16.97
347.639	17.04
348.009	17.25
348.38	16.95
348.75	17.04
349.12	17.29
349.49	17.99
349.861	17.6
350.231	17.38
350.601	17.84
350.971	18.07
351.341	17.49
351.711	17.74
352.081	17.52
352.45	17.69
352.82	18.14
353.19	18.2
353.56	17.46
353.929	18.2
354.299	17.56
354.669	17.88
355.038	18.44
355.408	18.02
355.777	18.38
356.147	18.07
356.516	18.09
356.885	18.89
357.254	18.49
357.624	18.7
357.993	18.25
358.362	18.38
358.731	18.48
359.1	18.57
359.469	18.57
359.838	18.91
360.207	18.52
360.576	18.59
360.945	18.76
361.314	19.42
361.682	18.86
362.051	18.83
362.42	19.3
362.788	18.93
363.157	19.31
363.525	19.35
363.894	19.38
364.262	19.03
364.631	19
364.999	19.15
365.367	18.81
365.735	20.12
366.104	19.67
366.472	19.79
366.84	19.16
367.208	19.27
367.576	19.4
367.944	19.75
368.312	19.84
368.68	19.83
369.048	19.96
369.416	19.97
369.783	19.55
370.151	20.26
370.519	20.61
370.886	20.71
371.254	19.62
371.621	20.67
371.989	20.83
372.356	19.71
372.724	20.58
373.091	20.7
373.458	20.76
373.826	21.05
374.193	20.4
374.56	20.86
374.927	20.67
375.294	20.81
375.661	20.73
376.028	20.8
376.395	20.96
376.762	20.9
377.129	20.94
377.496	20.8
377.863	20.99
378.229	20.76
378.596	21.29
378.963	21.25
379.329	21.04
379.696	21.24
380.062	21.27
380.429	21.46
380.795	21.39
381.161	21.51
381.528	21.75
381.894	21.72
382.26	21.67
382.626	21.96
382.993	21.17
383.359	21.7
383.725	21.55
384.091	21.52
384.457	22.13
384.823	22.05
385.188	21.95
385.554	21.91
385.92	22.2
386.286	22.16
386.651	22.49
387.017	22.15
387.383	22.52
387.748	22.1
388.114	22.43
388.479	22.22
388.845	23.02
389.21	22.55
389.575	22.87
389.94	22.48
390.306	22.67
390.671	22.52
391.036	22.59
391.401	22.71
391.766	22.9
392.131	22.63
392.496	23.16
392.861	22.83
393.226	23.37
393.591	23.25
393.956	23
394.32	23.02
394.685	22.91
395.05	23.07
395.414	23.21
395.779	23.09
396.143	23.7
396.508	23.54
396.872	23.36
397.236	23.62
397.601	23.44
397.965	23.66
398.329	23.36
398.694	23.77
399.058	24.05
399.422	23.59
399.786	23.85
400.15	23.87
400.514	23.91
400.878	24.21
401.242	24.34
401.605	24.05
401.969	24.01
402.333	24.1
402.697	24.09
403.06	24.12
403.424	24.32
403.787	24.23
404.151	24.55
404.514	24.55
404.878	24.56
405.241	24.62
405.604	24.68
405.968	24.68
406.331	24.47
406.694	25.07
407.057	24.78
407.42	24.79
407.783	24.41
408.146	24.8
408.509	24.62
408.872	24.9
409.235	24.83
409.598	24.89
409.961	24.8
410.323	25.12
410.686	24.92
411.049	25.17
411.411	24.92
411.774	25.26
412.136	25.61
412.499	25.2
412.861	25.3
413.223	25.32
413.586	25.67
413.948	25.45
414.31	25.69
414.672	25.79
415.035	25.71
415.397	25.74
415.759	25.72
416.121	25.9
416.483	25.88
416.845	26.11
417.206	25.81
417.568	25.97
417.93	25.99
418.292	26.24
418.653	26.06
419.015	26.13
419.377	26.01
419.738	26.32
420.1	26.2
420.461	25.99
420.822	26.13
421.184	26.2
421.545	26.23
421.906	26
422.267	25.95
422.629	26.21
422.99	26.23
423.351	26.06
423.712	26.11
424.073	26.03
424.434	26.22
424.795	26.25
425.155	26.39
425.516	26.53
425.877	26.52
426.238	26.6
426.598	26.48
426.959	26.48
427.32	26.44
427.68	26.66
428.041	26.85
428.401	26.75
428.761	26.78
429.122	27.01
429.482	26.94
429.842	27.25
430.202	27.32
430.563	27.51
430.923	27.24
431.283	27.66
431.643	27.61
432.003	27.57
432.363	27.81
432.722	27.57
433.082	27.66
433.442	27.54
433.802	27.76
434.161	27.91
434.521	28.18
434.881	28.22
435.24	27.99
435.6	28.03
435.959	27.94
436.319	28
436.678	28.14
437.037	28.04
437.396	28.34
437.756	28.18
438.115	28.1
438.474	28.56
438.833	28.38
439.192	28.3
439.551	28.54
439.91	28.34
440.269	28.43
440.628	28.36
440.987	28.55
441.345	28.55
441.704	28.53
442.063	28.64
442.421	28.59
442.78	28.78
443.138	28.56
443.497	28.62
443.855	28.46
444.214	28.77
444.572	29.16
444.93	28.93
445.288	29.06
445.647	29.21
446.005	29.27
446.363	29.39
446.721	29.26
447.079	29.6
447.437	29.39
447.795	29.46
448.153	29.14
448.51	29.24
448.868	29.16
449.226	29.11
449.584	29.01
449.941	29.32
450.299	29.45
450.656	29.38
451.014	29.62
451.371	29.44
451.729	29.49
452.086	29.81
452.443	29.87
452.801	29.83
453.158	30.01
453.515	30.14
453.872	30.19
454.229	30.17
454.586	30.26
454.943	30.03
455.3	30.14
455.657	30.24
456.014	30.31
456.371	30.52
456.727	30.63
457.084	30.73
457.441	30.35
457.797	30.7
458.154	30.98
458.51	30.63
458.867	31.21
459.223	31
459.58	31.12
459.936	30.99
460.292	30.98
460.648	31.07
461.005	31.09
461.361	31.25
461.717	31.15
462.073	30.83
462.429	30.56
462.785	30.68
463.141	30.63
463.496	30.96
463.852	30.94
464.208	30.97
464.564	31.35
464.919	31.36
465.275	31.56
465.631	31.86
465.986	31.83
466.342	31.73
466.697	31.89
467.052	31.88
467.408	32
467.763	31.78
468.118	31.96
468.473	32.12
468.829	32.13
469.184	31.9
469.539	32.14
469.894	31.99
470.249	32.25
470.603	32.24
470.958	32.43
471.313	32.59
471.668	32.49
472.023	32.45
472.377	32.67
472.732	32.53
473.086	32.45
473.441	32.54
473.795	32.75
474.15	32.91
474.504	32.77
474.859	33.02
475.213	32.84
475.567	32.94
475.921	32.72
476.275	32.93
476.63	32.96
476.984	33.37
477.338	33.21
477.692	32.86
478.045	33.36
478.399	33.31
478.753	33.36
479.107	33.35
479.461	33.26
479.814	33.16
480.168	33.29
480.521	33.39
480.875	33.59
481.228	33.31
481.582	33.34
481.935	33.36
482.289	33.54
482.642	33.67
482.995	33.57
483.348	33.52
483.701	33.66
484.055	33.7
484.408	33.88
484.761	33.68
485.114	33.68
485.466	33.64
485.819	33.56
486.172	33.1
486.525	32.63
486.878	32.33
487.23	32.6
487.583	32.95
487.936	33.32
488.288	33.56
488.641	33.85
488.993	34.01
489.345	33.79
489.698	33.72
490.05	33.57
490.402	33.41
490.754	33.29
491.107	33.46
491.459	33.74
491.811	33.77
492.163	34.26
492.515	34.51
492.866	34.59
493.218	34.9
493.57	34.62
493.922	34.3
494.274	34.01
494.625	33.94
494.977	34.04
495.328	34.51
495.68	34.73
496.031	34.87
496.383	35.06
496.734	35.35
497.086	35.55
497.437	35.39
497.788	35.44
498.139	35.53
498.49	35.6
498.842	35.61
499.193	35.51
499.544	35.57
499.894	35.39
500.245	35.64
500.596	35.7
500.947	35.79
501.298	35.76
501.648	35.98
501.999	36.13
502.35	36.1
502.7	36.2
503.051	36.09
503.401	36.01
503.752	36.38
504.102	36.29
504.452	36.54
504.803	36.34
505.153	36.62
505.503	36.63
505.853	36.64
506.203	36.67
506.553	36.64
506.903	36.68
507.253	36.47
507.603	36.87
507.953	36.9
508.303	37.1
508.652	36.69
509.002	37.25
509.352	37.06
509.701	37.35
510.051	37.13
510.4	37.31
510.75	37.09
511.099	37.3
511.449	37.24
511.798	37.09
512.147	37.37
512.496	37.16
512.846	37.7
513.195	37.45
513.544	37.45
513.893	37.58
514.242	37.48
514.591	37.44
514.939	37.65
515.288	37.73
515.637	37.74
515.986	37.81
516.334	37.97
516.683	38.09
517.032	38.01
517.38	38.04
517.729	38.32
518.077	38.07
518.426	38.32
518.774	38.41
519.122	38.27
519.47	38.44
519.819	38.48
520.167	38.19
520.515	38.48
520.863	38
521.211	38.1
521.559	38.19
521.907	38.17
522.255	38.22
522.602	38.4
522.95	38.82
523.298	38.72
523.645	39.02
523.993	38.91
524.341	39.11
524.688	39.44
525.036	39.22
525.383	39.33
525.73	39.33
526.078	39.21
526.425	39.37
526.772	39.36
527.119	39.44
527.466	39.43
527.814	39.26
528.161	39.14
528.508	38.96
528.854	39.02
529.201	39.25
529.548	39.3
529.895	39.53
530.242	39.56
530.588	39.46
530.935	39.09
531.282	38.69
531.628	38.5
531.975	38.53
532.321	38.99
532.667	39.13
533.014	39.45
533.36	39.59
533.706	39.97
534.052	40.1
534.399	40.09
534.745	40.19
535.091	40.37
535.437	40.1
535.783	39.85
536.129	39.77
536.474	39.63
536.82	39.88
537.166	40.19
537.512	40.42
537.857	40.65
538.203	40.91
538.549	40.85
538.894	40.7
539.239	40.58
539.585	40.49
539.93	40.48
540.276	40.99
540.621	41.08
540.966	41.05
541.311	41.04
541.656	41.37
542.001	41.54
542.346	41.76
542.691	41.6
543.036	41.49
543.381	41.1
543.726	40.97
544.071	40.82
544.415	40.79
544.76	40.87
545.105	41.17
545.449	41.37
545.794	41.45
546.138	41.55
546.483	41.57
546.827	41.78
547.171	42.13
547.516	42.27
547.86	42.28
548.204	42.13
548.548	42.17
548.892	42.35
549.236	42.26
549.58	42.24
549.924	42.33
550.268	42.47
550.612	42.62
550.956	42.94
551.3	42.69
551.643	42.7
551.987	43.38
552.33	43.19
552.674	43.38
553.017	43.35
553.361	43.4
553.704	43.53
554.048	43.42
554.391	43.51
554.734	43.52
555.077	43.77
555.42	43.44
555.764	43.37
556.107	43.47
556.45	43.36
556.793	43.67
557.135	43.75
557.478	43.84
557.821	44.01
558.164	44.21
558.507	44.18
558.849	44.04
559.192	44.41
559.534	44.23
559.877	44.53
560.219	44.5
560.562	44.51
560.904	44.23
561.246	44.55
561.589	44.73
561.931	44.83
562.273	44.52
562.615	45.03
562.957	44.91
563.299	44.64
563.641	44.94
563.983	44.97
564.325	44.73
564.667	44.76
565.008	45.05
565.35	45.38
565.692	45.05
566.033	45.2
566.375	45.49
566.716	45.76
567.058	45.41
567.399	45.52
567.741	45.63
568.082	45.33
568.423	45.78
568.764	45.38
569.105	45.19
569.447	45.29
569.788	45.49
570.129	45.56
570.47	45.67
570.811	45.77
571.151	46
571.492	46.1
571.833	45.87
572.174	46.32
572.514	46.25
572.855	46
573.195	46.3
573.536	46.38
573.876	46.44
574.217	45.92
574.557	46.59
574.898	46.49
575.238	46.05
575.578	46.12
575.918	46.52
576.258	46.71
576.598	46.57
576.938	46.7
577.278	46.93
577.618	46.6
577.958	46.96
578.298	46.8
578.638	46.7
578.977	47.15
579.317	47.38
579.657	47.24
579.996	47.11
580.336	47.21
580.675	47.28
581.014	47.42
581.354	47.56
581.693	47.55
582.032	47.7
582.372	47.66
582.711	47.67
583.05	47.82
583.389	48.27
583.728	47.87
584.067	48.25
584.406	47.91
584.745	48.18
585.083	48.55
585.422	48.2
585.761	48.21
586.1	48.4
586.438	48.7
586.777	48.77
587.115	48.62
587.454	48.07
587.792	48.59
588.13	48.5
588.469	48.72
588.807	49.07
589.145	48.99
589.483	48.61
589.821	48.55
590.159	48.94
590.497	49.02
590.835	49.03
591.173	49.06
591.511	48.97
591.849	49.07
592.187	49
592.524	49.25
592.862	49.39
593.2	49.21
593.537	49.5
593.875	49.84
594.212	49.36
594.55	49.51
594.887	49.56
595.224	49.94
595.561	49.23
595.899	49.73
596.236	49.92
596.573	49.76
596.91	49.76
597.247	49.4
597.584	50.25
597.921	49.9
598.258	49.7
598.594	50.1
598.931	50.02
599.268	50.06
599.604	49.88
599.941	50.1
600.277	49.89
600.614	49.64
600.95	50.18
601.287	50.24
601.623	50.16
601.959	50.52
602.296	50.55
602.632	50.76
602.968	50.73
603.304	51.06
603.64	50.98
603.976	50.95
604.312	50.58
604.648	50.92
604.984	51.09
605.319	50.95
605.655	51.03
605.991	51.06
606.326	50.6
606.662	51.34
606.998	50.66
607.333	50.95
607.668	51.21
608.004	51.09
608.339	51.36
608.674	51.31
609.01	51.02
609.345	51.1
609.68	51.78
610.015	51.41
610.35	52.05
610.685	51.85
611.02	52.1
611.355	52.21
611.689	52.03
612.024	51.87
612.359	51.76
612.694	51.88
613.028	51.63
613.363	51.97
613.697	51.7
614.032	51.98
614.366	51.62
614.7	52.33
615.035	52.69
615.369	52.3
615.703	52.34
616.037	52.57
616.371	52.02
616.705	52.7
617.039	52.28
617.373	52.96
617.707	52.93
618.041	52.49
618.375	52.5
618.709	53.07
619.042	52.37
619.376	53.27
619.71	52.95
620.043	53.27
620.377	53.2
620.71	52.92
621.043	53.45
621.377	53.08
621.71	53.68
622.043	53.41
622.376	53.19
622.709	53.82
623.043	53.36
623.376	53.13
623.709	53.4
624.041	53.59
624.374	53.64
624.707	53.98
625.04	54
625.373	53.96
625.705	54.2
626.038	54.57
626.37	53.97
626.703	53.78
627.035	54.56
627.368	54.38
627.7	54.23
628.032	54.04
628.365	54.87
628.697	54.1
629.029	54.53
629.361	53.84
629.693	54.51
630.025	54.26
630.357	54.7
630.689	54.73
631.021	54.52
631.353	54.74
631.684	54.61
632.016	54.7
632.348	54.47
632.679	54.8
633.011	55.02
633.342	55.16
633.674	54.62
634.005	54.86
634.336	55.53
634.668	55.44
634.999	54.94
635.33	55.64
635.661	55.19
635.992	55.54
636.323	54.92
636.654	55.28
636.985	55.22
637.316	54.9
637.647	55.13
637.977	55.63
638.308	55.64
638.639	55.41
638.969	55.44
639.3	55.47
639.63	55.4
639.961	55.87
640.291	55.77
640.622	55.9
640.952	56.43
641.282	56.67
641.612	56.54
641.943	55.48
642.273	55.91
642.603	55.83
642.933	56.01
643.263	56.06
643.592	55.53
643.922	55.48
644.252	56.39
644.582	57.04
644.911	55.99
645.241	55.59
645.571	56.08
645.9	56.31
646.23	56.6
646.559	57.22
646.888	56.73
647.218	56.35
647.547	56.88
647.876	56.57
648.205	56.77
648.534	56.64
648.863	57.01
649.192	57.41
649.521	56.98
649.85	56.81
650.179	57.47
650.508	56.25
650.837	57.25
651.165	56.42
651.494	57.52
651.822	57.19
652.151	57.27
652.479	56.87
652.808	57.79
653.136	57.15
653.465	56.82
653.793	57.56
654.121	57.12
654.449	57.41
654.777	57.05
655.105	57.4
655.433	57.57
655.761	57.55
656.089	57.87
656.417	57.73
656.745	57.59
657.073	57.52
657.4	58.22
657.728	58.38
658.056	57.41
658.383	57.38
658.711	58.45
659.038	58.34
659.365	57.55
659.693	57.98
660.02	58.14
660.347	58.09
660.674	58.16
661.001	58.92
661.329	58.72
661.656	58.51
661.982	58.89
662.309	57.79
662.636	57.65
662.963	58.45
663.29	58.32
663.616	59.35
663.943	58.02
664.27	58.39
664.596	59.13
664.923	58.81
665.249	58.45
665.576	57.67
665.902	59
666.228	58.67
666.554	58.73
666.881	58.85
667.207	59.45
667.533	59.04
667.859	58.64
668.185	59.67
668.511	58.41
668.837	58.36
