Data from 0391_chest_Reflection__2__187.txt Node

Date: Fri Dec 15 18:12:32 CST 2023
User: ToomeyLab
Spectrometer: FLMS14357
Trigger mode: 0
Integration Time (sec): 1.000000E-2
Scans to average: 100
Electric dark correction enabled: true
Nonlinearity correction enabled: false
Boxcar width: 0
XAxis mode: Wavelengths
Number of Pixels in Spectrum: 2048
>>>>>Begin Spectral Data<<<<<
189.047	-100.94
189.435	-100.94
189.823	-100.94
190.211	-53.87
190.599	59.59
190.987	94.78
191.375	-33.8
191.763	55.15
192.151	61.14
192.538	47.44
192.926	70.62
193.314	81.05
193.702	-0.21
194.089	-130.26
194.477	159.6
194.864	-212.18
195.252	76.17
195.639	59.55
196.027	189.74
196.414	27.23
196.801	186.26
197.189	107.61
197.576	126.76
197.963	-56.54
198.351	-185.76
198.738	-66.19
199.125	-17.98
199.512	28.26
199.899	9.68
200.286	2.53
200.673	7.38
201.06	8.7
201.447	-60.58
201.833	-16.99
202.22	9.19
202.607	79.42
202.994	60.28
203.38	23.54
203.767	23
204.154	61.36
204.54	23.82
204.927	3.28
205.313	19.82
205.699	11.13
206.086	46.82
206.472	27.43
206.858	13.28
207.245	-7.84
207.631	10.6
208.017	-18.73
208.403	6.89
208.789	28.42
209.175	51.24
209.561	-34.9
209.947	-9.23
210.333	-31.05
210.719	37
211.105	33.49
211.491	-20.14
211.876	-0.56
212.262	22.75
212.648	-4.56
213.034	32.77
213.419	-43.54
213.805	-20.77
214.19	-1.54
214.576	10.78
214.961	-44.83
215.346	-68.99
215.732	-13.1
216.117	16.15
216.502	5.1
216.888	19.95
217.273	30.24
217.658	6.06
218.043	16.46
218.428	-44.77
218.813	-28.52
219.198	-54.76
219.583	-7.87
219.968	36.12
220.353	-16.99
220.738	12.79
221.122	2.47
221.507	-33.55
221.892	-47.27
222.276	-18.36
222.661	-10.38
223.046	1.87
223.43	4.15
223.815	1.75
224.199	-12.45
224.583	-9.91
224.968	2.29
225.352	0.47
225.736	8.85
226.121	-6
226.505	13.98
226.889	6
227.273	-2.2
227.657	3.74
228.041	4.84
228.425	2.7
228.809	6.65
229.193	3.8
229.577	6.2
229.961	5.31
230.344	4.57
230.728	3.64
231.112	4.3
231.495	3.46
231.879	3.83
232.263	5.21
232.646	4.66
233.03	5.34
233.413	3.37
233.797	2.25
234.18	4.83
234.563	2.22
234.946	3.31
235.33	4.26
235.713	3.58
236.096	2.77
236.479	4.37
236.862	3.56
237.245	5.51
237.628	1.3
238.011	4.38
238.394	7.02
238.777	3.82
239.16	3.54
239.543	2.35
239.925	4.61
240.308	4.22
240.691	5.34
241.073	6.65
241.456	5.3
241.838	3.89
242.221	4.09
242.603	4.47
242.986	3.3
243.368	4.88
243.75	4.72
244.133	4.45
244.515	4.52
244.897	4.3
245.279	5.14
245.661	4.4
246.043	3.95
246.425	2.63
246.807	5.88
247.189	5.55
247.571	5.43
247.953	5.38
248.335	4.46
248.717	4.6
249.098	4.67
249.48	4.89
249.862	4.86
250.243	4.66
250.625	4.89
251.006	4.87
251.388	3.33
251.769	4.41
252.151	4.78
252.532	4.75
252.913	2.96
253.295	3.73
253.676	4.84
254.057	4.93
254.438	4.71
254.819	4.58
255.2	4.34
255.581	4.53
255.962	3.73
256.343	3.78
256.724	3.04
257.105	4.28
257.486	4.4
257.867	5.05
258.247	4.61
258.628	4.18
259.009	4.42
259.389	4.07
259.77	3.91
260.15	3.59
260.531	3.31
260.911	4.94
261.292	4.07
261.672	4.58
262.052	4.48
262.432	4.58
262.813	4.66
263.193	4.01
263.573	3.71
263.953	4.29
264.333	4.4
264.713	4.16
265.093	3.7
265.473	4.34
265.853	3.74
266.233	4.49
266.612	3.63
266.992	2.22
267.372	4.71
267.752	3.92
268.131	4.23
268.511	4.56
268.89	4.58
269.27	3.67
269.649	3.91
270.029	3.93
270.408	5.06
270.787	4.52
271.167	4.18
271.546	4.69
271.925	3.27
272.304	3.58
272.683	4.99
273.062	3.93
273.441	4.66
273.82	3.76
274.199	4.34
274.578	4.04
274.957	3.87
275.336	3.85
275.715	3.82
276.093	3.49
276.472	3.78
276.851	3.61
277.229	4.01
277.608	3.39
277.986	4.11
278.365	3.83
278.743	3.63
279.122	3.7
279.5	4.27
279.878	4.44
280.257	3.53
280.635	2.91
281.013	3.66
281.391	4.62
281.769	4.45
282.147	4.49
282.525	5
282.903	4.13
283.281	4.26
283.659	4.61
284.037	4.22
284.415	4.49
284.792	4.32
285.17	3.87
285.548	4.14
285.925	3.98
286.303	3.8
286.68	4.15
287.058	4.2
287.435	4.08
287.813	4.15
288.19	4.17
288.567	3.97
288.945	4.59
289.322	4.29
289.699	4.14
290.076	4.3
290.453	4.38
290.83	4.32
291.207	3.78
291.584	4.34
291.961	4.5
292.338	4.44
292.715	4.67
293.092	4.49
293.469	4.53
293.845	4.49
294.222	4.15
294.599	4.69
294.975	4.37
295.352	4.98
295.728	4.2
296.105	4.56
296.481	4.95
296.858	4.9
297.234	4.21
297.61	4.75
297.986	4.35
298.363	4.77
298.739	4.64
299.115	4.75
299.491	4.7
299.867	4.5
300.243	4.78
300.619	4.72
300.995	4.58
301.371	5.01
301.746	4.41
302.122	4.95
302.498	4.74
302.874	4.93
303.249	4.95
303.625	5.09
304	4.61
304.376	4.81
304.751	4.32
305.127	5.38
305.502	4.43
305.878	4.03
306.253	4.4
306.628	5.37
307.003	4.77
307.378	5.17
307.754	4.61
308.129	3.68
308.504	4.7
308.879	4.58
309.254	5.66
309.629	5.08
310.003	5.43
310.378	5.31
310.753	5
311.128	4.87
311.502	5.11
311.877	4.92
312.252	4.28
312.626	4.47
313.001	4.5
313.375	5.33
313.75	4.97
314.124	5.09
314.498	4.87
314.873	5.14
315.247	4.68
315.621	5
315.995	4.51
316.369	4.92
316.743	4.41
317.117	5.27
317.491	5.05
317.865	4.81
318.239	4.78
318.613	5.24
318.987	5.13
319.361	3.91
319.734	5.56
320.108	5.06
320.482	4.73
320.855	5.54
321.229	5.39
321.602	4.61
321.976	5.35
322.349	4.81
322.723	4.94
323.096	4.99
323.469	4.29
323.843	5
324.216	5.17
324.589	4.9
324.962	4.59
325.335	5.04
325.708	4.91
326.081	4.82
326.454	4.98
326.827	5.2
327.2	4.98
327.573	5.08
327.945	5.45
328.318	4.8
328.691	4.49
329.063	5.41
329.436	4.44
329.809	4.75
330.181	4.95
330.553	5.11
330.926	5.16
331.298	5.79
331.671	4.58
332.043	5.05
332.415	4.89
332.787	5
333.159	5.61
333.532	5.38
333.904	4.65
334.276	5.01
334.648	5.26
335.02	5.28
335.391	4.96
335.763	4.35
336.135	5
336.507	5.34
336.879	4.64
337.25	4.27
337.622	4.79
337.993	4.89
338.365	5.11
338.736	6.05
339.108	5.43
339.479	5.05
339.851	5.01
340.222	4.74
340.593	4.55
340.964	4.92
341.336	5.64
341.707	4.95
342.078	5.57
342.449	5.22
342.82	5.09
343.191	4.83
343.562	5.31
343.933	5.02
344.303	5
344.674	4.68
345.045	5.16
345.416	5.1
345.786	4.56
346.157	5.5
346.527	4.6
346.898	5
347.268	5
347.639	5.15
348.009	5.05
348.38	4.6
348.75	5.02
349.12	4.8
349.49	5.62
349.861	5.14
350.231	5.18
350.601	5.01
350.971	4.82
351.341	5.63
351.711	5.23
352.081	4.89
352.45	4.59
352.82	5.54
353.19	5.11
353.56	5.24
353.929	5.11
354.299	5.09
354.669	4.84
355.038	5.42
355.408	5.03
355.777	5.1
356.147	5.33
356.516	5.54
356.885	5.01
357.254	4.91
357.624	5.19
357.993	5.52
358.362	5.03
358.731	4.95
359.1	4.93
359.469	5.15
359.838	5.1
360.207	5.15
360.576	4.85
360.945	5
361.314	5.67
361.682	4.91
362.051	4.92
362.42	5.06
362.788	5.01
363.157	5.11
363.525	5.72
363.894	5.38
364.262	5.19
364.631	5.23
364.999	5.15
365.367	5.09
365.735	5.67
366.104	5.45
366.472	5.15
366.84	4.85
367.208	5.01
367.576	5.24
367.944	5.33
368.312	5.24
368.68	5.1
369.048	5.46
369.416	5.47
369.783	4.82
370.151	5.24
370.519	5.66
370.886	5.49
371.254	4.88
371.621	5.44
371.989	5.37
372.356	4.65
372.724	5.18
373.091	5.08
373.458	4.8
373.826	5.45
374.193	5.2
374.56	5.31
374.927	5.63
375.294	5.44
375.661	4.56
376.028	4.93
376.395	4.99
376.762	5.15
377.129	5.31
377.496	4.87
377.863	5.03
378.229	4.89
378.596	5.23
378.963	5.15
379.329	5.21
379.696	5.28
380.062	5.19
380.429	5.03
380.795	5.23
381.161	5.58
381.528	5.35
381.894	5.06
382.26	5.07
382.626	5.52
382.993	5.01
383.359	5.44
383.725	5.07
384.091	5.14
384.457	5.41
384.823	5.29
385.188	5.61
385.554	5.26
385.92	5.43
386.286	5.61
386.651	5.49
387.017	5.33
387.383	5.12
387.748	4.95
388.114	5.69
388.479	5.72
388.845	5.57
389.21	5.38
389.575	5.43
389.94	5.5
390.306	5.3
390.671	5.21
391.036	5.16
391.401	5.05
391.766	5.47
392.131	5.26
392.496	5.68
392.861	5.44
393.226	5.57
393.591	5.64
393.956	5.31
394.32	5.67
394.685	5.55
395.05	5.3
395.414	5.38
395.779	5.17
396.143	5.5
396.508	5.51
396.872	5.39
397.236	5.74
397.601	5.2
397.965	5.46
398.329	5.74
398.694	5.57
399.058	5.41
399.422	5.41
399.786	5.69
400.15	5.44
400.514	5.43
400.878	5.66
401.242	5.87
401.605	5.69
401.969	5.57
402.333	5.48
402.697	5.66
403.06	5.45
403.424	5.57
403.787	5.5
404.151	5.75
404.514	5.46
404.878	5.26
405.241	5.65
405.604	5.64
405.968	5.7
406.331	5.7
406.694	5.82
407.057	5.53
407.42	5.68
407.783	5.62
408.146	5.82
408.509	5.64
408.872	5.59
409.235	5.61
409.598	5.77
409.961	5.62
410.323	5.51
410.686	5.6
411.049	5.21
411.411	5.54
411.774	5.55
412.136	5.72
412.499	5.45
412.861	5.92
413.223	5.59
413.586	5.74
413.948	5.55
414.31	5.82
414.672	5.41
415.035	5.47
415.397	5.77
415.759	5.4
416.121	6
416.483	5.74
416.845	5.74
417.206	5.6
417.568	5.41
417.93	5.32
418.292	5.54
418.653	5.69
419.015	5.77
419.377	5.8
419.738	5.81
420.1	5.61
420.461	5.65
420.822	5.67
421.184	5.7
421.545	5.74
421.906	5.58
422.267	5.6
422.629	5.55
422.99	5.68
423.351	5.64
423.712	5.55
424.073	5.57
424.434	5.59
424.795	5.57
425.155	5.72
425.516	5.54
425.877	5.62
426.238	5.65
426.598	5.66
426.959	5.61
427.32	5.52
427.68	5.57
428.041	5.63
428.401	5.88
428.761	5.77
429.122	5.86
429.482	5.57
429.842	5.9
430.202	5.86
430.563	5.9
430.923	5.88
431.283	5.96
431.643	5.81
432.003	5.79
432.363	5.97
432.722	5.91
433.082	5.96
433.442	5.6
433.802	5.76
434.161	5.69
434.521	6.06
434.881	6.02
435.24	5.89
435.6	5.89
435.959	5.9
436.319	5.77
436.678	5.78
437.037	5.77
437.396	5.69
437.756	5.77
438.115	5.81
438.474	6.13
438.833	5.87
439.192	5.69
439.551	5.91
439.91	5.91
440.269	5.81
440.628	5.8
440.987	5.97
441.345	5.72
441.704	5.91
442.063	5.88
442.421	5.73
442.78	5.8
443.138	5.86
443.497	5.83
443.855	5.77
444.214	5.83
444.572	5.92
444.93	5.96
445.288	5.92
445.647	5.85
446.005	5.98
446.363	6.06
446.721	5.92
447.079	5.92
447.437	5.8
447.795	5.9
448.153	5.78
448.51	5.83
448.868	5.89
449.226	5.88
449.584	5.9
449.941	6.05
450.299	5.95
450.656	5.96
451.014	5.97
451.371	5.95
451.729	5.86
452.086	6.05
452.443	5.95
452.801	6
453.158	5.92
453.515	5.86
453.872	6.13
454.229	5.99
454.586	5.96
454.943	6.06
455.3	6.04
455.657	5.94
456.014	5.98
456.371	6.07
456.727	6.14
457.084	6.18
457.441	6.13
457.797	6.15
458.154	6.23
458.51	6.1
458.867	6.27
459.223	6.17
459.58	6.11
459.936	6.19
460.292	6.24
460.648	6.34
461.005	6.05
461.361	6.24
461.717	6.14
462.073	5.95
462.429	6.13
462.785	6.05
463.141	5.94
463.496	6.06
463.852	6.15
464.208	6.21
464.564	6.25
464.919	6.35
465.275	6.17
465.631	6.24
465.986	6.25
466.342	6.16
466.697	6.05
467.052	6.2
467.408	6.18
467.763	6.19
468.118	6.19
468.473	6.14
468.829	6.21
469.184	6.17
469.539	6.33
469.894	6.15
470.249	6.35
470.603	6.21
470.958	6.3
471.313	6.25
471.668	6.38
472.023	6.17
472.377	6.12
472.732	6.19
473.086	6.09
473.441	6.18
473.795	6.4
474.15	6.35
474.504	6.15
474.859	6.49
475.213	6.24
475.567	6.2
475.921	6.31
476.275	6.3
476.63	6.34
476.984	6.46
477.338	6.45
477.692	6.23
478.045	6.17
478.399	6.33
478.753	6.5
479.107	6.32
479.461	6.13
479.814	6.32
480.168	6.35
480.521	6.19
480.875	6.41
481.228	6.36
481.582	6.45
481.935	6.27
482.289	6.46
482.642	6.41
482.995	6.24
483.348	6.38
483.701	6.17
484.055	6.34
484.408	6.33
484.761	6.2
485.114	6.22
485.466	6.04
485.819	6.05
486.172	6.05
486.525	6.05
486.878	6.11
487.23	6.14
487.583	6.24
487.936	6.24
488.288	6.21
488.641	6.31
488.993	6.2
489.345	6.17
489.698	6.14
490.05	6.18
490.402	6.22
490.754	6.24
491.107	6.32
491.459	6.35
491.811	6.39
492.163	6.46
492.515	6.37
492.866	6.44
493.218	6.36
493.57	6.26
493.922	6.24
494.274	6.39
494.625	6.42
494.977	6.4
495.328	6.57
495.68	6.62
496.031	6.65
496.383	6.53
496.734	6.66
497.086	6.58
497.437	6.55
497.788	6.6
498.139	6.44
498.49	6.7
498.842	6.49
499.193	6.55
499.544	6.51
499.894	6.52
500.245	6.61
500.596	6.51
500.947	6.58
501.298	6.46
501.648	6.65
501.999	6.66
502.35	6.57
502.7	6.77
503.051	6.55
503.401	6.6
503.752	6.79
504.102	6.7
504.452	6.85
504.803	6.81
505.153	6.77
505.503	6.72
505.853	6.7
506.203	6.72
506.553	6.7
506.903	6.65
507.253	6.64
507.603	6.63
507.953	6.73
508.303	6.97
508.652	6.62
509.002	6.84
509.352	6.94
509.701	6.69
510.051	6.81
510.4	6.73
510.75	6.79
511.099	6.84
511.449	6.8
511.798	6.84
512.147	6.81
512.496	6.79
512.846	6.9
513.195	6.77
513.544	6.85
513.893	6.79
514.242	6.72
514.591	7.05
514.939	6.88
515.288	6.82
515.637	6.98
515.986	6.89
516.334	7.04
516.683	6.93
517.032	6.98
517.38	6.85
517.729	6.95
518.077	6.68
518.426	6.82
518.774	7.07
519.122	6.85
519.47	6.94
519.819	6.78
520.167	6.89
520.515	6.91
520.863	6.92
521.211	6.92
521.559	6.97
521.907	6.85
522.255	6.84
522.602	7.02
522.95	6.97
523.298	7.04
523.645	7.17
523.993	7.12
524.341	7.2
524.688	7.14
525.036	7
525.383	7.16
525.73	7.16
526.078	7.07
526.425	7.07
526.772	7.09
527.119	7.07
527.466	7.04
527.814	7.1
528.161	7.12
528.508	7.16
528.854	7.1
529.201	7.08
529.548	7.07
529.895	7.03
530.242	6.9
530.588	6.88
530.935	6.94
531.282	6.96
531.628	6.94
531.975	6.98
532.321	7.08
532.667	7.16
533.014	7.24
533.36	7.22
533.706	7.28
534.052	7.23
534.399	7.11
534.745	7.07
535.091	7.14
535.437	7.18
535.783	7.21
536.129	7.2
536.474	7.18
536.82	7.29
537.166	7.44
537.512	7.35
537.857	7.39
538.203	7.5
538.549	7.41
538.894	7.39
539.239	7.39
539.585	7.46
539.93	7.37
540.276	7.56
540.621	7.66
540.966	7.57
541.311	7.46
541.656	7.52
542.001	7.61
542.346	7.62
542.691	7.45
543.036	7.41
543.381	7.32
543.726	7.39
544.071	7.46
544.415	7.52
544.76	7.52
545.105	7.56
545.449	7.52
545.794	7.61
546.138	7.68
546.483	7.72
546.827	7.7
547.171	7.62
547.516	7.8
547.86	7.69
548.204	7.7
548.548	7.67
548.892	7.79
549.236	7.74
549.58	7.79
549.924	7.97
550.268	7.81
550.612	7.94
550.956	8.06
551.3	7.91
551.643	7.96
551.987	8.05
552.33	8.02
552.674	8.1
553.017	7.99
553.361	7.98
553.704	8.21
554.048	8.14
554.391	7.98
554.734	8.09
555.077	8.04
555.42	7.88
555.764	8.07
556.107	8.09
556.45	7.93
556.793	8.05
557.135	8.17
557.478	8.4
557.821	8.31
558.164	8.35
558.507	8.09
558.849	8.22
559.192	8.23
559.534	8.24
559.877	8.42
560.219	8.13
560.562	8.56
560.904	8.12
561.246	8.43
561.589	8.34
561.931	8.58
562.273	8.2
562.615	8.47
562.957	8.29
563.299	8.39
563.641	8.45
563.983	8.5
564.325	8.37
564.667	8.5
565.008	8.51
565.35	8.59
565.692	8.3
566.033	8.71
566.375	8.76
566.716	8.8
567.058	8.58
567.399	8.58
567.741	8.55
568.082	8.47
568.423	8.56
568.764	8.47
569.105	8.6
569.447	8.59
569.788	8.69
570.129	8.83
570.47	8.84
570.811	8.85
571.151	8.75
571.492	9.11
571.833	8.79
572.174	8.83
572.514	9.01
572.855	8.99
573.195	8.95
573.536	8.98
573.876	9.07
574.217	8.82
574.557	9.04
574.898	9.23
575.238	9.14
575.578	8.82
575.918	9.22
576.258	9.16
576.598	9.04
576.938	9.06
577.278	9.06
577.618	9.2
577.958	9.05
578.298	9.08
578.638	9.31
578.977	9.23
579.317	8.87
579.657	9.16
579.996	9.2
580.336	9.32
580.675	9.24
581.014	9.47
581.354	9.23
581.693	9.47
582.032	9.32
582.372	9.28
582.711	9.57
583.05	9.51
583.389	9.44
583.728	9.27
584.067	9.65
584.406	9.67
584.745	9.55
585.083	9.55
585.422	9.62
585.761	9.69
586.1	9.65
586.438	9.75
586.777	9.86
587.115	9.7
587.454	9.77
587.792	9.62
588.13	9.71
588.469	9.72
588.807	9.84
589.145	9.8
589.483	9.9
589.821	9.7
590.159	9.68
590.497	10.08
590.835	10.06
591.173	9.97
591.511	10.13
591.849	10.01
592.187	9.96
592.524	9.87
592.862	9.88
593.2	10.19
593.537	10.08
593.875	10.12
594.212	9.79
594.55	9.97
594.887	10.28
595.224	10.06
595.561	10.12
595.899	10.09
596.236	10.13
596.573	10.26
596.91	10.05
597.247	9.8
597.584	10.5
597.921	10.49
598.258	9.89
598.594	10.36
598.931	10.16
599.268	10.32
599.604	10.29
599.941	10.5
600.277	10.33
600.614	10.35
600.95	10.29
601.287	10.54
601.623	10.26
601.959	10.41
602.296	10.63
602.632	10.37
602.968	10.68
603.304	10.52
603.64	10.56
603.976	10.76
604.312	10.36
604.648	10.55
604.984	10.76
605.319	10.72
605.655	10.71
605.991	10.72
606.326	10.35
606.662	10.61
606.998	10.33
607.333	10.67
607.668	10.74
608.004	10.82
608.339	11.01
608.674	10.92
609.01	10.76
609.345	10.55
609.68	11.11
610.015	10.86
610.35	10.91
610.685	10.91
611.02	11.01
611.355	10.99
611.689	11.05
612.024	11.06
612.359	10.89
612.694	11.28
613.028	11.15
613.363	11.38
613.697	11.4
614.032	11.16
614.366	11.18
614.7	11.39
615.035	11.27
615.369	11.38
615.703	11.24
616.037	11.56
616.371	11.24
616.705	11.27
617.039	11.42
617.373	11.19
617.707	11.28
618.041	11.2
618.375	11.5
618.709	11.61
619.042	11.48
619.376	11.58
619.71	11.52
620.043	11.56
620.377	11.53
620.71	11.76
621.043	11.42
621.377	11.52
621.71	11.43
622.043	11.51
622.376	11.45
622.709	11.6
623.043	11.88
623.376	11.67
623.709	11.62
624.041	12.03
624.374	11.82
624.707	11.94
625.04	12.04
625.373	11.55
625.705	11.77
626.038	11.89
626.37	11.78
626.703	11.59
627.035	12.03
627.368	12.3
627.7	11.82
628.032	11.74
628.365	12.26
628.697	12.01
629.029	11.8
629.361	11.83
629.693	12.1
630.025	12.19
630.357	12.65
630.689	12.21
631.021	11.93
631.353	12.4
631.684	11.78
632.016	11.75
632.348	12.48
632.679	12.39
633.011	12.7
633.342	12.61
633.674	12.33
634.005	12.58
634.336	12.19
634.668	12.93
634.999	12.46
635.33	12.65
635.661	13
635.992	12.21
636.323	12.33
636.654	12.75
636.985	12.43
637.316	12.56
637.647	12.72
637.977	12.83
638.308	13.13
638.639	12.45
638.969	12.61
639.3	12.6
639.63	12.33
639.961	12.58
640.291	12.87
640.622	12.84
640.952	12.58
641.282	13.01
641.612	12.62
641.943	12.81
642.273	12.77
642.603	13.03
642.933	13.18
643.263	13.1
643.592	12.77
643.922	12.6
644.252	13.14
644.582	13.13
644.911	13.47
645.241	12.87
645.571	12.89
645.9	12.81
646.23	13.46
646.559	13.5
646.888	12.82
647.218	13.34
647.547	13.33
647.876	12.8
648.205	13.08
648.534	12.89
648.863	12.78
649.192	13.47
649.521	13.63
649.85	12.96
650.179	13.5
650.508	13.11
650.837	13.05
651.165	12.95
651.494	13.74
651.822	13.53
652.151	13.13
652.479	13.32
652.808	13.44
653.136	13.82
653.465	13.01
653.793	13.51
654.121	13.52
654.449	13.65
654.777	13.85
655.105	13.65
655.433	13.81
655.761	13.22
656.089	14.13
656.417	13.93
656.745	13.4
657.073	13.58
657.4	14.47
657.728	13.98
658.056	13.49
658.383	13.65
658.711	13.69
659.038	13.95
659.365	14.4
659.693	13.67
660.02	14.09
660.347	14.05
660.674	14.32
661.001	14.17
661.329	13.39
661.656	13.85
661.982	14.2
662.309	13.82
662.636	13.92
662.963	14.14
663.29	14.55
663.616	14.64
663.943	13.96
664.27	13.96
664.596	14.95
664.923	14.36
665.249	14.82
665.576	14.31
665.902	14.29
666.228	14.23
666.554	13.89
666.881	14.23
667.207	14.43
667.533	13.94
667.859	14.88
668.185	14.44
668.511	14.23
668.837	14.1
669.162	14.69
669.488	13.76
669.814	15.05
670.139	14.57
670.465	14.6
670.791	15.11
671.116	15.04
671.442	14.12
671.767	14.83
672.092	15.37
672.418	14.81
672.743	15.32
673.068	14.83
673.393	15.16
673.718	14.82
674.043	15.23
674.368	15.3
674.693	15.36
675.018	14.77
675.343	14.6
675.667	13.91
675.992	15.85
676.317	14.63
676.641	15.74
676.966	15.01
677.29	14.53
677.615	15.72
677.939	15.52
678.264	15.86
678.588	15.66
678.912	15.41
679.236	15.61
679.56	14.63
679.885	15.04
680.209	15.26
680.532	15.04
680.856	15.44
681.18	14.92
681.504	15.45
681.828	15.55
682.152	15.06
682.475	15.11
682.799	15.61
683.122	15.37
683.446	15.04
683.769	15.45
684.093	15.5
684.416	15.73
684.739	15.32
685.062	15.76
685.386	15.45
685.709	14.66
686.032	15.33
686.355	16.17
686.678	15.85
