Data from 0391_crown_Reflection__3__193.txt Node

Date: Fri Dec 15 18:13:59 CST 2023
User: ToomeyLab
Spectrometer: FLMS14357
Trigger mode: 0
Integration Time (sec): 1.000000E-2
Scans to average: 100
Electric dark correction enabled: true
Nonlinearity correction enabled: false
Boxcar width: 0
XAxis mode: Wavelengths
Number of Pixels in Spectrum: 2048
>>>>>Begin Spectral Data<<<<<
189.047	-417.64
189.435	-417.64
189.823	-417.64
190.211	-165.63
190.599	822.6
190.987	118.47
191.375	-150.29
191.763	-99.32
192.151	181.5
192.538	57.51
192.926	-5.44
193.314	183.94
193.702	26.18
194.089	79.53
194.477	73.38
194.864	40.61
195.252	95.58
195.639	82.65
196.027	132.07
196.414	230.9
196.801	279.24
197.189	23.9
197.576	54.33
197.963	-295.05
198.351	-119.35
198.738	54.71
199.125	2.96
199.512	24.99
199.899	17.88
200.286	16.73
200.673	-1.34
201.06	36.82
201.447	-116.11
201.833	4.68
202.22	21.67
202.607	50.6
202.994	47.32
203.38	9.02
203.767	15
204.154	32.2
204.54	56.21
204.927	-35.05
205.313	-55.73
205.699	43.5
206.086	42.68
206.472	37.93
206.858	38.79
207.245	21.51
207.631	-9.52
208.017	20.71
208.403	5.24
208.789	18.32
209.175	7.78
209.561	-23.59
209.947	2.08
210.333	-46.93
210.719	36.45
211.105	43.32
211.491	-40.65
211.876	-12.34
212.262	-4.54
212.648	21.61
213.034	23.24
213.419	11.45
213.805	-51.99
214.19	-38
214.576	19.73
214.961	16.27
215.346	-51.91
215.732	15.29
216.117	1.4
216.502	-22.28
216.888	-24.4
217.273	40.78
217.658	-4.41
218.043	15.31
218.428	12.28
218.813	-35.79
219.198	-46.67
219.583	-5.43
219.968	6.96
220.353	-19.76
220.738	-5.64
221.122	2.18
221.507	-27.24
221.892	-45.24
222.276	-17.64
222.661	4.17
223.046	-6.79
223.43	14.71
223.815	14.57
224.199	-21.87
224.583	-7.05
224.968	4.14
225.352	14.88
225.736	1.76
226.121	-16.73
226.505	10.16
226.889	0.9
227.273	2.81
227.657	11.6
228.041	7.2
228.425	-1.25
228.809	9.42
229.193	3.61
229.577	1.28
229.961	3.49
230.344	2.78
230.728	2.12
231.112	3.41
231.495	3.35
231.879	3.04
232.263	5.08
232.646	3.16
233.03	2.32
233.413	1.91
233.797	0.99
234.18	1.75
234.563	0.49
234.946	0.14
235.33	4.16
235.713	2.97
236.096	2.19
236.479	4.72
236.862	2.12
237.245	3.77
237.628	1.09
238.011	3.98
238.394	5.16
238.777	3.76
239.16	2.61
239.543	3.48
239.925	1.99
240.308	2.78
240.691	4.82
241.073	5.26
241.456	1.98
241.838	2.29
242.221	2.56
242.603	4.36
242.986	3.43
243.368	4.16
243.75	3.67
244.133	3.58
244.515	3.82
244.897	3.84
245.279	3.64
245.661	4.02
246.043	2.65
246.425	2.87
246.807	4.38
247.189	4.67
247.571	4.56
247.953	3.78
248.335	3.27
248.717	3.9
249.098	3.55
249.48	3.69
249.862	3.82
250.243	3.78
250.625	3.67
251.006	3.93
251.388	3.36
251.769	3.9
252.151	4.07
252.532	3.47
252.913	2.87
253.295	3.12
253.676	2.78
254.057	3.21
254.438	3.58
254.819	3.33
255.2	2.88
255.581	3.87
255.962	2.22
256.343	3.44
256.724	3.1
257.105	3.41
257.486	3.19
257.867	3.17
258.247	3.82
258.628	3.59
259.009	3.64
259.389	3.88
259.77	3.05
260.15	3.07
260.531	2.2
260.911	3.88
261.292	3.53
261.672	3.74
262.052	3.63
262.432	3.88
262.813	3.74
263.193	3.62
263.573	3.4
263.953	3.27
264.333	3.7
264.713	3.71
265.093	2.86
265.473	2.73
265.853	2.55
266.233	3.96
266.612	1.12
266.992	2.72
267.372	3.95
267.752	3.11
268.131	3.45
268.511	3.81
268.89	3.8
269.27	3.05
269.649	2.89
270.029	3.04
270.408	3.77
270.787	3.49
271.167	3.87
271.546	3.72
271.925	2.83
272.304	3.69
272.683	3.37
273.062	3.19
273.441	3.9
273.82	2.88
274.199	3.36
274.578	3.32
274.957	3.3
275.336	3.41
275.715	2.85
276.093	2.89
276.472	3.33
276.851	3.14
277.229	3.14
277.608	2.11
277.986	3.82
278.365	3.27
278.743	2.76
279.122	3.62
279.5	3.45
279.878	3.42
280.257	4.01
280.635	2.62
281.013	2.86
281.391	3.72
281.769	4.11
282.147	3.03
282.525	3.37
282.903	2.72
283.281	3.29
283.659	3.6
284.037	3.13
284.415	3.48
284.792	3.56
285.17	2.17
285.548	2.59
285.925	3.09
286.303	3.28
286.68	3.08
287.058	3.18
287.435	3
287.813	3.42
288.19	3.05
288.567	3
288.945	3.68
289.322	2.94
289.699	2.94
290.076	3.26
290.453	3.49
290.83	3.13
291.207	3.07
291.584	3.74
291.961	3.18
292.338	2.85
292.715	3.51
293.092	3.25
293.469	3.06
293.845	3.34
294.222	2.68
294.599	3.18
294.975	3.08
295.352	3.94
295.728	2.72
296.105	3.21
296.481	3.71
296.858	3.34
297.234	3.1
297.61	3.5
297.986	3.38
298.363	3.4
298.739	3.6
299.115	2.95
299.491	2.98
299.867	3.46
300.243	3.59
300.619	2.74
300.995	2.89
301.371	3.23
301.746	3.68
302.122	3.7
302.498	3.69
302.874	3.56
303.249	3.36
303.625	3.89
304	4.11
304.376	4.09
304.751	2.86
305.127	3.89
305.502	2.89
305.878	3.03
306.253	3.43
306.628	3.77
307.003	2.66
307.378	3.94
307.754	3.58
308.129	2.86
308.504	2.95
308.879	3.2
309.254	3.72
309.629	3.66
310.003	3.37
310.378	3.71
310.753	3.83
311.128	3.53
311.502	3.32
311.877	3.45
312.252	3.27
312.626	3.67
313.001	3.08
313.375	3.97
313.75	3.03
314.124	3.77
314.498	3.26
314.873	3.45
315.247	2.89
315.621	3.39
315.995	3.12
316.369	3.34
316.743	3.18
317.117	3.59
317.491	3.23
317.865	2.59
318.239	3.55
318.613	3.99
318.987	3.76
319.361	2.8
319.734	3.81
320.108	3.2
320.482	3.63
320.855	3.64
321.229	3.22
321.602	3.44
321.976	2.83
322.349	3.44
322.723	3.31
323.096	4.59
323.469	2.98
323.843	3.33
324.216	3.76
324.589	2.81
324.962	3.15
325.335	3.52
325.708	3.28
326.081	2.9
326.454	3.35
326.827	3.45
327.2	3.58
327.573	3.66
327.945	3.38
328.318	3.15
328.691	2.74
329.063	3
329.436	3.18
329.809	3.15
330.181	2.86
330.553	3.09
330.926	3.74
331.298	3.1
331.671	3.04
332.043	3.69
332.415	3.64
332.787	3.49
333.159	3.96
333.532	3.64
333.904	3.26
334.276	3.02
334.648	3.22
335.02	3.18
335.391	3.44
335.763	3.07
336.135	3.18
336.507	3.56
336.879	2.92
337.25	2.59
337.622	3.53
337.993	3.32
338.365	3.36
338.736	3.09
339.108	3.35
339.479	2.98
339.851	3.29
340.222	3.08
340.593	2.92
340.964	3.17
341.336	3.67
341.707	3.48
342.078	3.43
342.449	3.62
342.82	3.44
343.191	3.38
343.562	3.54
343.933	3.68
344.303	3.21
344.674	3.52
345.045	3.4
345.416	3.94
345.786	3.61
346.157	3.94
346.527	2.71
346.898	3.03
347.268	3.65
347.639	2.96
348.009	3.52
348.38	2.98
348.75	3.14
349.12	3.41
349.49	3.4
349.861	3.42
350.231	3.16
350.601	3.37
350.971	3.41
351.341	3.53
351.711	3.56
352.081	3.44
352.45	3.49
352.82	3.5
353.19	3.35
353.56	3.68
353.929	3.91
354.299	2.87
354.669	2.91
355.038	3.47
355.408	3.38
355.777	3.32
356.147	3.37
356.516	3.13
356.885	3.21
357.254	3.26
357.624	3.96
357.993	3.59
358.362	3.12
358.731	3.16
359.1	3.19
359.469	3.67
359.838	3.33
360.207	3.26
360.576	3.01
360.945	3.41
361.314	3.61
361.682	3.27
362.051	3.64
362.42	3.65
362.788	3.33
363.157	3.36
363.525	3.64
363.894	3.31
364.262	3.52
364.631	3.54
364.999	3.51
365.367	3.12
365.735	4.2
366.104	3.43
366.472	3.59
366.84	3.08
367.208	3.18
367.576	3.56
367.944	3.49
368.312	3.49
368.68	3.04
369.048	3.47
369.416	3.72
369.783	3.47
370.151	3.59
370.519	3.65
370.886	3.59
371.254	3.4
371.621	3.61
371.989	3.78
372.356	2.93
372.724	3.75
373.091	3.37
373.458	3.34
373.826	3.59
374.193	3.44
374.56	3.65
374.927	3.48
375.294	3.59
375.661	3.13
376.028	3.26
376.395	3.29
376.762	3.73
377.129	3.57
377.496	3.45
377.863	3.37
378.229	2.91
378.596	3.81
378.963	3.37
379.329	3.24
379.696	3.52
380.062	3.63
380.429	3.59
380.795	3.53
381.161	3.49
381.528	3.62
381.894	3.57
382.26	3.31
382.626	3.72
382.993	3.18
383.359	3.65
383.725	3.48
384.091	3.54
384.457	3.59
384.823	3.67
385.188	3.68
385.554	3.44
385.92	3.52
386.286	3.76
386.651	3.86
387.017	3.95
387.383	3.59
387.748	3.52
388.114	3.51
388.479	3.44
388.845	3.72
389.21	3.79
389.575	3.72
389.94	3.58
390.306	3.7
390.671	3.72
391.036	3.19
391.401	3.5
391.766	3.83
392.131	3.55
392.496	3.67
392.861	3.39
393.226	3.61
393.591	3.58
393.956	3.52
394.32	3.76
394.685	3.24
395.05	3.64
395.414	3.98
395.779	3.52
396.143	3.75
396.508	3.84
396.872	3.69
397.236	3.65
397.601	3.27
397.965	3.76
398.329	3.87
398.694	3.76
399.058	3.9
399.422	3.33
399.786	3.67
400.15	3.57
400.514	3.54
400.878	3.73
401.242	3.94
401.605	3.88
401.969	3.78
402.333	3.79
402.697	3.62
403.06	3.83
403.424	3.6
403.787	3.57
404.151	3.95
404.514	3.71
404.878	3.65
405.241	3.73
405.604	3.51
405.968	3.66
406.331	3.61
406.694	3.9
407.057	3.87
407.42	3.97
407.783	3.26
408.146	3.73
408.509	3.66
408.872	3.77
409.235	3.75
409.598	3.97
409.961	3.47
410.323	3.91
410.686	3.72
411.049	3.76
411.411	3.78
411.774	3.62
412.136	3.72
412.499	3.56
412.861	3.6
413.223	3.75
413.586	3.78
413.948	3.7
414.31	3.72
414.672	3.66
415.035	3.71
415.397	3.92
415.759	3.63
416.121	4.04
416.483	3.72
416.845	3.95
417.206	3.76
417.568	3.63
417.93	3.38
418.292	3.7
418.653	3.67
419.015	3.67
419.377	3.74
419.738	3.9
420.1	3.73
420.461	3.79
420.822	3.97
421.184	3.71
421.545	3.8
421.906	3.58
422.267	3.64
422.629	3.73
422.99	3.71
423.351	3.64
423.712	3.78
424.073	3.86
424.434	3.59
424.795	3.66
425.155	3.81
425.516	3.62
425.877	3.79
426.238	3.69
426.598	3.85
426.959	3.85
427.32	3.73
427.68	3.67
428.041	3.67
428.401	3.94
428.761	3.88
429.122	3.89
429.482	3.7
429.842	3.92
430.202	3.86
430.563	3.93
430.923	3.79
431.283	4.01
431.643	3.68
432.003	4.04
432.363	3.96
432.722	3.85
433.082	3.98
433.442	4.05
433.802	3.9
434.161	3.82
434.521	4
434.881	4.06
435.24	3.7
435.6	3.86
435.959	3.72
436.319	3.77
436.678	3.81
437.037	3.99
437.396	4.11
437.756	3.89
438.115	3.82
438.474	4.02
438.833	3.74
439.192	3.83
439.551	4.07
439.91	3.92
440.269	4
440.628	3.68
440.987	3.96
441.345	3.83
441.704	3.79
442.063	3.84
442.421	3.81
442.78	3.89
443.138	3.75
443.497	3.91
443.855	3.9
444.214	3.95
444.572	4.06
444.93	3.98
445.288	4.04
445.647	4.05
446.005	4.03
446.363	3.91
446.721	3.97
447.079	3.83
447.437	3.77
447.795	3.96
448.153	3.87
448.51	3.84
448.868	3.92
449.226	3.87
449.584	3.89
449.941	4.11
450.299	3.97
450.656	3.95
451.014	3.97
451.371	3.96
451.729	3.73
452.086	4.08
452.443	4
452.801	4.03
453.158	4.01
453.515	3.97
453.872	4.12
454.229	3.81
454.586	4.09
454.943	4.02
455.3	4.05
455.657	4.01
456.014	4.01
456.371	4.07
456.727	3.97
457.084	4.16
457.441	3.99
457.797	4.11
458.154	4.21
458.51	3.99
458.867	4.17
459.223	4.38
459.58	4.11
459.936	4.11
460.292	4.12
460.648	3.94
461.005	3.88
461.361	4.02
461.717	4.01
462.073	3.9
462.429	4.03
462.785	4.07
463.141	4.05
463.496	4.16
463.852	4.23
464.208	4.25
464.564	4.25
464.919	4.16
465.275	4.14
465.631	4.28
465.986	4.09
466.342	4.18
466.697	3.97
467.052	4.26
467.408	4.29
467.763	4.12
468.118	4.2
468.473	4.08
468.829	4.04
469.184	4.19
469.539	4.32
469.894	4.16
470.249	4.38
470.603	4.29
470.958	4.34
471.313	4.29
471.668	4.27
472.023	4.23
472.377	4.12
472.732	4.12
473.086	4.16
473.441	3.93
473.795	4.38
474.15	4.28
474.504	4.03
474.859	4.2
475.213	4.24
475.567	4.18
475.921	4.08
476.275	4.21
476.63	4.32
476.984	4.34
477.338	4.3
477.692	4.09
478.045	4.22
478.399	4.31
478.753	4.37
479.107	4.23
479.461	4.11
479.814	4.19
480.168	4.19
480.521	4.17
480.875	4.27
481.228	4.15
481.582	4.37
481.935	4.23
482.289	4.22
482.642	4.23
482.995	4.13
483.348	4.06
483.701	4.14
484.055	4.24
484.408	4.19
484.761	4.05
485.114	4.01
485.466	3.81
485.819	3.83
486.172	3.91
486.525	4.04
486.878	4.17
487.23	4.18
487.583	4.23
487.936	4.25
488.288	4.11
488.641	4.11
488.993	4
489.345	3.95
489.698	4.03
490.05	3.97
490.402	4.09
490.754	4.07
491.107	4.22
491.459	4.27
491.811	4.28
492.163	4.25
492.515	4.12
492.866	4.23
493.218	4.1
493.57	3.99
493.922	4.03
494.274	4.21
494.625	4.34
494.977	4.31
495.328	4.37
495.68	4.3
496.031	4.4
496.383	4.24
496.734	4.47
497.086	4.46
497.437	4.38
497.788	4.26
498.139	4.24
498.49	4.45
498.842	4.17
499.193	4.27
499.544	4.41
499.894	4.29
500.245	4.42
500.596	4.25
500.947	4.33
501.298	4.16
501.648	4.46
501.999	4.41
502.35	4.32
502.7	4.26
503.051	4.25
503.401	4.3
503.752	4.48
504.102	4.22
504.452	4.4
504.803	4.3
505.153	4.4
505.503	4.35
505.853	4.19
506.203	4.39
506.553	4.39
506.903	4.31
507.253	4.32
507.603	4.28
507.953	4.48
508.303	4.49
508.652	4.35
509.002	4.5
509.352	4.4
509.701	4.39
510.051	4.38
510.4	4.33
510.75	4.41
511.099	4.4
511.449	4.37
511.798	4.35
512.147	4.54
512.496	4.27
512.846	4.55
513.195	4.41
513.544	4.47
513.893	4.45
514.242	4.38
514.591	4.6
514.939	4.37
515.288	4.3
515.637	4.48
515.986	4.48
516.334	4.46
516.683	4.4
517.032	4.48
517.38	4.47
517.729	4.34
518.077	4.28
518.426	4.5
518.774	4.56
519.122	4.34
519.47	4.38
519.819	4.3
520.167	4.37
520.515	4.36
520.863	4.46
521.211	4.5
521.559	4.48
521.907	4.4
522.255	4.52
522.602	4.53
522.95	4.47
523.298	4.59
523.645	4.48
523.993	4.48
524.341	4.62
524.688	4.65
525.036	4.47
525.383	4.53
525.73	4.6
526.078	4.37
526.425	4.44
526.772	4.49
527.119	4.41
527.466	4.27
527.814	4.33
528.161	4.4
528.508	4.41
528.854	4.48
529.201	4.41
529.548	4.38
529.895	4.21
530.242	4.15
530.588	4.14
530.935	4.19
531.282	4.36
531.628	4.4
531.975	4.48
532.321	4.46
532.667	4.51
533.014	4.53
533.36	4.51
533.706	4.41
534.052	4.53
534.399	4.36
534.745	4.32
535.091	4.27
535.437	4.35
535.783	4.44
536.129	4.58
536.474	4.56
536.82	4.61
537.166	4.65
537.512	4.57
537.857	4.57
538.203	4.46
538.549	4.35
538.894	4.39
539.239	4.59
539.585	4.55
539.93	4.53
540.276	4.69
540.621	4.65
540.966	4.64
541.311	4.61
541.656	4.38
542.001	4.48
542.346	4.64
542.691	4.4
543.036	4.31
543.381	4.24
543.726	4.37
544.071	4.49
544.415	4.51
544.76	4.54
545.105	4.62
545.449	4.49
545.794	4.68
546.138	4.63
546.483	4.69
546.827	4.7
547.171	4.58
547.516	4.72
547.86	4.49
548.204	4.57
548.548	4.51
548.892	4.65
549.236	4.56
549.58	4.63
549.924	4.68
550.268	4.8
550.612	4.77
550.956	4.92
551.3	4.59
551.643	4.82
551.987	4.94
552.33	4.76
552.674	4.79
553.017	4.77
553.361	4.71
553.704	4.84
554.048	4.69
554.391	4.66
554.734	4.59
555.077	4.68
555.42	4.66
555.764	4.83
556.107	4.62
556.45	4.65
556.793	4.74
557.135	4.78
557.478	4.91
557.821	4.71
558.164	4.84
558.507	4.71
558.849	4.76
559.192	4.81
559.534	4.76
559.877	4.84
560.219	4.71
560.562	4.97
560.904	4.84
561.246	4.89
561.589	4.8
561.931	4.84
562.273	4.65
562.615	4.95
562.957	4.7
563.299	4.67
563.641	4.86
563.983	4.9
564.325	4.67
564.667	4.87
565.008	4.92
565.35	4.89
565.692	4.72
566.033	4.77
566.375	4.9
566.716	5.03
567.058	4.83
567.399	4.76
567.741	4.69
568.082	4.69
568.423	4.68
568.764	4.77
569.105	4.89
569.447	4.85
569.788	4.9
570.129	4.97
570.47	4.88
570.811	4.88
571.151	4.72
571.492	4.89
571.833	4.83
572.174	4.63
572.514	4.8
572.855	4.72
573.195	4.75
573.536	4.84
573.876	4.61
574.217	4.65
574.557	4.83
574.898	5.03
575.238	4.88
575.578	4.79
575.918	5.07
576.258	4.98
576.598	4.75
576.938	4.82
577.278	4.84
577.618	4.86
577.958	4.88
578.298	4.7
578.638	4.79
578.977	4.72
579.317	4.72
579.657	4.91
579.996	4.9
580.336	5.02
580.675	4.88
581.014	4.9
581.354	5
581.693	4.91
582.032	4.87
582.372	4.7
582.711	4.91
583.05	4.75
583.389	4.93
583.728	4.73
584.067	4.88
584.406	5.07
584.745	5.02
585.083	5.08
585.422	5.02
585.761	4.9
586.1	5.02
586.438	4.97
586.777	5.11
587.115	5.14
587.454	4.88
587.792	5.09
588.13	5.13
588.469	4.72
588.807	4.81
589.145	5.08
589.483	5.14
589.821	4.79
590.159	4.99
590.497	5.23
590.835	5.27
591.173	4.87
591.511	5.23
591.849	5.12
592.187	5.1
592.524	4.95
592.862	4.86
593.2	4.93
593.537	5.1
593.875	4.94
594.212	4.88
594.55	5.09
594.887	5.17
595.224	4.94
595.561	5
595.899	4.97
596.236	4.86
596.573	5.26
596.91	4.68
597.247	4.85
597.584	5.07
597.921	5.29
598.258	4.73
598.594	4.94
598.931	4.79
599.268	5.08
599.604	5.01
599.941	5.05
600.277	4.99
600.614	5.07
600.95	5.08
601.287	5.26
601.623	5.08
601.959	4.99
602.296	4.93
602.632	5.13
602.968	5.25
603.304	5.03
603.64	5.13
603.976	5.12
604.312	4.71
604.648	4.94
604.984	5.03
605.319	5.11
605.655	4.93
605.991	5.14
606.326	5.21
606.662	4.94
606.998	4.91
607.333	5.07
607.668	5.15
608.004	5.23
608.339	5.28
608.674	5.19
609.01	4.97
609.345	4.94
609.68	5
610.015	5.12
610.35	5.19
610.685	5.09
611.02	5.02
611.355	5.17
611.689	4.96
612.024	5.13
612.359	5.09
612.694	5.26
613.028	4.98
613.363	5.19
613.697	5.2
614.032	5.27
614.366	5.07
614.7	5.09
615.035	5.4
615.369	5.13
615.703	5.31
616.037	4.84
616.371	4.64
616.705	4.83
617.039	5.34
617.373	4.93
617.707	5.44
618.041	5.27
618.375	5.29
618.709	5.09
619.042	4.95
619.376	5.4
619.71	5.43
620.043	5.46
620.377	5.3
620.71	5.23
621.043	5.18
621.377	5.02
621.71	5.34
622.043	4.89
622.376	5.1
622.709	5.59
623.043	5.18
623.376	5.51
623.709	5.01
624.041	5.53
624.374	5.19
624.707	5.25
625.04	5.68
625.373	4.65
625.705	5.09
626.038	5.24
626.37	5.04
626.703	5.16
627.035	5.41
627.368	5.76
627.7	5.15
628.032	5.03
628.365	5.36
628.697	4.92
629.029	5.02
629.361	5.22
629.693	4.91
630.025	5.09
630.357	5.66
630.689	5.31
631.021	5.14
631.353	5.73
631.684	5.36
632.016	5.04
632.348	5.37
632.679	5.3
633.011	5.3
633.342	5.85
633.674	5.43
634.005	5.65
634.336	5.38
634.668	5.82
634.999	4.96
635.33	5.63
635.661	5.53
635.992	5.35
636.323	5.37
636.654	5.08
636.985	5.21
637.316	5.37
637.647	5.03
637.977	5.33
638.308	5.2
638.639	4.96
638.969	5.34
639.3	5.45
639.63	5.16
639.961	5.15
640.291	5.34
640.622	5.65
640.952	5.19
641.282	5.67
641.612	5.2
641.943	5.5
642.273	5.35
642.603	5.51
642.933	5.65
643.263	5.39
643.592	5.13
643.922	5.14
644.252	5.04
644.582	5.01
644.911	4.96
645.241	5.58
645.571	5
645.9	5.28
646.23	5.41
646.559	5.19
646.888	5.27
647.218	5.09
647.547	5.62
647.876	5.42
648.205	5.74
648.534	5.06
648.863	5.33
649.192	5.46
649.521	5.59
649.85	5.65
650.179	5.48
650.508	5.05
650.837	5.17
651.165	4.79
651.494	5.92
651.822	5.44
652.151	5.49
652.479	5.59
652.808	5.23
653.136	5.69
653.465	4.86
653.793	5.3
654.121	4.78
654.449	5.41
654.777	5.79
655.105	5.48
655.433	5.24
655.761	5.19
656.089	5.74
656.417	5.63
656.745	5.21
657.073	5.26
657.4	5.84
657.728	5.75
658.056	5.28
658.383	5.49
658.711	5.48
659.038	5.84
659.365	5.93
659.693	5.54
660.02	5.63
660.347	5.37
660.674	5.88
661.001	5.85
661.329	5.06
661.656	5.5
661.982	5.52
662.309	5.4
662.636	5.48
662.963	5.54
663.29	6.16
663.616	5.88
663.943	5.09
664.27	5.89
664.596	5.63
664.923	6.41
665.249	5.11
665.576	5.18
665.902	6.33
666.228	6.33
666.554	5.43
666.881	4.86
667.207	5.96
667.533	5.78
667.859	5.19
668.185	5.79
668.511	5.19
668.837	4.42
669.162	5.79
669.488	4.76
669.814	6.1
670.139	5.49
670.465	6.12
670.791	6.14
671.116	6.33
671.442	5.51
671.767	5.64
672.092	5.98
672.418	5.73
672.743	6.11
673.068	5.44
673.393	5.32
673.718	5.44
674.043	5.31
674.368	5.77
674.693	6.6
675.018	6.14
675.343	5.58
675.667	5.63
675.992	5.66
676.317	5.27
676.641	5.67
676.966	5.83
677.29	5.1
677.615	6.06
677.939	6.11
678.264	6.64
678.588	6.22
678.912	5.83
679.236	6.45
679.56	5.34
679.885	5.87
680.209	5.87
680.532	6.5
680.856	6.36
681.18	5.76
681.504	5.8
681.828	6.6
682.152	5.5
682.475	5.71
682.799	6.15
683.122	6.3
683.446	5.57
683.769	6.07
684.093	5.36
684.416	6.99
684.739	5.88
685.062	5.59
685.386	6.34
685.709	5.23
686.032	5.89
686.355	6.17
686.678	5.55
687.001	6.05
687.324	5.73
687.646	5.86
687.969	5.37
688.292	5.7
688.614	5.85
688.937	7.13
689.26	5.84
689.582	6.5
689.904	5.28
690.227	5.58
690.549	6.05
690.871	6.83
691.194	6.44
691.516	5.82
691.838	6.32
692.16	5.12
