Data from 0391_chest_Reflection__3__188.txt Node

Date: Fri Dec 15 18:12:42 CST 2023
User: ToomeyLab
Spectrometer: FLMS14357
Trigger mode: 0
Integration Time (sec): 1.000000E-2
Scans to average: 100
Electric dark correction enabled: true
Nonlinearity correction enabled: false
Boxcar width: 0
XAxis mode: Wavelengths
Number of Pixels in Spectrum: 2048
>>>>>Begin Spectral Data<<<<<
189.047	-248.85
189.435	-248.85
189.823	-248.85
190.211	211.44
190.599	1446.58
190.987	28.13
191.375	-44.12
191.763	161.51
192.151	298.21
192.538	58.74
192.926	62.75
193.314	-13.68
193.702	70.04
194.089	52.65
194.477	-233.82
194.864	-200.74
195.252	85.46
195.639	45.73
196.027	-6.21
196.414	247.64
196.801	455.36
197.189	165.57
197.576	99.29
197.963	-3.27
198.351	-59.66
198.738	16.48
199.125	19.41
199.512	-21.67
199.899	-12.78
200.286	-2.59
200.673	-15.81
201.06	41.22
201.447	-1.02
201.833	37.7
202.22	27.8
202.607	113.9
202.994	8.43
203.38	-11.63
203.767	-11.9
204.154	12.66
204.54	37.11
204.927	-26.82
205.313	-1.9
205.699	30.49
206.086	22.39
206.472	17.03
206.858	47.19
207.245	-27.7
207.631	15.24
208.017	7.03
208.403	-17.17
208.789	21.59
209.175	28.49
209.561	-31.68
209.947	-28.01
210.333	-107.91
210.719	21.19
211.105	-4.21
211.491	2.34
211.876	8.18
212.262	-15.21
212.648	-7.35
213.034	38.09
213.419	-35.83
213.805	-58.08
214.19	-17.59
214.576	-3.61
214.961	-6.26
215.346	-32.23
215.732	-12.13
216.117	28.73
216.502	-20.8
216.888	-18.45
217.273	24.27
217.658	-26.53
218.043	11.47
218.428	-36.74
218.813	-37.71
219.198	-33.29
219.583	-1.72
219.968	8.73
220.353	14.81
220.738	-3.27
221.122	-11.57
221.507	-49.65
221.892	-35.68
222.276	-24.94
222.661	-5.84
223.046	11.35
223.43	15.93
223.815	16.07
224.199	-0.15
224.583	-4.24
224.968	4.94
225.352	13.05
225.736	-8.75
226.121	-9.2
226.505	7.19
226.889	6.52
227.273	-1.11
227.657	6.62
228.041	0.69
228.425	-0.87
228.809	4.62
229.193	3.13
229.577	1.99
229.961	3.86
230.344	4.38
230.728	3.74
231.112	4.46
231.495	3.66
231.879	3.97
232.263	4.14
232.646	4.56
233.03	3.42
233.413	1.53
233.797	4.24
234.18	3.39
234.563	3.29
234.946	0.45
235.33	4.67
235.713	3.67
236.096	3.83
236.479	5.51
236.862	2.6
237.245	2.5
237.628	2.7
238.011	5.19
238.394	5.64
238.777	3.35
239.16	2.44
239.543	5.26
239.925	6.33
240.308	3.74
240.691	5.76
241.073	3.68
241.456	3.66
241.838	3.86
242.221	4.31
242.603	5.55
242.986	4.59
243.368	3.56
243.75	4.42
244.133	3.83
244.515	4.71
244.897	4.53
245.279	4.58
245.661	3.73
246.043	3.95
246.425	3.31
246.807	5.4
247.189	5.73
247.571	4.78
247.953	4.62
248.335	4.67
248.717	4.15
249.098	4.36
249.48	4.29
249.862	4.51
250.243	4.38
250.625	4.34
251.006	4.4
251.388	4.05
251.769	3.77
252.151	4.31
252.532	4.99
252.913	3.21
253.295	3.59
253.676	4.04
254.057	4.6
254.438	4.27
254.819	4.19
255.2	4.79
255.581	3.35
255.962	3.38
256.343	4.21
256.724	3.15
257.105	4.27
257.486	4.99
257.867	3.98
258.247	4.74
258.628	4.43
259.009	3.44
259.389	3.96
259.77	4.11
260.15	3.25
260.531	3.78
260.911	4.67
261.292	4.56
261.672	4.49
262.052	4.56
262.432	4.79
262.813	4.34
263.193	3.65
263.573	3.89
263.953	3.6
264.333	4.65
264.713	4.94
265.093	3.86
265.473	4
265.853	3.94
266.233	4.52
266.612	2.05
266.992	2.74
267.372	3.49
267.752	4.09
268.131	4.15
268.511	4.9
268.89	4.57
269.27	3.63
269.649	3.64
270.029	4.23
270.408	4.38
270.787	4.89
271.167	4.5
271.546	4.07
271.925	3.66
272.304	3.65
272.683	3.95
273.062	3.49
273.441	3.83
273.82	3.15
274.199	4.01
274.578	4.64
274.957	3.93
275.336	3.89
275.715	3.94
276.093	3.07
276.472	4.14
276.851	3.85
277.229	3.42
277.608	3.65
277.986	3.86
278.365	3.26
278.743	3.59
279.122	4.24
279.5	3.77
279.878	3.48
280.257	4.24
280.635	3.1
281.013	3.39
281.391	4.68
281.769	3.65
282.147	3.59
282.525	4.52
282.903	3.58
283.281	3.88
283.659	4.15
284.037	4.02
284.415	4.08
284.792	3.96
285.17	3.34
285.548	4.16
285.925	3.8
286.303	4.1
286.68	3.77
287.058	3.78
287.435	3.91
287.813	4.02
288.19	4.05
288.567	3.78
288.945	4.39
289.322	3.63
289.699	3.81
290.076	3.96
290.453	3.78
290.83	3.32
291.207	4.07
291.584	4.39
291.961	4.26
292.338	3.97
292.715	4.74
293.092	4.2
293.469	4.12
293.845	4.67
294.222	3.59
294.599	4.03
294.975	3.95
295.352	4.37
295.728	3.99
296.105	4.14
296.481	4.92
296.858	4.34
297.234	4.29
297.61	4.42
297.986	4.28
298.363	4.84
298.739	4.51
299.115	4.59
299.491	4.34
299.867	5
300.243	4.61
300.619	4.28
300.995	4.39
301.371	4.86
301.746	4.46
302.122	5.11
302.498	4.74
302.874	4.83
303.249	4.54
303.625	4.62
304	5.37
304.376	4.36
304.751	4.51
305.127	4.96
305.502	4.32
305.878	3.96
306.253	4.21
306.628	5.63
307.003	5.16
307.378	5.41
307.754	4.37
308.129	4.13
308.504	4.54
308.879	4.44
309.254	5.17
309.629	5.1
310.003	4.7
310.378	4.96
310.753	5.11
311.128	4.58
311.502	5.12
311.877	5.2
312.252	4.72
312.626	4.79
313.001	4.87
313.375	5.35
313.75	4.77
314.124	5.24
314.498	4.94
314.873	4.76
315.247	4.93
315.621	4.83
315.995	4.62
316.369	5.03
316.743	4.77
317.117	5.15
317.491	5.24
317.865	4.78
318.239	5.27
318.613	5.44
318.987	5.3
319.361	4.45
319.734	5.23
320.108	5.21
320.482	4.81
320.855	5.3
321.229	4.62
321.602	5.07
321.976	5.34
322.349	4.99
322.723	5.17
323.096	5.72
323.469	4.97
323.843	4.8
324.216	5.38
324.589	4.7
324.962	4.9
325.335	4.71
325.708	4.56
326.081	5.32
326.454	4.56
326.827	4.85
327.2	5.44
327.573	5
327.945	5.37
328.318	5.02
328.691	4.78
329.063	5.15
329.436	4.91
329.809	5.29
330.181	4.21
330.553	5.15
330.926	5.08
331.298	5.27
331.671	5.1
332.043	5.97
332.415	4.85
332.787	5.38
333.159	5.94
333.532	5.04
333.904	5.33
334.276	5.25
334.648	5.42
335.02	5.35
335.391	4.92
335.763	4.9
336.135	4.73
336.507	5.83
336.879	5.05
337.25	5.35
337.622	5.15
337.993	5.11
338.365	5.04
338.736	5.31
339.108	5.06
339.479	4.97
339.851	5.22
340.222	5.01
340.593	5.06
340.964	5.38
341.336	5.77
341.707	5.04
342.078	5.52
342.449	5.14
342.82	5.41
343.191	5.15
343.562	5.86
343.933	5.16
344.303	5.3
344.674	5.03
345.045	5.3
345.416	5.81
345.786	4.91
346.157	4.95
346.527	4.66
346.898	4.66
347.268	5.75
347.639	5.13
348.009	5.53
348.38	4.94
348.75	5.41
349.12	5.18
349.49	5.54
349.861	5.26
350.231	5.1
350.601	5.13
350.971	5.73
351.341	5.49
351.711	5.05
352.081	5.35
352.45	5.03
352.82	5.42
353.19	5.34
353.56	5.09
353.929	5.02
354.299	4.97
354.669	4.77
355.038	5.84
355.408	5.19
355.777	5.61
356.147	5.38
356.516	5.36
356.885	5.36
357.254	5.32
357.624	5.73
357.993	5.07
358.362	4.79
358.731	4.82
359.1	5.19
359.469	5.23
359.838	5.41
360.207	5.21
360.576	5.03
360.945	5.15
361.314	5.35
361.682	4.82
362.051	5.02
362.42	5.68
362.788	5.24
363.157	5.18
363.525	5.46
363.894	5.36
364.262	5.36
364.631	5.15
364.999	5.43
365.367	5.15
365.735	5.98
366.104	5.35
366.472	5.35
366.84	5.32
367.208	5.26
367.576	5.54
367.944	5.84
368.312	5.2
368.68	5.16
369.048	5.08
369.416	5.22
369.783	5.27
370.151	5.15
370.519	5.85
370.886	5.45
371.254	5.23
371.621	6.09
371.989	5.84
372.356	4.95
372.724	5.29
373.091	5.05
373.458	5.52
373.826	5.44
374.193	5.16
374.56	5.44
374.927	5.5
375.294	4.89
375.661	5.29
376.028	5.03
376.395	5.33
376.762	5.33
377.129	5.5
377.496	5.02
377.863	5.67
378.229	4.8
378.596	5.49
378.963	5.38
379.329	5.48
379.696	5.58
380.062	5.75
380.429	5.44
380.795	5.26
381.161	5.46
381.528	5.56
381.894	5.62
382.26	5.49
382.626	5.58
382.993	5.1
383.359	5.57
383.725	5.18
384.091	5.57
384.457	5.32
384.823	5.76
385.188	5.68
385.554	5.57
385.92	5.5
386.286	5.61
386.651	5.6
387.017	5.5
387.383	5.21
387.748	5.16
388.114	5.87
388.479	5.38
388.845	5.72
389.21	5.4
389.575	5.63
389.94	5.46
390.306	5.69
390.671	5.56
391.036	5.14
391.401	5.36
391.766	5.46
392.131	5.52
392.496	5.31
392.861	5.52
393.226	5.76
393.591	5.57
393.956	5.43
394.32	5.38
394.685	5.26
395.05	5.26
395.414	5.59
395.779	5.45
396.143	5.44
396.508	5.64
396.872	5.62
397.236	5.53
397.601	5.7
397.965	5.77
398.329	5.69
398.694	5.76
399.058	5.6
399.422	5.54
399.786	5.66
400.15	5.79
400.514	5.43
400.878	5.85
401.242	5.47
401.605	5.73
401.969	5.75
402.333	5.57
402.697	5.79
403.06	5.64
403.424	5.54
403.787	5.6
404.151	5.79
404.514	5.71
404.878	5.38
405.241	5.77
405.604	5.63
405.968	5.57
406.331	5.74
406.694	5.82
407.057	5.5
407.42	5.64
407.783	5.44
408.146	5.64
408.509	5.89
408.872	5.58
409.235	5.78
409.598	5.97
409.961	5.74
410.323	5.73
410.686	5.83
411.049	5.65
411.411	5.6
411.774	5.68
412.136	5.82
412.499	5.76
412.861	5.85
413.223	5.81
413.586	5.94
413.948	5.9
414.31	5.63
414.672	5.47
415.035	5.7
415.397	5.94
415.759	5.61
416.121	5.8
416.483	5.63
416.845	5.66
417.206	5.81
417.568	5.96
417.93	5.46
418.292	5.88
418.653	5.7
419.015	5.86
419.377	5.56
419.738	5.7
420.1	5.57
420.461	5.84
420.822	5.62
421.184	5.54
421.545	5.61
421.906	5.68
422.267	5.65
422.629	5.73
422.99	5.75
423.351	5.57
423.712	5.65
424.073	5.78
424.434	5.76
424.795	5.69
425.155	5.75
425.516	5.63
425.877	5.69
426.238	5.67
426.598	5.79
426.959	5.77
427.32	5.74
427.68	5.62
428.041	5.8
428.401	5.82
428.761	5.83
429.122	5.95
429.482	5.59
429.842	5.95
430.202	5.84
430.563	5.87
430.923	5.58
431.283	6.2
431.643	5.94
432.003	5.94
432.363	5.91
432.722	5.92
433.082	5.91
433.442	5.88
433.802	5.72
434.161	5.84
434.521	6.1
434.881	5.91
435.24	5.81
435.6	5.83
435.959	5.81
436.319	5.7
436.678	5.83
437.037	6
437.396	5.85
437.756	5.97
438.115	5.79
438.474	6.02
438.833	5.73
439.192	5.86
439.551	5.98
439.91	5.87
440.269	6.04
440.628	5.85
440.987	5.92
441.345	5.65
441.704	5.83
442.063	5.87
442.421	5.88
442.78	5.86
443.138	5.91
443.497	5.97
443.855	5.94
444.214	6.02
444.572	6.03
444.93	5.91
445.288	6.11
445.647	6.19
446.005	5.91
446.363	5.85
446.721	6.07
447.079	5.79
447.437	6
447.795	6.05
448.153	5.82
448.51	5.94
448.868	5.99
449.226	6
449.584	5.96
449.941	5.99
450.299	6.03
450.656	5.98
451.014	6.09
451.371	5.98
451.729	5.91
452.086	6.21
452.443	6.16
452.801	6.16
453.158	5.89
453.515	6.01
453.872	6.31
454.229	6.1
454.586	6.16
454.943	6.08
455.3	6.21
455.657	6.19
456.014	6.04
456.371	6.13
456.727	6.03
457.084	6.34
457.441	6.15
457.797	6.24
458.154	6.29
458.51	6.24
458.867	6.22
459.223	6.26
459.58	6.15
459.936	6.26
460.292	6.13
460.648	6.18
461.005	6.17
461.361	6.08
461.717	6.07
462.073	6.01
462.429	6.17
462.785	6.14
463.141	6.1
463.496	6.29
463.852	6.36
464.208	6.22
464.564	6.45
464.919	6.24
465.275	6.36
465.631	6.42
465.986	6.19
466.342	6.28
466.697	6.15
467.052	6.3
467.408	6.3
467.763	6.35
468.118	6.33
468.473	6.21
468.829	6.33
469.184	6.21
469.539	6.37
469.894	6.17
470.249	6.39
470.603	6.58
470.958	6.38
471.313	6.4
471.668	6.45
472.023	6.27
472.377	6.26
472.732	6.22
473.086	6.14
473.441	6.16
473.795	6.49
474.15	6.31
474.504	6.18
474.859	6.45
475.213	6.26
475.567	6.33
475.921	6.41
476.275	6.49
476.63	6.45
476.984	6.4
477.338	6.31
477.692	6.2
478.045	6.34
478.399	6.33
478.753	6.45
479.107	6.34
479.461	6.34
479.814	6.48
480.168	6.4
480.521	6.24
480.875	6.38
481.228	6.38
481.582	6.36
481.935	6.41
482.289	6.3
482.642	6.46
482.995	6.26
483.348	6.27
483.701	6.31
484.055	6.37
484.408	6.32
484.761	6.25
485.114	6.21
485.466	5.99
485.819	5.98
486.172	6
486.525	6.16
486.878	6.25
487.23	6.3
487.583	6.32
487.936	6.34
488.288	6.25
488.641	6.23
488.993	6.15
489.345	6.12
489.698	6.14
490.05	6.14
490.402	6.23
490.754	6.31
491.107	6.45
491.459	6.42
491.811	6.48
492.163	6.51
492.515	6.41
492.866	6.38
493.218	6.38
493.57	6.28
493.922	6.28
494.274	6.45
494.625	6.54
494.977	6.55
495.328	6.63
495.68	6.6
496.031	6.67
496.383	6.63
496.734	6.75
497.086	6.67
497.437	6.54
497.788	6.58
498.139	6.61
498.49	6.63
498.842	6.57
499.193	6.52
499.544	6.56
499.894	6.56
500.245	6.76
500.596	6.54
500.947	6.76
501.298	6.61
501.648	6.78
501.999	6.81
502.35	6.57
502.7	6.75
503.051	6.48
503.401	6.58
503.752	6.78
504.102	6.78
504.452	6.81
504.803	6.64
505.153	6.74
505.503	6.63
505.853	6.61
506.203	6.77
506.553	6.74
506.903	6.73
507.253	6.69
507.603	6.73
507.953	6.92
508.303	6.94
508.652	6.6
509.002	6.82
509.352	6.75
509.701	6.73
510.051	6.61
510.4	6.76
510.75	6.77
511.099	6.75
511.449	6.75
511.798	6.76
512.147	6.88
512.496	6.75
512.846	6.76
513.195	6.74
513.544	6.79
513.893	6.88
514.242	6.76
514.591	6.96
514.939	6.84
515.288	6.74
515.637	6.93
515.986	6.87
516.334	6.91
516.683	6.93
517.032	6.93
517.38	6.95
517.729	7.06
518.077	6.87
518.426	6.92
518.774	6.95
519.122	6.96
519.47	6.87
519.819	6.85
520.167	6.89
520.515	6.88
520.863	6.85
521.211	6.9
521.559	7.03
521.907	6.9
522.255	6.96
522.602	7.01
522.95	6.91
523.298	7.17
523.645	7.18
523.993	7.03
524.341	7.17
524.688	7.16
525.036	7.04
525.383	7.06
525.73	7.16
526.078	6.98
526.425	7.11
526.772	7.12
527.119	7.04
527.466	6.91
527.814	7.01
528.161	7.01
528.508	7.06
528.854	7.01
529.201	7.07
529.548	6.96
529.895	6.9
530.242	6.73
530.588	6.72
530.935	6.83
531.282	6.9
531.628	6.99
531.975	7.01
532.321	7.12
532.667	7.22
533.014	7.2
533.36	7.17
533.706	7.2
534.052	7.17
534.399	7.12
534.745	7.04
535.091	7.04
535.437	7.07
535.783	7.18
536.129	7.19
536.474	7.33
536.82	7.26
537.166	7.33
537.512	7.35
537.857	7.33
538.203	7.32
538.549	7.2
538.894	7.23
539.239	7.39
539.585	7.38
539.93	7.37
540.276	7.47
540.621	7.49
540.966	7.5
541.311	7.37
541.656	7.29
542.001	7.43
542.346	7.55
542.691	7.28
543.036	7.2
543.381	7.1
543.726	7.18
544.071	7.38
544.415	7.44
544.76	7.46
545.105	7.44
545.449	7.43
545.794	7.59
546.138	7.48
546.483	7.58
546.827	7.59
547.171	7.55
547.516	7.76
547.86	7.51
548.204	7.45
548.548	7.54
548.892	7.71
549.236	7.69
549.58	7.76
549.924	7.77
550.268	7.85
550.612	7.79
550.956	8.13
551.3	7.85
551.643	7.91
551.987	8.08
552.33	7.72
552.674	7.93
553.017	7.81
553.361	7.83
553.704	8.05
554.048	7.76
554.391	8.01
554.734	7.66
555.077	8.05
555.42	7.91
555.764	7.8
556.107	7.72
556.45	7.87
556.793	8.08
557.135	7.99
557.478	8
557.821	8.18
558.164	7.94
558.507	8.05
558.849	8.13
559.192	8.32
559.534	8.02
559.877	8.26
560.219	8.12
560.562	8.55
560.904	8.08
561.246	8.25
561.589	8.21
561.931	8.18
562.273	8.07
562.615	8.02
562.957	8.19
563.299	8.01
563.641	8.3
563.983	8.27
564.325	8.04
564.667	8.16
565.008	8.19
565.35	8.3
565.692	8.28
566.033	8.28
566.375	8.55
566.716	8.62
567.058	8.31
567.399	8.41
567.741	8.29
568.082	8.23
568.423	8.52
568.764	8.21
569.105	8.4
569.447	8.58
569.788	8.56
570.129	8.61
570.47	8.41
570.811	8.59
571.151	8.61
571.492	8.65
571.833	8.74
572.174	8.63
572.514	8.75
572.855	8.71
573.195	8.6
573.536	8.66
573.876	8.35
574.217	8.56
574.557	8.71
574.898	8.76
575.238	8.75
575.578	8.53
575.918	8.88
576.258	9.12
576.598	8.91
576.938	8.63
577.278	8.82
577.618	8.86
577.958	8.81
578.298	8.79
578.638	8.89
578.977	8.84
579.317	8.87
579.657	9.09
579.996	9.09
580.336	9.02
580.675	9.12
581.014	8.91
581.354	8.98
581.693	9.09
582.032	8.83
582.372	9.24
582.711	9.21
583.05	9.23
583.389	9.34
583.728	9.06
584.067	9.35
584.406	9.49
584.745	9.34
585.083	9.35
585.422	9.52
585.761	9.47
586.1	9.46
586.438	9.47
586.777	9.7
587.115	9.77
587.454	9.05
587.792	9.11
588.13	9.49
588.469	9.53
588.807	9.54
589.145	9.35
589.483	9.47
589.821	9.25
590.159	9.66
590.497	9.7
590.835	9.88
591.173	9.63
591.511	9.74
591.849	9.64
592.187	9.75
592.524	9.72
592.862	9.63
593.2	9.97
593.537	9.6
593.875	9.59
594.212	9.68
594.55	9.91
594.887	10.02
595.224	9.92
595.561	9.87
595.899	9.62
596.236	9.7
596.573	9.7
596.91	9.9
597.247	9.96
597.584	10.25
597.921	9.86
598.258	9.72
598.594	9.81
598.931	10.04
599.268	10.04
599.604	10.06
599.941	10.17
600.277	10.01
600.614	10.03
600.95	9.8
601.287	10.33
601.623	9.92
601.959	9.85
602.296	10.33
602.632	10.21
602.968	10.47
603.304	10.33
603.64	10.07
603.976	10.3
604.312	10.07
604.648	10.18
604.984	10.31
605.319	10.33
605.655	10.48
605.991	10.34
606.326	10.34
606.662	10.39
606.998	10.26
607.333	10.42
607.668	10.58
608.004	10.35
608.339	10.68
608.674	10.7
609.01	10.52
609.345	10.38
609.68	10.78
610.015	10.46
610.35	10.65
610.685	10.52
611.02	10.65
611.355	10.76
611.689	10.43
612.024	10.63
612.359	10.62
612.694	10.67
613.028	10.79
613.363	11.25
613.697	10.95
614.032	10.96
614.366	10.8
614.7	10.7
615.035	11.18
615.369	10.62
615.703	10.59
616.037	11.05
616.371	11.2
616.705	10.69
617.039	10.93
617.373	11.07
617.707	10.82
618.041	11.1
618.375	11.13
618.709	11.18
619.042	11.05
619.376	11.12
619.71	11.28
620.043	11.62
620.377	11.48
620.71	11.51
621.043	11.32
621.377	11.3
621.71	11.3
622.043	11.12
622.376	10.94
622.709	11.21
623.043	11.56
623.376	11.84
623.709	11.5
624.041	11.66
624.374	11.51
624.707	11.3
625.04	11.5
625.373	11.15
625.705	11.42
626.038	11.25
626.37	11.45
626.703	11.68
627.035	11.58
627.368	12.03
627.7	11.77
628.032	11.51
628.365	11.67
628.697	11.57
629.029	11.45
629.361	11.8
629.693	11.95
630.025	11.56
630.357	12.12
630.689	11.91
631.021	11.75
631.353	12.15
631.684	11.74
632.016	11.6
632.348	12.15
632.679	12.04
633.011	12.18
633.342	12.26
633.674	12.09
634.005	12.21
634.336	12.22
634.668	12.83
634.999	11.86
635.33	12.33
635.661	12.25
635.992	12.12
636.323	12.33
636.654	12.44
636.985	12.13
637.316	11.8
637.647	12.21
637.977	12.54
638.308	12.79
638.639	11.89
638.969	12.54
639.3	12.03
639.63	11.92
639.961	11.79
640.291	12.71
640.622	12.51
640.952	12.48
641.282	12.7
641.612	12.9
641.943	12.49
642.273	12.69
642.603	12.78
642.933	12.52
643.263	12.77
643.592	12.51
643.922	12.91
644.252	12.73
644.582	13.08
644.911	12.62
645.241	12.67
645.571	12.87
645.9	12.47
646.23	13.11
646.559	12.71
646.888	13.29
647.218	12.39
647.547	13.08
647.876	12.32
648.205	12.65
648.534	12.79
648.863	12.43
649.192	12.73
649.521	12.92
649.85	12.92
650.179	13.59
650.508	12.64
650.837	12.78
651.165	12.82
651.494	13.04
651.822	12.99
652.151	12.78
652.479	12.9
652.808	12.52
653.136	13
653.465	12.86
653.793	12.89
654.121	12.75
654.449	13.23
654.777	13.5
655.105	13.65
655.433	13.02
655.761	12.87
656.089	13.63
656.417	13.4
656.745	13.37
657.073	13.18
657.4	13.64
657.728	13.33
658.056	13.24
658.383	13.37
658.711	13.27
659.038	13.58
659.365	13.61
659.693	13.54
660.02	13.3
660.347	13.75
660.674	13.4
661.001	13.81
661.329	13.09
661.656	13.56
661.982	13.49
662.309	13.51
662.636	13.4
662.963	13.99
663.29	14.07
663.616	14.11
663.943	13.49
664.27	14.03
664.596	13.99
664.923	14.26
665.249	13.17
665.576	13.96
665.902	14.53
666.228	14.04
666.554	14.63
666.881	13.67
667.207	14.16
667.533	14.32
667.859	13.92
668.185	14.64
668.511	13.86
668.837	13.82
669.162	14.39
669.488	13.47
669.814	14.44
670.139	13.98
670.465	14.7
670.791	14.67
671.116	14.98
671.442	13.89
671.767	14.01
672.092	14.44
672.418	14.56
672.743	14.97
673.068	13.96
673.393	14.68
673.718	14.21
674.043	15.04
674.368	14.39
674.693	14.89
675.018	14.17
675.343	14.45
675.667	14.89
675.992	14.64
676.317	14.9
676.641	15.32
676.966	15.25
677.29	14.69
677.615	15.07
677.939	15.05
678.264	15.18
678.588	15.06
678.912	14.72
679.236	15.16
679.56	14.13
679.885	14.81
680.209	14.69
680.532	15.14
680.856	15.57
681.18	14.86
681.504	15.15
681.828	15.26
682.152	14.78
682.475	14.62
682.799	15.5
683.122	15.28
683.446	14.76
683.769	15.62
684.093	14.86
684.416	16.12
684.739	15.51
685.062	15.23
685.386	15.92
