Data from 0391_forehead_Reflection__1__196.txt Node

Date: Fri Dec 15 18:15:10 CST 2023
User: ToomeyLab
Spectrometer: FLMS14357
Trigger mode: 0
Integration Time (sec): 1.000000E-2
Scans to average: 100
Electric dark correction enabled: true
Nonlinearity correction enabled: false
Boxcar width: 0
XAxis mode: Wavelengths
Number of Pixels in Spectrum: 2048
>>>>>Begin Spectral Data<<<<<
189.047	-40.19
189.435	-40.19
189.823	-40.19
190.211	9.71
190.599	-1840.41
190.987	134.61
191.375	-0.37
191.763	-170.82
192.151	146.29
192.538	91.21
192.926	194.15
193.314	53.5
193.702	22.84
194.089	43.58
194.477	145.2
194.864	-41.47
195.252	87.68
195.639	80.86
196.027	15.05
196.414	433.21
196.801	9.45
197.189	79.58
197.576	112.64
197.963	132.09
198.351	-16.94
198.738	-112.47
199.125	-20.16
199.512	-7.05
199.899	38.66
200.286	23.53
200.673	15
201.06	-7.55
201.447	55.98
201.833	-8.22
202.22	72.21
202.607	158.17
202.994	28.54
203.38	14.22
203.767	37.19
204.154	11.02
204.54	64.26
204.927	-59.21
205.313	-13.68
205.699	48.81
206.086	49.79
206.472	30.6
206.858	2.74
207.245	-42.88
207.631	23.02
208.017	-3.86
208.403	23.4
208.789	16.1
209.175	26.62
209.561	-77.38
209.947	-31.45
210.333	-48.43
210.719	-4.39
211.105	6.06
211.491	-33.46
211.876	38.11
212.262	16.17
212.648	26.33
213.034	22.95
213.419	-23.65
213.805	-23.52
214.19	-15.04
214.576	41.15
214.961	-41.18
215.346	-44.09
215.732	-5.14
216.117	-7.68
216.502	-19.19
216.888	-14.98
217.273	23.39
217.658	-0.91
218.043	8.24
218.428	-78.58
218.813	-16.72
219.198	-51.28
219.583	-2.59
219.968	32.38
220.353	-6.59
220.738	3.14
221.122	4.93
221.507	-15.91
221.892	-20.79
222.276	-20.48
222.661	1.66
223.046	15.57
223.43	11.8
223.815	6.93
224.199	-4.6
224.583	5.51
224.968	-0.12
225.352	6.9
225.736	-4.42
226.121	-0.93
226.505	1.39
226.889	13.6
227.273	3.55
227.657	8.64
228.041	3.54
228.425	2.45
228.809	5.51
229.193	4.72
229.577	2.91
229.961	5.49
230.344	5.15
230.728	5.24
231.112	4.5
231.495	4.66
231.879	4.41
232.263	5.96
232.646	5.15
233.03	4.62
233.413	4.65
233.797	4.05
234.18	4.13
234.563	3.59
234.946	3.79
235.33	6.56
235.713	5.62
236.096	6
236.479	5.69
236.862	4.65
237.245	6.13
237.628	5.03
238.011	5.56
238.394	7.44
238.777	5.65
239.16	5.82
239.543	4.84
239.925	3.84
240.308	6.06
240.691	8.33
241.073	5.41
241.456	5.17
241.838	5.81
242.221	4.82
242.603	4.38
242.986	5.31
243.368	5.01
243.75	5.93
244.133	5.33
244.515	5.89
244.897	5.52
245.279	5.65
245.661	4.93
246.043	4.96
246.425	4.25
246.807	5.83
247.189	5.4
247.571	5.65
247.953	5.95
248.335	5.74
248.717	5.75
249.098	5.33
249.48	5.41
249.862	5.28
250.243	5.69
250.625	5.16
251.006	5.8
251.388	4.76
251.769	5.41
252.151	5.35
252.532	5.87
252.913	5.72
253.295	4.86
253.676	5.18
254.057	5.45
254.438	5.63
254.819	5.01
255.2	4.74
255.581	5.31
255.962	5.04
256.343	5.34
256.724	4.01
257.105	5.95
257.486	4.84
257.867	5.89
258.247	5.88
258.628	5.95
259.009	4.57
259.389	5.91
259.77	5.1
260.15	4.36
260.531	5.03
260.911	5.63
261.292	5.1
261.672	5.48
262.052	5.38
262.432	5.48
262.813	5.18
263.193	5.61
263.573	5.41
263.953	4.64
264.333	5.74
264.713	5.25
265.093	4.4
265.473	4.69
265.853	4.38
266.233	5.28
266.612	4.74
266.992	4.16
267.372	5.63
267.752	4.7
268.131	5.06
268.511	5.42
268.89	5.89
269.27	5.05
269.649	5.04
270.029	4.42
270.408	6.69
270.787	5.58
271.167	5.45
271.546	5.2
271.925	4.53
272.304	4.79
272.683	5.33
273.062	5.3
273.441	5.58
273.82	4.68
274.199	4.95
274.578	4.97
274.957	5.36
275.336	5.79
275.715	4.63
276.093	4.58
276.472	4.82
276.851	4.95
277.229	4.65
277.608	4.85
277.986	5.08
278.365	5.04
278.743	4.43
279.122	5
279.5	4.92
279.878	5.46
280.257	4.89
280.635	4.41
281.013	5.4
281.391	5.21
281.769	5.16
282.147	4.92
282.525	5.71
282.903	4.93
283.281	5.08
283.659	5.15
284.037	5.11
284.415	5.22
284.792	5.46
285.17	4.49
285.548	4.56
285.925	5.67
286.303	5.3
286.68	5.18
287.058	4.95
287.435	5.3
287.813	5.37
288.19	5.13
288.567	4.96
288.945	5.45
289.322	5.22
289.699	5.33
290.076	5.34
290.453	5.36
290.83	5.11
291.207	5.45
291.584	5.87
291.961	5.03
292.338	5.46
292.715	5.81
293.092	5.43
293.469	4.99
293.845	5.56
294.222	5.27
294.599	5.76
294.975	5.79
295.352	5.54
295.728	5.51
296.105	5.89
296.481	5.96
296.858	5.96
297.234	5.78
297.61	5.83
297.986	6.37
298.363	6
298.739	6.17
299.115	6.08
299.491	6.05
299.867	6.32
300.243	6.26
300.619	5.5
300.995	6.13
301.371	6.5
301.746	6.02
302.122	6.53
302.498	5.96
302.874	6.46
303.249	6.82
303.625	6.47
304	6.72
304.376	6.65
304.751	6.02
305.127	7.5
305.502	5.91
305.878	6.01
306.253	6.57
306.628	7.27
307.003	6.9
307.378	6.85
307.754	6.33
308.129	6.32
308.504	6.93
308.879	6.53
309.254	7.6
309.629	7.4
310.003	6.9
310.378	7.4
310.753	7.16
311.128	7.82
311.502	7.39
311.877	7.82
312.252	7.4
312.626	7.08
313.001	7.33
313.375	7.48
313.75	7.08
314.124	7.73
314.498	7.32
314.873	7.16
315.247	7.18
315.621	7.56
315.995	7.11
316.369	7.58
316.743	7.18
317.117	7.61
317.491	7.3
317.865	7.43
318.239	7.95
318.613	7.76
318.987	8.4
319.361	7.12
319.734	8.28
320.108	7.73
320.482	7.45
320.855	8.52
321.229	7.67
321.602	7.93
321.976	8.96
322.349	8.47
322.723	8.03
323.096	8.88
323.469	6.78
323.843	7.9
324.216	8.59
324.589	7.45
324.962	8.3
325.335	8.35
325.708	8.06
326.081	8.34
326.454	8.04
326.827	7.79
327.2	8.18
327.573	8.44
327.945	8.34
328.318	8.09
328.691	8.37
329.063	8.1
329.436	7.88
329.809	8.86
330.181	8.65
330.553	8.3
330.926	8.94
331.298	8.92
331.671	8.36
332.043	8.98
332.415	8.25
332.787	8.38
333.159	8.96
333.532	9.26
333.904	8.46
334.276	8.49
334.648	8.42
335.02	8.94
335.391	8.54
335.763	8.47
336.135	8.35
336.507	9.49
336.879	9.12
337.25	8.64
337.622	8.91
337.993	8.51
338.365	9
338.736	9.29
339.108	8.71
339.479	9.14
339.851	9.02
340.222	9.27
340.593	9.26
340.964	9.08
341.336	9.98
341.707	8.62
342.078	9.32
342.449	9.15
342.82	9.29
343.191	9.14
343.562	9.32
343.933	9.42
344.303	9.07
344.674	9.06
345.045	9.35
345.416	9.79
345.786	9.05
346.157	9.73
346.527	8.8
346.898	8.96
347.268	9.78
347.639	9.56
348.009	9.1
348.38	9.34
348.75	9.3
349.12	9.69
349.49	10.21
349.861	9.93
350.231	9.18
350.601	9.87
350.971	9.64
351.341	9.47
351.711	9.52
352.081	10.1
352.45	9.76
352.82	10.02
353.19	9.34
353.56	9.71
353.929	10.18
354.299	9.75
354.669	9.94
355.038	10.27
355.408	9.39
355.777	10.02
356.147	9.68
356.516	9.88
356.885	9.95
357.254	9.84
357.624	9.99
357.993	10.1
358.362	9.55
358.731	10
359.1	9.95
359.469	10.03
359.838	10.31
360.207	9.85
360.576	9.99
360.945	9.95
361.314	10.64
361.682	10.09
362.051	9.88
362.42	10.2
362.788	10.13
363.157	10.34
363.525	10.06
363.894	10.32
364.262	10.17
364.631	10.09
364.999	10.36
365.367	10.19
365.735	10.92
366.104	10.54
366.472	10.23
366.84	10.36
367.208	10.32
367.576	10.66
367.944	10.62
368.312	10.17
368.68	10.37
369.048	10.87
369.416	10.97
369.783	10.53
370.151	10.63
370.519	11.03
370.886	10.89
371.254	10.78
371.621	11.27
371.989	11.23
372.356	10.28
372.724	10.51
373.091	10.83
373.458	10.71
373.826	10.84
374.193	10.68
374.56	11.54
374.927	10.89
375.294	11.18
375.661	11.02
376.028	10.93
376.395	11
376.762	11.38
377.129	11.08
377.496	11.05
377.863	11.05
378.229	10.85
378.596	11.29
378.963	11.18
379.329	11.1
379.696	11.23
380.062	11.12
380.429	11.05
380.795	11.07
381.161	11.24
381.528	11.46
381.894	11.6
382.26	11.19
382.626	11.34
382.993	11.35
383.359	11.93
383.725	11.46
384.091	11.37
384.457	11.85
384.823	11.18
385.188	11.65
385.554	11.7
385.92	11.84
386.286	11.69
386.651	11.76
387.017	11.84
387.383	11.55
387.748	11.44
388.114	11.82
388.479	11.98
388.845	11.88
389.21	11.86
389.575	11.98
389.94	11.9
390.306	11.78
390.671	12.1
391.036	11.67
391.401	11.84
391.766	11.95
392.131	11.91
392.496	12.04
392.861	12.11
393.226	11.98
393.591	12.09
393.956	11.91
394.32	12.25
394.685	11.97
395.05	12.12
395.414	12.19
395.779	11.74
396.143	12.2
396.508	12.22
396.872	12.16
397.236	12.19
397.601	12.23
397.965	12.45
398.329	12.52
398.694	12.77
399.058	12.27
399.422	12.42
399.786	12.69
400.15	12.46
400.514	12.49
400.878	12.78
401.242	12.79
401.605	12.78
401.969	12.52
402.333	12.7
402.697	12.61
403.06	12.63
403.424	12.69
403.787	12.76
404.151	12.81
404.514	12.9
404.878	12.97
405.241	13.09
405.604	12.83
405.968	12.89
406.331	12.82
406.694	13.07
407.057	12.8
407.42	12.96
407.783	12.51
408.146	12.99
408.509	13.17
408.872	13.14
409.235	13.11
409.598	13.24
409.961	13.03
410.323	13.23
410.686	13.23
411.049	13.09
411.411	12.89
411.774	13.34
412.136	13.39
412.499	13.02
412.861	13.36
413.223	13.13
413.586	13.6
413.948	13.5
414.31	13.41
414.672	13.4
415.035	13.55
415.397	13.87
415.759	13.44
416.121	13.64
416.483	13.62
416.845	13.48
417.206	13.19
417.568	13.58
417.93	13.21
418.292	13.57
418.653	13.78
419.015	13.79
419.377	13.48
419.738	13.47
420.1	13.7
420.461	13.63
420.822	13.45
421.184	13.47
421.545	13.47
421.906	13.44
422.267	13.5
422.629	13.57
422.99	13.51
423.351	13.53
423.712	13.71
424.073	13.73
424.434	13.76
424.795	13.72
425.155	13.78
425.516	13.73
425.877	13.63
426.238	13.76
426.598	13.89
426.959	13.84
427.32	13.84
427.68	13.98
428.041	14.1
428.401	14.32
428.761	14.06
429.122	14.29
429.482	14.01
429.842	14.44
430.202	14.15
430.563	14.59
430.923	14.35
431.283	14.5
431.643	14.45
432.003	14.54
432.363	14.62
432.722	14.47
433.082	14.44
433.442	14.35
433.802	14.32
434.161	14.34
434.521	14.74
434.881	14.63
435.24	14.44
435.6	14.53
435.959	14.51
436.319	14.51
436.678	14.72
437.037	14.73
437.396	14.84
437.756	14.81
438.115	14.78
438.474	14.98
438.833	14.9
439.192	14.85
439.551	14.89
439.91	14.86
440.269	14.96
440.628	14.92
440.987	14.8
441.345	14.84
441.704	14.97
442.063	14.92
442.421	15.01
442.78	14.73
443.138	15.06
443.497	15.03
443.855	15.32
444.214	15.29
444.572	15.27
444.93	15.37
445.288	15.43
445.647	15.51
446.005	15.11
446.363	15.26
446.721	15.27
447.079	15.25
447.437	15.29
447.795	15.25
448.153	15.21
448.51	15.23
448.868	15.51
449.226	15.38
449.584	15.41
449.941	15.55
450.299	15.61
450.656	15.75
451.014	15.7
451.371	15.61
451.729	15.68
452.086	15.93
452.443	15.86
452.801	15.92
453.158	15.92
453.515	15.9
453.872	16
454.229	15.9
454.586	15.98
454.943	16.03
455.3	16.12
455.657	16.13
456.014	16.15
456.371	16.11
456.727	16.01
457.084	16.38
457.441	16.49
457.797	16.23
458.154	16.55
458.51	16.54
458.867	16.47
459.223	16.46
459.58	16.52
459.936	16.39
460.292	16.27
460.648	16.16
461.005	16.11
461.361	16.38
461.717	16.26
462.073	16.16
462.429	16.32
462.785	16.53
463.141	16.41
463.496	16.75
463.852	16.78
464.208	16.66
464.564	16.73
464.919	16.86
465.275	16.86
465.631	17.12
465.986	17.06
466.342	16.92
466.697	16.6
467.052	17.05
467.408	17.1
467.763	16.82
468.118	16.85
468.473	17.14
468.829	17.3
469.184	17.07
469.539	17.12
469.894	17.14
470.249	17.27
470.603	17.41
470.958	17.6
471.313	17.4
471.668	17.56
472.023	17.4
472.377	17.29
472.732	17.44
473.086	17.53
473.441	17.25
473.795	17.77
474.15	17.55
474.504	17.3
474.859	17.49
475.213	17.42
475.567	17.45
475.921	17.57
476.275	17.85
476.63	17.97
476.984	17.91
477.338	17.79
477.692	17.62
478.045	17.75
478.399	17.75
478.753	17.86
479.107	17.86
479.461	17.89
479.814	17.81
480.168	17.9
480.521	17.84
480.875	18.1
481.228	18.07
481.582	18.27
481.935	18.15
482.289	18.12
482.642	18.19
482.995	18.01
483.348	17.96
483.701	18.1
484.055	18.14
484.408	18.18
484.761	17.75
485.114	17.55
485.466	17.19
485.819	17.13
486.172	17.36
486.525	17.76
486.878	17.93
487.23	18.06
487.583	18.3
487.936	18.25
488.288	18.24
488.641	17.99
488.993	17.87
489.345	17.77
489.698	17.86
490.05	18.01
490.402	18.19
490.754	18.45
491.107	18.65
491.459	18.7
491.811	18.75
492.163	18.84
492.515	18.63
492.866	18.57
493.218	18.28
493.57	18.12
493.922	18.39
494.274	18.83
494.625	18.99
494.977	19.12
495.328	19.43
495.68	19.39
496.031	19.49
496.383	19.5
496.734	19.49
497.086	19.67
497.437	19.51
497.788	19.53
498.139	19.39
498.49	19.44
498.842	19.52
499.193	19.49
499.544	19.72
499.894	19.76
500.245	19.71
500.596	19.72
500.947	20.02
501.298	20
501.648	20.08
501.999	20.16
502.35	20.03
502.7	20.18
503.051	20.17
503.401	20.15
503.752	20.42
504.102	20.12
504.452	20.43
504.803	20.3
505.153	20.44
505.503	20.37
505.853	20.52
506.203	20.29
506.553	20.48
506.903	20.53
507.253	20.58
507.603	20.57
507.953	20.72
508.303	20.83
508.652	20.55
509.002	21.06
509.352	20.55
509.701	20.64
510.051	20.64
510.4	20.67
510.75	20.72
511.099	20.83
511.449	20.82
511.798	20.96
512.147	20.93
512.496	21.02
512.846	21.02
513.195	21.17
513.544	21.02
513.893	21.12
514.242	21.09
514.591	21.32
514.939	21.27
515.288	21.23
515.637	21.5
515.986	21.51
516.334	21.51
516.683	21.58
517.032	21.48
517.38	21.82
517.729	21.74
518.077	21.67
518.426	21.69
518.774	21.84
519.122	21.66
519.47	21.81
519.819	21.58
520.167	21.56
520.515	21.49
520.863	21.73
521.211	21.74
521.559	21.94
521.907	22.05
522.255	22.05
522.602	22.21
522.95	22.41
523.298	22.46
523.645	22.46
523.993	22.48
524.341	22.5
524.688	22.79
525.036	22.53
525.383	22.49
525.73	22.74
526.078	22.55
526.425	22.53
526.772	22.61
527.119	22.46
527.466	22.22
527.814	22.4
528.161	22.5
528.508	22.65
528.854	22.77
529.201	22.67
529.548	22.61
529.895	22.24
530.242	21.92
530.588	21.81
530.935	22.09
531.282	22.5
531.628	22.73
531.975	22.84
532.321	23.04
532.667	23.18
533.014	23.28
533.36	23.29
533.706	23.3
534.052	23.33
534.399	23.25
534.745	22.89
535.091	22.9
535.437	23.03
535.783	23.22
536.129	23.49
536.474	23.72
536.82	23.76
537.166	23.9
537.512	24.04
537.857	23.89
538.203	23.84
538.549	23.62
538.894	23.8
539.239	24.16
539.585	24.39
539.93	24.32
540.276	24.54
540.621	24.7
540.966	24.48
541.311	24.54
541.656	24.69
542.001	24.43
542.346	24.37
542.691	24.21
543.036	23.83
543.381	23.72
543.726	24.11
544.071	24.38
544.415	24.59
544.76	24.56
545.105	24.64
545.449	24.83
545.794	25
546.138	25.11
546.483	25.21
546.827	25.23
547.171	25.21
547.516	25.47
547.86	25.31
548.204	25.4
548.548	25.25
548.892	25.36
549.236	25.5
549.58	25.7
549.924	25.93
550.268	26.07
550.612	26.1
550.956	26.24
551.3	26.07
551.643	26.29
551.987	26.54
552.33	26.32
552.674	26.28
553.017	26.45
553.361	26.25
553.704	26.47
554.048	26.56
554.391	26.42
554.734	26.53
555.077	26.86
555.42	26.63
555.764	26.65
556.107	26.94
556.45	27.02
556.793	27.11
557.135	27.09
557.478	27.24
557.821	27.22
558.164	27.36
558.507	27.12
558.849	27.33
559.192	27.43
559.534	27.35
559.877	27.84
560.219	27.65
560.562	27.77
560.904	27.68
561.246	27.86
561.589	27.9
561.931	27.99
562.273	27.68
562.615	28.14
562.957	27.85
563.299	27.76
563.641	27.92
563.983	28.05
564.325	28.23
564.667	28.05
565.008	28.4
565.35	28.43
565.692	28.1
566.033	28.42
566.375	28.72
566.716	28.46
567.058	28.47
567.399	28.43
567.741	28.27
568.082	28.45
568.423	28.78
568.764	28.45
569.105	28.97
569.447	28.94
569.788	29.15
570.129	29.15
570.47	29.18
570.811	29.29
571.151	29.33
571.492	29.42
571.833	29.39
572.174	29.34
572.514	29.47
572.855	29.54
573.195	29.37
573.536	29.59
573.876	29.56
574.217	29.41
574.557	29.71
574.898	29.82
575.238	29.63
575.578	29.89
575.918	30.07
576.258	30.07
576.598	29.89
576.938	29.97
577.278	30.05
577.618	30.11
577.958	30.31
578.298	30.34
578.638	30.68
578.977	30.46
579.317	30.63
579.657	30.71
579.996	30.77
580.336	31.01
580.675	30.59
581.014	31.29
581.354	31.12
581.693	31.19
582.032	31.05
582.372	31.07
582.711	31.22
583.05	31.2
583.389	31.38
583.728	31.05
584.067	31.36
584.406	31.66
584.745	31.67
585.083	31.66
585.422	31.97
585.761	31.64
586.1	31.8
586.438	32.16
586.777	32.21
587.115	32.29
587.454	32.27
587.792	32.14
588.13	32.02
588.469	32.05
588.807	32.38
589.145	32.37
589.483	32.42
589.821	32.33
590.159	32.43
590.497	32.8
590.835	32.87
591.173	32.64
591.511	32.57
591.849	32.73
592.187	32.88
592.524	32.72
592.862	33.16
593.2	33.12
593.537	33.19
593.875	33.09
594.212	33.06
594.55	33.15
594.887	33.36
595.224	33.37
595.561	33.02
595.899	33.1
596.236	33.56
596.573	33.59
596.91	33.55
597.247	33.47
597.584	33.63
597.921	33.57
598.258	33.62
598.594	33.67
598.931	33.7
599.268	33.68
599.604	33.82
599.941	34.07
600.277	34.12
600.614	34.09
600.95	34.07
601.287	34.32
601.623	34.47
601.959	34.29
602.296	34.31
602.632	34.66
602.968	34.48
603.304	34.46
603.64	34.65
603.976	34.66
604.312	34.54
604.648	34.72
604.984	34.89
605.319	34.73
605.655	34.35
605.991	35.02
606.326	35.04
606.662	34.98
606.998	35.03
607.333	35.31
607.668	35.45
608.004	35.45
608.339	35.76
608.674	35.86
609.01	35.36
609.345	35.88
609.68	35.74
610.015	35.69
610.35	36
610.685	35.85
611.02	36.06
611.355	36.26
611.689	35.58
612.024	35.97
612.359	36.01
612.694	36.35
613.028	36.25
613.363	36.34
613.697	36.86
614.032	36.5
614.366	36.27
614.7	36.64
615.035	36.68
615.369	36.56
615.703	36.77
616.037	37.16
616.371	36.6
616.705	36.63
617.039	36.92
617.373	37.24
617.707	37.06
618.041	37.16
618.375	36.78
618.709	37.38
619.042	37.25
619.376	37.42
619.71	37.54
620.043	37.26
620.377	37.3
620.71	37.78
621.043	37.6
621.377	37.82
621.71	37.38
622.043	37.32
622.376	37.7
622.709	37.95
623.043	37.98
623.376	38.01
623.709	37.68
624.041	37.84
624.374	37.88
624.707	37.66
625.04	38.66
625.373	38.44
625.705	38.22
626.038	38.91
626.37	38.65
626.703	38.68
627.035	38.41
627.368	38.86
627.7	38.39
628.032	38.74
628.365	39.34
628.697	38.28
629.029	38.93
629.361	39.28
629.693	39.31
630.025	39.15
630.357	39.2
630.689	39.36
631.021	39.27
631.353	39.61
631.684	39.41
632.016	39.55
632.348	39.48
632.679	39.65
633.011	40
633.342	40.03
633.674	39.74
634.005	40.16
634.336	40.01
634.668	40.53
634.999	39.85
635.33	40.32
635.661	40.72
635.992	39.73
636.323	40.41
636.654	40.39
636.985	40.03
637.316	40.32
637.647	40.65
637.977	40.56
638.308	40.51
638.639	40.54
638.969	40.46
639.3	40.43
639.63	40.57
639.961	40.93
640.291	41.01
640.622	40.83
640.952	41.3
641.282	41.4
641.612	41.3
641.943	41.24
642.273	41.01
642.603	41.17
642.933	41.1
643.263	41.4
643.592	41.82
643.922	41.53
644.252	41.77
644.582	41.59
644.911	41.52
645.241	41.6
645.571	42.07
645.9	41.55
646.23	41.51
646.559	42.31
646.888	42.4
647.218	41.76
647.547	41.94
647.876	41.99
648.205	41.87
648.534	42.27
648.863	41.96
649.192	42.7
649.521	42.56
649.85	41.71
650.179	42.67
650.508	42.29
650.837	42.52
651.165	41.97
651.494	43.24
651.822	42.62
652.151	42.76
652.479	42.8
652.808	42.58
653.136	42.66
653.465	42.97
653.793	43.09
654.121	43.03
654.449	43.09
654.777	43.42
655.105	43.23
655.433	43.02
655.761	43.22
656.089	43.12
656.417	43.49
656.745	43.72
657.073	43.63
657.4	44.05
657.728	43.17
658.056	43.89
658.383	43.67
658.711	43.99
659.038	43.7
659.365	43.7
659.693	43.73
660.02	43.81
660.347	43.87
660.674	44.21
661.001	43.94
661.329	44.66
661.656	44.47
661.982	44.41
662.309	44.3
662.636	44.01
662.963	44.49
663.29	45.19
663.616	44.98
663.943	44.42
664.27	44.42
664.596	45.04
664.923	44.57
665.249	44.96
665.576	45.19
665.902	45.34
666.228	45.19
666.554	44.49
666.881	44.87
667.207	45.63
667.533	45.17
667.859	44.9
668.185	45.9
668.511	44.58
668.837	44.63
669.162	45.03
669.488	44.89
669.814	45.55
670.139	45.77
670.465	46.67
670.791	45.6
671.116	46.26
