Data from 0391_chest_Reflection__0__185.txt Node

Date: Fri Dec 15 18:12:13 CST 2023
User: ToomeyLab
Spectrometer: FLMS14357
Trigger mode: 0
Integration Time (sec): 1.000000E-2
Scans to average: 100
Electric dark correction enabled: true
Nonlinearity correction enabled: false
Boxcar width: 0
XAxis mode: Wavelengths
Number of Pixels in Spectrum: 2048
>>>>>Begin Spectral Data<<<<<
189.047	-254.8
189.435	-254.8
189.823	-254.8
190.211	-175.62
190.599	2439.04
190.987	125.62
191.375	-75.13
191.763	8.78
192.151	293.19
192.538	53.34
192.926	25.66
193.314	115.98
193.702	69.77
194.089	40.37
194.477	142.69
194.864	101.42
195.252	69.57
195.639	71.82
196.027	-45.28
196.414	515.06
196.801	464.04
197.189	51.49
197.576	61.83
197.963	92.52
198.351	-47.24
198.738	-35.06
199.125	35.04
199.512	4.9
199.899	50.72
200.286	47.96
200.673	-16.81
201.06	45.29
201.447	19.95
201.833	10.8
202.22	29.1
202.607	92.64
202.994	35.15
203.38	1.4
203.767	28.24
204.154	25.75
204.54	52.87
204.927	-52.57
205.313	-69.14
205.699	18.25
206.086	43.88
206.472	6.08
206.858	57.29
207.245	0.25
207.631	37.51
208.017	31.07
208.403	-22.07
208.789	8.45
209.175	50.52
209.561	-23.87
209.947	32.66
210.333	-38.58
210.719	-23.03
211.105	50.8
211.491	0.41
211.876	3.7
212.262	-2.03
212.648	-0.69
213.034	-11.68
213.419	-3.92
213.805	-13.16
214.19	-31.09
214.576	-29.04
214.961	-42.35
215.346	-44.03
215.732	22.15
216.117	40.01
216.502	-28.41
216.888	11.41
217.273	5.51
217.658	17.36
218.043	17.08
218.428	-13.28
218.813	-35.44
219.198	0.36
219.583	17.42
219.968	7.84
220.353	-10.7
220.738	9.25
221.122	10.23
221.507	4.63
221.892	-8.35
222.276	4.96
222.661	5.12
223.046	8.61
223.43	5.83
223.815	9.91
224.199	-12.9
224.583	-2.17
224.968	5.24
225.352	16.87
225.736	10.38
226.121	4.04
226.505	7.32
226.889	10.65
227.273	0.71
227.657	9.46
228.041	13.42
228.425	7.3
228.809	9.61
229.193	3.99
229.577	4.51
229.961	4.88
230.344	5.42
230.728	4.68
231.112	4.75
231.495	4.05
231.879	4.82
232.263	4.37
232.646	5.56
233.03	5.79
233.413	4.89
233.797	5.39
234.18	3.51
234.563	4.53
234.946	3.23
235.33	6.7
235.713	5.7
236.096	4.91
236.479	5.04
236.862	3.76
237.245	5.69
237.628	4.64
238.011	6.68
238.394	5.65
238.777	3.69
239.16	4.07
239.543	3.57
239.925	6.14
240.308	5.19
240.691	6.23
241.073	6.16
241.456	5.87
241.838	4.07
242.221	4.33
242.603	5.3
242.986	6.1
243.368	4.81
243.75	5.61
244.133	4.78
244.515	5.22
244.897	5.08
245.279	5.36
245.661	5.22
246.043	4.8
246.425	3.89
246.807	6.9
247.189	6.08
247.571	6.49
247.953	5.84
248.335	5.26
248.717	5.2
249.098	5.1
249.48	5.41
249.862	5.02
250.243	4.98
250.625	5.53
251.006	5.25
251.388	4.01
251.769	5.1
252.151	5.73
252.532	5.77
252.913	4.88
253.295	4.29
253.676	4.79
254.057	5.71
254.438	5.41
254.819	4.44
255.2	5.44
255.581	4.43
255.962	5.22
256.343	5.41
256.724	4.93
257.105	4.66
257.486	5.93
257.867	4.26
258.247	5.42
258.628	4.19
259.009	4.96
259.389	5.03
259.77	4.66
260.15	5.42
260.531	3.86
260.911	5.21
261.292	4.82
261.672	5.17
262.052	5.16
262.432	5.2
262.813	4.62
263.193	4.9
263.573	4.35
263.953	4.66
264.333	5.59
264.713	4.77
265.093	4.46
265.473	4.87
265.853	3.56
266.233	4.82
266.612	3.11
266.992	3.78
267.372	5.42
267.752	4.44
268.131	4.5
268.511	5.22
268.89	5.22
269.27	4.84
269.649	4.68
270.029	4.42
270.408	5.47
270.787	5.3
271.167	4.88
271.546	5.54
271.925	3.86
272.304	4.8
272.683	5.31
273.062	4.2
273.441	4.87
273.82	4.33
274.199	4.57
274.578	4.78
274.957	4.85
275.336	4.57
275.715	4.03
276.093	5
276.472	4.5
276.851	4.43
277.229	4.35
277.608	3.79
277.986	4.68
278.365	4.4
278.743	4.47
279.122	5.01
279.5	4.27
279.878	4.82
280.257	4.51
280.635	3.99
281.013	3.69
281.391	4.46
281.769	4.43
282.147	4.55
282.525	4.94
282.903	4.44
283.281	4.7
283.659	5.32
284.037	4.65
284.415	5.08
284.792	4.99
285.17	3.92
285.548	4.35
285.925	4.5
286.303	4.59
286.68	4.43
287.058	4.9
287.435	4.85
287.813	4.64
288.19	4.24
288.567	4.59
288.945	4.72
289.322	4.39
289.699	4.63
290.076	4.04
290.453	4.5
290.83	4.28
291.207	4.91
291.584	5.14
291.961	4.91
292.338	4.9
292.715	4.93
293.092	4.47
293.469	4.67
293.845	5.03
294.222	4.43
294.599	4.48
294.975	4.63
295.352	5.02
295.728	4.65
296.105	4.95
296.481	5.42
296.858	4.86
297.234	4.59
297.61	5.54
297.986	4.87
298.363	5.33
298.739	5.11
299.115	4.92
299.491	4.73
299.867	5.08
300.243	5.07
300.619	5.05
300.995	4.72
301.371	5.66
301.746	4.85
302.122	5.7
302.498	5.55
302.874	5.32
303.249	5.42
303.625	4.96
304	5.48
304.376	5.58
304.751	4.47
305.127	5.88
305.502	4.77
305.878	4.57
306.253	5.32
306.628	5.81
307.003	4.92
307.378	5.83
307.754	5.13
308.129	4.77
308.504	5.37
308.879	4.61
309.254	6.07
309.629	5.25
310.003	5.42
310.378	5.95
310.753	5.46
311.128	5.46
311.502	5.03
311.877	5.39
312.252	4.99
312.626	5.38
313.001	5.21
313.375	5.77
313.75	4.72
314.124	5.08
314.498	5.6
314.873	5.59
315.247	4.99
315.621	5.03
315.995	4.78
316.369	5.44
316.743	5.22
317.117	5.66
317.491	4.83
317.865	5.3
318.239	5.16
318.613	5.09
318.987	5.91
319.361	4.46
319.734	6
320.108	5.77
320.482	5.26
320.855	5.55
321.229	5.43
321.602	4.34
321.976	5.43
322.349	5.86
322.723	5.81
323.096	5.68
323.469	5.18
323.843	5.56
324.216	5.91
324.589	5.62
324.962	5.81
325.335	4.64
325.708	5.16
326.081	5.26
326.454	5.23
326.827	5.41
327.2	5.53
327.573	5.73
327.945	5.76
328.318	5.17
328.691	4.91
329.063	5.2
329.436	5.46
329.809	5.7
330.181	5.47
330.553	5.56
330.926	5.21
331.298	5.39
331.671	5.43
332.043	5.99
332.415	5.47
332.787	5.47
333.159	6.21
333.532	6.02
333.904	5.48
334.276	5.64
334.648	5.6
335.02	5.56
335.391	5.46
335.763	4.74
336.135	5.89
336.507	5.55
336.879	6.3
337.25	5.4
337.622	5.45
337.993	5.61
338.365	5.78
338.736	5.94
339.108	5.52
339.479	5.15
339.851	5.75
340.222	5.43
340.593	5.86
340.964	5.14
341.336	5.88
341.707	5.27
342.078	6.01
342.449	5.93
342.82	5.34
343.191	5.54
343.562	5.6
343.933	5.58
344.303	5.71
344.674	5.95
345.045	5.83
345.416	6.21
345.786	6.01
346.157	6.02
346.527	5.21
346.898	4.97
347.268	5.87
347.639	5.65
348.009	5.78
348.38	5.59
348.75	5.8
349.12	6.13
349.49	6.11
349.861	5.69
350.231	5.57
350.601	5.57
350.971	5.85
351.341	5.83
351.711	5.49
352.081	5.62
352.45	5.3
352.82	6.33
353.19	5.61
353.56	5.43
353.929	5.88
354.299	5.5
354.669	5.3
355.038	6.14
355.408	5.29
355.777	5.69
356.147	5.39
356.516	5.64
356.885	5.91
357.254	5.54
357.624	5.84
357.993	5.63
358.362	5.65
358.731	5.44
359.1	5.81
359.469	5.39
359.838	5.72
360.207	5.44
360.576	5.3
360.945	5.8
361.314	6.23
361.682	5.61
362.051	5.73
362.42	5.82
362.788	5.64
363.157	5.83
363.525	6.01
363.894	5.99
364.262	5.7
364.631	5.62
364.999	6.07
365.367	5.53
365.735	6.49
366.104	6.01
366.472	5.79
366.84	5.83
367.208	5.67
367.576	6.24
367.944	6.07
368.312	5.92
368.68	5.49
369.048	5.93
369.416	5.69
369.783	5.78
370.151	5.89
370.519	6.33
370.886	6.31
371.254	5.79
371.621	6.07
371.989	6.08
372.356	5.33
372.724	6.28
373.091	5.52
373.458	5.75
373.826	5.75
374.193	5.81
374.56	6.04
374.927	6.09
375.294	5.75
375.661	5.9
376.028	5.87
376.395	5.9
376.762	6.1
377.129	6.21
377.496	5.59
377.863	6.13
378.229	5.36
378.596	6.08
378.963	5.75
379.329	5.91
379.696	6.11
380.062	5.93
380.429	5.79
380.795	6.16
381.161	6.2
381.528	6.45
381.894	5.77
382.26	6.05
382.626	6.29
382.993	5.5
383.359	6.19
383.725	5.8
384.091	5.88
384.457	6.05
384.823	5.94
385.188	5.83
385.554	6.1
385.92	6.22
386.286	5.99
386.651	6.12
387.017	6.14
387.383	5.82
387.748	5.88
388.114	6.27
388.479	5.9
388.845	6.42
389.21	6.22
389.575	6.3
389.94	5.91
390.306	6.08
390.671	6.13
391.036	6.01
391.401	6.07
391.766	6.15
392.131	6
392.496	5.89
392.861	6.02
393.226	6.25
393.591	6.31
393.956	5.84
394.32	5.98
394.685	6.17
395.05	6.19
395.414	6.14
395.779	5.89
396.143	6.11
396.508	5.92
396.872	6.25
397.236	6.17
397.601	6.08
397.965	6.1
398.329	6.24
398.694	6.19
399.058	6.14
399.422	5.87
399.786	6.26
400.15	6.2
400.514	6.12
400.878	6.44
401.242	6.41
401.605	6.36
401.969	6.62
402.333	6.27
402.697	6.19
403.06	6.13
403.424	6.44
403.787	6.18
404.151	6.13
404.514	6.21
404.878	6.01
405.241	6.16
405.604	6.14
405.968	6.44
406.331	6.23
406.694	6.3
407.057	6.14
407.42	6.28
407.783	6.05
408.146	6.36
408.509	6.04
408.872	6.17
409.235	6.25
409.598	6.07
409.961	6.06
410.323	6.32
410.686	6.23
411.049	6.04
411.411	6.09
411.774	6.29
412.136	6.27
412.499	6.21
412.861	6.18
413.223	6.12
413.586	6.2
413.948	6.16
414.31	6.43
414.672	6.2
415.035	6.31
415.397	6.44
415.759	5.99
416.121	6.47
416.483	5.93
416.845	6.31
417.206	6.07
417.568	6.31
417.93	6
418.292	6.27
418.653	6.36
419.015	6.5
419.377	6.26
419.738	6.33
420.1	6.29
420.461	6.44
420.822	6.29
421.184	6.32
421.545	6.4
421.906	6.06
422.267	6.2
422.629	6.19
422.99	6.23
423.351	6.09
423.712	6.12
424.073	6.2
424.434	6.14
424.795	6.23
425.155	6.21
425.516	6.29
425.877	6.27
426.238	6.2
426.598	6.24
426.959	6.18
427.32	6.23
427.68	6.37
428.041	6.22
428.401	6.31
428.761	6.41
429.122	6.38
429.482	6.35
429.842	6.4
430.202	6.38
430.563	6.53
430.923	6.38
431.283	6.45
431.643	6.37
432.003	6.39
432.363	6.54
432.722	6.23
433.082	6.5
433.442	6.52
433.802	6.25
434.161	6.65
434.521	6.67
434.881	6.51
435.24	6.44
435.6	6.52
435.959	6.5
436.319	6.48
436.678	6.57
437.037	6.43
437.396	6.42
437.756	6.67
438.115	6.63
438.474	6.59
438.833	6.35
439.192	6.51
439.551	6.69
439.91	6.53
440.269	6.66
440.628	6.66
440.987	6.47
441.345	6.54
441.704	6.5
442.063	6.53
442.421	6.58
442.78	6.47
443.138	6.48
443.497	6.49
443.855	6.61
444.214	6.7
444.572	6.79
444.93	6.58
445.288	6.78
445.647	6.78
446.005	6.63
446.363	6.67
446.721	6.71
447.079	6.37
447.437	6.63
447.795	6.74
448.153	6.45
448.51	6.42
448.868	6.64
449.226	6.49
449.584	6.6
449.941	6.59
450.299	6.64
450.656	6.57
451.014	6.72
451.371	6.64
451.729	6.48
452.086	6.91
452.443	6.8
452.801	6.76
453.158	6.7
453.515	6.71
453.872	6.96
454.229	6.69
454.586	6.77
454.943	6.88
455.3	6.87
455.657	6.87
456.014	6.81
456.371	6.74
456.727	6.67
457.084	7.01
457.441	6.78
457.797	6.67
458.154	6.9
458.51	6.79
458.867	6.92
459.223	6.98
459.58	7.01
459.936	6.74
460.292	6.84
460.648	6.86
461.005	6.8
461.361	7.01
461.717	6.86
462.073	6.68
462.429	6.77
462.785	6.72
463.141	6.66
463.496	6.89
463.852	6.79
464.208	6.89
464.564	7.12
464.919	7.02
465.275	6.87
465.631	7.16
465.986	6.95
466.342	7.03
466.697	6.79
467.052	7.05
467.408	7.08
467.763	6.86
468.118	7.02
468.473	6.84
468.829	7.08
469.184	6.99
469.539	7.06
469.894	6.79
470.249	7.32
470.603	7.29
470.958	7.17
471.313	6.98
471.668	7.05
472.023	7.08
472.377	6.99
472.732	7.09
473.086	6.99
473.441	6.91
473.795	7.2
474.15	7.19
474.504	6.93
474.859	7.16
475.213	6.93
475.567	7.02
475.921	7
476.275	7.15
476.63	7.04
476.984	7.44
477.338	7.23
477.692	7.07
478.045	7.27
478.399	7.16
478.753	7.28
479.107	7.11
479.461	7.1
479.814	7.18
480.168	7.23
480.521	7.03
480.875	7.25
481.228	7.18
481.582	7.18
481.935	7.3
482.289	7.11
482.642	7.14
482.995	7.1
483.348	7.04
483.701	7.13
484.055	7.14
484.408	7.25
484.761	7.07
485.114	7.02
485.466	6.91
485.819	6.92
486.172	6.81
486.525	6.83
486.878	6.88
487.23	6.93
487.583	7.02
487.936	7.03
488.288	7.17
488.641	7.18
488.993	7.06
489.345	7.02
489.698	6.99
490.05	6.98
490.402	7.05
490.754	6.97
491.107	7.14
491.459	7.18
491.811	7.18
492.163	7.24
492.515	7.27
492.866	7.21
493.218	7.24
493.57	7.24
493.922	7
494.274	7.17
494.625	7.2
494.977	7.22
495.328	7.31
495.68	7.42
496.031	7.44
496.383	7.31
496.734	7.54
497.086	7.54
497.437	7.45
497.788	7.46
498.139	7.34
498.49	7.56
498.842	7.32
499.193	7.44
499.544	7.58
499.894	7.52
500.245	7.49
500.596	7.4
500.947	7.65
501.298	7.48
501.648	7.69
501.999	7.83
502.35	7.55
502.7	7.64
503.051	7.4
503.401	7.48
503.752	7.82
504.102	7.66
504.452	7.69
504.803	7.56
505.153	7.63
505.503	7.65
505.853	7.57
506.203	7.66
506.553	7.79
506.903	7.48
507.253	7.72
507.603	7.57
507.953	7.76
508.303	7.94
508.652	7.66
509.002	7.93
509.352	7.77
509.701	7.73
510.051	7.75
510.4	7.71
510.75	7.82
511.099	7.81
511.449	7.77
511.798	7.84
512.147	7.88
512.496	7.74
512.846	7.83
513.195	7.76
513.544	7.87
513.893	7.87
514.242	7.7
514.591	8.06
514.939	7.8
515.288	7.85
515.637	7.91
515.986	7.85
516.334	7.93
516.683	7.99
517.032	8
517.38	8.03
517.729	7.97
518.077	7.82
518.426	8.05
518.774	8.26
519.122	8.1
519.47	8.03
519.819	7.91
520.167	7.94
520.515	8.11
520.863	8.05
521.211	8.04
521.559	7.97
521.907	8.05
522.255	8.05
522.602	8.11
522.95	8.15
523.298	8.16
523.645	8.28
523.993	8.2
524.341	8.15
524.688	8.28
525.036	8.27
525.383	8.4
525.73	8.43
526.078	8.31
526.425	8.32
526.772	8.37
527.119	8.38
527.466	8.25
527.814	8.3
528.161	8.14
528.508	8.31
528.854	8.29
529.201	8.22
529.548	8.26
529.895	8.3
530.242	8.13
530.588	8.13
530.935	8.17
531.282	8.13
531.628	8.13
531.975	8.16
532.321	8.33
532.667	8.32
533.014	8.57
533.36	8.55
533.706	8.45
534.052	8.51
534.399	8.39
534.745	8.52
535.091	8.53
535.437	8.53
535.783	8.47
536.129	8.49
536.474	8.53
536.82	8.62
537.166	8.58
537.512	8.77
537.857	8.74
538.203	8.78
538.549	8.8
538.894	8.83
539.239	8.83
539.585	8.83
539.93	8.74
540.276	8.9
540.621	8.94
540.966	9
541.311	8.9
541.656	8.87
542.001	8.87
542.346	9.06
542.691	9
543.036	8.89
543.381	8.79
543.726	8.8
544.071	8.97
544.415	8.89
544.76	8.96
545.105	9.03
545.449	9.03
545.794	9.15
546.138	9.13
546.483	9.22
546.827	9.24
547.171	9.22
547.516	9.44
547.86	9.26
548.204	9.26
548.548	9.23
548.892	9.4
549.236	9.23
549.58	9.44
549.924	9.52
550.268	9.47
550.612	9.48
550.956	9.71
551.3	9.54
551.643	9.71
551.987	9.59
552.33	9.68
552.674	9.76
553.017	9.86
553.361	9.75
553.704	10
554.048	9.73
554.391	9.78
554.734	10.01
555.077	9.88
555.42	9.68
555.764	9.92
556.107	9.86
556.45	9.7
556.793	9.9
557.135	9.94
557.478	10.21
557.821	10.05
558.164	10.19
558.507	10.25
558.849	9.98
559.192	10.26
559.534	10.16
559.877	10.3
560.219	10.31
560.562	10.34
560.904	10.21
561.246	10.45
561.589	10.62
561.931	10.42
562.273	10.37
562.615	10.35
562.957	10.44
563.299	10.39
563.641	10.41
563.983	10.41
564.325	10.51
564.667	10.51
565.008	10.67
565.35	10.81
565.692	10.65
566.033	10.73
566.375	10.78
566.716	10.96
567.058	10.72
567.399	10.66
567.741	10.72
568.082	10.67
568.423	10.75
568.764	10.69
569.105	11.14
569.447	11.05
569.788	10.87
570.129	11.12
570.47	11.16
570.811	11.13
571.151	11.1
571.492	11.27
571.833	11.14
572.174	11.17
572.514	11.31
572.855	11.26
573.195	11.18
573.536	11.32
573.876	11.18
574.217	11.25
574.557	11.45
574.898	11.49
575.238	11.44
575.578	11.46
575.918	11.39
576.258	11.57
576.598	11.68
576.938	11.64
577.278	11.72
577.618	11.65
577.958	11.47
578.298	11.83
578.638	11.53
578.977	11.8
579.317	11.89
579.657	11.9
579.996	11.95
580.336	11.97
580.675	12.03
581.014	12.16
581.354	12.26
581.693	12.24
582.032	12.06
582.372	12.06
582.711	12.28
583.05	11.81
583.389	12.25
583.728	12.16
584.067	12.38
584.406	12.43
584.745	12.54
585.083	12.65
585.422	12.6
585.761	12.76
586.1	12.75
586.438	12.4
586.777	12.77
587.115	12.98
587.454	12.61
587.792	12.58
588.13	12.85
588.469	12.81
588.807	12.91
589.145	12.52
589.483	13.06
589.821	12.93
590.159	12.97
590.497	13.12
590.835	13.13
591.173	13.24
591.511	13.31
591.849	13.06
592.187	13.03
592.524	13.24
592.862	13.08
593.2	13.33
593.537	13.21
593.875	13.33
594.212	13.3
594.55	13.42
594.887	13.5
595.224	13.38
595.561	13.44
595.899	13.56
596.236	13.6
596.573	13.7
596.91	13.43
597.247	13.4
597.584	13.74
597.921	13.87
598.258	13.72
598.594	13.71
598.931	13.83
599.268	14.09
599.604	14.01
599.941	14.11
600.277	13.9
600.614	13.82
600.95	13.98
601.287	14.09
601.623	14.14
601.959	13.98
602.296	13.98
602.632	14.4
602.968	14.87
603.304	14.39
603.64	14.23
603.976	14.35
604.312	14.45
604.648	14.48
604.984	14.69
605.319	14.58
605.655	14.54
605.991	14.58
606.326	14.42
606.662	14.83
606.998	14.4
607.333	14.75
607.668	14.56
608.004	14.75
608.339	14.87
608.674	14.78
609.01	14.77
609.345	15.02
609.68	15.04
610.015	14.77
610.35	15.19
610.685	15.29
611.02	15.21
611.355	15.26
611.689	15.51
612.024	15.13
612.359	15.02
612.694	15.25
613.028	15.3
613.363	15.58
613.697	15.64
614.032	15.32
614.366	15.61
614.7	15.53
615.035	15.59
615.369	15.56
615.703	15.67
616.037	15.73
616.371	15.41
616.705	15.76
617.039	15.95
617.373	16
617.707	15.6
618.041	15.66
618.375	15.9
618.709	15.9
619.042	16.05
619.376	16.35
619.71	16.46
620.043	16.33
620.377	16.52
620.71	16.25
621.043	16.27
621.377	16.31
621.71	16.69
622.043	16.04
622.376	15.96
622.709	16.41
623.043	16.79
623.376	16.59
623.709	16.37
624.041	16.94
624.374	16.71
624.707	17.07
625.04	17.14
625.373	16.65
625.705	16.87
626.038	16.92
626.37	17.04
626.703	17.03
627.035	17.12
627.368	17.58
627.7	17.11
628.032	16.9
628.365	17.42
628.697	17.07
629.029	17.07
629.361	17.22
629.693	17.39
630.025	17.18
630.357	17.4
630.689	17.29
631.021	17.53
631.353	17.73
631.684	17.63
632.016	17.28
632.348	17.64
632.679	17.53
633.011	17.88
633.342	17.99
633.674	17.87
634.005	17.8
634.336	17.51
634.668	18.31
634.999	17.86
635.33	17.9
635.661	18.09
635.992	18.28
636.323	18.34
636.654	17.89
636.985	18.26
637.316	17.58
637.647	17.86
637.977	18.17
638.308	18.63
638.639	18.05
638.969	18.36
639.3	18.05
639.63	18.06
639.961	18.45
640.291	18.69
640.622	18.7
640.952	18.35
641.282	18.85
641.612	19.13
641.943	18.99
642.273	18.5
642.603	19.17
642.933	19.43
643.263	18.61
643.592	18.57
643.922	18.78
644.252	18.6
644.582	19.23
644.911	18.75
645.241	18.77
645.571	18.72
645.9	18.87
646.23	19.29
646.559	19.2
646.888	19.16
647.218	18.89
647.547	19.26
647.876	19.57
648.205	19.11
648.534	18.72
648.863	19.33
649.192	19.9
649.521	19.2
649.85	19.42
650.179	19.6
650.508	19.02
650.837	18.99
651.165	19.86
651.494	20.32
651.822	19.63
652.151	19.5
652.479	19.92
652.808	19.94
653.136	20.16
653.465	19.82
653.793	20.22
654.121	20.22
654.449	20.17
654.777	19.97
655.105	20.44
655.433	19.89
655.761	20.05
656.089	20.59
656.417	20.5
656.745	20.09
657.073	20.62
657.4	20.93
657.728	20.45
658.056	20.38
658.383	20.39
658.711	20.75
659.038	20.36
659.365	21.11
659.693	20.13
660.02	20.27
660.347	20.44
660.674	20.97
661.001	20.86
661.329	20.68
661.656	20.71
661.982	21.03
662.309	20.8
662.636	20.76
662.963	21.56
663.29	21.33
663.616	21.42
663.943	21
664.27	20.94
664.596	21.58
664.923	21.78
665.249	21.25
665.576	21.11
665.902	22.09
666.228	21.33
666.554	21.72
666.881	21.33
667.207	21.73
667.533	21.94
667.859	21.72
668.185	21.92
668.511	21.64
668.837	20.43
669.162	21.8
669.488	21.33
669.814	21.79
670.139	22.32
670.465	22.27
670.791	22.17
671.116	22.25
671.442	21.75
671.767	21.72
672.092	22.34
672.418	22.34
672.743	22.16
673.068	22.35
673.393	22.17
673.718	22.46
674.043	22.08
674.368	22.5
674.693	23.15
675.018	22.54
675.343	22.18
675.667	21.96
675.992	22.53
676.317	23.26
676.641	22.77
676.966	23.27
677.29	22.35
677.615	22.84
677.939	23.3
678.264	22.85
678.588	22.69
678.912	23.15
679.236	23.08
679.56	21.97
679.885	23.08
680.209	22.82
680.532	23.11
680.856	23.64
681.18	23.46
681.504	23.67
681.828	23.5
682.152	23.5
682.475	23.51
682.799	23.53
683.122	23.93
683.446	23.37
683.769	23.05
684.093	23.18
