Data from 0391_forehead_Reflection__0__195.txt Node

Date: Fri Dec 15 18:15:01 CST 2023
User: ToomeyLab
Spectrometer: FLMS14357
Trigger mode: 0
Integration Time (sec): 1.000000E-2
Scans to average: 100
Electric dark correction enabled: true
Nonlinearity correction enabled: false
Boxcar width: 0
XAxis mode: Wavelengths
Number of Pixels in Spectrum: 2048
>>>>>Begin Spectral Data<<<<<
189.047	-350.42
189.435	-350.42
189.823	-350.42
190.211	126.23
190.599	2332.19
190.987	106.6
191.375	22.18
191.763	-12.46
192.151	25.52
192.538	72.73
192.926	55.27
193.314	9.79
193.702	37.25
194.089	187.72
194.477	304.28
194.864	-354.2
195.252	95.9
195.639	48.69
196.027	84.3
196.414	285.26
196.801	328.75
197.189	61.56
197.576	56.91
197.963	31.52
198.351	-39.37
198.738	-39.33
199.125	34.14
199.512	-10.52
199.899	25.59
200.286	23.84
200.673	10.25
201.06	18.66
201.447	-37.49
201.833	1.71
202.22	99.01
202.607	87.14
202.994	-12.42
203.38	27.68
203.767	31.64
204.154	14.94
204.54	63.34
204.927	7.54
205.313	17.68
205.699	24.09
206.086	64.67
206.472	39.68
206.858	10.62
207.245	6.91
207.631	42.07
208.017	34.32
208.403	7.97
208.789	47.64
209.175	20.37
209.561	-4.39
209.947	-8.35
210.333	-14.23
210.719	50.92
211.105	46.81
211.491	-15.36
211.876	9.58
212.262	77.88
212.648	3.9
213.034	22.29
213.419	6.76
213.805	3.58
214.19	-18.37
214.576	48.96
214.961	-38.01
215.346	-15.4
215.732	-4.27
216.117	39.33
216.502	-13.54
216.888	24.03
217.273	37.97
217.658	34.46
218.043	20.05
218.428	-33.31
218.813	-12.68
219.198	-13.79
219.583	8.71
219.968	3.79
220.353	-22.15
220.738	38.96
221.122	-7.91
221.507	-19.38
221.892	-20.02
222.276	-10.46
222.661	5.16
223.046	15.53
223.43	22.09
223.815	17.14
224.199	-7.77
224.583	14.53
224.968	6.9
225.352	14.88
225.736	2.14
226.121	-3.58
226.505	10.28
226.889	17
227.273	8.02
227.657	14.76
228.041	9.39
228.425	5.74
228.809	5.3
229.193	7.82
229.577	5.57
229.961	5.68
230.344	5.1
230.728	4.47
231.112	5.82
231.495	4.47
231.879	6.12
232.263	5.68
232.646	7.83
233.03	4.75
233.413	4
233.797	5.31
234.18	5.53
234.563	7.71
234.946	4.95
235.33	8.44
235.713	8.15
236.096	5.16
236.479	6.06
236.862	4.18
237.245	8.48
237.628	5.35
238.011	5.72
238.394	7.1
238.777	4.89
239.16	4.95
239.543	6.68
239.925	5.6
240.308	7.3
240.691	6.47
241.073	7.11
241.456	4.96
241.838	4.37
242.221	6.34
242.603	6.97
242.986	6.95
243.368	6.22
243.75	5.83
244.133	5.98
244.515	6.24
244.897	6.58
245.279	6.13
245.661	5.8
246.043	5.48
246.425	6.63
246.807	7.24
247.189	6.4
247.571	6.18
247.953	6.62
248.335	5.75
248.717	6.13
249.098	5.88
249.48	6.2
249.862	6.1
250.243	6.06
250.625	6.14
251.006	6.5
251.388	6.23
251.769	6.72
252.151	6.23
252.532	6.51
252.913	6.75
253.295	5.92
253.676	6.19
254.057	6.58
254.438	6.18
254.819	5.52
255.2	5.91
255.581	6.47
255.962	5.15
256.343	6.53
256.724	6.25
257.105	6.15
257.486	5.4
257.867	6.11
258.247	6.57
258.628	5.81
259.009	6.59
259.389	6.15
259.77	5.67
260.15	6.04
260.531	5.68
260.911	6.53
261.292	6.26
261.672	5.98
262.052	5.84
262.432	6.03
262.813	6.37
263.193	5.98
263.573	6.65
263.953	6.23
264.333	6.5
264.713	6.51
265.093	5.4
265.473	6.33
265.853	5.99
266.233	6.86
266.612	5.32
266.992	5.7
267.372	6.9
267.752	5.56
268.131	5.73
268.511	6.5
268.89	6.3
269.27	5.76
269.649	5.37
270.029	5.44
270.408	6.51
270.787	5.88
271.167	5.81
271.546	6.75
271.925	5.76
272.304	5.74
272.683	6.04
273.062	5.41
273.441	5.97
273.82	5.29
274.199	6.03
274.578	6.22
274.957	5.96
275.336	5.78
275.715	5.59
276.093	5.66
276.472	6.26
276.851	5.87
277.229	5.63
277.608	5.59
277.986	6.19
278.365	6.1
278.743	5.64
279.122	6
279.5	5.92
279.878	6.21
280.257	5.11
280.635	5.19
281.013	5.8
281.391	5.79
281.769	6.19
282.147	6.42
282.525	5.78
282.903	5.81
283.281	6.15
283.659	5.89
284.037	6.22
284.415	5.87
284.792	6.1
285.17	5.7
285.548	5.54
285.925	5.78
286.303	5.99
286.68	5.48
287.058	6.09
287.435	6.23
287.813	5.79
288.19	5.74
288.567	6.01
288.945	6.8
289.322	6.34
289.699	6.43
290.076	6.08
290.453	6.33
290.83	6.07
291.207	6.25
291.584	6.4
291.961	6.69
292.338	6.64
292.715	6.54
293.092	6.32
293.469	6.43
293.845	7.36
294.222	6.38
294.599	7.23
294.975	6.36
295.352	7.08
295.728	6.65
296.105	6.83
296.481	7.03
296.858	6.88
297.234	7.02
297.61	7.04
297.986	7.42
298.363	6.89
298.739	7.51
299.115	6.9
299.491	7.03
299.867	6.83
300.243	7.29
300.619	7.04
300.995	7.08
301.371	7.63
301.746	7.79
302.122	8.29
302.498	7.82
302.874	7.9
303.249	7.75
303.625	8.12
304	8.28
304.376	7.76
304.751	7.48
305.127	8.88
305.502	7.07
305.878	8.16
306.253	8.42
306.628	9.2
307.003	8.34
307.378	8.63
307.754	8.06
308.129	7.75
308.504	8.96
308.879	8.94
309.254	9.49
309.629	9.6
310.003	8.98
310.378	9.07
310.753	8.9
311.128	8.92
311.502	9.13
311.877	9.51
312.252	8.7
312.626	8.81
313.001	8.86
313.375	9.56
313.75	9.2
314.124	9.17
314.498	8.73
314.873	9.53
315.247	8.64
315.621	9.82
315.995	8.95
316.369	9.99
316.743	9.73
317.117	9.74
317.491	9.63
317.865	10
318.239	9.27
318.613	9.66
318.987	9.55
319.361	9.15
319.734	10.01
320.108	10.41
320.482	10.79
320.855	9.96
321.229	9.71
321.602	9.65
321.976	10.72
322.349	10.12
322.723	9.92
323.096	11.31
323.469	10.02
323.843	10.36
324.216	11.73
324.589	10.7
324.962	10.55
325.335	10.44
325.708	10.48
326.081	11.05
326.454	10.96
326.827	10.63
327.2	10.87
327.573	10.9
327.945	10.83
328.318	10.54
328.691	10.21
329.063	11.24
329.436	10.59
329.809	11.11
330.181	11.33
330.553	11.03
330.926	11.83
331.298	11.44
331.671	10.87
332.043	12.21
332.415	11.96
332.787	11.34
333.159	11.76
333.532	12.03
333.904	11.72
334.276	11.28
334.648	11.5
335.02	11.71
335.391	11.67
335.763	11.61
336.135	11.77
336.507	11.99
336.879	11.86
337.25	11.51
337.622	11.78
337.993	11.45
338.365	12.45
338.736	12.02
339.108	11.77
339.479	11.92
339.851	12.07
340.222	12.55
340.593	12.19
340.964	12.36
341.336	13.15
341.707	12.31
342.078	12.75
342.449	12.57
342.82	12.04
343.191	12.31
343.562	12.34
343.933	12.78
344.303	12.78
344.674	12.36
345.045	12.81
345.416	13.23
345.786	12.18
346.157	12.62
346.527	12.01
346.898	12.27
347.268	12.67
347.639	12.7
348.009	12.56
348.38	12.29
348.75	13.1
349.12	12.61
349.49	13.24
349.861	12.75
350.231	12.46
350.601	13.2
350.971	12.98
351.341	13.3
351.711	13.23
352.081	12.79
352.45	12.98
352.82	13.28
353.19	13.07
353.56	13.29
353.929	13.92
354.299	13.1
354.669	12.89
355.038	13.93
355.408	13.37
355.777	13.39
356.147	13.25
356.516	13.7
356.885	13.72
357.254	13.2
357.624	13.66
357.993	14.03
358.362	13.5
358.731	13.39
359.1	13.46
359.469	14.05
359.838	13.6
360.207	13.44
360.576	13.5
360.945	14.27
361.314	14.3
361.682	13.61
362.051	13.74
362.42	14.23
362.788	13.92
363.157	14.19
363.525	14.05
363.894	13.88
364.262	14.06
364.631	14.07
364.999	13.95
365.367	13.98
365.735	14.84
366.104	14.3
366.472	14.67
366.84	14.27
367.208	14.28
367.576	14.5
367.944	14.9
368.312	14.49
368.68	14.29
369.048	14.43
369.416	14.59
369.783	14.23
370.151	14.8
370.519	15.56
370.886	14.74
371.254	14.8
371.621	15.5
371.989	14.92
372.356	14.51
372.724	14.97
373.091	14.59
373.458	14.83
373.826	14.77
374.193	15.04
374.56	15.26
374.927	15.53
375.294	15.26
375.661	15.22
376.028	15.18
376.395	15.64
376.762	15.58
377.129	15.21
377.496	14.95
377.863	15.44
378.229	15.17
378.596	15.29
378.963	15.24
379.329	15.14
379.696	15.71
380.062	15.62
380.429	15.37
380.795	15.56
381.161	16.09
381.528	15.71
381.894	16.12
382.26	15.87
382.626	16.31
382.993	15.52
383.359	15.96
383.725	15.8
384.091	15.8
384.457	16.11
384.823	15.75
385.188	16.35
385.554	15.98
385.92	16.28
386.286	16.26
386.651	16.3
387.017	16.43
387.383	16.26
387.748	15.99
388.114	16.29
388.479	16.62
388.845	16.65
389.21	16.48
389.575	16.53
389.94	16.42
390.306	16.44
390.671	16.75
391.036	16.47
391.401	16.5
391.766	16.82
392.131	16.62
392.496	16.64
392.861	16.61
393.226	16.99
393.591	16.75
393.956	16.67
394.32	16.85
394.685	16.84
395.05	16.84
395.414	16.7
395.779	16.78
396.143	17.1
396.508	16.98
396.872	17.09
397.236	17.38
397.601	16.99
397.965	17.18
398.329	17.18
398.694	17.29
399.058	17.18
399.422	17.15
399.786	17.39
400.15	17.43
400.514	17.39
400.878	17.58
401.242	17.79
401.605	17.46
401.969	17.81
402.333	17.75
402.697	17.69
403.06	17.63
403.424	17.74
403.787	17.85
404.151	17.97
404.514	17.72
404.878	17.9
405.241	17.97
405.604	17.89
405.968	17.72
406.331	18.09
406.694	17.85
407.057	17.91
407.42	18.11
407.783	17.85
408.146	18.04
408.509	18.06
408.872	17.92
409.235	18.14
409.598	18.23
409.961	18.3
410.323	18.55
410.686	18.18
411.049	18.29
411.411	18.29
411.774	18.53
412.136	18.45
412.499	18.33
412.861	18.69
413.223	18.65
413.586	18.62
413.948	18.72
414.31	18.39
414.672	18.59
415.035	18.93
415.397	18.95
415.759	18.42
416.121	19.02
416.483	19.03
416.845	18.89
417.206	19.05
417.568	18.93
417.93	18.79
418.292	18.99
418.653	18.78
419.015	19.22
419.377	19.05
419.738	19.15
420.1	18.95
420.461	19.23
420.822	19.07
421.184	19.22
421.545	19.06
421.906	19.02
422.267	19.01
422.629	19.2
422.99	19.08
423.351	18.94
423.712	19.25
424.073	19.27
424.434	19.31
424.795	19.22
425.155	19.42
425.516	19.31
425.877	19.45
426.238	19.33
426.598	19.47
426.959	19.64
427.32	19.35
427.68	19.62
428.041	19.95
428.401	19.81
428.761	19.84
429.122	19.95
429.482	19.77
429.842	20
430.202	19.95
430.563	20.28
430.923	20.05
431.283	20.28
431.643	20.44
432.003	20.23
432.363	20.3
432.722	20.28
433.082	20.34
433.442	20.43
433.802	20.45
434.161	20.37
434.521	20.61
434.881	20.71
435.24	20.43
435.6	20.68
435.959	20.52
436.319	20.65
436.678	20.67
437.037	20.62
437.396	20.92
437.756	20.97
438.115	20.6
438.474	21.04
438.833	20.93
439.192	20.89
439.551	20.97
439.91	21.04
440.269	21.06
440.628	21.2
440.987	21.09
441.345	21.07
441.704	21
442.063	20.94
442.421	21.16
442.78	21.15
443.138	21.14
443.497	21.17
443.855	21.12
444.214	21.29
444.572	21.48
444.93	21.33
445.288	21.42
445.647	21.59
446.005	21.53
446.363	21.71
446.721	21.64
447.079	21.55
447.437	21.6
447.795	21.58
448.153	21.49
448.51	21.46
448.868	21.53
449.226	21.65
449.584	21.69
449.941	21.77
450.299	21.68
450.656	21.86
451.014	21.89
451.371	21.73
451.729	22.03
452.086	22.33
452.443	22.08
452.801	22.52
453.158	22.3
453.515	22.32
453.872	22.48
454.229	22.36
454.586	22.43
454.943	22.45
455.3	22.61
455.657	22.43
456.014	22.45
456.371	22.57
456.727	22.69
457.084	22.64
457.441	22.83
457.797	22.8
458.154	22.76
458.51	22.83
458.867	23.2
459.223	23.24
459.58	22.94
459.936	23.12
460.292	22.88
460.648	23.03
461.005	22.96
461.361	23.17
461.717	22.93
462.073	23.01
462.429	22.82
462.785	23.11
463.141	23
463.496	23.23
463.852	23.34
464.208	23.24
464.564	23.58
464.919	23.5
465.275	23.7
465.631	23.74
465.986	23.96
466.342	23.88
466.697	23.61
467.052	23.79
467.408	23.96
467.763	23.86
468.118	23.8
468.473	23.8
468.829	24.08
469.184	24.14
469.539	24.19
469.894	23.94
470.249	24.27
470.603	24.4
470.958	24.41
471.313	24.29
471.668	24.3
472.023	24.38
472.377	24.58
472.732	24.3
473.086	24.4
473.441	24.31
473.795	24.95
474.15	24.49
474.504	24.7
474.859	24.7
475.213	24.73
475.567	24.51
475.921	24.77
476.275	24.81
476.63	24.96
476.984	25.07
477.338	25.11
477.692	24.68
478.045	24.91
478.399	25.02
478.753	25.28
479.107	25.38
479.461	25.03
479.814	24.98
480.168	25.18
480.521	25.12
480.875	25.26
481.228	25.11
481.582	25.48
481.935	25.31
482.289	25.41
482.642	25.49
482.995	25.31
483.348	25.28
483.701	25.31
484.055	25.26
484.408	25.48
484.761	25.35
485.114	25.12
485.466	24.82
485.819	24.84
486.172	24.69
486.525	24.77
486.878	24.77
487.23	25.08
487.583	25.22
487.936	25.38
488.288	25.52
488.641	25.37
488.993	25.27
489.345	25.28
489.698	25.35
490.05	25.4
490.402	25.43
490.754	25.44
491.107	25.58
491.459	25.85
491.811	25.94
492.163	26.18
492.515	26.11
492.866	26.26
493.218	26.09
493.57	25.89
493.922	25.91
494.274	26.11
494.625	26.19
494.977	26.26
495.328	26.56
495.68	26.89
496.031	26.89
496.383	26.79
496.734	27.1
497.086	27.14
497.437	27.12
497.788	27.27
498.139	27.31
498.49	27.32
498.842	27.22
499.193	27.21
499.544	27.43
499.894	27.26
500.245	27.41
500.596	27.44
500.947	27.47
501.298	27.48
501.648	27.62
501.999	27.64
502.35	27.91
502.7	27.74
503.051	27.78
503.401	27.86
503.752	27.97
504.102	27.92
504.452	27.97
504.803	28.21
505.153	28.19
505.503	28.01
505.853	28.19
506.203	28.19
506.553	28.14
506.903	28.2
507.253	28.43
507.603	28.26
507.953	28.55
508.303	28.71
508.652	28.35
509.002	28.76
509.352	28.6
509.701	28.68
510.051	28.76
510.4	28.65
510.75	28.55
511.099	28.72
511.449	28.76
511.798	28.83
512.147	28.99
512.496	28.89
512.846	28.92
513.195	29.18
513.544	28.81
513.893	29.1
514.242	29.01
514.591	29.13
514.939	29.32
515.288	29.28
515.637	29.43
515.986	29.47
516.334	29.55
516.683	29.49
517.032	29.59
517.38	29.58
517.729	29.69
518.077	29.65
518.426	29.61
518.774	29.9
519.122	29.68
519.47	29.93
519.819	29.78
520.167	29.72
520.515	29.7
520.863	29.68
521.211	29.89
521.559	29.91
521.907	30.02
522.255	30.05
522.602	30.21
522.95	30.38
523.298	30.53
523.645	30.44
523.993	30.44
524.341	30.55
524.688	30.75
525.036	30.74
525.383	30.72
525.73	30.75
526.078	31.05
526.425	30.72
526.772	30.73
527.119	30.71
527.466	30.62
527.814	30.63
528.161	30.76
528.508	30.79
528.854	30.84
529.201	30.85
529.548	30.92
529.895	30.56
530.242	30.58
530.588	30.54
530.935	30.44
531.282	30.5
531.628	30.6
531.975	30.6
532.321	30.86
532.667	31.07
533.014	31.27
533.36	31.41
533.706	31.46
534.052	31.56
534.399	31.54
534.745	31.37
535.091	31.51
535.437	31.47
535.783	31.51
536.129	31.53
536.474	31.77
536.82	31.64
537.166	32.08
537.512	32.3
537.857	32.24
538.203	32.35
538.549	32.22
538.894	32.2
539.239	32.21
539.585	32.23
539.93	32.46
540.276	32.76
540.621	32.9
540.966	32.75
541.311	32.79
541.656	33.03
542.001	33.08
542.346	33.12
542.691	32.78
543.036	32.67
543.381	32.5
543.726	32.53
544.071	32.69
544.415	32.64
544.76	32.75
545.105	32.79
545.449	33.1
545.794	33.32
546.138	33.49
546.483	33.42
546.827	33.59
547.171	33.76
547.516	33.95
547.86	33.76
548.204	33.98
548.548	33.77
548.892	33.94
549.236	33.82
549.58	33.9
549.924	34.01
550.268	34.21
550.612	34.33
550.956	34.41
551.3	34.59
551.643	34.74
551.987	34.77
552.33	34.53
552.674	34.93
553.017	35.13
553.361	35.03
553.704	35.19
554.048	34.98
554.391	34.93
554.734	35.06
555.077	35.26
555.42	34.88
555.764	35.15
556.107	35.12
556.45	34.98
556.793	35.47
557.135	35.46
557.478	35.65
557.821	35.77
558.164	36.11
558.507	35.62
558.849	35.95
559.192	35.73
559.534	35.81
559.877	36.22
560.219	36.15
560.562	36.26
560.904	36.35
561.246	36.35
561.589	36.33
561.931	36.43
562.273	36.31
562.615	36.48
562.957	36.54
563.299	36.57
563.641	36.73
563.983	36.63
564.325	36.67
564.667	36.59
565.008	36.79
565.35	36.99
565.692	36.83
566.033	36.78
566.375	37.01
566.716	37.12
567.058	36.94
567.399	37.01
567.741	37.19
568.082	37.05
568.423	37.32
568.764	37.08
569.105	37.15
569.447	37.52
569.788	37.39
570.129	37.66
570.47	37.65
570.811	37.7
571.151	37.83
571.492	38.06
571.833	37.84
572.174	37.96
572.514	38.09
572.855	37.98
573.195	38.31
573.536	38.05
573.876	37.94
574.217	37.97
574.557	38.08
574.898	38.55
575.238	38.23
575.578	38.23
575.918	38.32
576.258	38.7
576.598	38.61
576.938	38.63
577.278	38.59
577.618	38.74
577.958	38.82
578.298	38.87
578.638	38.78
578.977	38.96
579.317	39.35
579.657	39.04
579.996	39.54
580.336	39.1
580.675	39.4
581.014	39.32
581.354	39.45
581.693	39.88
582.032	39.43
582.372	39.78
582.711	39.63
583.05	39.69
583.389	40.04
583.728	40
584.067	40.07
584.406	40.11
584.745	40.13
585.083	40.46
585.422	40.34
585.761	40.54
586.1	40.55
586.438	40.38
586.777	40.7
587.115	40.94
587.454	40.54
587.792	40.49
588.13	41.17
588.469	40.61
588.807	40.62
589.145	40.98
589.483	40.84
589.821	40.95
590.159	40.98
590.497	41.14
590.835	41.24
591.173	41.24
591.511	41.38
591.849	41.18
592.187	41.22
592.524	41.43
592.862	41.33
593.2	41.65
593.537	41.59
593.875	41.49
594.212	41.7
594.55	41.91
594.887	41.65
595.224	41.6
595.561	41.73
595.899	42.05
596.236	41.98
596.573	41.9
596.91	42
597.247	41.92
597.584	42.12
597.921	42.28
598.258	42.54
598.594	42.13
598.931	41.99
599.268	42.41
599.604	41.92
599.941	42.45
600.277	42.24
600.614	42.08
600.95	42.66
601.287	42.49
601.623	42.93
601.959	42.56
602.296	42.94
602.632	42.73
602.968	43.28
603.304	43.44
603.64	42.94
603.976	42.83
604.312	42.9
604.648	43.52
604.984	43.43
605.319	43.48
605.655	43.65
605.991	43.37
606.326	43.31
606.662	43.57
606.998	43
607.333	43.48
607.668	43.42
608.004	43.62
608.339	43.47
608.674	43.77
609.01	43.7
609.345	43.85
609.68	44.58
610.015	44.27
610.35	44.53
610.685	44.17
611.02	44.68
611.355	44.73
611.689	44.31
612.024	44.19
612.359	44.11
612.694	44.37
613.028	44.39
613.363	44.7
613.697	44.56
614.032	44.38
614.366	44.4
614.7	44.91
615.035	45.22
615.369	44.74
615.703	44.94
616.037	44.73
616.371	44.85
616.705	45.12
617.039	44.98
617.373	45.23
617.707	45.16
618.041	45.08
618.375	45.63
618.709	45.59
619.042	45.36
619.376	45.85
619.71	45.81
620.043	45.29
620.377	45.87
620.71	45.85
621.043	46
621.377	45.84
621.71	46.08
622.043	46.01
622.376	45.6
622.709	45.85
623.043	45.89
623.376	46.21
623.709	46.4
624.041	46.57
624.374	46.26
624.707	46.37
625.04	46
625.373	46.44
625.705	46.63
626.038	46.51
626.37	46.92
626.703	46.5
627.035	47.15
627.368	47.12
627.7	46.99
628.032	46.71
628.365	47.23
628.697	47.06
629.029	47.45
629.361	47.14
629.693	47.77
630.025	47.05
630.357	47.29
630.689	47.25
631.021	47.35
631.353	47.27
631.684	47.29
632.016	47.42
632.348	47.88
632.679	47.65
633.011	48.01
633.342	47.82
633.674	47.66
634.005	48.16
634.336	48.11
634.668	48.42
634.999	47.97
635.33	48.03
635.661	48.55
635.992	47.84
636.323	48.05
636.654	47.96
636.985	47.93
637.316	48.34
637.647	48.09
637.977	48.65
638.308	48.7
638.639	48.41
638.969	48.61
639.3	48.06
639.63	48.37
639.961	48.63
640.291	48.89
640.622	48.61
640.952	48.99
641.282	49.09
641.612	49.5
641.943	49.16
642.273	49.17
642.603	48.96
642.933	49.54
643.263	49
643.592	49.04
643.922	48.91
644.252	49.43
644.582	49.59
644.911	49.13
645.241	49.41
645.571	49.7
645.9	49.86
646.23	49.54
646.559	50.57
646.888	49.27
647.218	49.33
647.547	49.58
647.876	50.79
648.205	49.55
648.534	50.26
648.863	49.98
649.192	50.25
649.521	50.12
649.85	49.93
650.179	50.71
650.508	50.13
650.837	50.4
651.165	50.07
651.494	50.8
651.822	50.6
652.151	50.98
652.479	50.75
652.808	50.54
653.136	50.73
653.465	50.82
653.793	50.8
654.121	51.15
654.449	50.9
654.777	51.21
655.105	51.04
655.433	50.78
655.761	51.28
656.089	51.06
656.417	51.32
656.745	51.11
657.073	50.88
657.4	51.64
657.728	51.31
658.056	51.21
658.383	51.05
658.711	51.81
659.038	51.54
659.365	51.91
659.693	51.46
660.02	51.46
660.347	51
660.674	51.59
661.001	51.91
661.329	51.77
661.656	52.39
661.982	51.91
662.309	51.63
662.636	51.45
662.963	51.65
663.29	52.4
663.616	52.58
663.943	51.61
664.27	51.74
664.596	52.54
664.923	52.43
665.249	51.64
665.576	52.19
665.902	52.91
666.228	52.95
666.554	53.05
666.881	52.41
667.207	52.99
667.533	53.21
667.859	52.2
668.185	52.91
668.511	53.23
668.837	52.22
669.162	52.95
669.488	52.23
