Data from 0391_crown_Reflection__4__194.txt Node

Date: Fri Dec 15 18:14:08 CST 2023
User: ToomeyLab
Spectrometer: FLMS14357
Trigger mode: 0
Integration Time (sec): 1.000000E-2
Scans to average: 100
Electric dark correction enabled: true
Nonlinearity correction enabled: false
Boxcar width: 0
XAxis mode: Wavelengths
Number of Pixels in Spectrum: 2048
>>>>>Begin Spectral Data<<<<<
189.047	54.59
189.435	54.59
189.823	54.59
190.211	-45.57
190.599	1417.12
190.987	206.43
191.375	-115.84
191.763	-29.71
192.151	282.46
192.538	69.46
192.926	56.09
193.314	71.66
193.702	-59.71
194.089	-205.86
194.477	6.16
194.864	-80.78
195.252	113.63
195.639	93.75
196.027	-11.75
196.414	106.87
196.801	331.09
197.189	29.99
197.576	41.42
197.963	-32.26
198.351	-183.82
198.738	-58.46
199.125	21.47
199.512	-3.76
199.899	7.78
200.286	45.82
200.673	-20.23
201.06	52.25
201.447	25.16
201.833	-9.1
202.22	26.87
202.607	26.12
202.994	19.29
203.38	6.51
203.767	35.66
204.154	18.76
204.54	11.15
204.927	-43.57
205.313	-17.7
205.699	62.62
206.086	60.23
206.472	4.28
206.858	18.94
207.245	-33.57
207.631	24.94
208.017	-11.01
208.403	-26.29
208.789	26.81
209.175	24.27
209.561	-60.85
209.947	3.37
210.333	-75.31
210.719	36.54
211.105	5.9
211.491	-71.64
211.876	-14.76
212.262	32.16
212.648	23.89
213.034	34.64
213.419	29.77
213.805	-41.09
214.19	-18.7
214.576	28.27
214.961	32.35
215.346	-56.78
215.732	-5.72
216.117	-12.02
216.502	-12.88
216.888	-10.36
217.273	15.42
217.658	-14.05
218.043	23.07
218.428	-34.69
218.813	-32.78
219.198	4.11
219.583	14.86
219.968	6.52
220.353	-10.97
220.738	10.36
221.122	-3.99
221.507	2.25
221.892	-1.29
222.276	-21.89
222.661	1.53
223.046	7.45
223.43	14.02
223.815	13.89
224.199	-11.42
224.583	7.9
224.968	5.76
225.352	13.93
225.736	-0.65
226.121	-11.46
226.505	12.2
226.889	4.25
227.273	7.05
227.657	10.19
228.041	8.54
228.425	6.73
228.809	9.15
229.193	11.14
229.577	6.48
229.961	6.91
230.344	7.85
230.728	7.75
231.112	8.08
231.495	7.24
231.879	7.73
232.263	7.64
232.646	9.15
233.03	8.83
233.413	5.22
233.797	8.02
234.18	5.99
234.563	6.58
234.946	7.99
235.33	6.97
235.713	7.32
236.096	7.43
236.479	6.38
236.862	5.77
237.245	8.71
237.628	4.67
238.011	8.47
238.394	7.98
238.777	9.79
239.16	5.1
239.543	6.57
239.925	7.24
240.308	4.51
240.691	6.66
241.073	9.05
241.456	6.99
241.838	6.27
242.221	6.88
242.603	6.63
242.986	7.48
243.368	7.85
243.75	7.39
244.133	7.5
244.515	7.72
244.897	7.1
245.279	7.75
245.661	7.26
246.043	5.88
246.425	5.81
246.807	9.12
247.189	7.62
247.571	7.5
247.953	7.47
248.335	7.47
248.717	7.55
249.098	7.19
249.48	7.33
249.862	6.87
250.243	7.19
250.625	7.62
251.006	7.27
251.388	6.35
251.769	6.46
252.151	7.08
252.532	6.37
252.913	6.52
253.295	6.19
253.676	6.67
254.057	7.36
254.438	7.02
254.819	7.06
255.2	6.72
255.581	7.28
255.962	6.12
256.343	6.1
256.724	6.92
257.105	7.29
257.486	7.4
257.867	7.6
258.247	7.17
258.628	6.47
259.009	6.73
259.389	7.72
259.77	7.28
260.15	5.98
260.531	6.48
260.911	7.25
261.292	6.99
261.672	7.05
262.052	6.97
262.432	7.07
262.813	6.61
263.193	6.05
263.573	6.53
263.953	6.53
264.333	6.78
264.713	7.04
265.093	6.41
265.473	7.05
265.853	5.84
266.233	6.75
266.612	4.57
266.992	5.64
267.372	7.48
267.752	7.09
268.131	6.79
268.511	7.54
268.89	7.28
269.27	6.42
269.649	6.16
270.029	6.58
270.408	7.41
270.787	7.28
271.167	7.06
271.546	6.84
271.925	6.39
272.304	6.71
272.683	6.5
273.062	6.12
273.441	6.74
273.82	6.24
274.199	6.51
274.578	6.52
274.957	6.72
275.336	6.68
275.715	6.35
276.093	6.41
276.472	6.78
276.851	6.36
277.229	6.29
277.608	5.49
277.986	6.21
278.365	6.47
278.743	5.38
279.122	6.62
279.5	6.59
279.878	6.61
280.257	5.93
280.635	5.67
281.013	6.24
281.391	6.13
281.769	6.73
282.147	6.24
282.525	6.69
282.903	6.38
283.281	6.6
283.659	6.84
284.037	6.28
284.415	6.32
284.792	6.7
285.17	5.51
285.548	6.03
285.925	5.8
286.303	5.98
286.68	6.2
287.058	6.1
287.435	6.02
287.813	5.79
288.19	6.13
288.567	5.75
288.945	6.24
289.322	5.98
289.699	6.32
290.076	6.18
290.453	6.11
290.83	6.21
291.207	5.88
291.584	5.95
291.961	6.1
292.338	5.9
292.715	5.96
293.092	6.1
293.469	5.66
293.845	6.31
294.222	5.59
294.599	6.53
294.975	5.59
295.352	5.74
295.728	5.8
296.105	5.73
296.481	5.9
296.858	5.63
297.234	5.51
297.61	5.84
297.986	5.87
298.363	5.85
298.739	5.77
299.115	5.44
299.491	5.56
299.867	5.59
300.243	5.49
300.619	5.08
300.995	5.77
301.371	5.77
301.746	5.49
302.122	6.01
302.498	5.66
302.874	5.77
303.249	5.84
303.625	5.53
304	5.95
304.376	5.48
304.751	5.74
305.127	6.14
305.502	4.93
305.878	4.7
306.253	5.66
306.628	5.61
307.003	5.07
307.378	5.97
307.754	5.53
308.129	4.3
308.504	5.47
308.879	4.97
309.254	6.07
309.629	5.31
310.003	5.57
310.378	5.86
310.753	5.12
311.128	5.44
311.502	5.45
311.877	5.51
312.252	4.9
312.626	5.31
313.001	5.21
313.375	5.44
313.75	4.56
314.124	5.27
314.498	5.57
314.873	5.21
315.247	5.08
315.621	4.98
315.995	4.87
316.369	4.77
316.743	5.02
317.117	5.34
317.491	4.79
317.865	5.32
318.239	5.17
318.613	5.46
318.987	5.05
319.361	4.45
319.734	5.02
320.108	5.16
320.482	4.66
320.855	5.21
321.229	5.1
321.602	5.19
321.976	5.16
322.349	5.04
322.723	5.22
323.096	5.4
323.469	4.79
323.843	5.13
324.216	5.28
324.589	4.58
324.962	4.98
325.335	5.53
325.708	4.73
326.081	4.49
326.454	4.66
326.827	4.55
327.2	5.03
327.573	5.24
327.945	4.91
328.318	5.05
328.691	4.27
329.063	4.79
329.436	4.96
329.809	4.77
330.181	4.97
330.553	5.13
330.926	4.57
331.298	5.14
331.671	5.17
332.043	4.95
332.415	5.43
332.787	4.83
333.159	5.68
333.532	4.75
333.904	5.04
334.276	4.84
334.648	5.27
335.02	4.62
335.391	5.11
335.763	4.62
336.135	4.41
336.507	5.71
336.879	5.31
337.25	5.19
337.622	4.6
337.993	4.69
338.365	5.15
338.736	5
339.108	4.37
339.479	4.88
339.851	4.74
340.222	4.84
340.593	4.66
340.964	4.73
341.336	5.89
341.707	4.45
342.078	4.87
342.449	5.2
342.82	4.47
343.191	4.89
343.562	4.92
343.933	4.82
344.303	5.13
344.674	4.56
345.045	4.88
345.416	5.09
345.786	4.67
346.157	4.69
346.527	4.31
346.898	4.52
347.268	4.9
347.639	4.64
348.009	4.78
348.38	4.42
348.75	4.73
349.12	4.71
349.49	4.97
349.861	5.04
350.231	4.61
350.601	5.15
350.971	5.3
351.341	5.05
351.711	5.16
352.081	5.09
352.45	4.75
352.82	4.74
353.19	4.94
353.56	4.83
353.929	5.26
354.299	4.89
354.669	4.98
355.038	4.87
355.408	4.71
355.777	5.21
356.147	4.81
356.516	5.06
356.885	4.82
357.254	4.77
357.624	4.77
357.993	5.16
358.362	4.7
358.731	4.56
359.1	4.63
359.469	4.96
359.838	5.04
360.207	4.54
360.576	4.7
360.945	4.31
361.314	5.22
361.682	4.66
362.051	4.4
362.42	5.07
362.788	4.82
363.157	4.99
363.525	5.21
363.894	5.24
364.262	4.82
364.631	4.82
364.999	5.14
365.367	4.64
365.735	5.65
366.104	5.06
366.472	4.98
366.84	4.97
367.208	5.07
367.576	4.94
367.944	5.16
368.312	4.69
368.68	4.75
369.048	5.31
369.416	5.25
369.783	4.98
370.151	5.02
370.519	5.37
370.886	5.25
371.254	4.76
371.621	5.22
371.989	5.4
372.356	4.57
372.724	4.98
373.091	4.82
373.458	4.82
373.826	4.89
374.193	5.27
374.56	5.42
374.927	5.06
375.294	5.31
375.661	5.12
376.028	4.99
376.395	4.99
376.762	5.08
377.129	5.09
377.496	5.09
377.863	5.4
378.229	4.91
378.596	5.19
378.963	5.41
379.329	4.82
379.696	5.44
380.062	5.44
380.429	5.31
380.795	5.06
381.161	5.2
381.528	5.25
381.894	5.32
382.26	5.33
382.626	5.41
382.993	4.85
383.359	5.25
383.725	5.27
384.091	5.01
384.457	5.58
384.823	5.05
385.188	5.05
385.554	5.56
385.92	5.34
386.286	5.37
386.651	5.29
387.017	5.25
387.383	5.47
387.748	5.13
388.114	5.44
388.479	5.51
388.845	5.6
389.21	5.48
389.575	5.63
389.94	5.57
390.306	5.65
390.671	5.58
391.036	5.09
391.401	5.06
391.766	5.36
392.131	5.22
392.496	5.64
392.861	5.21
393.226	5.43
393.591	5.61
393.956	5.15
394.32	5.34
394.685	5.44
395.05	5.31
395.414	5.39
395.779	5.3
396.143	5.63
396.508	5.52
396.872	5.73
397.236	5.6
397.601	5.47
397.965	5.63
398.329	5.96
398.694	5.73
399.058	5.6
399.422	5.56
399.786	5.63
400.15	5.47
400.514	5.66
400.878	5.67
401.242	5.7
401.605	5.8
401.969	5.77
402.333	5.52
402.697	5.55
403.06	5.63
403.424	5.64
403.787	5.83
404.151	5.99
404.514	5.6
404.878	5.61
405.241	6.01
405.604	5.66
405.968	5.82
406.331	5.53
406.694	6.03
407.057	5.57
407.42	5.92
407.783	5.44
408.146	5.7
408.509	5.56
408.872	5.85
409.235	5.87
409.598	5.95
409.961	5.68
410.323	5.91
410.686	5.85
411.049	5.62
411.411	5.79
411.774	5.91
412.136	5.85
412.499	5.66
412.861	5.95
413.223	5.69
413.586	5.92
413.948	6.01
414.31	6.17
414.672	5.67
415.035	5.65
415.397	5.72
415.759	5.76
416.121	6.03
416.483	5.71
416.845	5.94
417.206	5.89
417.568	6.1
417.93	6.03
418.292	5.92
418.653	5.94
419.015	5.95
419.377	5.98
419.738	5.88
420.1	5.94
420.461	6.07
420.822	5.89
421.184	5.92
421.545	5.88
421.906	5.91
422.267	5.9
422.629	5.86
422.99	5.94
423.351	5.89
423.712	5.97
424.073	5.97
424.434	5.9
424.795	5.97
425.155	5.91
425.516	5.82
425.877	5.91
426.238	5.98
426.598	6.02
426.959	5.89
427.32	5.92
427.68	5.97
428.041	5.98
428.401	6.06
428.761	5.98
429.122	6.22
429.482	6.09
429.842	6.2
430.202	6.11
430.563	6.17
430.923	6.02
431.283	6.43
431.643	5.98
432.003	6.15
432.363	6.19
432.722	5.98
433.082	6.16
433.442	6.25
433.802	6.11
434.161	6.04
434.521	6.43
434.881	6.19
435.24	6.22
435.6	6.19
435.959	6.16
436.319	6.28
436.678	6.23
437.037	6.27
437.396	6.33
437.756	6.44
438.115	6.02
438.474	6.33
438.833	6.1
439.192	6.15
439.551	6.37
439.91	6.37
440.269	6.08
440.628	6.2
440.987	6.18
441.345	5.99
441.704	6.28
442.063	6.26
442.421	6.27
442.78	6.13
443.138	6.17
443.497	6.3
443.855	6.16
444.214	6.16
444.572	6.27
444.93	6.22
445.288	6.28
445.647	6.33
446.005	6.3
446.363	6.36
446.721	6.49
447.079	6.21
447.437	6.25
447.795	6.29
448.153	6.2
448.51	6.34
448.868	6.3
449.226	6.27
449.584	6.13
449.941	6.39
450.299	6.36
450.656	6.24
451.014	6.3
451.371	6.18
451.729	6.28
452.086	6.5
452.443	6.25
452.801	6.43
453.158	6.44
453.515	6.21
453.872	6.55
454.229	6.41
454.586	6.36
454.943	6.49
455.3	6.52
455.657	6.4
456.014	6.51
456.371	6.5
456.727	6.53
457.084	6.61
457.441	6.68
457.797	6.65
458.154	6.69
458.51	6.72
458.867	6.64
459.223	6.51
459.58	6.53
459.936	6.56
460.292	6.51
460.648	6.38
461.005	6.44
461.361	6.57
461.717	6.49
462.073	6.39
462.429	6.4
462.785	6.45
463.141	6.4
463.496	6.53
463.852	6.69
464.208	6.54
464.564	6.71
464.919	6.74
465.275	6.6
465.631	6.76
465.986	6.65
466.342	6.61
466.697	6.55
467.052	6.83
467.408	6.74
467.763	6.71
468.118	6.7
468.473	6.45
468.829	6.67
469.184	6.65
469.539	6.76
469.894	6.53
470.249	6.81
470.603	6.58
470.958	6.58
471.313	6.68
471.668	6.82
472.023	6.7
472.377	6.61
472.732	6.67
473.086	6.8
473.441	6.46
473.795	6.86
474.15	6.79
474.504	6.51
474.859	6.75
475.213	6.49
475.567	6.68
475.921	6.5
476.275	6.66
476.63	6.59
476.984	6.87
477.338	6.79
477.692	6.6
478.045	6.66
478.399	6.68
478.753	6.69
479.107	6.74
479.461	6.76
479.814	6.81
480.168	6.79
480.521	6.68
480.875	6.65
481.228	6.83
481.582	6.58
481.935	6.63
482.289	6.65
482.642	6.71
482.995	6.58
483.348	6.71
483.701	6.72
484.055	6.77
484.408	6.81
484.761	6.6
485.114	6.55
485.466	6.45
485.819	6.38
486.172	6.36
486.525	6.42
486.878	6.39
487.23	6.44
487.583	6.56
487.936	6.57
488.288	6.6
488.641	6.63
488.993	6.55
489.345	6.45
489.698	6.5
490.05	6.47
490.402	6.6
490.754	6.5
491.107	6.7
491.459	6.56
491.811	6.72
492.163	6.63
492.515	6.67
492.866	6.86
493.218	6.69
493.57	6.6
493.922	6.53
494.274	6.66
494.625	6.65
494.977	6.74
495.328	6.87
495.68	6.68
496.031	6.84
496.383	6.88
496.734	6.89
497.086	6.97
497.437	7.01
497.788	6.84
498.139	6.96
498.49	6.91
498.842	6.69
499.193	6.84
499.544	6.77
499.894	6.72
500.245	6.88
500.596	6.9
500.947	6.92
501.298	6.74
501.648	6.94
501.999	6.95
502.35	6.8
502.7	6.87
503.051	6.7
503.401	6.88
503.752	7.08
504.102	6.93
504.452	6.89
504.803	6.81
505.153	6.85
505.503	6.9
505.853	6.86
506.203	6.74
506.553	6.83
506.903	6.73
507.253	6.87
507.603	6.91
507.953	6.94
508.303	7.02
508.652	6.97
509.002	7
509.352	7.09
509.701	6.81
510.051	6.84
510.4	6.9
510.75	6.87
511.099	6.94
511.449	6.83
511.798	6.86
512.147	6.85
512.496	6.91
512.846	6.95
513.195	6.85
513.544	6.88
513.893	6.89
514.242	6.88
514.591	7.02
514.939	6.83
515.288	6.75
515.637	6.95
515.986	6.99
516.334	6.91
516.683	7.07
517.032	6.9
517.38	6.95
517.729	7
518.077	6.83
518.426	7.05
518.774	7.04
519.122	6.97
519.47	6.88
519.819	6.92
520.167	6.85
520.515	6.93
520.863	6.87
521.211	6.92
521.559	6.88
521.907	6.76
522.255	6.85
522.602	6.92
522.95	6.91
523.298	7.05
523.645	6.9
523.993	7.03
524.341	7.05
524.688	7.11
525.036	6.99
525.383	7.06
525.73	7.05
526.078	6.88
526.425	6.89
526.772	7.04
527.119	6.97
527.466	6.76
527.814	6.84
528.161	6.85
528.508	6.93
528.854	6.75
529.201	6.82
529.548	6.88
529.895	6.74
530.242	6.68
530.588	6.66
530.935	6.7
531.282	6.67
531.628	6.64
531.975	6.74
532.321	6.79
532.667	6.88
533.014	6.86
533.36	6.86
533.706	6.9
534.052	6.9
534.399	6.81
534.745	6.86
535.091	6.74
535.437	6.79
535.783	6.79
536.129	6.84
536.474	6.72
536.82	6.88
537.166	6.92
537.512	6.9
537.857	6.93
538.203	7.03
538.549	6.88
538.894	6.9
539.239	6.89
539.585	6.95
539.93	6.76
540.276	7.05
540.621	7.08
540.966	6.93
541.311	6.82
541.656	6.85
542.001	6.99
542.346	7.02
542.691	6.84
543.036	6.76
543.381	6.73
543.726	6.72
544.071	6.82
544.415	6.86
544.76	6.83
545.105	6.8
545.449	6.92
545.794	6.92
546.138	6.9
546.483	6.96
546.827	6.88
547.171	7.09
547.516	7.01
547.86	6.84
548.204	6.9
548.548	6.71
548.892	6.86
549.236	6.81
549.58	6.81
549.924	6.96
550.268	7.03
550.612	6.93
550.956	7.14
551.3	6.93
551.643	7.16
551.987	7.2
552.33	6.9
552.674	7.03
553.017	6.96
553.361	6.98
553.704	7.19
554.048	6.98
554.391	6.87
554.734	7.09
555.077	7.01
555.42	6.85
555.764	6.92
556.107	6.96
556.45	6.69
556.793	6.97
557.135	6.93
557.478	7.2
557.821	6.88
558.164	7.05
558.507	7.12
558.849	6.95
559.192	7.17
559.534	7.03
559.877	7.17
560.219	6.9
560.562	7.01
560.904	7.03
561.246	6.94
561.589	6.84
561.931	7.18
562.273	6.84
562.615	7.1
562.957	6.96
563.299	6.76
563.641	6.9
563.983	6.91
564.325	6.84
564.667	6.77
565.008	6.92
565.35	7.05
565.692	6.86
566.033	6.98
566.375	7.13
566.716	7.22
567.058	7
567.399	6.87
567.741	6.82
568.082	6.87
568.423	6.87
568.764	6.73
569.105	7.02
569.447	7.05
569.788	6.77
570.129	6.95
570.47	6.89
570.811	7.03
571.151	6.88
571.492	6.97
571.833	7
572.174	6.86
572.514	6.98
572.855	6.9
573.195	6.74
573.536	7
573.876	6.8
574.217	6.76
574.557	6.98
574.898	6.96
575.238	6.94
575.578	6.68
575.918	6.82
576.258	6.87
576.598	6.99
576.938	6.86
577.278	6.8
577.618	6.9
577.958	6.67
578.298	6.9
578.638	6.75
578.977	6.76
579.317	6.78
579.657	6.77
579.996	6.91
580.336	6.94
580.675	6.71
581.014	6.85
581.354	6.78
581.693	6.73
582.032	6.61
582.372	6.8
582.711	6.95
583.05	6.71
583.389	6.95
583.728	6.69
584.067	7.04
584.406	6.83
584.745	6.7
585.083	6.88
585.422	6.97
585.761	6.94
586.1	7.05
586.438	6.82
586.777	7.02
587.115	7.02
587.454	6.69
587.792	6.86
588.13	7.08
588.469	6.85
588.807	6.74
589.145	6.71
589.483	6.69
589.821	6.83
590.159	6.65
590.497	6.97
590.835	7.01
591.173	7.15
591.511	6.93
591.849	6.58
592.187	6.74
592.524	6.76
592.862	6.7
593.2	6.82
593.537	6.75
593.875	6.76
594.212	6.58
594.55	6.86
594.887	6.72
595.224	6.73
595.561	6.66
595.899	6.54
596.236	6.82
596.573	7.03
596.91	6.44
597.247	6.57
597.584	6.75
597.921	6.68
598.258	6.84
598.594	6.7
598.931	6.78
599.268	6.77
599.604	6.6
599.941	6.74
600.277	6.8
600.614	6.78
600.95	6.57
601.287	6.84
601.623	6.66
601.959	6.74
602.296	6.82
602.632	6.74
602.968	6.69
603.304	6.8
603.64	6.95
603.976	6.57
604.312	6.45
604.648	6.53
604.984	6.53
605.319	6.83
605.655	6.59
605.991	6.78
606.326	6.7
606.662	6.71
606.998	6.44
607.333	6.7
607.668	6.76
608.004	6.55
608.339	6.76
608.674	6.63
609.01	6.41
609.345	6.31
609.68	6.7
610.015	6.18
610.35	6.63
610.685	6.42
611.02	6.58
611.355	6.72
611.689	6.39
612.024	6.47
612.359	6.56
612.694	6.56
613.028	6.26
613.363	6.76
613.697	6.56
614.032	6.84
614.366	6.51
614.7	6.77
615.035	6.65
615.369	6.42
615.703	6.66
616.037	6.85
616.371	6.11
616.705	6.23
617.039	6.39
617.373	6.51
617.707	6.28
618.041	6.56
618.375	6.8
618.709	6.51
619.042	6.52
619.376	6.97
619.71	6.88
620.043	6.51
620.377	6.65
620.71	6.58
621.043	6.53
621.377	6.7
621.71	6.14
622.043	6.23
622.376	6.32
622.709	6.35
623.043	6.43
623.376	6.59
623.709	6.34
624.041	6.75
624.374	6.61
624.707	6.47
625.04	6.68
625.373	6.08
625.705	6.35
626.038	6.66
626.37	6.28
626.703	6.32
627.035	6.57
627.368	6.86
627.7	6.52
628.032	6.34
628.365	6.77
628.697	6.23
629.029	6.18
629.361	6.42
629.693	6.72
630.025	6.33
630.357	6.46
630.689	6.44
631.021	6.24
631.353	6.52
631.684	6.13
632.016	6.23
632.348	6.53
632.679	6.41
633.011	6.78
633.342	6.67
633.674	6.16
634.005	6.57
634.336	6.35
634.668	6.77
634.999	6.26
635.33	6.68
635.661	6.64
635.992	6.22
636.323	6.72
636.654	6.51
636.985	6.12
637.316	6.36
637.647	6.38
637.977	6.52
638.308	6.39
638.639	5.86
638.969	6.2
639.3	6.18
639.63	5.9
639.961	6.26
640.291	6.47
640.622	6.39
640.952	6.46
641.282	6.5
641.612	6.29
641.943	6.13
642.273	6.45
642.603	7.1
642.933	6.57
643.263	6.6
643.592	6.01
643.922	6.13
644.252	6.53
644.582	6.55
644.911	6.2
645.241	6.88
645.571	5.97
645.9	6.13
646.23	6.25
646.559	6.69
646.888	5.86
647.218	6.32
647.547	6.56
647.876	6.33
648.205	6.02
648.534	6.2
648.863	5.89
649.192	6.33
649.521	6.41
649.85	5.97
650.179	6.51
650.508	5.93
650.837	5.91
651.165	6.04
651.494	6.51
651.822	6.1
652.151	6.07
652.479	6.47
652.808	5.9
653.136	6.36
653.465	5.42
653.793	6.36
654.121	6.12
654.449	6.52
654.777	5.86
655.105	6.35
655.433	5.94
655.761	5.75
656.089	6.25
656.417	6.65
656.745	6.62
657.073	6.09
657.4	6.79
657.728	6.44
658.056	6.21
658.383	6.13
658.711	6.85
659.038	6.14
659.365	6.29
659.693	6.09
660.02	5.95
660.347	6.21
660.674	6.6
661.001	6.7
661.329	5.73
661.656	6.19
661.982	6.5
662.309	5.95
662.636	5.95
662.963	6.53
663.29	5.96
663.616	5.88
663.943	5.78
664.27	5.44
664.596	6.09
664.923	6.83
665.249	6.1
665.576	6.19
665.902	7.61
666.228	6.71
666.554	6.19
666.881	5.73
667.207	5.73
667.533	6.18
667.859	6.5
668.185	6.23
668.511	5.29
668.837	5.47
669.162	6.18
669.488	5.68
669.814	6.43
670.139	5.83
670.465	6.59
670.791	6.72
671.116	6.98
671.442	5.74
671.767	6.62
672.092	6.45
672.418	6.15
672.743	6.39
673.068	5.13
673.393	5.8
673.718	6.15
674.043	5.91
674.368	5.69
674.693	7.17
675.018	5.77
675.343	5.72
675.667	6.55
675.992	6.49
676.317	6.52
676.641	7.2
676.966	6.68
677.29	6.02
677.615	5.82
677.939	6.18
678.264	5.93
678.588	6.22
678.912	5.95
679.236	6.95
679.56	5.89
679.885	7.14
680.209	6.7
680.532	6.56
680.856	6.93
681.18	6.07
681.504	6.67
681.828	6.43
682.152	5.57
682.475	6.45
682.799	6.2
683.122	6.74
683.446	6.09
683.769	6.37
684.093	6
684.416	6.7
684.739	5.94
685.062	6.34
685.386	6.61
685.709	5.71
686.032	6.07
686.355	6.01
686.678	5.78
687.001	5.52
687.324	7.16
687.646	6.15
687.969	6.25
688.292	5.58
688.614	5.9
688.937	7.06
689.26	5.9
689.582	6.18
689.904	5.8
690.227	6.44
690.549	5.64
690.871	6.41
691.194	6
691.516	6.04
691.838	6.07
692.16	6.07
692.482	5.82
