Data from 0391_chest_Reflection__1__186.txt Node

Date: Fri Dec 15 18:12:23 CST 2023
User: ToomeyLab
Spectrometer: FLMS14357
Trigger mode: 0
Integration Time (sec): 1.000000E-2
Scans to average: 100
Electric dark correction enabled: true
Nonlinearity correction enabled: false
Boxcar width: 0
XAxis mode: Wavelengths
Number of Pixels in Spectrum: 2048
>>>>>Begin Spectral Data<<<<<
189.047	315.03
189.435	315.03
189.823	315.03
190.211	-118.37
190.599	-1793.15
190.987	221.61
191.375	-74.82
191.763	-36.49
192.151	-282.12
192.538	83.57
192.926	-26.17
193.314	124.86
193.702	-4.94
194.089	-461.48
194.477	383.51
194.864	-77.75
195.252	89.39
195.639	73.73
196.027	15.73
196.414	54.88
196.801	231.38
197.189	175.7
197.576	33.11
197.963	-206.95
198.351	-13.8
198.738	-110.3
199.125	-0.54
199.512	29.75
199.899	35.41
200.286	44.72
200.673	10.71
201.06	30.68
201.447	-51
201.833	28.25
202.22	8.15
202.607	0.79
202.994	-21.34
203.38	-39.66
203.767	26.87
204.154	25.65
204.54	58.76
204.927	-44.31
205.313	-41.42
205.699	6.24
206.086	55.2
206.472	44.15
206.858	23.06
207.245	-14.88
207.631	46.93
208.017	-5.24
208.403	4.34
208.789	34.38
209.175	36.01
209.561	-57.73
209.947	23.17
210.333	-44.36
210.719	15.11
211.105	9.11
211.491	-43.88
211.876	35.68
212.262	11.27
212.648	18.85
213.034	16.76
213.419	-4.8
213.805	-3.35
214.19	-21.53
214.576	-0.16
214.961	-36.84
215.346	-16.5
215.732	-1.34
216.117	31.28
216.502	7.32
216.888	-16.95
217.273	20.53
217.658	-0.84
218.043	0.28
218.428	-27.37
218.813	-16.63
219.198	-10.61
219.583	-1.41
219.968	27.49
220.353	5.39
220.738	15.48
221.122	24.24
221.507	-16.19
221.892	-25.44
222.276	-12.81
222.661	-0.82
223.046	-2.39
223.43	11.91
223.815	5.33
224.199	-8.29
224.583	-8.28
224.968	10.94
225.352	12.63
225.736	-10.07
226.121	-11.31
226.505	0.14
226.889	4.28
227.273	-4.03
227.657	2.99
228.041	0.59
228.425	2.3
228.809	5.75
229.193	1.52
229.577	2.17
229.961	1.36
230.344	1.69
230.728	1.89
231.112	2.1
231.495	3.23
231.879	2.41
232.263	3.53
232.646	3.32
233.03	2.85
233.413	1.97
233.797	4.43
234.18	1.94
234.563	2.91
234.946	0.59
235.33	3.84
235.713	4.57
236.096	1.35
236.479	1.7
236.862	2.28
237.245	3.24
237.628	0.84
238.011	3.17
238.394	4.16
238.777	2.42
239.16	-0.62
239.543	2.18
239.925	3.97
240.308	2.69
240.691	3.99
241.073	2.71
241.456	1.3
241.838	2.2
242.221	1.33
242.603	3.82
242.986	1.79
243.368	2.52
243.75	2.8
244.133	2.69
244.515	2.92
244.897	3.1
245.279	2.99
245.661	2.43
246.043	1.79
246.425	1.68
246.807	4.02
247.189	3.48
247.571	3.15
247.953	2.97
248.335	2.7
248.717	2.87
249.098	2.82
249.48	2.92
249.862	2.55
250.243	2.88
250.625	2.34
251.006	3.05
251.388	2.21
251.769	2.71
252.151	2.48
252.532	2.19
252.913	1.3
253.295	1.79
253.676	2.7
254.057	3.12
254.438	2.74
254.819	2.66
255.2	2.66
255.581	2.82
255.962	2.06
256.343	1.52
256.724	2.34
257.105	1.32
257.486	2.73
257.867	2.39
258.247	2.03
258.628	2.35
259.009	3.15
259.389	2.58
259.77	2.05
260.15	2.67
260.531	2
260.911	3.02
261.292	2.56
261.672	2.98
262.052	2.74
262.432	2.88
262.813	2.78
263.193	2.31
263.573	2.01
263.953	2.3
264.333	4.12
264.713	3.01
265.093	2.08
265.473	2.65
265.853	1.69
266.233	2.39
266.612	1.22
266.992	1.99
267.372	2.29
267.752	2.21
268.131	2.55
268.511	3.09
268.89	2.95
269.27	2.49
269.649	2.37
270.029	2.4
270.408	3.46
270.787	2.24
271.167	2.99
271.546	2.9
271.925	2.08
272.304	2.47
272.683	2.45
273.062	1.84
273.441	2.64
273.82	2.36
274.199	2.66
274.578	2.77
274.957	2.31
275.336	2.67
275.715	2.01
276.093	2.25
276.472	2.89
276.851	1.48
277.229	2.65
277.608	2.02
277.986	2.53
278.365	2.4
278.743	2.13
279.122	2.36
279.5	2.79
279.878	2.77
280.257	2.26
280.635	1.71
281.013	2.57
281.391	2.95
281.769	2.66
282.147	3
282.525	3
282.903	2.12
283.281	2.73
283.659	2.71
284.037	2.92
284.415	3.18
284.792	2.83
285.17	1.91
285.548	2.42
285.925	2.75
286.303	2.53
286.68	2.2
287.058	2.4
287.435	2.39
287.813	2.68
288.19	2.44
288.567	2.09
288.945	2.98
289.322	2.23
289.699	2.08
290.076	2.19
290.453	2.35
290.83	2.47
291.207	2.61
291.584	2.96
291.961	2.74
292.338	2.55
292.715	3.02
293.092	2.43
293.469	3.03
293.845	2.8
294.222	2.31
294.599	2.43
294.975	2.56
295.352	2.8
295.728	2.69
296.105	2.24
296.481	3.05
296.858	2.63
297.234	2.18
297.61	2.78
297.986	2.5
298.363	2.78
298.739	2.92
299.115	2.56
299.491	2.55
299.867	2.34
300.243	2.94
300.619	2.15
300.995	2.53
301.371	3.08
301.746	2.2
302.122	2.4
302.498	2.92
302.874	2.67
303.249	2.55
303.625	2.21
304	3.13
304.376	2.42
304.751	2.36
305.127	3.13
305.502	2.38
305.878	1.89
306.253	2.31
306.628	2.73
307.003	2.79
307.378	3.15
307.754	2.64
308.129	2.06
308.504	3.22
308.879	2.66
309.254	3.11
309.629	3.49
310.003	2.32
310.378	2.51
310.753	2.74
311.128	3.11
311.502	2.99
311.877	3.07
312.252	2.42
312.626	2.66
313.001	2.28
313.375	2.75
313.75	2.78
314.124	2.84
314.498	2.55
314.873	2.57
315.247	2.96
315.621	2.78
315.995	2.23
316.369	2.35
316.743	2.53
317.117	3.51
317.491	2.17
317.865	2
318.239	2.96
318.613	2.4
318.987	3.51
319.361	2.03
319.734	2.47
320.108	2.73
320.482	2.68
320.855	2.58
321.229	2.78
321.602	2.23
321.976	3.24
322.349	2.79
322.723	2.44
323.096	3.63
323.469	2.35
323.843	3.09
324.216	2.88
324.589	2.12
324.962	2.87
325.335	2.45
325.708	2.9
326.081	2.66
326.454	2.86
326.827	2.64
327.2	2.94
327.573	3.04
327.945	2.88
328.318	2.76
328.691	1.83
329.063	2.54
329.436	2.38
329.809	3.2
330.181	2.45
330.553	2.49
330.926	2.53
331.298	2.62
331.671	2.83
332.043	3.21
332.415	3.4
332.787	3.1
333.159	3.56
333.532	2.79
333.904	2.95
334.276	2.92
334.648	2.62
335.02	3.12
335.391	2.33
335.763	2.18
336.135	2.73
336.507	3.31
336.879	2.35
337.25	2.23
337.622	2.66
337.993	2.62
338.365	3.27
338.736	2.97
339.108	2.7
339.479	2.42
339.851	2.96
340.222	3.02
340.593	2.53
340.964	2.76
341.336	3.51
341.707	2.61
342.078	3.17
342.449	3.01
342.82	2.59
343.191	2.68
343.562	3.35
343.933	2.69
344.303	2.85
344.674	2.78
345.045	2.59
345.416	3.62
345.786	2.66
346.157	3.1
346.527	2.27
346.898	2.07
347.268	2.77
347.639	2.75
348.009	2.56
348.38	2.66
348.75	3.07
349.12	2.79
349.49	3.24
349.861	3
350.231	2.75
350.601	2.74
350.971	3.02
351.341	2.85
351.711	2.97
352.081	2.78
352.45	2.41
352.82	3.45
353.19	2.77
353.56	2.81
353.929	3.39
354.299	2.82
354.669	2.54
355.038	3.11
355.408	2.78
355.777	3.28
356.147	2.64
356.516	2.7
356.885	3.03
357.254	2.74
357.624	3.02
357.993	3.17
358.362	2.76
358.731	2.42
359.1	2.92
359.469	2.95
359.838	2.94
360.207	2.7
360.576	2.83
360.945	2.49
361.314	3.42
361.682	2.8
362.051	2.93
362.42	2.87
362.788	2.79
363.157	3.15
363.525	3.26
363.894	3.11
364.262	3.19
364.631	2.92
364.999	3.04
365.367	2.11
365.735	3.59
366.104	3.13
366.472	3.07
366.84	2.88
367.208	2.89
367.576	3.42
367.944	3.25
368.312	2.71
368.68	2.82
369.048	2.85
369.416	2.84
369.783	2.61
370.151	3.12
370.519	3.16
370.886	3.46
371.254	2.72
371.621	3.11
371.989	3.02
372.356	2.56
372.724	3.02
373.091	2.59
373.458	2.9
373.826	2.82
374.193	2.85
374.56	3.21
374.927	3.18
375.294	2.95
375.661	3.04
376.028	2.69
376.395	2.89
376.762	3.24
377.129	3.01
377.496	3.08
377.863	3.06
378.229	2.69
378.596	2.99
378.963	2.82
379.329	2.85
379.696	3.23
380.062	2.96
380.429	3.24
380.795	2.97
381.161	2.92
381.528	3.34
381.894	3.19
382.26	2.74
382.626	3.32
382.993	2.82
383.359	3.27
383.725	2.8
384.091	3.19
384.457	3.44
384.823	3.12
385.188	2.94
385.554	2.87
385.92	3.13
386.286	3.31
386.651	3.16
387.017	3.29
387.383	2.88
387.748	2.87
388.114	3.38
388.479	2.87
388.845	3.53
389.21	3.15
389.575	3.15
389.94	3.16
390.306	3.14
390.671	3.18
391.036	2.74
391.401	2.62
391.766	3.23
392.131	2.73
392.496	3.29
392.861	3.01
393.226	3.29
393.591	3.1
393.956	3.1
394.32	3.07
394.685	2.89
395.05	3.12
395.414	3.36
395.779	3.03
396.143	3.12
396.508	3.16
396.872	2.99
397.236	3.33
397.601	3.06
397.965	3.34
398.329	3.45
398.694	3
399.058	2.94
399.422	2.82
399.786	3.58
400.15	3.23
400.514	3.29
400.878	3.15
401.242	3.32
401.605	3.22
401.969	3.24
402.333	3.24
402.697	3.24
403.06	3.4
403.424	3.14
403.787	3.08
404.151	3.19
404.514	3.26
404.878	2.99
405.241	3.34
405.604	3.29
405.968	3.23
406.331	3.2
406.694	3.17
407.057	3.2
407.42	3.38
407.783	3.22
408.146	3.36
408.509	3.39
408.872	2.99
409.235	3.26
409.598	3.58
409.961	3.22
410.323	3.39
410.686	3.22
411.049	3.37
411.411	3.22
411.774	3.35
412.136	3.04
412.499	3.24
412.861	3.06
413.223	3.18
413.586	3.54
413.948	3.31
414.31	3.23
414.672	3.13
415.035	3.24
415.397	3.43
415.759	3.25
416.121	3.21
416.483	3.17
416.845	3.23
417.206	3.16
417.568	3.33
417.93	2.95
418.292	3.36
418.653	3.25
419.015	3.36
419.377	3.04
419.738	3.28
420.1	3.36
420.461	3.27
420.822	3.2
421.184	3.32
421.545	3.34
421.906	3.12
422.267	3.17
422.629	3.27
422.99	3.25
423.351	3.16
423.712	3.15
424.073	3.24
424.434	3.24
424.795	3.23
425.155	3.17
425.516	3.02
425.877	3.14
426.238	3.2
426.598	3.29
426.959	3.23
427.32	3.21
427.68	3.32
428.041	3.36
428.401	3.37
428.761	3.37
429.122	3.35
429.482	3.25
429.842	3.48
430.202	3.56
430.563	3.35
430.923	3.05
431.283	3.34
431.643	3.32
432.003	3.3
432.363	3.49
432.722	3.33
433.082	3.35
433.442	3.11
433.802	3.18
434.161	3.24
434.521	3.63
434.881	3.38
435.24	3.31
435.6	3.45
435.959	3.43
436.319	3.44
436.678	3.45
437.037	3.31
437.396	3.41
437.756	3.56
438.115	3.37
438.474	3.6
438.833	3.3
439.192	3.37
439.551	3.48
439.91	3.38
440.269	3.41
440.628	3.1
440.987	3.32
441.345	3.27
441.704	3.36
442.063	3.4
442.421	3.41
442.78	3.31
443.138	3.48
443.497	3.36
443.855	3.29
444.214	3.45
444.572	3.5
444.93	3.43
445.288	3.58
445.647	3.44
446.005	3.35
446.363	3.41
446.721	3.48
447.079	3.19
447.437	3.35
447.795	3.32
448.153	3.3
448.51	3.29
448.868	3.44
449.226	3.43
449.584	3.3
449.941	3.39
450.299	3.42
450.656	3.43
451.014	3.42
451.371	3.26
451.729	3.37
452.086	3.59
452.443	3.45
452.801	3.57
453.158	3.5
453.515	3.33
453.872	3.67
454.229	3.38
454.586	3.42
454.943	3.4
455.3	3.68
455.657	3.51
456.014	3.45
456.371	3.48
456.727	3.38
457.084	3.61
457.441	3.47
457.797	3.43
458.154	3.64
458.51	3.74
458.867	3.77
459.223	3.52
459.58	3.41
459.936	3.61
460.292	3.56
460.648	3.43
461.005	3.4
461.361	3.62
461.717	3.48
462.073	3.36
462.429	3.42
462.785	3.44
463.141	3.57
463.496	3.6
463.852	3.58
464.208	3.47
464.564	3.52
464.919	3.72
465.275	3.46
465.631	3.64
465.986	3.46
466.342	3.46
466.697	3.51
467.052	3.49
467.408	3.73
467.763	3.36
468.118	3.42
468.473	3.5
468.829	3.7
469.184	3.52
469.539	3.64
469.894	3.46
470.249	3.77
470.603	3.71
470.958	3.74
471.313	3.67
471.668	3.76
472.023	3.77
472.377	3.56
472.732	3.45
473.086	3.49
473.441	3.5
473.795	3.88
474.15	3.68
474.504	3.63
474.859	3.77
475.213	3.49
475.567	3.42
475.921	3.49
476.275	3.6
476.63	3.57
476.984	3.77
477.338	3.64
477.692	3.68
478.045	3.57
478.399	3.6
478.753	3.71
479.107	3.62
479.461	3.6
479.814	3.69
480.168	3.49
480.521	3.6
480.875	3.74
481.228	3.58
481.582	3.67
481.935	3.65
482.289	3.68
482.642	3.7
482.995	3.64
483.348	3.6
483.701	3.59
484.055	3.58
484.408	3.68
484.761	3.58
485.114	3.44
485.466	3.41
485.819	3.41
486.172	3.39
486.525	3.49
486.878	3.51
487.23	3.54
487.583	3.63
487.936	3.62
488.288	3.54
488.641	3.56
488.993	3.45
489.345	3.47
489.698	3.47
490.05	3.47
490.402	3.55
490.754	3.56
491.107	3.6
491.459	3.64
491.811	3.72
492.163	3.65
492.515	3.67
492.866	3.64
493.218	3.58
493.57	3.51
493.922	3.51
494.274	3.67
494.625	3.73
494.977	3.74
495.328	3.77
495.68	3.68
496.031	3.84
496.383	3.8
496.734	3.85
497.086	3.78
497.437	3.85
497.788	3.79
498.139	3.79
498.49	3.82
498.842	3.8
499.193	3.75
499.544	3.71
499.894	3.71
500.245	3.72
500.596	3.72
500.947	3.81
501.298	3.75
501.648	3.87
501.999	3.97
502.35	3.88
502.7	3.93
503.051	3.76
503.401	3.82
503.752	3.94
504.102	3.79
504.452	3.88
504.803	3.74
505.153	3.88
505.503	3.78
505.853	3.73
506.203	3.87
506.553	3.78
506.903	3.8
507.253	3.79
507.603	3.73
507.953	3.97
508.303	4.08
508.652	3.79
509.002	3.97
509.352	3.99
509.701	3.81
510.051	3.73
510.4	3.85
510.75	3.82
511.099	4.02
511.449	3.79
511.798	3.93
512.147	3.94
512.496	3.86
512.846	3.92
513.195	3.8
513.544	3.85
513.893	3.89
514.242	3.9
514.591	3.96
514.939	3.85
515.288	3.83
515.637	4
515.986	3.96
516.334	4.08
516.683	3.98
517.032	3.87
517.38	4.07
517.729	3.95
518.077	3.86
518.426	4.04
518.774	4.06
519.122	3.93
519.47	3.9
519.819	4.02
520.167	3.93
520.515	4.01
520.863	3.92
521.211	3.99
521.559	4
521.907	3.98
522.255	4.01
522.602	4.05
522.95	4.01
523.298	4.04
523.645	4.02
523.993	3.86
524.341	4.06
524.688	4.22
525.036	4.07
525.383	4.15
525.73	4.34
526.078	4.06
526.425	4.07
526.772	4.12
527.119	4.07
527.466	4.01
527.814	3.96
528.161	4.04
528.508	4.12
528.854	4.1
529.201	3.99
529.548	3.95
529.895	3.98
530.242	3.85
530.588	3.91
530.935	3.92
531.282	3.99
531.628	4.04
531.975	4.1
532.321	4.09
532.667	4.21
533.014	4.18
533.36	4.19
533.706	4.14
534.052	4.22
534.399	4.04
534.745	4.16
535.091	4.1
535.437	4.14
535.783	4.13
536.129	4.24
536.474	4.2
536.82	4.28
537.166	4.32
537.512	4.32
537.857	4.29
538.203	4.32
538.549	4.2
538.894	4.19
539.239	4.27
539.585	4.35
539.93	4.29
540.276	4.44
540.621	4.43
540.966	4.47
541.311	4.31
541.656	4.35
542.001	4.35
542.346	4.45
542.691	4.29
543.036	4.22
543.381	4.13
543.726	4.22
544.071	4.31
544.415	4.43
544.76	4.43
545.105	4.4
545.449	4.42
545.794	4.5
546.138	4.35
546.483	4.51
546.827	4.53
547.171	4.46
547.516	4.7
547.86	4.49
548.204	4.49
548.548	4.51
548.892	4.53
549.236	4.61
549.58	4.58
549.924	4.65
550.268	4.64
550.612	4.77
550.956	4.75
551.3	4.8
551.643	4.95
551.987	4.85
552.33	4.78
552.674	4.72
553.017	4.67
553.361	4.79
553.704	4.83
554.048	4.71
554.391	4.8
554.734	4.71
555.077	4.83
555.42	4.69
555.764	4.8
556.107	4.7
556.45	4.62
556.793	4.8
557.135	4.7
557.478	4.77
557.821	4.95
558.164	4.82
558.507	4.98
558.849	4.92
559.192	4.98
559.534	4.9
559.877	4.93
560.219	4.86
560.562	5.31
560.904	4.93
561.246	5.06
561.589	5.11
561.931	5.17
562.273	4.92
562.615	5.11
562.957	5.22
563.299	4.92
563.641	5.03
563.983	5.19
564.325	4.97
564.667	5.03
565.008	5.14
565.35	5.12
565.692	5.14
566.033	5.12
566.375	5.28
566.716	5.45
567.058	4.98
567.399	5.13
567.741	5.12
568.082	5.12
568.423	5.25
568.764	5.23
569.105	5.38
569.447	5.32
569.788	5.27
570.129	5.48
570.47	5.36
570.811	5.56
571.151	5.29
571.492	5.41
571.833	5.57
572.174	5.48
572.514	5.46
572.855	5.49
573.195	5.46
573.536	5.4
573.876	5.3
574.217	5.32
574.557	5.64
574.898	5.66
575.238	5.59
575.578	5.49
575.918	5.79
576.258	5.69
576.598	5.73
576.938	5.5
577.278	5.62
577.618	5.58
577.958	5.47
578.298	5.8
578.638	5.66
578.977	5.76
579.317	5.53
579.657	5.86
579.996	5.93
580.336	5.99
580.675	5.91
581.014	5.76
581.354	5.83
581.693	5.91
582.032	5.71
582.372	6.13
582.711	5.9
583.05	5.87
583.389	6
583.728	5.74
584.067	5.86
584.406	6.19
584.745	6.07
585.083	6.16
585.422	6.1
585.761	6.21
586.1	6
586.438	6.14
586.777	6.28
587.115	6.2
587.454	6.01
587.792	6.14
588.13	6.25
588.469	5.95
588.807	6.3
589.145	6.1
589.483	6.29
589.821	6.34
590.159	6.19
590.497	6.3
590.835	6.66
591.173	6.24
591.511	6.55
591.849	6.27
592.187	6.55
592.524	6.61
592.862	6.4
593.2	6.48
593.537	6.57
593.875	6.6
594.212	6.45
594.55	6.53
594.887	6.5
595.224	6.41
595.561	6.62
595.899	6.7
596.236	6.51
596.573	6.62
596.91	6.54
597.247	6.33
597.584	7.05
597.921	6.46
598.258	6.63
598.594	6.78
598.931	6.69
599.268	6.65
599.604	6.58
599.941	6.85
600.277	6.7
600.614	6.63
600.95	6.96
601.287	6.93
601.623	6.77
601.959	6.56
602.296	6.9
602.632	6.84
602.968	7.15
603.304	7.3
603.64	6.86
603.976	7.08
604.312	6.86
604.648	6.79
604.984	6.96
605.319	7.15
605.655	7.03
605.991	7.12
606.326	7.01
606.662	7.2
606.998	6.84
607.333	7.21
607.668	7.21
608.004	7.29
608.339	7.39
608.674	7.37
609.01	7.47
609.345	7
609.68	7.51
610.015	7.38
610.35	7.29
610.685	7.18
611.02	7.38
611.355	7.55
611.689	7.37
612.024	7.39
612.359	7.25
612.694	7.37
613.028	7.46
613.363	7.82
613.697	7.66
614.032	7.61
614.366	7.49
614.7	7.58
615.035	7.58
615.369	7.69
615.703	7.83
616.037	7.9
616.371	7.6
616.705	7.54
617.039	7.9
617.373	7.87
617.707	7.77
618.041	7.54
618.375	7.84
618.709	8.18
619.042	7.59
619.376	8.05
619.71	8.13
620.043	8.18
620.377	7.92
620.71	8.07
621.043	7.76
621.377	7.93
621.71	8.08
622.043	7.9
622.376	7.81
622.709	8.06
623.043	8.42
623.376	8.31
623.709	8.04
624.041	8.54
624.374	8.46
624.707	7.85
625.04	8.25
625.373	8.15
625.705	8.39
626.038	8.45
626.37	8.01
626.703	8.23
627.035	8.37
627.368	8.77
627.7	8.47
628.032	8.62
628.365	8.42
628.697	8.5
629.029	8.07
629.361	8.48
629.693	8.44
630.025	8.43
630.357	9.08
630.689	8.76
631.021	9.02
631.353	8.95
631.684	8.48
632.016	8.45
632.348	8.69
632.679	9.18
633.011	8.89
633.342	9.22
633.674	8.74
634.005	9.39
634.336	8.86
634.668	9.17
634.999	8.89
635.33	9.18
635.661	9.29
635.992	9.07
636.323	9.16
636.654	9.24
636.985	9.02
637.316	9.09
637.647	8.96
637.977	9.11
638.308	9.02
638.639	8.62
638.969	9.33
639.3	8.97
639.63	8.91
639.961	9.34
640.291	9.28
640.622	9.15
640.952	9.23
641.282	9.45
641.612	9.18
641.943	9.19
642.273	9.54
642.603	10
642.933	9.33
643.263	9.5
643.592	9.2
643.922	9.54
644.252	9.18
644.582	9.32
644.911	9.47
645.241	9.51
645.571	9.45
645.9	8.87
646.23	9.7
646.559	9.96
646.888	9.53
647.218	9.5
647.547	9.81
647.876	9.59
648.205	9.88
648.534	9.87
648.863	9.33
649.192	10.19
649.521	9.64
649.85	9.57
650.179	9.98
650.508	9.53
650.837	9.65
651.165	9.64
651.494	10.08
651.822	9.96
652.151	9.87
652.479	9.94
652.808	9.87
653.136	9.85
653.465	9.3
653.793	10.16
654.121	10.2
654.449	9.96
654.777	9.79
655.105	9.92
655.433	9.8
655.761	10.23
656.089	10.29
656.417	10.26
656.745	10.41
657.073	10.4
657.4	10.83
657.728	10.69
658.056	10.16
658.383	9.91
658.711	10.57
659.038	10.75
659.365	10.68
659.693	10.21
660.02	10.23
660.347	10.75
660.674	10.45
661.001	10.4
661.329	10
661.656	10.6
661.982	10.78
662.309	10.67
662.636	10.24
662.963	11.07
663.29	10.85
663.616	11.01
663.943	10.15
664.27	10.78
664.596	11.25
664.923	10.56
665.249	10.75
665.576	10.94
665.902	11.26
666.228	10.98
666.554	11.33
666.881	10.89
667.207	10.93
667.533	10.87
667.859	10.92
668.185	10.91
668.511	10.64
668.837	10.25
669.162	11.57
669.488	10.56
669.814	10.73
670.139	11.39
670.465	11.66
670.791	11.16
671.116	11.87
671.442	10.92
671.767	11.65
672.092	11.54
672.418	11.51
672.743	11.86
673.068	11.14
673.393	11.33
673.718	11.5
674.043	11.53
674.368	11.57
674.693	11.83
675.018	12.01
675.343	11.61
675.667	11.87
675.992	11.65
676.317	11.68
676.641	12.13
676.966	11.85
677.29	10.99
677.615	12.11
677.939	11.48
678.264	12.32
678.588	12.35
678.912	12.25
679.236	12.35
679.56	11.11
679.885	12
680.209	11.94
680.532	12.03
680.856	12.24
681.18	11.38
681.504	11.7
681.828	12.06
682.152	12.08
682.475	12.05
682.799	12.3
683.122	11.64
683.446	12.04
683.769	12.95
684.093	11.83
684.416	12.89
684.739	12.2
685.062	11.8
685.386	12.72
685.709	11.93
686.032	11.91
686.355	12.86
686.678	12.11
687.001	12.65
687.324	12.56
687.646	11.36
687.969	12
688.292	12.17
688.614	12.21
688.937	12.79
689.26	11.83
689.582	12.69
689.904	12.94
