Data from 0391_crown_Reflection__0__190.txt Node

Date: Fri Dec 15 18:13:30 CST 2023
User: ToomeyLab
Spectrometer: FLMS14357
Trigger mode: 0
Integration Time (sec): 1.000000E-2
Scans to average: 100
Electric dark correction enabled: true
Nonlinearity correction enabled: false
Boxcar width: 0
XAxis mode: Wavelengths
Number of Pixels in Spectrum: 2048
>>>>>Begin Spectral Data<<<<<
189.047	-139.67
189.435	-139.67
189.823	-139.67
190.211	180.9
190.599	1705.48
190.987	85.94
191.375	20.55
191.763	113.04
192.151	118.16
192.538	16.6
192.926	89.45
193.314	95.9
193.702	179.33
194.089	31.3
194.477	289.56
194.864	-257.48
195.252	72.89
195.639	73.92
196.027	156.7
196.414	338.82
196.801	315.98
197.189	134.06
197.576	83.17
197.963	-139.74
198.351	-200.41
198.738	-88.08
199.125	11.67
199.512	-57.91
199.899	34.41
200.286	22.5
200.673	-25.72
201.06	-35.7
201.447	-25.14
201.833	48.15
202.22	24.55
202.607	41.09
202.994	20.19
203.38	-8.2
203.767	-0.6
204.154	1.93
204.54	27.07
204.927	-38.57
205.313	-44.41
205.699	17.4
206.086	12.28
206.472	19.44
206.858	-37.09
207.245	-33.98
207.631	14.59
208.017	2.64
208.403	10.27
208.789	-18.4
209.175	-12.75
209.561	-43.59
209.947	17.98
210.333	-87
210.719	5.96
211.105	-1.56
211.491	-60.65
211.876	-13.29
212.262	18.35
212.648	-7.41
213.034	15.47
213.419	-9.57
213.805	-17.36
214.19	0.45
214.576	-25.21
214.961	-64.43
215.346	-57.16
215.732	-24.69
216.117	4.36
216.502	-29.74
216.888	-26.79
217.273	28.46
217.658	-11.38
218.043	9.93
218.428	-80.36
218.813	-32.69
219.198	-77.52
219.583	-14.6
219.968	4.9
220.353	-45.95
220.738	-8.37
221.122	4.48
221.507	-35.74
221.892	-21.89
222.276	-49.32
222.661	-7.53
223.046	5.26
223.43	2.97
223.815	-7.89
224.199	-17.01
224.583	-3.7
224.968	-3.57
225.352	2.7
225.736	-2.12
226.121	-13.76
226.505	1.88
226.889	8.2
227.273	0.22
227.657	2.2
228.041	1.57
228.425	1.77
228.809	4.51
229.193	4.07
229.577	-1.51
229.961	2.04
230.344	2.89
230.728	2.64
231.112	2.88
231.495	2.67
231.879	1.97
232.263	3.48
232.646	1.97
233.03	2.91
233.413	0.77
233.797	1.3
234.18	-1.09
234.563	1.95
234.946	2.91
235.33	4.87
235.713	2.73
236.096	2.43
236.479	4.14
236.862	1.6
237.245	3.06
237.628	3.64
238.011	1.61
238.394	3.67
238.777	2.55
239.16	3.27
239.543	4.02
239.925	3.28
240.308	3.14
240.691	2.63
241.073	4.6
241.456	2.05
241.838	2.14
242.221	1.88
242.603	3.15
242.986	3.29
243.368	2.09
243.75	3.64
244.133	2.93
244.515	3.53
244.897	3.24
245.279	3.29
245.661	2.48
246.043	1.62
246.425	1.91
246.807	3.27
247.189	3.3
247.571	3.41
247.953	3.11
248.335	3.08
248.717	3.27
249.098	3.16
249.48	3.19
249.862	3.02
250.243	2.59
250.625	2.89
251.006	3.33
251.388	1.82
251.769	2.77
252.151	2.7
252.532	2.96
252.913	2.11
253.295	2.01
253.676	2.16
254.057	3.33
254.438	3.26
254.819	2.14
255.2	1.47
255.581	2.89
255.962	1.5
256.343	2.59
256.724	1.72
257.105	2.41
257.486	2.31
257.867	3.29
258.247	1.83
258.628	2.22
259.009	2.13
259.389	2.98
259.77	2.38
260.15	2.28
260.531	2.32
260.911	3.5
261.292	2.6
261.672	3.19
262.052	3.18
262.432	3.38
262.813	3.07
263.193	2.73
263.573	2.81
263.953	3.62
264.333	3.31
264.713	2.81
265.093	2.29
265.473	2.76
265.853	2.37
266.233	3.35
266.612	1.32
266.992	2.98
267.372	4.03
267.752	2.95
268.131	3.08
268.511	3.43
268.89	3.47
269.27	2.2
269.649	2.49
270.029	2.44
270.408	4.43
270.787	3.1
271.167	3.42
271.546	3.21
271.925	2.86
272.304	2.69
272.683	2.89
273.062	2.32
273.441	2.76
273.82	2.77
274.199	2.75
274.578	2.83
274.957	2.67
275.336	2.77
275.715	2.35
276.093	2.54
276.472	2.31
276.851	2.59
277.229	2.51
277.608	1.99
277.986	2.78
278.365	2.79
278.743	2.05
279.122	2.68
279.5	2.58
279.878	2.45
280.257	2.41
280.635	1.94
281.013	2.52
281.391	2.86
281.769	2.67
282.147	2.68
282.525	3.05
282.903	2.33
283.281	3.23
283.659	3.37
284.037	2.64
284.415	2.98
284.792	3.03
285.17	1.75
285.548	1.95
285.925	3.12
286.303	2.91
286.68	2.8
287.058	2.65
287.435	2.59
287.813	2.85
288.19	2.54
288.567	2.85
288.945	3.25
289.322	2.75
289.699	2.42
290.076	2.91
290.453	2.55
290.83	2.45
291.207	1.99
291.584	2.43
291.961	3.23
292.338	2.66
292.715	2.86
293.092	2.77
293.469	2.62
293.845	2.83
294.222	2.51
294.599	2.42
294.975	2.3
295.352	3.1
295.728	1.96
296.105	2.11
296.481	2.89
296.858	2.93
297.234	2.94
297.61	2.39
297.986	2.6
298.363	2.4
298.739	2.97
299.115	2.69
299.491	2.47
299.867	2.5
300.243	2.86
300.619	2.18
300.995	2.55
301.371	2.44
301.746	2.87
302.122	2.72
302.498	2.52
302.874	2.81
303.249	2.32
303.625	2.77
304	2.64
304.376	2.33
304.751	2.36
305.127	2.98
305.502	2.02
305.878	1.99
306.253	2.56
306.628	3.06
307.003	2.29
307.378	2.43
307.754	2.01
308.129	1.92
308.504	2.57
308.879	2.31
309.254	2.81
309.629	3.16
310.003	2.38
310.378	2.99
310.753	2.37
311.128	2.51
311.502	2.28
311.877	2.58
312.252	2.27
312.626	2.57
313.001	2.18
313.375	2.72
313.75	2.3
314.124	2.41
314.498	2.35
314.873	2.33
315.247	2.27
315.621	2.32
315.995	1.53
316.369	2.08
316.743	2.35
317.117	2.03
317.491	2.01
317.865	1.92
318.239	2.18
318.613	2.4
318.987	1.84
319.361	2.05
319.734	2.62
320.108	2.61
320.482	2.13
320.855	2.37
321.229	2.13
321.602	1.95
321.976	1.99
322.349	1.68
322.723	2.55
323.096	2.79
323.469	1.94
323.843	2.4
324.216	2.36
324.589	2.13
324.962	2.13
325.335	2.14
325.708	1.73
326.081	1.89
326.454	2.33
326.827	2.09
327.2	2.6
327.573	2.86
327.945	2.45
328.318	1.9
328.691	1.43
329.063	2.49
329.436	1.94
329.809	1.94
330.181	2.1
330.553	2.08
330.926	2.63
331.298	2.18
331.671	1.76
332.043	2.77
332.415	2.94
332.787	2.57
333.159	2.99
333.532	3
333.904	2.45
334.276	2.09
334.648	2.34
335.02	2.44
335.391	2.2
335.763	2.45
336.135	1.9
336.507	2.08
336.879	2.15
337.25	1.65
337.622	2.02
337.993	2.11
338.365	2.52
338.736	2.64
339.108	2.28
339.479	2.13
339.851	2.05
340.222	2.11
340.593	2.17
340.964	1.87
341.336	2.95
341.707	1.97
342.078	3.2
342.449	2.87
342.82	2.19
343.191	2.35
343.562	2.54
343.933	2.64
344.303	2.48
344.674	2.23
345.045	2.63
345.416	2.58
345.786	1.93
346.157	2.25
346.527	1.75
346.898	1.81
347.268	2.62
347.639	2.02
348.009	2.76
348.38	2.02
348.75	2.38
349.12	2.44
349.49	2.79
349.861	2.63
350.231	1.72
350.601	2.27
350.971	2.33
351.341	3.11
351.711	2.2
352.081	2.42
352.45	2.41
352.82	2.62
353.19	2.29
353.56	2.01
353.929	2.52
354.299	2.34
354.669	2.22
355.038	2.65
355.408	2.45
355.777	2.77
356.147	2.21
356.516	2.4
356.885	2.68
357.254	2.54
357.624	2.79
357.993	2.56
358.362	1.94
358.731	1.88
359.1	2.24
359.469	2.73
359.838	2.4
360.207	2.37
360.576	2.32
360.945	2.59
361.314	2.93
361.682	2.13
362.051	2.32
362.42	2.44
362.788	2.26
363.157	2.28
363.525	2.85
363.894	2.51
364.262	2.46
364.631	2.45
364.999	2.58
365.367	2.27
365.735	3.04
366.104	2.61
366.472	2.75
366.84	2.39
367.208	2.29
367.576	2.69
367.944	2.7
368.312	2.54
368.68	2.39
369.048	2.42
369.416	2.54
369.783	2.33
370.151	2.48
370.519	2.86
370.886	2.83
371.254	2.06
371.621	2.6
371.989	2.66
372.356	1.99
372.724	2.53
373.091	2.3
373.458	2.28
373.826	2.33
374.193	2.35
374.56	2.65
374.927	2.74
375.294	2.93
375.661	2.1
376.028	2.6
376.395	2.36
376.762	2.6
377.129	2.35
377.496	2.68
377.863	2.34
378.229	2.12
378.596	2.26
378.963	2.45
379.329	2.6
379.696	2.53
380.062	2.72
380.429	2.6
380.795	2.33
381.161	2.42
381.528	2.71
381.894	2.29
382.26	2.46
382.626	2.64
382.993	2.22
383.359	3.27
383.725	2.09
384.091	2.7
384.457	2.83
384.823	2.67
385.188	2.93
385.554	2.54
385.92	2.81
386.286	2.49
386.651	3.01
387.017	3.07
387.383	2.53
387.748	2.6
388.114	2.64
388.479	2.6
388.845	2.9
389.21	2.76
389.575	2.81
389.94	2.58
390.306	2.82
390.671	2.89
391.036	2.33
391.401	2.87
391.766	2.59
392.131	2.53
392.496	3.05
392.861	2.54
393.226	2.63
393.591	2.73
393.956	2.5
394.32	2.86
394.685	2.51
395.05	2.64
395.414	2.78
395.779	2.67
396.143	2.75
396.508	2.83
396.872	3.02
397.236	2.8
397.601	2.36
397.965	2.8
398.329	2.86
398.694	2.71
399.058	2.8
399.422	2.51
399.786	2.62
400.15	2.8
400.514	2.82
400.878	2.76
401.242	3.15
401.605	2.79
401.969	2.97
402.333	2.81
402.697	2.87
403.06	2.97
403.424	2.95
403.787	2.87
404.151	2.9
404.514	2.87
404.878	2.77
405.241	3.07
405.604	2.87
405.968	3.07
406.331	2.85
406.694	3.19
407.057	2.84
407.42	3.08
407.783	2.89
408.146	3.02
408.509	2.85
408.872	2.74
409.235	2.9
409.598	3.22
409.961	3.12
410.323	3.02
410.686	2.84
411.049	2.86
411.411	2.98
411.774	2.83
412.136	2.86
412.499	3.06
412.861	2.89
413.223	2.86
413.586	3
413.948	2.88
414.31	2.8
414.672	2.82
415.035	2.8
415.397	3.17
415.759	2.63
416.121	3.1
416.483	2.82
416.845	3.08
417.206	3.03
417.568	2.95
417.93	2.78
418.292	2.89
418.653	3.1
419.015	3.03
419.377	3.09
419.738	2.96
420.1	3.01
420.461	3.08
420.822	3.1
421.184	2.95
421.545	3.05
421.906	2.98
422.267	2.89
422.629	2.97
422.99	2.97
423.351	2.86
423.712	2.98
424.073	2.94
424.434	2.92
424.795	3.02
425.155	3.06
425.516	2.84
425.877	2.98
426.238	2.81
426.598	3.12
426.959	3.01
427.32	3.03
427.68	2.98
428.041	2.94
428.401	3.21
428.761	3.1
429.122	3.22
429.482	3
429.842	3.17
430.202	3
430.563	3.24
430.923	2.9
431.283	3.11
431.643	2.9
432.003	3.03
432.363	3.3
432.722	2.97
433.082	3.03
433.442	3.13
433.802	2.89
434.161	2.98
434.521	3.29
434.881	3.04
435.24	2.86
435.6	3.22
435.959	3
436.319	3.11
436.678	3.11
437.037	3.07
437.396	3.12
437.756	3.33
438.115	2.88
438.474	3.15
438.833	3.03
439.192	3.07
439.551	3.13
439.91	3.03
440.269	3.17
440.628	2.98
440.987	3.1
441.345	2.9
441.704	3.06
442.063	3.07
442.421	3.14
442.78	2.99
443.138	2.99
443.497	3.15
443.855	3.13
444.214	3.23
444.572	3.29
444.93	3.1
445.288	3.17
445.647	3.22
446.005	3.03
446.363	3.17
446.721	3.18
447.079	2.98
447.437	3.06
447.795	3.13
448.153	3.05
448.51	3.14
448.868	3.21
449.226	3.12
449.584	3.08
449.941	3.33
450.299	3.2
450.656	3.19
451.014	3.26
451.371	3.08
451.729	3.14
452.086	3.43
452.443	3.26
452.801	3.15
453.158	3.28
453.515	3.04
453.872	3.46
454.229	3.07
454.586	3.19
454.943	3.27
455.3	3.33
455.657	3.36
456.014	3.11
456.371	3.15
456.727	3.33
457.084	3.42
457.441	3.27
457.797	3.18
458.154	3.24
458.51	3.31
458.867	3.48
459.223	3.43
459.58	3.35
459.936	3.36
460.292	3.39
460.648	3.19
461.005	3.23
461.361	3.24
461.717	3.2
462.073	3.06
462.429	3.26
462.785	3.33
463.141	3.34
463.496	3.29
463.852	3.46
464.208	3.34
464.564	3.39
464.919	3.35
465.275	3.36
465.631	3.5
465.986	3.33
466.342	3.1
466.697	3.05
467.052	3.16
467.408	3.38
467.763	3.29
468.118	3.13
468.473	3.1
468.829	3.26
469.184	3.15
469.539	3.19
469.894	3.17
470.249	3.46
470.603	3.42
470.958	3.34
471.313	3.34
471.668	3.5
472.023	3.37
472.377	3.42
472.732	3.36
473.086	3.39
473.441	3.28
473.795	3.43
474.15	3.36
474.504	3.31
474.859	3.52
475.213	3.27
475.567	3.35
475.921	3.23
476.275	3.32
476.63	3.48
476.984	3.39
477.338	3.47
477.692	3.2
478.045	3.27
478.399	3.46
478.753	3.24
479.107	3.31
479.461	3.23
479.814	3.35
480.168	3.27
480.521	3.27
480.875	3.27
481.228	3.31
481.582	3.37
481.935	3.23
482.289	3.43
482.642	3.39
482.995	3.29
483.348	3.2
483.701	3.41
484.055	3.46
484.408	3.38
484.761	3.34
485.114	3.18
485.466	3.09
485.819	3.08
486.172	3.12
486.525	3.22
486.878	3.31
487.23	3.37
487.583	3.37
487.936	3.37
488.288	3.35
488.641	3.41
488.993	3.18
489.345	3.17
489.698	3.2
490.05	3.23
490.402	3.32
490.754	3.36
491.107	3.38
491.459	3.49
491.811	3.46
492.163	3.41
492.515	3.3
492.866	3.36
493.218	3.31
493.57	3.24
493.922	3.28
494.274	3.39
494.625	3.51
494.977	3.51
495.328	3.49
495.68	3.49
496.031	3.48
496.383	3.41
496.734	3.61
497.086	3.46
497.437	3.37
497.788	3.28
498.139	3.36
498.49	3.54
498.842	3.34
499.193	3.39
499.544	3.47
499.894	3.39
500.245	3.38
500.596	3.42
500.947	3.43
501.298	3.48
501.648	3.52
501.999	3.57
502.35	3.48
502.7	3.52
503.051	3.27
503.401	3.31
503.752	3.55
504.102	3.4
504.452	3.6
504.803	3.43
505.153	3.52
505.503	3.46
505.853	3.52
506.203	3.53
506.553	3.54
506.903	3.45
507.253	3.46
507.603	3.41
507.953	3.48
508.303	3.49
508.652	3.54
509.002	3.58
509.352	3.5
509.701	3.41
510.051	3.28
510.4	3.41
510.75	3.49
511.099	3.45
511.449	3.47
511.798	3.5
512.147	3.48
512.496	3.4
512.846	3.5
513.195	3.36
513.544	3.43
513.893	3.57
514.242	3.36
514.591	3.67
514.939	3.4
515.288	3.39
515.637	3.62
515.986	3.48
516.334	3.57
516.683	3.6
517.032	3.59
517.38	3.59
517.729	3.46
518.077	3.36
518.426	3.48
518.774	3.6
519.122	3.43
519.47	3.38
519.819	3.38
520.167	3.53
520.515	3.42
520.863	3.46
521.211	3.53
521.559	3.53
521.907	3.46
522.255	3.42
522.602	3.61
522.95	3.53
523.298	3.45
523.645	3.62
523.993	3.31
524.341	3.67
524.688	3.59
525.036	3.52
525.383	3.48
525.73	3.71
526.078	3.5
526.425	3.4
526.772	3.55
527.119	3.39
527.466	3.37
527.814	3.52
528.161	3.5
528.508	3.57
528.854	3.5
529.201	3.39
529.548	3.4
529.895	3.37
530.242	3.27
530.588	3.27
530.935	3.32
531.282	3.39
531.628	3.43
531.975	3.56
532.321	3.57
532.667	3.57
533.014	3.6
533.36	3.5
533.706	3.54
534.052	3.47
534.399	3.4
534.745	3.4
535.091	3.38
535.437	3.39
535.783	3.41
536.129	3.52
536.474	3.58
536.82	3.58
537.166	3.56
537.512	3.57
537.857	3.53
538.203	3.44
538.549	3.55
538.894	3.46
539.239	3.61
539.585	3.58
539.93	3.52
540.276	3.73
540.621	3.66
540.966	3.57
541.311	3.56
541.656	3.41
542.001	3.41
542.346	3.55
542.691	3.35
543.036	3.35
543.381	3.25
543.726	3.37
544.071	3.53
544.415	3.62
544.76	3.5
545.105	3.54
545.449	3.58
545.794	3.56
546.138	3.55
546.483	3.55
546.827	3.58
547.171	3.48
547.516	3.7
547.86	3.47
548.204	3.56
548.548	3.48
548.892	3.57
549.236	3.5
549.58	3.54
549.924	3.64
550.268	3.65
550.612	3.72
550.956	3.79
551.3	3.67
551.643	3.85
551.987	3.65
552.33	3.69
552.674	3.71
553.017	3.53
553.361	3.41
553.704	3.72
554.048	3.55
554.391	3.6
554.734	3.63
555.077	3.65
555.42	3.36
555.764	3.52
556.107	3.56
556.45	3.32
556.793	3.67
557.135	3.52
557.478	3.63
557.821	3.67
558.164	3.49
558.507	3.6
558.849	3.49
559.192	3.56
559.534	3.66
559.877	3.59
560.219	3.55
560.562	3.71
560.904	3.6
561.246	3.77
561.589	3.74
561.931	3.57
562.273	3.51
562.615	3.75
562.957	3.6
563.299	3.52
563.641	3.56
563.983	3.62
564.325	3.4
564.667	3.31
565.008	3.7
565.35	3.72
565.692	3.51
566.033	3.63
566.375	3.56
566.716	3.66
567.058	3.6
567.399	3.43
567.741	3.36
568.082	3.6
568.423	3.54
568.764	3.52
569.105	3.56
569.447	3.67
569.788	3.46
570.129	3.84
570.47	3.63
570.811	3.73
571.151	3.55
571.492	3.6
571.833	3.51
572.174	3.38
572.514	3.6
572.855	3.53
573.195	3.49
573.536	3.5
573.876	3.43
574.217	3.49
574.557	3.63
574.898	3.79
575.238	3.61
575.578	3.55
575.918	3.69
576.258	3.67
576.598	3.57
576.938	3.52
577.278	3.62
577.618	3.51
577.958	3.6
578.298	3.6
578.638	3.67
578.977	3.38
579.317	3.41
579.657	3.47
579.996	3.59
580.336	3.52
580.675	3.52
581.014	3.64
581.354	3.67
581.693	3.62
582.032	3.41
582.372	3.55
582.711	3.36
583.05	3.53
583.389	3.74
583.728	3.59
584.067	3.66
584.406	3.72
584.745	3.74
585.083	3.8
585.422	3.7
585.761	3.89
586.1	3.6
586.438	3.79
586.777	3.9
587.115	3.89
587.454	3.72
587.792	3.53
588.13	3.73
588.469	3.57
588.807	3.45
589.145	3.44
589.483	3.62
589.821	3.52
590.159	3.23
590.497	3.85
590.835	3.83
591.173	3.36
591.511	3.76
591.849	3.46
592.187	3.65
592.524	3.89
592.862	3.64
593.2	3.53
593.537	3.76
593.875	3.54
594.212	3.67
594.55	3.52
594.887	3.77
595.224	3.56
595.561	3.55
595.899	3.51
596.236	3.72
596.573	3.56
596.91	3.22
597.247	3.4
597.584	3.94
597.921	3.76
598.258	3.3
598.594	3.44
598.931	3.38
599.268	3.57
599.604	3.48
599.941	3.56
600.277	3.4
600.614	3.5
600.95	3.5
601.287	3.85
601.623	3.39
601.959	3.28
602.296	3.45
602.632	3.66
602.968	3.28
603.304	3.44
603.64	3.32
603.976	3.59
604.312	3.37
604.648	3.38
604.984	3.63
605.319	3.76
605.655	3.49
605.991	3.54
606.326	3.5
606.662	3.54
606.998	3.55
607.333	3.35
607.668	3.57
608.004	3.81
608.339	3.84
608.674	3.58
609.01	3.46
609.345	3.35
609.68	3.66
610.015	3.32
610.35	3.5
610.685	3.71
611.02	3.58
611.355	3.86
611.689	3.53
612.024	3.75
612.359	3.56
612.694	3.53
613.028	3.31
613.363	3.75
613.697	3.68
614.032	3.65
614.366	3.64
614.7	3.81
615.035	3.59
615.369	3.31
615.703	3.42
616.037	3.49
616.371	3.32
616.705	3.16
617.039	3.43
617.373	3.55
617.707	3.3
618.041	3.34
618.375	3.6
618.709	3.72
619.042	3.4
619.376	3.83
619.71	3.88
620.043	3.72
620.377	3.4
620.71	3.77
621.043	3.45
621.377	3.57
621.71	3.59
622.043	3.55
622.376	2.87
622.709	3.66
623.043	3.69
623.376	3.57
623.709	3.53
624.041	3.87
624.374	3.34
624.707	3.43
625.04	3.96
625.373	2.94
625.705	3.62
626.038	3.47
626.37	3.69
626.703	3.49
627.035	3.76
627.368	3.66
627.7	3.35
628.032	3.5
628.365	3.95
628.697	3.39
629.029	3.35
629.361	3.42
629.693	3.64
630.025	3.27
630.357	3.57
630.689	3.78
631.021	3.54
631.353	3.42
631.684	3.18
632.016	3.47
632.348	3.68
632.679	3.45
633.011	3.83
633.342	3.73
633.674	3.35
634.005	3.94
634.336	3.63
634.668	3.8
634.999	3.82
635.33	3.51
635.661	3.79
635.992	3.49
636.323	3.56
636.654	3.65
636.985	3.74
637.316	3.49
637.647	3.54
637.977	3.69
638.308	3.51
638.639	3.16
638.969	3.06
639.3	3.28
639.63	3.02
639.961	3.56
640.291	3.43
640.622	3.41
640.952	3.41
641.282	3.8
641.612	4.03
641.943	3.55
642.273	3.21
642.603	3.62
642.933	3.69
643.263	3.53
643.592	3.38
643.922	3.57
644.252	3.49
644.582	3.11
644.911	3.38
645.241	3.28
645.571	2.94
645.9	2.99
646.23	3.47
646.559	3.26
646.888	3.08
647.218	3.4
647.547	4.05
647.876	3.73
648.205	3.01
648.534	3.45
648.863	3.18
649.192	3.88
649.521	3.24
649.85	3.13
650.179	3.39
650.508	3.07
650.837	3.19
651.165	3.52
651.494	3.22
651.822	3.49
652.151	3.35
652.479	3.62
652.808	3.33
653.136	3.4
653.465	3.11
653.793	3.24
654.121	3.37
654.449	3.61
654.777	3.59
655.105	3.5
655.433	3.22
655.761	3.66
656.089	3.59
656.417	3.54
656.745	3.15
657.073	2.91
657.4	3.86
657.728	3.54
658.056	3.39
658.383	3.76
658.711	3.87
659.038	3.87
659.365	4.22
659.693	3.8
660.02	3.17
660.347	3.53
660.674	3.58
661.001	3.42
661.329	2.77
661.656	3.55
661.982	3.46
662.309	3.05
662.636	3.15
662.963	3.86
663.29	3.68
663.616	3.56
663.943	3.13
664.27	3.66
664.596	3.77
664.923	3.05
665.249	3.27
665.576	3.45
665.902	3.64
666.228	3.79
666.554	3.62
666.881	3.56
667.207	3.43
667.533	3.63
667.859	3.65
668.185	3.52
668.511	3.04
668.837	2.86
669.162	3.49
669.488	2.94
669.814	3.57
670.139	4.16
670.465	3.76
670.791	3.29
671.116	3.88
671.442	3.25
671.767	3.74
672.092	3.68
672.418	3.65
672.743	3.83
673.068	3.54
673.393	3.2
673.718	2.99
674.043	3.49
674.368	3.57
674.693	4.31
675.018	3.49
675.343	3.25
675.667	3.27
675.992	3.18
676.317	3.87
676.641	3.15
676.966	3.96
677.29	4.11
677.615	4.15
677.939	3.52
678.264	3.87
678.588	4
678.912	3.69
679.236	4.33
679.56	2.94
679.885	3.77
680.209	3.99
680.532	3.33
680.856	4.19
681.18	3.29
681.504	3.61
681.828	3.63
682.152	3.01
682.475	3.85
682.799	3.94
683.122	3.78
683.446	2.69
683.769	3.98
684.093	3.14
684.416	5.15
684.739	3.68
685.062	3.54
685.386	3.87
685.709	3.07
686.032	3.39
686.355	4.08
686.678	2.74
687.001	3.34
687.324	4.06
687.646	3.06
687.969	2.62
688.292	3.42
688.614	3.42
688.937	4.08
689.26	3.48
689.582	4.16
689.904	3.69
690.227	3.24
690.549	3.44
690.871	4.14
691.194	3.1
691.516	2.84
691.838	3.88
692.16	2.89
