Data from 0391_chest_Reflection__4__189.txt Node

Date: Fri Dec 15 18:12:53 CST 2023
User: ToomeyLab
Spectrometer: FLMS14357
Trigger mode: 0
Integration Time (sec): 1.000000E-2
Scans to average: 100
Electric dark correction enabled: true
Nonlinearity correction enabled: false
Boxcar width: 0
XAxis mode: Wavelengths
Number of Pixels in Spectrum: 2048
>>>>>Begin Spectral Data<<<<<
189.047	-30.48
189.435	-30.48
189.823	-30.48
190.211	-19.18
190.599	3542.47
190.987	181.56
191.375	-52.22
191.763	-224.82
192.151	192.3
192.538	62.04
192.926	83.71
193.314	44.62
193.702	119
194.089	-37.56
194.477	-33.82
194.864	-270.7
195.252	75.21
195.639	96.88
196.027	1.17
196.414	173.14
196.801	550.88
197.189	92.6
197.576	113.7
197.963	-91.74
198.351	-48.03
198.738	38.7
199.125	22.96
199.512	-42.83
199.899	7.63
200.286	17.93
200.673	10.99
201.06	8.11
201.447	-7.6
201.833	-2.39
202.22	5.03
202.607	113.22
202.994	-6.75
203.38	4.26
203.767	21.2
204.154	25.29
204.54	4.61
204.927	-75.69
205.313	-9.56
205.699	35.22
206.086	27.7
206.472	17.76
206.858	7.39
207.245	-53.5
207.631	7.07
208.017	11.06
208.403	27.77
208.789	31.95
209.175	32.77
209.561	1.61
209.947	15.58
210.333	-9.99
210.719	39.5
211.105	5.91
211.491	-68.12
211.876	40.35
212.262	24.24
212.648	11.62
213.034	24
213.419	-20.23
213.805	27.55
214.19	-26.08
214.576	8.09
214.961	-19.45
215.346	-33.41
215.732	1.66
216.117	8.72
216.502	-44.15
216.888	-12.03
217.273	28.05
217.658	-10.34
218.043	17.19
218.428	-18.34
218.813	7.01
219.198	-26.04
219.583	17.02
219.968	10.72
220.353	-23.74
220.738	18.31
221.122	10.82
221.507	-32.44
221.892	-35.6
222.276	-24.35
222.661	-8.6
223.046	22.15
223.43	16.47
223.815	11.91
224.199	-18.7
224.583	1.26
224.968	4.49
225.352	10.69
225.736	-0.57
226.121	-7.47
226.505	2.01
226.889	6.32
227.273	-3.46
227.657	7.87
228.041	3.73
228.425	-2.07
228.809	4.83
229.193	3.35
229.577	3.28
229.961	2.66
230.344	3.27
230.728	3.84
231.112	4.66
231.495	4.09
231.879	4.86
232.263	5.09
232.646	3.4
233.03	3.61
233.413	3.36
233.797	3.75
234.18	4.77
234.563	6.65
234.946	3.04
235.33	2.81
235.713	2.72
236.096	3.69
236.479	4.1
236.862	1.57
237.245	4.29
237.628	3.63
238.011	6.2
238.394	5.76
238.777	5.09
239.16	4.12
239.543	3.51
239.925	4.88
240.308	4.88
240.691	5.02
241.073	6.17
241.456	3.69
241.838	4.12
242.221	2.88
242.603	4.54
242.986	3.82
243.368	4.77
243.75	4.66
244.133	4.35
244.515	4.56
244.897	4.58
245.279	4.52
245.661	4.56
246.043	2.32
246.425	3
246.807	3.76
247.189	4.66
247.571	4.31
247.953	4.75
248.335	3.78
248.717	4.44
249.098	4.21
249.48	4.25
249.862	4.53
250.243	4.2
250.625	4.26
251.006	4.18
251.388	2.59
251.769	3.69
252.151	5.06
252.532	3.96
252.913	3.83
253.295	3.58
253.676	4.22
254.057	4.24
254.438	4.07
254.819	3.5
255.2	3.34
255.581	3.7
255.962	2.53
256.343	3.87
256.724	3.32
257.105	3.31
257.486	3.05
257.867	5.04
258.247	3.88
258.628	4.02
259.009	2.69
259.389	3.47
259.77	3.34
260.15	4.02
260.531	3.18
260.911	4.73
261.292	4.17
261.672	3.95
262.052	3.83
262.432	4.25
262.813	4.1
263.193	4.05
263.573	3.64
263.953	3.41
264.333	4.75
264.713	4.39
265.093	3.22
265.473	3.67
265.853	2.56
266.233	3.29
266.612	3
266.992	2.96
267.372	4.12
267.752	4.37
268.131	4.04
268.511	4.41
268.89	4.16
269.27	3.74
269.649	3.65
270.029	3.33
270.408	4.21
270.787	3.77
271.167	3.98
271.546	4.27
271.925	3.1
272.304	3.45
272.683	3.89
273.062	3.58
273.441	3.33
273.82	3.41
274.199	3.57
274.578	4.06
274.957	3.92
275.336	3.81
275.715	3.63
276.093	3.01
276.472	4.26
276.851	3.69
277.229	3.24
277.608	3.18
277.986	3.68
278.365	3.73
278.743	3.53
279.122	3.73
279.5	3.48
279.878	4.13
280.257	3.26
280.635	3.22
281.013	3.5
281.391	3.42
281.769	4.19
282.147	4.42
282.525	4.09
282.903	3.25
283.281	3.79
283.659	3.75
284.037	3.66
284.415	3.59
284.792	4.04
285.17	3.22
285.548	3
285.925	3.45
286.303	3.76
286.68	3.57
287.058	3.51
287.435	3.67
287.813	3.6
288.19	3.49
288.567	3.63
288.945	4.07
289.322	3.72
289.699	3.58
290.076	3.76
290.453	3.35
290.83	3.16
291.207	3.06
291.584	3.54
291.961	3.6
292.338	3.49
292.715	3.87
293.092	3.4
293.469	3.25
293.845	4.46
294.222	3.38
294.599	3.62
294.975	3.18
295.352	4.18
295.728	3.33
296.105	3.42
296.481	4.12
296.858	3.86
297.234	3.44
297.61	3.73
297.986	3.54
298.363	4.01
298.739	3.95
299.115	3.61
299.491	3.47
299.867	3.47
300.243	3.74
300.619	3.35
300.995	3.5
301.371	3.94
301.746	3.54
302.122	3.85
302.498	3.69
302.874	3.31
303.249	3.32
303.625	3.43
304	4.13
304.376	3.75
304.751	2.99
305.127	4.45
305.502	3.47
305.878	3.11
306.253	3.48
306.628	4.71
307.003	3.63
307.378	3.32
307.754	3.87
308.129	2.87
308.504	3.66
308.879	3.5
309.254	3.88
309.629	4.15
310.003	3.93
310.378	3.51
310.753	3.88
311.128	3.85
311.502	3.79
311.877	3.79
312.252	3.15
312.626	3.6
313.001	3.49
313.375	3.68
313.75	3.18
314.124	3.68
314.498	3.59
314.873	2.97
315.247	3.12
315.621	3.68
315.995	2.89
316.369	3.18
316.743	3.77
317.117	4.17
317.491	3.25
317.865	3.37
318.239	3.53
318.613	4.11
318.987	3.52
319.361	2.86
319.734	3.9
320.108	3.79
320.482	3.24
320.855	3.8
321.229	3.16
321.602	3.72
321.976	4.1
322.349	4.16
322.723	3.27
323.096	4.46
323.469	3.71
323.843	3.05
324.216	3.44
324.589	3.18
324.962	3.43
325.335	3.11
325.708	3.76
326.081	3.86
326.454	3.4
326.827	3.34
327.2	4.1
327.573	3.7
327.945	3.77
328.318	3.29
328.691	3.2
329.063	3.44
329.436	3.59
329.809	3.61
330.181	3.26
330.553	3.44
330.926	3.66
331.298	3.87
331.671	3.79
332.043	3.99
332.415	3.67
332.787	3.42
333.159	4.31
333.532	4.02
333.904	3.94
334.276	3.69
334.648	3.46
335.02	3.39
335.391	3.3
335.763	3.65
336.135	3.46
336.507	3.82
336.879	3.94
337.25	3.16
337.622	3.77
337.993	3.77
338.365	3.57
338.736	3.87
339.108	3.89
339.479	3.28
339.851	3.57
340.222	3.73
340.593	3.6
340.964	3.57
341.336	4.3
341.707	3.13
342.078	4.27
342.449	4.06
342.82	3.23
343.191	3.64
343.562	4.37
343.933	3.6
344.303	3.49
344.674	3.7
345.045	3.69
345.416	4.19
345.786	3.32
346.157	3.61
346.527	2.87
346.898	3.42
347.268	4.02
347.639	3.63
348.009	4.02
348.38	3.35
348.75	3.48
349.12	3.51
349.49	4.13
349.861	3.74
350.231	3
350.601	3.77
350.971	3.74
351.341	4.1
351.711	3.78
352.081	3.66
352.45	3.36
352.82	4.02
353.19	3.9
353.56	3.41
353.929	3.91
354.299	3.81
354.669	3.61
355.038	4.21
355.408	3.18
355.777	3.9
356.147	3.16
356.516	3.43
356.885	3.72
357.254	3.66
357.624	4.12
357.993	3.56
358.362	3.67
358.731	2.96
359.1	3.58
359.469	3.79
359.838	4.21
360.207	3.36
360.576	3.23
360.945	3.75
361.314	4.38
361.682	3.24
362.051	3.32
362.42	3.78
362.788	3.71
363.157	3.74
363.525	3.83
363.894	3.67
364.262	3.61
364.631	3.69
364.999	3.8
365.367	3.12
365.735	4.23
366.104	3.83
366.472	3.96
366.84	3.45
367.208	3.77
367.576	4.18
367.944	4.12
368.312	3.39
368.68	3.25
369.048	3.88
369.416	3.61
369.783	3.49
370.151	3.98
370.519	3.96
370.886	3.76
371.254	3.56
371.621	3.85
371.989	3.68
372.356	3.18
372.724	3.68
373.091	3.54
373.458	3.58
373.826	3.88
374.193	3.92
374.56	3.78
374.927	3.96
375.294	3.99
375.661	3.55
376.028	3.52
376.395	3.87
376.762	3.82
377.129	4.08
377.496	3.92
377.863	4.09
378.229	3.36
378.596	3.84
378.963	3.48
379.329	3.54
379.696	3.87
380.062	3.86
380.429	3.39
380.795	3.68
381.161	3.75
381.528	3.8
381.894	4.05
382.26	3.49
382.626	3.93
382.993	3.64
383.359	3.91
383.725	3.52
384.091	3.7
384.457	4.12
384.823	3.54
385.188	4.09
385.554	3.66
385.92	3.99
386.286	4.05
386.651	4.18
387.017	4.13
387.383	3.9
387.748	3.55
388.114	4.31
388.479	3.78
388.845	4.04
389.21	3.83
389.575	3.99
389.94	3.85
390.306	3.92
390.671	4.14
391.036	3.72
391.401	3.63
391.766	4.05
392.131	3.84
392.496	3.95
392.861	3.87
393.226	4.12
393.591	3.93
393.956	3.76
394.32	3.91
394.685	3.7
395.05	4.05
395.414	3.92
395.779	3.8
396.143	4.12
396.508	3.91
396.872	3.97
397.236	3.98
397.601	3.87
397.965	4.17
398.329	3.97
398.694	3.87
399.058	4.13
399.422	3.84
399.786	3.91
400.15	4.12
400.514	4
400.878	3.84
401.242	4.26
401.605	4
401.969	4.13
402.333	3.9
402.697	4.04
403.06	4.02
403.424	3.91
403.787	3.61
404.151	3.88
404.514	3.88
404.878	3.81
405.241	4.04
405.604	3.83
405.968	3.97
406.331	4.11
406.694	4.12
407.057	4.06
407.42	4.23
407.783	3.82
408.146	3.94
408.509	3.95
408.872	3.99
409.235	4.04
409.598	4.14
409.961	3.96
410.323	3.94
410.686	3.86
411.049	3.92
411.411	4.04
411.774	4.22
412.136	4.2
412.499	3.84
412.861	4
413.223	4
413.586	3.98
413.948	4.03
414.31	4.04
414.672	4.1
415.035	3.85
415.397	4.38
415.759	3.94
416.121	4.25
416.483	4.17
416.845	4.25
417.206	4.1
417.568	4.07
417.93	3.86
418.292	4.07
418.653	4.03
419.015	4.22
419.377	4.01
419.738	4.08
420.1	3.97
420.461	3.96
420.822	4.15
421.184	4.11
421.545	4.12
421.906	3.93
422.267	4
422.629	4.06
422.99	3.96
423.351	3.86
423.712	4.07
424.073	4.12
424.434	3.92
424.795	3.98
425.155	4.06
425.516	3.87
425.877	4.06
426.238	3.89
426.598	4.05
426.959	4.07
427.32	3.99
427.68	4.03
428.041	4.21
428.401	4.13
428.761	4.04
429.122	4.21
429.482	3.88
429.842	4.16
430.202	4.23
430.563	4.03
430.923	4.08
431.283	4.29
431.643	4.03
432.003	3.98
432.363	4.24
432.722	4.05
433.082	4.03
433.442	4.17
433.802	4.03
434.161	4.2
434.521	4.33
434.881	4.36
435.24	4.09
435.6	4.06
435.959	4.18
436.319	4.13
436.678	4.05
437.037	4.24
437.396	4.19
437.756	4.16
438.115	3.9
438.474	4.46
438.833	4.04
439.192	4.2
439.551	4.32
439.91	4.19
440.269	4.29
440.628	4.07
440.987	4.22
441.345	3.89
441.704	4.21
442.063	4.15
442.421	4.08
442.78	4.21
443.138	4.01
443.497	4.09
443.855	4.11
444.214	4.15
444.572	4.33
444.93	4.29
445.288	4.25
445.647	4.43
446.005	4
446.363	4.19
446.721	4.38
447.079	4.13
447.437	4.17
447.795	4.19
448.153	3.96
448.51	4.17
448.868	4.22
449.226	4.18
449.584	4.15
449.941	4.27
450.299	4.21
450.656	4.22
451.014	4.18
451.371	4.08
451.729	4.1
452.086	4.33
452.443	4.08
452.801	4.27
453.158	4.29
453.515	4.15
453.872	4.56
454.229	4.15
454.586	4.24
454.943	4.36
455.3	4.33
455.657	4.24
456.014	4.17
456.371	4.19
456.727	4.34
457.084	4.46
457.441	4.36
457.797	4.35
458.154	4.47
458.51	4.27
458.867	4.3
459.223	4.44
459.58	4.28
459.936	4.37
460.292	4.31
460.648	4.32
461.005	4.21
461.361	4.33
461.717	4.26
462.073	4.12
462.429	4.29
462.785	4.31
463.141	4.19
463.496	4.28
463.852	4.4
464.208	4.25
464.564	4.39
464.919	4.47
465.275	4.37
465.631	4.49
465.986	4.39
466.342	4.28
466.697	4.5
467.052	4.43
467.408	4.25
467.763	4.31
468.118	4.29
468.473	4.4
468.829	4.36
469.184	4.2
469.539	4.31
469.894	4.22
470.249	4.45
470.603	4.59
470.958	4.62
471.313	4.39
471.668	4.61
472.023	4.29
472.377	4.32
472.732	4.33
473.086	4.25
473.441	4.25
473.795	4.51
474.15	4.4
474.504	4.29
474.859	4.45
475.213	4.35
475.567	4.32
475.921	4.04
476.275	4.39
476.63	4.37
476.984	4.5
477.338	4.4
477.692	4.18
478.045	4.35
478.399	4.47
478.753	4.64
479.107	4.53
479.461	4.23
479.814	4.43
480.168	4.46
480.521	4.43
480.875	4.54
481.228	4.41
481.582	4.46
481.935	4.42
482.289	4.36
482.642	4.39
482.995	4.33
483.348	4.37
483.701	4.31
484.055	4.44
484.408	4.4
484.761	4.34
485.114	4.35
485.466	4.24
485.819	4.21
486.172	4.18
486.525	4.23
486.878	4.26
487.23	4.24
487.583	4.33
487.936	4.35
488.288	4.37
488.641	4.43
488.993	4.36
489.345	4.3
489.698	4.31
490.05	4.29
490.402	4.34
490.754	4.34
491.107	4.42
491.459	4.36
491.811	4.38
492.163	4.49
492.515	4.4
492.866	4.53
493.218	4.46
493.57	4.37
493.922	4.28
494.274	4.44
494.625	4.44
494.977	4.42
495.328	4.45
495.68	4.51
496.031	4.59
496.383	4.54
496.734	4.57
497.086	4.67
497.437	4.59
497.788	4.6
498.139	4.54
498.49	4.6
498.842	4.54
499.193	4.53
499.544	4.5
499.894	4.52
500.245	4.64
500.596	4.62
500.947	4.63
501.298	4.55
501.648	4.64
501.999	4.74
502.35	4.74
502.7	4.58
503.051	4.43
503.401	4.58
503.752	4.67
504.102	4.48
504.452	4.7
504.803	4.54
505.153	4.68
505.503	4.66
505.853	4.7
506.203	4.7
506.553	4.49
506.903	4.58
507.253	4.68
507.603	4.64
507.953	4.84
508.303	4.78
508.652	4.59
509.002	4.75
509.352	4.82
509.701	4.65
510.051	4.67
510.4	4.62
510.75	4.64
511.099	4.83
511.449	4.8
511.798	4.68
512.147	4.7
512.496	4.68
512.846	4.69
513.195	4.72
513.544	4.58
513.893	4.77
514.242	4.6
514.591	4.9
514.939	4.67
515.288	4.72
515.637	4.8
515.986	4.8
516.334	4.93
516.683	4.92
517.032	4.81
517.38	4.84
517.729	4.92
518.077	4.69
518.426	4.84
518.774	4.83
519.122	4.7
519.47	4.7
519.819	4.76
520.167	4.83
520.515	4.86
520.863	4.78
521.211	4.82
521.559	4.9
521.907	4.75
522.255	4.81
522.602	4.84
522.95	4.82
523.298	4.84
523.645	4.92
523.993	4.88
524.341	5
524.688	4.92
525.036	4.9
525.383	4.92
525.73	5.11
526.078	4.98
526.425	4.9
526.772	5
527.119	4.85
527.466	4.83
527.814	4.9
528.161	4.83
528.508	4.86
528.854	4.89
529.201	4.89
529.548	4.86
529.895	4.9
530.242	4.84
530.588	4.8
530.935	4.79
531.282	4.84
531.628	4.78
531.975	4.91
532.321	4.87
532.667	4.95
533.014	4.94
533.36	4.99
533.706	5.03
534.052	5.03
534.399	4.94
534.745	4.96
535.091	5.02
535.437	5.07
535.783	5.02
536.129	5.07
536.474	5.1
536.82	5.07
537.166	5.22
537.512	5.13
537.857	5.09
538.203	5.23
538.549	5.21
538.894	5.14
539.239	5.13
539.585	5.13
539.93	5.13
540.276	5.25
540.621	5.3
540.966	5.21
541.311	5.11
541.656	5.17
542.001	5.3
542.346	5.38
542.691	5.3
543.036	5.2
543.381	5.14
543.726	5.16
544.071	5.25
544.415	5.31
544.76	5.23
545.105	5.32
545.449	5.27
545.794	5.39
546.138	5.36
546.483	5.47
546.827	5.5
547.171	5.5
547.516	5.57
547.86	5.38
548.204	5.47
548.548	5.43
548.892	5.59
549.236	5.38
549.58	5.56
549.924	5.69
550.268	5.73
550.612	5.72
550.956	5.74
551.3	5.58
551.643	5.81
551.987	5.62
552.33	5.63
552.674	5.79
553.017	5.81
553.361	5.62
553.704	5.75
554.048	5.64
554.391	5.66
554.734	5.72
555.077	5.76
555.42	5.66
555.764	5.6
556.107	5.78
556.45	5.76
556.793	5.73
557.135	5.8
557.478	6.15
557.821	5.91
558.164	5.67
558.507	5.93
558.849	5.85
559.192	5.98
559.534	6.11
559.877	6.28
560.219	5.88
560.562	6.02
560.904	6.06
561.246	6.08
561.589	6.09
561.931	6.03
562.273	5.94
562.615	6.01
562.957	6.08
563.299	5.99
563.641	6.09
563.983	6.12
564.325	6.03
564.667	6.2
565.008	5.99
565.35	6.26
565.692	6.03
566.033	6.06
566.375	6.36
566.716	6.39
567.058	6.15
567.399	6.15
567.741	6.09
568.082	6.34
568.423	6.18
568.764	6.15
569.105	6.41
569.447	6.43
569.788	6.33
570.129	6.53
570.47	6.39
570.811	6.59
571.151	6.48
571.492	6.63
571.833	6.52
572.174	6.59
572.514	6.56
572.855	6.28
573.195	6.49
573.536	6.59
573.876	6.37
574.217	6.49
574.557	6.64
574.898	6.78
575.238	6.76
575.578	6.57
575.918	6.78
576.258	6.87
576.598	6.8
576.938	6.74
577.278	6.65
577.618	6.71
577.958	6.74
578.298	6.68
578.638	6.66
578.977	6.82
579.317	6.83
579.657	6.96
579.996	7
580.336	6.89
580.675	6.96
581.014	6.98
581.354	7
581.693	7.13
582.032	7.15
582.372	7.03
582.711	7.16
583.05	7.09
583.389	7.17
583.728	7.12
584.067	7.27
584.406	7.34
584.745	7.41
585.083	7.57
585.422	7.39
585.761	7.48
586.1	7.29
586.438	7.62
586.777	7.65
587.115	7.64
587.454	7.38
587.792	7.3
588.13	7.64
588.469	7.55
588.807	7.54
589.145	7.23
589.483	7.67
589.821	7.39
590.159	7.51
590.497	8.07
590.835	7.84
591.173	7.76
591.511	7.79
591.849	7.82
592.187	8.01
592.524	7.98
592.862	7.93
593.2	7.74
593.537	7.8
593.875	7.92
594.212	7.68
594.55	7.84
594.887	7.76
595.224	7.99
595.561	7.82
595.899	7.96
596.236	8.07
596.573	8.07
596.91	7.97
597.247	8.1
597.584	8.2
597.921	8.12
598.258	8.06
598.594	8.2
598.931	8.31
599.268	8.17
599.604	8.21
599.941	8.34
600.277	8.31
600.614	8.17
600.95	8.31
601.287	8.24
601.623	8.23
601.959	8.39
602.296	8.5
602.632	8.59
602.968	8.53
603.304	8.74
603.64	8.57
603.976	8.57
604.312	8.5
604.648	8.48
604.984	8.82
605.319	8.92
605.655	8.67
605.991	8.72
606.326	8.76
606.662	8.62
606.998	8.53
607.333	8.98
607.668	8.6
608.004	8.76
608.339	9.05
608.674	9.33
609.01	8.73
609.345	9.04
609.68	9.43
610.015	8.97
610.35	9.1
610.685	8.96
611.02	9.17
611.355	9.34
611.689	9.13
612.024	9.09
612.359	9.12
612.694	9.2
613.028	8.89
613.363	9.34
613.697	9.39
614.032	9.75
614.366	9.35
614.7	9.59
615.035	9.45
615.369	9.53
615.703	9.42
616.037	9.49
616.371	8.89
616.705	9.35
617.039	9.72
617.373	9.79
617.707	9.54
618.041	9.69
618.375	9.41
618.709	9.97
619.042	9.69
619.376	10.06
619.71	10.11
620.043	9.68
620.377	9.9
620.71	9.8
621.043	9.54
621.377	9.65
621.71	10.11
622.043	9.89
622.376	9.82
622.709	10
623.043	10.31
623.376	10.49
623.709	10.45
624.041	10.67
624.374	9.95
624.707	9.82
625.04	10.56
625.373	9.85
625.705	9.96
626.038	10.26
626.37	10.17
626.703	10.3
627.035	10.63
627.368	10.22
627.7	10.51
628.032	10.27
628.365	10.99
628.697	10.55
629.029	10.48
629.361	10.34
629.693	10.71
630.025	10.66
630.357	10.83
630.689	11.13
631.021	10.75
631.353	10.75
631.684	10.51
632.016	10.41
632.348	10.93
632.679	11.07
633.011	10.83
633.342	11.16
633.674	10.91
634.005	11.18
634.336	10.93
634.668	11.54
634.999	11.06
635.33	11.54
635.661	11.33
635.992	10.96
636.323	11.2
636.654	11.26
636.985	11.26
637.316	11.15
637.647	11.06
637.977	11.68
638.308	11.33
638.639	11
638.969	11.44
639.3	10.99
639.63	11.02
639.961	11.36
640.291	11.69
640.622	11.81
640.952	12.1
641.282	11.85
641.612	11.84
641.943	11.85
642.273	11.73
642.603	12.07
642.933	11.89
643.263	12.38
643.592	11.72
643.922	11.3
644.252	11.63
644.582	12.14
644.911	11.56
645.241	12.29
645.571	11.92
645.9	11.71
646.23	12.21
646.559	12.07
646.888	12.24
647.218	12.17
647.547	12.35
647.876	11.99
648.205	12.43
648.534	12
648.863	12.4
649.192	12.32
649.521	12.55
649.85	11.93
650.179	12.41
650.508	12.02
650.837	12.26
651.165	12.44
651.494	12.71
651.822	12.45
652.151	12.24
652.479	12.39
652.808	12.49
653.136	12.33
653.465	12.49
653.793	12.6
654.121	12.72
654.449	12.39
654.777	12.8
655.105	12.99
655.433	12.56
655.761	12.91
656.089	13.33
656.417	13.21
656.745	12.9
657.073	13.03
657.4	13.58
657.728	12.99
658.056	12.91
658.383	12.83
658.711	13.38
659.038	13.23
659.365	13.31
659.693	13.2
660.02	13.3
660.347	13.45
660.674	13.18
661.001	13.6
661.329	13.2
661.656	13.49
661.982	13.93
662.309	13.66
662.636	13.2
662.963	14.28
663.29	13.99
663.616	13.98
663.943	13.04
664.27	13.52
664.596	14
664.923	13.83
665.249	13.55
665.576	14.02
665.902	14.06
666.228	13.63
666.554	13.89
666.881	13.98
667.207	14.21
667.533	14.55
667.859	14.71
668.185	14.4
668.511	13.64
668.837	13.6
669.162	14.51
669.488	13.55
669.814	14.43
670.139	14.94
670.465	15.01
670.791	14.97
671.116	14.6
671.442	13.9
671.767	14.66
672.092	14.38
672.418	14.48
672.743	14.39
673.068	14.08
673.393	14.1
673.718	14.38
674.043	14.01
674.368	14.72
674.693	15.21
675.018	15.04
675.343	14.24
675.667	14.69
675.992	14.74
676.317	15.16
676.641	14.95
676.966	14.87
677.29	14.84
677.615	15.05
677.939	14.94
678.264	14.85
678.588	14.87
678.912	14.96
679.236	15.61
679.56	15
679.885	15.04
680.209	15.28
680.532	15.48
680.856	15.62
681.18	15.3
681.504	16.41
681.828	15.86
682.152	14.9
682.475	15.57
682.799	15.37
683.122	15.76
683.446	15.54
683.769	15.8
684.093	15.59
684.416	16.13
684.739	15.11
685.062	15.46
685.386	16.83
685.709	15.65
686.032	15.4
686.355	15.9
686.678	15.93
687.001	16.42
687.324	16.35
687.646	15.5
687.969	15.28
688.292	16.56
688.614	15.21
