Data from 0391_forehead_Reflection__3__198.txt Node

Date: Fri Dec 15 18:15:30 CST 2023
User: ToomeyLab
Spectrometer: FLMS14357
Trigger mode: 0
Integration Time (sec): 1.000000E-2
Scans to average: 100
Electric dark correction enabled: true
Nonlinearity correction enabled: false
Boxcar width: 0
XAxis mode: Wavelengths
Number of Pixels in Spectrum: 2048
>>>>>Begin Spectral Data<<<<<
189.047	-356.99
189.435	-356.99
189.823	-356.99
190.211	19.18
190.599	-1252.05
190.987	120.92
191.375	-23.13
191.763	43.95
192.151	329.3
192.538	74.26
192.926	31.51
193.314	49.64
193.702	106.85
194.089	95.35
194.477	307.72
194.864	36.34
195.252	162.05
195.639	36.73
196.027	68.22
196.414	173.56
196.801	567.25
197.189	164.95
197.576	69.89
197.963	-89.45
198.351	-150.21
198.738	9.57
199.125	11.78
199.512	-30.33
199.899	-0.44
200.286	0.85
200.673	3.89
201.06	4.24
201.447	18.52
201.833	41.59
202.22	14.56
202.607	39.25
202.994	49.29
203.38	21.81
203.767	8.17
204.154	61.19
204.54	43.02
204.927	39.93
205.313	6.62
205.699	15.42
206.086	32.98
206.472	45.4
206.858	9.11
207.245	-3.84
207.631	-10.05
208.017	-8.84
208.403	-12.59
208.789	-2.19
209.175	43.64
209.561	-8.98
209.947	46.15
210.333	-18.16
210.719	42.76
211.105	29
211.491	-1.8
211.876	46.83
212.262	12.66
212.648	9.37
213.034	35.58
213.419	-5.59
213.805	10.96
214.19	-27.22
214.576	10.4
214.961	-19.84
215.346	-23.22
215.732	-5.48
216.117	33.62
216.502	29.25
216.888	41.46
217.273	37.71
217.658	-1.28
218.043	-3.75
218.428	3.82
218.813	-18.48
219.198	16.98
219.583	12.76
219.968	13.28
220.353	0.9
220.738	15.65
221.122	30.12
221.507	9.43
221.892	-47.51
222.276	-29.47
222.661	5.22
223.046	18.88
223.43	13.12
223.815	11.01
224.199	-7.47
224.583	20.4
224.968	10.29
225.352	11.79
225.736	3
226.121	-14.13
226.505	8.65
226.889	10.45
227.273	-3.88
227.657	11.08
228.041	4.02
228.425	3.79
228.809	8.96
229.193	3.68
229.577	5.17
229.961	4.83
230.344	5.14
230.728	4.95
231.112	5.09
231.495	4.74
231.879	5.08
232.263	5.7
232.646	6.41
233.03	4.69
233.413	4.08
233.797	7.72
234.18	6.76
234.563	5.21
234.946	3.1
235.33	5.36
235.713	4.85
236.096	4.96
236.479	4.48
236.862	3.4
237.245	6.81
237.628	3.73
238.011	4.13
238.394	8
238.777	4.9
239.16	4.01
239.543	5.38
239.925	4.97
240.308	5.28
240.691	5.19
241.073	5.19
241.456	6.42
241.838	4.11
242.221	5.8
242.603	6.33
242.986	6.16
243.368	5.59
243.75	6.55
244.133	5.4
244.515	6.1
244.897	6.19
245.279	6.38
245.661	5.07
246.043	5.55
246.425	4.62
246.807	6.91
247.189	5.54
247.571	6.69
247.953	6.48
248.335	6.49
248.717	6.37
249.098	5.9
249.48	6.03
249.862	5.66
250.243	6.02
250.625	5.8
251.006	6.04
251.388	5.22
251.769	5.85
252.151	6.32
252.532	5.03
252.913	5.25
253.295	4.85
253.676	5.58
254.057	6.35
254.438	5.94
254.819	5.22
255.2	5.74
255.581	6.9
255.962	5.52
256.343	6.43
256.724	5.21
257.105	4.32
257.486	4.63
257.867	6.97
258.247	5.45
258.628	6.38
259.009	5.45
259.389	5.15
259.77	5.8
260.15	5.42
260.531	4.92
260.911	6.21
261.292	5.58
261.672	6
262.052	5.85
262.432	6.07
262.813	5.96
263.193	5.79
263.573	4.89
263.953	5.73
264.333	6.32
264.713	6.17
265.093	5
265.473	6.58
265.853	4.92
266.233	6.01
266.612	4.15
266.992	4.08
267.372	6.79
267.752	5.51
268.131	5.98
268.511	6.37
268.89	5.76
269.27	5.82
269.649	5.3
270.029	5.53
270.408	6.63
270.787	5.7
271.167	6.07
271.546	6.19
271.925	4.87
272.304	5.7
272.683	5.88
273.062	5.28
273.441	5.49
273.82	5.23
274.199	5.46
274.578	5.97
274.957	5.68
275.336	5.72
275.715	5
276.093	5.81
276.472	5.58
276.851	4.99
277.229	5.38
277.608	5.01
277.986	5.28
278.365	5.63
278.743	5.6
279.122	5.86
279.5	5.38
279.878	5.89
280.257	5.83
280.635	4.96
281.013	5.66
281.391	5.87
281.769	5.66
282.147	5.91
282.525	6.22
282.903	5.43
283.281	6.01
283.659	6.04
284.037	6.07
284.415	5.54
284.792	5.85
285.17	5.02
285.548	5.28
285.925	5.64
286.303	5.5
286.68	5.19
287.058	5.48
287.435	5.83
287.813	5.91
288.19	5.82
288.567	5.68
288.945	6.05
289.322	5.94
289.699	5.86
290.076	5.71
290.453	6.17
290.83	5.83
291.207	5.89
291.584	6.09
291.961	6.04
292.338	6.12
292.715	6.53
293.092	6.13
293.469	6.31
293.845	6.93
294.222	5.82
294.599	6.32
294.975	6.37
295.352	6.79
295.728	5.72
296.105	6.22
296.481	6.25
296.858	5.93
297.234	6.4
297.61	6.31
297.986	6.75
298.363	6.78
298.739	6.72
299.115	6.81
299.491	6.41
299.867	6.79
300.243	6.73
300.619	6.37
300.995	6.93
301.371	7.03
301.746	6.45
302.122	7.31
302.498	6.72
302.874	7.34
303.249	7.12
303.625	7.36
304	7.28
304.376	7.44
304.751	6.84
305.127	7.8
305.502	6.86
305.878	7.29
306.253	7.32
306.628	8.15
307.003	7.33
307.378	7.92
307.754	7.82
308.129	7.06
308.504	7.81
308.879	7.66
309.254	7.83
309.629	7.7
310.003	7.33
310.378	8.25
310.753	8
311.128	8.05
311.502	8.25
311.877	8.18
312.252	7.54
312.626	7.77
313.001	8.26
313.375	8.61
313.75	8.12
314.124	8.22
314.498	7.84
314.873	8.58
315.247	8.08
315.621	8.46
315.995	7.71
316.369	8.55
316.743	8.5
317.117	8.75
317.491	8.05
317.865	8.07
318.239	8.5
318.613	8.84
318.987	8.6
319.361	8.44
319.734	8.99
320.108	8.3
320.482	8.79
320.855	9.14
321.229	8.64
321.602	8.18
321.976	9.1
322.349	8.7
322.723	8.44
323.096	9.58
323.469	8.09
323.843	8.61
324.216	9.11
324.589	8.85
324.962	9.01
325.335	9.13
325.708	9.23
326.081	8.89
326.454	9.29
326.827	9.12
327.2	9.07
327.573	9.54
327.945	9.64
328.318	9.7
328.691	8.53
329.063	9.07
329.436	9.33
329.809	9.7
330.181	9.2
330.553	9
330.926	9.72
331.298	9.34
331.671	9.5
332.043	9.85
332.415	9.42
332.787	9.55
333.159	10.22
333.532	9.63
333.904	9.98
334.276	10.14
334.648	9.96
335.02	9.77
335.391	9.89
335.763	10.2
336.135	9.89
336.507	10.38
336.879	9.89
337.25	9.68
337.622	9.24
337.993	9.94
338.365	10.32
338.736	10.02
339.108	10.3
339.479	9.72
339.851	9.95
340.222	10.2
340.593	10.11
340.964	10.19
341.336	10.93
341.707	10.22
342.078	10.86
342.449	10.71
342.82	10.38
343.191	10.03
343.562	10.17
343.933	10.33
344.303	10.4
344.674	10.32
345.045	10.39
345.416	10.65
345.786	10.24
346.157	10.71
346.527	10.12
346.898	10.01
347.268	10.71
347.639	10.45
348.009	10.86
348.38	10.39
348.75	10.47
349.12	10.89
349.49	10.5
349.861	10.94
350.231	10.62
350.601	10.67
350.971	10.7
351.341	10.42
351.711	10.72
352.081	10.63
352.45	10.92
352.82	11.61
353.19	10.75
353.56	10.85
353.929	11.83
354.299	10.75
354.669	11.24
355.038	11.12
355.408	10.97
355.777	10.85
356.147	10.87
356.516	11.21
356.885	11.08
357.254	11.25
357.624	11.66
357.993	11.36
358.362	10.81
358.731	11.22
359.1	11.4
359.469	11.27
359.838	11.44
360.207	11.34
360.576	11.56
360.945	11.15
361.314	11.37
361.682	10.99
362.051	11.28
362.42	11.29
362.788	11.44
363.157	11.34
363.525	11.46
363.894	11.56
364.262	11.38
364.631	11.42
364.999	11.72
365.367	11.46
365.735	12.53
366.104	11.86
366.472	11.63
366.84	11.66
367.208	11.33
367.576	12.14
367.944	11.94
368.312	11.41
368.68	11.48
369.048	12.09
369.416	11.69
369.783	11.77
370.151	12.01
370.519	12.36
370.886	12.31
371.254	11.55
371.621	12.26
371.989	12.27
372.356	11.64
372.724	11.81
373.091	12.11
373.458	12.28
373.826	12.16
374.193	12.29
374.56	12.51
374.927	12.12
375.294	12.35
375.661	12.16
376.028	12.26
376.395	12.14
376.762	12.4
377.129	12.22
377.496	12.15
377.863	12.44
378.229	12.03
378.596	12.65
378.963	12.39
379.329	12.24
379.696	12.57
380.062	12.46
380.429	12.56
380.795	12.45
381.161	12.63
381.528	12.91
381.894	12.84
382.26	12.63
382.626	12.84
382.993	12.45
383.359	12.98
383.725	12.77
384.091	12.78
384.457	12.87
384.823	12.49
385.188	12.96
385.554	12.66
385.92	13.06
386.286	12.99
386.651	13.22
387.017	12.94
387.383	12.94
387.748	13.2
388.114	13.1
388.479	12.93
388.845	12.92
389.21	13.24
389.575	13.42
389.94	13.07
390.306	13.16
390.671	13.16
391.036	12.89
391.401	12.89
391.766	13.09
392.131	13.4
392.496	13.42
392.861	13.43
393.226	13.09
393.591	13.38
393.956	13.23
394.32	13.27
394.685	13.11
395.05	13.48
395.414	13.2
395.779	13.2
396.143	13.5
396.508	13.52
396.872	13.67
397.236	13.62
397.601	13.69
397.965	13.29
398.329	13.41
398.694	13.42
399.058	13.66
399.422	13.75
399.786	13.84
400.15	13.85
400.514	13.62
400.878	13.95
401.242	14.07
401.605	13.84
401.969	13.89
402.333	13.89
402.697	13.75
403.06	14.02
403.424	13.96
403.787	13.83
404.151	14.07
404.514	14.04
404.878	13.99
405.241	14.19
405.604	14.23
405.968	13.88
406.331	13.87
406.694	14.37
407.057	14.11
407.42	14.29
407.783	14.09
408.146	14.28
408.509	14.07
408.872	14.18
409.235	14.48
409.598	14.73
409.961	14.18
410.323	14.19
410.686	14.2
411.049	14.07
411.411	14.42
411.774	14.52
412.136	14.56
412.499	14.3
412.861	14.57
413.223	14.46
413.586	14.59
413.948	14.91
414.31	14.5
414.672	14.64
415.035	14.85
415.397	14.82
415.759	14.65
416.121	14.72
416.483	14.46
416.845	14.75
417.206	14.68
417.568	14.82
417.93	14.38
418.292	14.69
418.653	14.94
419.015	14.7
419.377	14.73
419.738	14.63
420.1	14.76
420.461	14.91
420.822	14.62
421.184	14.77
421.545	14.8
421.906	14.62
422.267	14.62
422.629	14.81
422.99	14.71
423.351	14.47
423.712	14.69
424.073	14.89
424.434	14.91
424.795	14.89
425.155	14.9
425.516	14.7
425.877	14.92
426.238	14.91
426.598	15.16
426.959	15.15
427.32	15.08
427.68	15.1
428.041	15.18
428.401	15.2
428.761	15.37
429.122	15.33
429.482	15.36
429.842	15.46
430.202	15.51
430.563	15.4
430.923	15.67
431.283	15.58
431.643	15.63
432.003	15.63
432.363	15.79
432.722	15.64
433.082	15.63
433.442	15.71
433.802	15.69
434.161	15.74
434.521	15.81
434.881	16.05
435.24	15.59
435.6	15.81
435.959	15.61
436.319	15.77
436.678	15.81
437.037	15.89
437.396	15.94
437.756	15.98
438.115	15.77
438.474	16.03
438.833	15.92
439.192	15.97
439.551	16.12
439.91	16.09
440.269	16.04
440.628	16.02
440.987	15.94
441.345	15.75
441.704	16.16
442.063	15.95
442.421	16.1
442.78	16.11
443.138	16.11
443.497	16.2
443.855	16
444.214	16.22
444.572	16.52
444.93	16.41
445.288	16.34
445.647	16.58
446.005	16.24
446.363	16.47
446.721	16.43
447.079	16.16
447.437	16.5
447.795	16.34
448.153	16.2
448.51	16.33
448.868	16.46
449.226	16.38
449.584	16.51
449.941	16.59
450.299	16.53
450.656	16.61
451.014	16.8
451.371	16.8
451.729	16.8
452.086	17.07
452.443	16.89
452.801	17.08
453.158	16.96
453.515	16.91
453.872	16.9
454.229	16.86
454.586	17.03
454.943	17.06
455.3	17.44
455.657	17.25
456.014	17.22
456.371	17.24
456.727	17.18
457.084	17.39
457.441	17.32
457.797	17.5
458.154	17.57
458.51	17.31
458.867	17.6
459.223	17.75
459.58	17.56
459.936	17.44
460.292	17.49
460.648	17.52
461.005	17.49
461.361	17.55
461.717	17.36
462.073	17.21
462.429	17.43
462.785	17.48
463.141	17.54
463.496	17.6
463.852	17.83
464.208	17.71
464.564	17.93
464.919	18.02
465.275	18.02
465.631	18.15
465.986	17.63
466.342	17.89
466.697	17.78
467.052	17.91
467.408	18.01
467.763	18.15
468.118	18.07
468.473	18.05
468.829	18.35
469.184	18.15
469.539	18.42
469.894	18.09
470.249	18.56
470.603	18.48
470.958	18.48
471.313	18.45
471.668	18.31
472.023	18.4
472.377	18.53
472.732	18.38
473.086	18.43
473.441	18.3
473.795	18.72
474.15	18.35
474.504	18.58
474.859	18.64
475.213	18.55
475.567	18.65
475.921	18.69
476.275	18.85
476.63	18.89
476.984	18.81
477.338	18.94
477.692	18.75
478.045	18.74
478.399	18.97
478.753	19.02
479.107	18.81
479.461	18.76
479.814	18.95
480.168	18.81
480.521	19.09
480.875	19.12
481.228	19.05
481.582	19.2
481.935	19.01
482.289	19.15
482.642	19.16
482.995	19.06
483.348	19.2
483.701	18.93
484.055	19.12
484.408	19.01
484.761	18.83
485.114	18.62
485.466	18.29
485.819	18.27
486.172	18.42
486.525	18.62
486.878	18.71
487.23	18.92
487.583	19.1
487.936	19.04
488.288	19.13
488.641	19.05
488.993	18.91
489.345	18.9
489.698	18.89
490.05	18.89
490.402	19.02
490.754	19.2
491.107	19.39
491.459	19.53
491.811	19.5
492.163	19.64
492.515	19.55
492.866	19.53
493.218	19.37
493.57	19.25
493.922	19.37
494.274	19.72
494.625	19.86
494.977	20.03
495.328	20.07
495.68	20.22
496.031	20.26
496.383	20.23
496.734	20.41
497.086	20.41
497.437	20.34
497.788	20.36
498.139	20.41
498.49	20.39
498.842	20.46
499.193	20.5
499.544	20.6
499.894	20.75
500.245	20.69
500.596	20.61
500.947	20.78
501.298	20.73
501.648	20.95
501.999	20.92
502.35	21.05
502.7	20.98
503.051	20.99
503.401	21
503.752	21.24
504.102	21.14
504.452	21.4
504.803	21.25
505.153	21.23
505.503	21.24
505.853	21.22
506.203	21.17
506.553	21.27
506.903	21.29
507.253	21.34
507.603	21.29
507.953	21.48
508.303	21.69
508.652	21.46
509.002	21.68
509.352	21.48
509.701	21.54
510.051	21.56
510.4	21.61
510.75	21.59
511.099	21.62
511.449	21.7
511.798	21.78
512.147	21.85
512.496	21.7
512.846	21.9
513.195	21.85
513.544	21.93
513.893	22.11
514.242	21.86
514.591	22.04
514.939	22.02
515.288	22.07
515.637	22.1
515.986	22.08
516.334	22.25
516.683	22.53
517.032	22.36
517.38	22.44
517.729	22.46
518.077	22.43
518.426	22.7
518.774	22.61
519.122	22.47
519.47	22.44
519.819	22.32
520.167	22.33
520.515	22.37
520.863	22.27
521.211	22.53
521.559	22.48
521.907	22.6
522.255	22.63
522.602	22.93
522.95	22.81
523.298	23.17
523.645	22.97
523.993	23.01
524.341	23.05
524.688	23.36
525.036	23.14
525.383	23.24
525.73	23.56
526.078	23.28
526.425	23.17
526.772	23.24
527.119	23.14
527.466	23.15
527.814	23.05
528.161	23.06
528.508	23.21
528.854	23.18
529.201	23.3
529.548	23.11
529.895	23.01
530.242	22.61
530.588	22.59
530.935	22.83
531.282	22.94
531.628	23.12
531.975	23.28
532.321	23.44
532.667	23.62
533.014	23.73
533.36	23.78
533.706	23.83
534.052	23.9
534.399	23.73
534.745	23.59
535.091	23.5
535.437	23.53
535.783	23.81
536.129	23.99
536.474	24.12
536.82	24.28
537.166	24.36
537.512	24.45
537.857	24.36
538.203	24.59
538.549	24.34
538.894	24.35
539.239	24.55
539.585	24.61
539.93	24.82
540.276	25.07
540.621	24.97
540.966	25.11
541.311	24.97
541.656	24.99
542.001	25.09
542.346	24.89
542.691	24.76
543.036	24.63
543.381	24.49
543.726	24.53
544.071	24.81
544.415	24.97
544.76	25.01
545.105	25.14
545.449	25.25
545.794	25.44
546.138	25.61
546.483	25.64
546.827	25.7
547.171	25.65
547.516	25.92
547.86	25.75
548.204	25.81
548.548	25.87
548.892	25.9
549.236	25.97
549.58	26.18
549.924	26.26
550.268	26.37
550.612	26.51
550.956	26.65
551.3	26.76
551.643	26.71
551.987	26.84
552.33	26.77
552.674	26.68
553.017	26.95
553.361	26.95
553.704	27.07
554.048	26.98
554.391	27.02
554.734	27.04
555.077	27.05
555.42	27.19
555.764	27.21
556.107	27.18
556.45	27.31
556.793	27.39
557.135	27.37
557.478	27.88
557.821	27.53
558.164	27.66
558.507	27.81
558.849	27.72
559.192	27.72
559.534	28
559.877	28.28
560.219	28.04
560.562	28.25
560.904	28.19
561.246	28.15
561.589	28.08
561.931	28.41
562.273	28.54
562.615	28.44
562.957	28.62
563.299	28.17
563.641	28.63
563.983	28.3
564.325	28.49
564.667	28.44
565.008	28.58
565.35	28.9
565.692	28.64
566.033	28.61
566.375	28.97
566.716	28.9
567.058	29
567.399	28.97
567.741	28.82
568.082	28.86
568.423	28.95
568.764	28.77
569.105	29.07
569.447	29.14
569.788	29.29
570.129	29.35
570.47	29.36
570.811	29.37
571.151	29.53
571.492	29.62
571.833	29.49
572.174	29.49
572.514	29.81
572.855	29.61
573.195	29.62
573.536	29.74
573.876	29.74
574.217	29.9
574.557	29.72
574.898	29.97
575.238	29.97
575.578	29.96
575.918	30.33
576.258	30.34
576.598	30.26
576.938	30.39
577.278	30.3
577.618	30.28
577.958	30.63
578.298	30.54
578.638	30.61
578.977	30.52
579.317	30.65
579.657	30.85
579.996	30.66
580.336	31.09
580.675	31
581.014	31.15
581.354	31.29
581.693	31.36
582.032	30.89
582.372	31.2
582.711	31.27
583.05	31.36
583.389	31.34
583.728	31.46
584.067	31.87
584.406	31.74
584.745	31.59
585.083	31.83
585.422	31.76
585.761	32.11
586.1	32.31
586.438	31.98
586.777	32.16
587.115	32.18
587.454	32.18
587.792	32.13
588.13	32.33
588.469	32.14
588.807	32.23
589.145	32.48
589.483	32.33
589.821	32.39
590.159	32.37
590.497	32.45
590.835	32.74
591.173	33
591.511	32.69
591.849	32.67
592.187	32.77
592.524	32.82
592.862	32.94
593.2	33.14
593.537	33.34
593.875	32.88
594.212	33.14
594.55	33.06
594.887	33.19
595.224	33.38
595.561	33.21
595.899	33.7
596.236	33.33
596.573	33.58
596.91	33.48
597.247	33.53
597.584	33.72
597.921	33.78
598.258	33.4
598.594	33.41
598.931	33.73
599.268	33.71
599.604	33.63
599.941	34.07
600.277	33.91
600.614	33.82
600.95	34.19
601.287	34.25
601.623	34.32
601.959	34.18
602.296	34.36
602.632	34.18
602.968	34.5
603.304	34.67
603.64	34.27
603.976	34.76
604.312	34.33
604.648	34.63
604.984	34.81
605.319	34.53
605.655	34.59
605.991	34.66
606.326	34.42
606.662	34.61
606.998	34.57
607.333	34.87
607.668	34.98
608.004	34.94
608.339	35.63
608.674	35.38
609.01	35.2
609.345	35.23
609.68	35.71
610.015	35.29
610.35	35.78
610.685	35.28
611.02	35.84
611.355	35.86
611.689	35.8
612.024	35.76
612.359	35.77
612.694	35.81
613.028	35.52
613.363	36.21
613.697	36.15
614.032	36.1
614.366	36.21
614.7	36.06
615.035	36.33
615.369	36.25
615.703	36.32
616.037	36.94
616.371	36.53
616.705	36.84
617.039	36.5
617.373	36.68
617.707	36.85
618.041	36.73
618.375	36.73
618.709	37.29
619.042	36.83
619.376	36.99
619.71	36.97
620.043	37.2
620.377	37.01
620.71	37.14
621.043	37.17
621.377	37.39
621.71	37.62
622.043	37.69
622.376	37.28
622.709	37.86
623.043	37.65
623.376	37.62
623.709	38.07
624.041	37.9
624.374	37.93
624.707	37.85
625.04	38.1
625.373	37.98
625.705	37.99
626.038	38.39
626.37	37.69
626.703	37.95
627.035	38.42
627.368	38.28
627.7	37.9
628.032	38.29
628.365	38.92
628.697	37.92
629.029	38.51
629.361	38.7
629.693	38.61
630.025	38.51
630.357	38.56
630.689	38.88
631.021	39.11
631.353	39.02
631.684	38.97
632.016	39.08
632.348	38.98
632.679	38.97
633.011	39.75
633.342	39.1
633.674	39.11
634.005	39.42
634.336	39.47
634.668	39.98
634.999	39.27
635.33	39.67
635.661	39.59
635.992	39.25
636.323	39.59
636.654	39.94
636.985	39.55
637.316	39.92
637.647	40.01
637.977	39.91
638.308	39.78
638.639	39.88
638.969	39.33
639.3	40.1
639.63	39.89
639.961	39.71
640.291	40.42
640.622	40.77
640.952	40.16
641.282	40.34
641.612	40.11
641.943	40.36
642.273	40.94
642.603	40.6
642.933	40.84
643.263	41.07
643.592	40.72
643.922	40.61
644.252	41.41
644.582	41.22
644.911	41.18
645.241	41.03
645.571	40.81
645.9	40.95
646.23	41.16
646.559	41.59
646.888	41.54
647.218	40.98
647.547	41.88
647.876	42.04
648.205	40.45
648.534	40.94
648.863	40.77
649.192	42.04
649.521	42.06
649.85	41.65
650.179	41.99
650.508	42.02
650.837	42.02
651.165	42.12
651.494	41.96
651.822	42.05
652.151	41.56
652.479	41.89
652.808	42.34
653.136	41.8
653.465	42.41
653.793	42.79
654.121	41.56
654.449	42.31
654.777	42.79
655.105	42.35
655.433	42.41
655.761	42.55
656.089	42.42
656.417	42.75
656.745	42.79
657.073	42.2
657.4	42.88
657.728	42.58
658.056	42.05
658.383	42.26
658.711	42.83
659.038	42.59
659.365	42.67
659.693	42.75
660.02	42.98
660.347	43.01
660.674	43.34
661.001	43.04
661.329	43.11
661.656	43.39
661.982	43.08
662.309	43.53
662.636	43.15
662.963	43.65
663.29	43.71
663.616	43.95
663.943	43.15
664.27	42.98
664.596	43.61
664.923	43.76
665.249	43.21
665.576	43.85
665.902	44.34
666.228	44.73
666.554	44.42
666.881	44.56
667.207	44.38
667.533	44
667.859	44.58
668.185	44.02
668.511	44
668.837	43.28
669.162	45.45
669.488	43.84
669.814	44.43
670.139	44.88
670.465	44.85
