Data from 1832-1_chest_Reflection__0__16.txt Node

Date: Fri Sep 30 17:51:54 CDT 2022
User: ToomeyLab
Spectrometer: FLMS14357
Trigger mode: 0
Integration Time (sec): 1.000000E-2
Scans to average: 100
Electric dark correction enabled: true
Nonlinearity correction enabled: false
Boxcar width: 0
XAxis mode: Wavelengths
Number of Pixels in Spectrum: 2048
>>>>>Begin Spectral Data<<<<<
189.047	-522.99
189.435	-522.99
189.823	-522.99
190.211	141.51
190.599	-87.02
190.987	81.13
191.375	334300
191.763	212.81
192.151	-18.48
192.538	-23.95
192.926	1821.53
193.314	-172.26
193.702	8.75
194.089	108.07
194.477	55.51
194.864	-70.82
195.252	-9.77
195.639	-242.64
196.027	155.16
196.414	151.91
196.801	42.1
197.189	-151.99
197.576	-1.62
197.963	21.61
198.351	-23.93
198.738	-52.32
199.125	25.11
199.512	23.58
199.899	8.76
200.286	50.67
200.673	73.24
201.06	46.87
201.447	26.46
201.833	27.76
202.22	22.31
202.607	17.23
202.994	67.94
203.38	9.16
203.767	10.3
204.154	42.96
204.54	33.24
204.927	30.79
205.313	-34.73
205.699	35.3
206.086	-4.76
206.472	12.09
206.858	9.6
207.245	24.96
207.631	-26.86
208.017	-19.8
208.403	28.71
208.789	-2.89
209.175	13.53
209.561	-18.53
209.947	-16.45
210.333	-0.27
210.719	7.59
211.105	-0.87
211.491	16.55
211.876	14.68
212.262	40.94
212.648	30.26
213.034	-10.17
213.419	23
213.805	-19.85
214.19	1.65
214.576	5.91
214.961	22.65
215.346	24.96
215.732	-10.46
216.117	15.71
216.502	18.92
216.888	16.31
217.273	-19.51
217.658	15.38
218.043	9.77
218.428	7.56
218.813	-1.02
219.198	3.35
219.583	11.97
219.968	25.17
220.353	3.12
220.738	18.54
221.122	12.74
221.507	27.17
221.892	22.95
222.276	0.36
222.661	7.99
223.046	2.81
223.43	4.1
223.815	5.49
224.199	10.69
224.583	6.13
224.968	-1.81
225.352	-1.83
225.736	5.21
226.121	3.36
226.505	-2.3
226.889	1.93
227.273	-2.47
227.657	2.32
228.041	0.37
228.425	8.21
228.809	5.2
229.193	5.37
229.577	3.03
229.961	4.64
230.344	3.41
230.728	3.43
231.112	2.91
231.495	3.08
231.879	5.94
232.263	4.17
232.646	2.58
233.03	4.96
233.413	4.3
233.797	3.29
234.18	1.05
234.563	4.84
234.946	3.49
235.33	1.52
235.713	4.63
236.096	3.91
236.479	4.82
236.862	2.96
237.245	4.36
237.628	2.68
238.011	5.69
238.394	3.84
238.777	0.59
239.16	1.71
239.543	4.2
239.925	3.25
240.308	3.05
240.691	5.32
241.073	3.1
241.456	2.84
241.838	3.98
242.221	3.3
242.603	3.69
242.986	3.76
243.368	2.35
243.75	3.08
244.133	3.46
244.515	3.62
244.897	3.4
245.279	3.7
245.661	3.59
246.043	2.69
246.425	2.83
246.807	3.51
247.189	3.15
247.571	3.53
247.953	3.31
248.335	2.97
248.717	3
249.098	3.24
249.48	3.28
249.862	3.3
250.243	2.91
250.625	3.9
251.006	3.1
251.388	1.98
251.769	4.43
252.151	3.68
252.532	3.56
252.913	2.33
253.295	3.13
253.676	3.18
254.057	3.19
254.438	2.86
254.819	3.61
255.2	2.86
255.581	3.31
255.962	3.48
256.343	3.6
256.724	3.07
257.105	4.63
257.486	3.85
257.867	3.37
258.247	3.4
258.628	3.37
259.009	3.58
259.389	2.67
259.77	3.48
260.15	3.13
260.531	3.42
260.911	3.11
261.292	2.82
261.672	2.85
262.052	2.99
262.432	3.18
262.813	3.48
263.193	2.87
263.573	3.02
263.953	2.51
264.333	3.87
264.713	2.55
265.093	3.07
265.473	3.16
265.853	3.19
266.233	3.59
266.612	3.38
266.992	2.32
267.372	2.52
267.752	2.63
268.131	3.5
268.511	3.24
268.89	2.13
269.27	3.43
269.649	3.12
270.029	3.19
270.408	3.34
270.787	2.87
271.167	2.79
271.546	3.29
271.925	3.01
272.304	3.28
272.683	3.06
273.062	3.03
273.441	2.77
273.82	2.28
274.199	2.78
274.578	2.93
274.957	2.9
275.336	2.95
275.715	2.85
276.093	2.85
276.472	2.5
276.851	2.9
277.229	2.94
277.608	2.84
277.986	2.16
278.365	2.88
278.743	2.55
279.122	2.8
279.5	2.38
279.878	2.82
280.257	2.88
280.635	3.14
281.013	3.3
281.391	2.55
281.769	3.32
282.147	2.32
282.525	3.24
282.903	2.66
283.281	2.68
283.659	2.93
284.037	2.62
284.415	2.87
284.792	2.95
285.17	2.26
285.548	3.09
285.925	2.61
286.303	2.77
286.68	2.54
287.058	2.85
287.435	2.92
287.813	2.99
288.19	2.79
288.567	2.78
288.945	1.98
289.322	2.38
289.699	2.69
290.076	3.03
290.453	2.84
290.83	2.75
291.207	2.29
291.584	2.69
291.961	2.63
292.338	2.79
292.715	3.14
293.092	2.6
293.469	3.01
293.845	3.22
294.222	2.92
294.599	3.69
294.975	3.49
295.352	2.87
295.728	3.17
296.105	2.92
296.481	3.04
296.858	3.18
297.234	2.92
297.61	2.75
297.986	2.72
298.363	2.92
298.739	2.59
299.115	2.72
299.491	3.01
299.867	2.92
300.243	2.77
300.619	2.68
300.995	3.42
301.371	2.97
301.746	3.1
302.122	3.19
302.498	2.98
302.874	3.22
303.249	3.09
303.625	2.99
304	3.27
304.376	3.12
304.751	3.33
305.127	2.76
305.502	3
305.878	2.93
306.253	2.53
306.628	2.55
307.003	3.38
307.378	2.58
307.754	2.82
308.129	3.06
308.504	2.87
308.879	2.92
309.254	2.77
309.629	3.33
310.003	2.85
310.378	2.71
310.753	2.91
311.128	3.12
311.502	3.4
311.877	3.01
312.252	3.22
312.626	3.15
313.001	2.75
313.375	3.01
313.75	3.28
314.124	3.23
314.498	2.77
314.873	2.83
315.247	2.85
315.621	3.67
315.995	3.44
316.369	2.8
316.743	3.49
317.117	2.96
317.491	3.73
317.865	3.51
318.239	3.42
318.613	3.28
318.987	3.12
319.361	2.79
319.734	3.28
320.108	3.32
320.482	2.36
320.855	3.1
321.229	2.87
321.602	3.43
321.976	3.22
322.349	2.98
322.723	2.73
323.096	3.42
323.469	3.42
323.843	2.76
324.216	3.4
324.589	3.34
324.962	3.09
325.335	3.1
325.708	2.99
326.081	3.5
326.454	2.97
326.827	3.04
327.2	3.31
327.573	2.82
327.945	2.95
328.318	2.94
328.691	3.28
329.063	2.9
329.436	3.1
329.809	3.66
330.181	3.27
330.553	2.89
330.926	3.65
331.298	2.82
331.671	3.18
332.043	2.88
332.415	3.17
332.787	2.74
333.159	3.27
333.532	3.35
333.904	3.38
334.276	3.5
334.648	3.13
335.02	3.38
335.391	3.54
335.763	2.85
336.135	3.31
336.507	2.87
336.879	2.9
337.25	2.88
337.622	3.33
337.993	2.85
338.365	3.09
338.736	3.22
339.108	3.44
339.479	3.6
339.851	2.84
340.222	3.23
340.593	2.46
340.964	2.96
341.336	3.13
341.707	2.81
342.078	2.64
342.449	3.16
342.82	2.91
343.191	3.07
343.562	3.3
343.933	3.42
344.303	3.23
344.674	2.87
345.045	2.86
345.416	3.28
345.786	3.19
346.157	3.31
346.527	3.13
346.898	3.27
347.268	2.77
347.639	2.82
348.009	3.13
348.38	3.48
348.75	3.68
349.12	3.12
349.49	3.33
349.861	2.61
350.231	2.75
350.601	3.18
350.971	3.16
351.341	3.01
351.711	2.82
352.081	3.15
352.45	3.12
352.82	3.17
353.19	3.17
353.56	2.95
353.929	2.66
354.299	3.19
354.669	2.98
355.038	3.41
355.408	3.15
355.777	2.86
356.147	2.97
356.516	3.11
356.885	2.85
357.254	3.19
357.624	3.18
357.993	2.78
358.362	3.23
358.731	3.25
359.1	3.17
359.469	2.89
359.838	3.31
360.207	3.17
360.576	3.09
360.945	2.96
361.314	2.85
361.682	2.93
362.051	3.11
362.42	2.94
362.788	2.95
363.157	3.15
363.525	2.94
363.894	2.85
364.262	3.2
364.631	3.59
364.999	3.17
365.367	3.26
365.735	2.74
366.104	2.8
366.472	3.34
366.84	3.52
367.208	3.14
367.576	3.62
367.944	3.06
368.312	2.82
368.68	2.99
369.048	3.03
369.416	3.25
369.783	2.92
370.151	3.22
370.519	3.12
370.886	3.34
371.254	3.27
371.621	3.3
371.989	3.35
372.356	3.34
372.724	2.99
373.091	3.1
373.458	3.12
373.826	3.34
374.193	3.21
374.56	3.44
374.927	3.37
375.294	3.34
375.661	2.93
376.028	3.06
376.395	3.2
376.762	3.2
377.129	3.39
377.496	3.27
377.863	2.86
378.229	3.11
378.596	3.31
378.963	3.4
379.329	3.07
379.696	3.34
380.062	3.28
380.429	3.31
380.795	3.03
381.161	3.05
381.528	3.33
381.894	3.18
382.26	2.85
382.626	3.17
382.993	3.19
383.359	3.13
383.725	3.05
384.091	3.04
384.457	3.33
384.823	3.42
385.188	3.48
385.554	3.12
385.92	3.41
386.286	3.57
386.651	3.43
387.017	3.49
387.383	3.2
387.748	2.6
388.114	3.41
388.479	3.24
388.845	2.99
389.21	3.05
389.575	3.09
389.94	3.07
390.306	3.2
390.671	3.07
391.036	3.41
391.401	2.9
391.766	3.3
392.131	3.16
392.496	3.39
392.861	3.41
393.226	3.22
393.591	2.98
393.956	3.53
394.32	3.11
394.685	3.12
395.05	3.28
395.414	3.18
395.779	3.23
396.143	3.43
396.508	3.03
396.872	3.41
397.236	3.18
397.601	3.24
397.965	3.32
398.329	3.09
398.694	3.41
399.058	3.45
399.422	3.33
399.786	3
400.15	3.33
400.514	3.1
400.878	3.31
401.242	3
401.605	3.13
401.969	3.42
402.333	3.28
402.697	3.12
403.06	3.39
403.424	3.06
403.787	3.43
404.151	3.34
404.514	3.31
404.878	3.14
405.241	3.3
405.604	3.15
405.968	3.33
406.331	3.3
406.694	3.21
407.057	3.21
407.42	3.29
407.783	3
408.146	3
408.509	3.13
408.872	3.29
409.235	3.05
409.598	3.26
409.961	3.23
410.323	3.51
410.686	3.59
411.049	3.24
411.411	3.48
411.774	3.43
412.136	3.43
412.499	3.19
412.861	3.18
413.223	3.06
413.586	3.21
413.948	3.39
414.31	3.38
414.672	3.33
415.035	3.55
415.397	3.32
415.759	3.35
416.121	3.35
416.483	3.44
416.845	3.28
417.206	3.34
417.568	3.21
417.93	3.17
418.292	3.18
418.653	3.14
419.015	3.28
419.377	3.2
419.738	3.1
420.1	3.4
420.461	3.16
420.822	3.12
421.184	3.29
421.545	3.16
421.906	3.03
422.267	3.17
422.629	3.2
422.99	3.12
423.351	3.13
423.712	3.11
424.073	3.12
424.434	3.2
424.795	3.2
425.155	3.13
425.516	3.14
425.877	3.24
426.238	3.13
426.598	3.25
426.959	3.12
427.32	3.29
427.68	3.21
428.041	3.1
428.401	3.19
428.761	3.31
429.122	3.36
429.482	3.18
429.842	3.21
430.202	3.17
430.563	3.48
430.923	3.17
431.283	3.25
431.643	3.42
432.003	3.32
432.363	3.54
432.722	3.33
433.082	3.28
433.442	3.28
433.802	3.32
434.161	3.25
434.521	3.31
434.881	3.25
435.24	3.26
435.6	3.38
435.959	3.25
436.319	3.3
436.678	3.26
437.037	3.4
437.396	3.36
437.756	3.22
438.115	3.26
438.474	3.35
438.833	3.29
439.192	3.35
439.551	3.48
439.91	3.2
440.269	3.1
440.628	3.16
440.987	3.36
441.345	3.3
441.704	3.35
442.063	3.29
442.421	3.32
442.78	3.31
443.138	3.16
443.497	3.29
443.855	3.39
444.214	3.38
444.572	3.39
444.93	3.17
445.288	3.32
445.647	3.31
446.005	3.32
446.363	3.32
446.721	3.25
447.079	3.17
447.437	3.31
447.795	3.2
448.153	3.25
448.51	3.27
448.868	3.25
449.226	3.3
449.584	3.27
449.941	3.34
450.299	3.37
450.656	3.27
451.014	3.39
451.371	3.5
451.729	3.44
452.086	3.34
452.443	3.42
452.801	3.42
453.158	3.3
453.515	3.26
453.872	3.45
454.229	3.37
454.586	3.46
454.943	3.51
455.3	3.44
455.657	3.37
456.014	3.35
456.371	3.44
456.727	3.58
457.084	3.23
457.441	3.38
457.797	3.54
458.154	3.25
458.51	3.34
458.867	3.46
459.223	3.43
459.58	3.43
459.936	3.45
460.292	3.36
460.648	3.4
461.005	3.33
461.361	3.33
461.717	3.19
462.073	3.32
462.429	3.39
462.785	3.45
463.141	3.43
463.496	3.35
463.852	3.3
464.208	3.53
464.564	3.29
464.919	3.33
465.275	3.48
465.631	3.43
465.986	3.35
466.342	3.42
466.697	3.54
467.052	3.42
467.408	3.37
467.763	3.36
468.118	3.45
468.473	3.49
468.829	3.34
469.184	3.37
469.539	3.56
469.894	3.49
470.249	3.42
470.603	3.59
470.958	3.56
471.313	3.48
471.668	3.45
472.023	3.43
472.377	3.47
472.732	3.47
473.086	3.44
473.441	3.48
473.795	3.39
474.15	3.4
474.504	3.52
474.859	3.41
475.213	3.43
475.567	3.41
475.921	3.4
476.275	3.29
476.63	3.46
476.984	3.44
477.338	3.33
477.692	3.43
478.045	3.58
478.399	3.44
478.753	3.45
479.107	3.5
479.461	3.49
479.814	3.45
480.168	3.53
480.521	3.57
480.875	3.54
481.228	3.53
481.582	3.54
481.935	3.5
482.289	3.59
482.642	3.42
482.995	3.42
483.348	3.42
483.701	3.46
484.055	3.34
484.408	3.3
484.761	3.27
485.114	3.2
485.466	3.18
485.819	3.19
486.172	3.33
486.525	3.39
486.878	3.42
487.23	3.43
487.583	3.36
487.936	3.4
488.288	3.36
488.641	3.25
488.993	3.31
489.345	3.28
489.698	3.33
490.05	3.35
490.402	3.36
490.754	3.46
491.107	3.47
491.459	3.47
491.811	3.5
492.163	3.46
492.515	3.42
492.866	3.37
493.218	3.28
493.57	3.35
493.922	3.4
494.274	3.43
494.625	3.52
494.977	3.54
495.328	3.54
495.68	3.5
496.031	3.6
496.383	3.62
496.734	3.6
497.086	3.54
497.437	3.61
497.788	3.58
498.139	3.51
498.49	3.42
498.842	3.5
499.193	3.54
499.544	3.55
499.894	3.63
500.245	3.56
500.596	3.51
500.947	3.56
501.298	3.75
501.648	3.5
501.999	3.6
502.35	3.5
502.7	3.6
503.051	3.61
503.401	3.66
503.752	3.78
504.102	3.73
504.452	3.64
504.803	3.69
505.153	3.68
505.503	3.54
505.853	3.65
506.203	3.51
506.553	3.61
506.903	3.7
507.253	3.65
507.603	3.84
507.953	3.77
508.303	3.71
508.652	3.67
509.002	3.72
509.352	3.71
509.701	3.69
510.051	3.8
510.4	3.61
510.75	3.55
511.099	3.54
511.449	3.66
511.798	3.7
512.147	3.66
512.496	3.78
512.846	3.68
513.195	3.72
513.544	3.66
513.893	3.75
514.242	3.7
514.591	3.79
514.939	3.78
515.288	3.72
515.637	3.6
515.986	3.75
516.334	3.87
516.683	3.69
517.032	3.68
517.38	3.71
517.729	3.89
518.077	3.72
518.426	3.78
518.774	3.78
519.122	3.61
519.47	3.7
519.819	3.82
520.167	3.78
520.515	3.73
520.863	3.72
521.211	3.77
521.559	3.86
521.907	3.86
522.255	3.85
522.602	3.94
522.95	3.91
523.298	4
523.645	3.84
523.993	3.96
524.341	3.86
524.688	3.98
525.036	3.84
525.383	3.72
525.73	3.92
526.078	3.91
526.425	3.83
526.772	3.88
527.119	3.73
527.466	3.77
527.814	3.77
528.161	3.81
528.508	3.8
528.854	3.83
529.201	3.83
529.548	3.71
529.895	3.66
530.242	3.69
530.588	3.7
530.935	3.83
531.282	3.84
531.628	3.93
531.975	3.92
532.321	3.9
532.667	3.96
533.014	3.97
533.36	3.93
533.706	3.93
534.052	3.89
534.399	3.86
534.745	3.88
535.091	3.82
535.437	3.95
535.783	3.92
536.129	3.96
536.474	3.94
536.82	4.01
537.166	4.08
537.512	3.99
537.857	4.07
538.203	4.01
538.549	3.88
538.894	4.03
539.239	4.1
539.585	4.16
539.93	4.15
540.276	4.09
540.621	4.22
540.966	4.31
541.311	4.22
541.656	4.12
542.001	4.14
542.346	4.11
542.691	4.01
543.036	3.97
543.381	4.04
543.726	4.13
544.071	4.22
544.415	4.2
544.76	4.2
545.105	4.2
545.449	4.25
545.794	4.23
546.138	4.23
546.483	4.28
546.827	4.39
547.171	4.33
547.516	4.24
547.86	4.18
548.204	4.24
548.548	4.26
548.892	4.3
549.236	4.39
549.58	4.38
549.924	4.38
550.268	4.59
550.612	4.55
550.956	4.62
551.3	4.61
551.643	4.62
551.987	4.59
552.33	4.58
552.674	4.55
553.017	4.56
553.361	4.64
553.704	4.63
554.048	4.62
554.391	4.76
554.734	4.41
555.077	4.68
555.42	4.74
555.764	4.68
556.107	4.62
556.45	4.71
556.793	4.62
557.135	4.76
557.478	4.68
557.821	4.79
558.164	4.83
558.507	4.94
558.849	4.81
559.192	4.73
559.534	4.7
559.877	4.84
560.219	4.77
560.562	4.97
560.904	4.9
561.246	4.92
561.589	4.77
561.931	4.94
562.273	4.95
562.615	4.91
562.957	4.84
563.299	5.05
563.641	4.88
563.983	4.89
564.325	5.05
564.667	5.09
565.008	4.89
565.35	5.01
565.692	5.15
566.033	4.87
566.375	4.73
566.716	5.16
567.058	5.09
567.399	5
567.741	5.06
568.082	5.19
568.423	5.28
568.764	5.15
569.105	5.24
569.447	5.24
569.788	5.29
570.129	5.28
570.47	5.15
570.811	5.17
571.151	5.27
571.492	5.26
571.833	5.16
572.174	5.06
572.514	5.32
572.855	5.26
573.195	5.33
573.536	5.35
573.876	5.44
574.217	5.46
574.557	5.43
574.898	5.44
575.238	5.45
575.578	5.62
575.918	5.3
576.258	5.57
576.598	5.54
576.938	5.46
577.278	5.51
577.618	5.51
577.958	5.64
578.298	5.79
578.638	5.89
578.977	5.63
579.317	5.62
579.657	5.62
579.996	5.57
580.336	5.86
580.675	5.88
581.014	5.54
581.354	5.75
581.693	5.79
582.032	5.74
582.372	5.63
582.711	5.88
583.05	5.91
583.389	5.7
583.728	5.93
584.067	6.02
584.406	5.81
584.745	6
585.083	5.92
585.422	6.01
585.761	6.03
586.1	6.08
586.438	6.07
586.777	6.42
587.115	6.36
587.454	6.11
587.792	5.9
588.13	6.25
588.469	6.27
588.807	6.24
589.145	6.16
589.483	6.4
589.821	6.3
590.159	6.25
590.497	6.33
590.835	6.29
591.173	6.3
591.511	6.33
591.849	6.44
592.187	6.51
592.524	6.61
592.862	6.71
593.2	6.59
593.537	6.37
593.875	6.52
594.212	6.54
594.55	6.51
594.887	6.85
595.224	6.52
595.561	6.66
595.899	6.56
596.236	6.97
596.573	6.59
596.91	6.58
597.247	6.57
597.584	6.91
597.921	6.7
598.258	6.74
598.594	6.65
598.931	6.65
599.268	6.62
599.604	6.61
599.941	6.66
600.277	6.59
600.614	6.86
600.95	7.16
601.287	6.93
601.623	6.96
601.959	7.07
602.296	7.14
602.632	7.15
602.968	7.07
603.304	6.89
603.64	7.21
603.976	6.84
604.312	7.05
604.648	7.12
604.984	7.31
605.319	7.07
605.655	7
605.991	7.2
606.326	7.15
606.662	7.21
606.998	7.21
607.333	7.28
607.668	7.47
608.004	7.49
608.339	7.53
608.674	7.42
609.01	7.47
609.345	7.23
609.68	7.6
610.015	7.8
610.35	7.33
610.685	7.39
611.02	7.2
611.355	7.37
611.689	7.25
612.024	7.65
612.359	7.74
612.694	7.85
613.028	7.89
613.363	7.69
613.697	7.62
614.032	7.73
614.366	8.04
614.7	7.84
615.035	7.68
615.369	7.66
615.703	8.01
616.037	7.94
616.371	7.92
616.705	7.79
617.039	7.93
617.373	8.12
617.707	7.88
618.041	7.92
618.375	7.82
618.709	8.27
619.042	7.75
619.376	8.43
619.71	8.26
620.043	8.44
620.377	8.23
620.71	8.14
621.043	8.59
621.377	8.4
621.71	8.05
622.043	8.43
622.376	8.13
622.709	8.56
623.043	8.59
623.376	8.2
623.709	8.51
624.041	8.48
624.374	8.54
624.707	8.3
625.04	8.45
625.373	8.78
625.705	8.49
626.038	8.67
626.37	8.69
626.703	8.63
627.035	8.76
627.368	8.86
627.7	8.91
628.032	8.74
628.365	8.59
628.697	8.7
629.029	8.56
629.361	8.73
629.693	8.98
630.025	8.95
630.357	8.89
630.689	8.72
631.021	8.99
631.353	9.27
631.684	8.99
632.016	9.19
632.348	9.22
632.679	9.3
633.011	9.01
633.342	9.16
633.674	9.87
634.005	9.57
634.336	9.22
634.668	9.47
634.999	9.18
635.33	9.67
635.661	9.2
635.992	9.24
636.323	9.24
636.654	9.46
636.985	9.14
637.316	9.84
637.647	9.22
637.977	9.68
638.308	9.15
638.639	9.51
638.969	9.61
639.3	9.65
639.63	9.34
639.961	9.79
640.291	9.68
640.622	10.34
640.952	10.05
641.282	9.96
641.612	9.96
641.943	9.98
642.273	9.87
642.603	9.73
642.933	9.69
643.263	10.32
643.592	9.87
643.922	9.99
644.252	10.14
644.582	9.9
644.911	10.13
645.241	10.17
645.571	9.68
645.9	10.23
646.23	9.88
646.559	10.23
646.888	10.43
647.218	9.96
647.547	10.38
647.876	10.39
648.205	10.25
648.534	10.27
648.863	10.39
649.192	10.33
649.521	10.62
649.85	10.96
650.179	10.64
650.508	10.07
650.837	10.53
651.165	10.21
651.494	10.66
651.822	10.66
652.151	10.6
652.479	11.02
652.808	11.16
653.136	10.57
653.465	10.77
653.793	10.4
654.121	10.97
654.449	11.32
654.777	10.75
655.105	10.86
655.433	10.71
655.761	11.39
656.089	11.45
656.417	11.1
656.745	10.17
657.073	10.97
657.4	11.14
657.728	11.11
658.056	11.34
658.383	11.22
658.711	11.54
659.038	10.88
659.365	11.03
659.693	11.22
660.02	11.44
660.347	10.91
660.674	11.23
661.001	11.28
661.329	11.51
661.656	11.49
661.982	11.12
662.309	11.62
662.636	11.69
662.963	11.56
663.29	11.61
663.616	11.64
663.943	11.33
664.27	11.35
664.596	11.57
664.923	11.89
665.249	12.03
665.576	11.74
665.902	11.87
666.228	12.19
666.554	11.36
666.881	11.97
667.207	11.5
667.533	11.69
667.859	12.04
668.185	11.93
668.511	11.64
668.837	11.79
669.162	12.38
669.488	12.05
669.814	12.13
670.139	11.8
670.465	12.83
670.791	12.15
671.116	12.03
671.442	12.35
671.767	12.58
672.092	12.49
672.418	12.57
672.743	12.2
673.068	12.42
673.393	12.27
673.718	11.84
674.043	12.18
674.368	12.49
674.693	12.48
675.018	13.12
675.343	12.24
675.667	13.17
675.992	12.24
676.317	12.44
676.641	13.11
676.966	12.24
677.29	12.79
677.615	12.75
677.939	13.02
678.264	12.33
678.588	13.01
678.912	12.41
679.236	13.08
679.56	12.8
679.885	13.36
680.209	13.11
680.532	12.36
680.856	13.13
681.18	13.27
681.504	12.74
681.828	13.01
682.152	13.41
682.475	12.88
682.799	13.02
683.122	13.35
683.446	13.78
683.769	13.65
684.093	13.77
684.416	13.97
684.739	13.6
685.062	13.63
685.386	13.8
685.709	13.68
686.032	13.29
686.355	13.85
686.678	13.07
687.001	13.39
687.324	14.03
687.646	13.47
687.969	13.57
688.292	14.17
688.614	13.54
688.937	14.4
689.26	13.8
689.582	14.2
