Data from 1832-1_forehead_Reflection__4__25.txt Node

Date: Fri Sep 30 17:56:01 CDT 2022
User: ToomeyLab
Spectrometer: FLMS14357
Trigger mode: 0
Integration Time (sec): 1.000000E-2
Scans to average: 100
Electric dark correction enabled: true
Nonlinearity correction enabled: false
Boxcar width: 0
XAxis mode: Wavelengths
Number of Pixels in Spectrum: 2048
>>>>>Begin Spectral Data<<<<<
189.047	138.42
189.435	138.42
189.823	138.42
190.211	204.75
190.599	128.18
190.987	-8.62
191.375	391500
191.763	94.33
192.151	-104.31
192.538	-179.86
192.926	-285.65
193.314	-141.46
193.702	86.12
194.089	-7.49
194.477	98.06
194.864	117.24
195.252	-14.18
195.639	-257.5
196.027	-23
196.414	118.98
196.801	63.77
197.189	-89.28
197.576	58.2
197.963	58.72
198.351	6.24
198.738	-2.85
199.125	48.05
199.512	44.26
199.899	18.6
200.286	39.08
200.673	87.2
201.06	51.58
201.447	35.34
201.833	35.5
202.22	9.43
202.607	42.23
202.994	70.03
203.38	35.29
203.767	-11.17
204.154	57.69
204.54	36.5
204.927	48.94
205.313	16.93
205.699	34.64
206.086	-15.32
206.472	42.59
206.858	60.58
207.245	29.69
207.631	6.04
208.017	-23.49
208.403	38.78
208.789	48.27
209.175	45.62
209.561	7.16
209.947	3.95
210.333	-0.95
210.719	-0.31
211.105	23.66
211.491	17.37
211.876	38.02
212.262	46.6
212.648	13.37
213.034	17.84
213.419	22.61
213.805	-19.54
214.19	24.26
214.576	33.33
214.961	17.81
215.346	5.88
215.732	-2.18
216.117	23.1
216.502	5.8
216.888	32.92
217.273	18.14
217.658	29.05
218.043	9.83
218.428	4.32
218.813	26.55
219.198	11.45
219.583	22.73
219.968	31.5
220.353	21.32
220.738	18.91
221.122	19.23
221.507	28.31
221.892	13.72
222.276	2.77
222.661	16.32
223.046	18.83
223.43	8.01
223.815	-3.06
224.199	12.92
224.583	8.73
224.968	7.6
225.352	6.23
225.736	16.47
226.121	9.09
226.505	6.36
226.889	7.26
227.273	2.41
227.657	9.42
228.041	3.06
228.425	3.39
228.809	8.19
229.193	6.66
229.577	1.97
229.961	3.01
230.344	2.63
230.728	1.61
231.112	2.52
231.495	2.47
231.879	4.24
232.263	2.99
232.646	3.48
233.03	4.35
233.413	2.62
233.797	3.77
234.18	3.15
234.563	4.01
234.946	4.84
235.33	3.67
235.713	3.82
236.096	3.69
236.479	2.31
236.862	2.68
237.245	3.7
237.628	3.31
238.011	4.68
238.394	3.54
238.777	1.46
239.16	2.23
239.543	2.36
239.925	2.1
240.308	2.68
240.691	4.55
241.073	3.91
241.456	2.41
241.838	4.11
242.221	2.56
242.603	3.2
242.986	2.84
243.368	2.15
243.75	2.48
244.133	2.57
244.515	2.22
244.897	2.9
245.279	2.8
245.661	3.14
246.043	2.51
246.425	2.44
246.807	3.43
247.189	3.53
247.571	3.27
247.953	2.71
248.335	2.39
248.717	2.28
249.098	2.5
249.48	2.52
249.862	2.44
250.243	2.31
250.625	2.69
251.006	2.38
251.388	1.74
251.769	3.8
252.151	3.09
252.532	3.29
252.913	2.86
253.295	2.61
253.676	1.9
254.057	2.68
254.438	2.45
254.819	2.99
255.2	3.46
255.581	4.27
255.962	3.26
256.343	1.97
256.724	3.19
257.105	4.22
257.486	3.06
257.867	3.75
258.247	2.48
258.628	3.32
259.009	3.26
259.389	3.2
259.77	2.98
260.15	2.61
260.531	2.69
260.911	2.38
261.292	2.29
261.672	2.53
262.052	2.29
262.432	2.53
262.813	2.78
263.193	2.53
263.573	3.01
263.953	2.72
264.333	3.04
264.713	2.18
265.093	3.01
265.473	2.66
265.853	2.73
266.233	2.68
266.612	2.25
266.992	2.47
267.372	2.53
267.752	2.12
268.131	2.59
268.511	2.54
268.89	2.05
269.27	2.61
269.649	2.46
270.029	3.03
270.408	2.25
270.787	2.29
271.167	2.66
271.546	3
271.925	3
272.304	2.9
272.683	2.35
273.062	2.44
273.441	2.04
273.82	2.08
274.199	2.54
274.578	2.22
274.957	2.67
275.336	2.67
275.715	2.84
276.093	2.67
276.472	2.73
276.851	2.6
277.229	2.02
277.608	2.48
277.986	2.29
278.365	2.58
278.743	2.3
279.122	2.42
279.5	2.62
279.878	2.67
280.257	2.36
280.635	2.85
281.013	3.31
281.391	2.65
281.769	2.64
282.147	2.31
282.525	3.05
282.903	2.28
283.281	2.13
283.659	2.21
284.037	2.43
284.415	2.25
284.792	2.2
285.17	2.07
285.548	2.48
285.925	2.46
286.303	2.29
286.68	2.3
287.058	2.37
287.435	2.29
287.813	2.4
288.19	2.24
288.567	2.62
288.945	1.85
289.322	2.3
289.699	2.62
290.076	2.54
290.453	2.9
290.83	2.84
291.207	2.55
291.584	2.19
291.961	2.51
292.338	2.69
292.715	2.84
293.092	2.18
293.469	2.61
293.845	3.37
294.222	2.71
294.599	3.07
294.975	3.02
295.352	3.25
295.728	2.97
296.105	2.84
296.481	3.2
296.858	3.06
297.234	3.03
297.61	3.09
297.986	2.36
298.363	3.04
298.739	2.83
299.115	2.79
299.491	2.81
299.867	2.84
300.243	2.95
300.619	3.01
300.995	3.13
301.371	2.94
301.746	2.88
302.122	3.46
302.498	3.25
302.874	3.41
303.249	3.35
303.625	3.63
304	3.17
304.376	3.56
304.751	3.53
305.127	3.67
305.502	3.22
305.878	3.51
306.253	3.51
306.628	3.31
307.003	3.64
307.378	3.98
307.754	3.47
308.129	4.08
308.504	3.77
308.879	3.97
309.254	3.94
309.629	3.57
310.003	3.61
310.378	3.78
310.753	3.56
311.128	4.18
311.502	4.02
311.877	4.11
312.252	4.3
312.626	4.24
313.001	3.68
313.375	4.17
313.75	4.72
314.124	4.35
314.498	4.09
314.873	4.23
315.247	4.68
315.621	4.58
315.995	5.26
316.369	4.17
316.743	4.62
317.117	5.29
317.491	5.12
317.865	5.41
318.239	5.33
318.613	4.9
318.987	4.94
319.361	4.89
319.734	4.58
320.108	4.95
320.482	5.13
320.855	5.28
321.229	5.16
321.602	5.26
321.976	5.11
322.349	5.52
322.723	4.97
323.096	6.11
323.469	5.64
323.843	4.64
324.216	5.63
324.589	5.71
324.962	5.92
325.335	5.43
325.708	6.25
326.081	5.81
326.454	5.64
326.827	5.69
327.2	5.57
327.573	5.68
327.945	5.71
328.318	6.03
328.691	5.95
329.063	6.45
329.436	5.7
329.809	6.59
330.181	6.02
330.553	6.49
330.926	6.54
331.298	6
331.671	6.34
332.043	6.55
332.415	6.82
332.787	5.94
333.159	5.98
333.532	6.51
333.904	6.42
334.276	6.48
334.648	6.51
335.02	7.03
335.391	7.12
335.763	6.34
336.135	6.84
336.507	7.17
336.879	6.6
337.25	6.48
337.622	6.81
337.993	6.42
338.365	7.04
338.736	6.52
339.108	6.83
339.479	6.84
339.851	6.23
340.222	7.22
340.593	6.79
340.964	7.14
341.336	7.33
341.707	6.88
342.078	7.67
342.449	7.11
342.82	6.99
343.191	7.24
343.562	7.3
343.933	7.28
344.303	7.3
344.674	7.36
345.045	7.22
345.416	7.21
345.786	7.66
346.157	8.11
346.527	7.26
346.898	7.48
347.268	7.26
347.639	7.21
348.009	7.41
348.38	7.77
348.75	7.84
349.12	8.24
349.49	7.9
349.861	7.57
350.231	8.09
350.601	8.31
350.971	7.63
351.341	7.87
351.711	7.89
352.081	7.81
352.45	8.31
352.82	8.02
353.19	8.32
353.56	8.19
353.929	7.96
354.299	7.85
354.669	7.85
355.038	7.93
355.408	8.34
355.777	8.44
356.147	8.15
356.516	8.45
356.885	7.88
357.254	8.45
357.624	8.64
357.993	8.09
358.362	8.55
358.731	8.43
359.1	8.39
359.469	8.46
359.838	8.8
360.207	8.71
360.576	8.49
360.945	8.74
361.314	8.83
361.682	8.66
362.051	8.57
362.42	8.65
362.788	8.83
363.157	8.84
363.525	8.68
363.894	8.58
364.262	8.85
364.631	8.97
364.999	8.95
365.367	9.26
365.735	8.89
366.104	8.73
366.472	9.23
366.84	9.01
367.208	9.08
367.576	9.61
367.944	9.03
368.312	9.46
368.68	9.34
369.048	9.08
369.416	9.54
369.783	9.24
370.151	9.74
370.519	9.52
370.886	9.27
371.254	9.57
371.621	9.89
371.989	10
372.356	9.72
372.724	9.8
373.091	9.65
373.458	9.52
373.826	9.66
374.193	9.75
374.56	10.26
374.927	10.13
375.294	10.1
375.661	9.69
376.028	9.89
376.395	10.04
376.762	10.06
377.129	10.39
377.496	10.31
377.863	9.99
378.229	10.67
378.596	10.05
378.963	10.42
379.329	10.31
379.696	10.3
380.062	10.49
380.429	10.49
380.795	10.54
381.161	10.08
381.528	10.43
381.894	10.48
382.26	10.7
382.626	10.67
382.993	10.81
383.359	10.49
383.725	10.5
384.091	10.41
384.457	10.61
384.823	10.81
385.188	10.89
385.554	10.82
385.92	10.74
386.286	11.19
386.651	11.17
387.017	10.69
387.383	10.71
387.748	10.88
388.114	10.94
388.479	10.97
388.845	10.76
389.21	11.03
389.575	11.21
389.94	11.21
390.306	11.57
390.671	11.31
391.036	11.23
391.401	10.99
391.766	11.21
392.131	11.41
392.496	11.39
392.861	11.35
393.226	11.34
393.591	11.3
393.956	11.54
394.32	11.38
394.685	11.7
395.05	11.73
395.414	11.81
395.779	11.63
396.143	11.63
396.508	11.41
396.872	11.71
397.236	11.85
397.601	11.73
397.965	11.91
398.329	11.69
398.694	11.81
399.058	12.03
399.422	12.03
399.786	11.87
400.15	11.93
400.514	12.08
400.878	12.01
401.242	12.1
401.605	12.13
401.969	12.1
402.333	12.13
402.697	12.43
403.06	12.01
403.424	12.21
403.787	12.26
404.151	12.57
404.514	12.32
404.878	12.23
405.241	12.29
405.604	12.43
405.968	12.27
406.331	12.37
406.694	12.18
407.057	12.41
407.42	12.44
407.783	12.31
408.146	12.43
408.509	12.53
408.872	12.56
409.235	12.63
409.598	12.48
409.961	12.53
410.323	12.87
410.686	13.02
411.049	12.81
411.411	12.83
411.774	13.06
412.136	13.03
412.499	12.75
412.861	12.94
413.223	12.8
413.586	13.05
413.948	13.11
414.31	13.21
414.672	13.17
415.035	13.08
415.397	13.06
415.759	13.06
416.121	13.18
416.483	13.1
416.845	13.13
417.206	13.41
417.568	13.28
417.93	13.14
418.292	13.21
418.653	13.08
419.015	13.45
419.377	13.26
419.738	13.2
420.1	13.43
420.461	13.36
420.822	13.36
421.184	13.42
421.545	13.31
421.906	13.2
422.267	13.38
422.629	13.35
422.99	13.29
423.351	13.29
423.712	13.4
424.073	13.38
424.434	13.59
424.795	13.7
425.155	13.74
425.516	13.64
425.877	13.73
426.238	13.76
426.598	13.74
426.959	13.77
427.32	13.95
427.68	13.93
428.041	13.93
428.401	14.02
428.761	14.18
429.122	14.05
429.482	14.21
429.842	14.3
430.202	14.2
430.563	14.51
430.923	14.65
431.283	14.43
431.643	14.71
432.003	14.44
432.363	14.73
432.722	14.67
433.082	14.59
433.442	14.57
433.802	14.87
434.161	14.77
434.521	14.91
434.881	14.66
435.24	14.8
435.6	15.1
435.959	14.84
436.319	15.01
436.678	14.92
437.037	15
437.396	15.15
437.756	15.13
438.115	15.12
438.474	15.05
438.833	15.27
439.192	15.38
439.551	15.5
439.91	15.18
440.269	15.27
440.628	15.23
440.987	15.44
441.345	15.54
441.704	15.39
442.063	15.45
442.421	15.48
442.78	15.47
443.138	15.45
443.497	15.49
443.855	15.67
444.214	15.61
444.572	15.76
444.93	15.67
445.288	15.82
445.647	15.84
446.005	15.85
446.363	16.06
446.721	15.8
447.079	15.83
447.437	15.85
447.795	15.73
448.153	15.74
448.51	15.8
448.868	15.85
449.226	15.96
449.584	15.92
449.941	15.97
450.299	16.09
450.656	16.21
451.014	16.28
451.371	16.37
451.729	16.48
452.086	16.42
452.443	16.65
452.801	16.51
453.158	16.57
453.515	16.58
453.872	16.82
454.229	16.73
454.586	16.73
454.943	16.89
455.3	16.78
455.657	16.89
456.014	16.86
456.371	16.95
456.727	16.97
457.084	16.94
457.441	17.04
457.797	17.05
458.154	17.03
458.51	17.06
458.867	17.15
459.223	17.33
459.58	17.31
459.936	17.41
460.292	17.42
460.648	17.14
461.005	17.25
461.361	17.05
461.717	17.13
462.073	17.09
462.429	17.19
462.785	17.26
463.141	17.41
463.496	17.64
463.852	17.53
464.208	17.88
464.564	17.64
464.919	17.8
465.275	17.93
465.631	18.07
465.986	17.88
466.342	17.87
466.697	17.98
467.052	18.03
467.408	17.96
467.763	18.07
468.118	18.29
468.473	18.14
468.829	18.09
469.184	18.33
469.539	18.33
469.894	18.31
470.249	18.5
470.603	18.55
470.958	18.57
471.313	18.46
471.668	18.33
472.023	18.47
472.377	18.64
472.732	18.9
473.086	18.74
473.441	18.78
473.795	18.66
474.15	18.78
474.504	18.87
474.859	18.76
475.213	18.78
475.567	19.07
475.921	18.98
476.275	18.92
476.63	19.09
476.984	18.82
477.338	18.98
477.692	19.18
478.045	19.25
478.399	19.1
478.753	19.17
479.107	19.1
479.461	19.15
479.814	19.32
480.168	19.18
480.521	19.3
480.875	19.41
481.228	19.31
481.582	19.5
481.935	19.52
482.289	19.42
482.642	19.38
482.995	19.39
483.348	19.41
483.701	19.32
484.055	19.15
484.408	19.14
484.761	19.01
485.114	18.85
485.466	18.95
485.819	18.9
486.172	18.88
486.525	18.93
486.878	18.88
487.23	19.06
487.583	19.25
487.936	19.42
488.288	19.47
488.641	19.35
488.993	19.29
489.345	19.31
489.698	19.28
490.05	19.32
490.402	19.37
490.754	19.44
491.107	19.62
491.459	19.81
491.811	19.91
492.163	19.94
492.515	19.97
492.866	19.87
493.218	19.8
493.57	19.7
493.922	19.68
494.274	19.82
494.625	20.07
494.977	20.26
495.328	20.48
495.68	20.49
496.031	20.7
496.383	20.95
496.734	20.7
497.086	20.92
497.437	20.93
497.788	21.09
498.139	20.9
498.49	20.93
498.842	20.98
499.193	21.02
499.544	21.1
499.894	21.13
500.245	21.21
500.596	21.23
500.947	21.22
501.298	21.44
501.648	21.39
501.999	21.45
502.35	21.5
502.7	21.76
503.051	21.72
503.401	21.6
503.752	21.7
504.102	21.77
504.452	21.77
504.803	21.98
505.153	21.93
505.503	21.93
505.853	22.01
506.203	21.88
506.553	22
506.903	21.91
507.253	22.01
507.603	22.3
507.953	22.26
508.303	22.42
508.652	22.29
509.002	22.28
509.352	22.36
509.701	22.29
510.051	22.46
510.4	22.19
510.75	22.41
511.099	22.28
511.449	22.29
511.798	22.36
512.147	22.46
512.496	22.61
512.846	22.4
513.195	22.68
513.544	22.73
513.893	22.75
514.242	22.72
514.591	22.72
514.939	22.73
515.288	22.89
515.637	22.82
515.986	23.04
516.334	22.99
516.683	23.29
517.032	23.2
517.38	23.18
517.729	23.31
518.077	23.18
518.426	23.34
518.774	23.25
519.122	23.13
519.47	23.25
519.819	23.13
520.167	23.18
520.515	23.07
520.863	23.22
521.211	23.22
521.559	23.24
521.907	23.43
522.255	23.3
522.602	23.56
522.95	23.62
523.298	23.73
523.645	23.89
523.993	23.9
524.341	24
524.688	24.04
525.036	23.88
525.383	23.85
525.73	24.05
526.078	24
526.425	24
526.772	23.88
527.119	23.73
527.466	23.74
527.814	23.86
528.161	23.78
528.508	23.94
528.854	23.8
529.201	24.02
529.548	23.66
529.895	23.75
530.242	23.73
530.588	23.81
530.935	23.65
531.282	23.72
531.628	23.76
531.975	23.86
532.321	23.96
532.667	24.15
533.014	24.3
533.36	24.37
533.706	24.52
534.052	24.41
534.399	24.54
534.745	24.26
535.091	24.38
535.437	24.39
535.783	24.48
536.129	24.57
536.474	24.6
536.82	24.74
537.166	24.86
537.512	25.04
537.857	25.06
538.203	25.04
538.549	25
538.894	25.06
539.239	25.08
539.585	25.15
539.93	25.27
540.276	25.31
540.621	25.66
540.966	25.71
541.311	25.72
541.656	25.58
542.001	25.42
542.346	25.39
542.691	25.23
543.036	25.24
543.381	25.25
543.726	25.33
544.071	25.29
544.415	25.36
544.76	25.48
545.105	25.65
545.449	25.76
545.794	25.86
546.138	26.03
546.483	26.02
546.827	26.02
547.171	26.26
547.516	26.18
547.86	26.26
548.204	26.36
548.548	26.2
548.892	26.43
549.236	26.36
549.58	26.5
549.924	26.76
550.268	26.82
550.612	26.78
550.956	27.04
551.3	26.92
551.643	27.31
551.987	27.28
552.33	27.42
552.674	27.39
553.017	27.28
553.361	27.26
553.704	27.3
554.048	27.33
554.391	27.47
554.734	27.37
555.077	27.47
555.42	27.56
555.764	27.57
556.107	27.37
556.45	27.78
556.793	27.7
557.135	27.89
557.478	27.84
557.821	28.01
558.164	28.13
558.507	28.11
558.849	27.88
559.192	28.18
559.534	28.06
559.877	28.21
560.219	28.31
560.562	28.5
560.904	28.37
561.246	28.48
561.589	28.4
561.931	28.68
562.273	28.53
562.615	28.41
562.957	28.62
563.299	28.76
563.641	28.86
563.983	28.52
564.325	28.83
564.667	28.78
565.008	28.6
565.35	28.9
565.692	28.66
566.033	28.71
566.375	28.64
566.716	29.01
567.058	28.94
567.399	29.07
567.741	29.03
568.082	28.98
568.423	28.97
568.764	28.97
569.105	29.05
569.447	29.24
569.788	29.37
570.129	29.21
570.47	29.31
570.811	29.63
571.151	29.42
571.492	29.52
571.833	29.53
572.174	29.2
572.514	29.48
572.855	29.55
573.195	29.71
573.536	29.56
573.876	29.62
574.217	29.52
574.557	29.78
574.898	29.77
575.238	29.83
575.578	29.76
575.918	29.96
576.258	30.12
576.598	29.87
576.938	30.05
577.278	30.12
577.618	30.44
577.958	29.87
578.298	30.38
578.638	30.37
578.977	30.04
579.317	30.44
579.657	30.51
579.996	30.4
580.336	30.69
580.675	30.57
581.014	30.72
581.354	30.78
581.693	30.76
582.032	30.82
582.372	30.68
582.711	31.05
583.05	30.95
583.389	30.82
583.728	30.77
584.067	31.02
584.406	31.22
584.745	31.25
585.083	31.32
585.422	31.48
585.761	31.37
586.1	31.28
586.438	31.5
586.777	31.69
587.115	31.71
587.454	31.56
587.792	31.4
588.13	31.69
588.469	31.5
588.807	31.69
589.145	31.81
589.483	31.96
589.821	31.73
590.159	31.87
590.497	31.83
590.835	31.87
591.173	31.83
591.511	31.88
591.849	32.13
592.187	32.01
592.524	31.94
592.862	32.18
593.2	32.3
593.537	32.13
593.875	32.51
594.212	32.37
594.55	32.33
594.887	32.59
595.224	32.54
595.561	32.55
595.899	32.5
596.236	32.54
596.573	32.45
596.91	32.49
597.247	32.21
597.584	32.65
597.921	32.33
598.258	32.38
598.594	32.43
598.931	32.59
599.268	32.17
599.604	32.5
599.941	32.42
600.277	32.63
600.614	32.94
600.95	33.21
601.287	33.12
601.623	33.31
601.959	33.02
602.296	33.12
602.632	33.09
602.968	33.2
603.304	33.38
603.64	33.39
603.976	33.42
604.312	33.31
604.648	33.43
604.984	33.69
605.319	33.53
605.655	33.29
605.991	33.37
606.326	33.24
606.662	33.33
606.998	33.28
607.333	33.39
607.668	33.53
608.004	33.63
608.339	33.64
608.674	33.71
609.01	33.81
609.345	33.83
609.68	34.05
610.015	34.29
610.35	33.95
610.685	33.83
611.02	33.9
611.355	33.69
611.689	33.87
612.024	34.15
612.359	34.14
612.694	34.04
613.028	34.1
613.363	34.3
613.697	34.43
614.032	34.57
614.366	34.68
614.7	34.34
615.035	34.82
615.369	34.62
615.703	34.74
616.037	34.95
616.371	34.73
616.705	34.68
617.039	35.13
617.373	34.93
617.707	34.59
618.041	35.08
618.375	35.14
618.709	35.32
619.042	34.74
619.376	35.44
619.71	35.31
620.043	35.61
620.377	35.55
620.71	35.28
621.043	35.42
621.377	35.82
621.71	35.35
622.043	35.64
622.376	35.63
622.709	35.8
623.043	35.67
623.376	35.67
623.709	35.42
624.041	35.94
624.374	35.75
624.707	35.48
625.04	35.46
625.373	35.56
625.705	35.54
626.038	35.75
626.37	36.24
626.703	36.07
627.035	36.15
627.368	36.42
627.7	35.93
628.032	35.89
628.365	35.82
628.697	35.95
629.029	36.03
629.361	36.38
629.693	36.61
630.025	35.95
630.357	36.43
630.689	36.56
631.021	36.19
631.353	36.75
631.684	36.18
632.016	36.9
632.348	36.86
632.679	36.66
633.011	36.73
633.342	36.7
633.674	36.94
634.005	36.76
634.336	36.84
634.668	36.74
634.999	37.3
635.33	36.73
635.661	36.85
635.992	36.95
636.323	36.82
636.654	37.23
636.985	37.07
637.316	37.39
637.647	36.77
637.977	37.03
638.308	37.1
638.639	37.32
638.969	37.28
639.3	37.73
639.63	37.45
639.961	37.28
640.291	37.38
640.622	37.86
640.952	37.8
641.282	37.29
641.612	37.88
641.943	37.67
642.273	37.21
642.603	37.75
642.933	37.56
643.263	37.71
643.592	38.32
643.922	37.78
644.252	37.77
644.582	38.15
644.911	38.42
645.241	38.08
645.571	37.98
645.9	38.01
646.23	38.33
646.559	38.16
646.888	38.48
647.218	38.01
647.547	37.91
647.876	38.08
648.205	38.55
648.534	38.09
648.863	38.37
649.192	37.93
649.521	38.11
649.85	38.45
650.179	38.54
650.508	38.52
650.837	38.63
651.165	37.92
651.494	38.78
651.822	38.9
652.151	38.72
652.479	38.18
652.808	38.9
653.136	38.96
653.465	38.85
653.793	38.66
654.121	38.45
654.449	39.15
654.777	38.82
655.105	39.22
655.433	39.26
655.761	39.49
656.089	39.09
656.417	39.05
656.745	39.32
657.073	39.1
657.4	39.31
657.728	38.89
658.056	39.49
658.383	39.42
658.711	39.09
659.038	39.65
659.365	39.46
659.693	39.68
660.02	39.32
660.347	39.58
660.674	39.14
661.001	39.17
661.329	39.68
661.656	39.03
661.982	39.51
662.309	39.75
662.636	39.94
662.963	39.28
663.29	39.46
663.616	39.46
663.943	39.99
664.27	39.32
664.596	39.53
664.923	40.08
665.249	39.76
665.576	39.75
665.902	39.81
666.228	40.71
666.554	39.77
666.881	39.93
667.207	39.52
667.533	40.12
667.859	40.08
668.185	39.98
668.511	40.12
668.837	39.78
669.162	40.18
669.488	40.69
669.814	40.98
670.139	40.05
670.465	41.2
670.791	40.59
671.116	40.91
671.442	41
671.767	40.71
672.092	40.49
672.418	40.55
