Data from 1832-1_chest_Reflection__4__20.txt Node

Date: Fri Sep 30 17:52:52 CDT 2022
User: ToomeyLab
Spectrometer: FLMS14357
Trigger mode: 0
Integration Time (sec): 1.000000E-2
Scans to average: 100
Electric dark correction enabled: true
Nonlinearity correction enabled: false
Boxcar width: 0
XAxis mode: Wavelengths
Number of Pixels in Spectrum: 2048
>>>>>Begin Spectral Data<<<<<
189.047	200
189.435	200
189.823	200
190.211	-32.14
190.599	10.63
190.987	-30.23
191.375	230600
191.763	-380.25
192.151	3.64
192.538	-148.39
192.926	-397.13
193.314	-99.25
193.702	71.2
194.089	131.52
194.477	-8.39
194.864	-70.68
195.252	59.42
195.639	176.23
196.027	84.8
196.414	170.49
196.801	61.76
197.189	11.54
197.576	91.12
197.963	20.83
198.351	23.58
198.738	5.58
199.125	47.23
199.512	36.84
199.899	3.96
200.286	55.88
200.673	49.25
201.06	28.89
201.447	25.45
201.833	40.75
202.22	26.03
202.607	67.57
202.994	92.31
203.38	13.46
203.767	1.65
204.154	12.61
204.54	36.81
204.927	27.41
205.313	5.73
205.699	26.22
206.086	-4.16
206.472	-11.84
206.858	13.42
207.245	18.58
207.631	24.5
208.017	1.78
208.403	-3.04
208.789	1.39
209.175	43.19
209.561	0.95
209.947	4.26
210.333	-43.92
210.719	-6.45
211.105	0.26
211.491	29.01
211.876	36.52
212.262	1.16
212.648	17.35
213.034	-19.46
213.419	18.91
213.805	-18.71
214.19	8.29
214.576	1.8
214.961	-9.86
215.346	17.35
215.732	19.81
216.117	5.57
216.502	14.56
216.888	25.9
217.273	0.3
217.658	39.04
218.043	-5.66
218.428	21.35
218.813	18.04
219.198	12.61
219.583	12.65
219.968	11.68
220.353	16.29
220.738	8.45
221.122	1.53
221.507	17.7
221.892	14.2
222.276	-1.27
222.661	17.09
223.046	2.59
223.43	2.51
223.815	8.87
224.199	10.57
224.583	0.77
224.968	1.9
225.352	5.91
225.736	7.96
226.121	9.85
226.505	2.38
226.889	4.22
227.273	1.65
227.657	10.54
228.041	6.33
228.425	5.59
228.809	7.02
229.193	7.14
229.577	3.49
229.961	6.05
230.344	4.72
230.728	4.18
231.112	5.13
231.495	3.82
231.879	6.61
232.263	5.09
232.646	4.61
233.03	6.03
233.413	4.01
233.797	5.05
234.18	5.52
234.563	6.29
234.946	6.59
235.33	5.48
235.713	6.18
236.096	5.53
236.479	5.56
236.862	5.02
237.245	5.26
237.628	3.93
238.011	6.12
238.394	3.93
238.777	4.27
239.16	4.37
239.543	6.81
239.925	4.3
240.308	4.6
240.691	6.23
241.073	4.88
241.456	3.86
241.838	5.64
242.221	5.06
242.603	5.31
242.986	5.5
243.368	3.92
243.75	4.33
244.133	4.89
244.515	4.51
244.897	4.46
245.279	4.86
245.661	4.55
246.043	3.9
246.425	3.91
246.807	4.5
247.189	5.28
247.571	4.22
247.953	4.72
248.335	4.4
248.717	4.22
249.098	4.68
249.48	4.24
249.862	3.98
250.243	4.16
250.625	4.59
251.006	4.3
251.388	3.6
251.769	5.01
252.151	5.04
252.532	4.4
252.913	3.74
253.295	4.42
253.676	4.32
254.057	4.31
254.438	4.22
254.819	4.84
255.2	4.42
255.581	3.93
255.962	5.07
256.343	4.68
256.724	3.49
257.105	5.26
257.486	4.7
257.867	5.11
258.247	4.88
258.628	4.58
259.009	4.64
259.389	3.97
259.77	5.21
260.15	4.06
260.531	5.25
260.911	4.09
261.292	3.94
261.672	3.96
262.052	3.99
262.432	4.02
262.813	4.88
263.193	4.07
263.573	4.03
263.953	4.07
264.333	4.68
264.713	3.61
265.093	3.95
265.473	4.21
265.853	3.77
266.233	3.34
266.612	4.59
266.992	3.96
267.372	3.81
267.752	3.17
268.131	4.12
268.511	4.05
268.89	3.58
269.27	4.42
269.649	3.79
270.029	4.26
270.408	4.1
270.787	4.26
271.167	3.87
271.546	4.08
271.925	4.37
272.304	3.92
272.683	3.74
273.062	3.84
273.441	3.84
273.82	3.74
274.199	4.07
274.578	3.99
274.957	3.79
275.336	4.03
275.715	4.05
276.093	3.94
276.472	3.52
276.851	4.11
277.229	3.88
277.608	3.52
277.986	3.9
278.365	4.18
278.743	3.52
279.122	4
279.5	4.24
279.878	3.55
280.257	3.93
280.635	3.89
281.013	4.26
281.391	3.84
281.769	3.6
282.147	3.92
282.525	4.06
282.903	3.58
283.281	3.78
283.659	3.81
284.037	3.97
284.415	3.64
284.792	3.87
285.17	3.72
285.548	3.8
285.925	3.86
286.303	3.87
286.68	3.61
287.058	3.65
287.435	3.78
287.813	3.73
288.19	3.91
288.567	4.06
288.945	3.53
289.322	3.43
289.699	3.87
290.076	3.56
290.453	4.18
290.83	3.9
291.207	3.43
291.584	3.92
291.961	3.87
292.338	3.96
292.715	4.08
293.092	3.97
293.469	3.66
293.845	4.38
294.222	3.88
294.599	4.21
294.975	4.27
295.352	4.04
295.728	4.15
296.105	3.68
296.481	4.05
296.858	4.05
297.234	3.68
297.61	3.65
297.986	3.46
298.363	4.1
298.739	3.63
299.115	3.63
299.491	3.84
299.867	3.79
300.243	3.77
300.619	3.71
300.995	4.43
301.371	4.01
301.746	3.74
302.122	4.24
302.498	3.91
302.874	3.79
303.249	3.75
303.625	3.91
304	3.96
304.376	3.51
304.751	4.09
305.127	3.82
305.502	4.07
305.878	3.92
306.253	3.96
306.628	4.16
307.003	3.92
307.378	4.09
307.754	3.78
308.129	3.7
308.504	3.73
308.879	3.92
309.254	3.96
309.629	3.81
310.003	3.8
310.378	3.63
310.753	3.91
311.128	3.57
311.502	3.87
311.877	3.6
312.252	3.82
312.626	3.85
313.001	3.93
313.375	3.49
313.75	4.04
314.124	3.64
314.498	3.88
314.873	3.54
315.247	3.38
315.621	3.95
315.995	4.24
316.369	3.28
316.743	4.28
317.117	4.08
317.491	4.54
317.865	4.62
318.239	4.36
318.613	4.12
318.987	3.93
319.361	4.12
319.734	3.81
320.108	4.35
320.482	4.03
320.855	3.6
321.229	3.88
321.602	3.77
321.976	4.08
322.349	3.82
322.723	3.9
323.096	4.2
323.469	3.99
323.843	4.4
324.216	3.49
324.589	4.47
324.962	4.27
325.335	3.85
325.708	3.87
326.081	4.35
326.454	3.98
326.827	4.31
327.2	3.75
327.573	3.66
327.945	3.94
328.318	3.46
328.691	4.14
329.063	4.15
329.436	3.71
329.809	4.46
330.181	3.99
330.553	3.49
330.926	3.97
331.298	4.04
331.671	3.79
332.043	3.68
332.415	3.96
332.787	4.22
333.159	3.99
333.532	4.04
333.904	3.85
334.276	3.9
334.648	3.94
335.02	4.37
335.391	4.28
335.763	3.55
336.135	3.81
336.507	4.23
336.879	3.6
337.25	4
337.622	3.97
337.993	3.9
338.365	3.97
338.736	3.69
339.108	4.2
339.479	4.44
339.851	3.56
340.222	4.41
340.593	4.12
340.964	3.96
341.336	4
341.707	4.04
342.078	4.15
342.449	4.23
342.82	3.51
343.191	3.78
343.562	3.97
343.933	4.05
344.303	3.76
344.674	3.98
345.045	3.58
345.416	4.07
345.786	4.07
346.157	4.51
346.527	3.81
346.898	3.85
347.268	3.5
347.639	3.77
348.009	4.13
348.38	4.56
348.75	4.1
349.12	3.94
349.49	4.58
349.861	4.05
350.231	4.02
350.601	4.21
350.971	3.64
351.341	4.05
351.711	4
352.081	3.87
352.45	4.05
352.82	3.81
353.19	4.04
353.56	3.83
353.929	4.06
354.299	4.38
354.669	3.8
355.038	3.78
355.408	4
355.777	3.51
356.147	3.88
356.516	4.37
356.885	3.99
357.254	4.3
357.624	3.97
357.993	3.65
358.362	3.96
358.731	3.96
359.1	3.62
359.469	3.76
359.838	4.25
360.207	3.93
360.576	3.78
360.945	3.85
361.314	4.11
361.682	3.84
362.051	3.97
362.42	4
362.788	3.82
363.157	3.96
363.525	3.76
363.894	3.84
364.262	4.08
364.631	4.01
364.999	4.11
365.367	4.27
365.735	3.9
366.104	3.7
366.472	4.41
366.84	4.18
367.208	4.15
367.576	4.31
367.944	4.03
368.312	3.84
368.68	3.63
369.048	3.56
369.416	4.15
369.783	4.17
370.151	3.71
370.519	4.34
370.886	4.19
371.254	3.9
371.621	4.22
371.989	4.43
372.356	4.19
372.724	4.15
373.091	3.96
373.458	3.95
373.826	4.22
374.193	4.17
374.56	4.31
374.927	4.27
375.294	4.4
375.661	4
376.028	4.02
376.395	3.8
376.762	3.95
377.129	4.38
377.496	4.15
377.863	3.85
378.229	4.19
378.596	4.23
378.963	4.18
379.329	3.91
379.696	4.16
380.062	4.14
380.429	4.08
380.795	3.9
381.161	3.98
381.528	4.28
381.894	4.02
382.26	3.9
382.626	3.99
382.993	4.02
383.359	4.01
383.725	3.99
384.091	3.92
384.457	4.28
384.823	4.42
385.188	4.14
385.554	4.15
385.92	4.22
386.286	4.28
386.651	4.45
387.017	4.38
387.383	4.05
387.748	3.73
388.114	4.31
388.479	4.13
388.845	4.04
389.21	4.15
389.575	4.24
389.94	4.26
390.306	4.24
390.671	4.12
391.036	4.21
391.401	3.9
391.766	4.19
392.131	4.01
392.496	4.2
392.861	4.06
393.226	4.11
393.591	3.91
393.956	4.22
394.32	4.01
394.685	3.96
395.05	4.12
395.414	4.11
395.779	4.05
396.143	4.09
396.508	4.06
396.872	4.23
397.236	4.15
397.601	4.25
397.965	4.16
398.329	3.68
398.694	4.19
399.058	4.18
399.422	4.18
399.786	3.93
400.15	4.11
400.514	4.25
400.878	4.17
401.242	4.01
401.605	4.07
401.969	4.23
402.333	4.21
402.697	4.48
403.06	3.94
403.424	3.84
403.787	4.1
404.151	4.43
404.514	4.3
404.878	4.08
405.241	4.21
405.604	4.32
405.968	4.27
406.331	4.15
406.694	4.06
407.057	4.18
407.42	4.18
407.783	3.96
408.146	4.09
408.509	3.99
408.872	4.17
409.235	4.2
409.598	4.13
409.961	4.13
410.323	4.25
410.686	4.55
411.049	3.92
411.411	4.56
411.774	4.13
412.136	4.2
412.499	4.05
412.861	4.1
413.223	3.99
413.586	3.93
413.948	4.15
414.31	4.44
414.672	4.29
415.035	4.49
415.397	4.15
415.759	4.17
416.121	4.3
416.483	4.08
416.845	4.12
417.206	4.21
417.568	4.14
417.93	3.89
418.292	4.13
418.653	3.97
419.015	4.21
419.377	4.19
419.738	3.92
420.1	4.21
420.461	4.1
420.822	4.02
421.184	4.04
421.545	4.03
421.906	3.95
422.267	3.91
422.629	4.05
422.99	4.02
423.351	3.95
423.712	4.02
424.073	4.02
424.434	4.09
424.795	4.02
425.155	4.08
425.516	4.05
425.877	4.15
426.238	3.96
426.598	4.11
426.959	4.04
427.32	4.11
427.68	4.15
428.041	4.03
428.401	4.17
428.761	4.3
429.122	4.32
429.482	4.1
429.842	4.38
430.202	4.18
430.563	4.26
430.923	4.04
431.283	3.97
431.643	4.22
432.003	4.18
432.363	4.18
432.722	4.2
433.082	4.31
433.442	4.15
433.802	4.29
434.161	4.28
434.521	4.21
434.881	3.98
435.24	4.14
435.6	4.2
435.959	4.2
436.319	4.17
436.678	4.16
437.037	4.29
437.396	4.24
437.756	4.22
438.115	4.15
438.474	4.22
438.833	4.28
439.192	4.24
439.551	4.28
439.91	4.21
440.269	3.96
440.628	4.16
440.987	4.18
441.345	4.17
441.704	4.26
442.063	4.28
442.421	4.18
442.78	4.18
443.138	4.11
443.497	4.19
443.855	4.25
444.214	4.25
444.572	4.36
444.93	4.07
445.288	4.39
445.647	4.11
446.005	4.17
446.363	4.39
446.721	4.11
447.079	4.15
447.437	4.14
447.795	4.07
448.153	4.11
448.51	4.1
448.868	4
449.226	4.24
449.584	4.11
449.941	4.11
450.299	4.15
450.656	4.28
451.014	4.32
451.371	4.27
451.729	4.23
452.086	4.3
452.443	4.37
452.801	4.23
453.158	4.16
453.515	4.15
453.872	4.35
454.229	4.15
454.586	4.28
454.943	4.32
455.3	4.18
455.657	4.32
456.014	4.04
456.371	4.32
456.727	4.28
457.084	4.25
457.441	4.22
457.797	4.27
458.154	4.05
458.51	4.21
458.867	4.21
459.223	4.22
459.58	4.38
459.936	4.36
460.292	4.23
460.648	4.13
461.005	4.28
461.361	4.19
461.717	4.07
462.073	4.12
462.429	4.15
462.785	4.31
463.141	4.24
463.496	4.28
463.852	4.19
464.208	4.45
464.564	4.19
464.919	4.29
465.275	4.23
465.631	4.5
465.986	4.27
466.342	4.41
466.697	4.29
467.052	4.4
467.408	4.22
467.763	4.17
468.118	4.29
468.473	4.26
468.829	4.22
469.184	4.32
469.539	4.33
469.894	4.29
470.249	4.26
470.603	4.47
470.958	4.2
471.313	4.21
471.668	4.28
472.023	4.34
472.377	4.14
472.732	4.31
473.086	4.35
473.441	4.52
473.795	4.3
474.15	4.25
474.504	4.45
474.859	4.36
475.213	4.29
475.567	4.42
475.921	4.37
476.275	4.37
476.63	4.27
476.984	4.33
477.338	4.22
477.692	4.44
478.045	4.32
478.399	4.31
478.753	4.28
479.107	4.27
479.461	4.27
479.814	4.32
480.168	4.46
480.521	4.36
480.875	4.43
481.228	4.41
481.582	4.37
481.935	4.18
482.289	4.37
482.642	4.34
482.995	4.29
483.348	4.22
483.701	4.37
484.055	4.25
484.408	4.19
484.761	4.12
485.114	4.07
485.466	4.06
485.819	4.03
486.172	4.11
486.525	4.15
486.878	4.18
487.23	4.18
487.583	4.17
487.936	4.28
488.288	4.27
488.641	4.15
488.993	4.14
489.345	4.09
489.698	4.15
490.05	4.16
490.402	4.24
490.754	4.24
491.107	4.19
491.459	4.29
491.811	4.26
492.163	4.37
492.515	4.25
492.866	4.23
493.218	4.12
493.57	4.14
493.922	4.18
494.274	4.25
494.625	4.26
494.977	4.37
495.328	4.48
495.68	4.35
496.031	4.36
496.383	4.48
496.734	4.45
497.086	4.35
497.437	4.6
497.788	4.41
498.139	4.37
498.49	4.36
498.842	4.37
499.193	4.4
499.544	4.39
499.894	4.42
500.245	4.43
500.596	4.35
500.947	4.42
501.298	4.64
501.648	4.45
501.999	4.54
502.35	4.47
502.7	4.41
503.051	4.43
503.401	4.51
503.752	4.48
504.102	4.49
504.452	4.42
504.803	4.5
505.153	4.55
505.503	4.44
505.853	4.46
506.203	4.41
506.553	4.55
506.903	4.52
507.253	4.43
507.603	4.68
507.953	4.6
508.303	4.59
508.652	4.54
509.002	4.62
509.352	4.61
509.701	4.49
510.051	4.56
510.4	4.47
510.75	4.52
511.099	4.47
511.449	4.5
511.798	4.48
512.147	4.46
512.496	4.48
512.846	4.6
513.195	4.54
513.544	4.48
513.893	4.53
514.242	4.57
514.591	4.56
514.939	4.64
515.288	4.63
515.637	4.55
515.986	4.66
516.334	4.63
516.683	4.6
517.032	4.62
517.38	4.45
517.729	4.67
518.077	4.63
518.426	4.56
518.774	4.6
519.122	4.57
519.47	4.6
519.819	4.62
520.167	4.64
520.515	4.56
520.863	4.57
521.211	4.61
521.559	4.69
521.907	4.77
522.255	4.61
522.602	4.74
522.95	4.79
523.298	4.8
523.645	4.7
523.993	4.76
524.341	4.75
524.688	4.73
525.036	4.75
525.383	4.57
525.73	4.71
526.078	4.85
526.425	4.59
526.772	4.74
527.119	4.65
527.466	4.62
527.814	4.7
528.161	4.63
528.508	4.63
528.854	4.62
529.201	4.71
529.548	4.55
529.895	4.58
530.242	4.53
530.588	4.61
530.935	4.63
531.282	4.66
531.628	4.69
531.975	4.71
532.321	4.72
532.667	4.76
533.014	4.77
533.36	4.78
533.706	4.79
534.052	4.78
534.399	4.81
534.745	4.72
535.091	4.67
535.437	4.76
535.783	4.77
536.129	4.83
536.474	4.74
536.82	4.87
537.166	4.89
537.512	4.86
537.857	4.96
538.203	4.83
538.549	4.79
538.894	4.86
539.239	4.95
539.585	4.91
539.93	4.92
540.276	4.97
540.621	4.94
540.966	5.04
541.311	5.06
541.656	4.97
542.001	4.89
542.346	4.9
542.691	4.86
543.036	4.82
543.381	4.83
543.726	4.9
544.071	5.02
544.415	4.99
544.76	4.97
545.105	4.94
545.449	5.05
545.794	5.06
546.138	5.02
546.483	5.16
546.827	5
547.171	5.16
547.516	5.11
547.86	5.1
548.204	5.13
548.548	5.12
548.892	5.1
549.236	5.15
549.58	5.32
549.924	5.19
550.268	5.34
550.612	5.31
550.956	5.46
551.3	5.47
551.643	5.37
551.987	5.38
552.33	5.37
552.674	5.42
553.017	5.28
553.361	5.38
553.704	5.48
554.048	5.36
554.391	5.62
554.734	5.31
555.077	5.46
555.42	5.61
555.764	5.49
556.107	5.51
556.45	5.58
556.793	5.48
557.135	5.61
557.478	5.58
557.821	5.57
558.164	5.79
558.507	5.74
558.849	5.6
559.192	5.56
559.534	5.69
559.877	5.67
560.219	5.62
560.562	5.67
560.904	5.72
561.246	5.77
561.589	5.71
561.931	5.69
562.273	5.88
562.615	5.73
562.957	5.92
563.299	5.93
563.641	5.83
563.983	5.77
564.325	5.93
564.667	6.03
565.008	5.77
565.35	5.85
565.692	5.84
566.033	5.8
566.375	5.74
566.716	6.08
567.058	5.99
567.399	5.89
567.741	5.98
568.082	5.89
568.423	6.09
568.764	6.02
569.105	5.9
569.447	5.91
569.788	6.04
570.129	6.06
570.47	6.11
570.811	6.12
571.151	6.13
571.492	6.2
571.833	6.07
572.174	5.94
572.514	6.25
572.855	6.03
573.195	6.3
573.536	6.27
573.876	6.25
574.217	6.17
574.557	6.36
574.898	6.27
575.238	6.36
575.578	6.41
575.918	6.29
576.258	6.48
576.598	6.35
576.938	6.4
577.278	6.44
577.618	6.57
577.958	6.33
578.298	6.76
578.638	6.67
578.977	6.53
579.317	6.53
579.657	6.55
579.996	6.55
580.336	6.77
580.675	6.59
581.014	6.62
581.354	6.77
581.693	6.65
582.032	6.54
582.372	6.6
582.711	6.72
583.05	6.56
583.389	6.83
583.728	6.72
584.067	6.83
584.406	6.89
584.745	7.22
585.083	6.78
585.422	7.12
585.761	6.88
586.1	6.96
586.438	7.02
586.777	7.13
587.115	7.25
587.454	7.1
587.792	6.94
588.13	7.2
588.469	6.93
588.807	7.17
589.145	7
589.483	7.39
589.821	7.21
590.159	7.17
590.497	7.22
590.835	7.15
591.173	7.19
591.511	7.19
591.849	7.34
592.187	7.24
592.524	7.15
592.862	7.42
593.2	7.29
593.537	7.19
593.875	7.47
594.212	7.33
594.55	7.24
594.887	7.55
595.224	7.43
595.561	7.32
595.899	7.49
596.236	7.51
596.573	7.5
596.91	7.4
597.247	7.29
597.584	7.53
597.921	7.56
598.258	7.66
598.594	7.6
598.931	7.41
599.268	7.56
599.604	7.63
599.941	7.53
600.277	7.66
600.614	7.67
600.95	8.2
601.287	7.74
601.623	7.97
601.959	7.89
602.296	8.14
602.632	8.01
602.968	8.05
603.304	7.76
603.64	8.01
603.976	8.03
604.312	7.98
604.648	8.12
604.984	8.19
605.319	8.22
605.655	8.1
605.991	8.16
606.326	8.06
606.662	8.24
606.998	8.18
607.333	8.2
607.668	8.26
608.004	8.39
608.339	8.09
608.674	8.56
609.01	8.15
609.345	8.31
609.68	8.48
610.015	8.39
610.35	8.29
610.685	8.29
611.02	8.27
611.355	8.23
611.689	8.52
612.024	8.41
612.359	8.64
612.694	8.97
613.028	8.54
613.363	8.5
613.697	8.57
614.032	8.61
614.366	8.79
614.7	8.63
615.035	8.95
615.369	8.86
615.703	8.95
616.037	8.95
616.371	8.86
616.705	8.78
617.039	9.09
617.373	9.14
617.707	8.71
618.041	8.9
618.375	9.16
618.709	9.26
619.042	8.97
619.376	9.47
619.71	9.2
620.043	9.44
620.377	9.39
620.71	9.09
621.043	9.38
621.377	9.19
621.71	9.08
622.043	9.25
622.376	9.24
622.709	9.51
623.043	9.51
623.376	9.12
623.709	9.5
624.041	9.59
624.374	9.67
624.707	9
625.04	9.16
625.373	9.8
625.705	9.59
626.038	9.39
626.37	9.6
626.703	10.01
627.035	9.69
627.368	10.02
627.7	9.72
628.032	9.72
628.365	9.63
628.697	9.84
629.029	9.62
629.361	9.92
629.693	10.06
630.025	9.61
630.357	9.96
630.689	10.07
631.021	9.93
631.353	9.86
631.684	10.02
632.016	10.53
632.348	10.23
632.679	9.97
633.011	10.06
633.342	10.11
633.674	10.47
634.005	10.39
634.336	10.39
634.668	10.1
634.999	10.23
635.33	10.61
635.661	10.26
635.992	10.45
636.323	10.27
636.654	10.44
636.985	10.37
637.316	10.8
637.647	10.3
637.977	10.58
638.308	10.39
638.639	10.35
638.969	10.54
639.3	10.53
639.63	10.39
639.961	10.9
640.291	10.51
640.622	10.74
640.952	10.76
641.282	10.84
641.612	10.87
641.943	10.99
642.273	10.81
642.603	10.83
642.933	10.57
643.263	11.19
643.592	11.19
643.922	10.81
644.252	11.02
644.582	11.27
644.911	11.74
645.241	10.91
645.571	11.23
645.9	10.98
646.23	10.69
646.559	11.18
646.888	11.16
647.218	11.04
647.547	11.25
647.876	11.34
648.205	11.33
648.534	11.11
648.863	11.31
649.192	11.4
649.521	11.53
649.85	11.46
650.179	11.63
650.508	11.64
650.837	11.64
651.165	11.08
651.494	11.83
651.822	11.73
652.151	12.03
652.479	11.64
652.808	11.81
653.136	11.65
653.465	11.43
653.793	11.68
654.121	11.31
654.449	11.65
654.777	11.77
655.105	11.82
655.433	11.93
655.761	12.5
656.089	12.3
656.417	11.58
656.745	12.26
657.073	11.9
657.4	12.05
657.728	12.29
658.056	11.84
658.383	12.12
658.711	12.4
659.038	11.95
659.365	12.15
659.693	11.92
660.02	12.24
660.347	12.54
660.674	12.43
661.001	12.18
661.329	12.42
661.656	12.14
661.982	12.6
662.309	12.51
662.636	12.52
662.963	12.51
663.29	12.73
663.616	12.43
663.943	12.69
664.27	12.24
664.596	12.53
664.923	12.69
665.249	12.68
665.576	12.72
665.902	13.01
666.228	13.59
666.554	13.32
666.881	13.32
667.207	12.94
667.533	12.8
667.859	13.25
668.185	13.15
668.511	12.6
668.837	13.34
669.162	13.3
669.488	13.16
669.814	13.17
670.139	12.79
670.465	14.06
670.791	13.18
671.116	13.64
671.442	13.74
671.767	13.11
672.092	13.15
672.418	12.8
672.743	13.87
673.068	14.12
673.393	13.48
673.718	13.55
674.043	13.89
674.368	13.87
674.693	13.65
675.018	13.43
675.343	13.92
675.667	13.44
675.992	13.47
676.317	13.57
676.641	13.51
676.966	13.67
677.29	12.91
677.615	13.46
677.939	13.86
678.264	13.03
678.588	14.44
678.912	13.87
679.236	13.71
679.56	13.65
679.885	14.25
680.209	13.97
680.532	14.14
680.856	14.03
681.18	14.32
681.504	13.79
681.828	14.38
682.152	13.62
682.475	13.85
682.799	14.34
683.122	14.43
683.446	14.65
683.769	14.89
684.093	14.31
684.416	14.88
684.739	14.51
685.062	14.81
685.386	14.95
685.709	14.29
686.032	14.85
686.355	14.36
686.678	14.57
687.001	15.63
687.324	15.22
687.646	14.64
687.969	14.67
688.292	14.51
688.614	14.65
688.937	14.91
