Data from 1832-1_crown_Reflection__4__30.txt Node

Date: Fri Sep 30 17:58:02 CDT 2022
User: ToomeyLab
Spectrometer: FLMS14357
Trigger mode: 0
Integration Time (sec): 1.000000E-2
Scans to average: 100
Electric dark correction enabled: true
Nonlinearity correction enabled: false
Boxcar width: 0
XAxis mode: Wavelengths
Number of Pixels in Spectrum: 2048
>>>>>Begin Spectral Data<<<<<
189.047	-28.74
189.435	-28.74
189.823	-28.74
190.211	228.04
190.599	55.3
190.987	-16.39
191.375	345700
191.763	134.41
192.151	14.91
192.538	13.08
192.926	789
193.314	-220.56
193.702	8.29
194.089	-46.17
194.477	-27.96
194.864	-116.69
195.252	91.5
195.639	249.78
196.027	22.4
196.414	124.47
196.801	47.1
197.189	271.57
197.576	113.82
197.963	-19.02
198.351	21.23
198.738	1.63
199.125	15.11
199.512	3.92
199.899	8.34
200.286	5.53
200.673	33.54
201.06	34.59
201.447	33.06
201.833	29.56
202.22	44.65
202.607	35.13
202.994	58.91
203.38	35.95
203.767	4.35
204.154	25.97
204.54	31.11
204.927	20.39
205.313	-36.41
205.699	-3.54
206.086	-32.84
206.472	-16.16
206.858	15.85
207.245	18.79
207.631	-38.27
208.017	-0.87
208.403	28.33
208.789	0.76
209.175	29.45
209.561	18.16
209.947	18.34
210.333	-51.36
210.719	2.07
211.105	-15.79
211.491	-6.45
211.876	32.98
212.262	-2.58
212.648	27.56
213.034	-19.28
213.419	8.72
213.805	-5.57
214.19	0.48
214.576	23.59
214.961	5.06
215.346	13.16
215.732	-0.09
216.117	4.84
216.502	25.45
216.888	25.83
217.273	9.42
217.658	0.92
218.043	-7.41
218.428	-23.18
218.813	24.12
219.198	9.36
219.583	-3.06
219.968	4.69
220.353	11.92
220.738	18.05
221.122	6.19
221.507	9.57
221.892	4.07
222.276	-2
222.661	11.68
223.046	-1.73
223.43	9.7
223.815	-0.39
224.199	2.52
224.583	-0.77
224.968	-0.63
225.352	-1.53
225.736	1.63
226.121	14.69
226.505	-0.21
226.889	0.58
227.273	-1.65
227.657	4.19
228.041	4.04
228.425	5.02
228.809	3.35
229.193	3.2
229.577	0.66
229.961	1.5
230.344	2.17
230.728	1.63
231.112	1.98
231.495	0.67
231.879	3.97
232.263	0.56
232.646	1.32
233.03	2.16
233.413	2.19
233.797	3.4
234.18	0.55
234.563	1.54
234.946	4.17
235.33	0.54
235.713	3.26
236.096	2.69
236.479	1.35
236.862	1.54
237.245	2.57
237.628	0.56
238.011	3.42
238.394	0.81
238.777	0.55
239.16	1.99
239.543	2.69
239.925	1.02
240.308	1.64
240.691	2.79
241.073	1.64
241.456	2.14
241.838	2.36
242.221	1.2
242.603	1.82
242.986	2.1
243.368	0.51
243.75	1.42
244.133	1.97
244.515	1.94
244.897	2.09
245.279	1.32
245.661	1.62
246.043	1.4
246.425	1.07
246.807	1.84
247.189	2.15
247.571	2.05
247.953	1.89
248.335	1.43
248.717	1.44
249.098	1.78
249.48	1.55
249.862	1.34
250.243	1.37
250.625	2.16
251.006	1.94
251.388	0.61
251.769	1.81
252.151	1.43
252.532	1.16
252.913	1.39
253.295	1.8
253.676	1.09
254.057	1.9
254.438	1.78
254.819	2.63
255.2	1.62
255.581	2.34
255.962	2.29
256.343	2.2
256.724	1.43
257.105	2.05
257.486	1.69
257.867	2.52
258.247	1.71
258.628	2.62
259.009	2.23
259.389	1.05
259.77	2.23
260.15	1.23
260.531	1.87
260.911	1.56
261.292	1.4
261.672	1.66
262.052	1.43
262.432	1.47
262.813	1.74
263.193	1.35
263.573	1.06
263.953	1.25
264.333	1.83
264.713	0.5
265.093	1.67
265.473	1.48
265.853	1.56
266.233	0.66
266.612	2.13
266.992	1.25
267.372	0.11
267.752	1.68
268.131	1.84
268.511	1.33
268.89	0.91
269.27	1.76
269.649	1.25
270.029	1.44
270.408	1.66
270.787	1.27
271.167	1.61
271.546	2.2
271.925	1.99
272.304	1.84
272.683	1.01
273.062	1.69
273.441	1.32
273.82	1.31
274.199	1.75
274.578	1.43
274.957	1.66
275.336	1.65
275.715	1.39
276.093	1.45
276.472	1.3
276.851	1.59
277.229	1.19
277.608	1.7
277.986	1.6
278.365	2.12
278.743	1.24
279.122	1.19
279.5	1.17
279.878	1.76
280.257	1.38
280.635	1.55
281.013	2
281.391	0.93
281.769	1.8
282.147	1.65
282.525	1.48
282.903	1.07
283.281	1.47
283.659	1.79
284.037	1.49
284.415	1.53
284.792	2.12
285.17	1.39
285.548	1.36
285.925	1.81
286.303	1.15
286.68	1.16
287.058	1.46
287.435	1.26
287.813	1.4
288.19	1.48
288.567	1.46
288.945	0.75
289.322	1.29
289.699	1.27
290.076	1.26
290.453	1.48
290.83	1.44
291.207	1.33
291.584	1.45
291.961	1.64
292.338	1.41
292.715	1.69
293.092	1.25
293.469	1.66
293.845	1.97
294.222	1.98
294.599	1.91
294.975	1.32
295.352	1.51
295.728	1.7
296.105	1.7
296.481	1.49
296.858	1.55
297.234	1.07
297.61	1.44
297.986	1.23
298.363	1.57
298.739	1.13
299.115	1.02
299.491	1.46
299.867	1.02
300.243	1.61
300.619	1.31
300.995	2.02
301.371	1.43
301.746	0.68
302.122	1.57
302.498	1.44
302.874	1.05
303.249	1.4
303.625	1.75
304	1.15
304.376	1.1
304.751	1.66
305.127	1.16
305.502	1.28
305.878	1.43
306.253	1.3
306.628	1.19
307.003	1.22
307.378	1.52
307.754	1.34
308.129	1.48
308.504	1.14
308.879	1.42
309.254	0.69
309.629	1.47
310.003	1.19
310.378	1.63
310.753	1.56
311.128	1.05
311.502	1.67
311.877	1.32
312.252	1.47
312.626	1.54
313.001	1.3
313.375	1.21
313.75	1.73
314.124	1.69
314.498	1.35
314.873	1.49
315.247	1.3
315.621	1.95
315.995	1.76
316.369	1.32
316.743	1.92
317.117	1.9
317.491	2.35
317.865	2.04
318.239	1.98
318.613	1.74
318.987	1.3
319.361	1.33
319.734	1.09
320.108	1.51
320.482	1.24
320.855	1.66
321.229	1.55
321.602	1.59
321.976	1.56
322.349	1.83
322.723	1.81
323.096	2.07
323.469	2.3
323.843	1.51
324.216	1.83
324.589	1.99
324.962	1.92
325.335	1.49
325.708	1.59
326.081	1.71
326.454	1.51
326.827	1.47
327.2	1.41
327.573	1.25
327.945	1.69
328.318	1.31
328.691	1.79
329.063	1.53
329.436	1.55
329.809	1.51
330.181	1.47
330.553	1.38
330.926	1.6
331.298	1.26
331.671	1.67
332.043	1.32
332.415	1.6
332.787	1.61
333.159	1.52
333.532	1.22
333.904	1.64
334.276	1.6
334.648	1.69
335.02	1.69
335.391	1.76
335.763	1.25
336.135	1.46
336.507	1.87
336.879	1.61
337.25	1.77
337.622	1.48
337.993	1.37
338.365	1.08
338.736	1.91
339.108	1.81
339.479	1.47
339.851	1.3
340.222	1.97
340.593	1.57
340.964	1.52
341.336	1.65
341.707	1.18
342.078	1.7
342.449	2.1
342.82	1.2
343.191	1.52
343.562	1.7
343.933	1.73
344.303	1.53
344.674	1.7
345.045	1.51
345.416	1.79
345.786	1.58
346.157	1.63
346.527	1.55
346.898	1.84
347.268	1.38
347.639	1.5
348.009	1.3
348.38	2.13
348.75	2.36
349.12	1.94
349.49	1.87
349.861	1.43
350.231	1.59
350.601	1.57
350.971	1.3
351.341	1.7
351.711	1.56
352.081	1.82
352.45	1.99
352.82	1.67
353.19	1.84
353.56	1.47
353.929	1.11
354.299	1.49
354.669	1.56
355.038	1.57
355.408	1.73
355.777	1.52
356.147	1.84
356.516	2.05
356.885	1.16
357.254	1.74
357.624	1.65
357.993	1.42
358.362	1.59
358.731	1.42
359.1	1.75
359.469	1.31
359.838	2.09
360.207	1.83
360.576	1.44
360.945	1.66
361.314	1.56
361.682	1.6
362.051	1.68
362.42	1.58
362.788	1.6
363.157	1.57
363.525	1.47
363.894	1.63
364.262	1.68
364.631	2.03
364.999	1.67
365.367	1.97
365.735	1.39
366.104	1.48
366.472	1.71
366.84	1.99
367.208	1.74
367.576	2.22
367.944	1.45
368.312	1.58
368.68	1.27
369.048	1.16
369.416	1.54
369.783	1.47
370.151	1.51
370.519	1.63
370.886	1.94
371.254	1.68
371.621	1.97
371.989	1.61
372.356	1.57
372.724	1.68
373.091	1.41
373.458	1.67
373.826	1.96
374.193	1.85
374.56	1.99
374.927	2.2
375.294	1.92
375.661	1.69
376.028	1.48
376.395	2
376.762	1.49
377.129	1.95
377.496	2.24
377.863	1.53
378.229	2.1
378.596	2
378.963	1.81
379.329	1.63
379.696	1.86
380.062	1.82
380.429	1.74
380.795	1.7
381.161	1.56
381.528	1.75
381.894	1.42
382.26	1.69
382.626	2
382.993	2.05
383.359	1.86
383.725	1.62
384.091	1.7
384.457	1.88
384.823	2.05
385.188	1.85
385.554	1.81
385.92	1.92
386.286	1.64
386.651	1.94
387.017	1.82
387.383	1.67
387.748	1.36
388.114	1.84
388.479	1.82
388.845	1.68
389.21	1.77
389.575	1.71
389.94	1.72
390.306	1.98
390.671	1.71
391.036	1.97
391.401	1.52
391.766	1.9
392.131	1.77
392.496	1.83
392.861	1.76
393.226	1.57
393.591	1.78
393.956	1.85
394.32	1.63
394.685	1.62
395.05	1.79
395.414	1.65
395.779	1.76
396.143	1.97
396.508	1.64
396.872	1.7
397.236	1.66
397.601	1.98
397.965	1.94
398.329	1.69
398.694	1.81
399.058	1.83
399.422	2.13
399.786	1.64
400.15	1.77
400.514	1.61
400.878	1.75
401.242	1.64
401.605	1.78
401.969	1.85
402.333	1.9
402.697	1.89
403.06	1.74
403.424	1.62
403.787	1.67
404.151	2.06
404.514	1.91
404.878	1.58
405.241	1.93
405.604	1.85
405.968	1.85
406.331	1.65
406.694	1.67
407.057	1.86
407.42	1.86
407.783	1.65
408.146	1.6
408.509	1.86
408.872	1.85
409.235	1.97
409.598	1.85
409.961	1.84
410.323	1.9
410.686	2.04
411.049	1.64
411.411	1.73
411.774	1.83
412.136	1.78
412.499	1.55
412.861	1.6
413.223	1.71
413.586	1.82
413.948	2
414.31	2.04
414.672	1.65
415.035	1.74
415.397	1.75
415.759	1.76
416.121	1.9
416.483	1.81
416.845	1.83
417.206	1.79
417.568	1.58
417.93	1.6
418.292	1.67
418.653	1.81
419.015	1.88
419.377	1.79
419.738	1.65
420.1	1.77
420.461	1.8
420.822	1.76
421.184	1.72
421.545	1.74
421.906	1.62
422.267	1.69
422.629	1.73
422.99	1.68
423.351	1.76
423.712	1.65
424.073	1.79
424.434	1.72
424.795	1.72
425.155	1.78
425.516	1.69
425.877	1.82
426.238	1.69
426.598	1.78
426.959	1.76
427.32	1.71
427.68	1.76
428.041	1.64
428.401	1.78
428.761	1.85
429.122	1.86
429.482	1.77
429.842	1.77
430.202	1.72
430.563	1.8
430.923	1.71
431.283	1.64
431.643	1.81
432.003	1.56
432.363	1.76
432.722	1.86
433.082	1.94
433.442	1.75
433.802	1.9
434.161	1.76
434.521	1.71
434.881	1.66
435.24	1.74
435.6	1.93
435.959	1.75
436.319	1.74
436.678	1.86
437.037	1.83
437.396	1.84
437.756	1.7
438.115	1.66
438.474	1.76
438.833	1.89
439.192	1.69
439.551	1.88
439.91	1.69
440.269	1.62
440.628	1.76
440.987	1.76
441.345	1.83
441.704	1.75
442.063	1.83
442.421	1.81
442.78	1.85
443.138	1.68
443.497	1.81
443.855	1.89
444.214	1.74
444.572	1.8
444.93	1.75
445.288	1.84
445.647	1.64
446.005	1.84
446.363	1.83
446.721	1.66
447.079	1.76
447.437	1.87
447.795	1.72
448.153	1.75
448.51	1.73
448.868	1.78
449.226	1.72
449.584	1.69
449.941	1.76
450.299	1.72
450.656	1.83
451.014	1.89
451.371	1.93
451.729	1.83
452.086	1.82
452.443	1.98
452.801	1.86
453.158	1.63
453.515	1.71
453.872	1.86
454.229	1.81
454.586	1.79
454.943	1.82
455.3	1.85
455.657	1.79
456.014	1.7
456.371	1.88
456.727	1.89
457.084	1.73
457.441	1.74
457.797	1.84
458.154	1.6
458.51	1.68
458.867	1.85
459.223	1.82
459.58	1.83
459.936	1.78
460.292	1.75
460.648	1.7
461.005	1.66
461.361	1.72
461.717	1.67
462.073	1.82
462.429	1.76
462.785	1.88
463.141	1.77
463.496	1.76
463.852	1.72
464.208	1.96
464.564	1.64
464.919	1.84
465.275	1.82
465.631	1.91
465.986	1.7
466.342	1.86
466.697	1.9
467.052	1.85
467.408	1.83
467.763	1.68
468.118	1.83
468.473	1.84
468.829	1.75
469.184	1.77
469.539	1.93
469.894	1.84
470.249	1.93
470.603	1.87
470.958	1.81
471.313	1.67
471.668	1.84
472.023	1.82
472.377	1.84
472.732	1.94
473.086	1.83
473.441	2.04
473.795	1.74
474.15	1.69
474.504	1.91
474.859	1.9
475.213	1.76
475.567	1.75
475.921	1.86
476.275	1.86
476.63	1.7
476.984	1.81
477.338	1.71
477.692	1.8
478.045	1.85
478.399	1.85
478.753	1.82
479.107	1.79
479.461	1.77
479.814	1.69
480.168	1.76
480.521	1.7
480.875	1.89
481.228	1.74
481.582	1.74
481.935	1.71
482.289	1.88
482.642	1.79
482.995	1.75
483.348	1.8
483.701	1.84
484.055	1.74
484.408	1.72
484.761	1.65
485.114	1.62
485.466	1.61
485.819	1.63
486.172	1.69
486.525	1.72
486.878	1.76
487.23	1.73
487.583	1.71
487.936	1.79
488.288	1.79
488.641	1.66
488.993	1.71
489.345	1.64
489.698	1.68
490.05	1.73
490.402	1.73
490.754	1.78
491.107	1.74
491.459	1.78
491.811	1.75
492.163	1.78
492.515	1.73
492.866	1.7
493.218	1.63
493.57	1.7
493.922	1.68
494.274	1.79
494.625	1.79
494.977	1.79
495.328	1.84
495.68	1.72
496.031	1.76
496.383	1.92
496.734	1.74
497.086	1.78
497.437	1.76
497.788	1.82
498.139	1.76
498.49	1.73
498.842	1.8
499.193	1.86
499.544	1.81
499.894	1.84
500.245	1.77
500.596	1.77
500.947	1.83
501.298	1.9
501.648	1.72
501.999	1.78
502.35	1.85
502.7	1.88
503.051	1.81
503.401	1.81
503.752	1.81
504.102	1.86
504.452	1.82
504.803	1.76
505.153	1.91
505.503	1.83
505.853	1.86
506.203	1.67
506.553	1.8
506.903	1.76
507.253	1.85
507.603	1.92
507.953	1.85
508.303	1.96
508.652	1.92
509.002	1.92
509.352	1.83
509.701	1.75
510.051	1.87
510.4	1.79
510.75	1.84
511.099	1.69
511.449	1.78
511.798	1.8
512.147	1.84
512.496	1.8
512.846	1.8
513.195	1.8
513.544	1.79
513.893	1.85
514.242	1.78
514.591	1.86
514.939	1.83
515.288	1.84
515.637	1.74
515.986	1.88
516.334	1.85
516.683	1.79
517.032	1.74
517.38	1.79
517.729	1.81
518.077	1.8
518.426	1.77
518.774	1.89
519.122	1.78
519.47	1.84
519.819	1.86
520.167	1.82
520.515	1.79
520.863	1.81
521.211	1.86
521.559	1.86
521.907	1.84
522.255	1.73
522.602	1.89
522.95	1.79
523.298	1.88
523.645	1.88
523.993	1.87
524.341	1.86
524.688	1.84
525.036	1.73
525.383	1.8
525.73	1.79
526.078	1.93
526.425	1.68
526.772	1.81
527.119	1.66
527.466	1.71
527.814	1.78
528.161	1.77
528.508	1.81
528.854	1.75
529.201	1.69
529.548	1.7
529.895	1.66
530.242	1.66
530.588	1.72
530.935	1.75
531.282	1.8
531.628	1.83
531.975	1.79
532.321	1.75
532.667	1.82
533.014	1.78
533.36	1.79
533.706	1.85
534.052	1.81
534.399	1.73
534.745	1.76
535.091	1.7
535.437	1.79
535.783	1.84
536.129	1.84
536.474	1.81
536.82	1.75
537.166	1.83
537.512	1.83
537.857	1.91
538.203	1.82
538.549	1.75
538.894	1.82
539.239	1.8
539.585	1.74
539.93	1.81
540.276	1.82
540.621	1.93
540.966	1.99
541.311	1.8
541.656	1.84
542.001	1.8
542.346	1.75
542.691	1.72
543.036	1.7
543.381	1.69
543.726	1.79
544.071	1.86
544.415	1.76
544.76	1.83
545.105	1.82
545.449	1.79
545.794	1.76
546.138	1.83
546.483	1.91
546.827	1.83
547.171	1.8
547.516	1.77
547.86	1.76
548.204	1.79
548.548	1.83
548.892	1.84
549.236	1.94
549.58	1.95
549.924	1.81
550.268	2.03
550.612	1.84
550.956	1.96
551.3	1.81
551.643	1.89
551.987	1.92
552.33	1.86
552.674	2.07
553.017	1.78
553.361	1.91
553.704	2
554.048	1.86
554.391	1.99
554.734	1.74
555.077	1.86
555.42	2.04
555.764	1.98
556.107	1.9
556.45	1.89
556.793	1.88
557.135	1.92
557.478	1.83
557.821	1.89
558.164	2.01
558.507	2.09
558.849	1.85
559.192	1.84
559.534	1.76
559.877	1.93
560.219	1.8
560.562	1.95
560.904	1.87
561.246	1.85
561.589	1.76
561.931	1.83
562.273	1.91
562.615	1.91
562.957	1.92
563.299	1.97
563.641	1.77
563.983	1.88
564.325	2.01
564.667	2.1
565.008	1.99
565.35	1.84
565.692	1.85
566.033	1.93
566.375	1.68
566.716	1.87
567.058	1.84
567.399	1.77
567.741	1.81
568.082	1.84
568.423	1.93
568.764	1.86
569.105	1.91
569.447	1.96
569.788	2.03
570.129	1.79
570.47	1.92
570.811	1.8
571.151	2
571.492	1.97
571.833	1.73
572.174	1.71
572.514	1.94
572.855	1.87
573.195	1.89
573.536	1.93
573.876	2.04
574.217	1.87
574.557	1.92
574.898	2.03
575.238	2.02
575.578	1.96
575.918	1.96
576.258	1.97
576.598	1.96
576.938	1.95
577.278	2.02
577.618	1.96
577.958	1.98
578.298	1.94
578.638	2
578.977	1.95
579.317	2.1
579.657	2.1
579.996	1.88
580.336	2.17
580.675	1.86
581.014	1.79
581.354	1.98
581.693	1.84
582.032	1.84
582.372	1.9
582.711	1.86
583.05	2.09
583.389	1.97
583.728	1.84
584.067	1.93
584.406	1.96
584.745	1.85
585.083	1.73
585.422	1.86
585.761	1.94
586.1	2.03
586.438	2.28
586.777	2.17
587.115	2.11
587.454	2.01
587.792	1.72
588.13	1.89
588.469	1.91
588.807	2.02
589.145	1.97
589.483	2.08
589.821	2.13
590.159	2.07
590.497	1.89
590.835	2.01
591.173	2.1
591.511	1.97
591.849	2.11
592.187	2.01
592.524	2.08
592.862	2.08
593.2	1.99
593.537	2.07
593.875	2.04
594.212	2.14
594.55	1.92
594.887	2.22
595.224	2.05
595.561	1.93
595.899	2.04
596.236	2.21
596.573	1.99
596.91	2.03
597.247	1.9
597.584	2.06
597.921	1.81
598.258	1.82
598.594	1.94
598.931	1.93
599.268	1.91
599.604	1.86
599.941	1.94
600.277	1.88
600.614	2.11
600.95	2.13
601.287	1.83
601.623	2.11
601.959	1.81
602.296	2.06
602.632	2.18
602.968	2.19
603.304	2.02
603.64	2.01
603.976	1.86
604.312	1.83
604.648	2.26
604.984	2.19
605.319	2.16
605.655	2.02
605.991	1.82
606.326	2.04
606.662	1.95
606.998	1.88
607.333	2.02
607.668	1.98
608.004	1.96
608.339	1.82
608.674	2.14
609.01	1.82
609.345	1.87
609.68	1.98
610.015	2.15
610.35	1.9
610.685	1.81
611.02	1.8
611.355	1.85
611.689	1.98
612.024	1.94
612.359	2.11
612.694	2.26
613.028	2.11
613.363	2.06
613.697	1.98
614.032	2.1
614.366	2.04
614.7	1.83
615.035	2.4
615.369	2.13
615.703	2.24
616.037	1.97
616.371	2.28
616.705	1.97
617.039	2.17
617.373	2.25
617.707	1.93
618.041	1.97
618.375	2.28
618.709	2.4
619.042	2.03
619.376	2.13
619.71	2.29
620.043	2.22
620.377	2.15
620.71	2.15
621.043	2.43
621.377	2.08
621.71	1.72
622.043	1.93
622.376	1.76
622.709	2.32
623.043	2.21
623.376	1.85
623.709	2.19
624.041	1.77
624.374	2.34
624.707	1.74
625.04	2.13
625.373	2.29
625.705	1.78
626.038	1.99
626.37	1.92
626.703	2.33
627.035	1.91
627.368	2.22
627.7	2.11
628.032	2.07
628.365	2.07
628.697	2
629.029	1.77
629.361	2.07
629.693	2.09
630.025	2.09
630.357	2.01
630.689	2.31
631.021	2.06
631.353	2.07
631.684	2.33
632.016	2.24
632.348	1.98
632.679	1.95
633.011	2.09
633.342	2.01
633.674	2.52
634.005	2.23
634.336	2.23
634.668	2.26
634.999	2.31
635.33	2.3
635.661	2.3
635.992	1.95
636.323	2.07
636.654	2.14
636.985	2.05
637.316	2.45
637.647	2.03
637.977	2.22
638.308	2.08
638.639	2.11
638.969	2.22
639.3	1.86
639.63	1.95
639.961	2.31
640.291	1.89
640.622	2.22
640.952	2.59
641.282	1.92
641.612	2.17
641.943	2.22
642.273	2.16
642.603	1.8
642.933	1.82
643.263	2.29
643.592	2.35
643.922	1.94
644.252	2.45
644.582	2.01
644.911	2.36
645.241	2.45
645.571	1.73
645.9	2.1
646.23	2.08
646.559	1.75
646.888	2.21
647.218	1.83
647.547	2.06
647.876	2.14
648.205	2.23
648.534	2.11
648.863	2.29
649.192	2.17
649.521	2.26
649.85	2.18
650.179	2.3
650.508	1.95
650.837	2.19
651.165	1.84
651.494	2.04
651.822	2.43
652.151	2.34
652.479	2.36
652.808	2.17
653.136	2.14
653.465	2.02
653.793	2.48
654.121	2.05
654.449	2.4
654.777	1.78
655.105	2.52
655.433	1.9
655.761	2.82
656.089	2.26
656.417	1.94
656.745	2.01
657.073	1.68
657.4	2.7
657.728	2.28
658.056	2.17
658.383	1.86
658.711	2.61
659.038	1.77
659.365	2.33
659.693	2.26
660.02	2.29
660.347	2.27
660.674	2.35
661.001	2.32
661.329	2.37
661.656	2.14
661.982	2.51
662.309	2.54
662.636	2.32
662.963	2.3
663.29	1.99
663.616	2.12
663.943	1.93
664.27	1.83
664.596	2.11
664.923	2.09
665.249	2.54
665.576	1.93
665.902	2.26
666.228	2.61
666.554	2.28
666.881	2.59
667.207	1.97
667.533	2.31
667.859	2.63
668.185	2.4
668.511	2.27
668.837	2.19
669.162	2.33
669.488	2.34
669.814	1.84
670.139	1.88
670.465	2.67
670.791	1.87
671.116	2.19
671.442	2.52
671.767	2.74
672.092	2.02
672.418	1.88
672.743	2.7
673.068	2.27
673.393	2.6
673.718	2.38
674.043	2.5
674.368	3.18
674.693	2.19
675.018	2.33
675.343	2.12
675.667	2.55
675.992	2.57
676.317	2.4
676.641	1.84
676.966	2.31
677.29	1.29
677.615	1.98
677.939	2.72
678.264	2.51
678.588	1.66
678.912	2.12
679.236	2.78
679.56	2.41
679.885	2.74
680.209	2.5
680.532	2.33
680.856	2.42
681.18	2.55
681.504	2.42
681.828	2.57
682.152	2.3
682.475	2.03
682.799	2.25
683.122	2.35
683.446	2.05
683.769	2.87
684.093	3.05
684.416	2.63
684.739	2.52
685.062	2.52
685.386	2.87
685.709	2.47
686.032	2.13
686.355	2.46
686.678	2.05
687.001	2.42
687.324	2.62
687.646	1.88
687.969	2.52
688.292	2.93
688.614	2.63
688.937	2.17
689.26	1.83
689.582	2.46
689.904	2.86
690.227	2.43
690.549	1.92
690.871	2.06
691.194	2.23
691.516	2.91
691.838	1.78
692.16	2.61
692.482	2.19
692.804	3.23
