Data from 1832-1_forehead_Reflection__2__23.txt Node

Date: Fri Sep 30 17:55:37 CDT 2022
User: ToomeyLab
Spectrometer: FLMS14357
Trigger mode: 0
Integration Time (sec): 1.000000E-2
Scans to average: 100
Electric dark correction enabled: true
Nonlinearity correction enabled: false
Boxcar width: 0
XAxis mode: Wavelengths
Number of Pixels in Spectrum: 2048
>>>>>Begin Spectral Data<<<<<
189.047	-149.26
189.435	-149.26
189.823	-149.26
190.211	-57.06
190.599	88.53
190.987	69.4
191.375	627500
191.763	-145.75
192.151	-52.25
192.538	21.14
192.926	-350.72
193.314	-234.57
193.702	19.09
194.089	78.77
194.477	-79.45
194.864	-153.81
195.252	-134.16
195.639	9.96
196.027	61.98
196.414	215.07
196.801	21.39
197.189	341.59
197.576	128.67
197.963	-51.85
198.351	-2.84
198.738	46.56
199.125	35.98
199.512	22.57
199.899	3.31
200.286	-23.76
200.673	27.37
201.06	24.37
201.447	8.19
201.833	20.01
202.22	41.5
202.607	18.03
202.994	49.2
203.38	19.09
203.767	20.65
204.154	28.31
204.54	59.21
204.927	28.89
205.313	-5.53
205.699	13.12
206.086	-31.53
206.472	-12.67
206.858	35.29
207.245	22.67
207.631	-1.31
208.017	-10.69
208.403	25.05
208.789	-8.86
209.175	51.7
209.561	-31.26
209.947	11.31
210.333	-55.9
210.719	14.73
211.105	4.96
211.491	-3.16
211.876	2.09
212.262	13.81
212.648	27.41
213.034	8.2
213.419	26.24
213.805	-5.44
214.19	2.77
214.576	21.91
214.961	21.72
215.346	10.55
215.732	25.51
216.117	-3.21
216.502	12.04
216.888	27.32
217.273	20.28
217.658	10.95
218.043	4.03
218.428	18.77
218.813	14.42
219.198	30.89
219.583	13.85
219.968	20.6
220.353	13.12
220.738	20.59
221.122	3.21
221.507	21.03
221.892	-4.21
222.276	3.05
222.661	-6.71
223.046	9.39
223.43	12.36
223.815	3.23
224.199	-5.56
224.583	-4.21
224.968	5.06
225.352	2.22
225.736	10.02
226.121	9.3
226.505	2.93
226.889	2.99
227.273	-3.72
227.657	6.9
228.041	1.3
228.425	3.05
228.809	4.01
229.193	3.16
229.577	0.17
229.961	1.95
230.344	0.84
230.728	0.97
231.112	1.78
231.495	1.23
231.879	4.05
232.263	2.45
232.646	1.63
233.03	2.35
233.413	2.15
233.797	0.05
234.18	1.84
234.563	4.37
234.946	1.99
235.33	1.97
235.713	2.59
236.096	3.22
236.479	2
236.862	2.36
237.245	2.23
237.628	0.77
238.011	3.12
238.394	2.37
238.777	0.45
239.16	0.27
239.543	2.54
239.925	1.06
240.308	1.46
240.691	2.87
241.073	3.52
241.456	1.79
241.838	1.49
242.221	1.66
242.603	2.81
242.986	2.3
243.368	1.13
243.75	2.01
244.133	1.88
244.515	2.01
244.897	2.37
245.279	2.03
245.661	1.74
246.043	1.78
246.425	1.67
246.807	1.92
247.189	2.09
247.571	2.28
247.953	1.79
248.335	1.6
248.717	1.82
249.098	2
249.48	1.53
249.862	1.78
250.243	1.62
250.625	2.19
251.006	1.74
251.388	1.2
251.769	2.29
252.151	2.35
252.532	1.59
252.913	2.15
253.295	2.26
253.676	1.8
254.057	2.13
254.438	2.44
254.819	2.99
255.2	1.38
255.581	1.52
255.962	2.25
256.343	1.59
256.724	1.56
257.105	2.86
257.486	2.85
257.867	2.34
258.247	2.21
258.628	2.6
259.009	2.87
259.389	1.68
259.77	2.14
260.15	1.82
260.531	2.32
260.911	1.99
261.292	1.8
261.672	1.68
262.052	1.93
262.432	1.83
262.813	2.24
263.193	2.14
263.573	1.76
263.953	1.8
264.333	2.56
264.713	1.6
265.093	1.93
265.473	2.17
265.853	1.98
266.233	1.56
266.612	2.22
266.992	1.51
267.372	0.65
267.752	1.91
268.131	1.69
268.511	2.07
268.89	1.67
269.27	1.63
269.649	1.51
270.029	2.26
270.408	1.81
270.787	2.13
271.167	2
271.546	1.94
271.925	2.36
272.304	2.09
272.683	1.73
273.062	1.72
273.441	1.7
273.82	1.35
274.199	1.82
274.578	1.84
274.957	2.08
275.336	1.67
275.715	1.58
276.093	1.64
276.472	1.7
276.851	1.81
277.229	2.16
277.608	1.86
277.986	2.02
278.365	2.15
278.743	1.64
279.122	2.06
279.5	1.45
279.878	1.46
280.257	1.41
280.635	2.22
281.013	2.68
281.391	1.66
281.769	2.13
282.147	1.72
282.525	2
282.903	1.54
283.281	1.7
283.659	1.81
284.037	1.74
284.415	2.18
284.792	2.31
285.17	1.51
285.548	1.84
285.925	1.75
286.303	1.73
286.68	1.44
287.058	1.66
287.435	1.8
287.813	1.87
288.19	1.76
288.567	1.78
288.945	1.45
289.322	1.47
289.699	1.57
290.076	1.97
290.453	2.56
290.83	1.93
291.207	1.33
291.584	1.64
291.961	1.62
292.338	1.93
292.715	2.37
293.092	2.18
293.469	2.07
293.845	2.22
294.222	1.93
294.599	2.24
294.975	2.01
295.352	2.76
295.728	2.48
296.105	2.47
296.481	2.54
296.858	2.31
297.234	2.08
297.61	1.94
297.986	1.97
298.363	2.08
298.739	2.1
299.115	2.08
299.491	2.22
299.867	2.29
300.243	2.2
300.619	2.13
300.995	2.58
301.371	2.63
301.746	2.31
302.122	2.47
302.498	2.77
302.874	2.79
303.249	2.79
303.625	2.33
304	2.62
304.376	2.9
304.751	2.79
305.127	2.8
305.502	2.96
305.878	2.94
306.253	2.55
306.628	2.79
307.003	2.95
307.378	2.54
307.754	2.62
308.129	2.74
308.504	2.31
308.879	2.91
309.254	2.43
309.629	3.14
310.003	2.68
310.378	2.84
310.753	2.8
311.128	2.49
311.502	2.99
311.877	3.03
312.252	3.35
312.626	2.97
313.001	2.95
313.375	2.96
313.75	3.52
314.124	3.53
314.498	2.86
314.873	3.19
315.247	3.04
315.621	3.55
315.995	3.76
316.369	2.96
316.743	3.38
317.117	3.75
317.491	3.99
317.865	4.21
318.239	4.14
318.613	4.01
318.987	3.57
319.361	4.4
319.734	3.53
320.108	4.15
320.482	3.37
320.855	4.05
321.229	3.44
321.602	3.61
321.976	3.76
322.349	4.09
322.723	3.72
323.096	4.23
323.469	4.36
323.843	3.76
324.216	3.92
324.589	4.31
324.962	4.06
325.335	4.07
325.708	4.11
326.081	4.4
326.454	4.07
326.827	3.75
327.2	4.23
327.573	4.02
327.945	4.23
328.318	4.1
328.691	4.44
329.063	4.53
329.436	4.33
329.809	4.99
330.181	4.53
330.553	4.54
330.926	4.87
331.298	4.67
331.671	4.71
332.043	4.57
332.415	4.73
332.787	4.78
333.159	4.81
333.532	4.95
333.904	4.54
334.276	4.8
334.648	4.3
335.02	5
335.391	4.82
335.763	4.63
336.135	4.79
336.507	4.96
336.879	4.83
337.25	4.47
337.622	5.14
337.993	5.06
338.365	4.93
338.736	5.25
339.108	5.06
339.479	5.05
339.851	4.56
340.222	5.26
340.593	4.77
340.964	5.02
341.336	5.22
341.707	5.11
342.078	4.85
342.449	5.34
342.82	4.96
343.191	5.2
343.562	5.41
343.933	5.29
344.303	4.91
344.674	5.66
345.045	5.29
345.416	5.41
345.786	5.35
346.157	5.63
346.527	5.51
346.898	5.4
347.268	5.05
347.639	5.4
348.009	5.42
348.38	6.18
348.75	6.1
349.12	5.51
349.49	5.42
349.861	5.44
350.231	5.62
350.601	6.01
350.971	5.54
351.341	5.97
351.711	5.86
352.081	5.96
352.45	5.65
352.82	5.93
353.19	5.75
353.56	5.55
353.929	5.66
354.299	5.78
354.669	5.66
355.038	5.87
355.408	5.99
355.777	5.64
356.147	5.61
356.516	6.06
356.885	5.5
357.254	6.24
357.624	6.04
357.993	5.61
358.362	6.01
358.731	5.84
359.1	5.96
359.469	5.96
359.838	6.06
360.207	5.91
360.576	5.85
360.945	6.27
361.314	6.15
361.682	5.99
362.051	6.19
362.42	6.1
362.788	6.12
363.157	6.06
363.525	5.89
363.894	6.22
364.262	6.48
364.631	6.65
364.999	6.6
365.367	6.5
365.735	6.43
366.104	6
366.472	6.64
366.84	6.71
367.208	6.5
367.576	6.89
367.944	6.63
368.312	6.43
368.68	6.5
369.048	6.13
369.416	6.72
369.783	6.57
370.151	6.71
370.519	6.57
370.886	6.97
371.254	6.57
371.621	7.21
371.989	6.87
372.356	6.96
372.724	6.73
373.091	6.61
373.458	6.81
373.826	7.02
374.193	7.14
374.56	7.02
374.927	7.28
375.294	7.22
375.661	6.9
376.028	6.92
376.395	7
376.762	7.15
377.129	7.19
377.496	7.42
377.863	7.18
378.229	7.38
378.596	7.25
378.963	7.21
379.329	7.18
379.696	7.63
380.062	7.39
380.429	7.41
380.795	7.35
381.161	7.01
381.528	7.43
381.894	7.27
382.26	7.3
382.626	7.56
382.993	7.66
383.359	7.51
383.725	7.32
384.091	7.21
384.457	7.8
384.823	7.92
385.188	7.8
385.554	7.8
385.92	7.61
386.286	7.8
386.651	7.58
387.017	7.48
387.383	7.61
387.748	7.41
388.114	7.68
388.479	7.58
388.845	7.57
389.21	7.82
389.575	7.88
389.94	7.75
390.306	7.86
390.671	7.88
391.036	7.77
391.401	7.77
391.766	7.93
392.131	7.92
392.496	7.98
392.861	8.17
393.226	7.93
393.591	7.74
393.956	8.32
394.32	8.03
394.685	8.01
395.05	8.3
395.414	8.08
395.779	7.88
396.143	8.25
396.508	8.01
396.872	8.31
397.236	8.26
397.601	8.45
397.965	8.41
398.329	8.32
398.694	8.5
399.058	8.23
399.422	8.45
399.786	8.13
400.15	8.53
400.514	8.37
400.878	8.28
401.242	8.23
401.605	8.69
401.969	8.64
402.333	8.43
402.697	8.6
403.06	8.4
403.424	8.52
403.787	8.7
404.151	8.77
404.514	8.92
404.878	8.72
405.241	8.68
405.604	8.69
405.968	8.71
406.331	8.77
406.694	8.68
407.057	8.75
407.42	8.85
407.783	8.73
408.146	8.57
408.509	8.62
408.872	8.88
409.235	8.82
409.598	9.1
409.961	8.99
410.323	8.93
410.686	9.13
411.049	8.89
411.411	8.9
411.774	9.03
412.136	9.15
412.499	8.95
412.861	9.1
413.223	8.94
413.586	9.05
413.948	9.09
414.31	9.37
414.672	9.21
415.035	9.27
415.397	9.14
415.759	9.32
416.121	9.25
416.483	9.24
416.845	9.32
417.206	9.22
417.568	9.41
417.93	9.06
418.292	9.28
418.653	9.3
419.015	9.25
419.377	9.25
419.738	9.17
420.1	9.44
420.461	9.4
420.822	9.39
421.184	9.29
421.545	9.23
421.906	9.13
422.267	9.25
422.629	9.3
422.99	9.28
423.351	9.26
423.712	9.4
424.073	9.35
424.434	9.42
424.795	9.47
425.155	9.42
425.516	9.4
425.877	9.59
426.238	9.49
426.598	9.59
426.959	9.55
427.32	9.7
427.68	9.74
428.041	9.75
428.401	9.84
428.761	10.01
429.122	10.06
429.482	9.91
429.842	9.85
430.202	10.15
430.563	10.1
430.923	10.01
431.283	10
431.643	10.2
432.003	10.2
432.363	10.24
432.722	10.1
433.082	10.29
433.442	10.16
433.802	10.4
434.161	10.28
434.521	10.21
434.881	10.11
435.24	10.22
435.6	10.37
435.959	10.3
436.319	10.34
436.678	10.42
437.037	10.45
437.396	10.53
437.756	10.3
438.115	10.54
438.474	10.64
438.833	10.57
439.192	10.6
439.551	10.58
439.91	10.58
440.269	10.59
440.628	10.57
440.987	10.69
441.345	10.55
441.704	10.66
442.063	10.66
442.421	10.61
442.78	10.66
443.138	10.66
443.497	10.82
443.855	10.8
444.214	10.92
444.572	10.82
444.93	10.97
445.288	11.03
445.647	10.93
446.005	10.98
446.363	11.02
446.721	10.95
447.079	10.88
447.437	10.95
447.795	10.82
448.153	10.85
448.51	10.97
448.868	10.96
449.226	11.04
449.584	11.05
449.941	11.06
450.299	11.15
450.656	11.38
451.014	11.45
451.371	11.41
451.729	11.3
452.086	11.42
452.443	11.55
452.801	11.51
453.158	11.39
453.515	11.44
453.872	11.54
454.229	11.43
454.586	11.54
454.943	11.64
455.3	11.65
455.657	11.78
456.014	11.52
456.371	11.68
456.727	11.64
457.084	11.74
457.441	11.8
457.797	11.77
458.154	11.75
458.51	11.59
458.867	11.94
459.223	11.89
459.58	12.04
459.936	12.01
460.292	11.85
460.648	11.8
461.005	11.7
461.361	11.79
461.717	11.78
462.073	11.81
462.429	11.99
462.785	12.01
463.141	12.05
463.496	12.16
463.852	12.1
464.208	12.25
464.564	12.11
464.919	12.3
465.275	12.28
465.631	12.39
465.986	12.34
466.342	12.44
466.697	12.46
467.052	12.47
467.408	12.53
467.763	12.35
468.118	12.46
468.473	12.48
468.829	12.41
469.184	12.73
469.539	12.73
469.894	12.79
470.249	12.8
470.603	12.81
470.958	12.65
471.313	12.74
471.668	12.65
472.023	12.77
472.377	12.77
472.732	12.95
473.086	12.82
473.441	13.02
473.795	12.85
474.15	12.97
474.504	12.98
474.859	13.05
475.213	13.03
475.567	13.09
475.921	13.12
476.275	13.03
476.63	13.03
476.984	13.09
477.338	13.15
477.692	13.16
478.045	13.27
478.399	13.15
478.753	13.34
479.107	13.15
479.461	13.31
479.814	13.2
480.168	13.38
480.521	13.21
480.875	13.38
481.228	13.36
481.582	13.43
481.935	13.57
482.289	13.37
482.642	13.37
482.995	13.39
483.348	13.38
483.701	13.34
484.055	13.27
484.408	13.16
484.761	12.97
485.114	12.73
485.466	12.71
485.819	12.82
486.172	13.03
486.525	13.17
486.878	13.29
487.23	13.34
487.583	13.28
487.936	13.43
488.288	13.39
488.641	13.19
488.993	13.14
489.345	13.13
489.698	13.22
490.05	13.4
490.402	13.46
490.754	13.61
491.107	13.75
491.459	13.77
491.811	13.75
492.163	13.83
492.515	13.75
492.866	13.57
493.218	13.47
493.57	13.51
493.922	13.66
494.274	13.91
494.625	14.13
494.977	14.2
495.328	14.27
495.68	14.33
496.031	14.42
496.383	14.57
496.734	14.57
497.086	14.66
497.437	14.61
497.788	14.51
498.139	14.41
498.49	14.3
498.842	14.45
499.193	14.58
499.544	14.58
499.894	14.6
500.245	14.71
500.596	14.63
500.947	14.9
501.298	14.85
501.648	14.77
501.999	14.99
502.35	14.91
502.7	15.07
503.051	15.11
503.401	15.1
503.752	15.09
504.102	15.08
504.452	15.05
504.803	15.3
505.153	15.26
505.503	15.21
505.853	15.15
506.203	15.16
506.553	15.27
506.903	15.3
507.253	15.23
507.603	15.62
507.953	15.56
508.303	15.56
508.652	15.5
509.002	15.52
509.352	15.5
509.701	15.44
510.051	15.55
510.4	15.37
510.75	15.43
511.099	15.34
511.449	15.51
511.798	15.58
512.147	15.49
512.496	15.52
512.846	15.64
513.195	15.68
513.544	15.72
513.893	15.57
514.242	15.7
514.591	15.84
514.939	15.72
515.288	15.89
515.637	15.75
515.986	15.89
516.334	15.92
516.683	16.02
517.032	16.12
517.38	16.03
517.729	16.08
518.077	16.1
518.426	16
518.774	16.12
519.122	15.99
519.47	16.12
519.819	16.11
520.167	16.07
520.515	16.03
520.863	16.01
521.211	16.18
521.559	16.21
521.907	16.27
522.255	16.28
522.602	16.37
522.95	16.39
523.298	16.62
523.645	16.67
523.993	16.55
524.341	16.58
524.688	16.65
525.036	16.6
525.383	16.55
525.73	16.74
526.078	16.63
526.425	16.58
526.772	16.53
527.119	16.41
527.466	16.4
527.814	16.49
528.161	16.52
528.508	16.64
528.854	16.61
529.201	16.53
529.548	16.43
529.895	16.26
530.242	16.17
530.588	16.32
530.935	16.54
531.282	16.54
531.628	16.61
531.975	16.81
532.321	16.9
532.667	16.98
533.014	17.14
533.36	16.96
533.706	17.11
534.052	17.07
534.399	17.03
534.745	16.74
535.091	16.77
535.437	16.99
535.783	17.08
536.129	17.17
536.474	17.37
536.82	17.37
537.166	17.46
537.512	17.33
537.857	17.51
538.203	17.38
538.549	17.36
538.894	17.45
539.239	17.67
539.585	17.85
539.93	17.77
540.276	17.82
540.621	17.97
540.966	17.99
541.311	17.91
541.656	17.89
542.001	17.82
542.346	17.63
542.691	17.43
543.036	17.34
543.381	17.46
543.726	17.62
544.071	17.79
544.415	17.83
544.76	17.91
545.105	17.84
545.449	18.03
545.794	18.19
546.138	18.31
546.483	18.4
546.827	18.33
547.171	18.4
547.516	18.32
547.86	18.43
548.204	18.39
548.548	18.44
548.892	18.49
549.236	18.53
549.58	18.68
549.924	18.78
550.268	18.88
550.612	18.77
550.956	18.99
551.3	18.92
551.643	19.19
551.987	19.12
552.33	19.2
552.674	19.19
553.017	19.09
553.361	19.13
553.704	19.26
554.048	19.19
554.391	19.25
554.734	19.25
555.077	19.32
555.42	19.49
555.764	19.38
556.107	19.57
556.45	19.62
556.793	19.56
557.135	19.96
557.478	19.8
557.821	19.79
558.164	19.83
558.507	19.8
558.849	19.76
559.192	19.94
559.534	19.86
559.877	20.02
560.219	19.98
560.562	20.12
560.904	20.13
561.246	19.96
561.589	19.94
561.931	20.22
562.273	20.15
562.615	20.15
562.957	20.22
563.299	20.16
563.641	20.34
563.983	20.15
564.325	20.38
564.667	20.66
565.008	20.31
565.35	20.24
565.692	20.51
566.033	20.2
566.375	20.47
566.716	20.47
567.058	20.5
567.399	20.36
567.741	20.36
568.082	20.64
568.423	20.51
568.764	20.57
569.105	20.6
569.447	20.65
569.788	20.68
570.129	20.96
570.47	20.82
570.811	20.96
571.151	20.97
571.492	21.02
571.833	20.94
572.174	20.86
572.514	20.99
572.855	20.93
573.195	20.98
573.536	21.05
573.876	21.16
574.217	20.86
574.557	21.14
574.898	21.07
575.238	21.28
575.578	21.28
575.918	21.33
576.258	21.27
576.598	21.18
576.938	21.34
577.278	21.33
577.618	21.63
577.958	21.55
578.298	21.66
578.638	21.89
578.977	21.66
579.317	21.54
579.657	21.76
579.996	21.67
580.336	21.9
580.675	21.89
581.014	21.89
581.354	22.08
581.693	21.84
582.032	21.94
582.372	22.23
582.711	21.89
583.05	22.07
583.389	22.15
583.728	22.26
584.067	22.19
584.406	22.21
584.745	22.26
585.083	22.18
585.422	22.45
585.761	22.35
586.1	22.31
586.438	22.5
586.777	22.82
587.115	22.24
587.454	22.54
587.792	22.35
588.13	22.87
588.469	22.83
588.807	22.73
589.145	22.59
589.483	22.75
589.821	22.76
590.159	22.76
590.497	22.81
590.835	22.66
591.173	22.84
591.511	22.96
591.849	23.11
592.187	23.06
592.524	22.93
592.862	23.23
593.2	23.1
593.537	23.06
593.875	23.31
594.212	23.22
594.55	23.22
594.887	23.47
595.224	23.21
595.561	23.21
595.899	23.19
596.236	23.39
596.573	23.37
596.91	23.09
597.247	23.07
597.584	23.47
597.921	23.25
598.258	23.56
598.594	23.11
598.931	23.25
599.268	23.37
599.604	23.31
599.941	23.26
600.277	23.49
600.614	23.97
600.95	23.83
601.287	23.84
601.623	23.98
601.959	23.62
602.296	23.7
602.632	23.63
602.968	24.31
603.304	23.72
603.64	23.84
603.976	23.83
604.312	23.81
604.648	24.09
604.984	24.03
605.319	24.02
605.655	24.03
605.991	24.05
606.326	23.93
606.662	24.04
606.998	24.15
607.333	24.04
607.668	24.13
608.004	24.24
608.339	24.35
608.674	24.46
609.01	24.32
609.345	24.22
609.68	24.32
610.015	24.8
610.35	24.48
610.685	24.31
611.02	24.38
611.355	24.25
611.689	24.16
612.024	24.68
612.359	24.65
612.694	24.77
613.028	24.82
613.363	24.66
613.697	25.04
614.032	25.16
614.366	24.68
614.7	24.73
615.035	25.09
615.369	25
615.703	25.11
616.037	24.86
616.371	25.15
616.705	25.14
617.039	25.53
617.373	25.45
617.707	25.01
618.041	25.29
618.375	25.3
618.709	25.4
619.042	25.54
619.376	25.33
619.71	25.81
620.043	25.93
620.377	25.51
620.71	25.39
621.043	25.8
621.377	25.18
621.71	25.34
622.043	25.52
622.376	25.54
622.709	25.73
623.043	25.7
623.376	25.68
623.709	25.86
624.041	25.98
624.374	25.82
624.707	25.8
625.04	25.77
625.373	25.88
625.705	25.77
626.038	25.99
626.37	25.81
626.703	26.21
627.035	25.95
627.368	26.22
627.7	26.04
628.032	25.94
628.365	26.01
628.697	26.29
629.029	26.02
629.361	26.1
629.693	26.62
630.025	26.31
630.357	26.5
630.689	26.48
631.021	26.24
631.353	26.43
631.684	26.28
632.016	26.56
632.348	26.71
632.679	26.04
633.011	26.42
633.342	26.45
633.674	26.98
634.005	26.64
634.336	26.79
634.668	26.78
634.999	27.16
635.33	26.71
635.661	26.64
635.992	26.85
636.323	26.78
636.654	26.92
636.985	27.05
637.316	26.88
637.647	26.8
637.977	27.17
638.308	26.7
638.639	26.95
638.969	27.04
639.3	27.41
639.63	27.17
639.961	27.26
640.291	26.96
640.622	27.7
640.952	27.69
641.282	27.33
641.612	27.6
641.943	27.56
642.273	27.6
642.603	27.41
642.933	27.34
643.263	27.41
643.592	27.74
643.922	27.49
644.252	27.98
644.582	27.7
644.911	27.87
645.241	27.93
645.571	27.81
645.9	27.66
646.23	27.66
646.559	27.4
646.888	28
647.218	27.77
647.547	27.41
647.876	27.99
648.205	27.65
648.534	27.83
648.863	28.26
649.192	28.52
649.521	27.96
649.85	28.44
650.179	28.47
650.508	28.13
650.837	27.87
651.165	27.74
651.494	28.23
651.822	28.53
652.151	28.37
652.479	28.08
652.808	28.82
653.136	28.48
653.465	28.21
653.793	27.91
654.121	28.23
654.449	28.57
654.777	28.37
655.105	28.69
655.433	28.49
655.761	28.48
656.089	28.81
656.417	28.7
656.745	28.3
657.073	28.68
657.4	28.6
657.728	28.94
658.056	29.09
658.383	29.11
658.711	28.57
659.038	28.82
659.365	28.58
659.693	28.66
660.02	29.11
660.347	29.15
660.674	29.18
661.001	29.09
661.329	28.92
661.656	28.54
661.982	29.07
662.309	29.15
662.636	29.29
662.963	29.13
663.29	29.17
663.616	29.22
663.943	29.02
664.27	28.95
664.596	29.18
664.923	29.22
665.249	29.58
665.576	29.72
665.902	29.08
666.228	29.8
666.554	29.19
666.881	29.34
667.207	29.14
667.533	29.85
667.859	30.2
668.185	29.78
668.511	28.98
668.837	29.75
669.162	29.9
669.488	30.01
669.814	29.77
670.139	29.79
670.465	30.25
670.791	29.56
671.116	29.8
671.442	30.32
671.767	29.76
672.092	29.88
672.418	29.67
672.743	30.69
673.068	29.67
673.393	30.37
673.718	29.98
674.043	30.06
674.368	30.51
674.693	29.79
675.018	30.24
675.343	30.35
675.667	30.37
675.992	30.12
