Data from 1832-1_forehead_Reflection__1__22.txt Node

Date: Fri Sep 30 17:55:24 CDT 2022
User: ToomeyLab
Spectrometer: FLMS14357
Trigger mode: 0
Integration Time (sec): 1.000000E-2
Scans to average: 100
Electric dark correction enabled: true
Nonlinearity correction enabled: false
Boxcar width: 0
XAxis mode: Wavelengths
Number of Pixels in Spectrum: 2048
>>>>>Begin Spectral Data<<<<<
189.047	-406.24
189.435	-406.24
189.823	-406.24
190.211	282.5
190.599	-46.44
190.987	83.52
191.375	379800
191.763	-466.67
192.151	-67.61
192.538	-163.42
192.926	515.79
193.314	-66.13
193.702	33.67
194.089	215.47
194.477	3.72
194.864	-83.63
195.252	-269.64
195.639	-32.39
196.027	88.72
196.414	154.48
196.801	65.77
197.189	128.19
197.576	50.64
197.963	-40.52
198.351	29.38
198.738	-6.86
199.125	37.63
199.512	5.45
199.899	5.96
200.286	46.09
200.673	43.4
201.06	14.8
201.447	37.64
201.833	41
202.22	61.92
202.607	82.67
202.994	65.77
203.38	9.95
203.767	37.77
204.154	4.69
204.54	60.03
204.927	28.17
205.313	-46.7
205.699	19.23
206.086	-14.21
206.472	18.37
206.858	26.44
207.245	5.34
207.631	-6.62
208.017	-31.48
208.403	16.46
208.789	12.81
209.175	30.57
209.561	-19
209.947	-0.69
210.333	-8.16
210.719	11.56
211.105	23.25
211.491	12.2
211.876	15.32
212.262	23.8
212.648	13.42
213.034	0.6
213.419	26.77
213.805	5.06
214.19	4.13
214.576	35.56
214.961	14.71
215.346	16.1
215.732	15.63
216.117	5.35
216.502	21.04
216.888	4.55
217.273	-17.95
217.658	20.91
218.043	16
218.428	0.19
218.813	23.05
219.198	13
219.583	9.61
219.968	12.66
220.353	23.86
220.738	11.55
221.122	4.9
221.507	14.39
221.892	11.83
222.276	8.77
222.661	14.95
223.046	7.07
223.43	8.95
223.815	3.96
224.199	14.9
224.583	-1.86
224.968	0.16
225.352	4.36
225.736	6.34
226.121	15.03
226.505	6.97
226.889	4.23
227.273	-1.7
227.657	5.84
228.041	0.77
228.425	7.12
228.809	3.14
229.193	4.89
229.577	-0.48
229.961	2.32
230.344	1.63
230.728	1.22
231.112	2.41
231.495	1.22
231.879	4.8
232.263	1.6
232.646	0.62
233.03	3.17
233.413	1.75
233.797	4
234.18	2.65
234.563	0.96
234.946	4.45
235.33	2.2
235.713	4.58
236.096	2.88
236.479	3.08
236.862	3.25
237.245	3.68
237.628	1.41
238.011	3.33
238.394	3.05
238.777	0.29
239.16	1.25
239.543	2.78
239.925	2.87
240.308	3.11
240.691	1.83
241.073	2.98
241.456	1.36
241.838	2.63
242.221	2.38
242.603	2.69
242.986	2.77
243.368	1.64
243.75	2.23
244.133	2.59
244.515	1.85
244.897	2.44
245.279	2.36
245.661	1.47
246.043	2.78
246.425	2.01
246.807	2.21
247.189	2.91
247.571	1.66
247.953	2.22
248.335	1.95
248.717	1.96
249.098	2.38
249.48	2.01
249.862	2.23
250.243	2.02
250.625	1.98
251.006	2.27
251.388	2.25
251.769	2.41
252.151	2.96
252.532	2.44
252.913	1.65
253.295	2.01
253.676	2.36
254.057	2.4
254.438	2.15
254.819	3.4
255.2	2.4
255.581	3.21
255.962	2.86
256.343	1.66
256.724	2.21
257.105	3
257.486	3.31
257.867	3.14
258.247	2.34
258.628	2.43
259.009	2.77
259.389	1.99
259.77	2.62
260.15	2.38
260.531	2.58
260.911	2.15
261.292	1.9
261.672	2.04
262.052	2
262.432	1.79
262.813	2.84
263.193	2.11
263.573	1.81
263.953	2.09
264.333	2.86
264.713	2.18
265.093	2.16
265.473	2.33
265.853	2.12
266.233	2.13
266.612	2.28
266.992	1.77
267.372	1.79
267.752	1.93
268.131	2.1
268.511	2.23
268.89	1.93
269.27	2.24
269.649	1.68
270.029	2.51
270.408	2.18
270.787	2.01
271.167	2.81
271.546	2.47
271.925	2.91
272.304	2.32
272.683	2
273.062	2.21
273.441	1.94
273.82	1.88
274.199	1.99
274.578	1.92
274.957	1.94
275.336	2.43
275.715	2.68
276.093	2.45
276.472	1.82
276.851	1.78
277.229	2.29
277.608	2
277.986	1.85
278.365	2.47
278.743	1.89
279.122	2.58
279.5	1.91
279.878	2.61
280.257	2.2
280.635	2.77
281.013	2.27
281.391	1.32
281.769	2.02
282.147	1.7
282.525	2.1
282.903	1.92
283.281	1.6
283.659	1.97
284.037	1.9
284.415	2.28
284.792	2.32
285.17	1.73
285.548	2.34
285.925	2.03
286.303	2.14
286.68	1.81
287.058	1.83
287.435	2.07
287.813	2.21
288.19	2.15
288.567	2.15
288.945	1.6
289.322	1.9
289.699	2.13
290.076	1.79
290.453	2.33
290.83	2.14
291.207	1.99
291.584	2.16
291.961	2.25
292.338	2.62
292.715	2.4
293.092	2.06
293.469	2.32
293.845	3.09
294.222	2.82
294.599	2.89
294.975	2.72
295.352	2.74
295.728	2.79
296.105	2.28
296.481	2.17
296.858	2.5
297.234	2.69
297.61	2.4
297.986	1.91
298.363	2.36
298.739	2.37
299.115	2.21
299.491	2.55
299.867	2.65
300.243	2.47
300.619	2.28
300.995	2.79
301.371	2.46
301.746	2.68
302.122	3.13
302.498	2.73
302.874	3.12
303.249	3.03
303.625	2.87
304	3.04
304.376	2.97
304.751	3.18
305.127	3.25
305.502	2.87
305.878	3.08
306.253	3.04
306.628	2.89
307.003	2.92
307.378	3.42
307.754	3.45
308.129	3.09
308.504	2.68
308.879	3.39
309.254	2.81
309.629	3.02
310.003	3.28
310.378	3.28
310.753	3.16
311.128	3.21
311.502	3.5
311.877	3.55
312.252	3.6
312.626	3.65
313.001	3.52
313.375	3.34
313.75	4.1
314.124	3.67
314.498	3.2
314.873	3.7
315.247	3.84
315.621	4.23
315.995	4.33
316.369	3.73
316.743	4.16
317.117	4.37
317.491	4.46
317.865	4.53
318.239	4.31
318.613	3.94
318.987	3.94
319.361	4.15
319.734	4.39
320.108	4.77
320.482	4.34
320.855	4.71
321.229	4.24
321.602	4.45
321.976	4.76
322.349	4.93
322.723	4.28
323.096	4.8
323.469	4.64
323.843	4.75
324.216	4.96
324.589	5.46
324.962	4.88
325.335	4.28
325.708	4.64
326.081	5.53
326.454	4.9
326.827	4.93
327.2	5.02
327.573	5.02
327.945	4.85
328.318	5.06
328.691	5.19
329.063	5.51
329.436	5.33
329.809	5.27
330.181	5.29
330.553	4.89
330.926	5.06
331.298	5.16
331.671	5.27
332.043	4.93
332.415	5.32
332.787	5.16
333.159	5.05
333.532	5.25
333.904	5.29
334.276	5.6
334.648	4.96
335.02	5.56
335.391	5.81
335.763	5.77
336.135	5.4
336.507	5.9
336.879	5.7
337.25	5.48
337.622	5.83
337.993	5.76
338.365	5.85
338.736	5.95
339.108	5.77
339.479	5.77
339.851	5.48
340.222	5.89
340.593	5.56
340.964	5.85
341.336	6.11
341.707	5.89
342.078	6.33
342.449	5.79
342.82	5.72
343.191	5.99
343.562	6.22
343.933	6.45
344.303	5.87
344.674	5.92
345.045	5.64
345.416	6.08
345.786	6.13
346.157	6.73
346.527	6.47
346.898	6.2
347.268	5.98
347.639	6.09
348.009	6.43
348.38	6.41
348.75	6.81
349.12	6.69
349.49	6.53
349.861	6.44
350.231	6.36
350.601	6.7
350.971	6.63
351.341	6.55
351.711	6.62
352.081	6.6
352.45	6.83
352.82	6.6
353.19	7.31
353.56	6.58
353.929	6.63
354.299	6.82
354.669	6.76
355.038	6.84
355.408	7.2
355.777	6.97
356.147	7.05
356.516	7.08
356.885	6.61
357.254	7.43
357.624	6.89
357.993	6.54
358.362	6.92
358.731	7.11
359.1	6.86
359.469	7.06
359.838	7.27
360.207	7.03
360.576	6.89
360.945	7.32
361.314	7.26
361.682	6.97
362.051	7.09
362.42	7.16
362.788	7.12
363.157	7.15
363.525	7.19
363.894	7.27
364.262	7.55
364.631	7.72
364.999	7.25
365.367	7.54
365.735	7.42
366.104	7.2
366.472	7.81
366.84	7.38
367.208	7.55
367.576	8.11
367.944	7.41
368.312	7.38
368.68	7.67
369.048	7.19
369.416	7.86
369.783	7.77
370.151	7.95
370.519	8.27
370.886	7.75
371.254	7.68
371.621	7.97
371.989	8.07
372.356	7.96
372.724	8.01
373.091	7.85
373.458	8.09
373.826	7.92
374.193	8.17
374.56	8.04
374.927	8.38
375.294	8.35
375.661	8.2
376.028	8.27
376.395	8.19
376.762	8.07
377.129	8.02
377.496	8.44
377.863	8.18
378.229	8.64
378.596	8.58
378.963	8.47
379.329	8.35
379.696	8.65
380.062	8.54
380.429	8.45
380.795	8.58
381.161	8.28
381.528	8.52
381.894	8.42
382.26	8.38
382.626	8.72
382.993	8.74
383.359	8.77
383.725	8.56
384.091	8.65
384.457	8.94
384.823	8.97
385.188	8.72
385.554	8.95
385.92	9.01
386.286	9.22
386.651	8.96
387.017	8.86
387.383	8.98
387.748	8.7
388.114	9.15
388.479	9.27
388.845	9
389.21	9.11
389.575	9.29
389.94	9
390.306	8.91
390.671	9.07
391.036	9.3
391.401	8.88
391.766	9.47
392.131	9.18
392.496	9.32
392.861	9.25
393.226	9.2
393.591	9.35
393.956	9.57
394.32	9.39
394.685	9.25
395.05	9.46
395.414	9.54
395.779	9.61
396.143	9.63
396.508	9.41
396.872	9.54
397.236	9.52
397.601	9.59
397.965	9.6
398.329	9.39
398.694	9.77
399.058	9.68
399.422	9.75
399.786	9.67
400.15	9.8
400.514	9.67
400.878	9.81
401.242	9.68
401.605	9.93
401.969	9.87
402.333	9.84
402.697	9.93
403.06	9.76
403.424	9.87
403.787	10.04
404.151	10.24
404.514	10.17
404.878	10
405.241	9.99
405.604	10.09
405.968	10
406.331	10.01
406.694	10.03
407.057	10.08
407.42	10.22
407.783	10.09
408.146	10.17
408.509	10.14
408.872	10.22
409.235	10.31
409.598	10.45
409.961	10.26
410.323	10.62
410.686	10.58
411.049	10.43
411.411	10.32
411.774	10.46
412.136	10.55
412.499	10.48
412.861	10.47
413.223	10.27
413.586	10.46
413.948	10.53
414.31	10.64
414.672	10.62
415.035	10.77
415.397	10.5
415.759	10.71
416.121	10.51
416.483	10.56
416.845	10.8
417.206	10.91
417.568	10.82
417.93	10.48
418.292	10.7
418.653	10.7
419.015	10.93
419.377	10.82
419.738	10.78
420.1	10.81
420.461	10.7
420.822	10.75
421.184	10.68
421.545	10.68
421.906	10.65
422.267	10.71
422.629	10.7
422.99	10.83
423.351	10.71
423.712	10.91
424.073	10.77
424.434	11.03
424.795	10.95
425.155	10.91
425.516	10.99
425.877	11.02
426.238	11
426.598	11.1
426.959	11.01
427.32	11.18
427.68	11.24
428.041	11.15
428.401	11.23
428.761	11.35
429.122	11.44
429.482	11.45
429.842	11.4
430.202	11.55
430.563	11.57
430.923	11.58
431.283	11.57
431.643	11.65
432.003	11.64
432.363	11.61
432.722	11.65
433.082	11.71
433.442	11.83
433.802	11.81
434.161	11.7
434.521	11.86
434.881	11.73
435.24	11.76
435.6	11.91
435.959	11.82
436.319	11.81
436.678	11.96
437.037	11.98
437.396	12.05
437.756	11.92
438.115	12.17
438.474	12.09
438.833	12.06
439.192	11.9
439.551	12.15
439.91	11.96
440.269	11.92
440.628	12.09
440.987	12.13
441.345	12.11
441.704	12.19
442.063	12.2
442.421	12.28
442.78	12.19
443.138	12.21
443.497	12.52
443.855	12.42
444.214	12.35
444.572	12.35
444.93	12.44
445.288	12.51
445.647	12.41
446.005	12.46
446.363	12.56
446.721	12.44
447.079	12.45
447.437	12.43
447.795	12.43
448.153	12.51
448.51	12.54
448.868	12.5
449.226	12.48
449.584	12.61
449.941	12.65
450.299	12.61
450.656	12.77
451.014	12.94
451.371	12.9
451.729	12.95
452.086	13.04
452.443	13.07
452.801	13.15
453.158	12.95
453.515	13.11
453.872	13.08
454.229	13.09
454.586	13.22
454.943	13.08
455.3	13.25
455.657	13.36
456.014	13.31
456.371	13.34
456.727	13.31
457.084	13.19
457.441	13.44
457.797	13.24
458.154	13.34
458.51	13.36
458.867	13.42
459.223	13.29
459.58	13.64
459.936	13.53
460.292	13.51
460.648	13.4
461.005	13.39
461.361	13.35
461.717	13.3
462.073	13.41
462.429	13.52
462.785	13.55
463.141	13.73
463.496	13.78
463.852	13.91
464.208	13.89
464.564	13.78
464.919	13.76
465.275	14.01
465.631	13.98
465.986	14.07
466.342	13.93
466.697	14.06
467.052	14.06
467.408	14.03
467.763	14.01
468.118	14.25
468.473	14.18
468.829	14.04
469.184	14.28
469.539	14.36
469.894	14.29
470.249	14.37
470.603	14.38
470.958	14.27
471.313	14.31
471.668	14.49
472.023	14.38
472.377	14.47
472.732	14.41
473.086	14.39
473.441	14.53
473.795	14.36
474.15	14.35
474.504	14.68
474.859	14.58
475.213	14.5
475.567	14.69
475.921	14.71
476.275	14.65
476.63	14.71
476.984	14.74
477.338	14.68
477.692	14.84
478.045	14.8
478.399	14.96
478.753	14.78
479.107	14.75
479.461	15
479.814	14.96
480.168	14.99
480.521	14.98
480.875	14.89
481.228	14.93
481.582	14.9
481.935	14.93
482.289	15.09
482.642	14.92
482.995	14.9
483.348	14.98
483.701	14.89
484.055	14.83
484.408	14.87
484.761	14.61
485.114	14.4
485.466	14.36
485.819	14.39
486.172	14.53
486.525	14.64
486.878	14.74
487.23	14.87
487.583	14.93
487.936	15.04
488.288	15.02
488.641	14.81
488.993	14.77
489.345	14.78
489.698	14.83
490.05	14.87
490.402	15
490.754	15.13
491.107	15.23
491.459	15.36
491.811	15.36
492.163	15.5
492.515	15.4
492.866	15.27
493.218	15.05
493.57	15.09
493.922	15.2
494.274	15.33
494.625	15.55
494.977	15.64
495.328	15.79
495.68	15.72
496.031	15.96
496.383	16.04
496.734	16.25
497.086	16.1
497.437	16.16
497.788	16.01
498.139	15.98
498.49	15.99
498.842	16.12
499.193	16.1
499.544	16.08
499.894	16.27
500.245	16.08
500.596	16.3
500.947	16.36
501.298	16.44
501.648	16.34
501.999	16.49
502.35	16.55
502.7	16.55
503.051	16.58
503.401	16.57
503.752	16.66
504.102	16.67
504.452	16.55
504.803	16.86
505.153	16.74
505.503	16.68
505.853	16.66
506.203	16.71
506.553	16.75
506.903	16.94
507.253	16.98
507.603	17.07
507.953	17.01
508.303	17.14
508.652	17.07
509.002	17.05
509.352	17.03
509.701	17.16
510.051	17.08
510.4	16.85
510.75	17
511.099	16.9
511.449	17.1
511.798	17.03
512.147	17.19
512.496	17.1
512.846	17.12
513.195	17.27
513.544	17.31
513.893	17.13
514.242	17.25
514.591	17.35
514.939	17.28
515.288	17.45
515.637	17.45
515.986	17.5
516.334	17.47
516.683	17.51
517.032	17.61
517.38	17.43
517.729	17.87
518.077	17.54
518.426	17.72
518.774	17.65
519.122	17.53
519.47	17.66
519.819	17.58
520.167	17.61
520.515	17.5
520.863	17.61
521.211	17.71
521.559	17.74
521.907	17.8
522.255	17.84
522.602	17.93
522.95	18.11
523.298	18.12
523.645	18.03
523.993	18.2
524.341	18.15
524.688	18.19
525.036	18.14
525.383	18.16
525.73	18.18
526.078	18.16
526.425	18.03
526.772	18.13
527.119	17.95
527.466	18.02
527.814	18.07
528.161	18.05
528.508	18.18
528.854	18.09
529.201	18.02
529.548	17.79
529.895	17.78
530.242	17.74
530.588	17.8
530.935	17.91
531.282	17.88
531.628	18.05
531.975	18.12
532.321	18.24
532.667	18.41
533.014	18.49
533.36	18.4
533.706	18.55
534.052	18.47
534.399	18.42
534.745	18.33
535.091	18.3
535.437	18.44
535.783	18.46
536.129	18.63
536.474	18.74
536.82	18.81
537.166	18.88
537.512	18.92
537.857	18.91
538.203	18.89
538.549	18.73
538.894	18.93
539.239	18.98
539.585	19.11
539.93	19.26
540.276	19.25
540.621	19.26
540.966	19.43
541.311	19.47
541.656	19.36
542.001	19.17
542.346	19.11
542.691	18.78
543.036	18.79
543.381	18.88
543.726	19.03
544.071	19.17
544.415	19.17
544.76	19.37
545.105	19.29
545.449	19.52
545.794	19.56
546.138	19.65
546.483	19.73
546.827	19.73
547.171	19.82
547.516	19.7
547.86	19.82
548.204	19.78
548.548	19.81
548.892	19.88
549.236	19.96
549.58	20.07
549.924	20.04
550.268	20.18
550.612	20.24
550.956	20.55
551.3	20.49
551.643	20.64
551.987	20.65
552.33	20.79
552.674	20.61
553.017	20.44
553.361	20.46
553.704	20.65
554.048	20.6
554.391	20.6
554.734	20.52
555.077	20.58
555.42	20.59
555.764	20.87
556.107	20.8
556.45	21
556.793	20.87
557.135	21.12
557.478	20.92
557.821	21.05
558.164	21.04
558.507	21.34
558.849	21.1
559.192	21.19
559.534	21.34
559.877	21.14
560.219	21.24
560.562	21.38
560.904	21.18
561.246	21.45
561.589	21.17
561.931	21.54
562.273	21.47
562.615	21.34
562.957	21.46
563.299	21.65
563.641	21.53
563.983	21.41
564.325	21.81
564.667	21.68
565.008	21.5
565.35	21.77
565.692	21.76
566.033	21.69
566.375	21.57
566.716	21.69
567.058	21.89
567.399	21.66
567.741	21.66
568.082	21.87
568.423	21.61
568.764	21.75
569.105	21.78
569.447	21.75
569.788	21.92
570.129	22.01
570.47	21.96
570.811	22.04
571.151	21.91
571.492	22.24
571.833	21.89
572.174	21.88
572.514	22.24
572.855	21.93
573.195	22.13
573.536	22.04
573.876	22.16
574.217	22.11
574.557	22.26
574.898	22.27
575.238	22.38
575.578	22.27
575.918	22.14
576.258	22.41
576.598	22.31
576.938	22.39
577.278	22.6
577.618	22.68
577.958	22.66
578.298	22.7
578.638	22.78
578.977	22.7
579.317	22.86
579.657	22.84
579.996	22.79
580.336	23.14
580.675	22.91
581.014	23.12
581.354	23.02
581.693	23.05
582.032	23.04
582.372	22.89
582.711	22.86
583.05	23.39
583.389	22.95
583.728	23.14
584.067	23.16
584.406	23.37
584.745	23.5
585.083	23.51
585.422	23.55
585.761	23.35
586.1	23.5
586.438	23.35
586.777	23.67
587.115	23.83
587.454	23.67
587.792	23.26
588.13	23.79
588.469	23.47
588.807	23.77
589.145	23.62
589.483	23.9
589.821	23.74
590.159	23.96
590.497	23.78
590.835	23.74
591.173	23.57
591.511	23.8
591.849	23.94
592.187	23.76
592.524	23.86
592.862	24.05
593.2	23.91
593.537	23.91
593.875	24.4
594.212	23.84
594.55	23.98
594.887	24.02
595.224	23.76
595.561	24.13
595.899	24.16
596.236	24.14
596.573	24.27
596.91	24.14
597.247	23.99
597.584	24.14
597.921	24.26
598.258	23.98
598.594	24.07
598.931	24.03
599.268	24.19
599.604	24.29
599.941	24.15
600.277	24.33
600.614	24.59
600.95	24.66
601.287	24.52
601.623	24.7
601.959	24.62
602.296	24.71
602.632	24.67
602.968	24.95
603.304	24.67
603.64	24.99
603.976	24.78
604.312	24.72
604.648	24.74
604.984	24.85
605.319	24.83
605.655	24.77
605.991	24.67
606.326	24.66
606.662	24.94
606.998	24.77
607.333	24.98
607.668	24.88
608.004	25.11
608.339	25.2
608.674	25.13
609.01	25.2
609.345	24.9
609.68	25.48
610.015	25.38
610.35	25.25
610.685	24.72
611.02	25.09
611.355	25.04
611.689	24.97
612.024	25.29
612.359	25.33
612.694	25.34
613.028	25.38
613.363	25.51
613.697	25.27
614.032	25.46
614.366	25.54
614.7	25.83
615.035	25.62
615.369	25.39
615.703	25.74
616.037	25.39
616.371	25.77
616.705	25.7
617.039	26.09
617.373	26.15
617.707	25.85
618.041	25.96
618.375	26.06
618.709	26.06
619.042	25.84
619.376	26.28
619.71	26.14
620.043	26.46
620.377	26.1
620.71	26.08
621.043	26.34
621.377	26.07
621.71	25.78
622.043	26.48
622.376	25.98
622.709	26.37
623.043	26.02
623.376	26.12
623.709	26.23
624.041	26.37
624.374	25.9
624.707	26.11
625.04	26.55
625.373	26.37
625.705	26.21
626.038	26.52
626.37	26.61
626.703	26.61
627.035	26.65
627.368	26.46
627.7	26.51
628.032	26.61
628.365	26.53
628.697	26.61
629.029	26.51
629.361	26.81
629.693	26.93
630.025	26.86
630.357	26.95
630.689	26.98
631.021	26.42
631.353	26.9
631.684	27.29
632.016	27.13
632.348	26.85
632.679	26.74
633.011	27.11
633.342	26.96
633.674	27.05
634.005	27.34
634.336	26.84
634.668	27.21
634.999	26.91
635.33	27.21
635.661	27.09
635.992	27.08
636.323	27.07
636.654	27.15
636.985	27.38
637.316	27.37
637.647	27.09
637.977	27.61
638.308	27.18
638.639	27.26
638.969	27.25
639.3	27.7
639.63	27.57
639.961	27.89
640.291	27.42
640.622	27.7
640.952	28.04
641.282	27.55
641.612	27.33
641.943	27.61
642.273	27.64
642.603	27.89
642.933	27.66
643.263	27.85
643.592	27.85
643.922	27.83
644.252	27.64
644.582	27.96
644.911	27.77
645.241	27.73
645.571	27.57
645.9	28.15
646.23	27.96
646.559	27.91
646.888	28.3
647.218	27.49
647.547	27.92
647.876	28.07
648.205	27.82
648.534	27.82
648.863	28.31
649.192	28.08
649.521	28.2
649.85	28.26
650.179	28.43
650.508	27.95
650.837	28.32
651.165	28.09
651.494	28.02
651.822	28.69
652.151	28.58
652.479	28.81
652.808	28.62
653.136	28.21
653.465	28.61
653.793	28.18
654.121	28.2
654.449	28.57
654.777	28.08
655.105	28.61
655.433	28.38
655.761	29.28
656.089	28.51
656.417	28.56
656.745	28.6
657.073	28.76
657.4	28.53
657.728	28.79
658.056	28.9
658.383	28.79
658.711	28.71
659.038	28.63
659.365	28.72
659.693	28.81
660.02	28.95
660.347	28.96
660.674	29.15
661.001	28.76
661.329	29.28
661.656	28.57
661.982	28.78
662.309	28.98
662.636	29.57
662.963	29.21
663.29	29.22
663.616	28.87
663.943	29.31
664.27	28.95
664.596	28.82
664.923	28.88
665.249	29.08
665.576	29.5
665.902	29.38
666.228	29.43
666.554	29.49
666.881	28.99
667.207	29.72
667.533	29.5
667.859	29.64
668.185	29.38
668.511	29.17
668.837	29.24
669.162	29.22
669.488	30.07
669.814	29.77
670.139	29.48
670.465	30.45
670.791	29.67
671.116	29.64
671.442	29.62
671.767	29.99
672.092	29.59
672.418	29.73
672.743	30.41
673.068	29.58
673.393	30.24
673.718	29.37
674.043	29.99
674.368	30.27
674.693	29.99
