Data from 1832-1_crown_Reflection__1__27.txt Node

Date: Fri Sep 30 17:57:00 CDT 2022
User: ToomeyLab
Spectrometer: FLMS14357
Trigger mode: 0
Integration Time (sec): 1.000000E-2
Scans to average: 100
Electric dark correction enabled: true
Nonlinearity correction enabled: false
Boxcar width: 0
XAxis mode: Wavelengths
Number of Pixels in Spectrum: 2048
>>>>>Begin Spectral Data<<<<<
189.047	-98.19
189.435	-98.19
189.823	-98.19
190.211	-48.28
190.599	-34.3
190.987	111.43
191.375	141800
191.763	-352.88
192.151	114.02
192.538	-65.46
192.926	-1442.11
193.314	31.85
193.702	65.81
194.089	-93
194.477	-22.38
194.864	-33.83
195.252	-175.64
195.639	434.18
196.027	7.91
196.414	92.4
196.801	89.27
197.189	138.26
197.576	195.85
197.963	103.71
198.351	4.25
198.738	21.21
199.125	25.35
199.512	15.15
199.899	-30.08
200.286	-29.72
200.673	9.59
201.06	42.84
201.447	16.21
201.833	24.52
202.22	51.6
202.607	24.98
202.994	79.17
203.38	9
203.767	-1
204.154	22.05
204.54	23.97
204.927	13.41
205.313	-57.15
205.699	-8.22
206.086	-9.42
206.472	8.94
206.858	60.04
207.245	25.26
207.631	-19.79
208.017	-21.86
208.403	16.01
208.789	2.08
209.175	24.47
209.561	22.71
209.947	-4.01
210.333	2.95
210.719	-24.87
211.105	-30.91
211.491	12.59
211.876	27.72
212.262	31.87
212.648	10.96
213.034	7.58
213.419	15.06
213.805	4.97
214.19	15.82
214.576	-9.62
214.961	14.49
215.346	2.36
215.732	11.08
216.117	4.88
216.502	11.18
216.888	20.75
217.273	-15.16
217.658	20.14
218.043	6.51
218.428	-8.24
218.813	20.54
219.198	8.47
219.583	8.42
219.968	15.14
220.353	14.45
220.738	23.87
221.122	24.1
221.507	10.66
221.892	-6.79
222.276	6.9
222.661	8.9
223.046	-3.52
223.43	-4.58
223.815	-5.56
224.199	1.54
224.583	3.14
224.968	-2.36
225.352	2.96
225.736	-4.56
226.121	7.25
226.505	0.87
226.889	2.38
227.273	-8.86
227.657	-0.66
228.041	2.89
228.425	3.2
228.809	2.95
229.193	3.72
229.577	0.33
229.961	2.69
230.344	2.28
230.728	1.87
231.112	2.46
231.495	1.68
231.879	3.11
232.263	1.89
232.646	0.66
233.03	1.82
233.413	2.51
233.797	4.07
234.18	1.08
234.563	5.88
234.946	2.13
235.33	0.52
235.713	3
236.096	1.8
236.479	2.61
236.862	2.06
237.245	2.44
237.628	1.54
238.011	3.83
238.394	2.12
238.777	0.22
239.16	0.84
239.543	2.98
239.925	2.11
240.308	0.9
240.691	2.86
241.073	3.64
241.456	2.39
241.838	1.32
242.221	2.01
242.603	1.86
242.986	2.5
243.368	1.67
243.75	1.63
244.133	2.35
244.515	1.98
244.897	2.37
245.279	2.12
245.661	2.74
246.043	1.78
246.425	1.58
246.807	1.3
247.189	2.24
247.571	2.29
247.953	2.02
248.335	1.6
248.717	1.88
249.098	2.06
249.48	1.98
249.862	1.81
250.243	2.04
250.625	1.96
251.006	2.73
251.388	1.44
251.769	2.03
252.151	1.63
252.532	1.87
252.913	1.18
253.295	2.27
253.676	1.48
254.057	2.3
254.438	2.02
254.819	2.36
255.2	2.09
255.581	1.78
255.962	2.31
256.343	1.94
256.724	2.62
257.105	2.75
257.486	1.75
257.867	1.65
258.247	2.02
258.628	1.75
259.009	2.8
259.389	1.68
259.77	2.14
260.15	1.85
260.531	2.22
260.911	2.08
261.292	1.63
261.672	1.69
262.052	1.67
262.432	2.05
262.813	2.38
263.193	1.83
263.573	1.48
263.953	2.16
264.333	2.51
264.713	1.52
265.093	1.9
265.473	1.98
265.853	2.11
266.233	1.3
266.612	1.48
266.992	1.52
267.372	1.06
267.752	1.78
268.131	1.94
268.511	2.12
268.89	1.78
269.27	2.09
269.649	1.67
270.029	2.24
270.408	1.66
270.787	1.55
271.167	1.99
271.546	2.11
271.925	2.26
272.304	1.86
272.683	1.64
273.062	1.91
273.441	1.81
273.82	1.23
274.199	1.99
274.578	1.44
274.957	1.99
275.336	1.64
275.715	1.63
276.093	1.57
276.472	2.03
276.851	1.85
277.229	1.98
277.608	1.64
277.986	1.63
278.365	2.29
278.743	1.89
279.122	1.65
279.5	1.68
279.878	1.8
280.257	1.62
280.635	1.56
281.013	2.22
281.391	1.91
281.769	1.56
282.147	1.12
282.525	1.95
282.903	1.5
283.281	1.62
283.659	1.71
284.037	1.68
284.415	1.83
284.792	1.48
285.17	1.57
285.548	1.94
285.925	1.88
286.303	1.53
286.68	1.6
287.058	1.79
287.435	1.76
287.813	1.77
288.19	1.54
288.567	1.57
288.945	1.28
289.322	1.36
289.699	1.72
290.076	1.4
290.453	1.76
290.83	1.44
291.207	1.61
291.584	1.39
291.961	1.67
292.338	1.59
292.715	2.17
293.092	1.56
293.469	1.21
293.845	1.64
294.222	1.31
294.599	2.12
294.975	2.23
295.352	1.76
295.728	1.98
296.105	1.36
296.481	1.57
296.858	1.81
297.234	1.43
297.61	1.49
297.986	1.12
298.363	1.38
298.739	1.25
299.115	1.55
299.491	1.67
299.867	1.58
300.243	1.67
300.619	1.15
300.995	1.79
301.371	1.75
301.746	1.63
302.122	1.72
302.498	1.94
302.874	1.92
303.249	1.51
303.625	1.41
304	1.84
304.376	1.72
304.751	1.44
305.127	1.22
305.502	2.21
305.878	1.47
306.253	1.74
306.628	1.57
307.003	1.79
307.378	1.79
307.754	1.24
308.129	1.5
308.504	1.68
308.879	1.5
309.254	1.78
309.629	1.49
310.003	1.78
310.378	1.53
310.753	1.46
311.128	1.47
311.502	2.08
311.877	1.76
312.252	2
312.626	1.62
313.001	1.48
313.375	1.63
313.75	2.01
314.124	1.89
314.498	1.55
314.873	1.62
315.247	1.65
315.621	2.11
315.995	1.98
316.369	0.94
316.743	1.37
317.117	2.08
317.491	2.28
317.865	2.58
318.239	2.09
318.613	1.96
318.987	1.48
319.361	1.34
319.734	1.13
320.108	1.83
320.482	1.87
320.855	1.67
321.229	2.56
321.602	1.07
321.976	1.84
322.349	1.79
322.723	1.37
323.096	1.99
323.469	2.17
323.843	1.51
324.216	1.09
324.589	2.09
324.962	1.81
325.335	1.62
325.708	1.96
326.081	2.12
326.454	1.99
326.827	1.73
327.2	1.93
327.573	1.78
327.945	1.9
328.318	1.76
328.691	1.86
329.063	1.93
329.436	1.45
329.809	2.53
330.181	1.68
330.553	2.08
330.926	2.13
331.298	2.03
331.671	1.87
332.043	1.91
332.415	1.71
332.787	1.95
333.159	1.62
333.532	2.02
333.904	1.8
334.276	2
334.648	2.03
335.02	2.25
335.391	1.79
335.763	1.67
336.135	1.87
336.507	2.22
336.879	2.12
337.25	1.27
337.622	1.92
337.993	1.21
338.365	1.63
338.736	1.71
339.108	1.95
339.479	2.07
339.851	1.63
340.222	2.13
340.593	1.54
340.964	1.83
341.336	1.76
341.707	1.43
342.078	1.97
342.449	1.62
342.82	1.83
343.191	1.55
343.562	1.87
343.933	1.62
344.303	2.09
344.674	2.12
345.045	1.49
345.416	2.15
345.786	1.85
346.157	2.43
346.527	1.87
346.898	2.16
347.268	1.89
347.639	1.69
348.009	1.84
348.38	2.17
348.75	2.47
349.12	1.81
349.49	2.05
349.861	2.02
350.231	1.58
350.601	2.14
350.971	1.78
351.341	1.72
351.711	1.78
352.081	1.97
352.45	1.89
352.82	2.12
353.19	2.21
353.56	1.86
353.929	1.55
354.299	1.75
354.669	1.75
355.038	2.07
355.408	2.03
355.777	1.85
356.147	1.65
356.516	1.99
356.885	1.19
357.254	2.12
357.624	1.94
357.993	1.44
358.362	1.87
358.731	1.79
359.1	1.78
359.469	1.57
359.838	2.1
360.207	1.79
360.576	1.73
360.945	2.09
361.314	1.7
361.682	1.46
362.051	1.9
362.42	1.8
362.788	2.04
363.157	1.74
363.525	1.58
363.894	1.78
364.262	2.04
364.631	2.28
364.999	1.86
365.367	1.87
365.735	1.77
366.104	1.57
366.472	1.82
366.84	1.95
367.208	1.96
367.576	2.22
367.944	1.76
368.312	1.6
368.68	1.74
369.048	1.69
369.416	1.86
369.783	1.93
370.151	2
370.519	1.98
370.886	2.14
371.254	2.32
371.621	2.03
371.989	1.89
372.356	2.03
372.724	1.94
373.091	1.8
373.458	1.84
373.826	2.1
374.193	2.29
374.56	1.68
374.927	2.51
375.294	2.12
375.661	1.79
376.028	1.72
376.395	1.93
376.762	1.73
377.129	2.15
377.496	2.2
377.863	1.86
378.229	2.14
378.596	2.1
378.963	2.05
379.329	1.88
379.696	2.1
380.062	1.95
380.429	2.07
380.795	1.86
381.161	1.81
381.528	2.04
381.894	1.76
382.26	1.66
382.626	1.91
382.993	1.86
383.359	1.98
383.725	1.87
384.091	1.68
384.457	1.9
384.823	2.39
385.188	2.14
385.554	1.98
385.92	2.15
386.286	2.19
386.651	2
387.017	2.04
387.383	1.87
387.748	1.7
388.114	2.1
388.479	1.97
388.845	1.9
389.21	1.99
389.575	1.99
389.94	1.83
390.306	2.13
390.671	1.75
391.036	2.01
391.401	1.54
391.766	1.98
392.131	1.77
392.496	2.08
392.861	2.13
393.226	1.83
393.591	1.85
393.956	2.05
394.32	2.03
394.685	1.92
395.05	2.06
395.414	1.88
395.779	1.73
396.143	2.14
396.508	1.74
396.872	2.18
397.236	2.01
397.601	1.92
397.965	1.93
398.329	1.8
398.694	2.1
399.058	2
399.422	1.98
399.786	2.03
400.15	1.94
400.514	2
400.878	1.95
401.242	1.71
401.605	1.91
401.969	2.03
402.333	2.13
402.697	2.11
403.06	1.97
403.424	1.97
403.787	2.04
404.151	2.16
404.514	2.21
404.878	1.99
405.241	2.26
405.604	2.15
405.968	1.98
406.331	1.9
406.694	2.06
407.057	2.08
407.42	2.04
407.783	1.86
408.146	1.87
408.509	1.97
408.872	1.86
409.235	2
409.598	2.17
409.961	1.91
410.323	1.98
410.686	2.02
411.049	1.85
411.411	2.1
411.774	2.09
412.136	2.06
412.499	2.03
412.861	2.06
413.223	1.89
413.586	1.99
413.948	1.99
414.31	2.16
414.672	1.87
415.035	2.03
415.397	2.18
415.759	2.04
416.121	1.98
416.483	1.8
416.845	2.08
417.206	2.18
417.568	2.06
417.93	1.89
418.292	1.94
418.653	1.93
419.015	2.1
419.377	1.89
419.738	1.78
420.1	2.02
420.461	2.11
420.822	1.91
421.184	1.98
421.545	1.85
421.906	1.79
422.267	1.91
422.629	1.88
422.99	1.97
423.351	1.91
423.712	1.95
424.073	1.92
424.434	1.96
424.795	1.97
425.155	1.84
425.516	1.92
425.877	2.04
426.238	1.88
426.598	2.04
426.959	1.95
427.32	1.99
427.68	1.93
428.041	1.84
428.401	2.05
428.761	2.05
429.122	2.05
429.482	2.05
429.842	1.95
430.202	2.05
430.563	2
430.923	2.01
431.283	1.89
431.643	2.14
432.003	2.05
432.363	2.12
432.722	2.15
433.082	2.24
433.442	1.88
433.802	1.89
434.161	2.07
434.521	1.9
434.881	1.83
435.24	2.04
435.6	1.94
435.959	1.95
436.319	2.02
436.678	1.99
437.037	2.01
437.396	2.12
437.756	1.93
438.115	1.84
438.474	2.04
438.833	2.05
439.192	1.93
439.551	2.14
439.91	2.08
440.269	1.92
440.628	1.9
440.987	2.06
441.345	2.08
441.704	1.95
442.063	2.08
442.421	2.05
442.78	2.02
443.138	1.92
443.497	2.08
443.855	2.12
444.214	2.05
444.572	1.98
444.93	1.78
445.288	2.02
445.647	1.88
446.005	1.92
446.363	2.15
446.721	1.9
447.079	1.91
447.437	1.92
447.795	1.98
448.153	1.98
448.51	1.89
448.868	1.85
449.226	1.93
449.584	1.95
449.941	1.95
450.299	2.07
450.656	2.03
451.014	2.14
451.371	2.09
451.729	2.08
452.086	1.99
452.443	2
452.801	1.95
453.158	1.91
453.515	2.02
453.872	2.14
454.229	2.09
454.586	2.07
454.943	2.02
455.3	1.95
455.657	2.15
456.014	1.86
456.371	2.06
456.727	1.98
457.084	1.76
457.441	2.07
457.797	1.98
458.154	1.91
458.51	2.04
458.867	2.07
459.223	1.96
459.58	2.03
459.936	2
460.292	2.01
460.648	1.93
461.005	1.94
461.361	1.92
461.717	1.86
462.073	1.92
462.429	1.97
462.785	1.99
463.141	2.06
463.496	2.02
463.852	2.03
464.208	2.19
464.564	1.83
464.919	1.98
465.275	2.13
465.631	2.15
465.986	1.92
466.342	1.96
466.697	2.1
467.052	2.21
467.408	2.05
467.763	1.95
468.118	2
468.473	2.06
468.829	1.93
469.184	2.01
469.539	2.12
469.894	2.09
470.249	2
470.603	2.15
470.958	2.05
471.313	2.04
471.668	2.05
472.023	1.98
472.377	1.95
472.732	2.17
473.086	2.02
473.441	2.12
473.795	2.02
474.15	2
474.504	2.08
474.859	2.16
475.213	2.14
475.567	2.09
475.921	2
476.275	2
476.63	2
476.984	1.97
477.338	1.85
477.692	2.11
478.045	2
478.399	2.12
478.753	2.19
479.107	2.01
479.461	1.94
479.814	1.87
480.168	2.03
480.521	1.99
480.875	2.1
481.228	1.96
481.582	2.14
481.935	2
482.289	2.02
482.642	1.99
482.995	1.94
483.348	1.9
483.701	1.91
484.055	1.91
484.408	1.89
484.761	1.83
485.114	1.8
485.466	1.77
485.819	1.8
486.172	1.91
486.525	1.99
486.878	1.99
487.23	1.93
487.583	1.93
487.936	1.99
488.288	1.95
488.641	1.86
488.993	1.9
489.345	1.87
489.698	1.9
490.05	1.95
490.402	1.98
490.754	1.98
491.107	1.97
491.459	1.94
491.811	1.97
492.163	2.01
492.515	1.93
492.866	1.9
493.218	1.81
493.57	1.84
493.922	1.95
494.274	1.98
494.625	2.03
494.977	2.05
495.328	2.09
495.68	1.92
496.031	2.05
496.383	1.96
496.734	2.12
497.086	1.95
497.437	1.95
497.788	2.04
498.139	1.87
498.49	1.99
498.842	2
499.193	2
499.544	1.96
499.894	2.04
500.245	1.94
500.596	1.97
500.947	1.98
501.298	2.06
501.648	2.05
501.999	1.97
502.35	1.98
502.7	2.01
503.051	2.03
503.401	2.04
503.752	2.02
504.102	2.2
504.452	1.95
504.803	2.06
505.153	2.16
505.503	2.06
505.853	2.04
506.203	1.87
506.553	1.92
506.903	2.13
507.253	2.08
507.603	2.13
507.953	2.07
508.303	2.2
508.652	1.93
509.002	2.12
509.352	2.07
509.701	2.02
510.051	2.17
510.4	1.95
510.75	2.04
511.099	1.91
511.449	2.03
511.798	2
512.147	1.9
512.496	2.01
512.846	1.95
513.195	2.06
513.544	2.18
513.893	2.04
514.242	1.96
514.591	2.02
514.939	2.07
515.288	2.1
515.637	1.99
515.986	2.18
516.334	2.07
516.683	1.98
517.032	2.01
517.38	1.94
517.729	2.14
518.077	1.96
518.426	1.96
518.774	2.07
519.122	1.96
519.47	1.98
519.819	1.98
520.167	2.02
520.515	1.94
520.863	2
521.211	2.02
521.559	2
521.907	2.06
522.255	1.91
522.602	2.04
522.95	2.02
523.298	2.06
523.645	2.05
523.993	2.11
524.341	2.08
524.688	2.05
525.036	2
525.383	1.84
525.73	2.06
526.078	2.03
526.425	1.96
526.772	2.03
527.119	1.87
527.466	1.87
527.814	1.93
528.161	1.88
528.508	1.94
528.854	1.89
529.201	1.94
529.548	1.88
529.895	1.87
530.242	1.81
530.588	1.87
530.935	1.96
531.282	1.99
531.628	2
531.975	2.01
532.321	1.94
532.667	1.99
533.014	1.98
533.36	1.97
533.706	1.98
534.052	1.91
534.399	1.93
534.745	1.9
535.091	1.88
535.437	2
535.783	1.95
536.129	2.05
536.474	1.95
536.82	2.01
537.166	2.03
537.512	2.03
537.857	2
538.203	1.98
538.549	1.91
538.894	1.94
539.239	1.97
539.585	2.07
539.93	2.05
540.276	2.02
540.621	2.06
540.966	2.13
541.311	2.04
541.656	2
542.001	1.94
542.346	1.96
542.691	1.85
543.036	1.84
543.381	1.84
543.726	1.91
544.071	2.01
544.415	2.03
544.76	1.98
545.105	2
545.449	2.02
545.794	1.94
546.138	1.93
546.483	2.1
546.827	1.92
547.171	2
547.516	2.02
547.86	1.91
548.204	1.95
548.548	1.87
548.892	1.91
549.236	2.08
549.58	2.11
549.924	2
550.268	2.13
550.612	1.98
550.956	2.11
551.3	2
551.643	2.11
551.987	2.09
552.33	2
552.674	2.13
553.017	1.83
553.361	1.91
553.704	2.06
554.048	1.85
554.391	2.01
554.734	2.05
555.077	2.11
555.42	2.13
555.764	2.04
556.107	2.13
556.45	2.09
556.793	1.99
557.135	2.16
557.478	2.21
557.821	2.08
558.164	2.15
558.507	2.17
558.849	2.1
559.192	2.07
559.534	1.96
559.877	2.09
560.219	2.18
560.562	2.18
560.904	2.18
561.246	2.17
561.589	2.04
561.931	2.21
562.273	2.05
562.615	2.07
562.957	2.06
563.299	2.11
563.641	1.97
563.983	1.93
564.325	1.96
564.667	2.27
565.008	2
565.35	2.06
565.692	2.19
566.033	1.98
566.375	1.91
566.716	2.11
567.058	2.13
567.399	2.03
567.741	2.07
568.082	2.06
568.423	2.21
568.764	2.2
569.105	2.04
569.447	2.07
569.788	2.16
570.129	2.08
570.47	2.13
570.811	2.08
571.151	2.07
571.492	2.12
571.833	2.01
572.174	1.99
572.514	2.05
572.855	1.99
573.195	2.08
573.536	2.04
573.876	2.14
574.217	1.95
574.557	2.16
574.898	2.06
575.238	2.17
575.578	2.22
575.918	2.06
576.258	2.11
576.598	2.06
576.938	2.02
577.278	2.12
577.618	2.18
577.958	2.11
578.298	2.1
578.638	2.3
578.977	2.15
579.317	2.17
579.657	2
579.996	2.09
580.336	2.25
580.675	2.13
581.014	1.99
581.354	2.01
581.693	2.08
582.032	2.1
582.372	2.09
582.711	2.07
583.05	2.14
583.389	2
583.728	2.07
584.067	2.22
584.406	2.25
584.745	2.21
585.083	2.16
585.422	2.02
585.761	2.02
586.1	1.96
586.438	2.25
586.777	2.18
587.115	2.22
587.454	2.05
587.792	2.01
588.13	2.26
588.469	2.1
588.807	2.13
589.145	2.05
589.483	2.3
589.821	2.09
590.159	2.36
590.497	1.94
590.835	2.25
591.173	2.19
591.511	2.03
591.849	2.21
592.187	2.08
592.524	1.99
592.862	2.14
593.2	2.05
593.537	1.95
593.875	2.13
594.212	2.08
594.55	2.27
594.887	2.33
595.224	2.16
595.561	2.19
595.899	2
596.236	2.45
596.573	1.96
596.91	2.08
597.247	1.93
597.584	2.27
597.921	1.97
598.258	2
598.594	1.96
598.931	2.14
599.268	1.9
599.604	2.15
599.941	2.12
600.277	2.04
600.614	2.24
600.95	2.18
601.287	2.13
601.623	2.18
601.959	1.94
602.296	2.14
602.632	2
602.968	2.22
603.304	2.13
603.64	2.24
603.976	2.08
604.312	1.89
604.648	2.1
604.984	2.17
605.319	2.24
605.655	2
605.991	2.19
606.326	2.26
606.662	2.1
606.998	2.03
607.333	2.19
607.668	2.19
608.004	2.23
608.339	2.36
608.674	2.12
609.01	1.97
609.345	1.99
609.68	2.49
610.015	2.3
610.35	2.1
610.685	1.94
611.02	2
611.355	1.79
611.689	1.93
612.024	2.23
612.359	2.21
612.694	2.27
613.028	2.15
613.363	2.07
613.697	2.08
614.032	2.39
614.366	2.22
614.7	2.17
615.035	2.45
615.369	1.96
615.703	2.13
616.037	2.08
616.371	2.22
616.705	2.09
617.039	2.47
617.373	2
617.707	1.94
618.041	2.38
618.375	1.9
618.709	2.25
619.042	1.93
619.376	2.27
619.71	2.47
620.043	2.37
620.377	2.15
620.71	2.07
621.043	2.36
621.377	2.25
621.71	1.91
622.043	2.03
622.376	2.05
622.709	2
623.043	2.27
623.376	1.83
623.709	2.57
624.041	2.33
624.374	2.14
624.707	1.86
625.04	2.21
625.373	2.42
625.705	1.92
626.038	1.98
626.37	2.18
626.703	2.36
627.035	2.14
627.368	2.23
627.7	2.18
628.032	2.16
628.365	1.94
628.697	2.25
629.029	2.13
629.361	2.15
629.693	2.36
630.025	2.27
630.357	2.14
630.689	2.36
631.021	2.17
631.353	2.19
631.684	2.25
632.016	2.45
632.348	1.78
632.679	2
633.011	2.39
633.342	2.38
633.674	2.29
634.005	2.22
634.336	2.23
634.668	2.36
634.999	2.23
635.33	2.53
635.661	2.2
635.992	2.06
636.323	2.29
636.654	2.03
636.985	2.03
637.316	2.45
637.647	2.13
637.977	2.5
638.308	1.98
638.639	2.17
638.969	2.22
639.3	2.11
639.63	2
639.961	2.3
640.291	1.89
640.622	2.44
640.952	2.54
641.282	2.59
641.612	2.62
641.943	2.25
642.273	2.32
642.603	2.2
642.933	2.06
643.263	2.45
643.592	2.07
643.922	2.15
644.252	2.37
644.582	2.54
644.911	2.45
645.241	2.24
645.571	2.29
645.9	2.11
646.23	2.01
646.559	1.91
646.888	2.46
647.218	1.68
647.547	2.54
647.876	2.31
648.205	2.32
648.534	1.98
648.863	2.29
649.192	1.87
649.521	2.41
649.85	2.43
650.179	2.29
650.508	2.07
650.837	2.43
651.165	2.03
651.494	1.96
651.822	2.67
652.151	2.19
652.479	2.75
652.808	2.37
653.136	2.12
653.465	2.31
653.793	2.49
654.121	2.1
654.449	2.65
654.777	2.01
655.105	2.46
655.433	2.13
655.761	2.62
656.089	2.38
656.417	2.06
656.745	2.54
657.073	1.89
657.4	1.99
657.728	2.23
658.056	2
658.383	2.29
658.711	2.4
659.038	2.09
659.365	2.43
659.693	1.92
660.02	2.28
660.347	2.47
660.674	2.12
661.001	2.28
661.329	2.54
661.656	2.38
661.982	2.52
662.309	2.47
662.636	2.63
662.963	2.04
663.29	2.08
663.616	1.97
663.943	2.39
664.27	2.28
664.596	2.46
664.923	2.33
665.249	2.68
665.576	2.36
665.902	2.58
666.228	2.61
666.554	2.79
666.881	2.9
667.207	2.59
667.533	2.22
667.859	2.87
668.185	2.77
668.511	2.29
668.837	2.26
669.162	2.87
669.488	2.31
669.814	2.25
670.139	2.34
670.465	2.76
670.791	2.63
671.116	2.15
671.442	2.47
671.767	2.64
672.092	2.08
672.418	2.21
672.743	2.46
673.068	2.74
673.393	2.24
673.718	2.08
674.043	2.59
674.368	3.03
674.693	1.93
675.018	2.36
675.343	2.07
675.667	2.68
675.992	2.37
676.317	2.48
676.641	2.52
676.966	2.34
677.29	1.82
677.615	2.31
677.939	2.5
678.264	2.17
678.588	2.43
678.912	2.37
679.236	2.02
679.56	2.8
679.885	2.45
680.209	2.37
680.532	2.16
680.856	2.7
681.18	2.4
681.504	2.22
681.828	2.17
682.152	1.98
682.475	2.22
682.799	2.26
683.122	2.33
683.446	2.39
683.769	2.68
684.093	2.62
684.416	2.95
684.739	2.45
685.062	2.76
685.386	2.86
685.709	2.29
686.032	2.77
686.355	2.36
686.678	2.52
687.001	2.75
687.324	2.52
687.646	2.25
687.969	2.29
688.292	2.88
688.614	2
688.937	2.22
689.26	1.8
689.582	2.13
689.904	2.86
690.227	2.43
690.549	1.42
690.871	2.92
691.194	2.48
691.516	1.8
691.838	1.8
692.16	2.17
692.482	2.23
692.804	2.94
693.126	2.64
693.448	2.18
693.769	2.24
694.091	1.51
694.413	2.9
694.735	2.6
