Data from 1832-1_crown_Reflection__0__26.txt Node

Date: Fri Sep 30 17:56:49 CDT 2022
User: ToomeyLab
Spectrometer: FLMS14357
Trigger mode: 0
Integration Time (sec): 1.000000E-2
Scans to average: 100
Electric dark correction enabled: true
Nonlinearity correction enabled: false
Boxcar width: 0
XAxis mode: Wavelengths
Number of Pixels in Spectrum: 2048
>>>>>Begin Spectral Data<<<<<
189.047	-1037.93
189.435	-1037.93
189.823	-1037.93
190.211	141.51
190.599	52.84
190.987	50.94
191.375	121500
191.763	7.92
192.151	-11.94
192.538	-100
192.926	-1500.96
193.314	-109.26
193.702	45.59
194.089	-64.44
194.477	130.6
194.864	58.32
195.252	-43.77
195.639	-482.76
196.027	42.34
196.414	116.64
196.801	17.39
197.189	-280.67
197.576	-42.52
197.963	19.45
198.351	23.19
198.738	28.69
199.125	31.78
199.512	-11.74
199.899	3.39
200.286	13.44
200.673	25.83
201.06	39.54
201.447	19.12
201.833	31.26
202.22	52.18
202.607	35.24
202.994	63.99
203.38	15.76
203.767	37.84
204.154	13.97
204.54	34.48
204.927	29.54
205.313	-41.67
205.699	-4.01
206.086	-60.52
206.472	18.91
206.858	45.82
207.245	19.44
207.631	-9.8
208.017	-1.52
208.403	14.24
208.789	-7.14
209.175	31.22
209.561	7.58
209.947	10.92
210.333	-24.13
210.719	-18.09
211.105	21.84
211.491	0.09
211.876	13.75
212.262	18.24
212.648	23.83
213.034	4.89
213.419	10.1
213.805	30.65
214.19	10.01
214.576	39.18
214.961	17.28
215.346	6.8
215.732	14.09
216.117	16.19
216.502	16.77
216.888	9.25
217.273	12.93
217.658	12.37
218.043	18.14
218.428	14.41
218.813	30.55
219.198	7.95
219.583	16.7
219.968	25.91
220.353	4.82
220.738	17.99
221.122	17.83
221.507	7.48
221.892	7.68
222.276	-5.35
222.661	16.6
223.046	5.24
223.43	-0.04
223.815	-0.7
224.199	7.37
224.583	1.64
224.968	3.58
225.352	5.42
225.736	6.51
226.121	1.67
226.505	-1.33
226.889	6.79
227.273	-2.32
227.657	9.15
228.041	3.94
228.425	7.58
228.809	5.28
229.193	6.96
229.577	2.54
229.961	4.59
230.344	3.96
230.728	3.93
231.112	4.08
231.495	3.94
231.879	6.17
232.263	4.77
232.646	2.59
233.03	5.3
233.413	3.92
233.797	3.21
234.18	1.79
234.563	5.94
234.946	3.8
235.33	1.66
235.713	6.19
236.096	4.48
236.479	5.45
236.862	3.54
237.245	5.38
237.628	3.01
238.011	6.01
238.394	2.62
238.777	2.27
239.16	2.8
239.543	4.94
239.925	3.55
240.308	2.58
240.691	6.95
241.073	3.88
241.456	4.01
241.838	4.08
242.221	4.07
242.603	4.68
242.986	3.82
243.368	3.19
243.75	3.26
244.133	3.92
244.515	3.61
244.897	4.5
245.279	4.06
245.661	3.58
246.043	3.55
246.425	2.72
246.807	4.13
247.189	4
247.571	4.13
247.953	3.68
248.335	3.4
248.717	3.48
249.098	3.82
249.48	3.61
249.862	3.43
250.243	3.5
250.625	3.79
251.006	3.85
251.388	2.54
251.769	4
252.151	3.49
252.532	3.57
252.913	3.07
253.295	3.17
253.676	3.52
254.057	3.47
254.438	3.27
254.819	4.35
255.2	4.43
255.581	4.5
255.962	4.83
256.343	2.33
256.724	3.79
257.105	3.37
257.486	3.15
257.867	3.97
258.247	3.47
258.628	3.54
259.009	4.39
259.389	3.31
259.77	3.76
260.15	3.25
260.531	3.44
260.911	3.23
261.292	3.1
261.672	3.22
262.052	3.27
262.432	3.26
262.813	3.5
263.193	2.99
263.573	3.2
263.953	3.47
264.333	3.66
264.713	2.54
265.093	3.33
265.473	2.66
265.853	3.36
266.233	2.5
266.612	2.83
266.992	2.79
267.372	2.4
267.752	2.84
268.131	3.16
268.511	3.14
268.89	2.65
269.27	3.21
269.649	3.07
270.029	3.18
270.408	2.7
270.787	3.29
271.167	3.64
271.546	3.54
271.925	3.78
272.304	3.45
272.683	2.76
273.062	3.53
273.441	3.32
273.82	2.51
274.199	3.02
274.578	2.9
274.957	2.91
275.336	2.96
275.715	3.09
276.093	3.29
276.472	3.3
276.851	2.92
277.229	3.36
277.608	3.35
277.986	2.67
278.365	3.07
278.743	2.51
279.122	2.85
279.5	3.03
279.878	2.89
280.257	2.99
280.635	3
281.013	3.37
281.391	2.72
281.769	3.26
282.147	2.8
282.525	3.47
282.903	3.01
283.281	2.99
283.659	3.08
284.037	3.02
284.415	3.06
284.792	3.15
285.17	2.44
285.548	2.72
285.925	2.96
286.303	2.7
286.68	2.29
287.058	2.84
287.435	2.7
287.813	2.87
288.19	2.88
288.567	3.03
288.945	2.62
289.322	2.7
289.699	2.59
290.076	3.09
290.453	2.63
290.83	3.2
291.207	2.47
291.584	2.69
291.961	2.66
292.338	3.06
292.715	3.21
293.092	2.8
293.469	3.05
293.845	3.27
294.222	3.17
294.599	3.3
294.975	3.5
295.352	2.69
295.728	3
296.105	3.15
296.481	2.96
296.858	2.98
297.234	2.79
297.61	2.87
297.986	2.72
298.363	2.68
298.739	2.59
299.115	2.79
299.491	2.9
299.867	2.86
300.243	2.79
300.619	2.54
300.995	3.05
301.371	2.98
301.746	2.78
302.122	3.08
302.498	2.97
302.874	3.24
303.249	2.95
303.625	3.26
304	3.06
304.376	2.74
304.751	2.76
305.127	2.73
305.502	2.69
305.878	3.18
306.253	2.69
306.628	2.64
307.003	2.73
307.378	2.5
307.754	2.5
308.129	3.04
308.504	3.17
308.879	3.32
309.254	2.51
309.629	3.11
310.003	2.57
310.378	2.76
310.753	2.87
311.128	2.84
311.502	3.24
311.877	2.86
312.252	3.07
312.626	3.24
313.001	2.89
313.375	2.59
313.75	2.9
314.124	3.02
314.498	2.75
314.873	2.96
315.247	2.63
315.621	2.87
315.995	3.32
316.369	2.86
316.743	3.04
317.117	3.5
317.491	3.33
317.865	3.3
318.239	2.98
318.613	2.8
318.987	2.82
319.361	2.95
319.734	2.69
320.108	2.97
320.482	2.59
320.855	2.95
321.229	3.46
321.602	2.86
321.976	3.31
322.349	2.81
322.723	2.69
323.096	3.18
323.469	3.25
323.843	2.59
324.216	3
324.589	2.92
324.962	3.37
325.335	2.27
325.708	2.55
326.081	2.88
326.454	3.04
326.827	3.13
327.2	3.06
327.573	2.96
327.945	2.87
328.318	2.64
328.691	3.26
329.063	3.27
329.436	3.14
329.809	3.58
330.181	2.84
330.553	3.04
330.926	2.91
331.298	2.97
331.671	3.39
332.043	3.31
332.415	3.16
332.787	2.52
333.159	3.18
333.532	2.96
333.904	3.12
334.276	3.45
334.648	2.89
335.02	2.9
335.391	3.43
335.763	3.11
336.135	3.6
336.507	2.99
336.879	3.3
337.25	3.03
337.622	2.97
337.993	2.67
338.365	3.1
338.736	3.16
339.108	3.16
339.479	3.45
339.851	3.06
340.222	3.41
340.593	3.05
340.964	2.97
341.336	3.04
341.707	2.88
342.078	2.68
342.449	2.93
342.82	3.14
343.191	2.99
343.562	3.26
343.933	3.03
344.303	3.16
344.674	3.13
345.045	2.77
345.416	3.05
345.786	3.11
346.157	3.39
346.527	3.12
346.898	3.15
347.268	3
347.639	2.96
348.009	3.21
348.38	3.48
348.75	3.43
349.12	3.22
349.49	3.3
349.861	2.91
350.231	3.13
350.601	3.36
350.971	3.03
351.341	3.31
351.711	3.07
352.081	3.17
352.45	3.5
352.82	3.08
353.19	3.23
353.56	2.84
353.929	3.26
354.299	3.34
354.669	3.11
355.038	3.34
355.408	3.28
355.777	2.8
356.147	3.15
356.516	3.29
356.885	3.02
357.254	3.16
357.624	3.13
357.993	2.85
358.362	3.37
358.731	2.84
359.1	3.24
359.469	2.99
359.838	3.43
360.207	2.96
360.576	3.04
360.945	3.24
361.314	3.18
361.682	3.34
362.051	3.17
362.42	3.14
362.788	3.21
363.157	3.08
363.525	2.88
363.894	3.27
364.262	3.52
364.631	3.51
364.999	3.11
365.367	3.48
365.735	3.18
366.104	3.05
366.472	3.53
366.84	3.32
367.208	3.15
367.576	3.69
367.944	3.44
368.312	2.81
368.68	3.16
369.048	3.15
369.416	3.16
369.783	3.13
370.151	3.27
370.519	3.39
370.886	3.34
371.254	3.08
371.621	3.42
371.989	3.25
372.356	3.18
372.724	3.3
373.091	2.89
373.458	3.06
373.826	3.37
374.193	3.67
374.56	3.44
374.927	3.78
375.294	3.58
375.661	3.19
376.028	3.2
376.395	3.25
376.762	3.56
377.129	3.36
377.496	3.79
377.863	3.4
378.229	3.62
378.596	3.2
378.963	3.42
379.329	3.19
379.696	3.34
380.062	3.51
380.429	3.51
380.795	3.11
381.161	2.88
381.528	3.65
381.894	3.22
382.26	3.1
382.626	3.5
382.993	3.54
383.359	3.03
383.725	3.24
384.091	3.13
384.457	3.31
384.823	3.36
385.188	3.55
385.554	3.48
385.92	3.42
386.286	3.37
386.651	3.43
387.017	3.35
387.383	3.16
387.748	3.16
388.114	3.49
388.479	3.38
388.845	3.07
389.21	3.35
389.575	3.4
389.94	3.48
390.306	3.63
390.671	3.58
391.036	3.4
391.401	3.36
391.766	3.62
392.131	3.17
392.496	3.54
392.861	3.49
393.226	3.18
393.591	3.27
393.956	3.4
394.32	3.59
394.685	3.3
395.05	3.43
395.414	3.45
395.779	3.26
396.143	3.38
396.508	3.26
396.872	3.58
397.236	3.36
397.601	3.49
397.965	3.36
398.329	3.1
398.694	3.51
399.058	3.4
399.422	3.45
399.786	3.44
400.15	3.34
400.514	3.41
400.878	3.44
401.242	3.14
401.605	3.19
401.969	3.4
402.333	3.5
402.697	3.63
403.06	3.42
403.424	3.25
403.787	3.79
404.151	3.51
404.514	3.53
404.878	3.3
405.241	3.51
405.604	3.38
405.968	3.26
406.331	3.36
406.694	3.41
407.057	3.41
407.42	3.44
407.783	3.35
408.146	3.48
408.509	3.34
408.872	3.32
409.235	3.41
409.598	3.56
409.961	3.33
410.323	3.58
410.686	3.62
411.049	3.27
411.411	3.43
411.774	3.42
412.136	3.41
412.499	3.19
412.861	3.41
413.223	3.29
413.586	3.22
413.948	3.71
414.31	3.66
414.672	3.35
415.035	3.51
415.397	3.54
415.759	3.24
416.121	3.41
416.483	3.37
416.845	3.4
417.206	3.46
417.568	3.42
417.93	3.24
418.292	3.46
418.653	3.27
419.015	3.4
419.377	3.4
419.738	3.28
420.1	3.35
420.461	3.46
420.822	3.35
421.184	3.31
421.545	3.23
421.906	3.12
422.267	3.24
422.629	3.28
422.99	3.31
423.351	3.32
423.712	3.35
424.073	3.35
424.434	3.3
424.795	3.34
425.155	3.27
425.516	3.26
425.877	3.4
426.238	3.29
426.598	3.38
426.959	3.34
427.32	3.41
427.68	3.45
428.041	3.21
428.401	3.33
428.761	3.58
429.122	3.64
429.482	3.33
429.842	3.48
430.202	3.36
430.563	3.48
430.923	3.41
431.283	3.46
431.643	3.58
432.003	3.44
432.363	3.57
432.722	3.39
433.082	3.45
433.442	3.34
433.802	3.49
434.161	3.4
434.521	3.42
434.881	3.23
435.24	3.38
435.6	3.49
435.959	3.41
436.319	3.34
436.678	3.3
437.037	3.49
437.396	3.36
437.756	3.41
438.115	3.36
438.474	3.32
438.833	3.47
439.192	3.33
439.551	3.35
439.91	3.25
440.269	3.2
440.628	3.36
440.987	3.36
441.345	3.41
441.704	3.33
442.063	3.4
442.421	3.43
442.78	3.39
443.138	3.3
443.497	3.46
443.855	3.43
444.214	3.37
444.572	3.43
444.93	3.28
445.288	3.36
445.647	3.3
446.005	3.32
446.363	3.43
446.721	3.36
447.079	3.23
447.437	3.28
447.795	3.16
448.153	3.25
448.51	3.28
448.868	3.35
449.226	3.26
449.584	3.38
449.941	3.39
450.299	3.28
450.656	3.47
451.014	3.54
451.371	3.55
451.729	3.44
452.086	3.44
452.443	3.54
452.801	3.38
453.158	3.2
453.515	3.32
453.872	3.44
454.229	3.28
454.586	3.48
454.943	3.57
455.3	3.31
455.657	3.4
456.014	3.32
456.371	3.43
456.727	3.44
457.084	3.29
457.441	3.27
457.797	3.34
458.154	3.25
458.51	3.24
458.867	3.42
459.223	3.4
459.58	3.46
459.936	3.41
460.292	3.43
460.648	3.24
461.005	3.26
461.361	3.2
461.717	3.17
462.073	3.31
462.429	3.36
462.785	3.4
463.141	3.43
463.496	3.37
463.852	3.35
464.208	3.58
464.564	3.47
464.919	3.41
465.275	3.5
465.631	3.41
465.986	3.23
466.342	3.29
466.697	3.4
467.052	3.56
467.408	3.2
467.763	3.33
468.118	3.36
468.473	3.41
468.829	3.32
469.184	3.41
469.539	3.31
469.894	3.41
470.249	3.46
470.603	3.48
470.958	3.41
471.313	3.39
471.668	3.44
472.023	3.32
472.377	3.3
472.732	3.46
473.086	3.28
473.441	3.55
473.795	3.29
474.15	3.37
474.504	3.43
474.859	3.41
475.213	3.29
475.567	3.56
475.921	3.49
476.275	3.29
476.63	3.33
476.984	3.27
477.338	3.37
477.692	3.36
478.045	3.44
478.399	3.4
478.753	3.42
479.107	3.25
479.461	3.3
479.814	3.23
480.168	3.34
480.521	3.29
480.875	3.39
481.228	3.37
481.582	3.32
481.935	3.41
482.289	3.31
482.642	3.3
482.995	3.37
483.348	3.21
483.701	3.23
484.055	3.2
484.408	3.14
484.761	3.04
485.114	2.92
485.466	2.88
485.819	3
486.172	3.17
486.525	3.31
486.878	3.29
487.23	3.31
487.583	3.2
487.936	3.18
488.288	3.14
488.641	3.05
488.993	3.03
489.345	3.04
489.698	3.13
490.05	3.18
490.402	3.26
490.754	3.32
491.107	3.28
491.459	3.33
491.811	3.31
492.163	3.32
492.515	3.19
492.866	3.01
493.218	3.03
493.57	3.06
493.922	3.16
494.274	3.23
494.625	3.34
494.977	3.32
495.328	3.31
495.68	3.22
496.031	3.34
496.383	3.2
496.734	3.34
497.086	3.36
497.437	3.3
497.788	3.29
498.139	3.19
498.49	3.11
498.842	3.17
499.193	3.29
499.544	3.29
499.894	3.44
500.245	3.25
500.596	3.26
500.947	3.23
501.298	3.33
501.648	3.23
501.999	3.3
502.35	3.3
502.7	3.31
503.051	3.26
503.401	3.34
503.752	3.22
504.102	3.36
504.452	3.23
504.803	3.31
505.153	3.35
505.503	3.21
505.853	3.29
506.203	3.18
506.553	3.24
506.903	3.33
507.253	3.33
507.603	3.33
507.953	3.35
508.303	3.39
508.652	3.23
509.002	3.34
509.352	3.3
509.701	3.19
510.051	3.32
510.4	3.2
510.75	3.28
511.099	3.09
511.449	3.19
511.798	3.23
512.147	3.28
512.496	3.17
512.846	3.24
513.195	3.36
513.544	3.18
513.893	3.18
514.242	3.19
514.591	3.36
514.939	3.24
515.288	3.21
515.637	3.13
515.986	3.26
516.334	3.15
516.683	3.15
517.032	3.11
517.38	3.23
517.729	3.33
518.077	3.14
518.426	3.26
518.774	3.17
519.122	3.11
519.47	3.19
519.819	3.19
520.167	3.17
520.515	3.13
520.863	3.23
521.211	3.28
521.559	3.29
521.907	3.25
522.255	3.15
522.602	3.34
522.95	3.3
523.298	3.26
523.645	3.22
523.993	3.21
524.341	3.21
524.688	3.29
525.036	3.05
525.383	3.05
525.73	3.26
526.078	3.18
526.425	2.98
526.772	3.13
527.119	3.01
527.466	3.03
527.814	3.05
528.161	3.06
528.508	3.12
528.854	3.07
529.201	3.05
529.548	2.98
529.895	2.9
530.242	2.85
530.588	2.93
530.935	3.06
531.282	3.13
531.628	3.15
531.975	3.13
532.321	3.13
532.667	3.19
533.014	3.16
533.36	3.2
533.706	3.13
534.052	2.98
534.399	2.98
534.745	2.95
535.091	2.94
535.437	3.04
535.783	3.17
536.129	3.16
536.474	3.18
536.82	3.12
537.166	3.15
537.512	3.13
537.857	3.14
538.203	3.03
538.549	2.98
538.894	3.07
539.239	3.08
539.585	3.23
539.93	3.23
540.276	3.16
540.621	3.2
540.966	3.21
541.311	3.11
541.656	3.06
542.001	3.01
542.346	3
542.691	2.87
543.036	2.87
543.381	2.95
543.726	3.07
544.071	3.14
544.415	3.08
544.76	3.15
545.105	3.07
545.449	3.07
545.794	3.16
546.138	3.15
546.483	3.16
546.827	3.09
547.171	3.15
547.516	3.05
547.86	3.04
548.204	3.13
548.548	3.04
548.892	3.12
549.236	3.12
549.58	3.25
549.924	3.17
550.268	3.37
550.612	3.24
550.956	3.22
551.3	3.23
551.643	3.31
551.987	3.14
552.33	3.22
552.674	3.18
553.017	3.13
553.361	3.04
553.704	3.33
554.048	3.05
554.391	3.24
554.734	3.09
555.077	3.28
555.42	3.26
555.764	3.18
556.107	3.17
556.45	3.25
556.793	3.19
557.135	3.31
557.478	3.12
557.821	3.17
558.164	3.33
558.507	3.18
558.849	3.31
559.192	3.18
559.534	3.2
559.877	3.1
560.219	3.27
560.562	3.29
560.904	3.13
561.246	3.22
561.589	3.02
561.931	3.19
562.273	3.19
562.615	3.12
562.957	3.07
563.299	3.18
563.641	2.92
563.983	3.1
564.325	3.24
564.667	3.35
565.008	2.98
565.35	3.02
565.692	3.07
566.033	3.08
566.375	2.89
566.716	3.13
567.058	3.08
567.399	3.02
567.741	3.09
568.082	3.11
568.423	3.07
568.764	3.09
569.105	3.16
569.447	3.22
569.788	3.38
570.129	3.17
570.47	3.14
570.811	3.12
571.151	3.09
571.492	3.24
571.833	3.23
572.174	2.9
572.514	3.18
572.855	3.09
573.195	3.12
573.536	3.1
573.876	3.11
574.217	3.12
574.557	3.07
574.898	3.08
575.238	3.23
575.578	3.05
575.918	3.12
576.258	3.24
576.598	3.12
576.938	3.05
577.278	3.16
577.618	3.09
577.958	3.1
578.298	3.14
578.638	3.24
578.977	3.12
579.317	3.08
579.657	3.22
579.996	3.11
580.336	3.25
580.675	3.31
581.014	3.06
581.354	3.09
581.693	3.26
582.032	3.02
582.372	3.06
582.711	3.06
583.05	3.1
583.389	2.97
583.728	3.02
584.067	3.29
584.406	3.07
584.745	2.98
585.083	3.16
585.422	3.16
585.761	3.1
586.1	3.16
586.438	3.28
586.777	3.4
587.115	3.28
587.454	3.26
587.792	3
588.13	3.29
588.469	3.06
588.807	3.24
589.145	3.13
589.483	3.53
589.821	3.26
590.159	3.18
590.497	3.15
590.835	3
591.173	2.99
591.511	3.09
591.849	3.18
592.187	3.18
592.524	3.09
592.862	3.21
593.2	3.26
593.537	3.07
593.875	3.13
594.212	3.2
594.55	2.86
594.887	3.32
595.224	3.07
595.561	3.14
595.899	3.06
596.236	3.41
596.573	2.97
596.91	3.19
597.247	3.04
597.584	3.11
597.921	3.06
598.258	3.14
598.594	2.95
598.931	2.96
599.268	3.02
599.604	3.22
599.941	3
600.277	3.05
600.614	3.2
600.95	3.45
601.287	3.16
601.623	3.16
601.959	3.09
602.296	3.11
602.632	3.14
602.968	3.25
603.304	3.16
603.64	3.37
603.976	2.94
604.312	3.26
604.648	3.13
604.984	3.16
605.319	2.94
605.655	3.25
605.991	3.01
606.326	3.18
606.662	3.05
606.998	3.02
607.333	3.04
607.668	3.18
608.004	3.22
608.339	3.11
608.674	3.05
609.01	3.04
609.345	3.11
609.68	3.28
610.015	3.4
610.35	2.83
610.685	2.98
611.02	3
611.355	3
611.689	2.87
612.024	3.22
612.359	3.27
612.694	3.19
613.028	3.26
613.363	2.99
613.697	3.24
614.032	3.06
614.366	3.08
614.7	3.21
615.035	3.21
615.369	3.15
615.703	3.14
616.037	2.8
616.371	3.06
616.705	3.08
617.039	3.39
617.373	3.45
617.707	3.01
618.041	3.03
618.375	2.93
618.709	3.45
619.042	2.87
619.376	3.63
619.71	3.29
620.043	3.31
620.377	3.22
620.71	3.17
621.043	3.25
621.377	3.29
621.71	2.9
622.043	3.01
622.376	2.99
622.709	2.98
623.043	3.15
623.376	2.76
623.709	3.06
624.041	3.1
624.374	3.19
624.707	2.71
625.04	3.28
625.373	3.08
625.705	2.95
626.038	3.05
626.37	3.09
626.703	3.36
627.035	3.18
627.368	3.22
627.7	3.35
628.032	3.14
628.365	3.06
628.697	3.28
629.029	3.07
629.361	3.01
629.693	3.36
630.025	3.07
630.357	3.19
630.689	3.53
631.021	3.26
631.353	3.31
631.684	3.23
632.016	3.33
632.348	3.21
632.679	3.21
633.011	3.27
633.342	3.16
633.674	3.56
634.005	3.46
634.336	3.39
634.668	3.31
634.999	3.18
635.33	3.69
635.661	2.89
635.992	3.06
636.323	3.26
636.654	2.79
636.985	2.79
637.316	3.42
637.647	3.03
637.977	3.19
638.308	2.88
638.639	2.61
638.969	3.09
639.3	3.16
639.63	2.72
639.961	3.47
640.291	3.34
640.622	3.48
640.952	3.41
641.282	2.99
641.612	3.4
641.943	3.24
642.273	3.3
642.603	2.82
642.933	3.17
643.263	3.3
643.592	3.35
643.922	3.35
644.252	3.33
644.582	3.67
644.911	3.32
645.241	3.44
645.571	2.97
645.9	3.38
646.23	3.33
646.559	2.97
646.888	3.26
647.218	2.97
647.547	3.14
647.876	2.85
648.205	2.93
648.534	2.96
648.863	3.34
649.192	3.25
649.521	3.05
649.85	3.53
650.179	3.52
650.508	3.27
650.837	3.2
651.165	3.03
651.494	3.2
651.822	3.4
652.151	3.4
652.479	3.31
652.808	3.56
653.136	3.38
653.465	3.3
653.793	3.41
654.121	3.08
654.449	3.35
654.777	3.07
655.105	3.59
655.433	3.26
655.761	3.75
656.089	3.45
656.417	3.22
656.745	2.89
657.073	3.38
657.4	2.97
657.728	3.49
658.056	3.33
658.383	3.35
658.711	3.05
659.038	2.81
659.365	3.37
659.693	3.22
660.02	3.13
660.347	3.27
660.674	3.13
661.001	3.11
661.329	3.37
661.656	3.17
661.982	3.31
662.309	3.7
662.636	3.43
662.963	3.38
663.29	3.18
663.616	2.99
663.943	3.13
664.27	3.24
664.596	3.21
664.923	3.41
665.249	3.21
665.576	3.21
665.902	3.31
666.228	3.92
666.554	3.38
666.881	3.34
667.207	3.5
667.533	3.27
667.859	3.35
668.185	3.68
668.511	3.24
668.837	3.13
669.162	3.59
669.488	3.54
669.814	3.21
670.139	3.25
670.465	3.83
670.791	3.41
671.116	3.41
671.442	3.2
671.767	3.42
672.092	3.32
672.418	3.25
672.743	3.49
673.068	4.04
673.393	3.56
673.718	2.88
674.043	3.72
674.368	3.79
674.693	3.03
675.018	3.25
675.343	3.64
675.667	3.91
675.992	4.05
676.317	3.8
676.641	3.21
676.966	3.42
677.29	2.95
677.615	3.16
677.939	3.07
678.264	3.12
678.588	3.59
678.912	3.19
679.236	3.57
679.56	2.85
679.885	3.36
680.209	3.36
680.532	3.08
680.856	3.25
681.18	3.88
681.504	3.11
681.828	3.31
682.152	3.36
682.475	3.36
682.799	3.13
683.122	3.41
683.446	3.45
683.769	3.81
684.093	3.83
684.416	3.87
684.739	3.4
685.062	3.79
685.386	3.79
685.709	3.26
686.032	3.29
686.355	3.8
686.678	2.8
687.001	3.87
687.324	3.66
687.646	3.67
687.969	3.22
688.292	3.63
688.614	3.28
688.937	3.46
689.26	2.97
689.582	3.51
689.904	3.5
690.227	2.96
690.549	3.27
690.871	4.04
691.194	3.4
691.516	3.64
691.838	3.06
692.16	3.43
692.482	4.06
692.804	3.69
