Data from 1832-1_crown_Reflection__3__29.txt Node

Date: Fri Sep 30 17:57:30 CDT 2022
User: ToomeyLab
Spectrometer: FLMS14357
Trigger mode: 0
Integration Time (sec): 1.000000E-2
Scans to average: 100
Electric dark correction enabled: true
Nonlinearity correction enabled: false
Boxcar width: 0
XAxis mode: Wavelengths
Number of Pixels in Spectrum: 2048
>>>>>Begin Spectral Data<<<<<
189.047	111
189.435	111
189.823	111
190.211	96.03
190.599	176.03
190.987	22.46
191.375	69200
191.763	-102.05
192.151	37.63
192.538	-101.22
192.926	530.14
193.314	-93.8
193.702	10.34
194.089	120.82
194.477	6.78
194.864	-29
195.252	-85.17
195.639	511.74
196.027	90.09
196.414	143.05
196.801	77.57
197.189	-418.85
197.576	39.65
197.963	-37.98
198.351	-23.15
198.738	-11.51
199.125	58.29
199.512	-3.08
199.899	7.37
200.286	54
200.673	48.55
201.06	46.04
201.447	-14.27
201.833	52.7
202.22	-1.54
202.607	65.54
202.994	51.99
203.38	30.22
203.767	2.48
204.154	18.14
204.54	28.38
204.927	51.79
205.313	27.97
205.699	23.04
206.086	11.42
206.472	-17.93
206.858	22.09
207.245	16.38
207.631	-16.43
208.017	-15.35
208.403	5.57
208.789	15.8
209.175	30.06
209.561	13.75
209.947	19.8
210.333	-13.92
210.719	-3.73
211.105	13.24
211.491	-8.4
211.876	20.46
212.262	11.3
212.648	42.12
213.034	-6.94
213.419	30.27
213.805	-5.66
214.19	16.58
214.576	30.1
214.961	4.68
215.346	17.06
215.732	-0.44
216.117	-4.57
216.502	25.65
216.888	13.41
217.273	11.16
217.658	29.22
218.043	-3.73
218.428	15.56
218.813	26.45
219.198	9.86
219.583	11.19
219.968	25.7
220.353	9.21
220.738	9.06
221.122	0.54
221.507	18.13
221.892	7.24
222.276	-12.67
222.661	18.1
223.046	6.77
223.43	0.69
223.815	10.44
224.199	3.89
224.583	1.41
224.968	10.27
225.352	0.37
225.736	11.25
226.121	3.9
226.505	6.7
226.889	9.92
227.273	-2.22
227.657	7.56
228.041	3.2
228.425	5.52
228.809	7.51
229.193	3.41
229.577	1.26
229.961	4.96
230.344	3.03
230.728	3
231.112	3.5
231.495	3.23
231.879	5.2
232.263	2.05
232.646	2.53
233.03	3.65
233.413	5.05
233.797	5.27
234.18	3.22
234.563	5.45
234.946	4.58
235.33	3.14
235.713	5.4
236.096	4.3
236.479	3.69
236.862	3.31
237.245	4.75
237.628	2.15
238.011	4.61
238.394	4.99
238.777	0.64
239.16	3.12
239.543	3.88
239.925	3.12
240.308	2.3
240.691	3.75
241.073	3.42
241.456	3.88
241.838	3.52
242.221	3.36
242.603	4.12
242.986	3.95
243.368	2.65
243.75	3.14
244.133	3.61
244.515	3.02
244.897	3.67
245.279	3.58
245.661	3.23
246.043	2.91
246.425	2.61
246.807	3.83
247.189	3.45
247.571	2.83
247.953	3.09
248.335	2.67
248.717	2.89
249.098	3.05
249.48	3.06
249.862	3.06
250.243	2.87
250.625	3.37
251.006	2.81
251.388	2.69
251.769	4.09
252.151	2.54
252.532	4.05
252.913	2.55
253.295	2.33
253.676	2.96
254.057	3.08
254.438	2.52
254.819	4.1
255.2	2.52
255.581	3.34
255.962	3.72
256.343	3.11
256.724	3.04
257.105	3.63
257.486	3.03
257.867	3.49
258.247	2.94
258.628	3.55
259.009	3.78
259.389	2.52
259.77	3.12
260.15	2.39
260.531	3.35
260.911	2.82
261.292	2.56
261.672	2.58
262.052	2.74
262.432	2.9
262.813	3.19
263.193	2.81
263.573	2.9
263.953	2.42
264.333	3.33
264.713	2.39
265.093	3.08
265.473	2.96
265.853	2.29
266.233	2.74
266.612	2.39
266.992	2.46
267.372	2.25
267.752	2.08
268.131	2.69
268.511	2.62
268.89	2.3
269.27	2.64
269.649	2.03
270.029	2.98
270.408	2.46
270.787	2.52
271.167	2.32
271.546	2.32
271.925	3.13
272.304	2.59
272.683	2.38
273.062	2.65
273.441	2.36
273.82	2.26
274.199	2.41
274.578	2.27
274.957	2.41
275.336	2.58
275.715	2.26
276.093	2.27
276.472	2.9
276.851	2.67
277.229	2.73
277.608	2.44
277.986	2.16
278.365	2.48
278.743	2.37
279.122	2.79
279.5	2.86
279.878	2.41
280.257	2.61
280.635	3.11
281.013	2.92
281.391	1.97
281.769	2.84
282.147	2.69
282.525	3.09
282.903	2.21
283.281	2.08
283.659	2.71
284.037	2.5
284.415	2.35
284.792	2.08
285.17	2.06
285.548	2.53
285.925	2.57
286.303	2.43
286.68	2.1
287.058	2.32
287.435	2.54
287.813	2.32
288.19	2.71
288.567	2.52
288.945	2.02
289.322	2.03
289.699	2.23
290.076	2.31
290.453	2.12
290.83	2.62
291.207	2.38
291.584	2.07
291.961	2.14
292.338	2.5
292.715	2.89
293.092	2.53
293.469	2.62
293.845	2.84
294.222	2.32
294.599	2.77
294.975	2.74
295.352	2.4
295.728	2.28
296.105	2.31
296.481	2.4
296.858	2.8
297.234	2.59
297.61	2.3
297.986	1.98
298.363	2.22
298.739	2.16
299.115	2.27
299.491	2.38
299.867	2.54
300.243	2.63
300.619	2.53
300.995	2.85
301.371	2.33
301.746	2.05
302.122	2.68
302.498	2.47
302.874	2.45
303.249	2.52
303.625	2.58
304	2.95
304.376	2.62
304.751	2.69
305.127	1.91
305.502	2.13
305.878	2.46
306.253	2.29
306.628	2.3
307.003	2.59
307.378	2.47
307.754	2.53
308.129	2.73
308.504	2.17
308.879	2.5
309.254	2.61
309.629	2.6
310.003	2.33
310.378	2.32
310.753	2.26
311.128	2.2
311.502	2.5
311.877	2.5
312.252	2.62
312.626	2.56
313.001	2.41
313.375	2.38
313.75	2.71
314.124	2.8
314.498	2.42
314.873	2.3
315.247	2.43
315.621	3.09
315.995	2.97
316.369	2.41
316.743	2.35
317.117	2.84
317.491	3.34
317.865	3.01
318.239	2.91
318.613	2.87
318.987	2.74
319.361	2.43
319.734	2.78
320.108	2.37
320.482	2.57
320.855	2.67
321.229	2.62
321.602	2.58
321.976	2.31
322.349	2.45
322.723	2.12
323.096	2.55
323.469	2.56
323.843	2.1
324.216	2.14
324.589	3.34
324.962	2.69
325.335	2.36
325.708	2.29
326.081	3.14
326.454	2.67
326.827	2.19
327.2	2.76
327.573	2.52
327.945	2.35
328.318	2.49
328.691	2.89
329.063	2.65
329.436	2.34
329.809	3.46
330.181	2.63
330.553	2.19
330.926	3.7
331.298	2.36
331.671	3.05
332.043	2.87
332.415	2.54
332.787	2.19
333.159	2.45
333.532	2.71
333.904	2.61
334.276	3
334.648	2.41
335.02	2.88
335.391	2.75
335.763	2.63
336.135	2.82
336.507	3.01
336.879	2.27
337.25	2.31
337.622	2.57
337.993	2.16
338.365	2.32
338.736	2.72
339.108	2.6
339.479	2.9
339.851	2.66
340.222	3.18
340.593	2.79
340.964	2.74
341.336	2.61
341.707	2.56
342.078	2.52
342.449	2.68
342.82	2.79
343.191	2.64
343.562	2.72
343.933	2.92
344.303	2.63
344.674	2.73
345.045	2.3
345.416	2.66
345.786	2.47
346.157	2.96
346.527	2.57
346.898	2.65
347.268	2.42
347.639	2.3
348.009	2.94
348.38	3.07
348.75	2.97
349.12	2.96
349.49	3.31
349.861	2.38
350.231	2.3
350.601	3.08
350.971	2.6
351.341	2.77
351.711	2.61
352.081	2.8
352.45	2.68
352.82	2.83
353.19	3.01
353.56	2.4
353.929	2.65
354.299	3.01
354.669	2.72
355.038	2.86
355.408	2.97
355.777	2.57
356.147	2.86
356.516	2.98
356.885	2.42
357.254	2.84
357.624	2.68
357.993	2.36
358.362	3.01
358.731	2.52
359.1	2.47
359.469	2.56
359.838	2.96
360.207	3
360.576	2.94
360.945	2.9
361.314	2.63
361.682	2.66
362.051	2.54
362.42	2.79
362.788	2.64
363.157	2.88
363.525	2.57
363.894	2.84
364.262	3.13
364.631	3.09
364.999	2.63
365.367	2.74
365.735	2.68
366.104	2.58
366.472	2.99
366.84	2.91
367.208	2.99
367.576	3.1
367.944	3.13
368.312	2.5
368.68	2.77
369.048	2.73
369.416	2.92
369.783	2.92
370.151	2.92
370.519	2.76
370.886	2.75
371.254	2.92
371.621	3.18
371.989	3.06
372.356	2.98
372.724	2.96
373.091	2.74
373.458	2.78
373.826	3.13
374.193	3.03
374.56	3.08
374.927	3.29
375.294	3.12
375.661	2.4
376.028	2.9
376.395	2.39
376.762	2.76
377.129	3.21
377.496	2.9
377.863	2.62
378.229	2.9
378.596	2.85
378.963	3.23
379.329	3
379.696	2.94
380.062	2.92
380.429	2.8
380.795	2.81
381.161	2.7
381.528	3.07
381.894	2.57
382.26	2.86
382.626	2.69
382.993	2.83
383.359	2.84
383.725	2.71
384.091	2.74
384.457	3.09
384.823	3.16
385.188	3.11
385.554	2.86
385.92	2.91
386.286	3.07
386.651	2.96
387.017	2.76
387.383	2.96
387.748	2.53
388.114	2.91
388.479	2.86
388.845	3.07
389.21	2.8
389.575	3.04
389.94	2.93
390.306	3.02
390.671	3.11
391.036	3.16
391.401	2.57
391.766	2.97
392.131	2.81
392.496	3.01
392.861	2.9
393.226	2.77
393.591	2.94
393.956	3.12
394.32	2.94
394.685	2.68
395.05	3.04
395.414	2.95
395.779	2.78
396.143	3.13
396.508	2.76
396.872	3.01
397.236	2.92
397.601	2.99
397.965	2.89
398.329	2.77
398.694	2.83
399.058	2.91
399.422	2.89
399.786	2.77
400.15	2.82
400.514	2.86
400.878	2.95
401.242	2.79
401.605	3.08
401.969	2.99
402.333	3.04
402.697	2.8
403.06	2.84
403.424	3.03
403.787	3.15
404.151	3.09
404.514	2.98
404.878	3.04
405.241	2.91
405.604	2.99
405.968	3.03
406.331	3.03
406.694	2.95
407.057	2.91
407.42	3.12
407.783	2.8
408.146	2.84
408.509	2.98
408.872	2.91
409.235	3
409.598	3.13
409.961	2.92
410.323	3.06
410.686	3.18
411.049	2.86
411.411	2.94
411.774	3.03
412.136	2.98
412.499	2.72
412.861	2.8
413.223	2.88
413.586	2.97
413.948	3.07
414.31	3
414.672	3.12
415.035	2.94
415.397	3.05
415.759	3.09
416.121	2.79
416.483	2.79
416.845	2.97
417.206	3.05
417.568	2.87
417.93	2.85
418.292	2.96
418.653	2.79
419.015	2.98
419.377	2.95
419.738	2.78
420.1	2.96
420.461	2.93
420.822	2.84
421.184	2.88
421.545	2.71
421.906	2.65
422.267	2.76
422.629	2.86
422.99	2.88
423.351	2.84
423.712	2.81
424.073	2.88
424.434	2.83
424.795	2.85
425.155	2.76
425.516	2.86
425.877	2.93
426.238	2.81
426.598	2.9
426.959	2.84
427.32	2.9
427.68	2.93
428.041	2.83
428.401	2.9
428.761	3.03
429.122	2.98
429.482	2.86
429.842	3.04
430.202	2.87
430.563	2.9
430.923	2.85
431.283	2.77
431.643	3.01
432.003	2.95
432.363	3.04
432.722	2.94
433.082	2.94
433.442	2.72
433.802	3.09
434.161	2.72
434.521	2.93
434.881	2.82
435.24	2.73
435.6	2.9
435.959	2.86
436.319	2.85
436.678	2.87
437.037	3.01
437.396	3.02
437.756	2.86
438.115	2.87
438.474	2.91
438.833	2.89
439.192	2.94
439.551	2.93
439.91	2.81
440.269	2.74
440.628	2.88
440.987	2.9
441.345	2.89
441.704	2.9
442.063	2.97
442.421	2.94
442.78	2.85
443.138	2.77
443.497	3
443.855	3.03
444.214	2.98
444.572	2.98
444.93	2.78
445.288	2.95
445.647	2.79
446.005	2.9
446.363	2.93
446.721	2.77
447.079	2.77
447.437	2.87
447.795	2.69
448.153	2.79
448.51	2.8
448.868	2.75
449.226	2.88
449.584	2.82
449.941	2.89
450.299	2.88
450.656	2.87
451.014	3.11
451.371	2.93
451.729	3.01
452.086	2.89
452.443	2.84
452.801	3.04
453.158	2.84
453.515	2.83
453.872	2.95
454.229	2.79
454.586	2.99
454.943	3.02
455.3	2.75
455.657	3.07
456.014	2.81
456.371	2.91
456.727	2.96
457.084	2.83
457.441	2.91
457.797	2.81
458.154	2.74
458.51	2.83
458.867	2.98
459.223	2.82
459.58	3.04
459.936	3.05
460.292	2.89
460.648	2.75
461.005	2.85
461.361	2.78
461.717	2.77
462.073	2.82
462.429	2.88
462.785	2.93
463.141	2.95
463.496	2.92
463.852	2.88
464.208	3
464.564	2.92
464.919	2.99
465.275	2.96
465.631	3.04
465.986	2.95
466.342	2.91
466.697	2.94
467.052	3.03
467.408	2.91
467.763	2.69
468.118	2.71
468.473	2.88
468.829	2.74
469.184	2.82
469.539	3.04
469.894	2.99
470.249	3.01
470.603	2.88
470.958	2.8
471.313	2.81
471.668	2.87
472.023	2.83
472.377	2.84
472.732	3
473.086	2.87
473.441	2.93
473.795	2.91
474.15	2.89
474.504	2.91
474.859	2.88
475.213	2.86
475.567	3
475.921	2.87
476.275	2.79
476.63	2.77
476.984	2.87
477.338	2.8
477.692	2.91
478.045	2.9
478.399	2.94
478.753	2.95
479.107	2.77
479.461	2.9
479.814	2.85
480.168	2.92
480.521	2.78
480.875	2.96
481.228	2.88
481.582	2.84
481.935	2.82
482.289	2.94
482.642	2.85
482.995	2.82
483.348	2.79
483.701	2.82
484.055	2.74
484.408	2.67
484.761	2.65
485.114	2.55
485.466	2.53
485.819	2.58
486.172	2.71
486.525	2.83
486.878	2.84
487.23	2.8
487.583	2.79
487.936	2.82
488.288	2.73
488.641	2.6
488.993	2.66
489.345	2.64
489.698	2.65
490.05	2.73
490.402	2.83
490.754	2.84
491.107	2.84
491.459	2.86
491.811	2.81
492.163	2.87
492.515	2.79
492.866	2.68
493.218	2.56
493.57	2.66
493.922	2.75
494.274	2.86
494.625	2.9
494.977	2.97
495.328	2.87
495.68	2.82
496.031	2.93
496.383	2.81
496.734	2.89
497.086	2.81
497.437	2.9
497.788	2.78
498.139	2.82
498.49	2.74
498.842	2.77
499.193	2.94
499.544	2.79
499.894	2.86
500.245	2.75
500.596	2.73
500.947	2.89
501.298	2.94
501.648	2.78
501.999	2.98
502.35	2.83
502.7	2.93
503.051	2.92
503.401	2.8
503.752	2.79
504.102	2.85
504.452	2.76
504.803	2.77
505.153	3.03
505.503	2.79
505.853	2.92
506.203	2.67
506.553	2.81
506.903	2.92
507.253	2.75
507.603	2.92
507.953	2.96
508.303	2.97
508.652	2.79
509.002	2.86
509.352	2.8
509.701	2.82
510.051	2.82
510.4	2.82
510.75	2.8
511.099	2.72
511.449	2.85
511.798	2.82
512.147	2.77
512.496	2.89
512.846	2.76
513.195	2.85
513.544	2.88
513.893	2.79
514.242	2.71
514.591	2.93
514.939	2.76
515.288	2.83
515.637	2.69
515.986	2.9
516.334	2.8
516.683	2.71
517.032	2.78
517.38	2.78
517.729	2.83
518.077	2.74
518.426	2.76
518.774	2.75
519.122	2.73
519.47	2.76
519.819	2.65
520.167	2.71
520.515	2.66
520.863	2.81
521.211	2.88
521.559	2.82
521.907	2.91
522.255	2.81
522.602	2.88
522.95	2.8
523.298	2.87
523.645	2.79
523.993	2.87
524.341	2.83
524.688	2.9
525.036	2.75
525.383	2.67
525.73	2.83
526.078	2.8
526.425	2.75
526.772	2.73
527.119	2.61
527.466	2.64
527.814	2.77
528.161	2.73
528.508	2.76
528.854	2.77
529.201	2.66
529.548	2.56
529.895	2.52
530.242	2.51
530.588	2.56
530.935	2.67
531.282	2.75
531.628	2.73
531.975	2.75
532.321	2.72
532.667	2.78
533.014	2.75
533.36	2.71
533.706	2.73
534.052	2.66
534.399	2.64
534.745	2.56
535.091	2.57
535.437	2.73
535.783	2.71
536.129	2.82
536.474	2.78
536.82	2.72
537.166	2.81
537.512	2.7
537.857	2.66
538.203	2.57
538.549	2.64
538.894	2.75
539.239	2.68
539.585	2.76
539.93	2.8
540.276	2.82
540.621	2.8
540.966	2.84
541.311	2.74
541.656	2.72
542.001	2.75
542.346	2.68
542.691	2.53
543.036	2.53
543.381	2.56
543.726	2.65
544.071	2.75
544.415	2.72
544.76	2.76
545.105	2.7
545.449	2.76
545.794	2.66
546.138	2.75
546.483	2.85
546.827	2.69
547.171	2.8
547.516	2.63
547.86	2.63
548.204	2.65
548.548	2.67
548.892	2.75
549.236	2.74
549.58	2.84
549.924	2.78
550.268	2.83
550.612	2.9
550.956	2.8
551.3	2.84
551.643	2.94
551.987	2.69
552.33	2.74
552.674	2.8
553.017	2.79
553.361	2.71
553.704	2.84
554.048	2.71
554.391	2.85
554.734	2.64
555.077	2.79
555.42	2.83
555.764	2.79
556.107	2.79
556.45	2.83
556.793	2.65
557.135	2.81
557.478	2.79
557.821	2.74
558.164	2.86
558.507	2.86
558.849	2.73
559.192	2.78
559.534	2.71
559.877	2.76
560.219	2.89
560.562	2.9
560.904	2.72
561.246	2.92
561.589	2.8
561.931	2.64
562.273	2.75
562.615	2.74
562.957	2.68
563.299	2.78
563.641	2.69
563.983	2.74
564.325	2.77
564.667	2.95
565.008	2.79
565.35	2.75
565.692	2.88
566.033	2.72
566.375	2.6
566.716	2.79
567.058	2.78
567.399	2.68
567.741	2.77
568.082	2.79
568.423	2.77
568.764	2.88
569.105	2.76
569.447	2.68
569.788	2.84
570.129	2.89
570.47	2.79
570.811	2.69
571.151	2.96
571.492	2.7
571.833	2.83
572.174	2.59
572.514	2.81
572.855	2.67
573.195	2.73
573.536	2.75
573.876	2.67
574.217	2.8
574.557	2.87
574.898	2.79
575.238	2.76
575.578	2.82
575.918	2.59
576.258	2.92
576.598	2.62
576.938	2.76
577.278	2.8
577.618	2.78
577.958	2.9
578.298	2.98
578.638	2.94
578.977	2.87
579.317	2.71
579.657	2.77
579.996	2.7
580.336	2.99
580.675	3.01
581.014	2.71
581.354	2.79
581.693	2.9
582.032	2.84
582.372	2.62
582.711	2.86
583.05	2.76
583.389	2.81
583.728	2.76
584.067	3.01
584.406	2.69
584.745	2.83
585.083	2.7
585.422	2.93
585.761	2.72
586.1	2.81
586.438	2.99
586.777	2.87
587.115	3.05
587.454	2.91
587.792	2.56
588.13	2.86
588.469	2.89
588.807	2.78
589.145	2.65
589.483	3.04
589.821	2.85
590.159	3.04
590.497	2.88
590.835	2.72
591.173	2.67
591.511	2.78
591.849	2.78
592.187	2.87
592.524	2.86
592.862	2.95
593.2	2.8
593.537	2.73
593.875	2.97
594.212	2.65
594.55	2.73
594.887	3.08
595.224	3
595.561	2.69
595.899	2.57
596.236	2.92
596.573	2.8
596.91	2.71
597.247	2.86
597.584	2.92
597.921	2.81
598.258	2.64
598.594	2.67
598.931	2.76
599.268	2.63
599.604	2.79
599.941	2.8
600.277	2.73
600.614	2.83
600.95	3.01
601.287	2.84
601.623	2.83
601.959	2.72
602.296	2.76
602.632	2.89
602.968	3.02
603.304	2.76
603.64	2.78
603.976	2.82
604.312	2.7
604.648	2.94
604.984	2.92
605.319	2.86
605.655	2.8
605.991	2.75
606.326	2.71
606.662	2.8
606.998	2.75
607.333	2.74
607.668	2.75
608.004	2.78
608.339	2.73
608.674	2.84
609.01	2.69
609.345	2.63
609.68	3.24
610.015	2.82
610.35	2.63
610.685	2.62
611.02	2.45
611.355	2.61
611.689	2.7
612.024	2.89
612.359	2.95
612.694	2.93
613.028	3.17
613.363	2.72
613.697	2.92
614.032	3.03
614.366	2.84
614.7	2.73
615.035	2.98
615.369	2.82
615.703	2.79
616.037	2.65
616.371	2.71
616.705	2.71
617.039	2.63
617.373	2.91
617.707	2.6
618.041	3.01
618.375	2.91
618.709	3.08
619.042	3.04
619.376	3.03
619.71	2.99
620.043	3.3
620.377	3.09
620.71	2.78
621.043	2.85
621.377	2.97
621.71	2.41
622.043	2.66
622.376	2.79
622.709	3
623.043	2.85
623.376	2.71
623.709	3.08
624.041	2.94
624.374	2.78
624.707	2.82
625.04	2.86
625.373	3.09
625.705	2.61
626.038	2.71
626.37	2.9
626.703	2.81
627.035	2.71
627.368	2.93
627.7	2.64
628.032	2.65
628.365	2.63
628.697	2.86
629.029	2.68
629.361	2.96
629.693	3.02
630.025	2.92
630.357	3.05
630.689	3
631.021	2.87
631.353	2.84
631.684	2.75
632.016	3.29
632.348	2.66
632.679	2.7
633.011	2.97
633.342	3.06
633.674	3.12
634.005	2.88
634.336	2.92
634.668	3.17
634.999	2.89
635.33	3.06
635.661	2.75
635.992	2.97
636.323	2.89
636.654	2.75
636.985	3.04
637.316	3.08
637.647	2.65
637.977	3.19
638.308	2.68
638.639	2.44
638.969	2.83
639.3	2.94
639.63	2.67
639.961	2.75
640.291	3.08
640.622	3.39
640.952	3.28
641.282	2.9
641.612	2.84
641.943	3.04
642.273	3.24
642.603	2.69
642.933	3
643.263	2.92
643.592	2.93
643.922	2.58
644.252	3.32
644.582	3.28
644.911	3.46
645.241	3.09
645.571	3.1
645.9	3.02
646.23	3.02
646.559	3.09
646.888	3.26
647.218	2.98
647.547	3.08
647.876	2.98
648.205	3.03
648.534	3.04
648.863	3.21
649.192	2.71
649.521	2.99
649.85	3.18
650.179	3.1
650.508	3.15
650.837	2.91
651.165	2.9
651.494	2.92
651.822	3.06
652.151	2.92
652.479	3.08
652.808	3.06
653.136	3.01
653.465	2.76
653.793	3.04
654.121	2.85
654.449	3.28
654.777	3.04
655.105	2.97
655.433	3.34
655.761	3.45
656.089	3.04
656.417	2.66
656.745	3.02
657.073	3.04
657.4	3.49
657.728	3.06
658.056	3.23
658.383	2.97
658.711	3.59
659.038	2.31
659.365	3.04
659.693	2.94
660.02	3.12
660.347	3.02
660.674	2.9
661.001	3.23
661.329	2.99
661.656	2.75
661.982	3.25
662.309	3.41
662.636	3.07
662.963	2.84
663.29	2.78
663.616	2.84
663.943	2.98
664.27	2.49
664.596	3.04
664.923	3.07
665.249	3.57
665.576	2.85
665.902	3.07
666.228	3.38
666.554	3.29
666.881	3.24
667.207	2.97
667.533	2.59
667.859	3.59
668.185	3.34
668.511	2.54
668.837	2.85
669.162	3.74
669.488	2.41
669.814	3.42
670.139	2.88
670.465	3.65
670.791	3.33
671.116	2.98
671.442	3.3
671.767	3.12
672.092	3.17
672.418	3.63
672.743	3.32
673.068	2.93
673.393	3.58
673.718	2.69
674.043	3.45
674.368	3.4
674.693	3.02
675.018	3.18
675.343	3.23
675.667	3.68
675.992	2.77
676.317	3.52
676.641	2.61
676.966	2.62
677.29	2.66
677.615	2.55
677.939	3.37
678.264	3.39
678.588	2.95
678.912	3.01
679.236	3.05
679.56	2.87
679.885	3.01
680.209	3.44
680.532	2.85
680.856	3.47
681.18	2.85
681.504	3.38
681.828	2.69
682.152	2.94
682.475	2.94
682.799	3.41
683.122	3.04
683.446	3.61
683.769	3.27
684.093	3.61
684.416	3.49
684.739	2.96
685.062	3.66
685.386	3.37
685.709	2.88
686.032	2.84
686.355	2.88
686.678	3.12
687.001	3.72
687.324	3.61
687.646	2.8
687.969	3.16
688.292	3.89
688.614	2.53
688.937	3.54
689.26	3.17
689.582	3.42
689.904	3.87
690.227	3.57
690.549	2.63
690.871	3.09
691.194	3.21
691.516	3.58
691.838	3.45
692.16	3.06
692.482	3.21
692.804	3.85
693.126	2.93
