Data from 1832-1_forehead_Reflection__3__24.txt Node

Date: Fri Sep 30 17:55:49 CDT 2022
User: ToomeyLab
Spectrometer: FLMS14357
Trigger mode: 0
Integration Time (sec): 1.000000E-2
Scans to average: 100
Electric dark correction enabled: true
Nonlinearity correction enabled: false
Boxcar width: 0
XAxis mode: Wavelengths
Number of Pixels in Spectrum: 2048
>>>>>Begin Spectral Data<<<<<
189.047	7.55
189.435	7.55
189.823	7.55
190.211	-121.93
190.599	65.79
190.987	107.71
191.375	113400
191.763	-440.86
192.151	64.19
192.538	-100.05
192.926	-881.34
193.314	3.82
193.702	17.01
194.089	-56.46
194.477	38.6
194.864	94.76
195.252	58.93
195.639	-57.36
196.027	53.26
196.414	61.27
196.801	28.41
197.189	215.92
197.576	108.95
197.963	51.88
198.351	-2.36
198.738	26.59
199.125	34.33
199.512	0.79
199.899	37.37
200.286	14.46
200.673	48.72
201.06	50.85
201.447	41.77
201.833	27.97
202.22	66.93
202.607	58.09
202.994	74.86
203.38	47.78
203.767	10.29
204.154	28.29
204.54	40.08
204.927	41.2
205.313	6.77
205.699	50.49
206.086	-0.16
206.472	37.11
206.858	33.56
207.245	54.24
207.631	3.54
208.017	21.29
208.403	27.61
208.789	10.5
209.175	35.85
209.561	33.68
209.947	15.98
210.333	-13.18
210.719	-6.76
211.105	19.49
211.491	-17.41
211.876	33.42
212.262	34.04
212.648	29.94
213.034	14.57
213.419	28.34
213.805	9.91
214.19	17.42
214.576	17.66
214.961	24.69
215.346	30.48
215.732	26.22
216.117	-0.09
216.502	24.04
216.888	42.51
217.273	-4.86
217.658	30.7
218.043	18.14
218.428	42.18
218.813	24.54
219.198	11.95
219.583	33.26
219.968	22.99
220.353	27.69
220.738	22.56
221.122	-2.31
221.507	20.65
221.892	21.47
222.276	6.85
222.661	16.29
223.046	11.45
223.43	16.99
223.815	6.33
224.199	13.86
224.583	5.19
224.968	6.22
225.352	-1.11
225.736	10.55
226.121	4.93
226.505	3.37
226.889	8.72
227.273	-1.86
227.657	9.09
228.041	3.75
228.425	7.85
228.809	5.16
229.193	4.42
229.577	2.32
229.961	3.39
230.344	1.59
230.728	2.15
231.112	2.11
231.495	1.08
231.879	4.78
232.263	3.35
232.646	1.29
233.03	3.58
233.413	4.17
233.797	2.76
234.18	2.65
234.563	4.12
234.946	3.39
235.33	3.05
235.713	3.39
236.096	2.42
236.479	2.93
236.862	3.96
237.245	4.24
237.628	2.26
238.011	4.39
238.394	3
238.777	1.6
239.16	2.1
239.543	3.25
239.925	3.31
240.308	3.24
240.691	3.12
241.073	2.8
241.456	2.75
241.838	2.63
242.221	2.48
242.603	3.29
242.986	2.83
243.368	1.67
243.75	2.46
244.133	2.74
244.515	2.28
244.897	2.73
245.279	3.23
245.661	2.21
246.043	2.58
246.425	2.75
246.807	3
247.189	2.59
247.571	3.09
247.953	2.66
248.335	2.09
248.717	2.26
249.098	2.36
249.48	2.32
249.862	1.94
250.243	2.18
250.625	2.41
251.006	2.95
251.388	1.6
251.769	3.36
252.151	3.04
252.532	3.15
252.913	1.38
253.295	2.73
253.676	2.42
254.057	2.93
254.438	2.12
254.819	3.74
255.2	3.05
255.581	2.48
255.962	3.22
256.343	2.52
256.724	3.24
257.105	4.71
257.486	3.67
257.867	4.08
258.247	2.79
258.628	2.42
259.009	3.73
259.389	2.24
259.77	3.43
260.15	2.33
260.531	2.82
260.911	2.4
261.292	2.4
261.672	2.09
262.052	2.4
262.432	2.42
262.813	2.87
263.193	2.58
263.573	2.43
263.953	2.67
264.333	3.21
264.713	2.32
265.093	2.73
265.473	2.76
265.853	1.79
266.233	2.89
266.612	3.07
266.992	2.4
267.372	1.68
267.752	2.66
268.131	2.02
268.511	2.44
268.89	1.86
269.27	2.79
269.649	2.25
270.029	2.76
270.408	2.74
270.787	2.83
271.167	2.38
271.546	2.59
271.925	3.04
272.304	2.59
272.683	2.41
273.062	2.23
273.441	2.74
273.82	1.84
274.199	2.28
274.578	2.38
274.957	2.39
275.336	2.48
275.715	2.06
276.093	2.93
276.472	2.27
276.851	2.53
277.229	2.1
277.608	2.66
277.986	2.12
278.365	2.89
278.743	2.47
279.122	2.32
279.5	2.94
279.878	2.46
280.257	2.59
280.635	2.77
281.013	3.26
281.391	2.57
281.769	2.27
282.147	2.1
282.525	2.64
282.903	2.55
283.281	2.21
283.659	2.32
284.037	1.96
284.415	2.62
284.792	2.72
285.17	2.11
285.548	2.53
285.925	2.49
286.303	2.35
286.68	2.02
287.058	2.52
287.435	2.44
287.813	2.53
288.19	2.52
288.567	2.5
288.945	1.96
289.322	2.05
289.699	2.48
290.076	2.45
290.453	2.87
290.83	2.55
291.207	2.26
291.584	2.54
291.961	2.18
292.338	2.63
292.715	2.81
293.092	2.32
293.469	2.67
293.845	2.96
294.222	2.74
294.599	3.1
294.975	3.2
295.352	2.56
295.728	3.09
296.105	2.93
296.481	3
296.858	3.25
297.234	3.26
297.61	2.98
297.986	2.62
298.363	3.03
298.739	2.55
299.115	2.82
299.491	3.07
299.867	3.06
300.243	2.84
300.619	2.86
300.995	3.36
301.371	2.7
301.746	3.13
302.122	3.03
302.498	3.37
302.874	3.39
303.249	3.58
303.625	3.15
304	3.22
304.376	3.45
304.751	3.15
305.127	3.26
305.502	3.5
305.878	3.45
306.253	3.44
306.628	3.73
307.003	3.59
307.378	3.64
307.754	3.61
308.129	3.55
308.504	3.33
308.879	4.02
309.254	4.02
309.629	3.76
310.003	3.85
310.378	3.75
310.753	3.78
311.128	3.93
311.502	4
311.877	3.99
312.252	4.41
312.626	4.21
313.001	4.07
313.375	4.05
313.75	4.47
314.124	4.38
314.498	4.26
314.873	4.59
315.247	4.09
315.621	4.79
315.995	5.05
316.369	4.54
316.743	4.48
317.117	5.05
317.491	5.37
317.865	5.4
318.239	4.92
318.613	5.05
318.987	4.95
319.361	4.99
319.734	4.64
320.108	4.62
320.482	5.15
320.855	5.5
321.229	5.56
321.602	5.17
321.976	5.47
322.349	5.13
322.723	5.02
323.096	5.69
323.469	5.71
323.843	5.23
324.216	5.23
324.589	5.67
324.962	5.82
325.335	5.25
325.708	5.63
326.081	5.93
326.454	5.67
326.827	5.6
327.2	5.5
327.573	5.35
327.945	5.51
328.318	5.58
328.691	6.16
329.063	5.91
329.436	5.59
329.809	6.45
330.181	5.91
330.553	5.89
330.926	6.42
331.298	6.28
331.671	6.53
332.043	5.98
332.415	5.96
332.787	5.8
333.159	6.53
333.532	6.35
333.904	5.92
334.276	6.4
334.648	6.09
335.02	6.25
335.391	6.6
335.763	6.37
336.135	6.72
336.507	6.81
336.879	6.6
337.25	6.27
337.622	6.45
337.993	6.47
338.365	6.67
338.736	6.73
339.108	6.62
339.479	6.98
339.851	6.64
340.222	7.09
340.593	6.93
340.964	7.07
341.336	6.56
341.707	6.84
342.078	6.84
342.449	6.83
342.82	6.69
343.191	6.92
343.562	7.02
343.933	7.13
344.303	7.05
344.674	7.35
345.045	7.02
345.416	7.57
345.786	6.85
346.157	7.77
346.527	7.34
346.898	7.09
347.268	7.1
347.639	6.93
348.009	7.61
348.38	7.56
348.75	7.81
349.12	7.7
349.49	7.7
349.861	6.87
350.231	7.32
350.601	8.01
350.971	7.5
351.341	7.47
351.711	7.82
352.081	7.65
352.45	8.07
352.82	7.71
353.19	8.11
353.56	7.8
353.929	7.64
354.299	8.3
354.669	7.94
355.038	7.88
355.408	8.07
355.777	7.81
356.147	7.97
356.516	8.22
356.885	7.69
357.254	8.29
357.624	8.18
357.993	7.49
358.362	8.37
358.731	8.02
359.1	7.99
359.469	7.71
359.838	8.46
360.207	8.17
360.576	8.44
360.945	8.4
361.314	8.08
361.682	8.42
362.051	8.4
362.42	8.08
362.788	8.15
363.157	8.1
363.525	8.07
363.894	8.4
364.262	8.58
364.631	8.84
364.999	8.57
365.367	8.85
365.735	8.42
366.104	8.35
366.472	8.73
366.84	9.13
367.208	8.99
367.576	8.98
367.944	8.79
368.312	8.23
368.68	8.76
369.048	8.7
369.416	8.96
369.783	8.68
370.151	8.62
370.519	8.88
370.886	8.99
371.254	9.05
371.621	9.48
371.989	9.45
372.356	9.12
372.724	9.23
373.091	9.01
373.458	9
373.826	9.22
374.193	9.13
374.56	9.08
374.927	9.67
375.294	9.6
375.661	9.46
376.028	9.36
376.395	9.49
376.762	9.47
377.129	9.86
377.496	9.78
377.863	9.52
378.229	9.61
378.596	9.67
378.963	9.98
379.329	9.47
379.696	10.05
380.062	9.96
380.429	9.69
380.795	9.67
381.161	9.63
381.528	10.07
381.894	9.69
382.26	9.85
382.626	9.92
382.993	10.16
383.359	9.99
383.725	9.96
384.091	9.93
384.457	10.06
384.823	10.36
385.188	10.3
385.554	10.49
385.92	10.36
386.286	10.41
386.651	10.37
387.017	10.34
387.383	10.29
387.748	10.01
388.114	10.52
388.479	10.7
388.845	10.33
389.21	10.49
389.575	10.45
389.94	10.54
390.306	10.69
390.671	10.5
391.036	10.73
391.401	10.36
391.766	10.66
392.131	10.8
392.496	10.48
392.861	10.8
393.226	10.6
393.591	10.73
393.956	10.94
394.32	10.77
394.685	10.81
395.05	10.74
395.414	10.69
395.779	10.77
396.143	11.07
396.508	10.9
396.872	11.01
397.236	10.83
397.601	11.1
397.965	11.05
398.329	11.04
398.694	11.32
399.058	10.93
399.422	11.21
399.786	11.15
400.15	11.18
400.514	11.2
400.878	11.35
401.242	11.09
401.605	11.51
401.969	11.28
402.333	11.27
402.697	11.49
403.06	11.51
403.424	11.34
403.787	11.58
404.151	11.56
404.514	11.66
404.878	11.44
405.241	11.44
405.604	11.62
405.968	11.56
406.331	11.51
406.694	11.51
407.057	11.59
407.42	11.64
407.783	11.49
408.146	11.65
408.509	11.66
408.872	11.91
409.235	11.78
409.598	11.82
409.961	11.8
410.323	11.95
410.686	11.93
411.049	11.79
411.411	11.89
411.774	12.1
412.136	11.84
412.499	11.86
412.861	12.09
413.223	11.93
413.586	11.94
413.948	12.21
414.31	12.22
414.672	12.15
415.035	12.37
415.397	12.13
415.759	12.25
416.121	12.23
416.483	12.24
416.845	12.44
417.206	12.42
417.568	12.32
417.93	12.25
418.292	12.25
418.653	12.09
419.015	12.48
419.377	12.44
419.738	12.3
420.1	12.41
420.461	12.44
420.822	12.36
421.184	12.47
421.545	12.53
421.906	12.32
422.267	12.43
422.629	12.46
422.99	12.49
423.351	12.58
423.712	12.44
424.073	12.51
424.434	12.57
424.795	12.71
425.155	12.72
425.516	12.67
425.877	12.75
426.238	12.76
426.598	12.83
426.959	12.71
427.32	12.9
427.68	13.12
428.041	12.95
428.401	13.07
428.761	13.17
429.122	13.23
429.482	13.37
429.842	13.33
430.202	13.39
430.563	13.4
430.923	13.48
431.283	13.35
431.643	13.71
432.003	13.35
432.363	13.75
432.722	13.78
433.082	13.72
433.442	13.64
433.802	13.72
434.161	13.81
434.521	13.93
434.881	13.76
435.24	13.69
435.6	13.82
435.959	13.99
436.319	13.88
436.678	13.89
437.037	13.97
437.396	13.97
437.756	14.1
438.115	14.11
438.474	14.16
438.833	14.16
439.192	14.24
439.551	14.21
439.91	14.17
440.269	14.2
440.628	14.41
440.987	14.29
441.345	14.29
441.704	14.22
442.063	14.39
442.421	14.33
442.78	14.28
443.138	14.18
443.497	14.41
443.855	14.46
444.214	14.53
444.572	14.59
444.93	14.58
445.288	14.76
445.647	14.66
446.005	14.9
446.363	14.9
446.721	14.65
447.079	14.65
447.437	14.75
447.795	14.66
448.153	14.69
448.51	14.81
448.868	14.76
449.226	14.71
449.584	14.78
449.941	14.92
450.299	15.01
450.656	15.09
451.014	15.17
451.371	15.16
451.729	15.29
452.086	15.38
452.443	15.42
452.801	15.42
453.158	15.36
453.515	15.42
453.872	15.49
454.229	15.44
454.586	15.5
454.943	15.59
455.3	15.55
455.657	15.56
456.014	15.59
456.371	15.74
456.727	15.79
457.084	15.76
457.441	15.86
457.797	15.86
458.154	15.73
458.51	15.85
458.867	15.95
459.223	15.87
459.58	16.1
459.936	16.19
460.292	15.95
460.648	15.92
461.005	15.89
461.361	15.87
461.717	15.82
462.073	15.84
462.429	15.93
462.785	15.97
463.141	16.26
463.496	16.26
463.852	16.21
464.208	16.45
464.564	16.35
464.919	16.54
465.275	16.54
465.631	16.4
465.986	16.58
466.342	16.69
466.697	16.69
467.052	16.68
467.408	16.54
467.763	16.6
468.118	16.88
468.473	16.71
468.829	16.78
469.184	16.85
469.539	16.99
469.894	16.89
470.249	16.97
470.603	17.12
470.958	17.03
471.313	17.06
471.668	17.09
472.023	17.19
472.377	17.11
472.732	17.32
473.086	17.14
473.441	17.26
473.795	17.37
474.15	17.28
474.504	17.51
474.859	17.44
475.213	17.33
475.567	17.42
475.921	17.3
476.275	17.52
476.63	17.42
476.984	17.53
477.338	17.66
477.692	17.63
478.045	17.73
478.399	17.72
478.753	17.64
479.107	17.67
479.461	17.71
479.814	17.82
480.168	17.72
480.521	17.85
480.875	17.81
481.228	17.85
481.582	17.86
481.935	17.93
482.289	17.88
482.642	17.86
482.995	17.86
483.348	17.76
483.701	17.8
484.055	17.73
484.408	17.72
484.761	17.58
485.114	17.42
485.466	17.42
485.819	17.3
486.172	17.37
486.525	17.38
486.878	17.48
487.23	17.59
487.583	17.75
487.936	17.83
488.288	17.88
488.641	17.77
488.993	17.72
489.345	17.7
489.698	17.68
490.05	17.71
490.402	17.76
490.754	17.91
491.107	18.01
491.459	18.22
491.811	18.28
492.163	18.41
492.515	18.49
492.866	18.32
493.218	18.14
493.57	18.16
493.922	18.09
494.274	18.22
494.625	18.49
494.977	18.63
495.328	18.77
495.68	18.88
496.031	19
496.383	19.13
496.734	19.06
497.086	19.15
497.437	19.29
497.788	19.24
498.139	19.23
498.49	19.13
498.842	19.15
499.193	19.24
499.544	19.3
499.894	19.34
500.245	19.43
500.596	19.47
500.947	19.42
501.298	19.64
501.648	19.73
501.999	19.62
502.35	19.67
502.7	19.94
503.051	19.75
503.401	19.96
503.752	20.04
504.102	20.06
504.452	20.1
504.803	20.11
505.153	20.1
505.503	20.07
505.853	20
506.203	19.88
506.553	20.12
506.903	20.14
507.253	20.1
507.603	20.33
507.953	20.45
508.303	20.33
508.652	20.26
509.002	20.3
509.352	20.43
509.701	20.28
510.051	20.39
510.4	20.18
510.75	20.36
511.099	20.26
511.449	20.45
511.798	20.3
512.147	20.55
512.496	20.56
512.846	20.44
513.195	20.62
513.544	20.53
513.893	20.63
514.242	20.63
514.591	20.84
514.939	20.79
515.288	20.74
515.637	20.88
515.986	20.99
516.334	21.01
516.683	21.07
517.032	20.94
517.38	21.09
517.729	21.21
518.077	21.23
518.426	21.01
518.774	21.19
519.122	21.09
519.47	21.16
519.819	21.03
520.167	21.08
520.515	20.99
520.863	21.08
521.211	21.08
521.559	21.19
521.907	21.21
522.255	21.21
522.602	21.32
522.95	21.59
523.298	21.55
523.645	21.54
523.993	21.63
524.341	21.69
524.688	21.65
525.036	21.87
525.383	21.63
525.73	21.81
526.078	21.89
526.425	21.66
526.772	21.68
527.119	21.63
527.466	21.64
527.814	21.59
528.161	21.59
528.508	21.69
528.854	21.64
529.201	21.7
529.548	21.54
529.895	21.42
530.242	21.48
530.588	21.48
530.935	21.42
531.282	21.51
531.628	21.52
531.975	21.68
532.321	21.73
532.667	22.02
533.014	22.03
533.36	22.13
533.706	22.19
534.052	22.34
534.399	22.18
534.745	22.08
535.091	22.06
535.437	22.08
535.783	21.97
536.129	22.11
536.474	22.35
536.82	22.35
537.166	22.48
537.512	22.62
537.857	22.7
538.203	22.62
538.549	22.56
538.894	22.68
539.239	22.71
539.585	22.8
539.93	22.92
540.276	23.01
540.621	23.17
540.966	23.33
541.311	23.16
541.656	23.25
542.001	23.05
542.346	23
542.691	22.93
543.036	22.78
543.381	22.77
543.726	22.82
544.071	22.8
544.415	22.84
544.76	22.96
545.105	23.2
545.449	23.13
545.794	23.29
546.138	23.5
546.483	23.55
546.827	23.6
547.171	23.66
547.516	23.64
547.86	23.78
548.204	23.76
548.548	23.81
548.892	23.85
549.236	23.86
549.58	23.97
549.924	23.96
550.268	24.12
550.612	24.26
550.956	24.37
551.3	24.46
551.643	24.52
551.987	24.44
552.33	24.43
552.674	24.81
553.017	24.66
553.361	24.68
553.704	24.82
554.048	24.62
554.391	24.81
554.734	24.63
555.077	24.75
555.42	24.83
555.764	24.85
556.107	25
556.45	24.99
556.793	24.79
557.135	25.07
557.478	25.16
557.821	25.33
558.164	25.44
558.507	25.31
558.849	25.34
559.192	25.44
559.534	25.45
559.877	25.28
560.219	25.47
560.562	25.61
560.904	25.45
561.246	25.69
561.589	25.47
561.931	25.8
562.273	25.79
562.615	25.59
562.957	25.57
563.299	25.98
563.641	25.86
563.983	25.76
564.325	25.85
564.667	25.86
565.008	25.72
565.35	26.07
565.692	25.89
566.033	25.88
566.375	25.85
566.716	25.95
567.058	26.1
567.399	26.06
567.741	26.09
568.082	26.2
568.423	26.1
568.764	26.11
569.105	26.04
569.447	26.19
569.788	26.28
570.129	26.34
570.47	26.28
570.811	26.47
571.151	26.56
571.492	26.55
571.833	26.42
572.174	26.39
572.514	26.56
572.855	26.45
573.195	26.42
573.536	26.43
573.876	26.71
574.217	26.68
574.557	26.76
574.898	26.42
575.238	26.69
575.578	26.68
575.918	26.73
576.258	26.87
576.598	26.81
576.938	26.97
577.278	26.71
577.618	27.02
577.958	27.05
578.298	27.14
578.638	27.28
578.977	27.15
579.317	27.34
579.657	27.32
579.996	27.33
580.336	27.54
580.675	27.39
581.014	27.62
581.354	27.36
581.693	27.46
582.032	27.57
582.372	27.83
582.711	27.54
583.05	27.76
583.389	27.82
583.728	27.86
584.067	27.93
584.406	27.91
584.745	28.11
585.083	27.87
585.422	28.05
585.761	28.17
586.1	28.05
586.438	28.14
586.777	28.29
587.115	28.21
587.454	28.25
587.792	28.15
588.13	28.37
588.469	28.3
588.807	28.58
589.145	28.41
589.483	28.44
589.821	28.61
590.159	28.4
590.497	28.57
590.835	28.6
591.173	28.5
591.511	28.7
591.849	28.92
592.187	28.58
592.524	28.68
592.862	28.7
593.2	28.89
593.537	28.67
593.875	28.91
594.212	28.93
594.55	28.95
594.887	29.18
595.224	29.01
595.561	29.17
595.899	29.01
596.236	29.02
596.573	29.03
596.91	29.11
597.247	28.92
597.584	28.97
597.921	29.04
598.258	28.86
598.594	28.93
598.931	29.04
599.268	28.96
599.604	28.93
599.941	29.04
600.277	29.23
600.614	29.33
600.95	29.37
601.287	29.78
601.623	29.71
601.959	29.63
602.296	29.94
602.632	29.6
602.968	29.96
603.304	29.55
603.64	29.97
603.976	29.84
604.312	29.7
604.648	29.79
604.984	29.87
605.319	29.8
605.655	29.51
605.991	29.78
606.326	29.73
606.662	29.69
606.998	29.83
607.333	29.91
607.668	29.74
608.004	29.89
608.339	30.12
608.674	30.22
609.01	30.09
609.345	30.47
609.68	30.35
610.015	30.58
610.35	30.24
610.685	30.08
611.02	30.35
611.355	30.23
611.689	29.91
612.024	30.45
612.359	30.22
612.694	30.36
613.028	30.51
613.363	30.4
613.697	30.61
614.032	31.02
614.366	31
614.7	30.93
615.035	30.9
615.369	30.99
615.703	31.02
616.037	31.23
616.371	30.82
616.705	30.61
617.039	31.28
617.373	31.29
617.707	30.91
618.041	31.1
618.375	31.43
618.709	31.53
619.042	31.26
619.376	31.18
619.71	31.28
620.043	31.83
620.377	31.54
620.71	31.42
621.043	31.71
621.377	31.3
621.71	31.44
622.043	31.76
622.376	31.37
622.709	31.58
623.043	31.89
623.376	31.7
623.709	31.63
624.041	31.9
624.374	31.77
624.707	31.28
625.04	31.95
625.373	31.76
625.705	31.69
626.038	31.84
626.37	31.93
626.703	32.03
627.035	32.19
627.368	32.37
627.7	31.99
628.032	32.08
628.365	31.84
628.697	32.16
629.029	31.97
629.361	32.22
629.693	32.78
630.025	32.16
630.357	32.13
630.689	32.39
631.021	32.33
631.353	32.61
631.684	32.39
632.016	32.65
632.348	33.02
632.679	32.14
633.011	32.86
633.342	32.44
633.674	32.86
634.005	33.03
634.336	32.53
634.668	32.68
634.999	32.78
635.33	32.96
635.661	32.7
635.992	32.6
636.323	32.7
636.654	33.11
636.985	32.68
637.316	33.07
637.647	32.71
637.977	33.05
638.308	32.96
638.639	32.85
638.969	33.09
639.3	33.59
639.63	33.01
639.961	33.19
640.291	33.34
640.622	33.62
640.952	33.73
641.282	33.76
641.612	33.54
641.943	33.24
642.273	33.18
642.603	33.83
642.933	33.41
643.263	33.5
643.592	33.83
643.922	33.65
644.252	33.94
644.582	33.76
644.911	33.57
645.241	34.04
645.571	33.82
645.9	33.91
646.23	33.55
646.559	34.14
646.888	34.03
647.218	33.93
647.547	33.85
647.876	33.95
648.205	34.24
648.534	33.74
648.863	34.23
649.192	33.53
649.521	33.88
649.85	33.93
650.179	34.26
650.508	34.77
650.837	34.42
651.165	33.93
651.494	34.45
651.822	34.18
652.151	34.86
652.479	34.47
652.808	34.76
653.136	34.55
653.465	34.22
653.793	34.46
654.121	34.42
654.449	34.49
654.777	34.24
655.105	34.71
655.433	34.76
655.761	35.29
656.089	35.44
656.417	34.45
656.745	34.76
657.073	34.78
657.4	34.69
657.728	35.11
658.056	34.98
658.383	35.08
658.711	34.83
659.038	34.36
659.365	34.49
659.693	34.57
660.02	35.06
660.347	35.5
660.674	35.09
661.001	35.22
661.329	35.15
661.656	34.91
661.982	35.29
662.309	35.44
662.636	35.47
662.963	35.34
663.29	35.75
663.616	35.14
663.943	35.45
664.27	35.02
664.596	34.86
664.923	35.92
665.249	35.32
665.576	35.12
665.902	35.96
666.228	36.08
666.554	35.54
666.881	35.74
667.207	35.24
667.533	35.64
667.859	36.08
668.185	35.66
668.511	35.53
668.837	35.74
669.162	36.08
669.488	36.04
669.814	35.89
670.139	35.79
670.465	36.86
670.791	36.25
671.116	36.03
671.442	35.82
671.767	36.37
672.092	36.47
672.418	36.03
672.743	36.83
