Data from 1832-1_chest_Reflection__2__18.txt Node

Date: Fri Sep 30 17:52:18 CDT 2022
User: ToomeyLab
Spectrometer: FLMS14357
Trigger mode: 0
Integration Time (sec): 1.000000E-2
Scans to average: 100
Electric dark correction enabled: true
Nonlinearity correction enabled: false
Boxcar width: 0
XAxis mode: Wavelengths
Number of Pixels in Spectrum: 2048
>>>>>Begin Spectral Data<<<<<
189.047	651.23
189.435	651.23
189.823	651.23
190.211	97.72
190.599	43.68
190.987	5.5
191.375	-38600
191.763	140.96
192.151	224.84
192.538	8.6
192.926	-567.46
193.314	-56.4
193.702	2.98
194.089	125.27
194.477	-130.24
194.864	107.89
195.252	-102.57
195.639	125.71
196.027	65.16
196.414	208.82
196.801	14.5
197.189	-118.12
197.576	13.89
197.963	12.06
198.351	15.26
198.738	-66.22
199.125	36.81
199.512	28.06
199.899	18.41
200.286	-11.57
200.673	22.17
201.06	42.87
201.447	18.74
201.833	48.57
202.22	32.66
202.607	80.05
202.994	58.89
203.38	26.63
203.767	-13.31
204.154	43.99
204.54	13.23
204.927	26.95
205.313	-26.87
205.699	53.85
206.086	5.6
206.472	-32.95
206.858	15.83
207.245	25.29
207.631	-24.5
208.017	0.11
208.403	10.94
208.789	17.5
209.175	30.52
209.561	27.75
209.947	9.29
210.333	-20.88
210.719	-10.13
211.105	-6.81
211.491	32.26
211.876	18.44
212.262	15.87
212.648	20.73
213.034	23.79
213.419	-6.53
213.805	21.61
214.19	20.89
214.576	14.46
214.961	15.22
215.346	12.25
215.732	4.47
216.117	4.5
216.502	17.9
216.888	29.96
217.273	-2.39
217.658	-3.68
218.043	27.39
218.428	30.02
218.813	34.53
219.198	5.94
219.583	17.56
219.968	28.2
220.353	20.42
220.738	16
221.122	14.52
221.507	31.37
221.892	11.7
222.276	-0.49
222.661	5.26
223.046	-3
223.43	-2.78
223.815	3.22
224.199	-0.19
224.583	-1.98
224.968	8.75
225.352	9.68
225.736	6.74
226.121	8.68
226.505	-0.98
226.889	4.44
227.273	1.03
227.657	11.22
228.041	4.49
228.425	4.78
228.809	6.66
229.193	6.06
229.577	2.08
229.961	3.21
230.344	2.61
230.728	2.72
231.112	2.83
231.495	2.91
231.879	4.36
232.263	3.29
232.646	2.25
233.03	3.14
233.413	3.51
233.797	4.74
234.18	0.59
234.563	5.99
234.946	3.33
235.33	1.85
235.713	6.11
236.096	3.15
236.479	3.93
236.862	3
237.245	4.18
237.628	2.2
238.011	4.29
238.394	2.94
238.777	1.82
239.16	2.96
239.543	4.37
239.925	3.33
240.308	2.71
240.691	3.38
241.073	4.86
241.456	2.96
241.838	3.49
242.221	3.41
242.603	3.76
242.986	3.66
243.368	2.55
243.75	2.93
244.133	3.46
244.515	3.25
244.897	3.26
245.279	3.13
245.661	3.52
246.043	3.28
246.425	2.51
246.807	3.39
247.189	3.49
247.571	3.18
247.953	3.3
248.335	3.02
248.717	3.04
249.098	3.33
249.48	2.98
249.862	2.95
250.243	3.01
250.625	3.37
251.006	3.71
251.388	1.96
251.769	4.12
252.151	2.89
252.532	3.38
252.913	2.62
253.295	3.07
253.676	2.74
254.057	3.28
254.438	3.26
254.819	4.37
255.2	3.4
255.581	4.2
255.962	3.04
256.343	3.47
256.724	3.72
257.105	3.18
257.486	3.89
257.867	3.84
258.247	2.88
258.628	3.44
259.009	3.99
259.389	2.55
259.77	3.97
260.15	2.85
260.531	3.47
260.911	3.18
261.292	2.77
261.672	2.87
262.052	2.84
262.432	3
262.813	3.33
263.193	3.34
263.573	2.57
263.953	3
264.333	3.61
264.713	2.64
265.093	2.91
265.473	3.15
265.853	2.33
266.233	3.02
266.612	2.64
266.992	2.57
267.372	2.18
267.752	2.63
268.131	3.15
268.511	2.94
268.89	2.43
269.27	2.97
269.649	2.89
270.029	3.29
270.408	2.61
270.787	2.52
271.167	3.02
271.546	3.44
271.925	3.37
272.304	2.91
272.683	2.71
273.062	2.99
273.441	2.57
273.82	2.46
274.199	2.98
274.578	2.63
274.957	2.84
275.336	2.57
275.715	2.86
276.093	3.11
276.472	2.32
276.851	2.93
277.229	2.92
277.608	2.39
277.986	2.58
278.365	3.54
278.743	2.93
279.122	2.83
279.5	2.64
279.878	2.76
280.257	2.92
280.635	3.07
281.013	3.21
281.391	2.62
281.769	2.72
282.147	2.65
282.525	2.94
282.903	2.29
283.281	2.54
283.659	2.89
284.037	2.65
284.415	3.1
284.792	3.21
285.17	2.34
285.548	2.89
285.925	2.63
286.303	2.78
286.68	2.27
287.058	2.75
287.435	2.8
287.813	2.88
288.19	2.53
288.567	2.66
288.945	2.31
289.322	2.68
289.699	2.76
290.076	2.74
290.453	2.94
290.83	2.78
291.207	2.8
291.584	2.67
291.961	2.94
292.338	2.92
292.715	3.17
293.092	2.68
293.469	3.15
293.845	3.4
294.222	2.86
294.599	3.52
294.975	3.79
295.352	3.25
295.728	2.9
296.105	2.95
296.481	2.91
296.858	2.81
297.234	3.61
297.61	3.35
297.986	2.58
298.363	2.99
298.739	2.93
299.115	2.75
299.491	3.25
299.867	3.08
300.243	2.89
300.619	2.86
300.995	3.61
301.371	3.58
301.746	2.95
302.122	3.89
302.498	3.56
302.874	3.14
303.249	3.62
303.625	3.25
304	3.51
304.376	3.33
304.751	3.33
305.127	3.18
305.502	3.25
305.878	3.52
306.253	3.03
306.628	3.37
307.003	2.86
307.378	3.18
307.754	2.95
308.129	3.56
308.504	2.94
308.879	3.56
309.254	3.45
309.629	3.75
310.003	3.1
310.378	3.59
310.753	3.29
311.128	3.17
311.502	3.69
311.877	3.48
312.252	3.53
312.626	3.44
313.001	2.87
313.375	3.05
313.75	3.47
314.124	3.59
314.498	3.48
314.873	3.17
315.247	3.26
315.621	3.33
315.995	4.18
316.369	3.14
316.743	3.31
317.117	4.3
317.491	4.44
317.865	4.52
318.239	3.89
318.613	3.72
318.987	3.63
319.361	3.56
319.734	3.09
320.108	4.04
320.482	3.66
320.855	3.88
321.229	3.92
321.602	3.94
321.976	4.14
322.349	4.11
322.723	3.16
323.096	4
323.469	4.02
323.843	3.71
324.216	3.45
324.589	4.11
324.962	3.69
325.335	3.77
325.708	3.77
326.081	3.7
326.454	3.78
326.827	3.96
327.2	3.65
327.573	3.67
327.945	3.86
328.318	3.53
328.691	4.28
329.063	3.53
329.436	3.3
329.809	4.15
330.181	3.64
330.553	3.87
330.926	3.74
331.298	3.65
331.671	3.69
332.043	3.92
332.415	3.55
332.787	3.55
333.159	3.86
333.532	4.04
333.904	4.12
334.276	3.8
334.648	3.55
335.02	4.05
335.391	3.92
335.763	4.18
336.135	4.05
336.507	4.03
336.879	3.9
337.25	3.49
337.622	3.69
337.993	3.38
338.365	3.8
338.736	3.63
339.108	3.86
339.479	4.34
339.851	3.01
340.222	4.32
340.593	3.75
340.964	3.78
341.336	4.05
341.707	3.91
342.078	3.91
342.449	3.58
342.82	3.64
343.191	3.8
343.562	4
343.933	3.96
344.303	3.81
344.674	3.69
345.045	3.38
345.416	4.04
345.786	3.52
346.157	4.27
346.527	3.82
346.898	3.71
347.268	3.71
347.639	3.64
348.009	3.68
348.38	4.27
348.75	4.53
349.12	3.98
349.49	3.96
349.861	3.43
350.231	3.59
350.601	4.03
350.971	3.5
351.341	3.81
351.711	3.72
352.081	3.67
352.45	3.82
352.82	3.57
353.19	4.16
353.56	4.17
353.929	3.61
354.299	4.18
354.669	3.6
355.038	3.97
355.408	4.33
355.777	3.78
356.147	3.72
356.516	4.05
356.885	3.61
357.254	4.12
357.624	3.77
357.993	3.49
358.362	3.98
358.731	3.69
359.1	3.6
359.469	3.6
359.838	3.92
360.207	3.74
360.576	3.74
360.945	4.02
361.314	3.72
361.682	3.62
362.051	3.95
362.42	3.95
362.788	3.96
363.157	3.85
363.525	3.66
363.894	3.82
364.262	4.07
364.631	4.03
364.999	3.8
365.367	3.78
365.735	3.94
366.104	3.8
366.472	4.19
366.84	3.9
367.208	3.78
367.576	4.34
367.944	3.83
368.312	3.73
368.68	3.77
369.048	3.66
369.416	4
369.783	3.9
370.151	3.83
370.519	4.04
370.886	4.07
371.254	3.88
371.621	3.95
371.989	4.12
372.356	3.69
372.724	4.21
373.091	3.81
373.458	3.77
373.826	4.21
374.193	4.09
374.56	4.08
374.927	4.42
375.294	4.21
375.661	3.55
376.028	3.71
376.395	4.19
376.762	4.03
377.129	4.19
377.496	4.14
377.863	3.68
378.229	4.43
378.596	4.21
378.963	4.29
379.329	3.9
379.696	4.18
380.062	4.22
380.429	4.17
380.795	3.9
381.161	3.85
381.528	3.95
381.894	4
382.26	3.73
382.626	3.91
382.993	4.2
383.359	3.91
383.725	3.77
384.091	4.02
384.457	3.88
384.823	3.8
385.188	4.07
385.554	4.16
385.92	4.26
386.286	4.17
386.651	4.12
387.017	4.15
387.383	4.07
387.748	3.69
388.114	3.86
388.479	4.18
388.845	3.88
389.21	3.93
389.575	4.06
389.94	3.7
390.306	3.76
390.671	4.19
391.036	4.19
391.401	3.83
391.766	4.06
392.131	4.01
392.496	4.34
392.861	4.14
393.226	3.94
393.591	4
393.956	4.31
394.32	4.01
394.685	3.67
395.05	3.96
395.414	4.1
395.779	4.08
396.143	3.97
396.508	3.92
396.872	4.23
397.236	4.01
397.601	4.27
397.965	4.27
398.329	3.97
398.694	4.25
399.058	4.14
399.422	4.1
399.786	4.09
400.15	4.01
400.514	4.18
400.878	4.08
401.242	4
401.605	4.08
401.969	4.08
402.333	4.35
402.697	4.24
403.06	4.01
403.424	4.05
403.787	4.16
404.151	4.21
404.514	4.14
404.878	4.07
405.241	4.12
405.604	4.02
405.968	4.17
406.331	4
406.694	4.04
407.057	4.09
407.42	4.32
407.783	4.01
408.146	4.08
408.509	4.09
408.872	4.03
409.235	4.17
409.598	4.09
409.961	4.28
410.323	4.2
410.686	4.29
411.049	3.95
411.411	4.15
411.774	4.22
412.136	4.32
412.499	4.16
412.861	4.01
413.223	3.76
413.586	4.09
413.948	4.07
414.31	4.3
414.672	4.04
415.035	4.39
415.397	4.17
415.759	4.04
416.121	4.13
416.483	4.32
416.845	4.25
417.206	4.04
417.568	4.04
417.93	4.02
418.292	4.12
418.653	4.01
419.015	4.21
419.377	4.07
419.738	4.08
420.1	4.23
420.461	3.99
420.822	4.08
421.184	4.13
421.545	3.97
421.906	3.92
422.267	4.03
422.629	4.06
422.99	4.12
423.351	4.01
423.712	4.05
424.073	4.04
424.434	4.17
424.795	4.04
425.155	4.03
425.516	4.06
425.877	4.09
426.238	4.1
426.598	4.14
426.959	4.14
427.32	4.27
427.68	4.16
428.041	4.12
428.401	4.2
428.761	4.33
429.122	4.24
429.482	4.39
429.842	4.21
430.202	4.24
430.563	4.23
430.923	4.28
431.283	4.31
431.643	4.4
432.003	4.17
432.363	4.33
432.722	4.42
433.082	4.43
433.442	4.19
433.802	4.29
434.161	4.23
434.521	4.33
434.881	4.1
435.24	4.24
435.6	4.3
435.959	4.26
436.319	4.26
436.678	4.34
437.037	4.37
437.396	4.34
437.756	4.24
438.115	4.27
438.474	4.35
438.833	4.4
439.192	4.3
439.551	4.38
439.91	4.3
440.269	4.08
440.628	4.31
440.987	4.49
441.345	4.41
441.704	4.28
442.063	4.41
442.421	4.32
442.78	4.34
443.138	4.14
443.497	4.43
443.855	4.52
444.214	4.39
444.572	4.47
444.93	4.3
445.288	4.35
445.647	4.45
446.005	4.44
446.363	4.44
446.721	4.3
447.079	4.28
447.437	4.3
447.795	4.19
448.153	4.19
448.51	4.37
448.868	4.3
449.226	4.29
449.584	4.34
449.941	4.39
450.299	4.36
450.656	4.48
451.014	4.53
451.371	4.46
451.729	4.44
452.086	4.48
452.443	4.54
452.801	4.56
453.158	4.48
453.515	4.29
453.872	4.59
454.229	4.39
454.586	4.62
454.943	4.47
455.3	4.57
455.657	4.61
456.014	4.49
456.371	4.47
456.727	4.41
457.084	4.39
457.441	4.56
457.797	4.44
458.154	4.33
458.51	4.5
458.867	4.54
459.223	4.51
459.58	4.61
459.936	4.55
460.292	4.48
460.648	4.38
461.005	4.51
461.361	4.45
461.717	4.37
462.073	4.48
462.429	4.45
462.785	4.52
463.141	4.61
463.496	4.42
463.852	4.64
464.208	4.58
464.564	4.7
464.919	4.5
465.275	4.46
465.631	4.66
465.986	4.53
466.342	4.66
466.697	4.63
467.052	4.77
467.408	4.72
467.763	4.47
468.118	4.57
468.473	4.72
468.829	4.6
469.184	4.73
469.539	4.69
469.894	4.73
470.249	4.71
470.603	4.78
470.958	4.72
471.313	4.61
471.668	4.69
472.023	4.77
472.377	4.74
472.732	4.68
473.086	4.75
473.441	4.77
473.795	4.64
474.15	4.59
474.504	4.73
474.859	4.7
475.213	4.66
475.567	4.82
475.921	4.69
476.275	4.68
476.63	4.69
476.984	4.79
477.338	4.74
477.692	4.73
478.045	4.81
478.399	4.7
478.753	4.81
479.107	4.8
479.461	4.84
479.814	4.7
480.168	4.74
480.521	4.79
480.875	5
481.228	4.75
481.582	4.87
481.935	4.81
482.289	4.84
482.642	4.74
482.995	4.7
483.348	4.76
483.701	4.74
484.055	4.71
484.408	4.7
484.761	4.58
485.114	4.45
485.466	4.45
485.819	4.45
486.172	4.55
486.525	4.63
486.878	4.67
487.23	4.71
487.583	4.66
487.936	4.78
488.288	4.71
488.641	4.55
488.993	4.56
489.345	4.58
489.698	4.55
490.05	4.69
490.402	4.69
490.754	4.77
491.107	4.74
491.459	4.91
491.811	4.84
492.163	4.93
492.515	4.77
492.866	4.72
493.218	4.63
493.57	4.69
493.922	4.76
494.274	4.76
494.625	4.92
494.977	4.94
495.328	4.92
495.68	4.93
496.031	4.98
496.383	5.02
496.734	4.89
497.086	4.91
497.437	5.03
497.788	5.12
498.139	4.89
498.49	4.99
498.842	4.91
499.193	4.97
499.544	5.01
499.894	5.02
500.245	4.96
500.596	4.97
500.947	5.09
501.298	5.17
501.648	5
501.999	5.09
502.35	5.14
502.7	5.12
503.051	5.18
503.401	5.14
503.752	5.17
504.102	5.1
504.452	5.02
504.803	5.24
505.153	5.32
505.503	5.16
505.853	5.15
506.203	5.08
506.553	5.2
506.903	5.27
507.253	5.22
507.603	5.29
507.953	5.28
508.303	5.31
508.652	5.2
509.002	5.27
509.352	5.25
509.701	5.24
510.051	5.25
510.4	5.14
510.75	5.21
511.099	5.1
511.449	5.19
511.798	5.21
512.147	5.28
512.496	5.24
512.846	5.28
513.195	5.31
513.544	5.25
513.893	5.34
514.242	5.34
514.591	5.38
514.939	5.28
515.288	5.42
515.637	5.26
515.986	5.41
516.334	5.49
516.683	5.32
517.032	5.34
517.38	5.4
517.729	5.43
518.077	5.39
518.426	5.51
518.774	5.54
519.122	5.39
519.47	5.55
519.819	5.43
520.167	5.44
520.515	5.37
520.863	5.48
521.211	5.5
521.559	5.55
521.907	5.44
522.255	5.44
522.602	5.62
522.95	5.57
523.298	5.63
523.645	5.66
523.993	5.64
524.341	5.74
524.688	5.6
525.036	5.53
525.383	5.54
525.73	5.57
526.078	5.69
526.425	5.53
526.772	5.67
527.119	5.53
527.466	5.55
527.814	5.63
528.161	5.55
528.508	5.63
528.854	5.57
529.201	5.57
529.548	5.51
529.895	5.49
530.242	5.41
530.588	5.54
530.935	5.54
531.282	5.57
531.628	5.61
531.975	5.69
532.321	5.76
532.667	5.72
533.014	5.82
533.36	5.72
533.706	5.82
534.052	5.84
534.399	5.76
534.745	5.71
535.091	5.66
535.437	5.75
535.783	5.93
536.129	5.88
536.474	5.85
536.82	5.89
537.166	6.07
537.512	6.01
537.857	6.02
538.203	5.88
538.549	5.91
538.894	5.94
539.239	6.03
539.585	6.14
539.93	6.06
540.276	6.18
540.621	6.19
540.966	6.29
541.311	6.22
541.656	6.23
542.001	6.11
542.346	6.04
542.691	6
543.036	5.93
543.381	6.01
543.726	6.03
544.071	6.13
544.415	6.2
544.76	6.25
545.105	6.17
545.449	6.25
545.794	6.28
546.138	6.35
546.483	6.44
546.827	6.34
547.171	6.37
547.516	6.31
547.86	6.32
548.204	6.44
548.548	6.4
548.892	6.53
549.236	6.55
549.58	6.61
549.924	6.56
550.268	6.72
550.612	6.56
550.956	6.69
551.3	6.63
551.643	6.73
551.987	6.77
552.33	6.85
552.674	6.8
553.017	6.75
553.361	6.91
553.704	6.83
554.048	6.73
554.391	7.02
554.734	6.75
555.077	7.05
555.42	6.86
555.764	6.89
556.107	6.95
556.45	7.07
556.793	6.9
557.135	7.18
557.478	6.93
557.821	7.02
558.164	7.23
558.507	7.12
558.849	7.06
559.192	7.08
559.534	7.11
559.877	7.23
560.219	7.08
560.562	7.27
560.904	7.06
561.246	7.25
561.589	7.26
561.931	7.41
562.273	7.26
562.615	7.25
562.957	7.3
563.299	7.47
563.641	7.35
563.983	7.32
564.325	7.42
564.667	7.58
565.008	7.32
565.35	7.54
565.692	7.43
566.033	7.35
566.375	7.35
566.716	7.57
567.058	7.63
567.399	7.56
567.741	7.6
568.082	7.71
568.423	7.72
568.764	7.63
569.105	7.64
569.447	7.7
569.788	7.7
570.129	7.92
570.47	7.8
570.811	7.83
571.151	7.9
571.492	7.81
571.833	7.73
572.174	7.74
572.514	7.95
572.855	7.73
573.195	7.98
573.536	7.91
573.876	8.12
574.217	7.89
574.557	8.03
574.898	7.93
575.238	8.18
575.578	8.2
575.918	8.25
576.258	8.33
576.598	8.21
576.938	8.17
577.278	8.44
577.618	8.32
577.958	8.27
578.298	8.42
578.638	8.49
578.977	8.46
579.317	8.63
579.657	8.48
579.996	8.35
580.336	8.67
580.675	8.63
581.014	8.55
581.354	8.56
581.693	8.7
582.032	8.55
582.372	8.53
582.711	8.63
583.05	8.6
583.389	8.62
583.728	8.84
584.067	8.74
584.406	8.84
584.745	8.82
585.083	8.81
585.422	9
585.761	8.88
586.1	8.96
586.438	9.09
586.777	9.15
587.115	9.15
587.454	9.37
587.792	9.14
588.13	9.27
588.469	9.03
588.807	9.23
589.145	9
589.483	9.43
589.821	9.13
590.159	9.53
590.497	9.19
590.835	9.27
591.173	9.42
591.511	9.4
591.849	9.35
592.187	9.26
592.524	9.36
592.862	9.54
593.2	9.59
593.537	9.52
593.875	9.69
594.212	9.51
594.55	9.5
594.887	9.69
595.224	9.88
595.561	9.59
595.899	9.65
596.236	9.89
596.573	9.86
596.91	9.85
597.247	9.75
597.584	9.84
597.921	9.79
598.258	9.74
598.594	9.94
598.931	9.97
599.268	9.71
599.604	9.86
599.941	9.83
600.277	9.82
600.614	10.07
600.95	10.07
601.287	10.1
601.623	10.32
601.959	10.03
602.296	10.15
602.632	10.3
602.968	10.29
603.304	9.97
603.64	10.45
603.976	10.17
604.312	10.36
604.648	10.58
604.984	10.51
605.319	10.34
605.655	10.54
605.991	10.37
606.326	10.52
606.662	10.48
606.998	10.39
607.333	10.48
607.668	10.64
608.004	10.85
608.339	10.85
608.674	10.75
609.01	10.85
609.345	10.76
609.68	10.94
610.015	11
610.35	10.74
610.685	10.75
611.02	10.76
611.355	10.69
611.689	10.75
612.024	10.99
612.359	11.14
612.694	11.17
613.028	11.18
613.363	11.05
613.697	11.04
614.032	11.33
614.366	11.13
614.7	11.13
615.035	11.37
615.369	11.31
615.703	11.47
616.037	11.16
616.371	11.28
616.705	11.56
617.039	11.35
617.373	11.54
617.707	11.29
618.041	11.51
618.375	11.75
618.709	11.63
619.042	11.57
619.376	11.93
619.71	11.97
620.043	11.91
620.377	11.93
620.71	11.57
621.043	11.99
621.377	12.28
621.71	11.88
622.043	11.77
622.376	11.76
622.709	12.07
623.043	12.05
623.376	12.05
623.709	12.01
624.041	11.9
624.374	11.83
624.707	11.82
625.04	12.3
625.373	12.32
625.705	12.2
626.038	12
626.37	12.47
626.703	12.57
627.035	12.53
627.368	12.55
627.7	12.45
628.032	12.31
628.365	12.41
628.697	12.56
629.029	12.54
629.361	12.57
629.693	12.69
630.025	12.57
630.357	12.89
630.689	12.91
631.021	12.84
631.353	12.69
631.684	13.03
632.016	13.48
632.348	13.09
632.679	12.8
633.011	12.81
633.342	12.97
633.674	13.38
634.005	13.19
634.336	12.95
634.668	13.09
634.999	13.2
635.33	13.2
635.661	13.09
635.992	13.15
636.323	13.46
636.654	13.29
636.985	13.34
637.316	13.78
637.647	13.04
637.977	13.68
638.308	13.28
638.639	13.08
638.969	13.19
639.3	13.73
639.63	13.07
639.961	13.74
640.291	13.97
640.622	13.7
640.952	13.66
641.282	13.51
641.612	13.96
641.943	13.87
642.273	14.08
642.603	13.65
642.933	13.77
643.263	13.82
643.592	14.11
643.922	13.74
644.252	14.02
644.582	14.54
644.911	14.47
645.241	14.22
645.571	13.85
645.9	14.1
646.23	14.28
646.559	13.83
646.888	14.04
647.218	13.88
647.547	14.26
647.876	14.27
648.205	13.99
648.534	14.37
648.863	14.75
649.192	14.21
649.521	14.49
649.85	14.43
650.179	14.14
650.508	14.26
650.837	14.58
651.165	14.31
651.494	14.61
651.822	14.71
652.151	14.51
652.479	14.87
652.808	14.77
653.136	14.87
653.465	14.32
653.793	14.73
654.121	14.48
654.449	14.71
654.777	14.92
655.105	15.31
655.433	14.88
655.761	15.47
656.089	15.41
656.417	14.79
656.745	15.06
657.073	14.95
657.4	15.01
657.728	14.87
658.056	15.32
658.383	15.14
658.711	15.63
659.038	14.67
659.365	14.83
659.693	15.18
660.02	15.36
660.347	15.35
660.674	15.49
661.001	15.51
661.329	15.62
661.656	15.32
661.982	15.56
662.309	15.77
662.636	15.83
662.963	15.57
663.29	15.28
663.616	15.54
663.943	16.01
664.27	15.48
664.596	15.68
664.923	15.9
665.249	15.75
665.576	15.93
665.902	15.91
666.228	15.94
666.554	15.97
666.881	16.05
667.207	15.91
667.533	15.92
667.859	16.33
668.185	16.27
668.511	15.4
668.837	15.98
669.162	16.67
669.488	16.34
669.814	15.95
670.139	15.57
670.465	16.34
670.791	16.32
671.116	16.52
671.442	16.64
671.767	16.38
672.092	16.65
672.418	16.21
672.743	16.37
673.068	17.22
673.393	17.15
673.718	16.06
674.043	16.32
674.368	16.4
674.693	16.73
675.018	16.63
675.343	16.59
675.667	16.99
675.992	17.17
676.317	16.91
676.641	16.75
676.966	16.64
677.29	16.48
677.615	16.53
677.939	16.9
678.264	16.62
678.588	16.76
678.912	16.65
679.236	16.95
679.56	17.01
679.885	17.35
680.209	16.87
680.532	16.82
680.856	17.41
681.18	17.27
681.504	17.39
681.828	17.31
682.152	16.99
682.475	16.96
682.799	17.23
683.122	17.46
683.446	17.58
683.769	17.92
684.093	18.07
684.416	17.71
684.739	17.6
685.062	17.62
685.386	18.29
685.709	17.78
686.032	17.71
686.355	18.15
686.678	17.82
