Data from 1886-1_chest_Reflection__0__76.txt Node

Date: Fri Sep 30 18:21:46 CDT 2022
User: ToomeyLab
Spectrometer: FLMS14357
Trigger mode: 0
Integration Time (sec): 1.000000E-2
Scans to average: 100
Electric dark correction enabled: true
Nonlinearity correction enabled: false
Boxcar width: 0
XAxis mode: Wavelengths
Number of Pixels in Spectrum: 2048
>>>>>Begin Spectral Data<<<<<
189.047	-1387.78
189.435	-1387.78
189.823	-1387.78
190.211	-9.13
190.599	427.08
190.987	104.69
191.375	-4.22
191.763	6697.37
192.151	8.62
192.538	-37.27
192.926	-346.89
193.314	-916.67
193.702	58.49
194.089	-37.6
194.477	-6.1
194.864	-26.16
195.252	-20.09
195.639	-36.26
196.027	-120.81
196.414	49.6
196.801	68.32
197.189	351.33
197.576	-432.07
197.963	-744.27
198.351	47.71
198.738	22.39
199.125	61.68
199.512	35.23
199.899	12.29
200.286	38.2
200.673	48.11
201.06	40.42
201.447	50.97
201.833	95.1
202.22	7.99
202.607	20.56
202.994	51.74
203.38	22.95
203.767	23.33
204.154	36.05
204.54	39.77
204.927	37.58
205.313	-31.42
205.699	6.72
206.086	-86.87
206.472	-8.11
206.858	25.44
207.245	9.97
207.631	11.11
208.017	18.81
208.403	21.6
208.789	1.02
209.175	15.21
209.561	-4.52
209.947	18.43
210.333	11.93
210.719	-10.56
211.105	-9.86
211.491	7.37
211.876	4.89
212.262	40.47
212.648	7.89
213.034	7.72
213.419	12.6
213.805	-8.02
214.19	1.39
214.576	-5.02
214.961	-0.39
215.346	24.77
215.732	6.68
216.117	-14.71
216.502	4.71
216.888	14.47
217.273	-7.19
217.658	7.18
218.043	-7.33
218.428	-7.66
218.813	12.97
219.198	0.83
219.583	11.58
219.968	15.1
220.353	2.16
220.738	-2.06
221.122	17.63
221.507	1.1
221.892	10.44
222.276	1.73
222.661	16.87
223.046	1.91
223.43	-2.05
223.815	9.72
224.199	6.45
224.583	-3.29
224.968	-0.55
225.352	1.32
225.736	1.39
226.121	4.7
226.505	0.88
226.889	6.23
227.273	2.51
227.657	5.47
228.041	3.88
228.425	3.98
228.809	4.45
229.193	4.23
229.577	2.06
229.961	3.61
230.344	2.44
230.728	2.96
231.112	2.7
231.495	2.83
231.879	4.38
232.263	2.39
232.646	2.47
233.03	3.28
233.413	3.09
233.797	1.73
234.18	3.64
234.563	3.12
234.946	4.81
235.33	1.36
235.713	4.41
236.096	4.21
236.479	3.95
236.862	2.87
237.245	3.12
237.628	2.94
238.011	3.95
238.394	3.61
238.777	1.99
239.16	2.52
239.543	3.47
239.925	1.7
240.308	2.16
240.691	3.32
241.073	4.53
241.456	1.7
241.838	3.14
242.221	3.35
242.603	4.01
242.986	3.23
243.368	2.42
243.75	3.01
244.133	3.48
244.515	3.28
244.897	3.21
245.279	3.44
245.661	3.8
246.043	2.97
246.425	3.52
246.807	3.03
247.189	2.73
247.571	3.52
247.953	3.39
248.335	3.09
248.717	3.18
249.098	3.12
249.48	3.03
249.862	2.99
250.243	3.04
250.625	3.67
251.006	3.08
251.388	2.26
251.769	4.2
252.151	2.03
252.532	3.03
252.913	2.63
253.295	3.6
253.676	2.62
254.057	3.24
254.438	2.69
254.819	3.3
255.2	3.21
255.581	4.57
255.962	3.85
256.343	2.81
256.724	4.27
257.105	3.04
257.486	3.39
257.867	3.46
258.247	2.3
258.628	3.13
259.009	4.11
259.389	2.5
259.77	3.23
260.15	2.94
260.531	3.49
260.911	3.12
261.292	3.17
261.672	3.1
262.052	2.82
262.432	2.98
262.813	3.48
263.193	2.28
263.573	3.06
263.953	2.97
264.333	3.93
264.713	2.77
265.093	2.36
265.473	2.92
265.853	3.52
266.233	2.93
266.612	2.39
266.992	2.34
267.372	2.68
267.752	2.72
268.131	3.58
268.511	2.88
268.89	2.66
269.27	2.66
269.649	2.72
270.029	3.05
270.408	2.69
270.787	2.96
271.167	2.95
271.546	2.6
271.925	3.09
272.304	2.92
272.683	2.87
273.062	2.71
273.441	2.45
273.82	2.56
274.199	3.24
274.578	2.46
274.957	2.79
275.336	3
275.715	2.91
276.093	3.12
276.472	2.24
276.851	2.27
277.229	2.82
277.608	2.91
277.986	3
278.365	3.05
278.743	2.72
279.122	3.01
279.5	2.89
279.878	3.17
280.257	3.11
280.635	3.18
281.013	2.83
281.391	2.42
281.769	2.81
282.147	2.78
282.525	3.14
282.903	2.67
283.281	2.74
283.659	2.89
284.037	2.41
284.415	3.18
284.792	2.79
285.17	2.39
285.548	2.86
285.925	3.07
286.303	2.81
286.68	2.64
287.058	2.61
287.435	2.54
287.813	2.79
288.19	2.8
288.567	2.56
288.945	2.36
289.322	2.44
289.699	2.65
290.076	2.78
290.453	2.9
290.83	2.72
291.207	2.53
291.584	2.6
291.961	2.43
292.338	2.77
292.715	3.26
293.092	2.74
293.469	2.54
293.845	3.11
294.222	2.79
294.599	3.23
294.975	3.34
295.352	3.24
295.728	3.24
296.105	2.88
296.481	2.74
296.858	3.01
297.234	2.81
297.61	2.79
297.986	2.6
298.363	3.1
298.739	2.82
299.115	2.72
299.491	2.84
299.867	3
300.243	2.74
300.619	2.41
300.995	3.37
301.371	2.9
301.746	2.8
302.122	3.58
302.498	2.81
302.874	3.13
303.249	2.89
303.625	3.43
304	3.31
304.376	3.62
304.751	3.61
305.127	3.01
305.502	3.07
305.878	3.34
306.253	2.89
306.628	3.06
307.003	2.52
307.378	3.22
307.754	2.86
308.129	3.09
308.504	2.83
308.879	3.25
309.254	2.89
309.629	3.32
310.003	2.92
310.378	3.03
310.753	2.67
311.128	2.68
311.502	3.23
311.877	3.04
312.252	2.96
312.626	3.11
313.001	3.2
313.375	2.87
313.75	3.33
314.124	2.78
314.498	2.77
314.873	2.96
315.247	2.76
315.621	3.47
315.995	3.51
316.369	2.8
316.743	3.42
317.117	3.47
317.491	4.06
317.865	4.21
318.239	2.94
318.613	3
318.987	3.46
319.361	3.06
319.734	2.58
320.108	3.74
320.482	2.65
320.855	3.58
321.229	3.23
321.602	3.6
321.976	3.19
322.349	3.25
322.723	2.31
323.096	3.54
323.469	3.36
323.843	2.83
324.216	3.04
324.589	3.24
324.962	3.57
325.335	3.07
325.708	3.36
326.081	3.26
326.454	3.43
326.827	3.25
327.2	3
327.573	2.78
327.945	2.7
328.318	3.32
328.691	3.58
329.063	3.2
329.436	3.28
329.809	3.9
330.181	3.85
330.553	3.25
330.926	2.97
331.298	2.76
331.671	3.43
332.043	3.62
332.415	2.98
332.787	2.76
333.159	3.51
333.532	3.58
333.904	3.29
334.276	3.61
334.648	2.89
335.02	3.45
335.391	3.5
335.763	3.52
336.135	3.26
336.507	3.32
336.879	3.09
337.25	2.83
337.622	3.6
337.993	2.76
338.365	2.88
338.736	3.3
339.108	2.94
339.479	3.23
339.851	3.14
340.222	3.71
340.593	2.98
340.964	2.93
341.336	2.9
341.707	3.08
342.078	3.52
342.449	3.3
342.82	3.18
343.191	3.11
343.562	3.2
343.933	3.48
344.303	3.15
344.674	3.17
345.045	3.22
345.416	3.15
345.786	3.22
346.157	3.56
346.527	3.4
346.898	3.13
347.268	3.19
347.639	3.24
348.009	2.96
348.38	3.65
348.75	3.71
349.12	3.62
349.49	3.34
349.861	3.17
350.231	3.31
350.601	3.43
350.971	3.46
351.341	3.23
351.711	3.16
352.081	3.28
352.45	3.39
352.82	3.35
353.19	3.87
353.56	3.2
353.929	2.89
354.299	3.34
354.669	3.33
355.038	3.2
355.408	3.54
355.777	3.18
356.147	3.26
356.516	3.57
356.885	2.98
357.254	3.7
357.624	3.05
357.993	2.61
358.362	3.4
358.731	3.08
359.1	3.26
359.469	3.16
359.838	3.32
360.207	3.33
360.576	3.22
360.945	3.64
361.314	3.58
361.682	3.44
362.051	3.21
362.42	3.26
362.788	3.17
363.157	3.28
363.525	3.03
363.894	3.23
364.262	3.3
364.631	3.79
364.999	3.34
365.367	3.6
365.735	3.25
366.104	3
366.472	3.64
366.84	3.64
367.208	3.75
367.576	3.82
367.944	3.55
368.312	3.22
368.68	3.22
369.048	3.01
369.416	3.55
369.783	3.45
370.151	3.42
370.519	3.6
370.886	3.3
371.254	3.38
371.621	3.57
371.989	3.64
372.356	3.47
372.724	3.51
373.091	3.15
373.458	3.17
373.826	3.49
374.193	3.56
374.56	3.63
374.927	4.09
375.294	3.69
375.661	3.11
376.028	3.2
376.395	3.34
376.762	3.25
377.129	3.91
377.496	3.5
377.863	3.33
378.229	3.61
378.596	3.44
378.963	3.37
379.329	3.32
379.696	3.6
380.062	3.74
380.429	3.41
380.795	3.33
381.161	3.15
381.528	3.48
381.894	3.28
382.26	3.5
382.626	3.28
382.993	3.71
383.359	3.39
383.725	3.33
384.091	3.33
384.457	3.36
384.823	3.55
385.188	3.58
385.554	3.43
385.92	3.83
386.286	3.55
386.651	3.81
387.017	3.45
387.383	3.35
387.748	3.17
388.114	3.52
388.479	3.54
388.845	3.34
389.21	3.33
389.575	3.47
389.94	3.47
390.306	3.65
390.671	3.31
391.036	3.54
391.401	3.36
391.766	3.39
392.131	3.51
392.496	3.67
392.861	3.41
393.226	3.52
393.591	3.52
393.956	3.48
394.32	3.46
394.685	3.4
395.05	3.57
395.414	3.46
395.779	3.33
396.143	3.73
396.508	3.48
396.872	3.59
397.236	3.64
397.601	3.66
397.965	3.42
398.329	3.28
398.694	3.36
399.058	3.36
399.422	3.69
399.786	3.57
400.15	3.47
400.514	3.4
400.878	3.64
401.242	3.56
401.605	3.46
401.969	3.66
402.333	3.59
402.697	3.85
403.06	3.68
403.424	3.47
403.787	3.6
404.151	3.7
404.514	3.7
404.878	3.37
405.241	3.54
405.604	3.59
405.968	3.68
406.331	3.67
406.694	3.57
407.057	3.42
407.42	3.64
407.783	3.37
408.146	3.59
408.509	3.56
408.872	3.52
409.235	3.61
409.598	3.57
409.961	3.35
410.323	3.64
410.686	3.75
411.049	3.53
411.411	3.75
411.774	3.83
412.136	3.69
412.499	3.52
412.861	3.68
413.223	3.47
413.586	3.49
413.948	3.9
414.31	3.85
414.672	3.68
415.035	3.84
415.397	3.62
415.759	3.56
416.121	3.66
416.483	3.44
416.845	3.71
417.206	3.76
417.568	3.79
417.93	3.6
418.292	3.65
418.653	3.45
419.015	3.74
419.377	3.47
419.738	3.34
420.1	3.66
420.461	3.75
420.822	3.53
421.184	3.56
421.545	3.48
421.906	3.4
422.267	3.44
422.629	3.54
422.99	3.52
423.351	3.54
423.712	3.57
424.073	3.65
424.434	3.56
424.795	3.55
425.155	3.54
425.516	3.47
425.877	3.56
426.238	3.6
426.598	3.67
426.959	3.49
427.32	3.65
427.68	3.67
428.041	3.61
428.401	3.68
428.761	3.71
429.122	3.75
429.482	3.62
429.842	3.55
430.202	3.63
430.563	3.67
430.923	3.57
431.283	3.75
431.643	3.91
432.003	3.62
432.363	3.85
432.722	3.82
433.082	3.85
433.442	3.79
433.802	3.73
434.161	3.49
434.521	3.57
434.881	3.55
435.24	3.68
435.6	3.78
435.959	3.68
436.319	3.66
436.678	3.68
437.037	3.73
437.396	3.77
437.756	3.58
438.115	3.7
438.474	3.86
438.833	3.73
439.192	3.7
439.551	3.73
439.91	3.71
440.269	3.62
440.628	3.85
440.987	3.82
441.345	3.84
441.704	3.78
442.063	3.69
442.421	3.71
442.78	3.67
443.138	3.64
443.497	3.76
443.855	3.82
444.214	3.7
444.572	3.84
444.93	3.75
445.288	3.86
445.647	3.86
446.005	3.85
446.363	3.78
446.721	3.76
447.079	3.62
447.437	3.76
447.795	3.67
448.153	3.7
448.51	3.65
448.868	3.7
449.226	3.62
449.584	3.68
449.941	3.74
450.299	3.83
450.656	3.78
451.014	3.89
451.371	4
451.729	3.89
452.086	3.89
452.443	3.96
452.801	3.84
453.158	3.82
453.515	3.75
453.872	3.82
454.229	3.86
454.586	3.98
454.943	3.84
455.3	3.8
455.657	4.03
456.014	3.65
456.371	3.87
456.727	3.93
457.084	3.65
457.441	3.9
457.797	3.71
458.154	3.64
458.51	3.78
458.867	3.86
459.223	3.83
459.58	4.02
459.936	4.02
460.292	3.9
460.648	3.69
461.005	3.82
461.361	3.79
461.717	3.8
462.073	3.83
462.429	3.84
462.785	3.92
463.141	4.01
463.496	3.95
463.852	3.85
464.208	4.06
464.564	3.83
464.919	3.85
465.275	3.91
465.631	3.95
465.986	3.82
466.342	3.89
466.697	4.04
467.052	3.97
467.408	3.95
467.763	3.89
468.118	4.09
468.473	3.96
468.829	3.93
469.184	3.92
469.539	4.08
469.894	4.11
470.249	3.9
470.603	4
470.958	4.07
471.313	3.94
471.668	4.04
472.023	3.97
472.377	3.96
472.732	4.02
473.086	4.06
473.441	4.08
473.795	3.97
474.15	3.83
474.504	4.11
474.859	4.01
475.213	4.11
475.567	4.08
475.921	3.95
476.275	4.08
476.63	4.02
476.984	4.03
477.338	3.99
477.692	3.97
478.045	3.99
478.399	3.89
478.753	3.91
479.107	3.99
479.461	4.01
479.814	3.99
480.168	4.09
480.521	4.03
480.875	4.19
481.228	4.01
481.582	4.18
481.935	4.07
482.289	4.06
482.642	4.04
482.995	3.93
483.348	3.99
483.701	4.03
484.055	3.91
484.408	3.91
484.761	3.85
485.114	3.75
485.466	3.7
485.819	3.72
486.172	3.82
486.525	3.88
486.878	3.93
487.23	3.94
487.583	3.96
487.936	4
488.288	3.92
488.641	3.85
488.993	3.81
489.345	3.82
489.698	3.85
490.05	3.89
490.402	3.93
490.754	3.97
491.107	3.95
491.459	4.08
491.811	4.02
492.163	4.09
492.515	3.88
492.866	3.92
493.218	3.91
493.57	3.88
493.922	3.94
494.274	4.01
494.625	3.99
494.977	4.16
495.328	4.13
495.68	4.04
496.031	4.15
496.383	4.16
496.734	4.15
497.086	4.23
497.437	4.25
497.788	4.12
498.139	4.08
498.49	4.08
498.842	4.15
499.193	4.19
499.544	4.14
499.894	4.28
500.245	4.17
500.596	4.06
500.947	4.23
501.298	4.29
501.648	4.12
501.999	4.27
502.35	4.24
502.7	4.11
503.051	4.3
503.401	4.36
503.752	4.26
504.102	4.38
504.452	4.3
504.803	4.16
505.153	4.38
505.503	4.23
505.853	4.25
506.203	4.19
506.553	4.27
506.903	4.4
507.253	4.35
507.603	4.35
507.953	4.52
508.303	4.41
508.652	4.37
509.002	4.45
509.352	4.25
509.701	4.38
510.051	4.3
510.4	4.31
510.75	4.28
511.099	4.25
511.449	4.23
511.798	4.35
512.147	4.25
512.496	4.32
512.846	4.37
513.195	4.38
513.544	4.39
513.893	4.44
514.242	4.34
514.591	4.46
514.939	4.36
515.288	4.49
515.637	4.31
515.986	4.45
516.334	4.39
516.683	4.42
517.032	4.38
517.38	4.45
517.729	4.51
518.077	4.55
518.426	4.42
518.774	4.46
519.122	4.39
519.47	4.42
519.819	4.41
520.167	4.41
520.515	4.37
520.863	4.44
521.211	4.55
521.559	4.58
521.907	4.56
522.255	4.42
522.602	4.6
522.95	4.58
523.298	4.54
523.645	4.57
523.993	4.6
524.341	4.69
524.688	4.57
525.036	4.57
525.383	4.44
525.73	4.56
526.078	4.65
526.425	4.5
526.772	4.57
527.119	4.41
527.466	4.42
527.814	4.45
528.161	4.48
528.508	4.52
528.854	4.53
529.201	4.47
529.548	4.47
529.895	4.44
530.242	4.32
530.588	4.38
530.935	4.45
531.282	4.51
531.628	4.58
531.975	4.59
532.321	4.56
532.667	4.63
533.014	4.74
533.36	4.62
533.706	4.72
534.052	4.67
534.399	4.69
534.745	4.55
535.091	4.52
535.437	4.64
535.783	4.63
536.129	4.73
536.474	4.72
536.82	4.8
537.166	4.87
537.512	4.74
537.857	4.86
538.203	4.76
538.549	4.66
538.894	4.74
539.239	4.85
539.585	4.83
539.93	4.93
540.276	4.88
540.621	4.99
540.966	4.99
541.311	4.92
541.656	4.98
542.001	4.92
542.346	4.89
542.691	4.72
543.036	4.77
543.381	4.8
543.726	4.79
544.071	4.93
544.415	4.95
544.76	4.93
545.105	4.85
545.449	5
545.794	5.01
546.138	5.06
546.483	5.19
546.827	5.09
547.171	5.15
547.516	4.99
547.86	5.07
548.204	5.12
548.548	5.04
548.892	5.09
549.236	5.19
549.58	5.26
549.924	5.19
550.268	5.39
550.612	5.39
550.956	5.37
551.3	5.28
551.643	5.51
551.987	5.32
552.33	5.48
552.674	5.41
553.017	5.34
553.361	5.43
553.704	5.47
554.048	5.39
554.391	5.48
554.734	5.33
555.077	5.52
555.42	5.52
555.764	5.6
556.107	5.58
556.45	5.55
556.793	5.64
557.135	5.63
557.478	5.58
557.821	5.59
558.164	5.73
558.507	5.82
558.849	5.72
559.192	5.72
559.534	5.62
559.877	5.8
560.219	5.84
560.562	5.7
560.904	5.62
561.246	5.63
561.589	5.7
561.931	5.97
562.273	5.91
562.615	5.89
562.957	5.92
563.299	5.95
563.641	5.86
563.983	5.91
564.325	5.93
564.667	6.16
565.008	5.98
565.35	6.04
565.692	5.88
566.033	5.78
566.375	5.8
566.716	6.09
567.058	6.16
567.399	6.02
567.741	5.96
568.082	6.07
568.423	6.22
568.764	6.18
569.105	6.06
569.447	6.16
569.788	6.27
570.129	6.22
570.47	6.19
570.811	6.19
571.151	6.33
571.492	6.36
571.833	6.29
572.174	6.18
572.514	6.37
572.855	6.38
573.195	6.48
573.536	6.27
573.876	6.35
574.217	6.29
574.557	6.44
574.898	6.42
575.238	6.53
575.578	6.58
575.918	6.47
576.258	6.53
576.598	6.59
576.938	6.58
577.278	6.71
577.618	6.81
577.958	6.56
578.298	6.83
578.638	6.83
578.977	6.73
579.317	6.6
579.657	6.95
579.996	6.77
580.336	7.08
580.675	6.9
581.014	6.9
581.354	6.95
581.693	7.05
582.032	6.96
582.372	7.04
582.711	6.98
583.05	7.05
583.389	7.1
583.728	7.18
584.067	7.21
584.406	6.97
584.745	7.2
585.083	7.12
585.422	7.28
585.761	7.24
586.1	7.35
586.438	7.42
586.777	7.54
587.115	7.75
587.454	7.42
587.792	7.15
588.13	7.47
588.469	7.39
588.807	7.41
589.145	7.22
589.483	7.73
589.821	7.38
590.159	7.7
590.497	7.53
590.835	7.56
591.173	7.58
591.511	7.47
591.849	7.78
592.187	7.65
592.524	7.65
592.862	7.8
593.2	7.87
593.537	7.61
593.875	7.91
594.212	7.64
594.55	7.69
594.887	7.83
595.224	7.84
595.561	7.8
595.899	7.86
596.236	8.26
596.573	8.13
596.91	7.75
597.247	7.92
597.584	7.92
597.921	8.02
598.258	7.97
598.594	7.77
598.931	7.98
599.268	7.83
599.604	8.06
599.941	8.09
600.277	7.94
600.614	8.38
600.95	8.36
601.287	8.22
601.623	8.39
601.959	8.27
602.296	8.41
602.632	8.44
602.968	8.78
603.304	8.36
603.64	8.6
603.976	8.24
604.312	8.4
604.648	8.74
604.984	8.72
605.319	8.54
605.655	8.65
605.991	8.66
606.326	8.7
606.662	8.75
606.998	8.64
607.333	8.77
607.668	8.88
608.004	9
608.339	8.85
608.674	9
609.01	8.79
609.345	8.72
609.68	9.12
610.015	9.19
610.35	9.13
610.685	8.99
611.02	8.87
611.355	8.88
611.689	9.16
612.024	9.18
612.359	9.3
612.694	9.49
613.028	9.17
613.363	9.15
613.697	9.61
614.032	9.53
614.366	9.36
614.7	9.29
615.035	9.7
615.369	9.59
615.703	9.72
616.037	9.74
616.371	9.69
616.705	9.72
617.039	9.94
617.373	9.83
617.707	9.51
618.041	9.81
618.375	9.89
618.709	9.89
619.042	9.74
619.376	10.1
619.71	9.71
620.043	10.01
620.377	10.28
620.71	9.97
621.043	10.29
621.377	10.2
621.71	9.92
622.043	10.32
622.376	10.58
622.709	10.18
623.043	10.5
623.376	10.11
623.709	10.34
624.041	10.12
624.374	10.39
624.707	10.12
625.04	10.3
625.373	10.27
625.705	10.14
626.038	10.36
626.37	10.57
626.703	10.63
627.035	10.85
627.368	10.54
627.7	10.59
628.032	10.52
628.365	10.61
628.697	10.68
629.029	10.71
629.361	10.78
629.693	10.9
630.025	10.78
630.357	11.07
630.689	11.12
631.021	11.29
631.353	10.88
631.684	11.07
632.016	11.27
632.348	11.41
632.679	10.64
633.011	11.46
633.342	11.14
633.674	10.98
634.005	11.36
634.336	11.1
634.668	11.6
634.999	11.3
635.33	11.62
635.661	11.35
635.992	11.29
636.323	11.29
636.654	11.23
636.985	11.47
637.316	11.25
637.647	11.24
637.977	11.72
638.308	11.38
638.639	11.46
638.969	11.57
639.3	11.68
639.63	11.42
639.961	11.96
640.291	11.56
640.622	12.2
640.952	11.82
641.282	12.01
641.612	12.05
641.943	11.9
642.273	12.28
642.603	11.93
642.933	11.57
643.263	12.34
643.592	12.54
643.922	12.04
644.252	12.25
644.582	12.36
644.911	12.26
645.241	12.16
645.571	12.3
645.9	11.99
646.23	12.02
646.559	11.71
646.888	12.78
647.218	12.22
647.547	12.36
647.876	12.49
648.205	12.36
648.534	12.63
648.863	12.56
649.192	12.38
649.521	12.58
649.85	12.85
650.179	13.03
650.508	12.96
650.837	12.84
651.165	13.11
651.494	13.14
651.822	13.04
652.151	13.07
652.479	13.33
652.808	13.03
653.136	13.14
653.465	13.12
653.793	13.24
654.121	12.99
654.449	13.4
654.777	13.05
655.105	13.54
655.433	13.72
655.761	13.72
656.089	13.7
656.417	13.07
656.745	13.39
657.073	13.51
657.4	13.68
657.728	13.32
658.056	13.54
658.383	13.75
658.711	14.11
659.038	12.84
659.365	13.69
659.693	13.46
660.02	13.5
660.347	13.63
660.674	13.93
661.001	13.88
661.329	13.66
661.656	13.35
661.982	14.16
662.309	14.3
662.636	14.36
662.963	13.88
663.29	13.71
663.616	13.92
663.943	14.17
664.27	14.27
664.596	13.98
664.923	14.17
665.249	14.12
665.576	14.38
665.902	14.57
666.228	14.46
666.554	14.64
666.881	14.02
667.207	13.97
667.533	14.33
667.859	14.52
668.185	14.93
668.511	14.54
668.837	14.81
669.162	14.96
669.488	15.08
669.814	15.24
670.139	14.55
670.465	15.01
670.791	14.95
671.116	15.39
671.442	15.5
671.767	15.18
672.092	14.22
672.418	15.49
672.743	15.32
673.068	15.87
673.393	15.11
673.718	14.64
674.043	15.62
674.368	15.61
674.693	15.09
675.018	15.55
675.343	15.14
675.667	16.14
675.992	15.33
676.317	15.71
676.641	15.53
676.966	15.36
677.29	15.47
677.615	15.06
677.939	15.51
678.264	15.16
678.588	15.69
678.912	15.71
679.236	15.47
679.56	15.46
679.885	16.16
680.209	15.57
680.532	15.65
680.856	16.42
681.18	15.83
681.504	16.24
681.828	15.71
682.152	15.7
682.475	15.26
682.799	15.87
683.122	15.96
683.446	16.1
683.769	16.69
684.093	16.68
684.416	16.48
684.739	16.54
685.062	16.84
685.386	16.22
685.709	16.38
686.032	16.49
686.355	16.54
686.678	16.43
687.001	16.75
687.324	16.46
687.646	16.09
687.969	16.38
