Data from 1886-1_crown_Reflection__3__84.txt Node

Date: Fri Sep 30 18:24:19 CDT 2022
User: ToomeyLab
Spectrometer: FLMS14357
Trigger mode: 0
Integration Time (sec): 1.000000E-2
Scans to average: 100
Electric dark correction enabled: true
Nonlinearity correction enabled: false
Boxcar width: 0
XAxis mode: Wavelengths
Number of Pixels in Spectrum: 2048
>>>>>Begin Spectral Data<<<<<
189.047	-724.44
189.435	-724.44
189.823	-724.44
190.211	-132.81
190.599	-553.65
190.987	101.63
191.375	21.13
191.763	9673.68
192.151	146.25
192.538	-131.54
192.926	-189.57
193.314	-1160.68
193.702	78.38
194.089	-3.85
194.477	24.39
194.864	205.02
195.252	28.85
195.639	749.62
196.027	109.43
196.414	41.04
196.801	87.9
197.189	318.85
197.576	-314.94
197.963	653.5
198.351	45.73
198.738	-28.48
199.125	40.08
199.512	3.45
199.899	-10.13
200.286	-0.34
200.673	48.52
201.06	24.67
201.447	40.42
201.833	60.17
202.22	26.6
202.607	28.5
202.994	57.42
203.38	2.17
203.767	41.49
204.154	48.28
204.54	35.58
204.927	7.8
205.313	-32.57
205.699	38.48
206.086	-26.86
206.472	-4.44
206.858	12.59
207.245	46.44
207.631	-36.02
208.017	-17.62
208.403	15.57
208.789	35.05
209.175	19.51
209.561	-12.98
209.947	14.81
210.333	-7.93
210.719	14.98
211.105	1.86
211.491	15.39
211.876	28.99
212.262	24.21
212.648	20.48
213.034	-4.13
213.419	26.03
213.805	3.54
214.19	18.85
214.576	19.04
214.961	-14.41
215.346	8.09
215.732	29.64
216.117	16.21
216.502	10.94
216.888	15
217.273	-8.71
217.658	0.98
218.043	1.89
218.428	2.69
218.813	-3.71
219.198	-0.4
219.583	13.45
219.968	13.2
220.353	6.28
220.738	31.87
221.122	1.52
221.507	15.86
221.892	-1.71
222.276	-3.77
222.661	27.61
223.046	1.05
223.43	-4.94
223.815	0.33
224.199	-0.38
224.583	4.67
224.968	1.93
225.352	-3.43
225.736	11.8
226.121	9.01
226.505	0.48
226.889	8.12
227.273	0.43
227.657	10.86
228.041	5.27
228.425	6.15
228.809	7.94
229.193	6.85
229.577	3.63
229.961	6.55
230.344	4.17
230.728	4.87
231.112	4.95
231.495	5.61
231.879	7.7
232.263	5.48
232.646	4.73
233.03	5.68
233.413	5.78
233.797	6.1
234.18	5.59
234.563	5.57
234.946	6.14
235.33	4.75
235.713	5.31
236.096	7.03
236.479	4.3
236.862	5.54
237.245	5.71
237.628	5.15
238.011	7.46
238.394	5.33
238.777	3.45
239.16	6.97
239.543	5.83
239.925	3.9
240.308	4.79
240.691	6.64
241.073	5.65
241.456	4.36
241.838	4.73
242.221	4.45
242.603	5.92
242.986	5.31
243.368	4.78
243.75	4.92
244.133	5.49
244.515	5.07
244.897	5.11
245.279	4.86
245.661	5.2
246.043	3.77
246.425	4.41
246.807	5.64
247.189	5.15
247.571	4.87
247.953	5.03
248.335	4.91
248.717	4.78
249.098	4.97
249.48	4.8
249.862	4.65
250.243	4.94
250.625	5.33
251.006	4.71
251.388	3.76
251.769	5.31
252.151	4.69
252.532	5.63
252.913	4.98
253.295	5.17
253.676	4.55
254.057	5.26
254.438	4.7
254.819	5.93
255.2	5.68
255.581	4.57
255.962	5.02
256.343	4.69
256.724	4.55
257.105	4.94
257.486	3.95
257.867	4.22
258.247	3.95
258.628	5.38
259.009	6.01
259.389	4.67
259.77	5.22
260.15	4.45
260.531	5.08
260.911	4.7
261.292	4.49
261.672	4.5
262.052	4.53
262.432	4.54
262.813	5.34
263.193	4.79
263.573	4.63
263.953	4.61
264.333	5.17
264.713	4
265.093	4.46
265.473	4.51
265.853	4.72
266.233	3.92
266.612	3.59
266.992	3.71
267.372	3.54
267.752	4.33
268.131	4.16
268.511	4.57
268.89	4.65
269.27	4.59
269.649	4.53
270.029	4.34
270.408	4.39
270.787	4.63
271.167	4.42
271.546	4.58
271.925	4.84
272.304	4.73
272.683	4.61
273.062	4.69
273.441	4.52
273.82	4.2
274.199	4.33
274.578	4.23
274.957	4.15
275.336	4.01
275.715	4.89
276.093	4.51
276.472	4.38
276.851	4.06
277.229	4.19
277.608	4.58
277.986	4.29
278.365	4.78
278.743	4.22
279.122	4.67
279.5	4.37
279.878	3.99
280.257	4.27
280.635	4.51
281.013	4.81
281.391	4.36
281.769	4.43
282.147	4.43
282.525	4.31
282.903	4.14
283.281	3.73
283.659	4.69
284.037	4.19
284.415	4.53
284.792	4.62
285.17	3.5
285.548	4.36
285.925	4.25
286.303	4.17
286.68	3.7
287.058	4.03
287.435	4.17
287.813	4.13
288.19	4.31
288.567	3.9
288.945	3.63
289.322	3.66
289.699	4.29
290.076	3.71
290.453	4.04
290.83	4.27
291.207	3.82
291.584	3.89
291.961	3.92
292.338	3.85
292.715	4.13
293.092	3.63
293.469	3.89
293.845	4.42
294.222	4.17
294.599	4.24
294.975	4.64
295.352	4.45
295.728	3.75
296.105	4.23
296.481	3.92
296.858	4.15
297.234	4.06
297.61	3.5
297.986	3.4
298.363	3.65
298.739	3.66
299.115	3.49
299.491	3.76
299.867	4.07
300.243	3.49
300.619	3.15
300.995	4.04
301.371	3.7
301.746	3.59
302.122	3.84
302.498	3.67
302.874	3.78
303.249	3.54
303.625	3.61
304	3.99
304.376	4.03
304.751	3.67
305.127	3.33
305.502	3.71
305.878	3.91
306.253	3.7
306.628	3.43
307.003	3.76
307.378	3.54
307.754	3.71
308.129	3.73
308.504	3.22
308.879	3.7
309.254	3.41
309.629	3.6
310.003	3.5
310.378	3.31
310.753	3.29
311.128	3.48
311.502	3.62
311.877	3.47
312.252	3.82
312.626	3.41
313.001	3.37
313.375	3.31
313.75	3.98
314.124	3.67
314.498	3.39
314.873	3.69
315.247	3.39
315.621	3.4
315.995	3.88
316.369	3.09
316.743	3.18
317.117	3.94
317.491	3.92
317.865	3.79
318.239	4.16
318.613	3.24
318.987	3.43
319.361	3.1
319.734	2.94
320.108	3.3
320.482	3.02
320.855	3.63
321.229	3.48
321.602	3.81
321.976	3.51
322.349	3.26
322.723	2.82
323.096	3.77
323.469	3.79
323.843	3.38
324.216	3.26
324.589	3.68
324.962	3.46
325.335	3.05
325.708	3.74
326.081	3.92
326.454	3.25
326.827	3.15
327.2	3.16
327.573	3.35
327.945	3.2
328.318	2.78
328.691	3.82
329.063	3.32
329.436	3.04
329.809	3.72
330.181	3.5
330.553	3.56
330.926	3.75
331.298	3.25
331.671	3.02
332.043	2.82
332.415	3.41
332.787	3.43
333.159	3.51
333.532	3.52
333.904	3.43
334.276	3.6
334.648	3.08
335.02	3.52
335.391	3.41
335.763	3.42
336.135	3.56
336.507	3.38
336.879	3.54
337.25	2.92
337.622	3.27
337.993	3.19
338.365	3.15
338.736	3.17
339.108	3.34
339.479	3.54
339.851	2.77
340.222	3.56
340.593	3.07
340.964	3.15
341.336	3.4
341.707	3.53
342.078	3.14
342.449	3.16
342.82	2.94
343.191	3.46
343.562	3.41
343.933	3.23
344.303	3.34
344.674	3.36
345.045	3.4
345.416	3.3
345.786	3.35
346.157	3.48
346.527	3.2
346.898	3.29
347.268	3.27
347.639	3.11
348.009	3.38
348.38	3.41
348.75	4.04
349.12	3.57
349.49	4.04
349.861	3.34
350.231	3.83
350.601	3.48
350.971	3.43
351.341	3.33
351.711	3.53
352.081	3.18
352.45	3.23
352.82	3.35
353.19	3.72
353.56	3.22
353.929	3.29
354.299	3.5
354.669	3.18
355.038	3.43
355.408	3.43
355.777	3.24
356.147	3.46
356.516	3.57
356.885	3.6
357.254	3.54
357.624	3.44
357.993	3.07
358.362	3.44
358.731	3.11
359.1	3.41
359.469	3.23
359.838	3.73
360.207	3.73
360.576	3.43
360.945	3.46
361.314	3.36
361.682	3.37
362.051	3.48
362.42	3.5
362.788	3.43
363.157	3.37
363.525	3.35
363.894	3.67
364.262	3.63
364.631	3.82
364.999	3.79
365.367	3.97
365.735	3.19
366.104	3.32
366.472	3.81
366.84	3.41
367.208	3.96
367.576	3.9
367.944	3.9
368.312	3.39
368.68	3.44
369.048	3.23
369.416	3.63
369.783	3.53
370.151	3.47
370.519	3.9
370.886	3.88
371.254	3.68
371.621	3.99
371.989	3.87
372.356	3.67
372.724	3.76
373.091	3.45
373.458	3.25
373.826	3.68
374.193	3.71
374.56	3.94
374.927	4.05
375.294	3.93
375.661	3.46
376.028	3.62
376.395	3.86
376.762	3.89
377.129	4.1
377.496	3.89
377.863	3.34
378.229	3.81
378.596	3.76
378.963	3.68
379.329	3.7
379.696	3.96
380.062	3.89
380.429	4.01
380.795	3.58
381.161	3.58
381.528	3.8
381.894	3.76
382.26	3.6
382.626	3.57
382.993	3.99
383.359	3.7
383.725	3.79
384.091	3.83
384.457	3.96
384.823	4.02
385.188	3.94
385.554	3.91
385.92	3.94
386.286	4.05
386.651	3.87
387.017	3.71
387.383	3.71
387.748	3.67
388.114	3.8
388.479	3.84
388.845	3.69
389.21	3.75
389.575	3.89
389.94	3.81
390.306	3.86
390.671	3.84
391.036	3.79
391.401	3.58
391.766	3.83
392.131	3.78
392.496	3.99
392.861	3.86
393.226	3.78
393.591	3.81
393.956	4.15
394.32	4.03
394.685	3.73
395.05	4.03
395.414	4.01
395.779	3.73
396.143	4.03
396.508	4.05
396.872	4.05
397.236	3.72
397.601	4.07
397.965	3.85
398.329	3.97
398.694	3.93
399.058	3.96
399.422	3.95
399.786	3.9
400.15	3.83
400.514	4.05
400.878	4.15
401.242	3.73
401.605	3.83
401.969	4.11
402.333	4.09
402.697	4.14
403.06	4.06
403.424	3.85
403.787	4.03
404.151	4.28
404.514	4.15
404.878	3.89
405.241	4.08
405.604	4.13
405.968	4.1
406.331	3.98
406.694	3.84
407.057	4.07
407.42	4.23
407.783	3.85
408.146	4
408.509	4.04
408.872	4.11
409.235	3.94
409.598	3.86
409.961	3.92
410.323	4.15
410.686	4.46
411.049	4.08
411.411	4.08
411.774	4.08
412.136	4.17
412.499	4.12
412.861	4.03
413.223	3.97
413.586	3.96
413.948	4.12
414.31	4.35
414.672	4.02
415.035	4.04
415.397	4.21
415.759	4.16
416.121	4.14
416.483	4.16
416.845	4.12
417.206	4.38
417.568	4.09
417.93	3.88
418.292	4.14
418.653	3.96
419.015	4.08
419.377	4.11
419.738	4.03
420.1	4.14
420.461	4.2
420.822	4.11
421.184	3.93
421.545	4
421.906	3.83
422.267	3.98
422.629	4.09
422.99	3.98
423.351	4.05
423.712	4.11
424.073	4.1
424.434	4.09
424.795	4.11
425.155	3.98
425.516	4.08
425.877	4.12
426.238	4.08
426.598	4.17
426.959	4.07
427.32	4.1
427.68	4.15
428.041	4.09
428.401	4.15
428.761	4.11
429.122	4.22
429.482	4.13
429.842	4.25
430.202	4.06
430.563	4.11
430.923	4.11
431.283	4.03
431.643	4.17
432.003	4.13
432.363	4.14
432.722	4.16
433.082	4.28
433.442	4.09
433.802	4.14
434.161	4.15
434.521	4.17
434.881	4.06
435.24	4.2
435.6	4.17
435.959	4.09
436.319	4.16
436.678	4.16
437.037	4.24
437.396	4.23
437.756	4.2
438.115	4.05
438.474	4.16
438.833	4.28
439.192	4.23
439.551	4.23
439.91	4.14
440.269	3.95
440.628	4.17
440.987	4.2
441.345	4.2
441.704	4.1
442.063	4.2
442.421	4.13
442.78	4.16
443.138	4.11
443.497	4.17
443.855	4.33
444.214	4.14
444.572	4.3
444.93	4.11
445.288	4.33
445.647	4.2
446.005	4.17
446.363	4.28
446.721	4.24
447.079	4.13
447.437	4.11
447.795	4.15
448.153	4.06
448.51	4.11
448.868	4.05
449.226	4.17
449.584	4.06
449.941	4.2
450.299	4.25
450.656	4.16
451.014	4.33
451.371	4.34
451.729	4.36
452.086	4.2
452.443	4.35
452.801	4.27
453.158	4.21
453.515	4.07
453.872	4.32
454.229	4.33
454.586	4.35
454.943	4.37
455.3	4.26
455.657	4.42
456.014	4.12
456.371	4.08
456.727	4.23
457.084	4.26
457.441	4.34
457.797	4.28
458.154	4.03
458.51	4.19
458.867	4.32
459.223	4.29
459.58	4.35
459.936	4.39
460.292	4.29
460.648	4.16
461.005	4.22
461.361	4.17
461.717	4.11
462.073	4.22
462.429	4.23
462.785	4.21
463.141	4.37
463.496	4.24
463.852	4.16
464.208	4.32
464.564	4.15
464.919	4.29
465.275	4.37
465.631	4.5
465.986	4.28
466.342	4.31
466.697	4.42
467.052	4.17
467.408	4.18
467.763	4.17
468.118	4.24
468.473	4.13
468.829	4.21
469.184	4.3
469.539	4.34
469.894	4.43
470.249	4.23
470.603	4.35
470.958	4.31
471.313	4.26
471.668	4.25
472.023	4.3
472.377	4.17
472.732	4.26
473.086	4.26
473.441	4.44
473.795	4.22
474.15	4.12
474.504	4.23
474.859	4.34
475.213	4.34
475.567	4.19
475.921	4.25
476.275	4.1
476.63	4.18
476.984	4.31
477.338	4.26
477.692	4.29
478.045	4.3
478.399	4.25
478.753	4.16
479.107	4.28
479.461	4.21
479.814	4.14
480.168	4.32
480.521	4.19
480.875	4.32
481.228	4.22
481.582	4.27
481.935	4.25
482.289	4.29
482.642	4.3
482.995	4.17
483.348	4.17
483.701	4.16
484.055	4.08
484.408	4.13
484.761	4.02
485.114	3.94
485.466	3.9
485.819	3.92
486.172	4.02
486.525	4.12
486.878	4.14
487.23	4.15
487.583	4.11
487.936	4.19
488.288	4.13
488.641	4.02
488.993	4.03
489.345	4.01
489.698	4.05
490.05	4.08
490.402	4.08
490.754	4.19
491.107	4.15
491.459	4.17
491.811	4.17
492.163	4.21
492.515	4.14
492.866	4.05
493.218	3.95
493.57	3.99
493.922	4.11
494.274	4.1
494.625	4.2
494.977	4.2
495.328	4.12
495.68	4.09
496.031	4.27
496.383	4.17
496.734	4.27
497.086	4.33
497.437	4.11
497.788	4.27
498.139	4.13
498.49	4.05
498.842	4.23
499.193	4.24
499.544	4.19
499.894	4.19
500.245	4.17
500.596	4.09
500.947	4.24
501.298	4.33
501.648	4.2
501.999	4.25
502.35	4.23
502.7	4.29
503.051	4.18
503.401	4.34
503.752	4.28
504.102	4.28
504.452	4.13
504.803	4.19
505.153	4.27
505.503	4.18
505.853	4.23
506.203	4.09
506.553	4.22
506.903	4.27
507.253	4.28
507.603	4.34
507.953	4.39
508.303	4.41
508.652	4.25
509.002	4.28
509.352	4.21
509.701	4.19
510.051	4.25
510.4	4.2
510.75	4.26
511.099	4.12
511.449	4.16
511.798	4.14
512.147	4.22
512.496	4.13
512.846	4.21
513.195	4.26
513.544	4.21
513.893	4.25
514.242	4.17
514.591	4.24
514.939	4.16
515.288	4.22
515.637	4.16
515.986	4.3
516.334	4.21
516.683	4.11
517.032	4.04
517.38	4.1
517.729	4.21
518.077	4.11
518.426	4.17
518.774	4.32
519.122	4.19
519.47	4.22
519.819	4.13
520.167	4.22
520.515	4.08
520.863	4.18
521.211	4.23
521.559	4.27
521.907	4.18
522.255	4.1
522.602	4.23
522.95	4.27
523.298	4.28
523.645	4.24
523.993	4.31
524.341	4.27
524.688	4.22
525.036	4.16
525.383	4.09
525.73	4.25
526.078	4.22
526.425	4.08
526.772	4.24
527.119	4.06
527.466	4.02
527.814	4.01
528.161	4.04
528.508	4.06
528.854	4.09
529.201	4.11
529.548	3.95
529.895	3.96
530.242	3.94
530.588	3.98
530.935	4.06
531.282	4.07
531.628	4.06
531.975	4.1
532.321	4.1
532.667	4.16
533.014	4.12
533.36	4.05
533.706	4.16
534.052	4.09
534.399	3.99
534.745	4.01
535.091	3.96
535.437	4.11
535.783	4.05
536.129	4.12
536.474	4.11
536.82	4.09
537.166	4.13
537.512	4.01
537.857	4.19
538.203	4.13
538.549	4
538.894	4.16
539.239	4.09
539.585	4.25
539.93	4.13
540.276	4.07
540.621	4.23
540.966	4.16
541.311	4.22
541.656	4.19
542.001	4.04
542.346	4.09
542.691	3.95
543.036	3.99
543.381	3.97
543.726	4
544.071	4.13
544.415	4.09
544.76	4.06
545.105	4.04
545.449	4.05
545.794	4.1
546.138	4.17
546.483	4.18
546.827	4.05
547.171	4.19
547.516	4.08
547.86	4.12
548.204	4.07
548.548	4.11
548.892	4.2
549.236	4.12
549.58	4.16
549.924	4.06
550.268	4.27
550.612	4.24
550.956	4.23
551.3	4.25
551.643	4.17
551.987	4.2
552.33	4.24
552.674	4.34
553.017	4.03
553.361	3.93
553.704	4.22
554.048	4.1
554.391	4.19
554.734	4.19
555.077	4.14
555.42	4.2
555.764	4.12
556.107	4.21
556.45	3.99
556.793	4.06
557.135	4.19
557.478	4.16
557.821	4.23
558.164	4.24
558.507	4.19
558.849	4.2
559.192	4.06
559.534	4.14
559.877	4.26
560.219	4.24
560.562	4.22
560.904	4.17
561.246	4.17
561.589	4.09
561.931	4.09
562.273	4.26
562.615	4.14
562.957	4
563.299	4.25
563.641	4.11
563.983	4.09
564.325	4.23
564.667	4.32
565.008	4.09
565.35	4.13
565.692	4.3
566.033	4.07
566.375	4.07
566.716	4.11
567.058	4.05
567.399	4.04
567.741	4.1
568.082	4.2
568.423	4.15
568.764	4.18
569.105	4.07
569.447	4.12
569.788	4.19
570.129	4.13
570.47	4.17
570.811	4.15
571.151	4.17
571.492	4.15
571.833	4.1
572.174	3.91
572.514	4.01
572.855	4.06
573.195	4.06
573.536	4.07
573.876	4
574.217	4.02
574.557	4.2
574.898	4.11
575.238	4.18
575.578	4.21
575.918	4.04
576.258	4.22
576.598	4.06
576.938	4.08
577.278	4.18
577.618	4.25
577.958	4.11
578.298	4
578.638	4.23
578.977	4.15
579.317	3.89
579.657	4.02
579.996	3.83
580.336	4.01
580.675	4.06
581.014	3.93
581.354	3.9
581.693	4.21
582.032	4.05
582.372	3.98
582.711	3.98
583.05	4.11
583.389	4.02
583.728	4.04
584.067	4.35
584.406	3.98
584.745	4.16
585.083	4.07
585.422	4.04
585.761	4.09
586.1	4.07
586.438	4.24
586.777	4.27
587.115	4.22
587.454	4.13
587.792	3.8
588.13	4.09
588.469	3.86
588.807	4.01
589.145	3.81
589.483	4.15
589.821	4.06
590.159	4.17
590.497	3.95
590.835	3.88
591.173	4.09
591.511	3.94
591.849	3.96
592.187	4.08
592.524	4.01
592.862	4.14
593.2	4.08
593.537	3.96
593.875	4.23
594.212	3.99
594.55	3.99
594.887	4.38
595.224	4.41
595.561	4.01
595.899	3.9
596.236	4.03
596.573	3.97
596.91	4.05
597.247	3.76
597.584	3.99
597.921	3.95
598.258	3.82
598.594	3.75
598.931	3.88
599.268	3.81
599.604	3.97
599.941	3.97
600.277	3.81
600.614	4.01
600.95	4.16
601.287	4.05
601.623	4.18
601.959	4.04
602.296	4.07
602.632	3.82
602.968	3.97
603.304	3.79
603.64	4
603.976	3.79
604.312	3.71
604.648	4.09
604.984	4.09
605.319	3.86
605.655	3.99
605.991	4.05
606.326	4.1
606.662	3.99
606.998	3.89
607.333	3.92
607.668	3.83
608.004	3.98
608.339	3.97
608.674	3.77
609.01	3.74
609.345	3.55
609.68	4.02
610.015	4.23
610.35	3.96
610.685	3.96
611.02	3.71
611.355	3.78
611.689	3.58
612.024	3.99
612.359	3.97
612.694	4.08
613.028	4.09
613.363	3.99
613.697	3.93
614.032	3.97
614.366	3.79
614.7	3.95
615.035	4.09
615.369	3.86
615.703	4.03
616.037	3.91
616.371	3.86
616.705	3.97
617.039	4.19
617.373	4.02
617.707	3.81
618.041	3.72
618.375	3.75
618.709	4.2
619.042	3.47
619.376	3.94
619.71	4.06
620.043	4.34
620.377	3.81
620.71	3.82
621.043	4.22
621.377	4.12
621.71	3.65
622.043	3.79
622.376	3.73
622.709	3.93
623.043	3.95
623.376	3.77
623.709	3.8
624.041	4.07
624.374	3.98
624.707	3.41
625.04	3.97
625.373	4.05
625.705	3.91
626.038	3.72
626.37	3.71
626.703	3.88
627.035	3.86
627.368	3.9
627.7	3.84
628.032	3.94
628.365	3.57
628.697	3.97
629.029	3.89
629.361	3.92
629.693	3.9
630.025	3.92
630.357	4.01
630.689	3.93
631.021	3.79
631.353	3.64
631.684	3.77
632.016	4.16
632.348	3.8
632.679	3.82
633.011	3.84
633.342	3.95
633.674	4.12
634.005	3.8
634.336	3.97
634.668	3.83
634.999	3.92
635.33	4.18
635.661	3.78
635.992	3.98
636.323	3.76
636.654	3.72
636.985	3.84
637.316	3.68
637.647	3.91
637.977	3.98
638.308	4.02
638.639	3.91
638.969	3.77
639.3	3.82
639.63	3.61
639.961	4.15
640.291	3.7
640.622	3.92
640.952	3.94
641.282	3.89
641.612	4.18
641.943	3.73
642.273	4.08
642.603	3.73
642.933	3.91
643.263	3.96
643.592	3.96
643.922	3.82
644.252	3.85
644.582	4.23
644.911	4.1
645.241	3.83
645.571	3.73
645.9	3.59
646.23	3.79
646.559	3.8
646.888	4.08
647.218	3.16
647.547	3.65
647.876	3.93
648.205	3.71
648.534	3.78
648.863	3.89
649.192	3.55
649.521	3.35
649.85	3.68
650.179	3.88
650.508	3.51
650.837	3.62
651.165	3.43
651.494	3.76
651.822	4.09
652.151	3.82
652.479	4.11
652.808	3.97
653.136	3.52
653.465	3.86
653.793	3.82
654.121	3.44
654.449	4.22
654.777	3.7
655.105	4.01
655.433	4.04
655.761	3.87
656.089	3.78
656.417	3.47
656.745	3.52
657.073	3.36
657.4	4.27
657.728	3.88
658.056	3.67
658.383	4.13
658.711	4.33
659.038	3.82
659.365	3.58
659.693	3.45
660.02	3.76
660.347	3.55
660.674	3.79
661.001	3.83
661.329	4
661.656	3.9
661.982	3.75
662.309	3.92
662.636	3.46
662.963	3.43
663.29	2.99
663.616	3.55
663.943	3.97
664.27	3.22
664.596	3.56
664.923	3.44
665.249	3.71
665.576	3.61
665.902	3.97
666.228	3.83
666.554	3.56
666.881	3.69
667.207	3.96
667.533	3.66
667.859	4
668.185	4.31
668.511	4.19
668.837	3.58
669.162	4.04
669.488	3.15
669.814	3.57
670.139	3.51
670.465	3.86
670.791	3.46
671.116	3.41
671.442	4.32
671.767	4.06
672.092	3.56
672.418	3.32
672.743	3.9
673.068	4.11
673.393	4.2
673.718	3.47
674.043	4.36
674.368	4.23
674.693	3.57
675.018	3.53
675.343	3.96
675.667	4.4
675.992	3.6
676.317	3.8
676.641	3.6
676.966	3.49
677.29	3.13
677.615	3.23
677.939	3.85
678.264	3.53
678.588	4.19
678.912	3.59
679.236	3.21
679.56	3.66
679.885	3.48
680.209	3.47
680.532	3.73
680.856	3.89
681.18	3.97
681.504	3.7
681.828	3.15
682.152	3.59
682.475	3.84
682.799	3.64
683.122	3.77
683.446	4
683.769	4.28
684.093	4.2
684.416	4.52
684.739	3.98
685.062	3.94
685.386	4.14
685.709	3.93
686.032	4.2
686.355	3.76
686.678	3.37
687.001	3.83
687.324	3.59
687.646	3.66
687.969	3.78
688.292	4.2
688.614	3.63
688.937	3.88
689.26	3.74
689.582	3.61
689.904	4.36
690.227	3.48
690.549	3.02
690.871	4.22
691.194	3.8
691.516	3.68
691.838	3.41
692.16	3.52
692.482	3.64
