Data from 1886-1_forehead_Reflection__2__88.txt Node

Date: Fri Sep 30 18:25:50 CDT 2022
User: ToomeyLab
Spectrometer: FLMS14357
Trigger mode: 0
Integration Time (sec): 1.000000E-2
Scans to average: 100
Electric dark correction enabled: true
Nonlinearity correction enabled: false
Boxcar width: 0
XAxis mode: Wavelengths
Number of Pixels in Spectrum: 2048
>>>>>Begin Spectral Data<<<<<
189.047	3112.22
189.435	3112.22
189.823	3112.22
190.211	23.69
190.599	-187.28
190.987	57.49
191.375	28.6
191.763	1555.26
192.151	95.76
192.538	-49.86
192.926	-26.77
193.314	-977.35
193.702	134.58
194.089	62.23
194.477	196.72
194.864	-126.41
195.252	-2.49
195.639	530.92
196.027	55.99
196.414	100.99
196.801	90.54
197.189	129.38
197.576	-321.95
197.963	-590.76
198.351	8.72
198.738	3.52
199.125	64.21
199.512	20.97
199.899	-13.32
200.286	72.04
200.673	43.04
201.06	81.59
201.447	28.77
201.833	88.75
202.22	36.25
202.607	66.25
202.994	58.34
203.38	16.96
203.767	21.45
204.154	45.12
204.54	34.13
204.927	42.97
205.313	5.25
205.699	44.2
206.086	12.86
206.472	35.65
206.858	50.46
207.245	39.05
207.631	36.82
208.017	43.72
208.403	24.15
208.789	79.52
209.175	43.39
209.561	40.1
209.947	44.11
210.333	-3.44
210.719	22.29
211.105	18.26
211.491	23.55
211.876	40.76
212.262	42.13
212.648	62.55
213.034	4.72
213.419	31.52
213.805	49.73
214.19	31.68
214.576	28.85
214.961	10.01
215.346	28.17
215.732	47.39
216.117	36.45
216.502	34.35
216.888	32.76
217.273	4.29
217.658	45.86
218.043	21.46
218.428	47.58
218.813	29.22
219.198	29.52
219.583	29.74
219.968	63.78
220.353	14.62
220.738	18.83
221.122	16.62
221.507	23.58
221.892	14.81
222.276	22.52
222.661	20.78
223.046	10.98
223.43	4.23
223.815	21.64
224.199	19.07
224.583	7.26
224.968	9.66
225.352	6.62
225.736	14.21
226.121	13
226.505	9.88
226.889	6
227.273	3.53
227.657	7.75
228.041	6.28
228.425	10.09
228.809	8.63
229.193	6.57
229.577	3.42
229.961	5.71
230.344	4.55
230.728	4.35
231.112	4.63
231.495	4.82
231.879	6.83
232.263	4.36
232.646	4.62
233.03	5.62
233.413	3.72
233.797	6.03
234.18	5.05
234.563	5.32
234.946	7.55
235.33	4.36
235.713	5.71
236.096	6.29
236.479	6.97
236.862	5.12
237.245	6.49
237.628	6.49
238.011	6.38
238.394	5.46
238.777	3.03
239.16	3.75
239.543	5.02
239.925	7.02
240.308	4.1
240.691	6.73
241.073	5.59
241.456	4.75
241.838	5.53
242.221	4.65
242.603	5.05
242.986	5.18
243.368	3.96
243.75	4.38
244.133	4.53
244.515	4.4
244.897	4.73
245.279	4.75
245.661	5.65
246.043	4.72
246.425	4.52
246.807	5.48
247.189	5.51
247.571	5.38
247.953	4.83
248.335	4.44
248.717	4.52
249.098	4.52
249.48	4.4
249.862	4.53
250.243	4.22
250.625	4.66
251.006	4.89
251.388	3.49
251.769	5.31
252.151	5.91
252.532	4.66
252.913	5.32
253.295	5.14
253.676	4.2
254.057	5.02
254.438	4.52
254.819	5.37
255.2	5.05
255.581	6.17
255.962	4.11
256.343	5.7
256.724	5.98
257.105	6.32
257.486	6.19
257.867	5.09
258.247	4.45
258.628	5.31
259.009	5.77
259.389	4.76
259.77	5.15
260.15	4.12
260.531	5.17
260.911	4.53
261.292	4.3
261.672	4.31
262.052	4.34
262.432	4.37
262.813	5.13
263.193	4.51
263.573	4.81
263.953	4.05
264.333	5.39
264.713	4.67
265.093	4.28
265.473	4.64
265.853	5.19
266.233	4.68
266.612	4.52
266.992	3.97
267.372	3.98
267.752	4.53
268.131	4.61
268.511	4.37
268.89	4.33
269.27	4.98
269.649	4.62
270.029	4.72
270.408	4.7
270.787	4.43
271.167	4.04
271.546	4.39
271.925	5.09
272.304	4.94
272.683	4.5
273.062	4.63
273.441	4.84
273.82	4
274.199	4.46
274.578	4.61
274.957	4.44
275.336	4.21
275.715	4.04
276.093	4.73
276.472	4.41
276.851	4.55
277.229	5.09
277.608	4.64
277.986	4.51
278.365	4.62
278.743	4.35
279.122	4.98
279.5	4.78
279.878	4.05
280.257	4.56
280.635	4.58
281.013	5.64
281.391	4.96
281.769	4.37
282.147	4.67
282.525	4.36
282.903	4.27
283.281	4.45
283.659	4.31
284.037	4.6
284.415	4.7
284.792	4.54
285.17	3.84
285.548	4.49
285.925	4.72
286.303	4.13
286.68	3.75
287.058	4.45
287.435	4.58
287.813	4.58
288.19	4.59
288.567	4.55
288.945	4.32
289.322	4.49
289.699	4.6
290.076	4.64
290.453	4.76
290.83	4.82
291.207	4.51
291.584	4.41
291.961	4.66
292.338	4.74
292.715	5.02
293.092	4.76
293.469	4.94
293.845	5.42
294.222	5.23
294.599	5.54
294.975	5.58
295.352	4.81
295.728	5.27
296.105	5.39
296.481	5.58
296.858	5.55
297.234	5.45
297.61	5.37
297.986	4.75
298.363	5.23
298.739	5.2
299.115	5.29
299.491	5.3
299.867	5.69
300.243	5.29
300.619	5.05
300.995	6.18
301.371	6.11
301.746	5.72
302.122	6.21
302.498	6.01
302.874	5.8
303.249	5.95
303.625	6.6
304	6.63
304.376	6.22
304.751	6.05
305.127	5.85
305.502	6.12
305.878	6.42
306.253	5.85
306.628	6.16
307.003	5.99
307.378	6.6
307.754	5.98
308.129	6.36
308.504	6.46
308.879	6.78
309.254	6.67
309.629	6.93
310.003	6.65
310.378	6.91
310.753	6.64
311.128	6.76
311.502	7.13
311.877	7.1
312.252	7.61
312.626	7.5
313.001	7.16
313.375	7.32
313.75	7.47
314.124	7.23
314.498	7.35
314.873	7.47
315.247	7.53
315.621	8.31
315.995	7.82
316.369	7.58
316.743	8.24
317.117	8.49
317.491	8.94
317.865	8.8
318.239	8.63
318.613	8.65
318.987	8.64
319.361	8.28
319.734	8.39
320.108	8.94
320.482	8.57
320.855	8.78
321.229	8.62
321.602	8.87
321.976	8.96
322.349	8.78
322.723	8.54
323.096	9.58
323.469	9.47
323.843	9.25
324.216	9.01
324.589	9.85
324.962	9.75
325.335	8.88
325.708	9.23
326.081	9.61
326.454	9.78
326.827	9.25
327.2	9.72
327.573	9.6
327.945	9.54
328.318	9.6
328.691	10.58
329.063	9.89
329.436	9.85
329.809	10.34
330.181	10.34
330.553	10.28
330.926	10.27
331.298	10.08
331.671	10.32
332.043	10.6
332.415	10.26
332.787	10.43
333.159	10.29
333.532	10.96
333.904	10.69
334.276	10.72
334.648	10.64
335.02	11.2
335.391	10.54
335.763	10.49
336.135	10.76
336.507	11.22
336.879	10.91
337.25	10.59
337.622	11.02
337.993	11.02
338.365	11.1
338.736	10.77
339.108	11.02
339.479	11.58
339.851	10.8
340.222	11.54
340.593	11.27
340.964	11.27
341.336	11.34
341.707	11.31
342.078	11.42
342.449	11.7
342.82	11.99
343.191	11.34
343.562	11.49
343.933	11.71
344.303	11.86
344.674	11.78
345.045	11.67
345.416	12.07
345.786	12.47
346.157	11.91
346.527	12.09
346.898	11.65
347.268	12.11
347.639	12
348.009	12.33
348.38	12.66
348.75	12.63
349.12	12.59
349.49	12.61
349.861	12.2
350.231	12.46
350.601	12.91
350.971	12.46
351.341	12.6
351.711	12.44
352.081	12.79
352.45	13.24
352.82	12.79
353.19	13.13
353.56	13.05
353.929	12.69
354.299	12.99
354.669	13.05
355.038	13.1
355.408	13.08
355.777	12.93
356.147	13.27
356.516	13.68
356.885	13.06
357.254	13.52
357.624	13.69
357.993	13.28
358.362	13.38
358.731	13.41
359.1	13.59
359.469	13.37
359.838	13.6
360.207	13.41
360.576	13.49
360.945	13.52
361.314	13.69
361.682	14.08
362.051	13.87
362.42	13.66
362.788	13.67
363.157	13.89
363.525	13.92
363.894	13.89
364.262	13.99
364.631	14.47
364.999	14.25
365.367	14.57
365.735	14.01
366.104	14.24
366.472	14.44
366.84	14.96
367.208	14.67
367.576	14.98
367.944	14.64
368.312	14.2
368.68	14.38
369.048	14.59
369.416	14.6
369.783	14.66
370.151	14.97
370.519	15.12
370.886	14.96
371.254	15.16
371.621	15.25
371.989	15.35
372.356	15.08
372.724	14.98
373.091	15.32
373.458	15.31
373.826	15.28
374.193	15.73
374.56	15.48
374.927	15.73
375.294	15.73
375.661	15.3
376.028	15.44
376.395	15.46
376.762	15.86
377.129	15.9
377.496	16.05
377.863	15.6
378.229	16.41
378.596	16.07
378.963	16
379.329	15.77
379.696	15.99
380.062	15.93
380.429	16.22
380.795	16.16
381.161	15.96
381.528	16.14
381.894	16.12
382.26	16.24
382.626	16.55
382.993	16.54
383.359	16.47
383.725	16.25
384.091	16.72
384.457	16.77
384.823	16.74
385.188	16.78
385.554	16.57
385.92	16.88
386.286	16.89
386.651	16.99
387.017	16.86
387.383	17.25
387.748	16.81
388.114	17.14
388.479	16.86
388.845	16.8
389.21	16.97
389.575	17.38
389.94	17.27
390.306	17.37
390.671	17.35
391.036	17.57
391.401	17.46
391.766	17.75
392.131	17.25
392.496	17.64
392.861	17.75
393.226	17.56
393.591	17.61
393.956	17.78
394.32	17.4
394.685	17.1
395.05	17.91
395.414	17.89
395.779	17.84
396.143	18.12
396.508	17.68
396.872	17.82
397.236	17.8
397.601	17.87
397.965	18.11
398.329	18.3
398.694	18.3
399.058	18.4
399.422	18.47
399.786	18.26
400.15	18.32
400.514	18.22
400.878	18.29
401.242	18.13
401.605	18.23
401.969	18.24
402.333	18.45
402.697	18.74
403.06	18.71
403.424	18.56
403.787	18.93
404.151	18.8
404.514	18.95
404.878	18.82
405.241	19.07
405.604	19.01
405.968	18.89
406.331	18.88
406.694	18.93
407.057	19.01
407.42	19.07
407.783	18.78
408.146	19.02
408.509	19.17
408.872	19.46
409.235	19.33
409.598	19.34
409.961	19.13
410.323	19.5
410.686	19.36
411.049	19.43
411.411	19.49
411.774	19.81
412.136	19.79
412.499	19.48
412.861	19.54
413.223	19.5
413.586	19.58
413.948	20.08
414.31	19.99
414.672	19.93
415.035	20
415.397	20.15
415.759	19.87
416.121	19.84
416.483	19.9
416.845	20.08
417.206	20.13
417.568	20.14
417.93	19.94
418.292	20.24
418.653	19.99
419.015	20.15
419.377	20.22
419.738	20.2
420.1	20.26
420.461	20.28
420.822	20.19
421.184	20.26
421.545	20.02
421.906	20.11
422.267	20.2
422.629	20.12
422.99	20.18
423.351	20.17
423.712	20.21
424.073	20.21
424.434	20.52
424.795	20.56
425.155	20.56
425.516	20.69
425.877	20.55
426.238	20.57
426.598	20.74
426.959	20.61
427.32	20.83
427.68	21.05
428.041	21.12
428.401	21.03
428.761	21.48
429.122	21.51
429.482	21.36
429.842	21.52
430.202	21.65
430.563	21.61
430.923	21.65
431.283	21.81
431.643	21.85
432.003	21.74
432.363	21.84
432.722	21.93
433.082	21.83
433.442	21.9
433.802	22.27
434.161	22.26
434.521	22.1
434.881	21.89
435.24	22.01
435.6	22.11
435.959	22.11
436.319	22.22
436.678	22
437.037	22.32
437.396	22.38
437.756	22.3
438.115	22.5
438.474	22.63
438.833	22.75
439.192	22.5
439.551	22.67
439.91	22.75
440.269	22.59
440.628	22.6
440.987	22.9
441.345	22.64
441.704	22.67
442.063	22.78
442.421	22.72
442.78	22.7
443.138	22.73
443.497	22.68
443.855	22.99
444.214	22.85
444.572	23.09
444.93	23.12
445.288	23.28
445.647	23.22
446.005	23.21
446.363	23.33
446.721	23.35
447.079	23.43
447.437	23.33
447.795	23.19
448.153	23.09
448.51	23.06
448.868	23.24
449.226	23.18
449.584	23.42
449.941	23.29
450.299	23.46
450.656	23.66
451.014	23.77
451.371	23.97
451.729	23.77
452.086	23.94
452.443	23.98
452.801	24.22
453.158	24.06
453.515	24.23
453.872	24.34
454.229	24.27
454.586	24.34
454.943	24.28
455.3	24.25
455.657	24.59
456.014	24.42
456.371	24.4
456.727	24.59
457.084	24.69
457.441	24.59
457.797	24.57
458.154	24.65
458.51	24.62
458.867	24.89
459.223	25.08
459.58	25.05
459.936	25.1
460.292	24.94
460.648	24.91
461.005	24.94
461.361	24.81
461.717	24.71
462.073	24.64
462.429	24.63
462.785	24.81
463.141	24.9
463.496	25.16
463.852	25.28
464.208	25.5
464.564	25.34
464.919	25.53
465.275	25.69
465.631	25.71
465.986	25.82
466.342	25.72
466.697	25.7
467.052	25.77
467.408	25.71
467.763	25.88
468.118	25.95
468.473	25.83
468.829	25.8
469.184	25.98
469.539	26
469.894	26.06
470.249	26.12
470.603	26.05
470.958	26.14
471.313	26.22
471.668	26.07
472.023	26.36
472.377	26.16
472.732	26.45
473.086	26.5
473.441	26.63
473.795	26.51
474.15	26.51
474.504	26.67
474.859	26.54
475.213	26.49
475.567	26.51
475.921	26.71
476.275	26.64
476.63	26.76
476.984	26.87
477.338	26.95
477.692	26.99
478.045	27
478.399	26.89
478.753	26.92
479.107	26.83
479.461	26.96
479.814	26.99
480.168	27.02
480.521	27.19
480.875	27.11
481.228	27.06
481.582	27.13
481.935	27.4
482.289	27.54
482.642	27.18
482.995	27.19
483.348	27.35
483.701	27.14
484.055	27.3
484.408	27.2
484.761	27.08
485.114	27.08
485.466	27
485.819	26.8
486.172	26.42
486.525	26.21
486.878	26.31
487.23	26.6
487.583	26.77
487.936	27.16
488.288	27.33
488.641	27.37
488.993	27.31
489.345	27.15
489.698	27.08
490.05	27.04
490.402	26.98
490.754	27.1
491.107	27.22
491.459	27.43
491.811	27.68
492.163	27.95
492.515	28.01
492.866	28.02
493.218	27.92
493.57	27.6
493.922	27.42
494.274	27.46
494.625	27.53
494.977	27.76
495.328	28.05
495.68	28.23
496.031	28.38
496.383	28.67
496.734	28.78
497.086	28.9
497.437	29.01
497.788	28.87
498.139	28.98
498.49	28.85
498.842	28.69
499.193	28.69
499.544	28.8
499.894	28.87
500.245	28.78
500.596	29.09
500.947	29.07
501.298	29.19
501.648	29.35
501.999	29.35
502.35	29.22
502.7	29.51
503.051	29.57
503.401	29.5
503.752	29.63
504.102	29.53
504.452	29.51
504.803	29.71
505.153	29.7
505.503	29.87
505.853	29.65
506.203	29.57
506.553	29.69
506.903	29.71
507.253	29.84
507.603	29.94
507.953	30.06
508.303	30.05
508.652	30.14
509.002	30.23
509.352	30.07
509.701	30.06
510.051	30.18
510.4	30.13
510.75	30
511.099	29.85
511.449	30
511.798	30.05
512.147	30.05
512.496	30.11
512.846	30.24
513.195	30.46
513.544	30.31
513.893	30.51
514.242	30.32
514.591	30.52
514.939	30.32
515.288	30.69
515.637	30.54
515.986	30.66
516.334	30.85
516.683	30.78
517.032	30.75
517.38	30.87
517.729	31.27
518.077	30.92
518.426	31.03
518.774	31.14
519.122	31.03
519.47	31.05
519.819	30.89
520.167	31.25
520.515	30.9
520.863	30.74
521.211	30.77
521.559	30.79
521.907	30.92
522.255	30.87
522.602	31.16
522.95	31.26
523.298	31.38
523.645	31.56
523.993	31.51
524.341	31.55
524.688	31.62
525.036	31.88
525.383	31.86
525.73	31.84
526.078	31.8
526.425	31.79
526.772	31.79
527.119	31.74
527.466	31.62
527.814	31.54
528.161	31.39
528.508	31.43
528.854	31.5
529.201	31.57
529.548	31.6
529.895	31.68
530.242	31.86
530.588	31.52
530.935	31.28
531.282	30.9
531.628	30.93
531.975	31.28
532.321	31.32
532.667	31.57
533.014	31.75
533.36	31.9
533.706	32.18
534.052	32.36
534.399	32.21
534.745	32.19
535.091	32.11
535.437	31.97
535.783	31.76
536.129	31.75
536.474	31.93
536.82	32.1
537.166	32.47
537.512	32.63
537.857	32.85
538.203	32.89
538.549	32.58
538.894	32.64
539.239	32.54
539.585	32.48
539.93	32.59
540.276	32.88
540.621	33.24
540.966	33.15
541.311	33.27
541.656	33.39
542.001	33.34
542.346	33.28
542.691	33.28
543.036	33.1
543.381	32.83
543.726	32.71
544.071	32.59
544.415	32.51
544.76	32.78
545.105	32.86
545.449	33.1
545.794	33.26
546.138	33.31
546.483	33.3
546.827	33.41
547.171	33.68
547.516	33.68
547.86	33.71
548.204	33.84
548.548	33.73
548.892	33.89
549.236	33.72
549.58	33.91
549.924	33.72
550.268	33.99
550.612	34.08
550.956	34.38
551.3	34.37
551.643	34.48
551.987	34.33
552.33	34.89
552.674	34.83
553.017	34.54
553.361	34.59
553.704	34.71
554.048	34.77
554.391	34.84
554.734	34.79
555.077	34.6
555.42	34.68
555.764	34.69
556.107	34.77
556.45	34.81
556.793	34.93
557.135	35.24
557.478	35.09
557.821	34.97
558.164	35.41
558.507	35.24
558.849	35.07
559.192	35.18
559.534	35.03
559.877	35.14
560.219	35.32
560.562	35.63
560.904	35.38
561.246	35.26
561.589	35.34
561.931	35.61
562.273	35.78
562.615	35.53
562.957	35.72
563.299	35.65
563.641	35.73
563.983	35.61
564.325	35.71
564.667	35.89
565.008	36.09
565.35	35.78
565.692	35.75
566.033	35.86
566.375	36
566.716	36.36
567.058	36.21
567.399	36.07
567.741	35.96
568.082	36.1
568.423	36.14
568.764	35.86
569.105	36
569.447	35.97
569.788	36.05
570.129	36.33
570.47	36.48
570.811	36.38
571.151	36.72
571.492	36.63
571.833	36.36
572.174	36.69
572.514	36.59
572.855	36.86
573.195	36.69
573.536	36.71
573.876	36.57
574.217	36.54
574.557	36.53
574.898	36.7
575.238	36.6
575.578	36.71
575.918	36.76
576.258	36.79
576.598	37.12
576.938	37.14
577.278	37
577.618	37.15
577.958	36.92
578.298	37.08
578.638	37.12
578.977	37.06
579.317	37.16
579.657	36.94
579.996	37.26
580.336	37.15
580.675	37.36
581.014	37.66
581.354	37.6
581.693	37.32
582.032	37.59
582.372	37.99
582.711	37.46
583.05	37.88
583.389	37.64
583.728	37.74
584.067	37.8
584.406	37.67
584.745	37.89
585.083	37.85
585.422	38.02
585.761	37.89
586.1	37.89
586.438	37.99
586.777	38.57
587.115	38.35
587.454	38.25
587.792	37.76
588.13	38.48
588.469	38.34
588.807	38.28
589.145	38.27
589.483	38.43
589.821	38.6
590.159	38.51
590.497	38.64
590.835	38.59
591.173	38.24
591.511	38.59
591.849	38.68
592.187	38.55
592.524	38.34
592.862	38.53
593.2	38.52
593.537	38.44
593.875	38.61
594.212	38.71
594.55	38.82
594.887	38.8
595.224	38.67
595.561	38.98
595.899	39.06
596.236	38.78
596.573	39.01
596.91	38.9
597.247	38.84
597.584	38.82
597.921	38.74
598.258	39.15
598.594	39.01
598.931	39.07
599.268	38.96
599.604	39.05
599.941	38.82
600.277	38.95
600.614	39.09
600.95	39.3
601.287	39.16
601.623	39.33
601.959	39.39
602.296	39.67
602.632	39.54
602.968	39.69
603.304	39.53
603.64	39.52
603.976	40.02
604.312	39.76
604.648	39.98
604.984	39.78
605.319	39.66
605.655	40
605.991	39.8
606.326	39.7
606.662	39.96
606.998	39.61
607.333	39.37
607.668	39.44
608.004	39.64
608.339	39.72
608.674	39.86
609.01	39.96
609.345	39.98
609.68	40.19
610.015	40.38
610.35	40.2
610.685	40.29
611.02	40
611.355	40.11
611.689	40.17
612.024	40.18
612.359	39.99
612.694	39.9
613.028	40.11
613.363	40.06
613.697	40.37
614.032	40.41
614.366	40.42
614.7	40.39
615.035	40.89
615.369	40.96
615.703	40.44
616.037	40.8
616.371	40.76
616.705	40.74
617.039	40.93
617.373	41.3
617.707	40.71
618.041	40.63
618.375	40.87
618.709	41.27
619.042	40.88
619.376	41.35
619.71	41.49
620.043	41.57
620.377	41.4
620.71	41.04
621.043	41.2
621.377	41.53
621.71	41.31
622.043	41.36
622.376	41.26
622.709	41.12
623.043	41.97
623.376	41.19
623.709	41.67
624.041	41.69
624.374	41.91
624.707	41.06
625.04	41.63
625.373	41.68
625.705	41.46
626.038	41.78
626.37	41.53
626.703	41.99
627.035	42.18
627.368	42.11
627.7	41.99
628.032	42.32
628.365	42.26
628.697	42.04
629.029	41.55
629.361	41.76
629.693	42.16
630.025	41.8
630.357	41.97
630.689	42.01
631.021	42.29
631.353	42.36
631.684	42.5
632.016	42.06
632.348	42.26
632.679	42.32
633.011	42.19
633.342	42.14
633.674	42.6
634.005	42.41
634.336	42.62
634.668	43.18
634.999	42.96
635.33	42.69
635.661	42.89
635.992	42.61
636.323	42.83
636.654	42.56
636.985	42.46
637.316	42.82
637.647	42.46
637.977	42.52
638.308	43.07
638.639	42.69
638.969	42.78
639.3	42.95
639.63	42.73
639.961	43.23
640.291	43.01
640.622	42.73
640.952	42.61
641.282	42.92
641.612	42.97
641.943	43.27
642.273	43.15
642.603	42.97
642.933	42.93
643.263	43.21
643.592	43.29
643.922	43.12
644.252	43.77
644.582	43.14
644.911	43.38
645.241	43.38
645.571	43.09
645.9	43.17
646.23	43.75
646.559	42.99
646.888	43.55
647.218	43.95
647.547	43.36
647.876	43.63
648.205	43.41
648.534	43.71
648.863	43.71
649.192	43.22
649.521	43.29
649.85	43.85
650.179	43.81
650.508	43.8
650.837	43.53
651.165	43.52
651.494	43.29
651.822	44.23
652.151	43.11
652.479	43.96
652.808	44.19
653.136	44.25
653.465	44.15
653.793	44.22
654.121	44.04
654.449	44.5
654.777	44.07
655.105	43.86
655.433	44.33
655.761	44.41
656.089	44.23
656.417	44.39
656.745	44.26
657.073	44.31
657.4	44.12
657.728	44.65
658.056	44.48
658.383	44.29
658.711	44.81
659.038	43.89
659.365	44.21
659.693	44.88
660.02	44.66
660.347	44.87
660.674	44.62
661.001	45.17
661.329	44.62
661.656	44.74
661.982	44.9
662.309	44.85
662.636	44.69
662.963	44.71
663.29	44.66
663.616	44.53
663.943	44.8
664.27	44.27
664.596	45.02
664.923	44.71
665.249	44.92
665.576	45.46
665.902	45.39
666.228	45.1
666.554	44.98
666.881	45.78
667.207	45.23
667.533	45.01
667.859	45.4
668.185	45.33
668.511	45.31
668.837	44.8
669.162	46.13
669.488	45.22
669.814	45.32
670.139	45.28
