Data from 1886-1_crown_Reflection__0__81.txt Node

Date: Fri Sep 30 18:23:47 CDT 2022
User: ToomeyLab
Spectrometer: FLMS14357
Trigger mode: 0
Integration Time (sec): 1.000000E-2
Scans to average: 100
Electric dark correction enabled: true
Nonlinearity correction enabled: false
Boxcar width: 0
XAxis mode: Wavelengths
Number of Pixels in Spectrum: 2048
>>>>>Begin Spectral Data<<<<<
189.047	-1043.33
189.435	-1043.33
189.823	-1043.33
190.211	69.76
190.599	165.87
190.987	75.56
191.375	37.28
191.763	3776.32
192.151	2.09
192.538	-274.19
192.926	-146.77
193.314	-3444.02
193.702	119.67
194.089	-36.02
194.477	-92.59
194.864	-36.83
195.252	34.47
195.639	-319.47
196.027	137.01
196.414	38.75
196.801	113.99
197.189	-199.22
197.576	10.46
197.963	-716.88
198.351	-7.39
198.738	-10.48
199.125	46.97
199.512	3.33
199.899	0.88
200.286	-5.27
200.673	30.13
201.06	9.28
201.447	43.07
201.833	37.64
202.22	8.23
202.607	33
202.994	37.47
203.38	-13.59
203.767	-45.76
204.154	20.58
204.54	31.62
204.927	36.02
205.313	-1.29
205.699	16.3
206.086	-18.47
206.472	14
206.858	53.86
207.245	18.04
207.631	-45.17
208.017	-10.49
208.403	44.96
208.789	49.86
209.175	34.71
209.561	-29.34
209.947	-6.33
210.333	-57.09
210.719	-18.95
211.105	-20.82
211.491	-4.49
211.876	33.41
212.262	37.85
212.648	15.63
213.034	-27.14
213.419	25.31
213.805	-23.11
214.19	7.98
214.576	2.35
214.961	-0.81
215.346	28.23
215.732	6.91
216.117	4.53
216.502	19.04
216.888	24.51
217.273	7.73
217.658	2.04
218.043	28.77
218.428	7.42
218.813	-3.72
219.198	17.05
219.583	18.64
219.968	12.55
220.353	22.32
220.738	17.84
221.122	19.27
221.507	27.7
221.892	-0.24
222.276	-14.14
222.661	1.92
223.046	-8.58
223.43	10.29
223.815	7.46
224.199	10.23
224.583	-2.24
224.968	4.57
225.352	7.99
225.736	5.54
226.121	8.75
226.505	7.71
226.889	3.54
227.273	1.28
227.657	10.04
228.041	8.68
228.425	11.4
228.809	8.49
229.193	8.77
229.577	3.95
229.961	6.68
230.344	5.01
230.728	4.8
231.112	5.17
231.495	4.65
231.879	6.22
232.263	5.33
232.646	3.77
233.03	6.53
233.413	6.49
233.797	6.53
234.18	5.41
234.563	5.94
234.946	6.27
235.33	5.5
235.713	5.28
236.096	5.1
236.479	6.68
236.862	5.23
237.245	6.68
237.628	5.95
238.011	6.44
238.394	6.5
238.777	5.4
239.16	4.43
239.543	6.85
239.925	5.21
240.308	3.41
240.691	6.57
241.073	6.05
241.456	4.66
241.838	5.54
242.221	5.56
242.603	5.52
242.986	6.84
243.368	4.81
243.75	4.78
244.133	5.81
244.515	5.3
244.897	5.39
245.279	5.99
245.661	5.9
246.043	5.33
246.425	4.46
246.807	6.35
247.189	6.42
247.571	5.65
247.953	5.57
248.335	5.29
248.717	5.21
249.098	5.33
249.48	5.11
249.862	5.43
250.243	5.23
250.625	5.38
251.006	5.14
251.388	3.86
251.769	5.73
252.151	5.82
252.532	6.47
252.913	4.66
253.295	5.24
253.676	5.42
254.057	5.27
254.438	4.61
254.819	5.96
255.2	5.01
255.581	4.85
255.962	5.54
256.343	4.97
256.724	4.66
257.105	5.85
257.486	4.65
257.867	6.1
258.247	5.39
258.628	5.25
259.009	5.89
259.389	4.83
259.77	5.92
260.15	4.74
260.531	5.23
260.911	4.79
261.292	4.88
261.672	4.92
262.052	5.03
262.432	5.23
262.813	5.31
263.193	5.01
263.573	5.27
263.953	4.77
264.333	5.21
264.713	4.52
265.093	5.06
265.473	4.78
265.853	4.64
266.233	4.06
266.612	4.79
266.992	4.6
267.372	4.41
267.752	4.76
268.131	5.13
268.511	4.61
268.89	4.56
269.27	5.09
269.649	5.18
270.029	5.22
270.408	4.97
270.787	4.86
271.167	5.03
271.546	5.28
271.925	5.18
272.304	4.55
272.683	4.83
273.062	5.18
273.441	4.75
273.82	4.73
274.199	4.96
274.578	4.77
274.957	5
275.336	4.76
275.715	4.84
276.093	5.23
276.472	4.63
276.851	4.82
277.229	4.52
277.608	4.6
277.986	4.48
278.365	5.02
278.743	4.48
279.122	4.71
279.5	4.63
279.878	4.22
280.257	4.42
280.635	5.04
281.013	4.98
281.391	4.74
281.769	4.67
282.147	4.46
282.525	4.85
282.903	4.43
283.281	4.21
283.659	4.77
284.037	4.58
284.415	4.25
284.792	5
285.17	4.56
285.548	4.74
285.925	4.78
286.303	4.22
286.68	4.14
287.058	4.64
287.435	4.68
287.813	4.42
288.19	4.8
288.567	4.29
288.945	4.39
289.322	4.25
289.699	4.14
290.076	4.65
290.453	4.5
290.83	4.33
291.207	3.91
291.584	3.82
291.961	4.39
292.338	4.38
292.715	4.59
293.092	3.83
293.469	4.3
293.845	4.73
294.222	4.14
294.599	4.95
294.975	4.45
295.352	4.21
295.728	4.61
296.105	4
296.481	4.31
296.858	4.11
297.234	4.45
297.61	3.9
297.986	3.7
298.363	4.15
298.739	3.86
299.115	4.07
299.491	4.1
299.867	4.16
300.243	4.1
300.619	3.6
300.995	4.67
301.371	4.27
301.746	4.13
302.122	4.58
302.498	4.12
302.874	4.07
303.249	4.24
303.625	4.44
304	4.15
304.376	4.15
304.751	4.22
305.127	3.94
305.502	3.8
305.878	4
306.253	4.02
306.628	3.84
307.003	4.16
307.378	4.56
307.754	3.82
308.129	3.9
308.504	4.29
308.879	3.93
309.254	3.6
309.629	3.78
310.003	3.41
310.378	3.77
310.753	3.65
311.128	3.21
311.502	3.81
311.877	3.89
312.252	4.03
312.626	3.84
313.001	3.47
313.375	3.52
313.75	3.99
314.124	3.8
314.498	3.19
314.873	3.62
315.247	3.64
315.621	4.01
315.995	4.07
316.369	3.34
316.743	3.36
317.117	4.14
317.491	4.49
317.865	4.51
318.239	3.5
318.613	3.61
318.987	3.84
319.361	3.45
319.734	3.07
320.108	3.61
320.482	4.14
320.855	3.79
321.229	3.31
321.602	3.52
321.976	4.04
322.349	3.17
322.723	3.33
323.096	3.97
323.469	4.03
323.843	3.2
324.216	3.23
324.589	4.07
324.962	3.65
325.335	3.37
325.708	3.44
326.081	3.78
326.454	3.66
326.827	3.57
327.2	3.53
327.573	3.53
327.945	3.31
328.318	3.49
328.691	3.62
329.063	3.74
329.436	3.64
329.809	3.85
330.181	3.59
330.553	3.49
330.926	3.64
331.298	3.44
331.671	3.52
332.043	3.63
332.415	3.64
332.787	3.34
333.159	3.2
333.532	3.81
333.904	3.38
334.276	3.55
334.648	3.16
335.02	3.83
335.391	4.11
335.763	3.36
336.135	3.39
336.507	3.69
336.879	3.26
337.25	3.3
337.622	3.76
337.993	2.97
338.365	3.44
338.736	3.39
339.108	3.77
339.479	4.19
339.851	3.18
340.222	3.65
340.593	3.3
340.964	3.68
341.336	3.5
341.707	3.54
342.078	3.38
342.449	3.79
342.82	3.1
343.191	3.35
343.562	3.38
343.933	3.54
344.303	3.51
344.674	3.8
345.045	3.26
345.416	3.29
345.786	3.63
346.157	3.8
346.527	3.43
346.898	3.79
347.268	3.69
347.639	3.32
348.009	3.59
348.38	3.87
348.75	3.96
349.12	3.79
349.49	3.77
349.861	3.34
350.231	3.76
350.601	3.61
350.971	3.57
351.341	3.58
351.711	3.36
352.081	3.42
352.45	3.69
352.82	3.67
353.19	3.6
353.56	3.57
353.929	3.25
354.299	3.78
354.669	3.27
355.038	3.77
355.408	3.76
355.777	3.19
356.147	3.55
356.516	3.69
356.885	3.34
357.254	4.11
357.624	3.62
357.993	3.15
358.362	3.69
358.731	3.64
359.1	3.47
359.469	3.36
359.838	3.85
360.207	3.54
360.576	3.48
360.945	3.89
361.314	3.74
361.682	3.86
362.051	3.57
362.42	3.61
362.788	3.5
363.157	3.65
363.525	3.38
363.894	3.51
364.262	3.61
364.631	3.93
364.999	3.68
365.367	3.75
365.735	3.53
366.104	3.44
366.472	3.52
366.84	3.94
367.208	3.66
367.576	3.97
367.944	3.64
368.312	3.43
368.68	3.56
369.048	3.55
369.416	3.88
369.783	3.29
370.151	3.7
370.519	3.8
370.886	3.71
371.254	3.5
371.621	3.89
371.989	4.01
372.356	3.78
372.724	3.9
373.091	3.75
373.458	3.62
373.826	4.07
374.193	4.08
374.56	4.07
374.927	4.07
375.294	3.98
375.661	3.63
376.028	3.52
376.395	3.7
376.762	3.77
377.129	3.96
377.496	4.02
377.863	3.56
378.229	3.84
378.596	3.8
378.963	3.99
379.329	3.91
379.696	3.92
380.062	4.02
380.429	3.64
380.795	3.67
381.161	3.71
381.528	3.67
381.894	3.74
382.26	3.72
382.626	3.91
382.993	3.93
383.359	3.66
383.725	3.54
384.091	3.88
384.457	4.05
384.823	4.1
385.188	3.86
385.554	3.82
385.92	3.97
386.286	3.97
386.651	3.89
387.017	3.66
387.383	3.89
387.748	3.48
388.114	3.91
388.479	4.3
388.845	3.63
389.21	4.01
389.575	3.92
389.94	4.06
390.306	4.12
390.671	4.06
391.036	3.95
391.401	3.84
391.766	3.89
392.131	3.86
392.496	4.14
392.861	4.1
393.226	3.87
393.591	3.83
393.956	3.92
394.32	4.18
394.685	3.8
395.05	3.99
395.414	4.05
395.779	3.81
396.143	4.01
396.508	3.88
396.872	4.07
397.236	3.74
397.601	3.96
397.965	4.04
398.329	3.84
398.694	3.99
399.058	4.2
399.422	4.18
399.786	3.88
400.15	4.14
400.514	3.87
400.878	4.07
401.242	3.85
401.605	4.09
401.969	3.91
402.333	4.09
402.697	4.02
403.06	4
403.424	4.3
403.787	4.23
404.151	4.24
404.514	4.2
404.878	4.09
405.241	4.08
405.604	4.07
405.968	4.16
406.331	3.85
406.694	4.13
407.057	3.94
407.42	4.36
407.783	3.93
408.146	3.96
408.509	3.92
408.872	4.09
409.235	4.11
409.598	4.01
409.961	3.84
410.323	4.36
410.686	4.25
411.049	3.96
411.411	4.16
411.774	4.34
412.136	4.34
412.499	3.98
412.861	4.19
413.223	4.05
413.586	4.09
413.948	4.27
414.31	4.26
414.672	4.11
415.035	4.25
415.397	4.05
415.759	4.24
416.121	4.18
416.483	3.97
416.845	4.3
417.206	4.07
417.568	4.1
417.93	4.22
418.292	4.1
418.653	4
419.015	4.3
419.377	4.29
419.738	3.91
420.1	4.14
420.461	4.08
420.822	4.17
421.184	4.1
421.545	4.08
421.906	3.98
422.267	4.18
422.629	4.14
422.99	4.09
423.351	4.12
423.712	4.08
424.073	4.18
424.434	4.15
424.795	4.15
425.155	4.13
425.516	4.12
425.877	4.2
426.238	4.2
426.598	4.19
426.959	4.07
427.32	4.18
427.68	4.26
428.041	4.16
428.401	4.21
428.761	4.34
429.122	4.27
429.482	4.2
429.842	4.12
430.202	4.11
430.563	4.21
430.923	4.32
431.283	4.31
431.643	4.37
432.003	4.13
432.363	4.19
432.722	4.31
433.082	4.26
433.442	4.16
433.802	4.25
434.161	4.27
434.521	4.28
434.881	4.2
435.24	4.26
435.6	4.3
435.959	4.26
436.319	4.34
436.678	4.21
437.037	4.34
437.396	4.34
437.756	4.19
438.115	4.04
438.474	4.4
438.833	4.27
439.192	4.31
439.551	4.2
439.91	4.31
440.269	3.99
440.628	4.35
440.987	4.41
441.345	4.29
441.704	4.22
442.063	4.38
442.421	4.17
442.78	4.33
443.138	4.29
443.497	4.28
443.855	4.31
444.214	4.34
444.572	4.46
444.93	4.31
445.288	4.39
445.647	4.32
446.005	4.35
446.363	4.41
446.721	4.19
447.079	4.21
447.437	4.32
447.795	4.24
448.153	4.22
448.51	4.27
448.868	4.33
449.226	4.27
449.584	4.26
449.941	4.27
450.299	4.41
450.656	4.31
451.014	4.44
451.371	4.28
451.729	4.39
452.086	4.27
452.443	4.6
452.801	4.39
453.158	4.33
453.515	4.2
453.872	4.4
454.229	4.36
454.586	4.43
454.943	4.35
455.3	4.37
455.657	4.31
456.014	4.24
456.371	4.31
456.727	4.41
457.084	4.38
457.441	4.24
457.797	4.4
458.154	4.25
458.51	4.31
458.867	4.41
459.223	4.46
459.58	4.31
459.936	4.43
460.292	4.35
460.648	4.32
461.005	4.33
461.361	4.16
461.717	4.15
462.073	4.27
462.429	4.37
462.785	4.31
463.141	4.44
463.496	4.4
463.852	4.33
464.208	4.5
464.564	4.27
464.919	4.45
465.275	4.42
465.631	4.49
465.986	4.29
466.342	4.34
466.697	4.52
467.052	4.56
467.408	4.38
467.763	4.36
468.118	4.39
468.473	4.43
468.829	4.21
469.184	4.54
469.539	4.35
469.894	4.38
470.249	4.41
470.603	4.54
470.958	4.3
471.313	4.5
471.668	4.38
472.023	4.36
472.377	4.52
472.732	4.55
473.086	4.5
473.441	4.52
473.795	4.37
474.15	4.47
474.504	4.66
474.859	4.44
475.213	4.49
475.567	4.37
475.921	4.53
476.275	4.23
476.63	4.42
476.984	4.34
477.338	4.38
477.692	4.58
478.045	4.39
478.399	4.35
478.753	4.6
479.107	4.36
479.461	4.41
479.814	4.29
480.168	4.35
480.521	4.36
480.875	4.51
481.228	4.47
481.582	4.47
481.935	4.51
482.289	4.53
482.642	4.4
482.995	4.32
483.348	4.35
483.701	4.38
484.055	4.33
484.408	4.24
484.761	4.27
485.114	4.14
485.466	4.12
485.819	4.1
486.172	4.17
486.525	4.25
486.878	4.29
487.23	4.33
487.583	4.3
487.936	4.35
488.288	4.33
488.641	4.24
488.993	4.21
489.345	4.23
489.698	4.23
490.05	4.27
490.402	4.3
490.754	4.34
491.107	4.38
491.459	4.36
491.811	4.36
492.163	4.38
492.515	4.33
492.866	4.28
493.218	4.18
493.57	4.28
493.922	4.25
494.274	4.35
494.625	4.46
494.977	4.47
495.328	4.47
495.68	4.35
496.031	4.44
496.383	4.52
496.734	4.49
497.086	4.37
497.437	4.56
497.788	4.41
498.139	4.38
498.49	4.34
498.842	4.43
499.193	4.38
499.544	4.45
499.894	4.5
500.245	4.44
500.596	4.47
500.947	4.42
501.298	4.64
501.648	4.42
501.999	4.49
502.35	4.46
502.7	4.47
503.051	4.46
503.401	4.43
503.752	4.49
504.102	4.57
504.452	4.5
504.803	4.4
505.153	4.64
505.503	4.37
505.853	4.47
506.203	4.46
506.553	4.47
506.903	4.54
507.253	4.57
507.603	4.55
507.953	4.64
508.303	4.57
508.652	4.47
509.002	4.51
509.352	4.57
509.701	4.4
510.051	4.54
510.4	4.39
510.75	4.48
511.099	4.34
511.449	4.36
511.798	4.49
512.147	4.47
512.496	4.39
512.846	4.45
513.195	4.49
513.544	4.48
513.893	4.47
514.242	4.44
514.591	4.49
514.939	4.45
515.288	4.57
515.637	4.35
515.986	4.54
516.334	4.39
516.683	4.31
517.032	4.58
517.38	4.42
517.729	4.54
518.077	4.43
518.426	4.53
518.774	4.47
519.122	4.43
519.47	4.53
519.819	4.53
520.167	4.46
520.515	4.44
520.863	4.47
521.211	4.48
521.559	4.45
521.907	4.57
522.255	4.44
522.602	4.52
522.95	4.51
523.298	4.55
523.645	4.47
523.993	4.63
524.341	4.62
524.688	4.53
525.036	4.49
525.383	4.39
525.73	4.48
526.078	4.58
526.425	4.47
526.772	4.53
527.119	4.36
527.466	4.35
527.814	4.38
528.161	4.38
528.508	4.4
528.854	4.43
529.201	4.37
529.548	4.34
529.895	4.29
530.242	4.25
530.588	4.24
530.935	4.37
531.282	4.36
531.628	4.34
531.975	4.39
532.321	4.38
532.667	4.44
533.014	4.47
533.36	4.45
533.706	4.49
534.052	4.5
534.399	4.39
534.745	4.41
535.091	4.28
535.437	4.43
535.783	4.4
536.129	4.52
536.474	4.46
536.82	4.5
537.166	4.54
537.512	4.52
537.857	4.52
538.203	4.46
538.549	4.35
538.894	4.47
539.239	4.49
539.585	4.52
539.93	4.64
540.276	4.61
540.621	4.56
540.966	4.56
541.311	4.51
541.656	4.52
542.001	4.48
542.346	4.38
542.691	4.34
543.036	4.27
543.381	4.31
543.726	4.36
544.071	4.48
544.415	4.45
544.76	4.43
545.105	4.43
545.449	4.52
545.794	4.51
546.138	4.56
546.483	4.49
546.827	4.48
547.171	4.55
547.516	4.46
547.86	4.44
548.204	4.49
548.548	4.48
548.892	4.56
549.236	4.53
549.58	4.46
549.924	4.68
550.268	4.67
550.612	4.67
550.956	4.65
551.3	4.58
551.643	4.56
551.987	4.61
552.33	4.67
552.674	4.72
553.017	4.63
553.361	4.54
553.704	4.82
554.048	4.5
554.391	4.71
554.734	4.52
555.077	4.69
555.42	4.71
555.764	4.54
556.107	4.63
556.45	4.63
556.793	4.45
557.135	4.7
557.478	4.6
557.821	4.72
558.164	4.6
558.507	4.79
558.849	4.67
559.192	4.66
559.534	4.67
559.877	4.68
560.219	4.71
560.562	4.79
560.904	4.36
561.246	4.48
561.589	4.48
561.931	4.65
562.273	4.72
562.615	4.66
562.957	4.53
563.299	4.72
563.641	4.48
563.983	4.41
564.325	4.57
564.667	4.76
565.008	4.46
565.35	4.64
565.692	4.53
566.033	4.5
566.375	4.48
566.716	4.64
567.058	4.62
567.399	4.63
567.741	4.6
568.082	4.62
568.423	4.58
568.764	4.56
569.105	4.54
569.447	4.54
569.788	4.82
570.129	4.66
570.47	4.66
570.811	4.64
571.151	4.58
571.492	4.71
571.833	4.55
572.174	4.56
572.514	4.72
572.855	4.51
573.195	4.51
573.536	4.63
573.876	4.49
574.217	4.39
574.557	4.62
574.898	4.54
575.238	4.74
575.578	4.64
575.918	4.45
576.258	4.68
576.598	4.55
576.938	4.56
577.278	4.69
577.618	4.72
577.958	4.68
578.298	4.58
578.638	4.77
578.977	4.54
579.317	4.74
579.657	4.54
579.996	4.41
580.336	4.68
580.675	4.77
581.014	4.56
581.354	4.62
581.693	4.74
582.032	4.59
582.372	4.61
582.711	4.5
583.05	4.68
583.389	4.47
583.728	4.55
584.067	4.71
584.406	4.67
584.745	4.65
585.083	4.6
585.422	4.5
585.761	4.41
586.1	4.57
586.438	4.6
586.777	5
587.115	4.76
587.454	4.65
587.792	4.43
588.13	4.71
588.469	4.59
588.807	4.63
589.145	4.39
589.483	4.79
589.821	4.5
590.159	4.79
590.497	4.45
590.835	4.55
591.173	4.47
591.511	4.7
591.849	4.67
592.187	4.54
592.524	4.59
592.862	4.55
593.2	4.53
593.537	4.59
593.875	4.58
594.212	4.73
594.55	4.67
594.887	4.85
595.224	4.66
595.561	4.44
595.899	4.48
596.236	4.77
596.573	4.64
596.91	4.55
597.247	4.54
597.584	4.52
597.921	4.36
598.258	4.62
598.594	4.42
598.931	4.61
599.268	4.52
599.604	4.6
599.941	4.56
600.277	4.43
600.614	4.58
600.95	4.73
601.287	4.64
601.623	4.66
601.959	4.51
602.296	4.49
602.632	4.45
602.968	4.59
603.304	4.69
603.64	4.61
603.976	4.34
604.312	4.57
604.648	4.85
604.984	4.71
605.319	4.62
605.655	4.44
605.991	4.55
606.326	4.55
606.662	4.52
606.998	4.34
607.333	4.48
607.668	4.52
608.004	4.55
608.339	4.56
608.674	4.38
609.01	4.34
609.345	4.25
609.68	4.72
610.015	4.67
610.35	4.47
610.685	4.34
611.02	4.46
611.355	4.3
611.689	4.25
612.024	4.72
612.359	4.6
612.694	4.58
613.028	4.85
613.363	4.33
613.697	4.52
614.032	4.82
614.366	4.54
614.7	4.46
615.035	4.67
615.369	4.65
615.703	4.52
616.037	4.67
616.371	4.47
616.705	4.24
617.039	4.8
617.373	4.55
617.707	4.45
618.041	4.44
618.375	4.48
618.709	4.69
619.042	4.33
619.376	4.88
619.71	4.76
620.043	4.68
620.377	4.55
620.71	4.3
621.043	4.55
621.377	4.55
621.71	4.5
622.043	4.47
622.376	4.4
622.709	4.48
623.043	4.77
623.376	4.24
623.709	4.55
624.041	4.62
624.374	4.71
624.707	4.37
625.04	4.48
625.373	4.73
625.705	4.4
626.038	4.48
626.37	4.31
626.703	4.81
627.035	4.4
627.368	4.75
627.7	4.53
628.032	4.49
628.365	4.49
628.697	4.57
629.029	4.44
629.361	4.56
629.693	4.78
630.025	4.35
630.357	4.82
630.689	4.62
631.021	4.23
631.353	4.28
631.684	4.64
632.016	4.57
632.348	4.4
632.679	4.61
633.011	4.59
633.342	4.48
633.674	4.86
634.005	4.58
634.336	4.35
634.668	4.75
634.999	4.69
635.33	4.72
635.661	4.56
635.992	4.45
636.323	4.44
636.654	4.38
636.985	4.21
637.316	4.61
637.647	4.53
637.977	4.87
638.308	4.4
638.639	4.23
638.969	4.49
639.3	4.48
639.63	4.08
639.961	4.62
640.291	4.43
640.622	4.63
640.952	4.87
641.282	4.11
641.612	4.63
641.943	4.69
642.273	4.57
642.603	4.16
642.933	4.3
643.263	4.37
643.592	4.74
643.922	4.28
644.252	4.46
644.582	4.45
644.911	4.65
645.241	4.17
645.571	4.11
645.9	3.96
646.23	4.05
646.559	3.98
646.888	4.42
647.218	4.28
647.547	4.46
647.876	4.55
648.205	4.52
648.534	4.32
648.863	4.35
649.192	3.94
649.521	4.44
649.85	4.52
650.179	4.8
650.508	4.3
650.837	4.59
651.165	4.44
651.494	4.25
651.822	4.86
652.151	5
652.479	4.56
652.808	4.28
653.136	4.59
653.465	4.07
653.793	4.33
654.121	4.15
654.449	4.35
654.777	4.31
655.105	4.59
655.433	4.5
655.761	5.04
656.089	5.15
656.417	4.44
656.745	4.17
657.073	4.27
657.4	4.65
657.728	4.73
658.056	4.41
658.383	4.46
658.711	4.37
659.038	4.21
659.365	4.06
659.693	4.29
660.02	4.31
660.347	4.34
660.674	4.62
661.001	4.64
661.329	4.61
661.656	4.31
661.982	4.39
662.309	4.77
662.636	4.53
662.963	4.43
663.29	4.03
663.616	4.38
663.943	4.73
664.27	4.48
664.596	4.41
664.923	4.23
665.249	4.68
665.576	4.53
665.902	4.4
666.228	4.67
666.554	4.42
666.881	4.3
667.207	4.2
667.533	4.74
667.859	4.89
668.185	4.58
668.511	4.84
668.837	4.63
669.162	4.83
669.488	4.24
669.814	4.7
670.139	3.87
670.465	4.6
670.791	4.57
671.116	4.41
671.442	4.74
671.767	4.28
672.092	3.98
672.418	4.14
672.743	4.41
673.068	4.89
673.393	4.65
673.718	4.49
674.043	4.77
674.368	4.33
674.693	4.25
675.018	4.1
675.343	4.83
675.667	5.31
675.992	4.53
676.317	4.75
676.641	4.62
676.966	3.97
677.29	4.19
677.615	3.97
677.939	4.32
678.264	4.39
678.588	4.6
678.912	4.69
679.236	4.74
679.56	4.24
679.885	4.51
680.209	4.49
680.532	4.82
680.856	4.25
681.18	4.53
681.504	4.46
681.828	4.6
682.152	4.15
682.475	4.36
682.799	4.64
683.122	4.54
683.446	4.77
683.769	5.09
684.093	4.36
684.416	4.99
684.739	4.1
685.062	4.69
685.386	4.89
685.709	3.91
686.032	4.79
686.355	3.92
686.678	4.2
687.001	4.74
687.324	5.17
687.646	4.47
687.969	4.4
688.292	4.77
688.614	3.81
688.937	4.49
689.26	4.13
689.582	4.37
689.904	5.04
690.227	4.51
690.549	4.19
690.871	4.7
691.194	4.59
691.516	4.37
691.838	4.2
692.16	4.81
