Data from 1886-1_forehead_Reflection__0__86.txt Node

Date: Fri Sep 30 18:25:26 CDT 2022
User: ToomeyLab
Spectrometer: FLMS14357
Trigger mode: 0
Integration Time (sec): 1.000000E-2
Scans to average: 100
Electric dark correction enabled: true
Nonlinearity correction enabled: false
Boxcar width: 0
XAxis mode: Wavelengths
Number of Pixels in Spectrum: 2048
>>>>>Begin Spectral Data<<<<<
189.047	1708.89
189.435	1708.89
189.823	1708.89
190.211	-80.76
190.599	-207.3
190.987	112.52
191.375	7.12
191.763	13047.37
192.151	-117.72
192.538	-180.06
192.926	-437.14
193.314	-2187.18
193.702	140.44
194.089	-8.59
194.477	-76.36
194.864	208.91
195.252	16.19
195.639	939.69
196.027	-10.54
196.414	85.72
196.801	131.02
197.189	-129.71
197.576	115.63
197.963	-442.68
198.351	95.37
198.738	11.42
199.125	67.48
199.512	28.71
199.899	29.02
200.286	20.42
200.673	66.7
201.06	65.26
201.447	58.46
201.833	70.49
202.22	25.78
202.607	36.57
202.994	55.1
203.38	28.54
203.767	35.33
204.154	59.64
204.54	37.05
204.927	46.29
205.313	5.94
205.699	34.82
206.086	2.48
206.472	5.76
206.858	51.73
207.245	42.04
207.631	42.72
208.017	19.59
208.403	48.78
208.789	12.92
209.175	34.46
209.561	6.67
209.947	14.63
210.333	-7.61
210.719	13.41
211.105	16.47
211.491	29.66
211.876	28.64
212.262	24.07
212.648	45.75
213.034	28.33
213.419	43.11
213.805	-4.57
214.19	22.94
214.576	11.55
214.961	15.4
215.346	11.95
215.732	25.88
216.117	37.77
216.502	40.52
216.888	19.65
217.273	13.82
217.658	11.64
218.043	9.31
218.428	13.14
218.813	9.2
219.198	18.32
219.583	25.25
219.968	52.79
220.353	18.38
220.738	27.26
221.122	20.58
221.507	27.61
221.892	12.24
222.276	-0.25
222.661	22.36
223.046	2.07
223.43	9.38
223.815	8.8
224.199	15.31
224.583	-0.96
224.968	9.07
225.352	10.13
225.736	10.31
226.121	6.45
226.505	5.21
226.889	8.78
227.273	1.33
227.657	12.81
228.041	4.43
228.425	6.39
228.809	6.99
229.193	5.9
229.577	5.62
229.961	5.45
230.344	4.73
230.728	5.17
231.112	5
231.495	4.51
231.879	6.97
232.263	5.49
232.646	4.63
233.03	5.42
233.413	6.69
233.797	5.61
234.18	5.04
234.563	7.88
234.946	6.69
235.33	4.82
235.713	6.69
236.096	6.56
236.479	5.34
236.862	6.37
237.245	6.75
237.628	5.75
238.011	7.5
238.394	7.55
238.777	5.26
239.16	4.28
239.543	7.77
239.925	5
240.308	4.84
240.691	6.62
241.073	5.71
241.456	4.7
241.838	5.92
242.221	5.37
242.603	6.27
242.986	5.89
243.368	4.48
243.75	4.94
244.133	5.6
244.515	4.94
244.897	5.7
245.279	5.48
245.661	4.96
246.043	5.08
246.425	5.13
246.807	5.39
247.189	6
247.571	5.66
247.953	5.53
248.335	4.91
248.717	4.92
249.098	5.19
249.48	5.08
249.862	5.08
250.243	5.14
250.625	5.42
251.006	5.25
251.388	3.96
251.769	6.47
252.151	5.36
252.532	5.09
252.913	5.11
253.295	5.22
253.676	5.08
254.057	5.08
254.438	5.39
254.819	5.86
255.2	5.42
255.581	6.23
255.962	5.38
256.343	6.39
256.724	6.32
257.105	5.56
257.486	5.93
257.867	6.14
258.247	5.55
258.628	6.3
259.009	6.13
259.389	5.48
259.77	5.21
260.15	5.07
260.531	5.39
260.911	5.26
261.292	4.99
261.672	5.14
262.052	4.83
262.432	5.06
262.813	5.69
263.193	5.44
263.573	5.15
263.953	5.28
264.333	5.86
264.713	4.81
265.093	5.16
265.473	5.82
265.853	5.59
266.233	5.52
266.612	5.42
266.992	5.46
267.372	5.02
267.752	5.1
268.131	4.98
268.511	5.11
268.89	4.88
269.27	5.63
269.649	5.25
270.029	5.27
270.408	5.74
270.787	5.12
271.167	5.56
271.546	4.91
271.925	5.28
272.304	5.53
272.683	5.03
273.062	5.09
273.441	4.89
273.82	4.48
274.199	4.96
274.578	5.23
274.957	5.22
275.336	5
275.715	4.88
276.093	5.15
276.472	5.06
276.851	4.99
277.229	5.17
277.608	5.08
277.986	4.71
278.365	5.61
278.743	4.6
279.122	4.78
279.5	4.9
279.878	4.8
280.257	4.82
280.635	5.18
281.013	5.69
281.391	4.96
281.769	5.19
282.147	4.82
282.525	5.64
282.903	5.23
283.281	4.68
283.659	5.09
284.037	4.96
284.415	5.36
284.792	5.2
285.17	4.7
285.548	5.42
285.925	5.1
286.303	4.95
286.68	4.96
287.058	5.17
287.435	5.14
287.813	5.35
288.19	5.1
288.567	5.25
288.945	4.81
289.322	4.56
289.699	5.27
290.076	5.09
290.453	5.32
290.83	5.26
291.207	5.24
291.584	5.33
291.961	5.32
292.338	5.39
292.715	5.95
293.092	5.42
293.469	5.31
293.845	6.03
294.222	5.92
294.599	6.23
294.975	6.25
295.352	5.78
295.728	6.1
296.105	5.85
296.481	6.11
296.858	6.14
297.234	6.34
297.61	6.07
297.986	6.06
298.363	6.26
298.739	5.77
299.115	5.66
299.491	5.92
299.867	6.15
300.243	6.17
300.619	5.95
300.995	7.05
301.371	6.25
301.746	6.78
302.122	6.89
302.498	6.73
302.874	6.95
303.249	6.87
303.625	6.58
304	7.25
304.376	6.86
304.751	7.19
305.127	7.21
305.502	7.37
305.878	7.43
306.253	7.24
306.628	7.09
307.003	7.34
307.378	8
307.754	7.34
308.129	8.18
308.504	7.89
308.879	8.02
309.254	7.78
309.629	7.78
310.003	8.03
310.378	7.85
310.753	7.89
311.128	7.99
311.502	8.47
311.877	8.27
312.252	8.64
312.626	8.6
313.001	8.24
313.375	8.65
313.75	8.96
314.124	8.87
314.498	8.32
314.873	9.4
315.247	8.89
315.621	9.24
315.995	9.44
316.369	9.33
316.743	8.8
317.117	9.42
317.491	10.35
317.865	10.16
318.239	9.77
318.613	9.78
318.987	9.76
319.361	9.41
319.734	9.48
320.108	10.16
320.482	9.8
320.855	10.14
321.229	10.06
321.602	10.65
321.976	10.36
322.349	10.38
322.723	10.29
323.096	10.44
323.469	10.88
323.843	10.36
324.216	10.98
324.589	11.19
324.962	11.4
325.335	10.98
325.708	10.79
326.081	11.1
326.454	11.07
326.827	11.21
327.2	11
327.573	11
327.945	11.03
328.318	11.4
328.691	11.54
329.063	11.61
329.436	11.31
329.809	11.69
330.181	11.35
330.553	11.96
330.926	11.28
331.298	11.24
331.671	11.99
332.043	11.73
332.415	11.85
332.787	11.89
333.159	12.06
333.532	11.87
333.904	12.22
334.276	12.35
334.648	12
335.02	12.57
335.391	12.24
335.763	12.17
336.135	12.41
336.507	12.78
336.879	12.42
337.25	12.24
337.622	12.43
337.993	12.05
338.365	12.47
338.736	12.61
339.108	12.74
339.479	13.36
339.851	12.51
340.222	12.9
340.593	13.17
340.964	12.34
341.336	12.79
341.707	12.9
342.078	13.44
342.449	13.29
342.82	12.74
343.191	13.1
343.562	13.18
343.933	13.54
344.303	13.54
344.674	13.57
345.045	13.36
345.416	13.82
345.786	13.8
346.157	14.02
346.527	14.02
346.898	13.58
347.268	13.76
347.639	13.94
348.009	14.05
348.38	14.05
348.75	14.95
349.12	14.25
349.49	14.17
349.861	13.54
350.231	14.43
350.601	14.28
350.971	14.33
351.341	14.32
351.711	14.56
352.081	14.89
352.45	14.84
352.82	14.56
353.19	14.85
353.56	14.65
353.929	14.77
354.299	15.07
354.669	14.91
355.038	14.97
355.408	14.77
355.777	14.84
356.147	14.82
356.516	15.23
356.885	15.14
357.254	15.28
357.624	15.05
357.993	14.84
358.362	15.82
358.731	15.2
359.1	15.22
359.469	15.32
359.838	15.63
360.207	15.63
360.576	15.59
360.945	15.62
361.314	15.56
361.682	15.54
362.051	15.54
362.42	15.8
362.788	15.92
363.157	15.87
363.525	15.57
363.894	15.87
364.262	16.17
364.631	16.41
364.999	15.86
365.367	16.2
365.735	15.9
366.104	16.04
366.472	16.57
366.84	16.38
367.208	16.62
367.576	17.04
367.944	16.44
368.312	16.35
368.68	16.47
369.048	16.58
369.416	16.87
369.783	17.07
370.151	17.38
370.519	16.75
370.886	17.29
371.254	17.02
371.621	17.21
371.989	17.55
372.356	17.11
372.724	17.29
373.091	17.19
373.458	17.25
373.826	17.45
374.193	17.28
374.56	17.42
374.927	17.65
375.294	17.89
375.661	17.43
376.028	17.53
376.395	17.99
376.762	17.68
377.129	17.74
377.496	18.14
377.863	17.78
378.229	17.9
378.596	18.09
378.963	17.97
379.329	17.79
379.696	17.97
380.062	18.13
380.429	18.26
380.795	18.2
381.161	18.08
381.528	18.18
381.894	18.47
382.26	18.62
382.626	18.46
382.993	18.54
383.359	18.47
383.725	18.76
384.091	18.3
384.457	18.62
384.823	18.95
385.188	18.77
385.554	18.83
385.92	19.1
386.286	19.01
386.651	19.17
387.017	18.67
387.383	19.17
387.748	18.68
388.114	19.4
388.479	19.08
388.845	19.15
389.21	19.3
389.575	19.47
389.94	19.36
390.306	19.71
390.671	19.48
391.036	19.76
391.401	19.58
391.766	19.75
392.131	19.46
392.496	19.92
392.861	19.86
393.226	19.77
393.591	19.77
393.956	19.86
394.32	19.75
394.685	19.99
395.05	20.07
395.414	20
395.779	19.88
396.143	20.28
396.508	19.98
396.872	20.13
397.236	20.2
397.601	20.11
397.965	20.51
398.329	20.2
398.694	20.57
399.058	20.51
399.422	20.47
399.786	20.46
400.15	20.5
400.514	20.54
400.878	21.05
401.242	20.7
401.605	20.68
401.969	20.86
402.333	20.92
402.697	20.88
403.06	21.23
403.424	21.21
403.787	21.43
404.151	21.2
404.514	21.45
404.878	21.05
405.241	21.22
405.604	21.17
405.968	21.27
406.331	21.37
406.694	21.46
407.057	21.29
407.42	21.44
407.783	21.42
408.146	21.48
408.509	21.45
408.872	21.63
409.235	21.54
409.598	21.84
409.961	21.58
410.323	22.05
410.686	22.01
411.049	21.89
411.411	22.06
411.774	22.11
412.136	22.23
412.499	22.16
412.861	22.18
413.223	22.12
413.586	22.26
413.948	22.41
414.31	22.45
414.672	22.44
415.035	22.9
415.397	22.63
415.759	22.66
416.121	22.34
416.483	22.28
416.845	22.74
417.206	22.74
417.568	22.53
417.93	22.42
418.292	22.69
418.653	22.57
419.015	22.85
419.377	22.51
419.738	22.64
420.1	22.82
420.461	22.6
420.822	22.65
421.184	22.69
421.545	22.66
421.906	22.58
422.267	22.64
422.629	22.71
422.99	22.63
423.351	22.6
423.712	22.92
424.073	22.9
424.434	23.04
424.795	23.17
425.155	23.12
425.516	23.18
425.877	23.06
426.238	23.17
426.598	23.17
426.959	23.28
427.32	23.42
427.68	23.57
428.041	23.56
428.401	23.9
428.761	24.01
429.122	24.07
429.482	24.03
429.842	24.18
430.202	24.24
430.563	24.09
430.923	24.25
431.283	24.32
431.643	24.4
432.003	24.19
432.363	24.53
432.722	24.52
433.082	24.7
433.442	24.7
433.802	24.68
434.161	24.66
434.521	24.65
434.881	24.49
435.24	24.69
435.6	24.77
435.959	24.84
436.319	24.8
436.678	24.68
437.037	25.04
437.396	25.21
437.756	25.17
438.115	25.35
438.474	25.22
438.833	25.3
439.192	25.22
439.551	25.31
439.91	25.34
440.269	25.24
440.628	25.49
440.987	25.48
441.345	25.41
441.704	25.36
442.063	25.54
442.421	25.45
442.78	25.47
443.138	25.54
443.497	25.7
443.855	25.75
444.214	25.84
444.572	25.96
444.93	25.98
445.288	25.83
445.647	26.03
446.005	26.12
446.363	26.11
446.721	25.98
447.079	25.94
447.437	25.96
447.795	25.98
448.153	25.75
448.51	25.87
448.868	25.88
449.226	25.96
449.584	26.13
449.941	26.31
450.299	26.3
450.656	26.47
451.014	26.72
451.371	26.76
451.729	26.83
452.086	26.81
452.443	26.97
452.801	26.96
453.158	27.09
453.515	27.2
453.872	27.24
454.229	27.08
454.586	27.19
454.943	27.07
455.3	27.25
455.657	27.46
456.014	27.25
456.371	27.28
456.727	27.3
457.084	27.55
457.441	27.63
457.797	27.65
458.154	27.41
458.51	27.49
458.867	27.6
459.223	27.82
459.58	27.69
459.936	27.78
460.292	27.75
460.648	27.63
461.005	27.6
461.361	27.49
461.717	27.38
462.073	27.58
462.429	27.76
462.785	27.97
463.141	28.04
463.496	28.14
463.852	28.26
464.208	28.11
464.564	28.29
464.919	28.4
465.275	28.4
465.631	28.8
465.986	28.5
466.342	28.66
466.697	28.7
467.052	28.87
467.408	28.74
467.763	28.75
468.118	28.95
468.473	28.77
468.829	28.76
469.184	28.87
469.539	28.88
469.894	28.89
470.249	28.98
470.603	29.16
470.958	29.15
471.313	29.06
471.668	28.97
472.023	29.42
472.377	29.39
472.732	29.49
473.086	29.54
473.441	29.44
473.795	29.61
474.15	29.54
474.504	29.67
474.859	29.51
475.213	29.74
475.567	29.69
475.921	29.82
476.275	29.97
476.63	29.84
476.984	29.68
477.338	29.89
477.692	29.97
478.045	30.08
478.399	29.86
478.753	30
479.107	29.99
479.461	30.04
479.814	30.04
480.168	30.18
480.521	30.23
480.875	30.1
481.228	30.34
481.582	30.27
481.935	30.37
482.289	30.47
482.642	30.12
482.995	30.27
483.348	30.22
483.701	30.24
484.055	30.06
484.408	30.05
484.761	29.87
485.114	29.68
485.466	29.65
485.819	29.74
486.172	29.72
486.525	29.69
486.878	29.84
487.23	29.95
487.583	30.16
487.936	30.46
488.288	30.41
488.641	30.28
488.993	30.24
489.345	30.18
489.698	30.22
490.05	30.27
490.402	30.26
490.754	30.55
491.107	30.59
491.459	30.78
491.811	31.05
492.163	31.2
492.515	31.03
492.866	30.92
493.218	30.69
493.57	30.74
493.922	30.79
494.274	30.82
494.625	31.04
494.977	31.34
495.328	31.56
495.68	31.85
496.031	31.98
496.383	32.16
496.734	32.14
497.086	32.06
497.437	32.17
497.788	31.9
498.139	31.96
498.49	31.8
498.842	32.05
499.193	32.17
499.544	32.18
499.894	32.08
500.245	32.25
500.596	32.33
500.947	32.42
501.298	32.48
501.648	32.51
501.999	32.6
502.35	32.76
502.7	32.81
503.051	32.75
503.401	33.04
503.752	32.87
504.102	33.18
504.452	33.02
504.803	32.86
505.153	33.12
505.503	33.12
505.853	33.03
506.203	33.07
506.553	33.18
506.903	33.29
507.253	33.3
507.603	33.39
507.953	33.48
508.303	33.37
508.652	33.52
509.002	33.7
509.352	33.68
509.701	33.5
510.051	33.58
510.4	33.48
510.75	33.17
511.099	33.34
511.449	33.33
511.798	33.59
512.147	33.69
512.496	33.77
512.846	33.7
513.195	33.85
513.544	33.73
513.893	33.96
514.242	33.79
514.591	33.99
514.939	34.03
515.288	34.09
515.637	33.97
515.986	34.19
516.334	34.19
516.683	34.41
517.032	34.36
517.38	34.45
517.729	34.77
518.077	34.54
518.426	34.42
518.774	34.43
519.122	34.4
519.47	34.48
519.819	34.38
520.167	34.42
520.515	34.36
520.863	34.15
521.211	34.23
521.559	34.62
521.907	34.52
522.255	34.68
522.602	34.77
522.95	34.99
523.298	35.11
523.645	35.06
523.993	35.19
524.341	35.4
524.688	35.36
525.036	35.46
525.383	35.41
525.73	35.3
526.078	35.31
526.425	35.25
526.772	35.29
527.119	34.95
527.466	34.96
527.814	35.14
528.161	35.09
528.508	35.12
528.854	35.26
529.201	35.2
529.548	35.11
529.895	34.84
530.242	34.92
530.588	35.04
530.935	34.92
531.282	34.89
531.628	34.83
531.975	35.05
532.321	35.28
532.667	35.45
533.014	35.61
533.36	35.82
533.706	35.79
534.052	35.74
534.399	35.69
534.745	35.6
535.091	35.43
535.437	35.69
535.783	35.73
536.129	35.74
536.474	35.83
536.82	36.19
537.166	36.31
537.512	36.21
537.857	36.36
538.203	36.43
538.549	36.22
538.894	36.42
539.239	36.36
539.585	36.36
539.93	36.66
540.276	36.83
540.621	36.92
540.966	37.09
541.311	37.18
541.656	37.07
542.001	36.96
542.346	36.73
542.691	36.64
543.036	36.32
543.381	36.35
543.726	36.46
544.071	36.62
544.415	36.57
544.76	36.69
545.105	36.86
545.449	37.05
545.794	37.23
546.138	37.25
546.483	37.28
546.827	37.33
547.171	37.49
547.516	37.51
547.86	37.45
548.204	37.51
548.548	37.41
548.892	37.58
549.236	37.72
549.58	37.78
549.924	37.7
550.268	38.15
550.612	38.26
550.956	38.22
551.3	38.49
551.643	38.52
551.987	38.39
552.33	38.57
552.674	38.56
553.017	38.59
553.361	38.58
553.704	38.71
554.048	38.63
554.391	38.58
554.734	38.7
555.077	38.67
555.42	38.79
555.764	38.67
556.107	38.97
556.45	39.09
556.793	39
557.135	39.36
557.478	39.39
557.821	39.29
558.164	39.18
558.507	39.56
558.849	39.47
559.192	39.4
559.534	39.24
559.877	39.41
560.219	39.41
560.562	39.68
560.904	39.47
561.246	39.65
561.589	39.31
561.931	39.61
562.273	39.65
562.615	39.76
562.957	39.81
563.299	39.92
563.641	40.04
563.983	39.9
564.325	39.77
564.667	40.04
565.008	40.14
565.35	39.73
565.692	39.91
566.033	40.17
566.375	40.1
566.716	40.17
567.058	40.23
567.399	40.04
567.741	40.28
568.082	40.14
568.423	40.16
568.764	40.12
569.105	40.18
569.447	40.34
569.788	40.45
570.129	40.41
570.47	40.76
570.811	40.37
571.151	40.59
571.492	40.75
571.833	40.84
572.174	40.86
572.514	40.82
572.855	40.86
573.195	40.87
573.536	40.59
573.876	40.65
574.217	40.78
574.557	40.91
574.898	40.89
575.238	40.85
575.578	41.1
575.918	40.91
576.258	41.09
576.598	41.12
576.938	41.22
577.278	41.41
577.618	41.51
577.958	41.08
578.298	41.32
578.638	41.54
578.977	41.29
579.317	41.45
579.657	41.57
579.996	41.51
580.336	41.65
580.675	41.83
581.014	41.64
581.354	41.85
581.693	42.22
582.032	42.06
582.372	42.27
582.711	42.17
583.05	42.39
583.389	41.91
583.728	42.04
584.067	42.13
584.406	42.35
584.745	42.37
585.083	42.19
585.422	42.59
585.761	42.45
586.1	42.54
586.438	42.5
586.777	42.93
587.115	42.64
587.454	42.64
587.792	42.72
588.13	42.62
588.469	42.59
588.807	43.14
589.145	42.67
589.483	42.76
589.821	43
590.159	43.34
590.497	43.05
590.835	42.87
591.173	42.85
591.511	42.96
591.849	43.02
592.187	42.89
592.524	43.15
592.862	43.01
593.2	43.11
593.537	43.28
593.875	43.77
594.212	43.56
594.55	42.98
594.887	43.51
595.224	43.49
595.561	43.56
595.899	43.32
596.236	43.35
596.573	43.45
596.91	43.49
597.247	43.51
597.584	43.65
597.921	43.4
598.258	43.5
598.594	43.57
598.931	43.42
599.268	43.38
599.604	43.66
599.941	43.58
600.277	43.56
600.614	43.95
600.95	44
601.287	43.79
601.623	43.87
601.959	43.97
602.296	44.16
602.632	43.88
602.968	44.4
603.304	44.4
603.64	44.02
603.976	44.47
604.312	44.43
604.648	44.65
604.984	44.49
605.319	43.82
605.655	44.39
605.991	44.55
606.326	43.99
606.662	44.27
606.998	44.2
607.333	44.34
607.668	44.42
608.004	44.66
608.339	44.53
608.674	44.67
609.01	44.42
609.345	44.91
609.68	44.64
610.015	44.79
610.35	44.76
610.685	44.75
611.02	44.64
611.355	44.77
611.689	44.62
612.024	45.12
612.359	44.75
612.694	45.02
613.028	45.02
613.363	45.26
613.697	45.2
614.032	45.22
614.366	45.12
614.7	45.12
615.035	45.4
615.369	45.72
615.703	45.28
616.037	45.45
616.371	45.56
616.705	45.62
617.039	45.66
617.373	45.84
617.707	45.97
618.041	45.66
618.375	45.76
618.709	45.82
619.042	45.59
619.376	46.2
619.71	46.2
620.043	45.93
620.377	46.16
620.71	45.84
621.043	46.07
621.377	46.12
621.71	46.29
622.043	46.06
622.376	45.65
622.709	46.08
623.043	46.28
623.376	46.42
623.709	46.94
624.041	46.21
624.374	46.88
624.707	46.39
625.04	46.36
625.373	46.24
625.705	46.46
626.038	46.38
626.37	46.55
626.703	46.6
627.035	46.89
627.368	46.55
627.7	47.22
628.032	46.69
628.365	46.99
628.697	46.8
629.029	46.58
629.361	46.82
629.693	47.09
630.025	46.63
630.357	47.24
630.689	47.15
631.021	46.87
631.353	46.82
631.684	47.21
632.016	47.25
632.348	47.23
632.679	47.28
633.011	47.28
633.342	47.08
633.674	47.83
634.005	47.22
634.336	47.5
634.668	47.69
634.999	47.15
635.33	47.65
635.661	47.47
635.992	47.64
636.323	47.52
636.654	47.23
636.985	47.5
637.316	47.6
637.647	47.21
637.977	47.7
638.308	47.77
638.639	47.71
638.969	47.5
639.3	48.18
639.63	47.71
639.961	47.95
640.291	47.27
640.622	47.93
640.952	47.55
641.282	48.26
641.612	48.51
641.943	48.3
642.273	48.39
642.603	47.68
642.933	48.43
643.263	48.2
643.592	48.22
643.922	48.5
644.252	49.4
644.582	48.38
644.911	48.64
645.241	48.68
645.571	47.77
645.9	48.64
646.23	48.56
646.559	48.64
646.888	48.47
647.218	48.65
647.547	48.16
647.876	48.57
648.205	49.16
648.534	48.56
648.863	48.45
649.192	48.74
649.521	48.54
649.85	48.86
650.179	49.11
650.508	48.76
650.837	48.83
651.165	48.61
651.494	48.74
651.822	48.6
652.151	48.42
652.479	48.9
652.808	49.1
653.136	49.17
653.465	49.33
653.793	49.25
654.121	49.24
654.449	49.27
654.777	48.97
655.105	49.43
655.433	49.14
655.761	49.53
656.089	49.64
656.417	49.43
656.745	49.8
657.073	49.65
657.4	49.45
657.728	49.43
658.056	49.2
658.383	49.69
658.711	49.88
659.038	49.17
659.365	50.13
659.693	50.2
660.02	49.9
660.347	49.53
660.674	49.72
661.001	50.22
661.329	50.01
661.656	49.69
661.982	49.63
662.309	50.19
662.636	49.98
662.963	49.87
663.29	50.15
663.616	49.92
663.943	50.28
664.27	50.41
664.596	50.32
664.923	50.26
665.249	50.67
665.576	50.75
665.902	49.7
666.228	50.25
666.554	50.29
666.881	50.59
667.207	49.58
667.533	50.5
667.859	50.44
668.185	50.61
668.511	50.26
668.837	50.13
669.162	50.5
