Data from 1886-1_crown_Reflection__1__82.txt Node

Date: Fri Sep 30 18:23:58 CDT 2022
User: ToomeyLab
Spectrometer: FLMS14357
Trigger mode: 0
Integration Time (sec): 1.000000E-2
Scans to average: 100
Electric dark correction enabled: true
Nonlinearity correction enabled: false
Boxcar width: 0
XAxis mode: Wavelengths
Number of Pixels in Spectrum: 2048
>>>>>Begin Spectral Data<<<<<
189.047	5173.33
189.435	5173.33
189.823	5173.33
190.211	35.78
190.599	-80.6
190.987	37.02
191.375	122.69
191.763	968.42
192.151	118.4
192.538	-75.81
192.926	31.8
193.314	-827.35
193.702	72.62
194.089	-41.39
194.477	-37.52
194.864	-103.39
195.252	45.88
195.639	-1233.59
196.027	49.72
196.414	46.16
196.801	119
197.189	-441.69
197.576	244.6
197.963	-208.92
198.351	-15.55
198.738	29.27
199.125	3.28
199.512	46.78
199.899	0.92
200.286	-9.55
200.673	52.62
201.06	74.76
201.447	25.65
201.833	18.84
202.22	7.25
202.607	25.54
202.994	37.75
203.38	15.99
203.767	24.96
204.154	39.41
204.54	32.67
204.927	49.53
205.313	-46.79
205.699	24.58
206.086	-20.38
206.472	20.79
206.858	35.51
207.245	17.45
207.631	-23.05
208.017	-15.33
208.403	6.94
208.789	20.85
209.175	32.7
209.561	16.04
209.947	-11.93
210.333	-20.41
210.719	-7.92
211.105	-3.26
211.491	-11.05
211.876	26.12
212.262	26.75
212.648	25.06
213.034	-30.09
213.419	15.37
213.805	9.41
214.19	3.19
214.576	4.59
214.961	12.2
215.346	20.64
215.732	24.49
216.117	1.14
216.502	17.06
216.888	24.45
217.273	11.21
217.658	19.17
218.043	36.35
218.428	-2.03
218.813	17.07
219.198	11.08
219.583	-14.8
219.968	27.3
220.353	15.98
220.738	2.25
221.122	-15.91
221.507	40.03
221.892	8.96
222.276	-1.91
222.661	12.1
223.046	-3.01
223.43	11
223.815	6.32
224.199	12.56
224.583	-8.97
224.968	-1.85
225.352	4.58
225.736	5.99
226.121	13.83
226.505	4.99
226.889	16.03
227.273	5.91
227.657	9.44
228.041	4.2
228.425	8.86
228.809	3.13
229.193	4.93
229.577	2.29
229.961	5.63
230.344	3.48
230.728	3.91
231.112	4.04
231.495	4.42
231.879	5.5
232.263	2.8
232.646	3.49
233.03	6.08
233.413	5.02
233.797	5.73
234.18	4.11
234.563	3.98
234.946	6.29
235.33	2.33
235.713	5.47
236.096	4.45
236.479	6.19
236.862	4.73
237.245	3.38
237.628	4.48
238.011	5.4
238.394	4.66
238.777	2.71
239.16	2.82
239.543	4.14
239.925	3.17
240.308	2.89
240.691	6.45
241.073	6.25
241.456	3.87
241.838	4.58
242.221	3.77
242.603	4.09
242.986	5.13
243.368	2.78
243.75	3.75
244.133	4.4
244.515	3.8
244.897	3.86
245.279	4.53
245.661	3.38
246.043	3.44
246.425	2.42
246.807	2.84
247.189	3.6
247.571	4.44
247.953	4.34
248.335	3.96
248.717	3.74
249.098	3.97
249.48	3.9
249.862	3.82
250.243	3.62
250.625	3.74
251.006	3.59
251.388	2.35
251.769	4.54
252.151	4.2
252.532	3.87
252.913	3.77
253.295	3.72
253.676	3.67
254.057	4.1
254.438	3.74
254.819	4.2
255.2	3.53
255.581	3.72
255.962	3.82
256.343	3.23
256.724	4.53
257.105	4.66
257.486	3.27
257.867	3.67
258.247	3.16
258.628	4.03
259.009	4.34
259.389	4.01
259.77	3.91
260.15	3.49
260.531	3.78
260.911	3.78
261.292	3.68
261.672	3.73
262.052	3.56
262.432	3.46
262.813	4.23
263.193	3.39
263.573	4.07
263.953	3.43
264.333	4.44
264.713	2.96
265.093	3.26
265.473	3.2
265.853	3.03
266.233	3.11
266.612	3.82
266.992	3.33
267.372	3.21
267.752	3.4
268.131	3.83
268.511	3.31
268.89	3.33
269.27	3.79
269.649	3.37
270.029	3.85
270.408	3.17
270.787	3.27
271.167	3.45
271.546	3.7
271.925	4.12
272.304	3.65
272.683	3.57
273.062	3.58
273.441	3.43
273.82	3.05
274.199	3.72
274.578	3.44
274.957	3.79
275.336	3.59
275.715	3.91
276.093	3.94
276.472	3.31
276.851	3.63
277.229	3.57
277.608	3.51
277.986	3.19
278.365	3.54
278.743	3.07
279.122	3.56
279.5	3.97
279.878	3.75
280.257	3.74
280.635	4.27
281.013	4.01
281.391	3.57
281.769	3.23
282.147	3.33
282.525	3.84
282.903	3.12
283.281	3
283.659	3.05
284.037	3.47
284.415	3.45
284.792	3.36
285.17	3.24
285.548	3.88
285.925	3.28
286.303	3.09
286.68	2.95
287.058	3.08
287.435	3.47
287.813	3.32
288.19	3.4
288.567	3.13
288.945	3.13
289.322	2.88
289.699	3.56
290.076	3.39
290.453	3.21
290.83	3.11
291.207	2.91
291.584	2.88
291.961	3.16
292.338	3.21
292.715	3.26
293.092	3.06
293.469	3.2
293.845	3.58
294.222	3.3
294.599	3.33
294.975	3.27
295.352	3.44
295.728	3.36
296.105	2.92
296.481	3.16
296.858	3.34
297.234	3.51
297.61	2.96
297.986	2.75
298.363	2.9
298.739	2.73
299.115	2.72
299.491	3.04
299.867	3.23
300.243	3.08
300.619	2.79
300.995	3.84
301.371	3.43
301.746	2.95
302.122	3.37
302.498	3.27
302.874	3.14
303.249	3.13
303.625	3.27
304	3.38
304.376	2.97
304.751	3.3
305.127	2.87
305.502	3.19
305.878	3.38
306.253	2.59
306.628	3.29
307.003	2.82
307.378	3.64
307.754	2.98
308.129	2.81
308.504	3.05
308.879	2.89
309.254	2.67
309.629	2.96
310.003	2.84
310.378	2.5
310.753	2.67
311.128	2.58
311.502	3.05
311.877	3.03
312.252	2.9
312.626	3.33
313.001	2.79
313.375	2.78
313.75	3.29
314.124	2.89
314.498	2.9
314.873	3.17
315.247	2.84
315.621	2.75
315.995	3.43
316.369	2.81
316.743	2.68
317.117	3.31
317.491	3.43
317.865	3.45
318.239	2.8
318.613	2.94
318.987	2.56
319.361	2.58
319.734	2.32
320.108	2.79
320.482	2.85
320.855	2.94
321.229	2.85
321.602	3.19
321.976	3.33
322.349	2.95
322.723	1.89
323.096	3.35
323.469	3.51
323.843	2.63
324.216	2.73
324.589	3.13
324.962	3.06
325.335	2.59
325.708	2.78
326.081	3.15
326.454	2.91
326.827	2.71
327.2	2.78
327.573	2.54
327.945	2.58
328.318	2.84
328.691	2.73
329.063	2.74
329.436	3.25
329.809	3.6
330.181	2.9
330.553	2.97
330.926	3.19
331.298	2.59
331.671	3.03
332.043	2.44
332.415	3.13
332.787	2.73
333.159	2.93
333.532	2.94
333.904	3.03
334.276	3.31
334.648	2.82
335.02	3.07
335.391	3.2
335.763	3.16
336.135	2.56
336.507	2.93
336.879	2.96
337.25	2.67
337.622	2.78
337.993	2.83
338.365	2.96
338.736	2.73
339.108	3.16
339.479	3.18
339.851	2.52
340.222	3.09
340.593	2.98
340.964	2.6
341.336	2.87
341.707	2.48
342.078	3.21
342.449	2.84
342.82	2.33
343.191	2.6
343.562	2.88
343.933	2.95
344.303	2.8
344.674	3.11
345.045	2.71
345.416	2.86
345.786	2.99
346.157	3.37
346.527	3.05
346.898	2.91
347.268	2.81
347.639	2.61
348.009	2.93
348.38	3.19
348.75	3.36
349.12	2.63
349.49	2.98
349.861	2.71
350.231	2.63
350.601	2.89
350.971	2.96
351.341	2.85
351.711	2.74
352.081	3
352.45	3.02
352.82	3.12
353.19	3.28
353.56	3.16
353.929	2.51
354.299	3.07
354.669	2.84
355.038	2.82
355.408	3.24
355.777	2.8
356.147	2.89
356.516	3.09
356.885	2.34
357.254	3.45
357.624	3.23
357.993	2.46
358.362	2.76
358.731	2.69
359.1	2.35
359.469	2.53
359.838	3.06
360.207	3.22
360.576	2.96
360.945	3.15
361.314	2.81
361.682	3.09
362.051	2.97
362.42	2.97
362.788	2.9
363.157	2.98
363.525	2.58
363.894	2.9
364.262	2.93
364.631	3.09
364.999	3.06
365.367	3.15
365.735	2.92
366.104	2.69
366.472	3.27
366.84	3.22
367.208	2.9
367.576	3.81
367.944	2.89
368.312	2.89
368.68	2.77
369.048	2.95
369.416	3.05
369.783	2.79
370.151	2.82
370.519	2.87
370.886	3.33
371.254	2.88
371.621	3.23
371.989	3.22
372.356	2.83
372.724	3.21
373.091	2.72
373.458	2.72
373.826	3.09
374.193	3.11
374.56	3.28
374.927	3.42
375.294	3.3
375.661	2.79
376.028	2.91
376.395	3
376.762	3.2
377.129	3.32
377.496	3.25
377.863	2.82
378.229	3.43
378.596	3.21
378.963	3.32
379.329	2.95
379.696	3.44
380.062	3.18
380.429	3.36
380.795	3.09
381.161	3.07
381.528	3.16
381.894	3.06
382.26	2.98
382.626	3.15
382.993	3.32
383.359	3.02
383.725	3.01
384.091	3.1
384.457	3.34
384.823	3.18
385.188	3.31
385.554	3.14
385.92	3.44
386.286	3.27
386.651	3.22
387.017	3.25
387.383	3.08
387.748	2.84
388.114	3.35
388.479	2.84
388.845	2.92
389.21	3.18
389.575	3.12
389.94	3.1
390.306	3.33
390.671	3.02
391.036	2.86
391.401	2.81
391.766	3.12
392.131	2.83
392.496	3.37
392.861	3.25
393.226	3.19
393.591	2.95
393.956	3.18
394.32	3.38
394.685	3.04
395.05	3.35
395.414	3.07
395.779	2.92
396.143	3.25
396.508	3.08
396.872	3.43
397.236	3.31
397.601	3.15
397.965	3.27
398.329	3.16
398.694	3.25
399.058	3.18
399.422	3.41
399.786	3.39
400.15	3.13
400.514	3.14
400.878	3.31
401.242	3.19
401.605	3.39
401.969	3.44
402.333	3.18
402.697	3.45
403.06	3.18
403.424	3.29
403.787	3.41
404.151	3.34
404.514	3.4
404.878	3.21
405.241	3.23
405.604	3.23
405.968	3.38
406.331	3.28
406.694	3.37
407.057	3.28
407.42	3.37
407.783	3.15
408.146	3.28
408.509	3.32
408.872	3.36
409.235	3.48
409.598	3.31
409.961	3.22
410.323	3.55
410.686	3.45
411.049	3.47
411.411	3.46
411.774	3.67
412.136	3.41
412.499	3.32
412.861	3.29
413.223	3.15
413.586	3.25
413.948	3.32
414.31	3.46
414.672	3.31
415.035	3.37
415.397	3.51
415.759	3.43
416.121	3.43
416.483	3.32
416.845	3.37
417.206	3.47
417.568	3.31
417.93	3.29
418.292	3.5
418.653	3.33
419.015	3.45
419.377	3.34
419.738	3.32
420.1	3.47
420.461	3.36
420.822	3.29
421.184	3.3
421.545	3.3
421.906	3.22
422.267	3.26
422.629	3.34
422.99	3.31
423.351	3.38
423.712	3.31
424.073	3.25
424.434	3.33
424.795	3.37
425.155	3.26
425.516	3.21
425.877	3.42
426.238	3.32
426.598	3.37
426.959	3.39
427.32	3.36
427.68	3.37
428.041	3.25
428.401	3.45
428.761	3.56
429.122	3.56
429.482	3.48
429.842	3.6
430.202	3.48
430.563	3.44
430.923	3.34
431.283	3.31
431.643	3.41
432.003	3.56
432.363	3.47
432.722	3.6
433.082	3.58
433.442	3.34
433.802	3.57
434.161	3.41
434.521	3.47
434.881	3.33
435.24	3.32
435.6	3.5
435.959	3.43
436.319	3.6
436.678	3.37
437.037	3.47
437.396	3.55
437.756	3.3
438.115	3.28
438.474	3.46
438.833	3.47
439.192	3.55
439.551	3.42
439.91	3.42
440.269	3.31
440.628	3.46
440.987	3.45
441.345	3.5
441.704	3.39
442.063	3.53
442.421	3.5
442.78	3.41
443.138	3.31
443.497	3.47
443.855	3.48
444.214	3.57
444.572	3.56
444.93	3.42
445.288	3.45
445.647	3.49
446.005	3.49
446.363	3.6
446.721	3.42
447.079	3.5
447.437	3.53
447.795	3.41
448.153	3.47
448.51	3.41
448.868	3.43
449.226	3.46
449.584	3.5
449.941	3.33
450.299	3.51
450.656	3.41
451.014	3.58
451.371	3.47
451.729	3.53
452.086	3.54
452.443	3.56
452.801	3.56
453.158	3.47
453.515	3.49
453.872	3.58
454.229	3.39
454.586	3.64
454.943	3.5
455.3	3.4
455.657	3.73
456.014	3.36
456.371	3.56
456.727	3.41
457.084	3.54
457.441	3.6
457.797	3.63
458.154	3.44
458.51	3.21
458.867	3.61
459.223	3.56
459.58	3.59
459.936	3.69
460.292	3.48
460.648	3.4
461.005	3.49
461.361	3.39
461.717	3.38
462.073	3.41
462.429	3.54
462.785	3.51
463.141	3.71
463.496	3.64
463.852	3.59
464.208	3.67
464.564	3.39
464.919	3.72
465.275	3.57
465.631	3.66
465.986	3.51
466.342	3.68
466.697	3.65
467.052	3.76
467.408	3.38
467.763	3.47
468.118	3.66
468.473	3.55
468.829	3.52
469.184	3.59
469.539	3.74
469.894	3.69
470.249	3.56
470.603	3.61
470.958	3.39
471.313	3.55
471.668	3.49
472.023	3.54
472.377	3.49
472.732	3.82
473.086	3.53
473.441	3.62
473.795	3.44
474.15	3.61
474.504	3.66
474.859	3.65
475.213	3.62
475.567	3.63
475.921	3.48
476.275	3.37
476.63	3.54
476.984	3.32
477.338	3.49
477.692	3.6
478.045	3.59
478.399	3.44
478.753	3.62
479.107	3.64
479.461	3.53
479.814	3.51
480.168	3.47
480.521	3.49
480.875	3.62
481.228	3.62
481.582	3.62
481.935	3.56
482.289	3.55
482.642	3.5
482.995	3.54
483.348	3.54
483.701	3.56
484.055	3.58
484.408	3.41
484.761	3.35
485.114	3.27
485.466	3.27
485.819	3.28
486.172	3.41
486.525	3.46
486.878	3.5
487.23	3.52
487.583	3.45
487.936	3.51
488.288	3.48
488.641	3.35
488.993	3.36
489.345	3.37
489.698	3.37
490.05	3.39
490.402	3.45
490.754	3.48
491.107	3.49
491.459	3.54
491.811	3.51
492.163	3.56
492.515	3.44
492.866	3.42
493.218	3.37
493.57	3.38
493.922	3.46
494.274	3.46
494.625	3.62
494.977	3.56
495.328	3.61
495.68	3.49
496.031	3.57
496.383	3.66
496.734	3.64
497.086	3.64
497.437	3.63
497.788	3.6
498.139	3.49
498.49	3.52
498.842	3.48
499.193	3.6
499.544	3.54
499.894	3.53
500.245	3.5
500.596	3.54
500.947	3.62
501.298	3.7
501.648	3.52
501.999	3.6
502.35	3.55
502.7	3.59
503.051	3.66
503.401	3.69
503.752	3.57
504.102	3.57
504.452	3.55
504.803	3.6
505.153	3.69
505.503	3.52
505.853	3.6
506.203	3.5
506.553	3.57
506.903	3.54
507.253	3.65
507.603	3.68
507.953	3.73
508.303	3.76
508.652	3.7
509.002	3.65
509.352	3.63
509.701	3.65
510.051	3.66
510.4	3.6
510.75	3.73
511.099	3.6
511.449	3.53
511.798	3.51
512.147	3.56
512.496	3.63
512.846	3.56
513.195	3.66
513.544	3.58
513.893	3.62
514.242	3.52
514.591	3.68
514.939	3.62
515.288	3.69
515.637	3.59
515.986	3.69
516.334	3.54
516.683	3.54
517.032	3.57
517.38	3.48
517.729	3.7
518.077	3.55
518.426	3.5
518.774	3.56
519.122	3.5
519.47	3.54
519.819	3.64
520.167	3.68
520.515	3.55
520.863	3.52
521.211	3.64
521.559	3.61
521.907	3.64
522.255	3.55
522.602	3.62
522.95	3.64
523.298	3.65
523.645	3.51
523.993	3.69
524.341	3.73
524.688	3.61
525.036	3.67
525.383	3.57
525.73	3.69
526.078	3.66
526.425	3.42
526.772	3.61
527.119	3.46
527.466	3.51
527.814	3.51
528.161	3.52
528.508	3.52
528.854	3.5
529.201	3.46
529.548	3.48
529.895	3.42
530.242	3.4
530.588	3.4
530.935	3.48
531.282	3.5
531.628	3.5
531.975	3.51
532.321	3.51
532.667	3.54
533.014	3.57
533.36	3.61
533.706	3.63
534.052	3.56
534.399	3.54
534.745	3.47
535.091	3.42
535.437	3.53
535.783	3.51
536.129	3.57
536.474	3.57
536.82	3.59
537.166	3.59
537.512	3.6
537.857	3.56
538.203	3.53
538.549	3.45
538.894	3.62
539.239	3.55
539.585	3.62
539.93	3.66
540.276	3.64
540.621	3.68
540.966	3.65
541.311	3.66
541.656	3.66
542.001	3.55
542.346	3.51
542.691	3.43
543.036	3.45
543.381	3.43
543.726	3.48
544.071	3.59
544.415	3.5
544.76	3.57
545.105	3.58
545.449	3.63
545.794	3.58
546.138	3.61
546.483	3.66
546.827	3.64
547.171	3.57
547.516	3.54
547.86	3.56
548.204	3.58
548.548	3.64
548.892	3.65
549.236	3.55
549.58	3.67
549.924	3.67
550.268	3.74
550.612	3.65
550.956	3.59
551.3	3.59
551.643	3.76
551.987	3.69
552.33	3.66
552.674	3.64
553.017	3.56
553.361	3.58
553.704	3.81
554.048	3.64
554.391	3.79
554.734	3.52
555.077	3.59
555.42	3.77
555.764	3.64
556.107	3.8
556.45	3.6
556.793	3.66
557.135	3.68
557.478	3.94
557.821	3.59
558.164	3.65
558.507	3.93
558.849	3.53
559.192	3.58
559.534	3.67
559.877	3.62
560.219	3.65
560.562	3.77
560.904	3.55
561.246	3.6
561.589	3.57
561.931	3.7
562.273	3.74
562.615	3.7
562.957	3.63
563.299	3.72
563.641	3.63
563.983	3.65
564.325	3.65
564.667	3.89
565.008	3.61
565.35	3.65
565.692	3.82
566.033	3.47
566.375	3.53
566.716	3.69
567.058	3.72
567.399	3.41
567.741	3.67
568.082	3.79
568.423	3.65
568.764	3.63
569.105	3.72
569.447	3.44
569.788	3.78
570.129	3.65
570.47	3.76
570.811	3.55
571.151	3.69
571.492	3.89
571.833	3.65
572.174	3.45
572.514	3.64
572.855	3.63
573.195	3.76
573.536	3.67
573.876	3.66
574.217	3.52
574.557	3.63
574.898	3.74
575.238	3.78
575.578	3.76
575.918	3.59
576.258	3.6
576.598	3.67
576.938	3.75
577.278	3.78
577.618	3.65
577.958	3.74
578.298	3.72
578.638	3.85
578.977	3.76
579.317	3.67
579.657	3.78
579.996	3.77
580.336	3.81
580.675	3.71
581.014	3.46
581.354	3.59
581.693	3.67
582.032	3.71
582.372	3.5
582.711	3.55
583.05	3.64
583.389	3.37
583.728	3.81
584.067	3.84
584.406	3.57
584.745	3.84
585.083	3.63
585.422	3.76
585.761	3.8
586.1	3.75
586.438	3.74
586.777	3.89
587.115	3.75
587.454	3.76
587.792	3.56
588.13	3.74
588.469	3.72
588.807	3.51
589.145	3.64
589.483	3.92
589.821	3.8
590.159	3.81
590.497	3.65
590.835	3.58
591.173	3.68
591.511	3.38
591.849	3.78
592.187	3.75
592.524	3.63
592.862	3.7
593.2	3.76
593.537	3.51
593.875	3.76
594.212	3.52
594.55	3.67
594.887	3.88
595.224	3.56
595.561	3.55
595.899	3.63
596.236	3.87
596.573	3.52
596.91	3.57
597.247	3.46
597.584	3.68
597.921	3.62
598.258	3.55
598.594	3.62
598.931	3.52
599.268	3.67
599.604	3.59
599.941	3.57
600.277	3.64
600.614	3.73
600.95	3.64
601.287	3.48
601.623	3.55
601.959	3.55
602.296	3.56
602.632	3.63
602.968	3.75
603.304	3.81
603.64	3.66
603.976	3.55
604.312	3.51
604.648	3.69
604.984	3.67
605.319	3.68
605.655	3.68
605.991	3.72
606.326	3.59
606.662	3.58
606.998	3.7
607.333	3.63
607.668	3.53
608.004	3.76
608.339	3.71
608.674	3.75
609.01	3.47
609.345	3.36
609.68	3.9
610.015	3.69
610.35	3.55
610.685	3.58
611.02	3.31
611.355	3.38
611.689	3.49
612.024	3.75
612.359	3.52
612.694	3.74
613.028	3.82
613.363	3.5
613.697	3.66
614.032	3.57
614.366	3.82
614.7	3.68
615.035	4.01
615.369	3.29
615.703	3.63
616.037	3.84
616.371	3.62
616.705	3.36
617.039	3.92
617.373	3.59
617.707	3.02
618.041	3.58
618.375	3.71
618.709	3.78
619.042	3.48
619.376	3.67
619.71	3.65
620.043	4.05
620.377	3.73
620.71	3.56
621.043	3.5
621.377	3.5
621.71	3.74
622.043	3.6
622.376	3.46
622.709	3.54
623.043	3.88
623.376	3.4
623.709	3.52
624.041	3.83
624.374	3.6
624.707	3.44
625.04	3.72
625.373	3.92
625.705	3.2
626.038	3.6
626.37	3.72
626.703	3.7
627.035	3.36
627.368	3.7
627.7	3.66
628.032	3.36
628.365	3.46
628.697	3.67
629.029	3.36
629.361	3.8
629.693	3.54
630.025	3.63
630.357	3.74
630.689	3.64
631.021	3.57
631.353	3.71
631.684	3.7
632.016	3.85
632.348	3.47
632.679	3.54
633.011	3.49
633.342	3.81
633.674	4.02
634.005	3.48
634.336	3.63
634.668	3.57
634.999	3.64
635.33	3.99
635.661	3.82
635.992	3.77
636.323	3.57
636.654	3.45
636.985	3.78
637.316	3.79
637.647	3.39
637.977	3.94
638.308	3.66
638.639	3.64
638.969	3.68
639.3	3.93
639.63	3.14
639.961	3.74
640.291	3.46
640.622	3.95
640.952	4.15
641.282	3.79
641.612	3.5
641.943	3.67
642.273	3.55
642.603	3.78
642.933	3.53
643.263	3.7
643.592	3.71
643.922	2.85
644.252	3.84
644.582	4
644.911	3.87
645.241	3.6
645.571	3.65
645.9	3.32
646.23	3.36
646.559	3.35
646.888	3.81
647.218	3.55
647.547	3.77
647.876	3.52
648.205	3.46
648.534	3.44
648.863	3.7
649.192	3.23
649.521	3.67
649.85	4.07
650.179	3.95
650.508	3.53
650.837	3.6
651.165	3.57
651.494	4.09
651.822	3.68
652.151	3.58
652.479	3.91
652.808	4.02
653.136	3.83
653.465	3.45
653.793	3.53
654.121	3.5
654.449	3.73
654.777	3.42
655.105	3.74
655.433	3.22
655.761	4.28
656.089	4.02
656.417	3.36
656.745	3.57
657.073	3.11
657.4	4.05
657.728	3.71
658.056	3.58
658.383	3.32
658.711	3.83
659.038	3.38
659.365	3.35
659.693	3.56
660.02	3.82
660.347	3.65
660.674	3.39
661.001	3.84
661.329	3.71
661.656	3.33
661.982	3.7
662.309	3.77
662.636	3.92
662.963	3.61
663.29	2.99
663.616	3.58
663.943	3.56
664.27	3.5
664.596	3.45
664.923	3.67
665.249	4.21
665.576	3.98
665.902	3.69
666.228	4.27
666.554	3.77
666.881	3.57
667.207	3.47
667.533	3.03
667.859	3.81
668.185	3.88
668.511	2.75
668.837	3.76
669.162	4.1
669.488	3.52
669.814	3.8
670.139	3.75
670.465	3.83
670.791	3.64
671.116	3.38
671.442	3.8
671.767	3.78
672.092	3.67
672.418	3.45
672.743	3.71
673.068	3.6
673.393	3.65
673.718	3.78
674.043	3.98
674.368	4.15
674.693	3.53
675.018	3.48
675.343	3.81
675.667	3.9
675.992	3.94
676.317	3.53
676.641	3.85
676.966	3.18
677.29	2.87
677.615	2.95
677.939	3.51
678.264	3.16
678.588	3.07
678.912	3.79
679.236	3.69
679.56	3.97
679.885	3.49
680.209	3.68
680.532	3.86
680.856	4.23
681.18	4.04
681.504	3.82
681.828	3.25
682.152	3.59
682.475	3.53
682.799	3.8
683.122	3.64
683.446	4.21
683.769	3.97
684.093	3.67
684.416	4.17
684.739	3.94
685.062	3.84
685.386	4.56
685.709	3.18
686.032	3.46
686.355	3.53
686.678	3.79
687.001	3.94
687.324	3.86
687.646	3.74
687.969	2.86
688.292	3.61
688.614	3.35
688.937	3.81
689.26	3.35
689.582	3.31
689.904	4.2
690.227	3.72
690.549	3.36
690.871	3.75
691.194	3.5
691.516	4.29
691.838	3.5
692.16	3.77
