Data from 1886-1_chest_Reflection__2__78.txt Node

Date: Fri Sep 30 18:22:25 CDT 2022
User: ToomeyLab
Spectrometer: FLMS14357
Trigger mode: 0
Integration Time (sec): 1.000000E-2
Scans to average: 100
Electric dark correction enabled: true
Nonlinearity correction enabled: false
Boxcar width: 0
XAxis mode: Wavelengths
Number of Pixels in Spectrum: 2048
>>>>>Begin Spectral Data<<<<<
189.047	-27.78
189.435	-27.78
189.823	-27.78
190.211	-23.48
190.599	-111.96
190.987	75.96
191.375	116.21
191.763	613.16
192.151	-43.96
192.538	-54.81
192.926	108.76
193.314	-1063.68
193.702	158.56
194.089	42.6
194.477	363.88
194.864	199.18
195.252	13.61
195.639	711.83
196.027	-26.25
196.414	65.04
196.801	27.11
197.189	-282.82
197.576	-370.46
197.963	251.91
198.351	-1.12
198.738	-48.86
199.125	29.98
199.512	-3.75
199.899	28.53
200.286	-6.48
200.673	23.84
201.06	62.57
201.447	43.63
201.833	98.85
202.22	3.91
202.607	17.63
202.994	38.17
203.38	3.24
203.767	1.58
204.154	13.49
204.54	40.69
204.927	26.39
205.313	-14.32
205.699	-21.21
206.086	-23.32
206.472	28.99
206.858	10.81
207.245	-0.13
207.631	11.89
208.017	-27.68
208.403	40.38
208.789	52.43
209.175	9.86
209.561	7.77
209.947	6.26
210.333	-24.94
210.719	-11.25
211.105	-0.26
211.491	20.51
211.876	18.76
212.262	15.97
212.648	22.65
213.034	-12.61
213.419	23.31
213.805	-20.65
214.19	28.63
214.576	2.26
214.961	18.27
215.346	-5.15
215.732	-4.34
216.117	-8.78
216.502	5.83
216.888	20.74
217.273	-26.76
217.658	24.18
218.043	24.79
218.428	-1.69
218.813	6.89
219.198	2.72
219.583	0.18
219.968	-1.84
220.353	4.29
220.738	9.08
221.122	-2.33
221.507	11.14
221.892	6.65
222.276	-22.85
222.661	15.15
223.046	-7.74
223.43	7.05
223.815	-0.59
224.199	9.15
224.583	-8.95
224.968	-1.86
225.352	-11.15
225.736	-0.22
226.121	11.99
226.505	3.52
226.889	-4.03
227.273	-1.01
227.657	0.96
228.041	1.28
228.425	7.13
228.809	3.7
229.193	1.83
229.577	-0.82
229.961	3.1
230.344	1.02
230.728	1.24
231.112	1.97
231.495	2.4
231.879	3.47
232.263	1.66
232.646	2.45
233.03	2.48
233.413	2.89
233.797	1.03
234.18	0.21
234.563	2.09
234.946	3.82
235.33	1.34
235.713	2.55
236.096	0.97
236.479	2.77
236.862	1.5
237.245	4.09
237.628	3
238.011	4.55
238.394	2.36
238.777	1.19
239.16	1.05
239.543	0.4
239.925	1.13
240.308	1.35
240.691	2.02
241.073	2.44
241.456	2.66
241.838	2.4
242.221	2.84
242.603	3.01
242.986	2.91
243.368	1.08
243.75	2.02
244.133	2.41
244.515	2.16
244.897	2.2
245.279	2.68
245.661	2.47
246.043	1.35
246.425	1.9
246.807	2
247.189	2.73
247.571	2.31
247.953	2.3
248.335	2.1
248.717	2.1
249.098	2.39
249.48	2.09
249.862	2.03
250.243	2.05
250.625	2.1
251.006	1.75
251.388	1.59
251.769	3.3
252.151	2.42
252.532	2.57
252.913	1.64
253.295	2.49
253.676	2.12
254.057	2.32
254.438	2.22
254.819	2.62
255.2	1.71
255.581	2.48
255.962	1.97
256.343	2.2
256.724	1.98
257.105	3.14
257.486	2.94
257.867	2.8
258.247	1.76
258.628	1.72
259.009	2.83
259.389	1.72
259.77	2.74
260.15	1.91
260.531	2.17
260.911	2.34
261.292	2
261.672	2
262.052	2.06
262.432	1.85
262.813	2.88
263.193	2.13
263.573	1.92
263.953	2.2
264.333	2.52
264.713	1.59
265.093	1.96
265.473	2.1
265.853	2.34
266.233	1.97
266.612	2.11
266.992	2.08
267.372	2.27
267.752	1.94
268.131	2.14
268.511	2.13
268.89	1.95
269.27	2.36
269.649	2.14
270.029	1.96
270.408	2.07
270.787	1.99
271.167	2.2
271.546	2.48
271.925	2.75
272.304	2.06
272.683	1.79
273.062	1.98
273.441	1.99
273.82	1.63
274.199	2.38
274.578	1.86
274.957	1.7
275.336	1.46
275.715	2.38
276.093	1.99
276.472	1.96
276.851	2.17
277.229	2.16
277.608	1.92
277.986	1.5
278.365	2.03
278.743	1.58
279.122	2.36
279.5	1.94
279.878	1.8
280.257	2.15
280.635	2.09
281.013	2.56
281.391	2.34
281.769	1.86
282.147	1.74
282.525	2.22
282.903	1.91
283.281	1.52
283.659	1.95
284.037	1.75
284.415	2.47
284.792	2.05
285.17	1.66
285.548	2.15
285.925	2.07
286.303	1.51
286.68	1.38
287.058	1.95
287.435	1.96
287.813	2.09
288.19	2.16
288.567	2.22
288.945	1.62
289.322	1.9
289.699	1.97
290.076	1.7
290.453	1.83
290.83	1.87
291.207	2.03
291.584	1.8
291.961	1.89
292.338	2.02
292.715	2.25
293.092	1.74
293.469	2.22
293.845	2.72
294.222	2.3
294.599	2.66
294.975	2.6
295.352	1.88
295.728	1.98
296.105	2.14
296.481	2.67
296.858	2.17
297.234	2.2
297.61	2.02
297.986	2.04
298.363	2.02
298.739	2.03
299.115	2.04
299.491	2.08
299.867	2.27
300.243	1.75
300.619	1.86
300.995	2.62
301.371	2.09
301.746	2.1
302.122	2.41
302.498	2.38
302.874	2.33
303.249	2.41
303.625	2.37
304	2.1
304.376	2.45
304.751	2.35
305.127	2.01
305.502	2.22
305.878	2.31
306.253	2.18
306.628	2.23
307.003	2.24
307.378	2.35
307.754	2.22
308.129	2.22
308.504	2.18
308.879	2.39
309.254	1.72
309.629	2.14
310.003	2.31
310.378	2.08
310.753	1.88
311.128	2.03
311.502	2.43
311.877	2.33
312.252	2.36
312.626	2.43
313.001	1.89
313.375	2.24
313.75	2.62
314.124	2.26
314.498	2.25
314.873	2.31
315.247	2.01
315.621	2.28
315.995	2.75
316.369	1.98
316.743	2.21
317.117	3.12
317.491	2.89
317.865	2.51
318.239	2.31
318.613	2.46
318.987	2.05
319.361	2.45
319.734	2.09
320.108	1.97
320.482	2.15
320.855	2.22
321.229	2.2
321.602	2.37
321.976	2.4
322.349	2.18
322.723	1.99
323.096	2.81
323.469	2.79
323.843	2.27
324.216	2.35
324.589	2.61
324.962	3.01
325.335	2.42
325.708	2.39
326.081	2.78
326.454	2.43
326.827	2.25
327.2	2.47
327.573	2.06
327.945	2.52
328.318	2.22
328.691	2.34
329.063	2.48
329.436	2.59
329.809	3.41
330.181	2.64
330.553	2
330.926	2.9
331.298	2.03
331.671	2.28
332.043	2.22
332.415	2.95
332.787	2.32
333.159	1.65
333.532	2.88
333.904	2.28
334.276	2.49
334.648	2.09
335.02	2.77
335.391	2.44
335.763	2.66
336.135	2.58
336.507	2.65
336.879	2.05
337.25	2.44
337.622	2.05
337.993	2.27
338.365	1.95
338.736	2.32
339.108	2.48
339.479	2.44
339.851	2.17
340.222	2.34
340.593	2.15
340.964	1.98
341.336	2.4
341.707	2.39
342.078	2.49
342.449	2.53
342.82	2.21
343.191	2.29
343.562	2.47
343.933	2.49
344.303	2.5
344.674	2.37
345.045	2.31
345.416	2.6
345.786	2.6
346.157	3.08
346.527	2.31
346.898	2.35
347.268	2.06
347.639	2.26
348.009	2.56
348.38	2.74
348.75	2.65
349.12	2.42
349.49	2.78
349.861	2.06
350.231	2.11
350.601	2.36
350.971	2.54
351.341	2.29
351.711	2.21
352.081	2.38
352.45	2.58
352.82	2.78
353.19	2.67
353.56	2.18
353.929	2.31
354.299	2.57
354.669	2.59
355.038	2.27
355.408	2.44
355.777	2.23
356.147	2.23
356.516	2.7
356.885	2.24
357.254	2.63
357.624	2.48
357.993	1.96
358.362	2.43
358.731	2.15
359.1	2.32
359.469	2.41
359.838	2.99
360.207	2.57
360.576	2.41
360.945	2.48
361.314	2.43
361.682	2.4
362.051	2.67
362.42	2.86
362.788	2.54
363.157	2.47
363.525	2.19
363.894	2.31
364.262	2.74
364.631	2.79
364.999	2.45
365.367	2.63
365.735	2.4
366.104	2.1
366.472	3
366.84	2.85
367.208	2.62
367.576	3.03
367.944	2.72
368.312	2.25
368.68	2.21
369.048	2.32
369.416	2.73
369.783	2.78
370.151	2.21
370.519	2.48
370.886	2.55
371.254	2.31
371.621	2.64
371.989	2.62
372.356	2.59
372.724	2.57
373.091	2.72
373.458	2.48
373.826	2.83
374.193	2.83
374.56	2.58
374.927	2.91
375.294	2.72
375.661	2.19
376.028	2.27
376.395	2.59
376.762	2.39
377.129	2.84
377.496	2.9
377.863	2.41
378.229	2.68
378.596	2.49
378.963	2.82
379.329	2.58
379.696	2.76
380.062	2.85
380.429	2.76
380.795	2.25
381.161	2.44
381.528	2.8
381.894	2.16
382.26	2.42
382.626	2.6
382.993	2.79
383.359	2.76
383.725	2.25
384.091	2.54
384.457	2.6
384.823	2.91
385.188	2.53
385.554	2.79
385.92	2.59
386.286	2.52
386.651	2.91
387.017	2.73
387.383	2.51
387.748	2.47
388.114	2.76
388.479	2.58
388.845	2.61
389.21	2.41
389.575	2.86
389.94	2.39
390.306	2.68
390.671	2.67
391.036	2.74
391.401	2.49
391.766	2.63
392.131	2.52
392.496	2.74
392.861	2.64
393.226	2.47
393.591	2.61
393.956	2.69
394.32	2.65
394.685	2.56
395.05	2.95
395.414	2.75
395.779	2.64
396.143	2.78
396.508	2.73
396.872	2.79
397.236	2.75
397.601	2.68
397.965	2.85
398.329	2.63
398.694	2.87
399.058	2.76
399.422	2.76
399.786	2.88
400.15	2.69
400.514	2.75
400.878	2.82
401.242	2.43
401.605	2.61
401.969	2.56
402.333	2.73
402.697	2.86
403.06	2.64
403.424	2.7
403.787	2.87
404.151	2.69
404.514	2.87
404.878	2.6
405.241	2.75
405.604	2.84
405.968	2.81
406.331	2.64
406.694	2.83
407.057	2.67
407.42	2.93
407.783	2.57
408.146	2.48
408.509	2.78
408.872	2.67
409.235	2.88
409.598	2.73
409.961	2.62
410.323	2.97
410.686	2.87
411.049	2.47
411.411	2.82
411.774	2.94
412.136	2.78
412.499	2.53
412.861	2.68
413.223	2.67
413.586	2.86
413.948	2.84
414.31	2.77
414.672	2.74
415.035	2.93
415.397	2.79
415.759	2.67
416.121	2.74
416.483	2.57
416.845	2.8
417.206	2.9
417.568	2.83
417.93	2.59
418.292	2.66
418.653	2.64
419.015	2.67
419.377	2.75
419.738	2.68
420.1	2.75
420.461	2.79
420.822	2.83
421.184	2.79
421.545	2.57
421.906	2.56
422.267	2.6
422.629	2.63
422.99	2.67
423.351	2.64
423.712	2.66
424.073	2.71
424.434	2.77
424.795	2.71
425.155	2.63
425.516	2.7
425.877	2.75
426.238	2.7
426.598	2.78
426.959	2.7
427.32	2.89
427.68	2.82
428.041	2.78
428.401	2.84
428.761	2.89
429.122	2.97
429.482	2.78
429.842	2.75
430.202	2.84
430.563	2.76
430.923	2.66
431.283	2.76
431.643	3.04
432.003	2.93
432.363	2.89
432.722	2.87
433.082	2.88
433.442	2.86
433.802	2.89
434.161	2.93
434.521	2.87
434.881	2.82
435.24	2.76
435.6	2.89
435.959	2.76
436.319	2.85
436.678	2.92
437.037	2.92
437.396	2.92
437.756	2.92
438.115	2.81
438.474	2.87
438.833	3.03
439.192	2.91
439.551	2.79
439.91	2.89
440.269	2.67
440.628	2.8
440.987	2.89
441.345	2.9
441.704	2.85
442.063	2.94
442.421	2.93
442.78	2.88
443.138	2.73
443.497	2.86
443.855	2.9
444.214	2.81
444.572	2.92
444.93	2.76
445.288	2.8
445.647	2.85
446.005	3
446.363	2.95
446.721	2.75
447.079	2.84
447.437	2.85
447.795	2.82
448.153	2.82
448.51	2.88
448.868	2.84
449.226	2.91
449.584	2.84
449.941	2.88
450.299	2.92
450.656	3
451.014	3.12
451.371	2.93
451.729	2.95
452.086	2.97
452.443	2.96
452.801	3.03
453.158	2.94
453.515	2.92
453.872	3.01
454.229	2.94
454.586	3.01
454.943	3.1
455.3	3
455.657	3.06
456.014	2.81
456.371	2.87
456.727	3
457.084	2.81
457.441	3.07
457.797	2.96
458.154	2.78
458.51	2.9
458.867	2.97
459.223	2.93
459.58	3.03
459.936	2.96
460.292	2.97
460.648	2.9
461.005	2.95
461.361	2.9
461.717	2.99
462.073	3.01
462.429	2.94
462.785	2.97
463.141	3.15
463.496	3.21
463.852	3.02
464.208	3.05
464.564	2.96
464.919	3.08
465.275	2.99
465.631	3.23
465.986	3.08
466.342	2.99
466.697	3.19
467.052	3.26
467.408	2.97
467.763	2.96
468.118	3.1
468.473	3.03
468.829	2.97
469.184	3.05
469.539	3.16
469.894	3.21
470.249	3.09
470.603	3.21
470.958	3.04
471.313	3.06
471.668	2.99
472.023	3.1
472.377	2.97
472.732	3.19
473.086	3.16
473.441	3.16
473.795	3
474.15	3.11
474.504	3.25
474.859	3.26
475.213	3.1
475.567	3.08
475.921	3.13
476.275	3.03
476.63	3.12
476.984	3.24
477.338	3.04
477.692	3.11
478.045	3.24
478.399	3.14
478.753	3.15
479.107	3.11
479.461	3.12
479.814	3.15
480.168	3.12
480.521	3.07
480.875	3.25
481.228	2.99
481.582	3.24
481.935	3.3
482.289	3.23
482.642	3.19
482.995	3.12
483.348	3.01
483.701	3.07
484.055	3.04
484.408	3.04
484.761	3
485.114	2.94
485.466	2.9
485.819	2.93
486.172	3.01
486.525	3.05
486.878	3.11
487.23	3.15
487.583	3.06
487.936	3.15
488.288	3.04
488.641	2.99
488.993	3.01
489.345	3.01
489.698	3.02
490.05	3.11
490.402	3.08
490.754	3.19
491.107	3.14
491.459	3.18
491.811	3.13
492.163	3.25
492.515	3.16
492.866	3.06
493.218	3.01
493.57	3.04
493.922	3.16
494.274	3.13
494.625	3.26
494.977	3.3
495.328	3.27
495.68	3.18
496.031	3.27
496.383	3.32
496.734	3.37
497.086	3.28
497.437	3.32
497.788	3.21
498.139	3.17
498.49	3.22
498.842	3.22
499.193	3.23
499.544	3.21
499.894	3.24
500.245	3.2
500.596	3.29
500.947	3.32
501.298	3.49
501.648	3.27
501.999	3.26
502.35	3.27
502.7	3.4
503.051	3.43
503.401	3.35
503.752	3.33
504.102	3.34
504.452	3.35
504.803	3.34
505.153	3.42
505.503	3.26
505.853	3.47
506.203	3.23
506.553	3.36
506.903	3.51
507.253	3.43
507.603	3.47
507.953	3.5
508.303	3.5
508.652	3.35
509.002	3.46
509.352	3.41
509.701	3.39
510.051	3.52
510.4	3.38
510.75	3.55
511.099	3.37
511.449	3.37
511.798	3.37
512.147	3.49
512.496	3.5
512.846	3.46
513.195	3.57
513.544	3.45
513.893	3.5
514.242	3.5
514.591	3.61
514.939	3.54
515.288	3.52
515.637	3.41
515.986	3.62
516.334	3.53
516.683	3.36
517.032	3.54
517.38	3.54
517.729	3.61
518.077	3.48
518.426	3.63
518.774	3.51
519.122	3.5
519.47	3.58
519.819	3.59
520.167	3.57
520.515	3.47
520.863	3.51
521.211	3.68
521.559	3.63
521.907	3.56
522.255	3.54
522.602	3.6
522.95	3.56
523.298	3.71
523.645	3.65
523.993	3.72
524.341	3.71
524.688	3.67
525.036	3.63
525.383	3.58
525.73	3.6
526.078	3.75
526.425	3.5
526.772	3.64
527.119	3.53
527.466	3.48
527.814	3.61
528.161	3.56
528.508	3.61
528.854	3.63
529.201	3.6
529.548	3.58
529.895	3.49
530.242	3.48
530.588	3.54
530.935	3.56
531.282	3.63
531.628	3.66
531.975	3.72
532.321	3.74
532.667	3.73
533.014	3.77
533.36	3.77
533.706	3.81
534.052	3.71
534.399	3.71
534.745	3.66
535.091	3.63
535.437	3.71
535.783	3.77
536.129	3.82
536.474	3.83
536.82	3.85
537.166	3.91
537.512	3.84
537.857	3.94
538.203	3.86
538.549	3.78
538.894	3.86
539.239	3.92
539.585	3.92
539.93	3.97
540.276	3.96
540.621	4.07
540.966	4.06
541.311	3.98
541.656	4.01
542.001	3.96
542.346	4.01
542.691	3.83
543.036	3.82
543.381	3.85
543.726	3.85
544.071	3.97
544.415	3.99
544.76	3.98
545.105	3.91
545.449	4.03
545.794	4.03
546.138	4.11
546.483	4.17
546.827	4.03
547.171	4.12
547.516	4.04
547.86	4.05
548.204	4.14
548.548	4.09
548.892	4.15
549.236	4.17
549.58	4.23
549.924	4.22
550.268	4.34
550.612	4.4
550.956	4.41
551.3	4.34
551.643	4.23
551.987	4.38
552.33	4.37
552.674	4.45
553.017	4.36
553.361	4.23
553.704	4.5
554.048	4.4
554.391	4.45
554.734	4.45
555.077	4.46
555.42	4.41
555.764	4.44
556.107	4.54
556.45	4.53
556.793	4.39
557.135	4.66
557.478	4.55
557.821	4.52
558.164	4.59
558.507	4.9
558.849	4.67
559.192	4.65
559.534	4.66
559.877	4.49
560.219	4.74
560.562	4.79
560.904	4.64
561.246	4.76
561.589	4.55
561.931	4.73
562.273	4.8
562.615	4.67
562.957	4.57
563.299	4.87
563.641	4.65
563.983	4.71
564.325	4.8
564.667	4.85
565.008	4.94
565.35	4.87
565.692	4.72
566.033	4.83
566.375	4.86
566.716	5.07
567.058	4.93
567.399	4.8
567.741	4.9
568.082	5.01
568.423	4.98
568.764	5.03
569.105	5.04
569.447	4.94
569.788	5.02
570.129	4.98
570.47	5.1
570.811	5.05
571.151	5.04
571.492	5.28
571.833	5.04
572.174	4.99
572.514	5.17
572.855	5.08
573.195	5.28
573.536	5.3
573.876	5.25
574.217	5.16
574.557	5.2
574.898	5.29
575.238	5.3
575.578	5.38
575.918	5.25
576.258	5.5
576.598	5.46
576.938	5.33
577.278	5.49
577.618	5.46
577.958	5.45
578.298	5.39
578.638	5.65
578.977	5.46
579.317	5.43
579.657	5.5
579.996	5.58
580.336	5.72
580.675	5.78
581.014	5.57
581.354	5.65
581.693	5.72
582.032	5.82
582.372	5.72
582.711	5.54
583.05	5.62
583.389	5.77
583.728	5.82
584.067	6.09
584.406	5.96
584.745	5.97
585.083	5.58
585.422	5.94
585.761	5.8
586.1	5.96
586.438	6.08
586.777	6.13
587.115	6.17
587.454	5.99
587.792	5.94
588.13	6.1
588.469	5.81
588.807	5.95
589.145	6.04
589.483	6.49
589.821	6.22
590.159	6.26
590.497	6.18
590.835	6.21
591.173	6.17
591.511	6.12
591.849	6.42
592.187	6.37
592.524	6.1
592.862	6.4
593.2	6.45
593.537	6.27
593.875	6.63
594.212	6.35
594.55	6.4
594.887	6.41
595.224	6.56
595.561	6.48
595.899	6.44
596.236	6.65
596.573	6.6
596.91	6.34
597.247	6.44
597.584	6.59
597.921	6.69
598.258	6.56
598.594	6.49
598.931	6.54
599.268	6.53
599.604	6.51
599.941	6.53
600.277	6.81
600.614	6.74
600.95	6.99
601.287	6.79
601.623	6.85
601.959	6.79
602.296	6.98
602.632	6.87
602.968	6.87
603.304	6.75
603.64	7.03
603.976	6.99
604.312	6.84
604.648	7.12
604.984	7.01
605.319	6.97
605.655	7.08
605.991	7.15
606.326	6.98
606.662	7.08
606.998	7.1
607.333	7.17
607.668	7.16
608.004	7.41
608.339	7.19
608.674	7.42
609.01	7.17
609.345	7.09
609.68	7.46
610.015	7.7
610.35	7.28
610.685	7.28
611.02	7.22
611.355	7.16
611.689	7.18
612.024	7.47
612.359	7.48
612.694	7.78
613.028	7.67
613.363	7.38
613.697	7.69
614.032	7.55
614.366	7.5
614.7	7.74
615.035	7.75
615.369	7.74
615.703	7.94
616.037	7.82
616.371	7.64
616.705	7.75
617.039	8.14
617.373	8.04
617.707	7.64
618.041	8.02
618.375	8.03
618.709	8.19
619.042	7.73
619.376	8.25
619.71	8.08
620.043	8.53
620.377	8.39
620.71	8.18
621.043	8.38
621.377	8.27
621.71	8.04
622.043	8.27
622.376	7.96
622.709	8.18
623.043	8.46
623.376	8.34
623.709	8.37
624.041	8.41
624.374	8.58
624.707	8.23
625.04	8.38
625.373	8.63
625.705	8.38
626.038	8.45
626.37	8.68
626.703	8.86
627.035	8.52
627.368	8.63
627.7	8.65
628.032	8.69
628.365	8.54
628.697	8.77
629.029	8.7
629.361	8.72
629.693	8.89
630.025	8.79
630.357	8.94
630.689	9.22
631.021	8.65
631.353	8.88
631.684	8.96
632.016	9.01
632.348	8.88
632.679	8.99
633.011	9.04
633.342	9.2
633.674	9.08
634.005	9.31
634.336	9.42
634.668	9.3
634.999	9.48
635.33	9.28
635.661	9.15
635.992	9.29
636.323	9.34
636.654	9.12
636.985	9
637.316	9.45
637.647	9.25
637.977	9.53
638.308	9.2
638.639	9.16
638.969	9.55
639.3	9.13
639.63	9.17
639.961	9.47
640.291	9.67
640.622	9.72
640.952	9.47
641.282	9.38
641.612	9.82
641.943	9.78
642.273	10.02
642.603	9.54
642.933	9.74
643.263	10.12
643.592	10.36
643.922	9.59
644.252	9.97
644.582	10.43
644.911	10.29
645.241	10.27
645.571	10.16
645.9	9.48
646.23	9.96
646.559	9.88
646.888	9.94
647.218	10.17
647.547	10.03
647.876	10.3
648.205	10.05
648.534	10.27
648.863	10.4
649.192	10.14
649.521	10
649.85	10.4
650.179	10.6
650.508	10.32
650.837	10.97
651.165	10.41
651.494	10.39
651.822	10.65
652.151	10.85
652.479	11.03
652.808	10.85
653.136	10.85
653.465	10.43
653.793	10.38
654.121	10.53
654.449	11.2
654.777	11
655.105	11.06
655.433	10.5
655.761	11.21
656.089	11.19
656.417	10.57
656.745	11.04
657.073	11.33
657.4	10.91
657.728	11.6
658.056	10.83
658.383	10.9
658.711	11.56
659.038	11.23
659.365	11.22
659.693	11.14
660.02	11.31
660.347	10.9
660.674	11.15
661.001	11.01
661.329	11.48
661.656	11.04
661.982	11.43
662.309	11.83
662.636	11.47
662.963	11.11
663.29	11.02
663.616	11.17
663.943	11.29
664.27	11.4
664.596	11.34
664.923	11.42
665.249	11.39
665.576	11.78
665.902	11.82
666.228	12.03
666.554	11.84
666.881	12.27
667.207	11.46
667.533	11.91
667.859	12.34
668.185	11.88
668.511	11.92
668.837	11.88
669.162	12.05
669.488	11.67
669.814	11.75
670.139	11.65
670.465	12.17
670.791	11.96
671.116	11.95
671.442	12.56
671.767	12.64
672.092	11.66
672.418	11.72
672.743	12.59
673.068	12.54
673.393	12.08
673.718	12.06
674.043	12.88
674.368	12.86
674.693	12.6
675.018	12.08
675.343	12.26
675.667	12.97
675.992	12.45
676.317	12.82
676.641	12.6
676.966	12.46
677.29	12.33
677.615	12.68
677.939	12.22
678.264	12.89
678.588	12.5
678.912	12.57
679.236	12.72
679.56	12.37
679.885	12.88
680.209	12.76
680.532	13.37
680.856	13.11
681.18	12.7
681.504	12.97
681.828	12.67
682.152	12.42
682.475	12.96
682.799	13.18
683.122	12.86
683.446	13.28
683.769	13.69
684.093	13.49
684.416	13.23
684.739	13.42
685.062	13.48
685.386	13.67
685.709	13.24
686.032	13.86
686.355	13.77
686.678	13.2
687.001	13.44
687.324	13.41
687.646	12.5
687.969	13.83
688.292	14.19
688.614	13.16
688.937	13.92
689.26	13.63
689.582	13.2
