Data from 1886-1_crown_Reflection__4__85.txt Node

Date: Fri Sep 30 18:24:32 CDT 2022
User: ToomeyLab
Spectrometer: FLMS14357
Trigger mode: 0
Integration Time (sec): 1.000000E-2
Scans to average: 100
Electric dark correction enabled: true
Nonlinearity correction enabled: false
Boxcar width: 0
XAxis mode: Wavelengths
Number of Pixels in Spectrum: 2048
>>>>>Begin Spectral Data<<<<<
189.047	2902.22
189.435	2902.22
189.823	2902.22
190.211	157.98
190.599	-116.37
190.987	91.41
191.375	59.03
191.763	6094.74
192.151	-4.87
192.538	-319.38
192.926	-79.25
193.314	-2288.89
193.702	247.23
194.089	19.07
194.477	6.38
194.864	173.9
195.252	64.84
195.639	511.45
196.027	-13.98
196.414	90.37
196.801	150.24
197.189	-122.84
197.576	-18.85
197.963	-401.27
198.351	23.02
198.738	-24.61
199.125	50.58
199.512	7.71
199.899	15.12
200.286	19.95
200.673	27.05
201.06	24.83
201.447	32.56
201.833	47.95
202.22	18.52
202.607	33.3
202.994	29.64
203.38	-0.64
203.767	19.68
204.154	36.93
204.54	23.86
204.927	40.79
205.313	-23.84
205.699	8.33
206.086	-25.79
206.472	32.87
206.858	39.69
207.245	48.02
207.631	14.44
208.017	-27.02
208.403	48.2
208.789	49.43
209.175	31.27
209.561	-0.13
209.947	13.84
210.333	-12.4
210.719	-22.96
211.105	-25.44
211.491	25.86
211.876	3.41
212.262	31.15
212.648	7
213.034	-19.43
213.419	38.26
213.805	13.65
214.19	29.46
214.576	-2.05
214.961	8.74
215.346	17.98
215.732	35.79
216.117	4.06
216.502	24.14
216.888	46.73
217.273	3.9
217.658	34.28
218.043	-13.84
218.428	18.02
218.813	26.59
219.198	12.33
219.583	16.96
219.968	36.75
220.353	10.11
220.738	10.31
221.122	4.95
221.507	9.89
221.892	-0.23
222.276	6.96
222.661	23.4
223.046	8.72
223.43	1.6
223.815	1.93
224.199	15.03
224.583	-2.49
224.968	9.56
225.352	-0.26
225.736	9.57
226.121	21.5
226.505	5.81
226.889	9.27
227.273	0.78
227.657	10.29
228.041	5.39
228.425	8.44
228.809	7.66
229.193	7.64
229.577	6.82
229.961	7.37
230.344	6.01
230.728	6.31
231.112	6.47
231.495	5.43
231.879	8.6
232.263	5.51
232.646	5.56
233.03	7.5
233.413	5.87
233.797	7.31
234.18	6.65
234.563	7.85
234.946	9.19
235.33	4.74
235.713	6.27
236.096	7.25
236.479	7.63
236.862	4.8
237.245	5.65
237.628	5.45
238.011	8.42
238.394	6.21
238.777	2.28
239.16	6.68
239.543	5.98
239.925	5.9
240.308	4.7
240.691	9
241.073	8.03
241.456	5.23
241.838	6.52
242.221	6.46
242.603	7.34
242.986	6.57
243.368	5.29
243.75	6.02
244.133	5.98
244.515	5.99
244.897	6.29
245.279	5.89
245.661	6.22
246.043	6.35
246.425	5.94
246.807	6.2
247.189	6.48
247.571	6.38
247.953	6.15
248.335	5.77
248.717	5.68
249.098	5.94
249.48	5.71
249.862	5.96
250.243	5.75
250.625	5.88
251.006	6.17
251.388	5.24
251.769	6.9
252.151	6.41
252.532	6.32
252.913	5.86
253.295	6.34
253.676	5.34
254.057	5.84
254.438	5.77
254.819	6.33
255.2	5.33
255.581	6.02
255.962	6.33
256.343	5.81
256.724	6.57
257.105	6.52
257.486	5.57
257.867	6.27
258.247	5.7
258.628	5.79
259.009	6.22
259.389	5.25
259.77	5.7
260.15	4.88
260.531	5.88
260.911	5.58
261.292	5.48
261.672	5.37
262.052	5.33
262.432	5.36
262.813	5.77
263.193	5.11
263.573	5.03
263.953	5.27
264.333	5.73
264.713	4.94
265.093	6.23
265.473	5.22
265.853	5.7
266.233	5.13
266.612	5.82
266.992	4.84
267.372	5.02
267.752	4.58
268.131	5.27
268.511	5.31
268.89	4.94
269.27	5.64
269.649	5.34
270.029	5.22
270.408	5.19
270.787	5.15
271.167	5.94
271.546	5.43
271.925	4.81
272.304	5.42
272.683	5.3
273.062	5.76
273.441	5.29
273.82	5.39
274.199	5.1
274.578	5.04
274.957	4.93
275.336	5.3
275.715	5.88
276.093	5.59
276.472	5.38
276.851	5.64
277.229	5.61
277.608	4.77
277.986	5.11
278.365	6.01
278.743	5.36
279.122	5.35
279.5	5.25
279.878	5.5
280.257	5.16
280.635	5.35
281.013	5.58
281.391	5.17
281.769	5.28
282.147	4.61
282.525	5.43
282.903	5.25
283.281	4.84
283.659	5.03
284.037	4.53
284.415	5.12
284.792	5.26
285.17	4.72
285.548	4.88
285.925	5.23
286.303	4.56
286.68	4.68
287.058	5.06
287.435	4.75
287.813	4.75
288.19	4.94
288.567	4.98
288.945	4.2
289.322	4.92
289.699	4.41
290.076	4.49
290.453	5.23
290.83	4.67
291.207	4.21
291.584	4.94
291.961	4.61
292.338	4.69
292.715	4.78
293.092	4.51
293.469	4.63
293.845	5.49
294.222	4.22
294.599	5.4
294.975	4.82
295.352	4.86
295.728	4.79
296.105	4.8
296.481	4.39
296.858	4.62
297.234	4.69
297.61	4.37
297.986	4.12
298.363	4.43
298.739	4.33
299.115	4.28
299.491	4.45
299.867	4.67
300.243	4.41
300.619	4.24
300.995	4.51
301.371	4.27
301.746	4.59
302.122	5.11
302.498	4.34
302.874	4.66
303.249	4.24
303.625	4.7
304	4.9
304.376	4.71
304.751	4.6
305.127	4.45
305.502	4.06
305.878	4.43
306.253	4.24
306.628	4.57
307.003	4.17
307.378	4.22
307.754	4.42
308.129	4.19
308.504	4.46
308.879	4.78
309.254	4.21
309.629	4.55
310.003	3.79
310.378	4.01
310.753	4.27
311.128	4.21
311.502	4.41
311.877	4.5
312.252	4.17
312.626	4.4
313.001	4.2
313.375	3.98
313.75	4.35
314.124	3.85
314.498	4.03
314.873	3.81
315.247	3.84
315.621	3.99
315.995	4.71
316.369	3.94
316.743	4.1
317.117	4.75
317.491	4.92
317.865	4.67
318.239	3.78
318.613	4.27
318.987	4.2
319.361	3.81
319.734	3.7
320.108	4.24
320.482	3.83
320.855	4.41
321.229	4.08
321.602	3.88
321.976	4.08
322.349	4.4
322.723	3.93
323.096	4.13
323.469	4.25
323.843	3.78
324.216	3.74
324.589	4.49
324.962	3.76
325.335	3.98
325.708	3.62
326.081	4.29
326.454	3.81
326.827	3.97
327.2	3.79
327.573	3.64
327.945	3.81
328.318	4.03
328.691	4
329.063	4.1
329.436	3.84
329.809	4.17
330.181	4.03
330.553	4.27
330.926	4.06
331.298	3.6
331.671	3.92
332.043	3.91
332.415	3.95
332.787	3.72
333.159	4
333.532	4.45
333.904	4.01
334.276	3.92
334.648	3.67
335.02	4.25
335.391	4.21
335.763	3.89
336.135	3.53
336.507	3.93
336.879	3.69
337.25	3.4
337.622	3.75
337.993	3.27
338.365	3.85
338.736	3.94
339.108	4.15
339.479	4.39
339.851	3.57
340.222	4.37
340.593	3.31
340.964	3.83
341.336	3.99
341.707	4.05
342.078	3.87
342.449	3.81
342.82	3.89
343.191	3.68
343.562	3.8
343.933	4.3
344.303	3.67
344.674	4.06
345.045	3.73
345.416	4.14
345.786	3.97
346.157	4
346.527	3.65
346.898	3.74
347.268	3.73
347.639	4.02
348.009	4.05
348.38	4.3
348.75	4.26
349.12	4.09
349.49	4.05
349.861	3.77
350.231	3.98
350.601	3.73
350.971	4.27
351.341	4.31
351.711	3.83
352.081	3.79
352.45	4.15
352.82	3.91
353.19	3.98
353.56	3.62
353.929	3.72
354.299	3.91
354.669	3.74
355.038	3.74
355.408	4.09
355.777	3.56
356.147	3.76
356.516	4.3
356.885	3.94
357.254	4.34
357.624	4.02
357.993	3.6
358.362	4.21
358.731	4.16
359.1	4.02
359.469	3.68
359.838	4.04
360.207	4.19
360.576	3.97
360.945	3.82
361.314	4.16
361.682	4.25
362.051	4.04
362.42	3.88
362.788	4.03
363.157	3.86
363.525	3.73
363.894	3.96
364.262	4.08
364.631	4.38
364.999	4.12
365.367	4.33
365.735	4.05
366.104	3.83
366.472	4.15
366.84	4.29
367.208	4.1
367.576	4.26
367.944	4.04
368.312	4
368.68	4.14
369.048	3.97
369.416	4.36
369.783	4.1
370.151	3.67
370.519	4.25
370.886	4.18
371.254	4.15
371.621	4.61
371.989	3.99
372.356	4.14
372.724	4.25
373.091	4.11
373.458	3.96
373.826	4.61
374.193	4.11
374.56	4.13
374.927	4.61
375.294	4.15
375.661	4.19
376.028	4.03
376.395	4.11
376.762	4.09
377.129	4.17
377.496	4.78
377.863	3.89
378.229	4.25
378.596	4.17
378.963	4.52
379.329	4.13
379.696	4.26
380.062	4.52
380.429	4.45
380.795	4.29
381.161	4.22
381.528	4.46
381.894	4.26
382.26	4.17
382.626	4.24
382.993	4.22
383.359	4.15
383.725	4.06
384.091	4.02
384.457	4.26
384.823	4.59
385.188	4.46
385.554	4.6
385.92	4.26
386.286	4.62
386.651	4.35
387.017	4.27
387.383	4.26
387.748	4.27
388.114	4.45
388.479	4.39
388.845	4.46
389.21	4.37
389.575	4.43
389.94	4.1
390.306	4.49
390.671	4.29
391.036	4.6
391.401	4.22
391.766	4.53
392.131	4.2
392.496	4.49
392.861	4.56
393.226	4.18
393.591	4.17
393.956	4.4
394.32	4.44
394.685	4.2
395.05	4.31
395.414	4.5
395.779	4.36
396.143	4.55
396.508	4.39
396.872	4.62
397.236	4.58
397.601	4.5
397.965	4.51
398.329	4.37
398.694	4.47
399.058	4.61
399.422	4.86
399.786	4.35
400.15	4.5
400.514	4.56
400.878	4.48
401.242	4.28
401.605	4.47
401.969	4.61
402.333	4.56
402.697	4.4
403.06	4.72
403.424	4.48
403.787	4.87
404.151	4.64
404.514	4.67
404.878	4.43
405.241	4.79
405.604	4.76
405.968	4.68
406.331	4.57
406.694	4.45
407.057	4.71
407.42	4.53
407.783	4.39
408.146	4.4
408.509	4.65
408.872	4.57
409.235	4.73
409.598	4.73
409.961	4.5
410.323	4.69
410.686	4.74
411.049	4.46
411.411	4.68
411.774	4.95
412.136	4.72
412.499	4.69
412.861	4.54
413.223	4.59
413.586	4.62
413.948	4.72
414.31	4.82
414.672	4.49
415.035	4.92
415.397	4.72
415.759	4.87
416.121	4.63
416.483	4.43
416.845	4.61
417.206	4.9
417.568	4.66
417.93	4.44
418.292	4.64
418.653	4.55
419.015	4.8
419.377	4.75
419.738	4.5
420.1	4.59
420.461	4.67
420.822	4.65
421.184	4.64
421.545	4.55
421.906	4.55
422.267	4.56
422.629	4.57
422.99	4.56
423.351	4.58
423.712	4.63
424.073	4.64
424.434	4.65
424.795	4.55
425.155	4.63
425.516	4.52
425.877	4.63
426.238	4.53
426.598	4.72
426.959	4.63
427.32	4.7
427.68	4.68
428.041	4.74
428.401	4.81
428.761	4.9
429.122	4.83
429.482	4.78
429.842	4.8
430.202	4.81
430.563	4.9
430.923	4.8
431.283	4.75
431.643	5
432.003	4.95
432.363	4.84
432.722	4.8
433.082	4.96
433.442	4.65
433.802	4.84
434.161	4.87
434.521	4.82
434.881	4.61
435.24	4.76
435.6	4.78
435.959	4.58
436.319	4.87
436.678	4.82
437.037	4.93
437.396	4.84
437.756	4.8
438.115	4.71
438.474	4.86
438.833	4.92
439.192	4.79
439.551	4.95
439.91	4.79
440.269	4.72
440.628	4.81
440.987	4.85
441.345	4.87
441.704	4.79
442.063	4.88
442.421	4.74
442.78	4.79
443.138	4.79
443.497	4.8
443.855	4.86
444.214	4.76
444.572	4.87
444.93	4.73
445.288	4.83
445.647	4.79
446.005	4.75
446.363	4.79
446.721	4.86
447.079	4.8
447.437	4.81
447.795	4.82
448.153	4.74
448.51	4.78
448.868	4.78
449.226	4.73
449.584	4.75
449.941	4.75
450.299	4.75
450.656	4.92
451.014	5.06
451.371	4.99
451.729	4.98
452.086	4.92
452.443	4.91
452.801	4.88
453.158	4.86
453.515	4.81
453.872	5.01
454.229	4.93
454.586	5.04
454.943	4.91
455.3	4.84
455.657	4.96
456.014	4.69
456.371	4.86
456.727	5
457.084	4.82
457.441	4.93
457.797	4.82
458.154	4.62
458.51	4.85
458.867	4.89
459.223	4.97
459.58	5.02
459.936	5.07
460.292	4.85
460.648	4.69
461.005	4.82
461.361	4.83
461.717	4.75
462.073	4.85
462.429	4.89
462.785	4.93
463.141	4.87
463.496	4.93
463.852	4.93
464.208	4.83
464.564	4.78
464.919	4.94
465.275	4.99
465.631	5.13
465.986	4.88
466.342	5
466.697	4.96
467.052	4.98
467.408	4.89
467.763	4.93
468.118	4.95
468.473	4.88
468.829	4.98
469.184	4.97
469.539	4.9
469.894	4.78
470.249	4.89
470.603	4.86
470.958	4.87
471.313	4.93
471.668	5
472.023	4.94
472.377	4.97
472.732	5
473.086	4.84
473.441	5.14
473.795	4.91
474.15	4.91
474.504	5
474.859	4.86
475.213	4.94
475.567	5.02
475.921	4.97
476.275	4.86
476.63	4.88
476.984	5.01
477.338	4.87
477.692	4.94
478.045	4.91
478.399	5.04
478.753	5.05
479.107	5.01
479.461	4.9
479.814	5.01
480.168	4.95
480.521	4.96
480.875	5.08
481.228	4.93
481.582	4.88
481.935	4.88
482.289	4.87
482.642	4.92
482.995	4.87
483.348	4.81
483.701	4.84
484.055	4.87
484.408	4.83
484.761	4.7
485.114	4.63
485.466	4.61
485.819	4.59
486.172	4.68
486.525	4.74
486.878	4.82
487.23	4.78
487.583	4.81
487.936	4.85
488.288	4.8
488.641	4.69
488.993	4.72
489.345	4.68
489.698	4.7
490.05	4.78
490.402	4.77
490.754	4.82
491.107	4.79
491.459	4.82
491.811	4.8
492.163	4.96
492.515	4.81
492.866	4.74
493.218	4.71
493.57	4.7
493.922	4.74
494.274	4.8
494.625	4.88
494.977	4.91
495.328	4.92
495.68	4.8
496.031	5.04
496.383	4.96
496.734	5.05
497.086	4.95
497.437	4.96
497.788	5.03
498.139	4.86
498.49	4.84
498.842	4.94
499.193	4.97
499.544	4.94
499.894	4.92
500.245	4.91
500.596	5.02
500.947	4.94
501.298	5.09
501.648	4.86
501.999	4.92
502.35	4.97
502.7	4.94
503.051	4.93
503.401	5.03
503.752	4.95
504.102	5.02
504.452	4.97
504.803	5.03
505.153	5.06
505.503	5
505.853	5.01
506.203	4.81
506.553	4.93
506.903	5.12
507.253	4.95
507.603	4.95
507.953	5.14
508.303	5.09
508.652	5.02
509.002	5.05
509.352	5.08
509.701	4.97
510.051	5.07
510.4	4.95
510.75	5.02
511.099	4.87
511.449	5.04
511.798	4.93
512.147	5.02
512.496	5.01
512.846	4.98
513.195	5
513.544	4.94
513.893	5
514.242	4.96
514.591	5.07
514.939	4.91
515.288	5
515.637	5
515.986	5
516.334	4.95
516.683	4.94
517.032	5.02
517.38	4.9
517.729	5
518.077	4.99
518.426	4.98
518.774	5.03
519.122	4.92
519.47	4.94
519.819	4.96
520.167	5.02
520.515	4.94
520.863	4.93
521.211	4.99
521.559	5
521.907	4.92
522.255	4.98
522.602	5.1
522.95	4.94
523.298	5.12
523.645	4.93
523.993	5.04
524.341	5.01
524.688	5.03
525.036	4.9
525.383	4.88
525.73	5
526.078	5.09
526.425	4.87
526.772	5
527.119	4.85
527.466	4.89
527.814	4.88
528.161	4.87
528.508	4.86
528.854	4.9
529.201	4.86
529.548	4.77
529.895	4.72
530.242	4.75
530.588	4.73
530.935	4.79
531.282	4.83
531.628	4.85
531.975	4.91
532.321	4.89
532.667	4.94
533.014	4.96
533.36	4.95
533.706	5.01
534.052	4.95
534.399	4.92
534.745	4.85
535.091	4.81
535.437	4.9
535.783	4.93
536.129	4.97
536.474	4.87
536.82	5
537.166	4.95
537.512	4.95
537.857	4.99
538.203	4.93
538.549	4.89
538.894	5.02
539.239	4.92
539.585	5
539.93	5
540.276	5.03
540.621	5.02
540.966	5.05
541.311	5
541.656	5.01
542.001	5.03
542.346	4.92
542.691	4.82
543.036	4.78
543.381	4.84
543.726	4.88
544.071	4.9
544.415	4.91
544.76	4.88
545.105	4.9
545.449	4.92
545.794	5
546.138	5.01
546.483	5.13
546.827	4.87
547.171	5.01
547.516	4.93
547.86	5.01
548.204	4.98
548.548	4.99
548.892	4.95
549.236	4.98
549.58	4.98
549.924	4.98
550.268	5.1
550.612	5.02
550.956	5.19
551.3	5.13
551.643	5.18
551.987	5.1
552.33	5.08
552.674	5.13
553.017	5.01
553.361	5.06
553.704	5.21
554.048	5.01
554.391	5.11
554.734	4.84
555.077	5.23
555.42	5.17
555.764	5
556.107	5.04
556.45	5.2
556.793	5
557.135	5.36
557.478	5.12
557.821	5.27
558.164	5.05
558.507	5.17
558.849	5.12
559.192	5.01
559.534	5
559.877	5.1
560.219	5.07
560.562	5.12
560.904	4.76
561.246	5.09
561.589	4.97
561.931	5.17
562.273	5.16
562.615	5.05
562.957	5.14
563.299	5.28
563.641	5.02
563.983	5.12
564.325	5.11
564.667	5.27
565.008	5.09
565.35	5.08
565.692	5.07
566.033	5.02
566.375	5.06
566.716	5.22
567.058	5.01
567.399	4.94
567.741	5.01
568.082	5.08
568.423	5.02
568.764	5.13
569.105	5.07
569.447	5.12
569.788	5.2
570.129	5.01
570.47	5.18
570.811	5.07
571.151	5.24
571.492	5.15
571.833	5
572.174	4.97
572.514	5.24
572.855	5.04
573.195	5.02
573.536	5.03
573.876	5.12
574.217	5.03
574.557	4.93
574.898	5.01
575.238	5.12
575.578	5.04
575.918	5.09
576.258	5.12
576.598	5.11
576.938	5.1
577.278	5.17
577.618	5.15
577.958	5.13
578.298	5.11
578.638	5.16
578.977	4.98
579.317	5.06
579.657	5.16
579.996	5.08
580.336	5.27
580.675	5.16
581.014	5.17
581.354	4.92
581.693	5.22
582.032	5.21
582.372	5.14
582.711	4.95
583.05	5.2
583.389	4.99
583.728	5.03
584.067	4.98
584.406	5.07
584.745	5.16
585.083	4.97
585.422	5.09
585.761	5.04
586.1	4.83
586.438	5.09
586.777	5.13
587.115	5.11
587.454	5.08
587.792	4.96
588.13	5.08
588.469	5.02
588.807	5.04
589.145	4.92
589.483	5.25
589.821	5.09
590.159	5.29
590.497	4.96
590.835	4.94
591.173	5.12
591.511	5.11
591.849	5.07
592.187	5.11
592.524	5.19
592.862	5.21
593.2	5.19
593.537	4.98
593.875	5.21
594.212	4.94
594.55	4.86
594.887	5.29
595.224	4.99
595.561	4.87
595.899	5.05
596.236	4.93
596.573	4.91
596.91	5.03
597.247	4.98
597.584	5.02
597.921	4.81
598.258	4.89
598.594	4.83
598.931	5.03
599.268	4.79
599.604	4.89
599.941	4.87
600.277	4.89
600.614	4.89
600.95	5.18
601.287	4.9
601.623	4.99
601.959	4.97
602.296	4.96
602.632	4.85
602.968	4.98
603.304	4.96
603.64	5.06
603.976	4.75
604.312	5.13
604.648	5.01
604.984	5.03
605.319	4.95
605.655	4.81
605.991	4.8
606.326	4.83
606.662	4.91
606.998	4.77
607.333	4.81
607.668	5.03
608.004	5
608.339	4.99
608.674	5.07
609.01	4.92
609.345	4.78
609.68	5.02
610.015	5.27
610.35	4.79
610.685	4.78
611.02	4.65
611.355	4.76
611.689	5
612.024	5.03
612.359	5.06
612.694	5.02
613.028	5.02
613.363	4.97
613.697	5.07
614.032	4.8
614.366	4.99
614.7	4.78
615.035	5.16
615.369	4.83
615.703	5.12
616.037	4.94
616.371	4.63
616.705	4.75
617.039	4.99
617.373	5.07
617.707	4.71
618.041	4.89
618.375	4.98
618.709	5.25
619.042	4.77
619.376	5.13
619.71	5.02
620.043	5.2
620.377	4.98
620.71	4.93
621.043	5.13
621.377	4.68
621.71	4.51
622.043	4.81
622.376	4.8
622.709	5.04
623.043	4.87
623.376	4.84
623.709	4.64
624.041	4.71
624.374	4.81
624.707	4.62
625.04	4.83
625.373	4.89
625.705	5.09
626.038	4.84
626.37	4.8
626.703	4.88
627.035	5.15
627.368	4.91
627.7	4.78
628.032	5.07
628.365	4.61
628.697	4.69
629.029	4.73
629.361	4.85
629.693	5.16
630.025	4.71
630.357	4.94
630.689	4.72
631.021	4.51
631.353	4.77
631.684	4.9
632.016	5.4
632.348	4.81
632.679	5.05
633.011	5.03
633.342	4.71
633.674	4.95
634.005	4.68
634.336	4.62
634.668	4.66
634.999	4.94
635.33	5.55
635.661	4.77
635.992	4.53
636.323	4.81
636.654	4.49
636.985	4.86
637.316	4.94
637.647	4.59
637.977	4.96
638.308	4.52
638.639	4.31
638.969	4.91
639.3	4.94
639.63	4.46
639.961	4.99
640.291	4.64
640.622	4.67
640.952	5
641.282	4.62
641.612	4.94
641.943	5.1
642.273	5.07
642.603	4.48
642.933	4.55
643.263	4.69
643.592	4.88
643.922	4.65
644.252	5.11
644.582	5.22
644.911	4.65
645.241	4.9
645.571	4.41
645.9	4.48
646.23	4.83
646.559	4.74
646.888	4.9
647.218	4.64
647.547	4.54
647.876	4.7
648.205	4.81
648.534	4.33
648.863	5.45
649.192	4.75
649.521	4.51
649.85	4.69
650.179	4.49
650.508	4.04
650.837	4.91
651.165	4.46
651.494	4.85
651.822	5.19
652.151	5.19
652.479	4.97
652.808	5.06
653.136	4.93
653.465	4.58
653.793	4.71
654.121	4.55
654.449	5.26
654.777	4.56
655.105	4.78
655.433	5.11
655.761	5.48
656.089	5.08
656.417	4.74
656.745	4.56
657.073	5.17
657.4	5.05
657.728	4.96
658.056	4.95
658.383	4.87
658.711	4.99
659.038	3.93
659.365	4.79
659.693	4.59
660.02	4.82
660.347	4.75
660.674	4.94
661.001	4.96
661.329	5.01
661.656	4.57
661.982	5.22
662.309	5.15
662.636	4.85
662.963	4.91
663.29	4.51
663.616	4.87
663.943	4.65
664.27	4.88
664.596	4.93
664.923	4.87
665.249	4.96
665.576	4.88
665.902	5.03
666.228	4.99
666.554	4.84
666.881	4.81
667.207	4.67
667.533	4.71
667.859	5.18
668.185	5.05
668.511	4.61
668.837	4.76
669.162	5.05
669.488	4.63
669.814	4.93
670.139	4.32
670.465	4.88
670.791	4.59
671.116	4.47
671.442	4.69
671.767	4.81
672.092	4.66
672.418	4.7
672.743	5.07
673.068	5.26
673.393	4.72
673.718	4.47
674.043	5.35
674.368	4.7
674.693	4.85
675.018	4.79
675.343	5.52
675.667	5.07
675.992	4.78
676.317	5.27
676.641	4.92
676.966	4.42
677.29	4.01
677.615	4.79
677.939	4.98
678.264	4.7
678.588	4.63
678.912	4.62
679.236	4.83
679.56	4.41
679.885	4.69
680.209	4.21
680.532	4.39
680.856	4.72
681.18	5.07
681.504	4.62
681.828	4.98
682.152	4.47
682.475	4.62
682.799	4.53
683.122	5.01
683.446	5.02
683.769	5.4
684.093	4.96
684.416	5.18
684.739	4.8
685.062	4.59
685.386	5.6
685.709	4.95
686.032	4.64
686.355	5.17
686.678	4.99
687.001	4.94
687.324	4.83
687.646	4.72
687.969	5.1
688.292	5.09
688.614	4.72
688.937	4.49
689.26	5.03
689.582	4.72
689.904	4.82
690.227	4.74
690.549	4.41
690.871	4.74
691.194	4.57
691.516	5.15
691.838	4.7
692.16	5.52
692.482	5.27
692.804	5.61
693.126	5.18
693.448	4.82
693.769	5.36
