Data from 1886-1_crown_Reflection__2__83.txt Node

Date: Fri Sep 30 18:24:08 CDT 2022
User: ToomeyLab
Spectrometer: FLMS14357
Trigger mode: 0
Integration Time (sec): 1.000000E-2
Scans to average: 100
Electric dark correction enabled: true
Nonlinearity correction enabled: false
Boxcar width: 0
XAxis mode: Wavelengths
Number of Pixels in Spectrum: 2048
>>>>>Begin Spectral Data<<<<<
189.047	-3497.78
189.435	-3497.78
189.823	-3497.78
190.211	-23.4
190.599	-211.08
190.987	15.25
191.375	29.61
191.763	3273.68
192.151	-13.44
192.538	26.87
192.926	-382.36
193.314	-1646.15
193.702	64.8
194.089	-37.02
194.477	-37.15
194.864	298.37
195.252	39.44
195.639	4.58
196.027	122.75
196.414	48.54
196.801	93.89
197.189	129.05
197.576	-228.51
197.963	826.75
198.351	26.86
198.738	32.09
199.125	43.03
199.512	-0.59
199.899	30.27
200.286	44.86
200.673	59.86
201.06	46.59
201.447	26.43
201.833	24.99
202.22	20.91
202.607	54.81
202.994	48.55
203.38	15.47
203.767	11.63
204.154	39.75
204.54	17.49
204.927	12.02
205.313	-30.49
205.699	23.15
206.086	-47.24
206.472	3.68
206.858	14.35
207.245	27.39
207.631	16.97
208.017	-58.29
208.403	-5.06
208.789	-1.76
209.175	34.89
209.561	-17.51
209.947	4.24
210.333	-61.4
210.719	3.57
211.105	-7.38
211.491	3.85
211.876	14.71
212.262	36.02
212.648	18.2
213.034	2.95
213.419	20.47
213.805	1.36
214.19	32.49
214.576	11.1
214.961	19.46
215.346	16.63
215.732	10.42
216.117	-5.91
216.502	41.2
216.888	21.56
217.273	-3.67
217.658	42.44
218.043	14.72
218.428	17.57
218.813	25.98
219.198	29.29
219.583	1.81
219.968	12.84
220.353	10.54
220.738	22.52
221.122	9.1
221.507	19.64
221.892	6.93
222.276	-3.47
222.661	8.82
223.046	14.15
223.43	9.55
223.815	11
224.199	5.33
224.583	7.61
224.968	3.44
225.352	8.74
225.736	17.6
226.121	11.92
226.505	4.59
226.889	3.22
227.273	-2.56
227.657	8.99
228.041	4.66
228.425	6.51
228.809	11.49
229.193	6.69
229.577	3.63
229.961	5.55
230.344	3.89
230.728	4.95
231.112	5.04
231.495	5.68
231.879	6.08
232.263	3.31
232.646	3.19
233.03	5.51
233.413	3.06
233.797	4.77
234.18	3.99
234.563	4.76
234.946	5.83
235.33	3.97
235.713	6.08
236.096	6.14
236.479	4.94
236.862	5.46
237.245	5.45
237.628	4.11
238.011	5.02
238.394	5.81
238.777	3.74
239.16	4.2
239.543	4.68
239.925	4.94
240.308	3.27
240.691	5.94
241.073	5.05
241.456	5.2
241.838	5.67
242.221	5.38
242.603	5.42
242.986	4.71
243.368	4.13
243.75	4.46
244.133	4.58
244.515	4.38
244.897	5.03
245.279	4.55
245.661	4.69
246.043	4.25
246.425	5.04
246.807	4.38
247.189	4.97
247.571	4.95
247.953	4.54
248.335	4.2
248.717	4.29
249.098	4.55
249.48	4.67
249.862	4.81
250.243	4.46
250.625	4.89
251.006	4.94
251.388	3.63
251.769	5.23
252.151	5
252.532	4.58
252.913	4.95
253.295	4.8
253.676	3.73
254.057	4.59
254.438	3.91
254.819	4.9
255.2	4.77
255.581	4.95
255.962	4.7
256.343	4.23
256.724	5.1
257.105	5.05
257.486	4.58
257.867	5.09
258.247	3.84
258.628	4.09
259.009	5.41
259.389	4.28
259.77	5.06
260.15	4.1
260.531	4.49
260.911	4.39
261.292	3.96
261.672	4.09
262.052	4.2
262.432	4.38
262.813	4.69
263.193	3.91
263.573	4.27
263.953	4.14
264.333	4.36
264.713	3.73
265.093	4.18
265.473	3.76
265.853	3.82
266.233	3.94
266.612	3.96
266.992	4.53
267.372	3.27
267.752	3.8
268.131	4.81
268.511	4.04
268.89	4.12
269.27	4.46
269.649	4.03
270.029	4.38
270.408	3.9
270.787	3.97
271.167	4.52
271.546	4.62
271.925	4.82
272.304	4.17
272.683	3.7
273.062	4.3
273.441	3.89
273.82	3.89
274.199	4.02
274.578	4.2
274.957	4.12
275.336	3.8
275.715	4.51
276.093	4.53
276.472	4.2
276.851	4.2
277.229	4.31
277.608	4.14
277.986	3.71
278.365	4.48
278.743	4.01
279.122	4.58
279.5	3.96
279.878	3.76
280.257	3.96
280.635	4.74
281.013	4.8
281.391	4.01
281.769	3.66
282.147	3.39
282.525	4.37
282.903	3.73
283.281	3.74
283.659	3.82
284.037	3.78
284.415	4.22
284.792	4.2
285.17	3.61
285.548	4.01
285.925	3.92
286.303	3.77
286.68	3.64
287.058	3.79
287.435	4.15
287.813	3.81
288.19	3.77
288.567	3.46
288.945	3.17
289.322	3.43
289.699	3.6
290.076	3.71
290.453	3.57
290.83	3.76
291.207	3.52
291.584	3.36
291.961	3.5
292.338	3.71
292.715	4.08
293.092	3.63
293.469	3.54
293.845	4.32
294.222	3.86
294.599	3.93
294.975	4.1
295.352	3.36
295.728	4.17
296.105	3.62
296.481	4.07
296.858	3.85
297.234	3.69
297.61	3.64
297.986	3.35
298.363	3.46
298.739	3.25
299.115	3.46
299.491	3.72
299.867	3.64
300.243	3.31
300.619	3.48
300.995	3.83
301.371	3.67
301.746	3.15
302.122	3.69
302.498	3.62
302.874	3.98
303.249	3.65
303.625	3.81
304	3.72
304.376	3.73
304.751	3.75
305.127	3.46
305.502	3.74
305.878	3.54
306.253	3.25
306.628	3.28
307.003	3.64
307.378	3.66
307.754	3.33
308.129	3.57
308.504	3.5
308.879	3.22
309.254	3.34
309.629	3.73
310.003	2.92
310.378	3.16
310.753	3.44
311.128	3.16
311.502	3.33
311.877	3.34
312.252	3.2
312.626	3.31
313.001	3.35
313.375	3.09
313.75	3.58
314.124	3.22
314.498	2.96
314.873	3.36
315.247	2.93
315.621	3.45
315.995	3.74
316.369	3.13
316.743	3.3
317.117	3.54
317.491	4.09
317.865	3.43
318.239	3.42
318.613	3.32
318.987	3.01
319.361	3.15
319.734	3.02
320.108	3.24
320.482	2.98
320.855	3.12
321.229	3.43
321.602	3.29
321.976	3.65
322.349	3.29
322.723	3.14
323.096	3.64
323.469	3.31
323.843	3.19
324.216	3.55
324.589	3.05
324.962	3.47
325.335	3.18
325.708	2.81
326.081	3.29
326.454	3.14
326.827	3.01
327.2	3.36
327.573	2.78
327.945	2.78
328.318	3.31
328.691	3.37
329.063	3.12
329.436	2.52
329.809	3.57
330.181	3.34
330.553	2.93
330.926	3.07
331.298	2.72
331.671	3.37
332.043	2.55
332.415	3.19
332.787	3.04
333.159	3.03
333.532	2.92
333.904	3.43
334.276	3.26
334.648	2.84
335.02	3.17
335.391	3.75
335.763	2.77
336.135	3.25
336.507	3.51
336.879	2.93
337.25	2.65
337.622	3.1
337.993	2.94
338.365	3.6
338.736	3.12
339.108	3.33
339.479	3.23
339.851	2.71
340.222	3.43
340.593	2.58
340.964	2.41
341.336	3.23
341.707	3.01
342.078	3.36
342.449	2.89
342.82	2.69
343.191	2.93
343.562	2.92
343.933	3.19
344.303	3.01
344.674	3.29
345.045	3.17
345.416	3.46
345.786	3.16
346.157	3.24
346.527	3.09
346.898	2.73
347.268	2.62
347.639	2.47
348.009	3.18
348.38	3.62
348.75	3.65
349.12	3.17
349.49	3.41
349.861	2.87
350.231	3.16
350.601	3.01
350.971	2.76
351.341	3.43
351.711	3.02
352.081	3.3
352.45	3.5
352.82	3.09
353.19	3.71
353.56	3.16
353.929	2.91
354.299	3.21
354.669	2.79
355.038	2.91
355.408	3.02
355.777	2.4
356.147	2.9
356.516	3.1
356.885	2.81
357.254	3.09
357.624	3.12
357.993	2.91
358.362	2.97
358.731	3
359.1	3.18
359.469	2.85
359.838	3.28
360.207	3.18
360.576	2.91
360.945	2.92
361.314	2.96
361.682	3.02
362.051	3.06
362.42	3.04
362.788	3
363.157	3.05
363.525	2.87
363.894	2.96
364.262	3.54
364.631	3.36
364.999	3.22
365.367	3.12
365.735	2.69
366.104	2.84
366.472	3.55
366.84	3.31
367.208	2.91
367.576	3.66
367.944	3.08
368.312	3.06
368.68	3.01
369.048	2.91
369.416	3.14
369.783	3.09
370.151	3.07
370.519	3.16
370.886	3.25
371.254	2.94
371.621	3.09
371.989	3.42
372.356	2.96
372.724	3.38
373.091	2.98
373.458	3.2
373.826	3.37
374.193	3.47
374.56	3.52
374.927	3.43
375.294	3.38
375.661	3.19
376.028	2.94
376.395	2.82
376.762	3.03
377.129	3.51
377.496	3.25
377.863	2.96
378.229	3.55
378.596	3.17
378.963	3.25
379.329	3.18
379.696	3.38
380.062	3.6
380.429	3.37
380.795	3.28
381.161	3.13
381.528	3.32
381.894	3.24
382.26	2.98
382.626	3.28
382.993	3.38
383.359	3.18
383.725	2.96
384.091	2.93
384.457	3.37
384.823	3.4
385.188	3.16
385.554	3.42
385.92	3.39
386.286	3.7
386.651	3.54
387.017	3.35
387.383	3.28
387.748	3.15
388.114	3.48
388.479	3.25
388.845	3.19
389.21	3.2
389.575	3.2
389.94	3.37
390.306	3.45
390.671	3.26
391.036	3.37
391.401	3.16
391.766	3.38
392.131	3.43
392.496	3.33
392.861	3.31
393.226	3.04
393.591	3.33
393.956	3.51
394.32	3.33
394.685	3.22
395.05	3.33
395.414	3.22
395.779	3.18
396.143	3.43
396.508	3.37
396.872	3.43
397.236	3.4
397.601	3.51
397.965	3.68
398.329	3.3
398.694	3.61
399.058	3.34
399.422	3.29
399.786	3.42
400.15	3.23
400.514	3.35
400.878	3.48
401.242	3.24
401.605	3.41
401.969	3.54
402.333	3.49
402.697	3.53
403.06	3.57
403.424	3.36
403.787	3.64
404.151	3.56
404.514	3.64
404.878	3.41
405.241	3.47
405.604	3.57
405.968	3.56
406.331	3.55
406.694	3.65
407.057	3.5
407.42	3.59
407.783	3.4
408.146	3.44
408.509	3.51
408.872	3.55
409.235	3.58
409.598	3.58
409.961	3.43
410.323	3.46
410.686	3.75
411.049	3.46
411.411	3.52
411.774	3.85
412.136	3.54
412.499	3.38
412.861	3.62
413.223	3.19
413.586	3.55
413.948	3.73
414.31	3.63
414.672	3.6
415.035	3.76
415.397	3.69
415.759	3.67
416.121	3.62
416.483	3.58
416.845	3.48
417.206	3.64
417.568	3.69
417.93	3.35
418.292	3.59
418.653	3.49
419.015	3.58
419.377	3.48
419.738	3.42
420.1	3.54
420.461	3.49
420.822	3.58
421.184	3.49
421.545	3.39
421.906	3.36
422.267	3.34
422.629	3.53
422.99	3.46
423.351	3.52
423.712	3.51
424.073	3.56
424.434	3.55
424.795	3.44
425.155	3.46
425.516	3.53
425.877	3.58
426.238	3.49
426.598	3.56
426.959	3.47
427.32	3.55
427.68	3.6
428.041	3.52
428.401	3.53
428.761	3.8
429.122	3.77
429.482	3.6
429.842	3.65
430.202	3.6
430.563	3.61
430.923	3.62
431.283	3.69
431.643	3.72
432.003	3.55
432.363	3.75
432.722	3.74
433.082	3.73
433.442	3.61
433.802	3.69
434.161	3.46
434.521	3.64
434.881	3.53
435.24	3.66
435.6	3.67
435.959	3.62
436.319	3.67
436.678	3.78
437.037	3.83
437.396	3.89
437.756	3.39
438.115	3.52
438.474	3.69
438.833	3.76
439.192	3.75
439.551	3.66
439.91	3.59
440.269	3.48
440.628	3.57
440.987	3.75
441.345	3.68
441.704	3.66
442.063	3.78
442.421	3.69
442.78	3.64
443.138	3.74
443.497	3.7
443.855	3.79
444.214	3.72
444.572	3.65
444.93	3.54
445.288	3.76
445.647	3.76
446.005	3.77
446.363	3.74
446.721	3.66
447.079	3.62
447.437	3.67
447.795	3.58
448.153	3.63
448.51	3.68
448.868	3.68
449.226	3.62
449.584	3.69
449.941	3.61
450.299	3.79
450.656	3.66
451.014	3.88
451.371	3.88
451.729	3.74
452.086	3.88
452.443	3.84
452.801	3.82
453.158	3.58
453.515	3.66
453.872	3.89
454.229	3.72
454.586	3.84
454.943	3.82
455.3	3.85
455.657	3.88
456.014	3.68
456.371	3.66
456.727	3.68
457.084	3.62
457.441	3.74
457.797	3.74
458.154	3.67
458.51	3.72
458.867	3.86
459.223	3.61
459.58	3.85
459.936	3.81
460.292	3.72
460.648	3.63
461.005	3.62
461.361	3.67
461.717	3.62
462.073	3.73
462.429	3.73
462.785	3.76
463.141	3.82
463.496	3.79
463.852	3.74
464.208	3.85
464.564	3.57
464.919	3.8
465.275	3.86
465.631	3.75
465.986	3.77
466.342	3.69
466.697	3.82
467.052	3.76
467.408	3.87
467.763	3.73
468.118	3.79
468.473	3.74
468.829	3.73
469.184	3.8
469.539	3.81
469.894	3.79
470.249	3.8
470.603	3.87
470.958	3.82
471.313	3.8
471.668	3.65
472.023	3.74
472.377	3.61
472.732	3.82
473.086	3.87
473.441	3.98
473.795	3.81
474.15	3.81
474.504	3.8
474.859	3.88
475.213	3.94
475.567	3.89
475.921	3.83
476.275	3.66
476.63	3.87
476.984	3.79
477.338	3.73
477.692	3.94
478.045	3.78
478.399	3.65
478.753	3.71
479.107	3.77
479.461	3.78
479.814	3.69
480.168	3.86
480.521	3.72
480.875	3.89
481.228	3.7
481.582	3.84
481.935	3.86
482.289	3.82
482.642	3.65
482.995	3.67
483.348	3.73
483.701	3.78
484.055	3.67
484.408	3.59
484.761	3.49
485.114	3.43
485.466	3.38
485.819	3.43
486.172	3.61
486.525	3.74
486.878	3.75
487.23	3.71
487.583	3.8
487.936	3.77
488.288	3.67
488.641	3.53
488.993	3.53
489.345	3.56
489.698	3.57
490.05	3.69
490.402	3.66
490.754	3.79
491.107	3.79
491.459	3.77
491.811	3.78
492.163	3.72
492.515	3.7
492.866	3.61
493.218	3.4
493.57	3.54
493.922	3.6
494.274	3.76
494.625	3.86
494.977	3.93
495.328	3.93
495.68	3.74
496.031	3.8
496.383	3.77
496.734	3.87
497.086	3.83
497.437	3.87
497.788	3.81
498.139	3.71
498.49	3.7
498.842	3.77
499.193	3.85
499.544	3.84
499.894	3.87
500.245	3.82
500.596	3.79
500.947	3.83
501.298	3.97
501.648	3.83
501.999	3.82
502.35	3.77
502.7	3.92
503.051	3.73
503.401	3.86
503.752	3.82
504.102	3.92
504.452	3.83
504.803	3.81
505.153	3.84
505.503	3.9
505.853	3.86
506.203	3.61
506.553	3.9
506.903	3.84
507.253	3.88
507.603	3.95
507.953	3.9
508.303	3.96
508.652	3.81
509.002	3.83
509.352	3.81
509.701	3.71
510.051	3.9
510.4	3.71
510.75	3.69
511.099	3.74
511.449	3.85
511.798	3.82
512.147	3.78
512.496	3.84
512.846	3.77
513.195	3.83
513.544	3.78
513.893	3.86
514.242	3.73
514.591	3.95
514.939	3.87
515.288	3.76
515.637	3.8
515.986	3.85
516.334	3.73
516.683	3.8
517.032	3.86
517.38	3.83
517.729	4.01
518.077	3.85
518.426	3.82
518.774	3.74
519.122	3.71
519.47	3.83
519.819	3.8
520.167	3.76
520.515	3.75
520.863	3.83
521.211	3.89
521.559	3.83
521.907	3.9
522.255	3.84
522.602	3.88
522.95	3.84
523.298	3.96
523.645	3.83
523.993	3.95
524.341	4.04
524.688	3.93
525.036	3.82
525.383	3.68
525.73	3.83
526.078	3.85
526.425	3.69
526.772	3.88
527.119	3.62
527.466	3.71
527.814	3.75
528.161	3.79
528.508	3.79
528.854	3.71
529.201	3.77
529.548	3.58
529.895	3.54
530.242	3.51
530.588	3.58
530.935	3.68
531.282	3.8
531.628	3.79
531.975	3.81
532.321	3.85
532.667	3.84
533.014	3.8
533.36	3.86
533.706	3.85
534.052	3.79
534.399	3.73
534.745	3.61
535.091	3.59
535.437	3.78
535.783	3.78
536.129	3.88
536.474	3.81
536.82	3.88
537.166	3.87
537.512	3.81
537.857	3.81
538.203	3.76
538.549	3.7
538.894	3.78
539.239	3.85
539.585	3.84
539.93	3.9
540.276	3.93
540.621	3.86
540.966	3.98
541.311	3.91
541.656	3.87
542.001	3.75
542.346	3.83
542.691	3.58
543.036	3.6
543.381	3.71
543.726	3.75
544.071	3.86
544.415	3.81
544.76	3.8
545.105	3.78
545.449	3.88
545.794	3.87
546.138	3.76
546.483	3.92
546.827	3.86
547.171	3.88
547.516	3.84
547.86	3.82
548.204	3.85
548.548	3.77
548.892	3.8
549.236	3.93
549.58	4
549.924	3.84
550.268	4.05
550.612	4.03
550.956	4.04
551.3	4.01
551.643	3.99
551.987	3.85
552.33	4.02
552.674	3.98
553.017	3.88
553.361	3.84
553.704	4.05
554.048	3.94
554.391	4.04
554.734	3.88
555.077	3.9
555.42	4.09
555.764	3.99
556.107	4.07
556.45	4.07
556.793	3.72
557.135	4.04
557.478	3.83
557.821	3.81
558.164	4.01
558.507	4.06
558.849	3.95
559.192	4.15
559.534	3.8
559.877	4.17
560.219	3.96
560.562	3.96
560.904	4.14
561.246	4.15
561.589	3.74
561.931	3.92
562.273	4
562.615	3.9
562.957	3.87
563.299	4.1
563.641	3.87
563.983	3.92
564.325	3.96
564.667	4.13
565.008	4.02
565.35	3.92
565.692	4.02
566.033	3.61
566.375	3.94
566.716	3.87
567.058	4.01
567.399	3.91
567.741	3.86
568.082	3.94
568.423	4.02
568.764	3.94
569.105	3.96
569.447	4.09
569.788	3.98
570.129	3.9
570.47	3.95
570.811	3.78
571.151	4.01
571.492	3.99
571.833	3.97
572.174	3.88
572.514	3.95
572.855	3.67
573.195	3.98
573.536	3.91
573.876	3.97
574.217	3.89
574.557	3.98
574.898	4.13
575.238	3.88
575.578	3.97
575.918	3.92
576.258	3.97
576.598	3.98
576.938	4.01
577.278	3.99
577.618	4.08
577.958	3.93
578.298	3.97
578.638	3.98
578.977	4
579.317	4
579.657	3.98
579.996	3.9
580.336	4.1
580.675	4.14
581.014	3.82
581.354	3.92
581.693	4.08
582.032	3.96
582.372	3.94
582.711	3.82
583.05	3.88
583.389	3.99
583.728	3.82
584.067	3.97
584.406	3.82
584.745	3.81
585.083	3.7
585.422	4.12
585.761	3.79
586.1	4.01
586.438	4.07
586.777	4.14
587.115	4.08
587.454	4.01
587.792	3.78
588.13	4.05
588.469	4.03
588.807	3.87
589.145	3.94
589.483	4.16
589.821	3.81
590.159	4.13
590.497	3.96
590.835	3.75
591.173	3.79
591.511	3.77
591.849	3.97
592.187	4.03
592.524	4.01
592.862	4.02
593.2	4.03
593.537	3.78
593.875	3.91
594.212	3.72
594.55	3.91
594.887	4.15
595.224	3.99
595.561	3.95
595.899	3.69
596.236	4.26
596.573	3.92
596.91	4
597.247	3.69
597.584	3.99
597.921	3.92
598.258	3.78
598.594	3.93
598.931	3.81
599.268	3.78
599.604	3.76
599.941	3.8
600.277	4
600.614	4.01
600.95	4.11
601.287	3.86
601.623	3.89
601.959	3.91
602.296	4.18
602.632	3.83
602.968	4.23
603.304	3.9
603.64	3.89
603.976	3.8
604.312	3.94
604.648	3.95
604.984	4.01
605.319	3.85
605.655	4.01
605.991	3.95
606.326	3.93
606.662	3.93
606.998	3.73
607.333	4.08
607.668	3.8
608.004	4.05
608.339	3.85
608.674	4.03
609.01	3.67
609.345	3.85
609.68	4.12
610.015	3.99
610.35	3.84
610.685	3.68
611.02	3.69
611.355	3.74
611.689	3.67
612.024	3.94
612.359	4
612.694	3.93
613.028	4.03
613.363	3.94
613.697	4.16
614.032	3.84
614.366	3.9
614.7	3.6
615.035	4.06
615.369	3.86
615.703	3.94
616.037	3.8
616.371	3.83
616.705	3.72
617.039	3.94
617.373	4.13
617.707	3.6
618.041	3.98
618.375	3.63
618.709	4.06
619.042	3.73
619.376	4.26
619.71	3.94
620.043	4.25
620.377	3.98
620.71	3.89
621.043	4.1
621.377	3.88
621.71	3.7
622.043	3.86
622.376	3.85
622.709	3.88
623.043	4.17
623.376	3.83
623.709	3.89
624.041	4.12
624.374	3.8
624.707	3.81
625.04	3.74
625.373	4.06
625.705	3.64
626.038	3.68
626.37	3.73
626.703	3.87
627.035	3.92
627.368	3.97
627.7	3.89
628.032	3.72
628.365	3.6
628.697	3.94
629.029	3.89
629.361	3.72
629.693	4.07
630.025	3.93
630.357	3.92
630.689	3.93
631.021	3.76
631.353	3.79
631.684	3.64
632.016	3.9
632.348	3.75
632.679	3.76
633.011	4.04
633.342	3.78
633.674	4.22
634.005	4.11
634.336	3.86
634.668	4.03
634.999	4.08
635.33	4.27
635.661	3.76
635.992	3.81
636.323	4.01
636.654	3.65
636.985	3.83
637.316	4.49
637.647	3.79
637.977	4.01
638.308	3.84
638.639	3.55
638.969	3.7
639.3	3.98
639.63	3.6
639.961	4.24
640.291	3.75
640.622	3.91
640.952	4.07
641.282	3.97
641.612	3.85
641.943	3.85
642.273	4.03
642.603	3.95
642.933	3.71
643.263	3.72
643.592	4.07
643.922	3.63
644.252	4.3
644.582	4.41
644.911	4.1
645.241	3.86
645.571	3.5
645.9	3.56
646.23	3.74
646.559	3.72
646.888	3.64
647.218	3.72
647.547	3.97
647.876	3.83
648.205	3.85
648.534	3.43
648.863	3.65
649.192	3.86
649.521	4.04
649.85	3.72
650.179	4.04
650.508	3.92
650.837	4.58
651.165	3.53
651.494	3.66
651.822	3.89
652.151	3.84
652.479	4.06
652.808	3.91
653.136	4.21
653.465	3.83
653.793	3.95
654.121	3.92
654.449	4.12
654.777	4.25
655.105	3.92
655.433	3.47
655.761	4.16
656.089	4.16
656.417	3.42
656.745	3.93
657.073	4.13
657.4	3.88
657.728	4.35
658.056	3.91
658.383	3.79
658.711	4.17
659.038	3.49
659.365	3.58
659.693	3.61
660.02	4.14
660.347	3.86
660.674	3.49
661.001	3.8
661.329	3.95
661.656	3.65
661.982	3.94
662.309	4.25
662.636	3.87
662.963	3.64
663.29	3.66
663.616	3.54
663.943	3.85
664.27	3.55
664.596	3.6
664.923	3.86
665.249	3.97
665.576	4.17
665.902	3.89
666.228	4.26
666.554	4.04
666.881	3.86
667.207	3.63
667.533	3.6
667.859	3.69
668.185	4.17
668.511	3.71
668.837	4.25
669.162	4.17
669.488	3.66
669.814	4.09
670.139	3.35
670.465	4.51
670.791	3.64
671.116	3.91
671.442	4.34
671.767	3.55
672.092	4.16
672.418	3.83
672.743	3.89
673.068	4.22
673.393	3.69
673.718	3.6
674.043	4.07
674.368	4.14
674.693	3.71
675.018	3.61
675.343	4.01
675.667	4.35
675.992	4.41
676.317	4.38
676.641	4.27
676.966	3.54
677.29	3.31
677.615	3.91
677.939	4.08
678.264	3.29
678.588	4.17
678.912	3.73
679.236	4.04
679.56	3.75
679.885	3.87
680.209	3.71
680.532	3.44
680.856	4.17
681.18	4.23
681.504	3.9
681.828	3.72
682.152	3.73
682.475	3.49
682.799	4.02
683.122	3.76
683.446	3.98
683.769	4.54
684.093	4.64
684.416	4.11
684.739	4.19
685.062	3.88
685.386	4.12
685.709	4.2
686.032	4.34
686.355	4.28
686.678	3.46
687.001	4.25
687.324	3.48
687.646	3.54
687.969	3.79
688.292	4.23
688.614	3.41
688.937	4.14
689.26	3.47
689.582	4.2
689.904	4.31
690.227	3.88
690.549	3.28
690.871	4.21
691.194	3.46
691.516	4.21
691.838	3.53
692.16	4.16
692.482	3.85
