Data from 428_forehead_Reflection__4__91.txt Node

Date: Tue Dec 12 18:55:15 CST 2023
User: ToomeyLab
Spectrometer: FLMS14357
Trigger mode: 0
Integration Time (sec): 1.000000E-2
Scans to average: 100
Electric dark correction enabled: true
Nonlinearity correction enabled: false
Boxcar width: 0
XAxis mode: Wavelengths
Number of Pixels in Spectrum: 2048
>>>>>Begin Spectral Data<<<<<
189.047	131.98
189.435	131.98
189.823	131.98
190.211	14.62
190.599	15.9
190.987	106.73
191.375	148.49
191.763	-304.56
192.151	93.73
192.538	-104.12
192.926	76.69
193.314	33.71
193.702	0.15
194.089	223.66
194.477	-242.6
194.864	77.57
195.252	46.23
195.639	-1649.52
196.027	65.74
196.414	-2550.99
196.801	156.18
197.189	369.02
197.576	160.49
197.963	11
198.351	54.48
198.738	16.93
199.125	31.52
199.512	-26.1
199.899	40.82
200.286	29.5
200.673	9.26
201.06	-9.3
201.447	-91.7
201.833	-19.6
202.22	10.08
202.607	-150.75
202.994	3.11
203.38	19.88
203.767	19.35
204.154	13.63
204.54	29.18
204.927	9.97
205.313	33.72
205.699	27.68
206.086	-3.41
206.472	41.55
206.858	6.64
207.245	24.9
207.631	55.92
208.017	3.42
208.403	-22.82
208.789	10.77
209.175	-39.35
209.561	26.69
209.947	-19.49
210.333	28.47
210.719	1.94
211.105	-10.76
211.491	51.37
211.876	16.47
212.262	48.05
212.648	31.89
213.034	32.43
213.419	5.68
213.805	39.3
214.19	14.95
214.576	-0.19
214.961	11.24
215.346	-25.94
215.732	25.62
216.117	-13.25
216.502	-2.36
216.888	0.9
217.273	9.81
217.658	35.11
218.043	35.78
218.428	-10.72
218.813	9.15
219.198	-7.46
219.583	23.68
219.968	18.28
220.353	11.79
220.738	8.46
221.122	23.3
221.507	7.31
221.892	12.91
222.276	18.11
222.661	13.65
223.046	-9.57
223.43	1.29
223.815	12.69
224.199	19.58
224.583	8.63
224.968	7.11
225.352	-6.47
225.736	22.27
226.121	5.83
226.505	8.73
226.889	5.56
227.273	8.18
227.657	12.32
228.041	4.07
228.425	0.75
228.809	2.23
229.193	2.58
229.577	5
229.961	2.79
230.344	2.99
230.728	4.01
231.112	3.8
231.495	2.92
231.879	3.99
232.263	2.5
232.646	3.93
233.03	4.69
233.413	1.43
233.797	2.8
234.18	3.19
234.563	3.18
234.946	6.53
235.33	4.17
235.713	4.28
236.096	2.72
236.479	3.92
236.862	3.67
237.245	4.24
237.628	3.92
238.011	4.12
238.394	2.4
238.777	5.28
239.16	5.68
239.543	2.01
239.925	4.98
240.308	2.57
240.691	5.92
241.073	3.13
241.456	5
241.838	4.05
242.221	4.92
242.603	3.7
242.986	2.48
243.368	4.16
243.75	3.64
244.133	3.62
244.515	3.98
244.897	3.67
245.279	4.28
245.661	3.48
246.043	3.25
246.425	5.28
246.807	4.69
247.189	3.46
247.571	3.83
247.953	3.76
248.335	3.75
248.717	3.57
249.098	3.53
249.48	3.45
249.862	3.58
250.243	3.5
250.625	4.18
251.006	3.96
251.388	4.47
251.769	3.95
252.151	3.53
252.532	4.18
252.913	3.53
253.295	4.67
253.676	3.24
254.057	3.59
254.438	4.21
254.819	3.79
255.2	3.63
255.581	3.24
255.962	2.86
256.343	5.2
256.724	3.54
257.105	4.9
257.486	4.08
257.867	3.05
258.247	3.86
258.628	4.46
259.009	3.4
259.389	4.44
259.77	4.28
260.15	3.72
260.531	4.76
260.911	4.24
261.292	3.71
261.672	3.63
262.052	3.7
262.432	3.82
262.813	3.96
263.193	4.09
263.573	4.51
263.953	5.06
264.333	4.9
264.713	4.33
265.093	3.89
265.473	4.58
265.853	3.23
266.233	3.13
266.612	3.68
266.992	3.87
267.372	4.16
267.752	5.25
268.131	3.06
268.511	3.38
268.89	3.57
269.27	3.44
269.649	3.58
270.029	3.44
270.408	3.86
270.787	2.91
271.167	3.8
271.546	3.88
271.925	4.44
272.304	4.41
272.683	3.02
273.062	3.49
273.441	3.83
273.82	3.3
274.199	3.16
274.578	3.61
274.957	3.4
275.336	3.9
275.715	4.25
276.093	3.43
276.472	4.13
276.851	3.47
277.229	3.24
277.608	4.06
277.986	3.55
278.365	3.6
278.743	3.29
279.122	4.33
279.5	3.94
279.878	3.29
280.257	3.75
280.635	3.27
281.013	3.65
281.391	4.16
281.769	3.87
282.147	3.09
282.525	3.41
282.903	3.56
283.281	3.46
283.659	3.55
284.037	4.01
284.415	3.98
284.792	3.72
285.17	3.47
285.548	4.22
285.925	3.41
286.303	3.49
286.68	3.33
287.058	3.69
287.435	3.39
287.813	2.87
288.19	3.34
288.567	3.37
288.945	3.74
289.322	3.32
289.699	3.78
290.076	3.46
290.453	4.13
290.83	3.86
291.207	4.36
291.584	3.74
291.961	4.2
292.338	3.81
292.715	4.08
293.092	4
293.469	4.1
293.845	4.44
294.222	4.2
294.599	4.61
294.975	3.71
295.352	4.04
295.728	4.45
296.105	4.22
296.481	4.49
296.858	4.54
297.234	4.89
297.61	4.46
297.986	4.51
298.363	4.4
298.739	4.18
299.115	4.1
299.491	4.54
299.867	4.63
300.243	4.16
300.619	5.14
300.995	4.43
301.371	4.73
301.746	4.55
302.122	5.66
302.498	5.31
302.874	5.05
303.249	5.4
303.625	4.56
304	4.86
304.376	5.57
304.751	5.64
305.127	5.19
305.502	5.22
305.878	5.09
306.253	5.08
306.628	5.4
307.003	5.18
307.378	5.33
307.754	5.67
308.129	5.55
308.504	6.39
308.879	5.5
309.254	5.72
309.629	5.53
310.003	6.05
310.378	5.96
310.753	6.05
311.128	6.2
311.502	5.33
311.877	5.82
312.252	5.39
312.626	6.08
313.001	5.85
313.375	5.88
313.75	6.43
314.124	6.86
314.498	6.32
314.873	6.14
315.247	7.04
315.621	6.5
315.995	6.75
316.369	6.73
316.743	5.95
317.117	6.29
317.491	7.14
317.865	7.36
318.239	7.22
318.613	6.84
318.987	7.56
319.361	6.58
319.734	7.09
320.108	7.46
320.482	7.19
320.855	7.16
321.229	7.5
321.602	7.61
321.976	7.66
322.349	7.19
322.723	8.11
323.096	7.44
323.469	7.42
323.843	8.69
324.216	7.58
324.589	8.4
324.962	8.45
325.335	8.32
325.708	7.97
326.081	8.06
326.454	7.86
326.827	8.32
327.2	8.19
327.573	7.5
327.945	8.31
328.318	8.23
328.691	7.87
329.063	8.87
329.436	8.9
329.809	8.19
330.181	8.06
330.553	8.34
330.926	8.63
331.298	8.43
331.671	8.31
332.043	8.57
332.415	8.78
332.787	8.65
333.159	9.12
333.532	8.73
333.904	8.88
334.276	9.92
334.648	8.49
335.02	8.36
335.391	9.2
335.763	8.69
336.135	9.21
336.507	9.52
336.879	9.5
337.25	8.96
337.622	9.28
337.993	9.11
338.365	8.98
338.736	9.71
339.108	8.69
339.479	9.61
339.851	9.13
340.222	9.07
340.593	9.54
340.964	10.07
341.336	9.81
341.707	9.07
342.078	8.93
342.449	9.27
342.82	9.83
343.191	9.54
343.562	10.05
343.933	10.32
344.303	9.66
344.674	10.21
345.045	9.61
345.416	10.23
345.786	9.5
346.157	9.76
346.527	10.18
346.898	9.79
347.268	9.89
347.639	10.17
348.009	9.8
348.38	9.7
348.75	10.19
349.12	10.27
349.49	10.03
349.861	10.09
350.231	10.02
350.601	10.54
350.971	10.48
351.341	10.81
351.711	10.67
352.081	10.64
352.45	10.57
352.82	10.72
353.19	11.06
353.56	10.46
353.929	10.44
354.299	10.82
354.669	10.96
355.038	10.45
355.408	10.68
355.777	10.69
356.147	10.42
356.516	11.11
356.885	10.73
357.254	10.87
357.624	10.4
357.993	10.8
358.362	10.79
358.731	11.03
359.1	10.81
359.469	11.01
359.838	11.04
360.207	10.72
360.576	11.4
360.945	11.32
361.314	11.56
361.682	11.17
362.051	11.26
362.42	11.41
362.788	11.33
363.157	11.72
363.525	11.43
363.894	11.37
364.262	11.39
364.631	11.21
364.999	11.41
365.367	11.73
365.735	11.68
366.104	11.58
366.472	11.68
366.84	11.94
367.208	11.33
367.576	12.03
367.944	12.38
368.312	12.08
368.68	12.05
369.048	12.28
369.416	11.85
369.783	12.08
370.151	12.39
370.519	11.88
370.886	12.34
371.254	12.02
371.621	12.54
371.989	12.07
372.356	12.44
372.724	12.01
373.091	12.28
373.458	12.43
373.826	12.34
374.193	12.1
374.56	12.67
374.927	12.29
375.294	12.55
375.661	12.8
376.028	12.89
376.395	12.67
376.762	13.07
377.129	12.57
377.496	12.87
377.863	12.62
378.229	13.03
378.596	12.47
378.963	12.75
379.329	12.8
379.696	12.65
380.062	13.01
380.429	13.36
380.795	13.36
381.161	13.39
381.528	13.31
381.894	13.24
382.26	13.04
382.626	13.29
382.993	13.31
383.359	13.52
383.725	13.26
384.091	13.42
384.457	13.14
384.823	13.58
385.188	13.44
385.554	13.81
385.92	13.1
386.286	13.85
386.651	13.91
387.017	13.84
387.383	13.51
387.748	13.36
388.114	13.75
388.479	13.87
388.845	13.89
389.21	13.97
389.575	13.83
389.94	13.96
390.306	13.77
390.671	13.92
391.036	14.1
391.401	13.75
391.766	14.18
392.131	14.15
392.496	14.21
392.861	14.11
393.226	13.99
393.591	14.17
393.956	14.06
394.32	14.25
394.685	14.2
395.05	14.12
395.414	14.16
395.779	14.32
396.143	14.43
396.508	14.35
396.872	14.3
397.236	14.37
397.601	14.33
397.965	14.55
398.329	14.44
398.694	14.3
399.058	14.83
399.422	14.6
399.786	14.63
400.15	14.46
400.514	14.73
400.878	14.37
401.242	14.43
401.605	14.57
401.969	14.72
402.333	14.5
402.697	14.46
403.06	14.79
403.424	15.03
403.787	14.71
404.151	15.02
404.514	14.77
404.878	15.1
405.241	15.02
405.604	14.76
405.968	14.97
406.331	15.15
406.694	15.11
407.057	14.84
407.42	15.12
407.783	15.02
408.146	15.15
408.509	14.95
408.872	15.17
409.235	15.09
409.598	14.94
409.961	15.2
410.323	15.28
410.686	15.28
411.049	15.59
411.411	15.7
411.774	15.38
412.136	15.4
412.499	15.34
412.861	15.19
413.223	15.42
413.586	15.43
413.948	15.67
414.31	15.45
414.672	15.72
415.035	15.55
415.397	15.37
415.759	15.61
416.121	15.7
416.483	15.69
416.845	15.81
417.206	15.92
417.568	15.73
417.93	15.99
418.292	15.72
418.653	15.81
419.015	15.75
419.377	15.71
419.738	15.81
420.1	15.71
420.461	15.75
420.822	15.73
421.184	15.91
421.545	16.15
421.906	15.94
422.267	15.94
422.629	15.8
422.99	15.92
423.351	15.98
423.712	16.06
424.073	16.12
424.434	16.3
424.795	16.28
425.155	16.22
425.516	16.28
425.877	16.36
426.238	16.43
426.598	16.55
426.959	16.49
427.32	16.54
427.68	16.69
428.041	16.87
428.401	17.01
428.761	16.92
429.122	17.18
429.482	17.32
429.842	17.18
430.202	17.31
430.563	17.35
430.923	17.35
431.283	17.42
431.643	17.44
432.003	17.32
432.363	17.63
432.722	17.7
433.082	17.68
433.442	17.66
433.802	17.85
434.161	17.65
434.521	17.7
434.881	17.75
435.24	17.68
435.6	17.74
435.959	17.88
436.319	17.9
436.678	18.15
437.037	18.12
437.396	18.05
437.756	18.27
438.115	18.27
438.474	18.12
438.833	18.29
439.192	18.42
439.551	18.38
439.91	18.22
440.269	18.44
440.628	18.42
440.987	18.33
441.345	18.63
441.704	18.47
442.063	18.37
442.421	18.57
442.78	18.55
443.138	18.72
443.497	18.63
443.855	18.66
444.214	18.96
444.572	18.98
444.93	19.2
445.288	18.92
445.647	19.13
446.005	18.89
446.363	18.81
446.721	19.07
447.079	19.06
447.437	18.99
447.795	18.9
448.153	18.97
448.51	18.96
448.868	19.16
449.226	19.21
449.584	19.22
449.941	19.29
450.299	19.48
450.656	19.55
451.014	19.57
451.371	19.74
451.729	19.73
452.086	19.92
452.443	19.95
452.801	20.03
453.158	19.92
453.515	20.06
453.872	19.94
454.229	20.07
454.586	19.95
454.943	20.04
455.3	20.19
455.657	20.18
456.014	20.34
456.371	20.41
456.727	20.3
457.084	20.36
457.441	20.43
457.797	20.57
458.154	20.48
458.51	20.61
458.867	20.72
459.223	20.7
459.58	20.55
459.936	20.44
460.292	20.84
460.648	20.68
461.005	20.61
461.361	20.49
461.717	20.34
462.073	20.56
462.429	20.53
462.785	20.76
463.141	20.84
463.496	20.85
463.852	21.34
464.208	20.92
464.564	21.21
464.919	21.36
465.275	21.5
465.631	21.36
465.986	21.64
466.342	21.37
466.697	21.34
467.052	21.5
467.408	21.64
467.763	21.68
468.118	21.62
468.473	21.49
468.829	21.71
469.184	21.71
469.539	21.86
469.894	21.97
470.249	21.87
470.603	22.05
470.958	21.93
471.313	22.13
471.668	22.02
472.023	22.16
472.377	21.97
472.732	22.18
473.086	22.2
473.441	22.48
473.795	22.42
474.15	22.23
474.504	22.34
474.859	22.17
475.213	22.55
475.567	22.28
475.921	22.4
476.275	22.28
476.63	22.76
476.984	22.7
477.338	22.5
477.692	22.51
478.045	22.96
478.399	22.83
478.753	22.73
479.107	22.83
479.461	23
479.814	22.76
480.168	22.64
480.521	22.83
480.875	22.93
481.228	23.01
481.582	22.88
481.935	23.13
482.289	23.04
482.642	23.16
482.995	22.91
483.348	23.03
483.701	23.01
484.055	22.92
484.408	22.84
484.761	22.72
485.114	22.45
485.466	22.13
485.819	22.15
486.172	22.31
486.525	22.54
486.878	22.6
487.23	22.75
487.583	22.94
487.936	23.12
488.288	23.14
488.641	22.87
488.993	22.79
489.345	22.75
489.698	22.7
490.05	22.85
490.402	23.06
490.754	23.14
491.107	23.38
491.459	23.6
491.811	23.75
492.163	23.76
492.515	23.81
492.866	23.48
493.218	23.24
493.57	23.16
493.922	23.33
494.274	23.61
494.625	23.81
494.977	23.95
495.328	24.12
495.68	24.17
496.031	24.57
496.383	24.56
496.734	24.67
497.086	24.46
497.437	24.64
497.788	24.52
498.139	24.7
498.49	24.62
498.842	24.57
499.193	24.81
499.544	24.53
499.894	24.6
500.245	24.76
500.596	24.98
500.947	25.01
501.298	24.95
501.648	25.11
501.999	25.01
502.35	24.99
502.7	25.27
503.051	25.05
503.401	25.34
503.752	25.55
504.102	25.48
504.452	25.64
504.803	25.65
505.153	25.65
505.503	25.57
505.853	25.5
506.203	25.6
506.553	25.51
506.903	25.55
507.253	25.51
507.603	25.53
507.953	25.61
508.303	25.79
508.652	25.97
509.002	25.72
509.352	25.84
509.701	25.79
510.051	25.79
510.4	25.75
510.75	25.72
511.099	25.87
511.449	25.95
511.798	25.86
512.147	26.07
512.496	26.14
512.846	26.08
513.195	25.95
513.544	26.24
513.893	26.25
514.242	26.16
514.591	26.38
514.939	26.34
515.288	26.37
515.637	26.28
515.986	26.54
516.334	26.7
516.683	26.47
517.032	26.46
517.38	26.65
517.729	26.64
518.077	26.64
518.426	26.9
518.774	26.79
519.122	26.73
519.47	26.68
519.819	26.52
520.167	26.36
520.515	26.47
520.863	26.52
521.211	26.66
521.559	26.65
521.907	26.64
522.255	27.02
522.602	26.99
522.95	27.08
523.298	27.25
523.645	27.46
523.993	27.36
524.341	27.42
524.688	27.28
525.036	27.44
525.383	27.42
525.73	27.59
526.078	27.52
526.425	27.51
526.772	27.33
527.119	27.29
527.466	27.11
527.814	27.18
528.161	27.25
528.508	27.48
528.854	27.42
529.201	27.23
529.548	27.34
529.895	26.96
530.242	26.65
530.588	26.63
530.935	26.84
531.282	26.96
531.628	27.18
531.975	27.23
532.321	27.39
532.667	27.49
533.014	27.58
533.36	27.76
533.706	27.86
534.052	27.82
534.399	27.8
534.745	27.67
535.091	27.46
535.437	27.46
535.783	27.68
536.129	27.98
536.474	28.08
536.82	28.15
537.166	28.34
537.512	28.35
537.857	28.43
538.203	28.4
538.549	28.11
538.894	28.34
539.239	28.42
539.585	28.55
539.93	28.81
540.276	28.75
540.621	28.99
540.966	28.8
541.311	29.05
541.656	29.06
542.001	29.02
542.346	28.77
542.691	28.52
543.036	28.31
543.381	28.21
543.726	28.37
544.071	28.46
544.415	28.57
544.76	28.76
545.105	28.83
545.449	29.02
545.794	29.24
546.138	29.12
546.483	29.18
546.827	29.25
547.171	29.35
547.516	29.39
547.86	29.55
548.204	29.58
548.548	29.66
548.892	29.57
549.236	29.53
549.58	29.71
549.924	29.95
550.268	30.02
550.612	29.86
550.956	30.01
551.3	30.47
551.643	30.41
551.987	30.45
552.33	30.37
552.674	30.55
553.017	30.35
553.361	30.56
553.704	30.52
554.048	30.52
554.391	30.43
554.734	30.47
555.077	30.4
555.42	30.39
555.764	30.6
556.107	30.77
556.45	30.68
556.793	30.78
557.135	30.86
557.478	30.89
557.821	30.98
558.164	30.94
558.507	31.01
558.849	31.12
559.192	31.06
559.534	31.24
559.877	31.29
560.219	31.36
560.562	31.39
560.904	31.45
561.246	31.22
561.589	31.42
561.931	31.35
562.273	31.37
562.615	31.39
562.957	31.19
563.299	31.4
563.641	31.66
563.983	31.82
564.325	31.46
564.667	31.74
565.008	31.43
565.35	31.74
565.692	31.53
566.033	31.81
566.375	31.87
566.716	31.78
567.058	31.86
567.399	31.94
567.741	31.9
568.082	31.67
568.423	31.67
568.764	31.85
569.105	31.83
569.447	32.14
569.788	31.9
570.129	32
570.47	32.31
570.811	32.32
571.151	32.62
571.492	32.42
571.833	32.42
572.174	32.56
572.514	32.28
572.855	32.55
573.195	32.3
573.536	32.41
573.876	32.35
574.217	32.5
574.557	32.42
574.898	32.78
575.238	32.74
575.578	32.59
575.918	32.92
576.258	32.86
576.598	32.51
576.938	32.78
577.278	32.81
577.618	32.95
577.958	32.86
578.298	33.16
578.638	32.91
578.977	33.12
579.317	33.15
579.657	33.2
579.996	33.55
580.336	33.32
580.675	33.38
581.014	33.32
581.354	33.49
581.693	33.36
582.032	33.57
582.372	33.81
582.711	33.78
583.05	33.95
583.389	33.55
583.728	33.91
584.067	33.79
584.406	33.8
584.745	33.82
585.083	34.1
585.422	34.09
585.761	34.03
586.1	34
586.438	34.33
586.777	34.29
587.115	33.88
587.454	34.11
587.792	34.34
588.13	34.18
588.469	34.36
588.807	34.31
589.145	33.87
589.483	34.56
589.821	34.35
590.159	34.37
590.497	34.6
590.835	34.57
591.173	34.66
591.511	34.53
591.849	34.5
592.187	34.7
592.524	34.82
592.862	34.27
593.2	34.77
593.537	34.48
593.875	35
594.212	35.13
594.55	34.91
594.887	35.08
595.224	35.08
595.561	34.77
595.899	34.91
596.236	34.96
596.573	34.97
596.91	35
597.247	35.04
597.584	35.28
597.921	35.11
598.258	35.2
598.594	35.04
598.931	35.06
599.268	35.01
599.604	34.9
599.941	35.14
600.277	35.26
600.614	35.28
600.95	35.54
601.287	35.59
601.623	35.75
601.959	35.45
602.296	35.79
602.632	35.73
602.968	35.78
603.304	35.38
603.64	35.6
603.976	35.49
604.312	35.85
604.648	35.9
604.984	35.66
605.319	35.7
605.655	35.49
605.991	35.6
606.326	35.33
606.662	35.72
606.998	35.59
607.333	35.67
607.668	35.96
608.004	36.33
608.339	36.3
608.674	36.1
609.01	36.32
609.345	36.52
609.68	36.46
610.015	36.25
610.35	36.74
610.685	36.61
611.02	36.47
611.355	36
611.689	36.36
612.024	36.14
612.359	36.63
612.694	36.82
613.028	36.58
613.363	36.48
613.697	36.83
614.032	36.91
614.366	37.19
614.7	36.92
615.035	37.06
615.369	36.77
615.703	36.84
616.037	36.87
616.371	37
616.705	37.24
617.039	37.12
617.373	37.32
617.707	37.25
618.041	36.96
618.375	37.2
618.709	37.28
619.042	36.97
619.376	36.9
619.71	37.34
620.043	37.15
620.377	36.8
620.71	37.26
621.043	37.43
621.377	37.54
621.71	37.67
622.043	37.54
622.376	37.56
622.709	38.15
623.043	37.48
623.376	38.15
623.709	37.72
624.041	37.81
624.374	37.49
624.707	37.89
625.04	38.11
625.373	37.95
625.705	37.76
626.038	37.83
626.37	38.01
626.703	37.86
627.035	37.88
627.368	37.68
627.7	37.94
628.032	37.92
628.365	37.86
628.697	38.2
629.029	37.9
629.361	38.02
629.693	37.98
630.025	37.9
630.357	38.3
630.689	38.03
631.021	38.06
631.353	38.53
631.684	38.19
632.016	37.99
632.348	38.62
632.679	38.05
633.011	38.63
633.342	38.48
633.674	38.49
634.005	39.06
634.336	38.14
634.668	39.13
634.999	39.14
635.33	38.67
635.661	38.82
635.992	38.23
636.323	38.8
636.654	38.75
636.985	39.22
637.316	38.94
637.647	39.04
637.977	39.1
638.308	39.34
638.639	38.7
638.969	38.75
639.3	39.21
639.63	39.75
639.961	38.79
640.291	39.14
640.622	38.92
640.952	39.41
641.282	39.24
641.612	38.91
641.943	39.43
642.273	39.36
642.603	39.82
642.933	39.67
643.263	39.34
643.592	39.78
643.922	39.93
644.252	39.82
644.582	39.26
644.911	39.91
645.241	39.46
645.571	40.25
645.9	39.34
646.23	39.52
646.559	40.23
646.888	39.88
647.218	40.13
647.547	40.16
647.876	39.4
648.205	39.87
648.534	40.31
648.863	39.94
649.192	40.22
649.521	40.79
649.85	39.68
650.179	40.4
650.508	40.36
650.837	40.13
651.165	40.14
651.494	40.16
651.822	40.45
652.151	40.68
652.479	40.36
652.808	40.11
653.136	39.94
653.465	40.29
653.793	40.54
654.121	40.6
654.449	40.38
654.777	40.68
655.105	40.92
655.433	40.42
655.761	41.07
656.089	40.93
656.417	41.41
656.745	41.01
657.073	40.79
657.4	40.99
657.728	39.76
658.056	40.47
658.383	40.31
658.711	40.88
659.038	41.12
659.365	40.74
659.693	41.17
660.02	40.8
660.347	40.71
660.674	41.61
661.001	40.81
661.329	40.91
661.656	40.81
661.982	41.02
662.309	41.4
662.636	40.55
662.963	41.07
663.29	41.54
663.616	41.62
663.943	41.42
664.27	41.17
664.596	41.59
664.923	42.2
665.249	41.3
665.576	41.49
665.902	41.95
666.228	41.39
666.554	42.19
666.881	42.15
667.207	41.87
667.533	41.46
667.859	41.74
668.185	41.79
668.511	41.61
668.837	41.84
669.162	42.25
669.488	41.43
669.814	41.89
670.139	42.08
670.465	40.99
670.791	42
671.116	41.85
