Data from 428_chest_Reflection__2__79.txt Node

Date: Tue Dec 12 18:50:58 CST 2023
User: ToomeyLab
Spectrometer: FLMS14357
Trigger mode: 0
Integration Time (sec): 1.000000E-2
Scans to average: 100
Electric dark correction enabled: true
Nonlinearity correction enabled: false
Boxcar width: 0
XAxis mode: Wavelengths
Number of Pixels in Spectrum: 2048
>>>>>Begin Spectral Data<<<<<
189.047	-387.61
189.435	-387.61
189.823	-387.61
190.211	7.53
190.599	8.52
190.987	90.93
191.375	0.86
191.763	416.14
192.151	206.43
192.538	115.7
192.926	462.39
193.314	392.49
193.702	163.59
194.089	-13.11
194.477	5.16
194.864	38.33
195.252	14.45
195.639	2584.76
196.027	46.23
196.414	-1807.95
196.801	88.49
197.189	701.14
197.576	66.72
197.963	26.61
198.351	51.82
198.738	61.69
199.125	15.97
199.512	25.85
199.899	44.97
200.286	42.66
200.673	45.69
201.06	-5.72
201.447	-4.87
201.833	-8.98
202.22	18.36
202.607	-48.84
202.994	65.59
203.38	38.68
203.767	16.41
204.154	27.42
204.54	37.46
204.927	22.21
205.313	17.96
205.699	-15.69
206.086	-22.11
206.472	50.08
206.858	9.52
207.245	-7.69
207.631	28.58
208.017	-10.48
208.403	-39.44
208.789	3.1
209.175	2.71
209.561	29.28
209.947	-11.93
210.333	34.22
210.719	30.59
211.105	-46.39
211.491	28.5
211.876	-2.56
212.262	-0.26
212.648	-18.83
213.034	-10.47
213.419	11.26
213.805	-9.61
214.19	34.71
214.576	14.74
214.961	11.75
215.346	50.79
215.732	36.98
216.117	35.99
216.502	-29.57
216.888	9.79
217.273	-20.16
217.658	-1.48
218.043	-19.36
218.428	18.5
218.813	-4.61
219.198	-31.3
219.583	9.01
219.968	16.75
220.353	32.13
220.738	16.44
221.122	-4.06
221.507	-22.19
221.892	-3.8
222.276	19.9
222.661	-2.34
223.046	15.02
223.43	6.48
223.815	2.1
224.199	15.23
224.583	5.19
224.968	10.92
225.352	0.61
225.736	11.9
226.121	6.2
226.505	9.61
226.889	0.29
227.273	0.58
227.657	12.38
228.041	8.8
228.425	4.14
228.809	4.23
229.193	1.01
229.577	4.78
229.961	2.97
230.344	3.93
230.728	5.31
231.112	4.46
231.495	4.92
231.879	3.55
232.263	3.24
232.646	4.39
233.03	5.12
233.413	3.22
233.797	4.01
234.18	2.82
234.563	3.43
234.946	4.57
235.33	5.18
235.713	5.76
236.096	2.27
236.479	4.48
236.862	4.78
237.245	4.42
237.628	4.57
238.011	4.5
238.394	5.13
238.777	5.01
239.16	5.36
239.543	3.25
239.925	6.3
240.308	5.3
240.691	4.03
241.073	6.39
241.456	5.14
241.838	3.9
242.221	5.77
242.603	3.94
242.986	3.49
243.368	4.66
243.75	4.01
244.133	4.68
244.515	4.28
244.897	4.54
245.279	4.61
245.661	4.09
246.043	3.49
246.425	5.32
246.807	4.25
247.189	5.2
247.571	4.92
247.953	4.21
248.335	4.02
248.717	3.93
249.098	4.07
249.48	3.99
249.862	3.89
250.243	4.04
250.625	4.4
251.006	3.83
251.388	4.33
251.769	4.09
252.151	3.81
252.532	5.41
252.913	5.19
253.295	4.85
253.676	3.97
254.057	4.03
254.438	4.24
254.819	3.85
255.2	4.58
255.581	4.28
255.962	4.14
256.343	4.56
256.724	4.01
257.105	4.92
257.486	2.96
257.867	4.09
258.247	4.27
258.628	3.6
259.009	4.21
259.389	3.76
259.77	3.42
260.15	3.93
260.531	4.23
260.911	3.97
261.292	3.48
261.672	3.72
262.052	3.59
262.432	4.02
262.813	4.14
263.193	3.57
263.573	3.88
263.953	4.59
264.333	5.42
264.713	3.73
265.093	3.64
265.473	4.77
265.853	3.57
266.233	3
266.612	3.42
266.992	3.42
267.372	3.65
267.752	4.44
268.131	3.57
268.511	4
268.89	3.09
269.27	2.87
269.649	3.58
270.029	3.67
270.408	3.97
270.787	3.33
271.167	3.48
271.546	4.25
271.925	3.84
272.304	3.86
272.683	3.37
273.062	3.82
273.441	4.04
273.82	3.12
274.199	3.38
274.578	3.65
274.957	3.09
275.336	3.64
275.715	3.51
276.093	2.8
276.472	4.07
276.851	3.45
277.229	3.27
277.608	3.4
277.986	2.99
278.365	3.56
278.743	3.96
279.122	4.05
279.5	3.19
279.878	2.97
280.257	3.5
280.635	3.21
281.013	3.43
281.391	3.59
281.769	3.71
282.147	3.49
282.525	2.63
282.903	3.28
283.281	3.4
283.659	3.38
284.037	4.05
284.415	3.73
284.792	3.74
285.17	2.95
285.548	3.6
285.925	3.36
286.303	3.44
286.68	3.51
287.058	3.59
287.435	3.53
287.813	3.37
288.19	3.77
288.567	3.34
288.945	3.8
289.322	2.5
289.699	3.24
290.076	3.49
290.453	3.79
290.83	3.35
291.207	3.88
291.584	3.16
291.961	3.37
292.338	3.44
292.715	3.71
293.092	3.4
293.469	3.61
293.845	3.89
294.222	3.43
294.599	3.75
294.975	3.16
295.352	3.41
295.728	3.54
296.105	3.35
296.481	4.05
296.858	3.09
297.234	3.84
297.61	3.83
297.986	3.71
298.363	3.56
298.739	3.63
299.115	3.36
299.491	3.58
299.867	3.56
300.243	3.65
300.619	3.69
300.995	3.71
301.371	3.42
301.746	4.03
302.122	4.04
302.498	3.73
302.874	4.09
303.249	4.04
303.625	3.9
304	3.59
304.376	3.6
304.751	3.82
305.127	3.54
305.502	3.82
305.878	3.53
306.253	4
306.628	3.68
307.003	4.07
307.378	3.93
307.754	4.12
308.129	3.64
308.504	4.29
308.879	2.97
309.254	3.91
309.629	3.74
310.003	3.83
310.378	4.29
310.753	4.05
311.128	4.04
311.502	3.69
311.877	3.44
312.252	3.07
312.626	3.78
313.001	3.39
313.375	3.52
313.75	3.79
314.124	4.29
314.498	3.88
314.873	3.54
315.247	3.88
315.621	3.5
315.995	3.72
316.369	3.78
316.743	3.84
317.117	3.66
317.491	3.42
317.865	3.25
318.239	3.68
318.613	4.45
318.987	4.33
319.361	3.13
319.734	3.85
320.108	4.11
320.482	4.31
320.855	3.97
321.229	4.45
321.602	4.08
321.976	3.92
322.349	4.03
322.723	3.64
323.096	3.67
323.469	3.91
323.843	4.82
324.216	4.08
324.589	3.91
324.962	4.49
325.335	3.94
325.708	3.81
326.081	3.99
326.454	4.37
326.827	4.35
327.2	4.14
327.573	3.54
327.945	3.75
328.318	4.07
328.691	3.82
329.063	4.39
329.436	4.29
329.809	3.76
330.181	3.72
330.553	4.26
330.926	3.4
331.298	3.52
331.671	4.05
332.043	3.46
332.415	4.16
332.787	3.91
333.159	3.97
333.532	4.04
333.904	4
334.276	4.54
334.648	3.55
335.02	3.42
335.391	3.61
335.763	3.78
336.135	3.94
336.507	3.77
336.879	3.94
337.25	3.91
337.622	3.71
337.993	3.5
338.365	3.5
338.736	3.7
339.108	3.3
339.479	3.9
339.851	3.76
340.222	3.14
340.593	3.86
340.964	4.21
341.336	4.37
341.707	3.61
342.078	3.52
342.449	3.91
342.82	3.78
343.191	4.18
343.562	4.15
343.933	3.88
344.303	4.24
344.674	3.92
345.045	3.89
345.416	4.28
345.786	3.89
346.157	3.97
346.527	4.41
346.898	3.64
347.268	3.44
347.639	4.01
348.009	3.66
348.38	3.72
348.75	4.13
349.12	4.38
349.49	3.55
349.861	4.16
350.231	3.7
350.601	4.11
350.971	4.04
351.341	3.69
351.711	4.23
352.081	3.82
352.45	4.03
352.82	4.38
353.19	3.83
353.56	3.9
353.929	3.65
354.299	3.61
354.669	3.45
355.038	3.23
355.408	3.85
355.777	4.38
356.147	3.69
356.516	4.11
356.885	4.3
357.254	3.91
357.624	3.98
357.993	4.07
358.362	4.26
358.731	3.95
359.1	3.69
359.469	3.72
359.838	3.85
360.207	4.05
360.576	4.31
360.945	3.92
361.314	4.24
361.682	3.89
362.051	4.25
362.42	3.89
362.788	3.56
363.157	4.09
363.525	3.95
363.894	3.82
364.262	3.88
364.631	3.59
364.999	3.69
365.367	4.06
365.735	4.41
366.104	3.98
366.472	3.59
366.84	3.93
367.208	3.94
367.576	4.18
367.944	4.53
368.312	3.81
368.68	4.08
369.048	4.21
369.416	4.04
369.783	4.27
370.151	3.91
370.519	4.01
370.886	3.91
371.254	3.67
371.621	4.05
371.989	3.93
372.356	4.06
372.724	3.87
373.091	3.86
373.458	3.94
373.826	3.61
374.193	3.9
374.56	4.24
374.927	3.99
375.294	4.01
375.661	3.95
376.028	4.5
376.395	4.41
376.762	4.31
377.129	4.01
377.496	4.19
377.863	4.41
378.229	4.17
378.596	3.71
378.963	4.28
379.329	4.09
379.696	3.9
380.062	4.42
380.429	3.8
380.795	4.24
381.161	4.45
381.528	4.47
381.894	3.86
382.26	3.87
382.626	4.18
382.993	4.31
383.359	3.95
383.725	4.03
384.091	4.28
384.457	4.34
384.823	4.17
385.188	4.12
385.554	3.84
385.92	4.1
386.286	4.19
386.651	4.38
387.017	4.15
387.383	4.11
387.748	4.16
388.114	4.48
388.479	4.36
388.845	4.21
389.21	4.09
389.575	3.81
389.94	4.01
390.306	3.98
390.671	4.04
391.036	4.39
391.401	4.1
391.766	3.93
392.131	4.07
392.496	3.84
392.861	3.91
393.226	4.28
393.591	4.12
393.956	3.93
394.32	4.31
394.685	4.2
395.05	3.9
395.414	4.22
395.779	4.16
396.143	4.26
396.508	4.22
396.872	4.26
397.236	4.08
397.601	4.08
397.965	4.03
398.329	4.7
398.694	4.05
399.058	4.43
399.422	4.16
399.786	4.04
400.15	3.95
400.514	4.47
400.878	4.21
401.242	4.07
401.605	4.2
401.969	4.22
402.333	4.19
402.697	4.08
403.06	4.04
403.424	4.13
403.787	3.84
404.151	4.47
404.514	3.71
404.878	4.28
405.241	4.11
405.604	3.96
405.968	4.22
406.331	4.28
406.694	4.17
407.057	4.06
407.42	4.11
407.783	4.18
408.146	4.14
408.509	4.36
408.872	4.29
409.235	4.1
409.598	4.26
409.961	4.2
410.323	4.41
410.686	4.21
411.049	4.34
411.411	4.29
411.774	4.08
412.136	4.2
412.499	4.34
412.861	4.02
413.223	4.32
413.586	4.28
413.948	4.29
414.31	4.27
414.672	4.33
415.035	4.52
415.397	4.26
415.759	4.38
416.121	4.34
416.483	4.15
416.845	4.14
417.206	4.21
417.568	4.21
417.93	4.2
418.292	4.23
418.653	4.22
419.015	4.08
419.377	4.33
419.738	4.29
420.1	4.17
420.461	4.29
420.822	4.28
421.184	4.24
421.545	4.23
421.906	4.16
422.267	4.03
422.629	4.18
422.99	4.21
423.351	4.07
423.712	4.03
424.073	4.18
424.434	4.15
424.795	4.22
425.155	4.1
425.516	4.05
425.877	4.12
426.238	4.18
426.598	4.08
426.959	4.19
427.32	4.22
427.68	4.12
428.041	4.16
428.401	4.14
428.761	4.23
429.122	4.3
429.482	4.43
429.842	4.45
430.202	4.17
430.563	4.28
430.923	4.32
431.283	4.23
431.643	4.26
432.003	4.03
432.363	4.33
432.722	4.13
433.082	4.21
433.442	4.35
433.802	4.48
434.161	4.24
434.521	4.46
434.881	4.28
435.24	4.15
435.6	4.17
435.959	4.42
436.319	4.35
436.678	4.36
437.037	4.44
437.396	4.22
437.756	4.27
438.115	4.39
438.474	4.26
438.833	4.39
439.192	4.39
439.551	4.29
439.91	4.27
440.269	4.31
440.628	4.11
440.987	4.12
441.345	4.5
441.704	4.29
442.063	4.26
442.421	4.31
442.78	4.35
443.138	4.36
443.497	4.4
443.855	4.36
444.214	4.34
444.572	4.43
444.93	4.36
445.288	4.34
445.647	4.54
446.005	4.27
446.363	4.05
446.721	4.34
447.079	4.34
447.437	4.21
447.795	4.28
448.153	4.31
448.51	4.35
448.868	4.33
449.226	4.4
449.584	4.38
449.941	4.39
450.299	4.32
450.656	4.31
451.014	4.41
451.371	4.29
451.729	4.6
452.086	4.32
452.443	4.47
452.801	4.5
453.158	4.39
453.515	4.53
453.872	4.53
454.229	4.5
454.586	4.31
454.943	4.37
455.3	4.47
455.657	4.55
456.014	4.61
456.371	4.69
456.727	4.62
457.084	4.35
457.441	4.45
457.797	4.39
458.154	4.47
458.51	4.32
458.867	4.65
459.223	4.74
459.58	4.56
459.936	4.35
460.292	4.45
460.648	4.48
461.005	4.34
461.361	4.36
461.717	4.44
462.073	4.32
462.429	4.39
462.785	4.5
463.141	4.42
463.496	4.39
463.852	4.7
464.208	4.45
464.564	4.63
464.919	4.74
465.275	4.45
465.631	4.67
465.986	4.57
466.342	4.33
466.697	4.57
467.052	4.56
467.408	4.6
467.763	4.6
468.118	4.49
468.473	4.59
468.829	4.71
469.184	4.42
469.539	4.76
469.894	4.68
470.249	4.64
470.603	4.49
470.958	4.66
471.313	4.87
471.668	4.55
472.023	4.47
472.377	4.52
472.732	4.56
473.086	4.65
473.441	4.77
473.795	4.61
474.15	4.57
474.504	4.56
474.859	4.57
475.213	4.51
475.567	4.57
475.921	4.89
476.275	4.45
476.63	4.59
476.984	4.63
477.338	4.49
477.692	4.51
478.045	4.72
478.399	4.58
478.753	4.51
479.107	4.41
479.461	4.77
479.814	4.6
480.168	4.44
480.521	4.57
480.875	4.61
481.228	4.68
481.582	4.61
481.935	4.48
482.289	4.62
482.642	4.78
482.995	4.48
483.348	4.58
483.701	4.66
484.055	4.55
484.408	4.51
484.761	4.54
485.114	4.41
485.466	4.33
485.819	4.28
486.172	4.31
486.525	4.39
486.878	4.35
487.23	4.4
487.583	4.42
487.936	4.5
488.288	4.43
488.641	4.53
488.993	4.46
489.345	4.4
489.698	4.38
490.05	4.43
490.402	4.45
490.754	4.45
491.107	4.48
491.459	4.59
491.811	4.62
492.163	4.6
492.515	4.64
492.866	4.53
493.218	4.49
493.57	4.46
493.922	4.39
494.274	4.53
494.625	4.63
494.977	4.76
495.328	4.78
495.68	4.68
496.031	4.88
496.383	4.74
496.734	4.68
497.086	4.7
497.437	4.7
497.788	4.79
498.139	4.86
498.49	4.83
498.842	4.65
499.193	4.71
499.544	4.71
499.894	4.69
500.245	4.74
500.596	4.84
500.947	4.73
501.298	4.85
501.648	4.89
501.999	4.86
502.35	4.85
502.7	4.68
503.051	4.85
503.401	4.81
503.752	4.95
504.102	4.82
504.452	4.99
504.803	4.9
505.153	4.92
505.503	4.93
505.853	5.09
506.203	4.97
506.553	4.81
506.903	5.02
507.253	4.9
507.603	4.95
507.953	4.94
508.303	4.82
508.652	4.89
509.002	4.94
509.352	4.88
509.701	4.84
510.051	4.94
510.4	4.83
510.75	4.8
511.099	4.72
511.449	4.95
511.798	4.9
512.147	4.87
512.496	5.02
512.846	4.93
513.195	4.78
513.544	4.98
513.893	5.02
514.242	4.97
514.591	4.9
514.939	4.89
515.288	4.95
515.637	4.9
515.986	5.02
516.334	5.01
516.683	4.99
517.032	5.06
517.38	4.98
517.729	5.21
518.077	4.94
518.426	5.2
518.774	5.05
519.122	5
519.47	5.02
519.819	4.9
520.167	4.9
520.515	4.89
520.863	4.93
521.211	4.95
521.559	4.95
521.907	4.99
522.255	5.1
522.602	5.1
522.95	5.15
523.298	5.19
523.645	5.16
523.993	5.16
524.341	5.26
524.688	4.99
525.036	5.14
525.383	5.12
525.73	5.13
526.078	5.16
526.425	5.11
526.772	4.95
527.119	5
527.466	5.11
527.814	4.99
528.161	5.07
528.508	5.1
528.854	5.06
529.201	5.09
529.548	5.06
529.895	5.05
530.242	4.97
530.588	4.93
530.935	5.01
531.282	5.01
531.628	5.04
531.975	5.08
532.321	5.15
532.667	5.1
533.014	5.17
533.36	5.23
533.706	5.23
534.052	5.31
534.399	5.28
534.745	5.17
535.091	5.09
535.437	5.21
535.783	5.14
536.129	5.28
536.474	5.22
536.82	5.25
537.166	5.38
537.512	5.34
537.857	5.4
538.203	5.4
538.549	5.3
538.894	5.32
539.239	5.36
539.585	5.45
539.93	5.55
540.276	5.42
540.621	5.56
540.966	5.48
541.311	5.53
541.656	5.47
542.001	5.52
542.346	5.43
542.691	5.3
543.036	5.33
543.381	5.24
543.726	5.33
544.071	5.4
544.415	5.35
544.76	5.48
545.105	5.47
545.449	5.61
545.794	5.63
546.138	5.46
546.483	5.61
546.827	5.73
547.171	5.71
547.516	5.55
547.86	5.71
548.204	5.68
548.548	5.61
548.892	5.67
549.236	5.61
549.58	5.76
549.924	5.81
550.268	5.92
550.612	5.75
550.956	5.76
551.3	5.92
551.643	5.92
551.987	6.09
552.33	6.07
552.674	6.15
553.017	6.05
553.361	5.97
553.704	5.93
554.048	6.09
554.391	5.99
554.734	5.88
555.077	5.98
555.42	5.92
555.764	6.14
556.107	6.2
556.45	5.89
556.793	6.05
557.135	6.15
557.478	6.09
557.821	6.11
558.164	6.15
558.507	6.23
558.849	6.17
559.192	6.41
559.534	6.36
559.877	6.25
560.219	6.2
560.562	6.12
560.904	6.5
561.246	6.26
561.589	6.34
561.931	6.14
562.273	6.38
562.615	6.25
562.957	6.32
563.299	6.43
563.641	6.49
563.983	6.5
564.325	6.4
564.667	6.42
565.008	6.42
565.35	6.31
565.692	6.33
566.033	6.45
566.375	6.4
566.716	6.53
567.058	6.42
567.399	6.55
567.741	6.44
568.082	6.56
568.423	6.53
568.764	6.6
569.105	6.57
569.447	6.61
569.788	6.73
570.129	6.62
570.47	6.85
570.811	6.85
571.151	6.93
571.492	6.83
571.833	6.74
572.174	6.76
572.514	6.88
572.855	6.71
573.195	6.87
573.536	6.72
573.876	6.82
574.217	6.84
574.557	6.75
574.898	6.82
575.238	7
575.578	7.01
575.918	7.02
576.258	7.03
576.598	6.79
576.938	7.1
577.278	7.14
577.618	7.25
577.958	7.04
578.298	7.26
578.638	7.3
578.977	6.93
579.317	7.32
579.657	7.32
579.996	7.2
580.336	7.18
580.675	7.26
581.014	7.12
581.354	7.37
581.693	7.33
582.032	7.45
582.372	7.46
582.711	7.41
583.05	7.42
583.389	7.42
583.728	7.64
584.067	7.55
584.406	7.74
584.745	7.56
585.083	7.2
585.422	7.72
585.761	7.88
586.1	7.63
586.438	7.94
586.777	7.69
587.115	7.82
587.454	7.8
587.792	7.51
588.13	8.03
588.469	7.74
588.807	7.94
589.145	7.95
589.483	7.65
589.821	7.82
590.159	7.93
590.497	8.07
590.835	7.67
591.173	7.94
591.511	7.93
591.849	7.8
592.187	8.12
592.524	8.03
592.862	8.1
593.2	7.92
593.537	7.94
593.875	8.11
594.212	8.26
594.55	8.14
594.887	8.54
595.224	8.4
595.561	8.5
595.899	7.98
596.236	8.42
596.573	8.24
596.91	8.54
597.247	8.51
597.584	8.52
597.921	8.44
598.258	8.55
598.594	8.62
598.931	8.53
599.268	8.4
599.604	8.47
599.941	8.55
600.277	8.59
600.614	8.84
600.95	8.62
601.287	8.9
601.623	8.73
601.959	8.79
602.296	8.92
602.632	8.88
602.968	8.62
603.304	8.62
603.64	8.97
603.976	8.69
604.312	8.92
604.648	9
604.984	8.79
605.319	8.92
605.655	8.82
605.991	9.06
606.326	8.92
606.662	9.15
606.998	8.79
607.333	8.93
607.668	8.76
608.004	9.12
608.339	8.94
608.674	9.3
609.01	9.22
609.345	9.26
609.68	9.28
610.015	9.23
610.35	9.46
610.685	9.38
611.02	9.46
611.355	9.22
611.689	9.28
612.024	9.31
612.359	9.52
612.694	9.39
613.028	9.26
613.363	9.47
613.697	9.49
614.032	9.66
614.366	9.8
614.7	9.51
615.035	9.6
615.369	9.7
615.703	9.39
616.037	9.91
616.371	10.13
616.705	9.76
617.039	9.85
617.373	9.98
617.707	9.46
618.041	9.78
618.375	9.99
618.709	10.17
619.042	9.94
619.376	10.01
619.71	10.04
620.043	10.09
620.377	9.86
620.71	9.86
621.043	9.81
621.377	10.21
621.71	10.42
622.043	10.48
622.376	10.5
622.709	10.35
623.043	10.25
623.376	10.69
623.709	10.41
624.041	10.55
624.374	9.83
624.707	10.41
625.04	10.35
625.373	10.78
625.705	10.5
626.038	10.42
626.37	10.94
626.703	10.96
627.035	10.54
627.368	11.26
627.7	10.47
628.032	10.31
628.365	10.7
628.697	11
629.029	10.86
629.361	10.51
629.693	10.6
630.025	10.72
630.357	11
630.689	10.69
631.021	11.22
631.353	11.07
631.684	10.99
632.016	11.28
632.348	11.09
632.679	10.96
633.011	11.51
633.342	11.11
633.674	11.61
634.005	11.45
634.336	11.81
634.668	11.28
634.999	11.56
635.33	11.14
635.661	11.51
635.992	11.59
636.323	11.26
636.654	11.61
636.985	11.81
637.316	11.45
637.647	11.58
637.977	11.73
638.308	11.9
638.639	12.09
638.969	11.74
639.3	11.57
639.63	11.89
639.961	11.98
640.291	11.73
640.622	11.83
640.952	12.11
641.282	11.68
641.612	12.3
641.943	12.21
642.273	12.07
642.603	12.18
642.933	12.55
643.263	11.96
643.592	12.09
643.922	12.8
644.252	12.61
644.582	11.95
644.911	12.36
645.241	11.99
645.571	13.01
645.9	12.42
646.23	12.01
646.559	12.93
646.888	12.11
647.218	12.56
647.547	12.31
647.876	12.62
648.205	12.46
648.534	13.02
648.863	12.55
649.192	13.02
649.521	12.92
649.85	12.36
650.179	12.99
650.508	12.9
650.837	12.53
651.165	12.84
651.494	12.78
651.822	12.76
652.151	13.04
652.479	12.96
652.808	12.87
653.136	13.4
653.465	12.95
653.793	13.06
654.121	13.27
654.449	13.14
654.777	13.27
655.105	13.38
655.433	13.22
655.761	13.47
656.089	13.1
656.417	13.43
656.745	13.63
657.073	13.06
657.4	13.82
657.728	13.17
658.056	13.98
658.383	13.34
658.711	13.62
659.038	13.79
659.365	13.36
659.693	13.94
660.02	13.43
660.347	13.9
660.674	13.9
661.001	13.77
661.329	13.57
661.656	13.86
661.982	13.66
662.309	14.11
662.636	13.79
662.963	14.11
663.29	14.19
663.616	13.36
663.943	14.46
664.27	14.06
664.596	14.42
664.923	14.79
665.249	13.48
665.576	14.36
665.902	14.65
666.228	14.14
666.554	13.66
666.881	13.71
667.207	14.22
667.533	14.26
667.859	14.53
668.185	14.84
668.511	14.36
668.837	14.4
669.162	15.3
669.488	14.32
669.814	14.9
670.139	14.56
670.465	13.92
670.791	14.67
671.116	14.48
671.442	14.85
671.767	14.62
672.092	15.31
672.418	15.26
672.743	15.32
673.068	14.42
673.393	15.03
673.718	14.61
674.043	14.99
674.368	14.53
674.693	14.15
675.018	15.1
675.343	15.32
675.667	15.2
675.992	15.02
676.317	15.18
676.641	14.88
676.966	15.2
677.29	15.08
677.615	15.68
677.939	15.62
678.264	15.72
678.588	15.42
678.912	16.14
679.236	15.72
679.56	15.96
679.885	15.61
680.209	15.53
680.532	16.19
680.856	15.66
681.18	16.01
681.504	16.25
681.828	16.03
682.152	15.62
682.475	15.9
682.799	15.53
683.122	15.53
683.446	15.82
683.769	16.8
684.093	15.86
684.416	15.89
684.739	16.11
685.062	15.95
685.386	15.73
685.709	16.41
686.032	15.18
686.355	15.44
686.678	15.94
687.001	16.21
687.324	16.59
687.646	17.36
687.969	16.29
