Data from 428_forehead_Reflection__2__89.txt Node

Date: Tue Dec 12 18:54:46 CST 2023
User: ToomeyLab
Spectrometer: FLMS14357
Trigger mode: 0
Integration Time (sec): 1.000000E-2
Scans to average: 100
Electric dark correction enabled: true
Nonlinearity correction enabled: false
Boxcar width: 0
XAxis mode: Wavelengths
Number of Pixels in Spectrum: 2048
>>>>>Begin Spectral Data<<<<<
189.047	-293.81
189.435	-293.81
189.823	-293.81
190.211	163.45
190.599	33.21
190.987	87.5
191.375	326.96
191.763	-11.7
192.151	156.73
192.538	211.3
192.926	165.93
193.314	416.24
193.702	231.74
194.089	43.23
194.477	-183.76
194.864	37.83
195.252	39.76
195.639	-560
196.027	24.86
196.414	1724.5
196.801	19.31
197.189	-292.48
197.576	23.95
197.963	73.74
198.351	52.81
198.738	31.76
199.125	10.79
199.512	-30.03
199.899	69.04
200.286	63.61
200.673	9.61
201.06	81.78
201.447	-55.17
201.833	51.3
202.22	5.8
202.607	-60.67
202.994	86.84
203.38	39.56
203.767	42.33
204.154	38.18
204.54	31.54
204.927	2.43
205.313	20.71
205.699	-20.95
206.086	-97.1
206.472	23.69
206.858	34.95
207.245	9.55
207.631	50
208.017	24.55
208.403	-30.3
208.789	17.72
209.175	20.99
209.561	27.74
209.947	1.82
210.333	19.43
210.719	29.93
211.105	16.81
211.491	46.66
211.876	27.76
212.262	60.68
212.648	-18.21
213.034	-14.39
213.419	2.35
213.805	33.44
214.19	10.59
214.576	17.44
214.961	11.61
215.346	36.36
215.732	33.56
216.117	24.59
216.502	-28.04
216.888	-7.65
217.273	-30.04
217.658	-19.59
218.043	-10.06
218.428	42.92
218.813	9.33
219.198	-37.74
219.583	43.8
219.968	55.5
220.353	8.2
220.738	32.57
221.122	7.88
221.507	10.78
221.892	9.05
222.276	15.83
222.661	16.8
223.046	1.37
223.43	4.73
223.815	-3.21
224.199	5.43
224.583	10.97
224.968	17.87
225.352	5.14
225.736	17.49
226.121	2.17
226.505	1.8
226.889	16.73
227.273	8.09
227.657	15.25
228.041	8.16
228.425	-2.57
228.809	4.4
229.193	4.44
229.577	7.14
229.961	3.48
230.344	4.71
230.728	4.77
231.112	4.13
231.495	3.92
231.879	3.61
232.263	3.27
232.646	2.77
233.03	3.65
233.413	2.18
233.797	3.95
234.18	2.22
234.563	2.2
234.946	4.83
235.33	4.56
235.713	5.33
236.096	2.98
236.479	3.06
236.862	2.33
237.245	5.27
237.628	3.2
238.011	5.13
238.394	3.78
238.777	4.86
239.16	4.33
239.543	3.04
239.925	5.53
240.308	1.97
240.691	3.71
241.073	4.9
241.456	3.46
241.838	3.82
242.221	4.79
242.603	4.36
242.986	2.93
243.368	4.19
243.75	3.21
244.133	3.55
244.515	3.95
244.897	4.05
245.279	4.32
245.661	2.97
246.043	4.87
246.425	5.01
246.807	3.29
247.189	4.08
247.571	5.2
247.953	3.92
248.335	3.89
248.717	3.86
249.098	3.62
249.48	3.69
249.862	3.28
250.243	3.66
250.625	4.4
251.006	3.96
251.388	4.5
251.769	4.04
252.151	3.57
252.532	3.53
252.913	5.01
253.295	4.39
253.676	3.2
254.057	3.3
254.438	4.33
254.819	4.07
255.2	4.08
255.581	5.25
255.962	3.36
256.343	3.58
256.724	5.16
257.105	4.5
257.486	2.98
257.867	4.15
258.247	3.44
258.628	4.37
259.009	2.84
259.389	4.17
259.77	3.75
260.15	3.5
260.531	4.63
260.911	3.95
261.292	3.38
261.672	3.46
262.052	3.72
262.432	3.93
262.813	3.63
263.193	3.56
263.573	4.37
263.953	5.43
264.333	4.98
264.713	4.24
265.093	3.81
265.473	4.34
265.853	2.96
266.233	3.22
266.612	3.61
266.992	4.6
267.372	4.94
267.752	4.87
268.131	3.19
268.511	3.63
268.89	3.13
269.27	3.23
269.649	3.53
270.029	3.64
270.408	3.78
270.787	3.84
271.167	3.53
271.546	3.55
271.925	5.05
272.304	4.13
272.683	2.67
273.062	3.77
273.441	4.16
273.82	3.16
274.199	3.68
274.578	3.47
274.957	3.32
275.336	3.95
275.715	4.48
276.093	3.72
276.472	4.4
276.851	4.45
277.229	3.75
277.608	3.21
277.986	3.16
278.365	4.2
278.743	3.65
279.122	3.43
279.5	3.1
279.878	2.71
280.257	3.08
280.635	3.43
281.013	3.74
281.391	3.81
281.769	3.9
282.147	4.42
282.525	3.21
282.903	3.62
283.281	3.59
283.659	3.28
284.037	4.24
284.415	3.41
284.792	4.16
285.17	3.61
285.548	3.6
285.925	3.69
286.303	3.9
286.68	4.17
287.058	3.96
287.435	3.87
287.813	3.23
288.19	3.36
288.567	3.68
288.945	3.48
289.322	2.92
289.699	3.68
290.076	3.89
290.453	3.89
290.83	3.44
291.207	4.19
291.584	3.68
291.961	3.98
292.338	3.79
292.715	3.79
293.092	3.93
293.469	4.15
293.845	4.49
294.222	5.02
294.599	4.22
294.975	3.19
295.352	4.07
295.728	4.25
296.105	4.3
296.481	5.1
296.858	4.48
297.234	4.83
297.61	4.26
297.986	4.84
298.363	4.69
298.739	4.55
299.115	4.02
299.491	4.54
299.867	4.31
300.243	4.44
300.619	4.89
300.995	4.74
301.371	5.04
301.746	4.52
302.122	5.19
302.498	5.16
302.874	5.12
303.249	5.38
303.625	4.78
304	4.86
304.376	5.49
304.751	5.34
305.127	5.19
305.502	5.03
305.878	5.06
306.253	5.15
306.628	5.18
307.003	5.65
307.378	5.72
307.754	6.03
308.129	5.19
308.504	6.43
308.879	5.55
309.254	6.11
309.629	5.99
310.003	6.24
310.378	6.24
310.753	6.18
311.128	6.46
311.502	5.34
311.877	5.57
312.252	5.75
312.626	6.14
313.001	6.25
313.375	5.9
313.75	6.41
314.124	6.48
314.498	6.85
314.873	6.39
315.247	6.75
315.621	6.89
315.995	7.01
316.369	7.41
316.743	6.77
317.117	6.44
317.491	6.76
317.865	6.61
318.239	7.33
318.613	7.76
318.987	7.54
319.361	6.63
319.734	7.52
320.108	7.6
320.482	7.41
320.855	7.24
321.229	7.78
321.602	7.59
321.976	7.15
322.349	7.87
322.723	7.81
323.096	7.59
323.469	7.77
323.843	8.61
324.216	7.86
324.589	8.42
324.962	8.16
325.335	8.4
325.708	8.19
326.081	7.91
326.454	7.86
326.827	9.13
327.2	8.31
327.573	8
327.945	8.82
328.318	8.43
328.691	8.01
329.063	8.53
329.436	7.93
329.809	8.79
330.181	8.22
330.553	8.41
330.926	8.88
331.298	8.69
331.671	8.86
332.043	8.35
332.415	9.48
332.787	8.66
333.159	8.89
333.532	9.15
333.904	9.04
334.276	9.78
334.648	8.64
335.02	8.93
335.391	8.94
335.763	9.32
336.135	9.66
336.507	9.74
336.879	9.31
337.25	9.38
337.622	9.87
337.993	9.39
338.365	9.19
338.736	9.29
339.108	9.8
339.479	9.28
339.851	9.65
340.222	9.46
340.593	9.47
340.964	9.99
341.336	10.26
341.707	9.85
342.078	9.72
342.449	9.65
342.82	9.75
343.191	9.76
343.562	10.13
343.933	10.23
344.303	10.12
344.674	10.08
345.045	9.92
345.416	10.13
345.786	9.98
346.157	10.32
346.527	10.73
346.898	10.15
347.268	10.13
347.639	10.61
348.009	10.11
348.38	10.15
348.75	10.63
349.12	10.82
349.49	10.55
349.861	10.54
350.231	10.76
350.601	10.74
350.971	10.75
351.341	11.01
351.711	11.26
352.081	10.97
352.45	10.65
352.82	10.74
353.19	10.72
353.56	10.77
353.929	11.28
354.299	11.09
354.669	10.98
355.038	10.86
355.408	10.71
355.777	11.06
356.147	11.21
356.516	11.57
356.885	11.01
357.254	11.32
357.624	10.85
357.993	11.3
358.362	11.5
358.731	11.52
359.1	11.47
359.469	11.43
359.838	11.55
360.207	11.3
360.576	11.82
360.945	11.39
361.314	11.91
361.682	11.61
362.051	12.17
362.42	11.53
362.788	11.54
363.157	12.07
363.525	11.78
363.894	11.76
364.262	11.92
364.631	11.85
364.999	12.02
365.367	12.47
365.735	12.09
366.104	12.2
366.472	12.25
366.84	12.26
367.208	12.21
367.576	12.27
367.944	12.36
368.312	12.44
368.68	12.49
369.048	12.88
369.416	12.48
369.783	12.81
370.151	12.43
370.519	12.42
370.886	12.88
371.254	12.38
371.621	13.24
371.989	12.59
372.356	12.92
372.724	12.69
373.091	13.02
373.458	12.95
373.826	12.85
374.193	12.82
374.56	13.2
374.927	12.92
375.294	13.13
375.661	13.39
376.028	13.25
376.395	13.35
376.762	13.61
377.129	13.08
377.496	13.71
377.863	13.48
378.229	13.59
378.596	13.31
378.963	13.58
379.329	13.77
379.696	13.32
380.062	14.06
380.429	13.64
380.795	13.89
381.161	13.79
381.528	13.72
381.894	13.9
382.26	13.78
382.626	13.57
382.993	14.02
383.359	13.65
383.725	13.64
384.091	14.24
384.457	13.8
384.823	14.03
385.188	14.21
385.554	14.37
385.92	14.01
386.286	14.37
386.651	14.28
387.017	14.37
387.383	14.04
387.748	14.28
388.114	14.4
388.479	14.63
388.845	14.19
389.21	14.41
389.575	14.49
389.94	14.54
390.306	14.93
390.671	14.53
391.036	14.47
391.401	14.52
391.766	14.53
392.131	14.9
392.496	14.69
392.861	14.54
393.226	14.91
393.591	14.62
393.956	14.64
394.32	14.82
394.685	14.72
395.05	14.53
395.414	14.67
395.779	14.74
396.143	15.08
396.508	14.85
396.872	14.97
397.236	14.96
397.601	15.39
397.965	15.04
398.329	15.07
398.694	15.01
399.058	15.14
399.422	15.15
399.786	15.14
400.15	15.15
400.514	15.13
400.878	15.39
401.242	15.31
401.605	15.57
401.969	15.25
402.333	15.57
402.697	15.45
403.06	15.58
403.424	15.6
403.787	15.41
404.151	15.63
404.514	15.45
404.878	15.49
405.241	15.54
405.604	15.29
405.968	15.25
406.331	15.74
406.694	15.7
407.057	15.72
407.42	15.6
407.783	15.46
408.146	15.49
408.509	15.82
408.872	15.72
409.235	15.89
409.598	15.88
409.961	15.66
410.323	16
410.686	15.9
411.049	16.09
411.411	15.98
411.774	15.99
412.136	16.14
412.499	16.06
412.861	15.99
413.223	16.46
413.586	16.01
413.948	16.16
414.31	16.45
414.672	16.24
415.035	16.53
415.397	16.36
415.759	16.45
416.121	16.1
416.483	16.48
416.845	16.24
417.206	16.38
417.568	16.4
417.93	16.7
418.292	16.38
418.653	16.44
419.015	16.57
419.377	16.36
419.738	16.54
420.1	16.57
420.461	16.52
420.822	16.6
421.184	16.54
421.545	16.92
421.906	16.78
422.267	16.55
422.629	16.59
422.99	16.71
423.351	16.66
423.712	16.75
424.073	16.93
424.434	17.09
424.795	16.99
425.155	17.05
425.516	17.01
425.877	16.93
426.238	17.11
426.598	17.16
426.959	17.2
427.32	17.41
427.68	17.37
428.041	17.54
428.401	17.64
428.761	17.5
429.122	17.87
429.482	17.95
429.842	18
430.202	18.02
430.563	18.02
430.923	18.01
431.283	18.12
431.643	18.27
432.003	18.26
432.363	18.49
432.722	18.15
433.082	18.43
433.442	18.36
433.802	18.61
434.161	18.68
434.521	18.58
434.881	18.44
435.24	18.72
435.6	18.72
435.959	18.82
436.319	18.71
436.678	19.12
437.037	18.95
437.396	18.93
437.756	19.17
438.115	19.14
438.474	18.95
438.833	19.28
439.192	19.29
439.551	19.2
439.91	19.06
440.269	19.34
440.628	19.32
440.987	19.33
441.345	19.49
441.704	19.2
442.063	19.38
442.421	19.51
442.78	19.54
443.138	19.49
443.497	19.59
443.855	19.7
444.214	19.83
444.572	19.78
444.93	19.91
445.288	19.87
445.647	19.99
446.005	19.96
446.363	19.86
446.721	19.99
447.079	19.92
447.437	19.95
447.795	20.04
448.153	19.94
448.51	19.97
448.868	20.19
449.226	20.3
449.584	20.29
449.941	20.29
450.299	20.42
450.656	20.53
451.014	20.45
451.371	20.6
451.729	20.81
452.086	20.74
452.443	21.1
452.801	20.95
453.158	20.81
453.515	21.15
453.872	20.94
454.229	21.13
454.586	20.94
454.943	21.07
455.3	21.13
455.657	21.29
456.014	21.3
456.371	21.33
456.727	21.35
457.084	21.44
457.441	21.59
457.797	21.3
458.154	21.61
458.51	21.72
458.867	21.83
459.223	21.84
459.58	21.61
459.936	21.57
460.292	21.64
460.648	21.86
461.005	21.59
461.361	21.69
461.717	21.66
462.073	21.56
462.429	21.75
462.785	21.94
463.141	21.87
463.496	22.11
463.852	22.45
464.208	22.32
464.564	22.39
464.919	22.54
465.275	22.56
465.631	22.74
465.986	22.75
466.342	22.52
466.697	22.56
467.052	22.62
467.408	22.59
467.763	22.96
468.118	22.9
468.473	22.82
468.829	22.87
469.184	22.82
469.539	23.09
469.894	23.05
470.249	23.04
470.603	23.16
470.958	23.24
471.313	23.35
471.668	23.25
472.023	23.43
472.377	23.29
472.732	23.44
473.086	23.22
473.441	23.39
473.795	23.53
474.15	23.45
474.504	23.35
474.859	23.52
475.213	23.51
475.567	23.62
475.921	23.88
476.275	23.65
476.63	23.94
476.984	23.98
477.338	24.03
477.692	23.82
478.045	24.1
478.399	23.98
478.753	23.85
479.107	24.04
479.461	24.03
479.814	23.98
480.168	23.93
480.521	23.96
480.875	24.29
481.228	24.47
481.582	24.15
481.935	24.22
482.289	24.2
482.642	24.24
482.995	24.2
483.348	24.25
483.701	24.52
484.055	24.19
484.408	23.99
484.761	23.97
485.114	23.67
485.466	23.42
485.819	23.36
486.172	23.51
486.525	23.72
486.878	23.85
487.23	23.97
487.583	24.25
487.936	24.44
488.288	24.26
488.641	24.29
488.993	24.1
489.345	23.94
489.698	24.05
490.05	24.13
490.402	24.31
490.754	24.37
491.107	24.64
491.459	24.75
491.811	24.93
492.163	24.99
492.515	25.01
492.866	24.81
493.218	24.47
493.57	24.41
493.922	24.63
494.274	24.86
494.625	25.06
494.977	25.22
495.328	25.5
495.68	25.53
496.031	25.84
496.383	25.85
496.734	25.82
497.086	25.81
497.437	25.92
497.788	25.93
498.139	25.9
498.49	25.99
498.842	25.91
499.193	26.02
499.544	25.98
499.894	26
500.245	26.05
500.596	26.09
500.947	26.11
501.298	26.31
501.648	26.32
501.999	26.51
502.35	26.61
502.7	26.46
503.051	26.56
503.401	26.59
503.752	26.86
504.102	26.62
504.452	26.72
504.803	26.93
505.153	26.97
505.503	26.87
505.853	26.98
506.203	26.85
506.553	26.98
506.903	26.86
507.253	26.98
507.603	27.02
507.953	27.12
508.303	27.17
508.652	27.28
509.002	27.27
509.352	27.26
509.701	27.33
510.051	27.3
510.4	27.26
510.75	27.11
511.099	27.21
511.449	27.32
511.798	27.36
512.147	27.49
512.496	27.5
512.846	27.56
513.195	27.48
513.544	27.56
513.893	27.59
514.242	27.68
514.591	27.67
514.939	27.8
515.288	27.65
515.637	27.83
515.986	27.97
516.334	27.94
516.683	27.92
517.032	27.84
517.38	28.08
517.729	28.15
518.077	28.19
518.426	28.23
518.774	28.15
519.122	28.21
519.47	28.14
519.819	27.95
520.167	27.81
520.515	27.87
520.863	27.95
521.211	27.98
521.559	28.16
521.907	28.12
522.255	28.41
522.602	28.42
522.95	28.49
523.298	28.66
523.645	28.7
523.993	28.73
524.341	28.71
524.688	28.76
525.036	28.9
525.383	28.82
525.73	28.81
526.078	28.98
526.425	28.86
526.772	28.8
527.119	28.65
527.466	28.63
527.814	28.66
528.161	28.59
528.508	28.74
528.854	28.8
529.201	28.64
529.548	28.66
529.895	28.49
530.242	28.16
530.588	28.21
530.935	28.28
531.282	28.4
531.628	28.55
531.975	28.79
532.321	28.83
532.667	28.9
533.014	29.08
533.36	29.16
533.706	29.14
534.052	29.3
534.399	29.19
534.745	29.12
535.091	28.87
535.437	28.98
535.783	29.08
536.129	29.31
536.474	29.39
536.82	29.57
537.166	29.82
537.512	29.75
537.857	29.9
538.203	29.78
538.549	29.51
538.894	29.84
539.239	29.81
539.585	29.98
539.93	30.14
540.276	30.19
540.621	30.38
540.966	30.26
541.311	30.46
541.656	30.41
542.001	30.41
542.346	30.11
542.691	29.98
543.036	29.73
543.381	29.81
543.726	29.82
544.071	29.74
544.415	30.03
544.76	30.26
545.105	30.22
545.449	30.44
545.794	30.65
546.138	30.63
546.483	30.81
546.827	30.92
547.171	30.8
547.516	30.94
547.86	30.98
548.204	31.16
548.548	30.96
548.892	30.92
549.236	30.91
549.58	31.15
549.924	31.49
550.268	31.68
550.612	31.49
550.956	31.74
551.3	31.76
551.643	31.77
551.987	32.02
552.33	31.88
552.674	31.98
553.017	32.15
553.361	32.2
553.704	32.07
554.048	32.13
554.391	31.93
554.734	32.14
555.077	32.07
555.42	31.98
555.764	32.1
556.107	32.2
556.45	32.24
556.793	32.38
557.135	32.17
557.478	32.48
557.821	32.44
558.164	32.67
558.507	32.62
558.849	32.77
559.192	32.78
559.534	33
559.877	33.06
560.219	32.83
560.562	32.98
560.904	32.99
561.246	32.92
561.589	33.14
561.931	32.94
562.273	33
562.615	33.18
562.957	32.98
563.299	33.09
563.641	33.31
563.983	33.3
564.325	33.27
564.667	33.2
565.008	32.99
565.35	33.27
565.692	33.31
566.033	33.66
566.375	33.47
566.716	33.28
567.058	33.48
567.399	33.52
567.741	33.61
568.082	33.46
568.423	33.4
568.764	33.37
569.105	33.46
569.447	33.65
569.788	33.74
570.129	33.76
570.47	34.07
570.811	33.74
571.151	34.02
571.492	34.05
571.833	34.27
572.174	34.08
572.514	34.13
572.855	34.05
573.195	33.94
573.536	34
573.876	34.1
574.217	34.06
574.557	34.11
574.898	34.05
575.238	34.32
575.578	34.26
575.918	34.45
576.258	34.66
576.598	34.37
576.938	34.46
577.278	34.7
577.618	34.44
577.958	34.54
578.298	34.88
578.638	34.58
578.977	34.8
579.317	34.79
579.657	34.82
579.996	35.22
580.336	35.15
580.675	35.17
581.014	35.28
581.354	35.19
581.693	35.45
582.032	35.12
582.372	35.66
582.711	35.67
583.05	35.67
583.389	35.41
583.728	35.65
584.067	35.64
584.406	35.56
584.745	35.79
585.083	35.54
585.422	35.91
585.761	36
586.1	35.62
586.438	36.31
586.777	36.23
587.115	36.1
587.454	35.95
587.792	36.02
588.13	36.3
588.469	35.89
588.807	36.01
589.145	36.06
589.483	36.2
589.821	36.42
590.159	36.14
590.497	36.14
590.835	36.38
591.173	36.32
591.511	36.54
591.849	36.35
592.187	36.39
592.524	36.62
592.862	36.37
593.2	36.45
593.537	36.35
593.875	36.77
594.212	36.93
594.55	36.78
594.887	36.56
595.224	37.14
595.561	36.58
595.899	36.49
596.236	37.06
596.573	36.88
596.91	37.05
597.247	36.91
597.584	37.24
597.921	36.91
598.258	36.86
598.594	36.85
598.931	36.8
599.268	36.86
599.604	36.83
599.941	36.79
600.277	37.2
600.614	37.38
600.95	37.31
601.287	37.23
601.623	37.47
601.959	37.82
602.296	37.7
602.632	37.5
602.968	37.54
603.304	37.61
603.64	37.76
603.976	37.49
604.312	37.71
604.648	37.68
604.984	37.54
605.319	37.63
605.655	37.58
605.991	37.74
606.326	37.38
606.662	37.58
606.998	37.46
607.333	37.68
607.668	37.71
608.004	38.21
608.339	38.04
608.674	37.99
609.01	38
609.345	38.25
609.68	38.17
610.015	38.21
610.35	38.41
610.685	38.41
611.02	38.29
611.355	38.08
611.689	38.17
612.024	38.18
612.359	38.28
612.694	38.44
613.028	38.34
613.363	38.46
613.697	38.66
614.032	38.8
614.366	38.77
614.7	39.01
615.035	38.9
615.369	38.73
615.703	38.9
616.037	39.05
616.371	38.94
616.705	38.85
617.039	39.1
617.373	38.95
617.707	39.2
618.041	39.3
618.375	39.04
618.709	39.55
619.042	39.19
619.376	39.15
619.71	39.4
620.043	39.41
620.377	39.05
620.71	39.22
621.043	39.8
621.377	39.09
621.71	39.5
622.043	39.56
622.376	39.37
622.709	40.1
623.043	39.33
623.376	39.93
623.709	40.04
624.041	39.78
624.374	39.4
624.707	39.68
625.04	39.46
625.373	40.3
625.705	40.47
626.038	40.3
626.37	40.1
626.703	40.35
627.035	40.04
627.368	40.44
627.7	39.82
628.032	40.17
628.365	39.96
628.697	40.26
629.029	40.05
629.361	40.21
629.693	40.18
630.025	40.05
630.357	40.52
630.689	40.16
631.021	40.42
631.353	40.85
631.684	40.34
632.016	40.72
632.348	40.63
632.679	40.3
633.011	40.53
633.342	40.69
633.674	40.72
634.005	41.2
634.336	40.74
634.668	41.26
634.999	40.8
635.33	41.31
635.661	41.1
635.992	40.58
636.323	40.84
636.654	41.28
636.985	41.27
637.316	41.06
637.647	40.69
637.977	41.16
638.308	41.61
638.639	41.3
638.969	41.22
639.3	41.13
639.63	41.68
639.961	41.68
640.291	41.27
640.622	41.11
640.952	41.53
641.282	41.48
641.612	41.15
641.943	41.66
642.273	41.71
642.603	42.19
642.933	41.97
643.263	41.41
643.592	41.6
643.922	41.98
644.252	41.83
644.582	41.36
644.911	42.07
645.241	41.9
645.571	42.32
645.9	42.04
646.23	41.58
646.559	41.84
646.888	41.76
647.218	42.19
647.547	42.33
647.876	42.21
648.205	42.17
648.534	42.29
648.863	42.21
649.192	42.85
649.521	42.53
649.85	42.31
650.179	42.73
650.508	42.31
650.837	42.6
651.165	42.38
651.494	42.42
651.822	42.64
652.151	42.88
652.479	42.58
652.808	42.01
653.136	43.67
653.465	42.36
653.793	42.56
654.121	43.17
654.449	42.98
654.777	43.01
655.105	43.09
655.433	42.53
655.761	43.08
656.089	43.12
656.417	43.46
656.745	43.24
657.073	42.56
657.4	42.82
657.728	42.94
658.056	43.45
658.383	43.1
658.711	43.22
659.038	43.22
659.365	43.26
659.693	42.89
660.02	43.41
660.347	43.31
660.674	42.9
661.001	43.41
661.329	43.67
661.656	43.96
661.982	43.37
662.309	43.67
662.636	44.02
662.963	43.82
663.29	43.84
663.616	43.37
663.943	44.38
664.27	44.4
664.596	44.21
664.923	44.54
665.249	43.91
665.576	44.65
665.902	44.99
666.228	43.72
666.554	44.32
666.881	44.35
667.207	44.23
667.533	43.86
667.859	44.06
668.185	44.31
668.511	44.36
668.837	44.47
669.162	45
669.488	44.96
669.814	44.34
670.139	44.66
670.465	44.87
670.791	44.67
