Data from 428_forehead_Reflection__1__88.txt Node

Date: Tue Dec 12 18:54:37 CST 2023
User: ToomeyLab
Spectrometer: FLMS14357
Trigger mode: 0
Integration Time (sec): 1.000000E-2
Scans to average: 100
Electric dark correction enabled: true
Nonlinearity correction enabled: false
Boxcar width: 0
XAxis mode: Wavelengths
Number of Pixels in Spectrum: 2048
>>>>>Begin Spectral Data<<<<<
189.047	243.74
189.435	243.74
189.823	243.74
190.211	-29.24
190.599	46.48
190.987	85.15
191.375	137.12
191.763	163.74
192.151	132.95
192.538	16.19
192.926	680.29
193.314	7.31
193.702	44.97
194.089	189.96
194.477	-210.12
194.864	35.38
195.252	23.58
195.639	-2598.1
196.027	-16.1
196.414	895.36
196.801	-30.3
197.189	803.64
197.576	209.53
197.963	51.41
198.351	32.1
198.738	9.52
199.125	51.47
199.512	27.83
199.899	40.06
200.286	18.61
200.673	-5.07
201.06	-0.6
201.447	-11.6
201.833	3.15
202.22	10.61
202.607	-265.3
202.994	34.74
203.38	69.72
203.767	17.36
204.154	20.14
204.54	43.8
204.927	-2.18
205.313	85.18
205.699	13.03
206.086	0.1
206.472	19.26
206.858	16.39
207.245	8.17
207.631	60.83
208.017	2.18
208.403	-6.11
208.789	35.07
209.175	-16.02
209.561	27.96
209.947	5.12
210.333	24
210.719	-24.36
211.105	13.4
211.491	13.31
211.876	36.04
212.262	52.03
212.648	-6.37
213.034	5.81
213.419	23.72
213.805	42.84
214.19	22.65
214.576	12.5
214.961	24.46
215.346	22.75
215.732	44.2
216.117	13.91
216.502	-29.06
216.888	1.18
217.273	-9.45
217.658	3.4
218.043	0.16
218.428	30
218.813	12.91
219.198	-34.42
219.583	27.9
219.968	35.8
220.353	13.4
220.738	15.96
221.122	5.6
221.507	0.52
221.892	15.87
222.276	1.25
222.661	9.23
223.046	-2.9
223.43	10.76
223.815	5.36
224.199	13.22
224.583	22.09
224.968	12.81
225.352	-0.45
225.736	14.39
226.121	13.4
226.505	9.94
226.889	-6.15
227.273	11.08
227.657	14.78
228.041	7.52
228.425	4.89
228.809	6.43
229.193	7.92
229.577	8.88
229.961	5.19
230.344	6.26
230.728	8.14
231.112	6.92
231.495	6.55
231.879	7.8
232.263	5.69
232.646	6.78
233.03	7
233.413	5.85
233.797	5.62
234.18	4.02
234.563	5.8
234.946	9.04
235.33	8.37
235.713	8.82
236.096	5.83
236.479	7.62
236.862	7.77
237.245	6.32
237.628	7.61
238.011	5.98
238.394	8.03
238.777	7.42
239.16	8.7
239.543	5.85
239.925	9.03
240.308	7.85
240.691	7.74
241.073	6.72
241.456	7.75
241.838	6.07
242.221	8.8
242.603	8.16
242.986	6.97
243.368	7.65
243.75	7.02
244.133	6.75
244.515	6.6
244.897	6.85
245.279	7.46
245.661	5.94
246.043	6.29
246.425	7.55
246.807	6.13
247.189	6.86
247.571	7.24
247.953	6.22
248.335	6.39
248.717	6.39
249.098	6.52
249.48	6.38
249.862	6.48
250.243	6.01
250.625	7.04
251.006	6.7
251.388	6.58
251.769	6.94
252.151	6.11
252.532	6.81
252.913	7.43
253.295	6.93
253.676	6.25
254.057	6.19
254.438	6.77
254.819	6.84
255.2	6.81
255.581	7.38
255.962	6.37
256.343	7.23
256.724	7.61
257.105	8.12
257.486	6.42
257.867	5.96
258.247	5.58
258.628	6.98
259.009	5.62
259.389	6.8
259.77	6.26
260.15	6.61
260.531	6.54
260.911	6.66
261.292	5.95
261.672	6.04
262.052	6.39
262.432	6.34
262.813	6.44
263.193	6.77
263.573	6.91
263.953	6.87
264.333	7.51
264.713	6.89
265.093	6.36
265.473	6.41
265.853	6.65
266.233	6.21
266.612	6.32
266.992	6.92
267.372	6.68
267.752	6.84
268.131	5.36
268.511	5.93
268.89	5.26
269.27	5.76
269.649	6.16
270.029	6.13
270.408	6.47
270.787	6.41
271.167	6
271.546	5.92
271.925	6.85
272.304	6.59
272.683	6.12
273.062	6.06
273.441	6.49
273.82	5.47
274.199	6.01
274.578	6.08
274.957	6.03
275.336	5.76
275.715	6.57
276.093	5.79
276.472	5.72
276.851	6.71
277.229	5.61
277.608	6.28
277.986	5.18
278.365	6.33
278.743	6.41
279.122	6.47
279.5	5.61
279.878	5.09
280.257	5.17
280.635	5.12
281.013	6.06
281.391	6.29
281.769	5.75
282.147	6.13
282.525	5.59
282.903	5.33
283.281	5.83
283.659	6.14
284.037	5.93
284.415	5.94
284.792	6.14
285.17	5.92
285.548	5.83
285.925	6
286.303	6.21
286.68	6.08
287.058	5.97
287.435	5.89
287.813	5.56
288.19	5.69
288.567	5.89
288.945	5.52
289.322	5.6
289.699	6.07
290.076	6.22
290.453	6.44
290.83	6.61
291.207	6.4
291.584	6.15
291.961	6.12
292.338	6.02
292.715	5.58
293.092	6.12
293.469	6.42
293.845	6.56
294.222	6.68
294.599	6.98
294.975	6.28
295.352	6.55
295.728	6.58
296.105	6.61
296.481	7.16
296.858	6.63
297.234	7.36
297.61	6.69
297.986	7.08
298.363	6.77
298.739	7
299.115	7
299.491	6.82
299.867	6.67
300.243	6.77
300.619	7.54
300.995	7.68
301.371	7.37
301.746	7.2
302.122	8.2
302.498	7.42
302.874	7.78
303.249	8.37
303.625	7.26
304	7.75
304.376	8.21
304.751	8.33
305.127	7.45
305.502	7.91
305.878	7.56
306.253	8.03
306.628	8.01
307.003	8.07
307.378	8.12
307.754	8.6
308.129	8.34
308.504	9.03
308.879	8.47
309.254	9.24
309.629	8.88
310.003	8.91
310.378	8.85
310.753	9.54
311.128	9.4
311.502	8.71
311.877	9.04
312.252	9.62
312.626	9.57
313.001	9.17
313.375	9.29
313.75	10.08
314.124	10.37
314.498	10.31
314.873	9.83
315.247	9.5
315.621	10.21
315.995	10.53
316.369	10.59
316.743	9.91
317.117	10.24
317.491	10.15
317.865	10.51
318.239	10.24
318.613	10.85
318.987	11.01
319.361	10.49
319.734	11.03
320.108	11.29
320.482	11.1
320.855	11.24
321.229	11.1
321.602	10.96
321.976	11.02
322.349	11.75
322.723	11.44
323.096	11.52
323.469	11.77
323.843	12.66
324.216	12.14
324.589	12.5
324.962	12.29
325.335	12.04
325.708	12.02
326.081	12.13
326.454	12.1
326.827	12.83
327.2	12.34
327.573	12.33
327.945	12.56
328.318	12.39
328.691	12.4
329.063	12.54
329.436	12.65
329.809	12.66
330.181	12.83
330.553	13.12
330.926	13.48
331.298	13.18
331.671	13.03
332.043	13.29
332.415	13.41
332.787	13.13
333.159	12.91
333.532	12.99
333.904	13.1
334.276	14.41
334.648	13.27
335.02	13.27
335.391	13.55
335.763	14.05
336.135	13.92
336.507	14.27
336.879	13.57
337.25	13.54
337.622	13.18
337.993	13.89
338.365	13.37
338.736	13.87
339.108	13.96
339.479	14.81
339.851	14.31
340.222	13.67
340.593	14.15
340.964	13.77
341.336	13.85
341.707	13.95
342.078	14.16
342.449	14.77
342.82	14.79
343.191	14.63
343.562	14.96
343.933	14.95
344.303	14.81
344.674	15.28
345.045	14.94
345.416	15.04
345.786	14.61
346.157	14.61
346.527	15.1
346.898	15.01
347.268	15.21
347.639	15.3
348.009	14.84
348.38	14.74
348.75	15.48
349.12	15.59
349.49	15.43
349.861	15.68
350.231	15.33
350.601	15.87
350.971	15.76
351.341	15.51
351.711	16.03
352.081	15.97
352.45	15.78
352.82	16.24
353.19	15.58
353.56	15.96
353.929	15.44
354.299	15.69
354.669	16.22
355.038	15.92
355.408	16.06
355.777	16.44
356.147	16.1
356.516	16.49
356.885	16.54
357.254	16.37
357.624	15.99
357.993	16.49
358.362	16.51
358.731	16.42
359.1	16.15
359.469	16.57
359.838	16.52
360.207	16.64
360.576	16.92
360.945	16.74
361.314	16.98
361.682	17.15
362.051	17.53
362.42	17.02
362.788	17.3
363.157	17.63
363.525	17.42
363.894	16.99
364.262	17.07
364.631	16.79
364.999	17.43
365.367	17.73
365.735	17.23
366.104	17.39
366.472	17.53
366.84	17.83
367.208	17.72
367.576	17.41
367.944	18.2
368.312	17.8
368.68	18.13
369.048	18.08
369.416	17.99
369.783	17.98
370.151	18.11
370.519	17.88
370.886	18.49
371.254	18.03
371.621	18
371.989	18.4
372.356	18.2
372.724	18.06
373.091	18.5
373.458	18.33
373.826	18.4
374.193	18.26
374.56	18.94
374.927	18.89
375.294	18.32
375.661	18.89
376.028	18.87
376.395	19.1
376.762	19.3
377.129	18.44
377.496	18.94
377.863	18.74
378.229	19.29
378.596	18.84
378.963	19.31
379.329	18.97
379.696	18.89
380.062	19.65
380.429	19.01
380.795	19.47
381.161	19.52
381.528	19.41
381.894	19.77
382.26	19.57
382.626	19.5
382.993	19.52
383.359	19.51
383.725	19.62
384.091	20.04
384.457	19.81
384.823	20.14
385.188	19.72
385.554	19.83
385.92	20.06
386.286	19.98
386.651	20.18
387.017	20.38
387.383	19.99
387.748	20.16
388.114	20.42
388.479	20.34
388.845	20.24
389.21	20.14
389.575	20.48
389.94	20.44
390.306	20.51
390.671	20.5
391.036	20.48
391.401	20.78
391.766	20.75
392.131	20.37
392.496	20.69
392.861	20.53
393.226	20.8
393.591	20.57
393.956	20.73
394.32	20.9
394.685	21.15
395.05	20.87
395.414	20.92
395.779	20.93
396.143	21.12
396.508	20.97
396.872	20.82
397.236	20.89
397.601	21.34
397.965	21
398.329	21.37
398.694	21.05
399.058	21.4
399.422	21.24
399.786	21.4
400.15	21.16
400.514	21.65
400.878	21.44
401.242	21
401.605	21.73
401.969	21.45
402.333	21.37
402.697	21.64
403.06	21.42
403.424	22.1
403.787	21.58
404.151	21.8
404.514	21.43
404.878	21.55
405.241	21.82
405.604	21.49
405.968	21.74
406.331	21.9
406.694	21.84
407.057	21.87
407.42	21.88
407.783	21.66
408.146	21.95
408.509	21.94
408.872	22.03
409.235	22.08
409.598	22.18
409.961	21.87
410.323	22.4
410.686	22.18
411.049	22.52
411.411	22.06
411.774	22.26
412.136	22.13
412.499	22.18
412.861	22.36
413.223	22.54
413.586	22.34
413.948	22.28
414.31	22.65
414.672	22.66
415.035	22.63
415.397	22.38
415.759	22.59
416.121	22.54
416.483	22.53
416.845	22.55
417.206	22.98
417.568	22.7
417.93	22.81
418.292	22.77
418.653	22.81
419.015	22.78
419.377	22.77
419.738	22.95
420.1	22.85
420.461	22.99
420.822	23.06
421.184	22.84
421.545	23.18
421.906	23.1
422.267	23.08
422.629	22.93
422.99	23.08
423.351	23.23
423.712	23.26
424.073	23.36
424.434	23.45
424.795	23.66
425.155	23.45
425.516	23.43
425.877	23.42
426.238	23.48
426.598	23.62
426.959	23.64
427.32	23.74
427.68	23.99
428.041	24.18
428.401	24.25
428.761	24.38
429.122	24.43
429.482	24.61
429.842	24.69
430.202	24.68
430.563	24.97
430.923	24.93
431.283	24.74
431.643	25.14
432.003	24.95
432.363	25.12
432.722	25.17
433.082	25.29
433.442	25.41
433.802	25.59
434.161	25.47
434.521	25.49
434.881	25.47
435.24	25.54
435.6	25.56
435.959	25.74
436.319	25.76
436.678	25.89
437.037	25.77
437.396	25.73
437.756	26.16
438.115	26.02
438.474	26.24
438.833	26.25
439.192	26.44
439.551	26.35
439.91	26.27
440.269	26.4
440.628	26.15
440.987	26.42
441.345	26.7
441.704	26.48
442.063	26.45
442.421	26.63
442.78	26.46
443.138	26.67
443.497	26.58
443.855	26.87
444.214	26.82
444.572	27.25
444.93	27.28
445.288	27.3
445.647	27.37
446.005	27.24
446.363	27.09
446.721	27.4
447.079	27.24
447.437	27.3
447.795	27.28
448.153	27.21
448.51	27.3
448.868	27.26
449.226	27.54
449.584	27.44
449.941	27.79
450.299	27.79
450.656	27.77
451.014	28.08
451.371	27.96
451.729	28.19
452.086	28.2
452.443	28.52
452.801	28.54
453.158	28.6
453.515	28.22
453.872	28.62
454.229	28.68
454.586	28.65
454.943	28.49
455.3	28.56
455.657	28.74
456.014	28.94
456.371	28.9
456.727	28.8
457.084	28.92
457.441	29.09
457.797	29.13
458.154	29.26
458.51	29.41
458.867	29.46
459.223	29.61
459.58	29.49
459.936	29.28
460.292	29.42
460.648	29.5
461.005	29.17
461.361	29.24
461.717	29.14
462.073	29.24
462.429	29.27
462.785	29.52
463.141	29.68
463.496	29.74
463.852	30.09
464.208	30.11
464.564	30.23
464.919	30.29
465.275	30.21
465.631	30.62
465.986	30.34
466.342	30.39
466.697	30.59
467.052	30.74
467.408	30.37
467.763	30.66
468.118	30.51
468.473	30.61
468.829	30.59
469.184	30.55
469.539	30.75
469.894	30.77
470.249	30.79
470.603	31.08
470.958	30.87
471.313	31.18
471.668	31.12
472.023	31.34
472.377	31.29
472.732	31.09
473.086	31.13
473.441	31.69
473.795	31.81
474.15	31.53
474.504	31.4
474.859	31.53
475.213	31.65
475.567	31.74
475.921	31.63
476.275	31.37
476.63	31.73
476.984	31.71
477.338	31.84
477.692	31.9
478.045	32.01
478.399	31.92
478.753	31.8
479.107	31.96
479.461	32.2
479.814	31.85
480.168	32.15
480.521	32.1
480.875	32.31
481.228	32.32
481.582	32.37
481.935	32.38
482.289	32.44
482.642	32.55
482.995	32.49
483.348	32.34
483.701	32.2
484.055	32.31
484.408	32.12
484.761	32.05
485.114	31.82
485.466	31.55
485.819	31.45
486.172	31.58
486.525	31.72
486.878	31.74
487.23	32
487.583	32.25
487.936	32.39
488.288	32.34
488.641	32.24
488.993	32.24
489.345	32.14
489.698	32.1
490.05	32.07
490.402	32.32
490.754	32.58
491.107	32.71
491.459	32.88
491.811	33.11
492.163	33.16
492.515	33.19
492.866	33.06
493.218	32.76
493.57	32.66
493.922	32.68
494.274	33.02
494.625	33.21
494.977	33.41
495.328	33.57
495.68	33.75
496.031	34.1
496.383	33.92
496.734	33.97
497.086	34.21
497.437	34.17
497.788	34.26
498.139	34.17
498.49	34.23
498.842	34.07
499.193	34.19
499.544	34.11
499.894	34.11
500.245	34.32
500.596	34.43
500.947	34.56
501.298	34.7
501.648	34.57
501.999	34.94
502.35	34.86
502.7	34.8
503.051	34.88
503.401	34.99
503.752	35.34
504.102	35.1
504.452	35.19
504.803	35.24
505.153	35.37
505.503	35.2
505.853	35.13
506.203	35.41
506.553	35.11
506.903	35.23
507.253	35.38
507.603	35.43
507.953	35.6
508.303	35.72
508.652	35.63
509.002	35.48
509.352	35.72
509.701	35.88
510.051	35.69
510.4	35.46
510.75	35.57
511.099	35.51
511.449	35.67
511.798	35.51
512.147	35.89
512.496	35.96
512.846	35.92
513.195	36.01
513.544	35.99
513.893	35.86
514.242	36.02
514.591	36.17
514.939	36.23
515.288	36.19
515.637	36.03
515.986	36.37
516.334	36.44
516.683	36.29
517.032	36.47
517.38	36.56
517.729	36.47
518.077	36.72
518.426	36.62
518.774	36.71
519.122	36.45
519.47	36.75
519.819	36.4
520.167	36.51
520.515	36.27
520.863	36.25
521.211	36.41
521.559	36.48
521.907	36.58
522.255	36.96
522.602	36.93
522.95	36.88
523.298	37.12
523.645	37.09
523.993	37.14
524.341	37.39
524.688	37.33
525.036	37.39
525.383	37.54
525.73	37.43
526.078	37.39
526.425	37.26
526.772	37.36
527.119	37.19
527.466	36.84
527.814	37.04
528.161	37.04
528.508	37.25
528.854	37.15
529.201	37.11
529.548	37.3
529.895	37.08
530.242	36.6
530.588	36.72
530.935	36.75
531.282	36.84
531.628	37.02
531.975	37.1
532.321	37.27
532.667	37.3
533.014	37.56
533.36	37.78
533.706	37.63
534.052	37.9
534.399	37.75
534.745	37.7
535.091	37.32
535.437	37.43
535.783	37.56
536.129	37.74
536.474	37.95
536.82	38.13
537.166	38.35
537.512	38.25
537.857	38.35
538.203	38.29
538.549	38.15
538.894	38.25
539.239	38.38
539.585	38.31
539.93	38.58
540.276	38.69
540.621	39.17
540.966	38.78
541.311	39.04
541.656	39.11
542.001	38.96
542.346	38.75
542.691	38.56
543.036	38.35
543.381	38.2
543.726	38.48
544.071	38.41
544.415	38.68
544.76	38.8
545.105	38.84
545.449	38.85
545.794	39.12
546.138	39.17
546.483	39.37
546.827	39.52
547.171	39.57
547.516	39.56
547.86	39.58
548.204	39.57
548.548	39.78
548.892	39.74
549.236	39.83
549.58	39.81
549.924	40.17
550.268	40
550.612	40.07
550.956	40.33
551.3	40.38
551.643	40.49
551.987	40.48
552.33	40.49
552.674	40.67
553.017	40.88
553.361	41.05
553.704	40.82
554.048	40.6
554.391	40.38
554.734	40.65
555.077	40.76
555.42	40.82
555.764	40.64
556.107	40.93
556.45	41
556.793	40.94
557.135	41.27
557.478	41.2
557.821	41.2
558.164	41.21
558.507	41.54
558.849	41.34
559.192	41.44
559.534	41.54
559.877	41.52
560.219	41.43
560.562	41.77
560.904	41.56
561.246	41.53
561.589	41.61
561.931	41.79
562.273	41.72
562.615	41.84
562.957	41.76
563.299	41.64
563.641	42.22
563.983	41.83
564.325	42.12
564.667	42.11
565.008	41.66
565.35	42.09
565.692	41.97
566.033	42.01
566.375	42.21
566.716	41.92
567.058	41.92
567.399	42.15
567.741	42.16
568.082	42.15
568.423	42.29
568.764	42.16
569.105	42.22
569.447	42.45
569.788	42.27
570.129	42.26
570.47	42.42
570.811	42.43
571.151	42.56
571.492	42.61
571.833	42.89
572.174	42.74
572.514	42.74
572.855	42.4
573.195	42.75
573.536	42.74
573.876	42.89
574.217	42.93
574.557	42.94
574.898	42.86
575.238	42.94
575.578	43.03
575.918	42.98
576.258	43.22
576.598	42.95
576.938	43.02
577.278	43.42
577.618	43.3
577.958	43.48
578.298	43.65
578.638	43.26
578.977	43.49
579.317	43.57
579.657	43.63
579.996	43.72
580.336	43.71
580.675	43.78
581.014	43.98
581.354	43.96
581.693	43.84
582.032	43.99
582.372	44.22
582.711	44.25
583.05	44.58
583.389	44.12
583.728	44.5
584.067	44.41
584.406	44.37
584.745	44.61
585.083	44.39
585.422	44.55
585.761	44.55
586.1	44.62
586.438	44.8
586.777	44.83
587.115	44.68
587.454	45.08
587.792	44.89
588.13	45.07
588.469	44.52
588.807	44.74
589.145	44.82
589.483	45.31
589.821	45.26
590.159	44.96
590.497	45.03
590.835	45.36
591.173	45
591.511	45.37
591.849	45.28
592.187	45.08
592.524	45.08
592.862	45.01
593.2	45.25
593.537	45.17
593.875	45.87
594.212	45.5
594.55	45.5
594.887	45.42
595.224	45.91
595.561	45.75
595.899	45.61
596.236	45.38
596.573	45.97
596.91	45.81
597.247	45.77
597.584	45.87
597.921	45.69
598.258	46.13
598.594	45.82
598.931	45.84
599.268	45.64
599.604	45.8
599.941	45.52
600.277	45.75
600.614	46.01
600.95	46.31
601.287	45.99
601.623	46.35
601.959	46.35
602.296	46.62
602.632	46.16
602.968	46.67
603.304	46.04
603.64	46.4
603.976	46.42
604.312	46.63
604.648	46.58
604.984	46.08
605.319	46.35
605.655	46.55
605.991	46.7
606.326	46.3
606.662	46.44
606.998	46.59
607.333	46.62
607.668	46.79
608.004	46.71
608.339	46.9
608.674	46.84
609.01	47.35
609.345	46.98
609.68	47.31
610.015	46.87
610.35	47.1
610.685	47.36
611.02	47.25
611.355	47.11
611.689	46.91
612.024	47.12
612.359	47.55
612.694	47.42
613.028	47.31
613.363	47.17
613.697	47.43
614.032	47.67
614.366	47.88
614.7	47.79
615.035	47.9
615.369	47.4
615.703	47.98
616.037	47.92
616.371	47.65
616.705	48.2
617.039	48.22
617.373	47.81
617.707	47.84
618.041	48.04
618.375	47.72
618.709	48.5
619.042	48.21
619.376	48.11
619.71	48.08
620.043	48.31
620.377	48.17
620.71	48.19
621.043	48.3
621.377	48.2
621.71	48.45
622.043	48.3
622.376	48.56
622.709	49.14
623.043	48.33
623.376	49.12
623.709	48.86
624.041	48.64
624.374	48.64
624.707	48.78
625.04	48.81
625.373	49.36
625.705	49.2
626.038	49.21
626.37	49.01
626.703	49.32
627.035	48.75
627.368	49.25
627.7	48.81
628.032	49.43
628.365	49.26
628.697	49.12
629.029	49.02
629.361	48.97
629.693	48.84
630.025	48.88
630.357	49.72
630.689	49.34
631.021	49.54
631.353	49.67
631.684	49.7
632.016	49.61
632.348	49.74
632.679	49.66
633.011	49.66
633.342	49.78
633.674	49.69
634.005	49.62
634.336	49.76
634.668	49.55
634.999	49.45
635.33	49.92
635.661	49.69
635.992	50.12
636.323	50.03
636.654	50.35
636.985	50.68
637.316	49.83
637.647	50.14
637.977	49.96
638.308	51.01
638.639	50.47
638.969	50.44
639.3	50.45
639.63	50.69
639.961	50.4
640.291	50.44
640.622	50.49
640.952	50.4
641.282	50.79
641.612	51.17
641.943	50.98
642.273	51.14
642.603	51.61
642.933	50.79
643.263	50.42
643.592	51.09
643.922	50.98
644.252	51.24
644.582	50.43
644.911	50.9
645.241	50.95
645.571	51.37
645.9	50.89
646.23	50.81
646.559	51.45
646.888	50.69
647.218	51.5
647.547	51.59
647.876	51.63
648.205	51.12
648.534	51.17
648.863	51.14
649.192	51.33
649.521	51.12
649.85	51.45
650.179	51.87
650.508	52.15
650.837	51.63
651.165	50.85
651.494	51.7
651.822	51.59
652.151	52.17
652.479	51.33
652.808	51.47
653.136	51.99
653.465	52.06
653.793	51.82
654.121	51.97
654.449	51.53
654.777	51.74
655.105	52.3
655.433	51.67
655.761	52.41
656.089	51.54
656.417	52.25
656.745	52.42
657.073	51.43
657.4	51.95
657.728	52.38
658.056	52.44
658.383	52.03
658.711	52.63
659.038	52.5
659.365	51.87
659.693	53.01
660.02	52.35
660.347	52.22
660.674	52.84
661.001	53.1
661.329	53.09
661.656	52.47
661.982	52.52
662.309	52.66
662.636	52.59
662.963	52.94
663.29	53.18
663.616	53.12
663.943	53.41
664.27	53.12
664.596	53.14
664.923	53.69
665.249	53.09
665.576	53.09
665.902	53.4
666.228	52.74
666.554	53.48
666.881	54.06
667.207	53.83
667.533	53.01
667.859	53.5
668.185	53.93
668.511	53.24
668.837	53.45
669.162	53.79
669.488	52.77
