Data from 428_chest_Reflection__1__78.txt Node

Date: Tue Dec 12 18:50:48 CST 2023
User: ToomeyLab
Spectrometer: FLMS14357
Trigger mode: 0
Integration Time (sec): 1.000000E-2
Scans to average: 100
Electric dark correction enabled: true
Nonlinearity correction enabled: false
Boxcar width: 0
XAxis mode: Wavelengths
Number of Pixels in Spectrum: 2048
>>>>>Begin Spectral Data<<<<<
189.047	-135.52
189.435	-135.52
189.823	-135.52
190.211	-54.12
190.599	56.24
190.987	85.96
191.375	336.26
191.763	-254.5
192.151	175.38
192.538	1.12
192.926	71.61
193.314	711.47
193.702	154.19
194.089	340.43
194.477	-79.47
194.864	42.82
195.252	57.19
195.639	-2270.48
196.027	44.24
196.414	-1324.5
196.801	73.29
197.189	313.44
197.576	157.07
197.963	12.14
198.351	18.82
198.738	33.93
199.125	25.38
199.512	-15.57
199.899	26.24
200.286	6.81
200.673	-36.88
201.06	-33.93
201.447	-52.92
201.833	24.32
202.22	20.52
202.607	-304.37
202.994	2.32
203.38	-2.98
203.767	-7.76
204.154	-4.84
204.54	19.85
204.927	-35.66
205.313	21.48
205.699	9.15
206.086	75.75
206.472	7.7
206.858	10.53
207.245	6.35
207.631	48.92
208.017	11.86
208.403	-21.14
208.789	10.41
209.175	-1.73
209.561	12.41
209.947	-21.38
210.333	15.46
210.719	15.42
211.105	-84.52
211.491	2.56
211.876	12.38
212.262	-13.24
212.648	-60.36
213.034	-23.24
213.419	15.64
213.805	11.21
214.19	-9.8
214.576	-11.97
214.961	-5.11
215.346	-40.79
215.732	15.03
216.117	-4.66
216.502	-56.17
216.888	-11.98
217.273	-51.09
217.658	-41.17
218.043	-28.32
218.428	-9.07
218.813	-6.4
219.198	-69.71
219.583	-11.4
219.968	22.57
220.353	-18.54
220.738	8.32
221.122	-17.19
221.507	4.07
221.892	-10.76
222.276	-12.34
222.661	8.57
223.046	-21.72
223.43	-3.08
223.815	-6.66
224.199	0.07
224.583	-1
224.968	22.04
225.352	2.58
225.736	6.02
226.121	8.27
226.505	18.74
226.889	0.21
227.273	9.75
227.657	6.12
228.041	5.87
228.425	1.93
228.809	0.44
229.193	0.51
229.577	5.18
229.961	3.71
230.344	3.77
230.728	4.38
231.112	4.13
231.495	3.13
231.879	5.25
232.263	2.09
232.646	2.77
233.03	4.16
233.413	3.1
233.797	3.78
234.18	0.54
234.563	-0.12
234.946	4.7
235.33	4.95
235.713	3.88
236.096	2.78
236.479	3.88
236.862	2.86
237.245	1.18
237.628	2.23
238.011	4.02
238.394	1.42
238.777	6.49
239.16	4.19
239.543	4.22
239.925	3.5
240.308	3.14
240.691	2.92
241.073	3.05
241.456	4.82
241.838	3.64
242.221	4.19
242.603	4.58
242.986	2.39
243.368	3.64
243.75	3.46
244.133	3.09
244.515	3.82
244.897	3.73
245.279	4.2
245.661	2.46
246.043	2.76
246.425	4.12
246.807	2.69
247.189	2.78
247.571	3.74
247.953	3.44
248.335	3.52
248.717	3.62
249.098	3.8
249.48	3.64
249.862	3.35
250.243	3.27
250.625	3.85
251.006	3.96
251.388	4.16
251.769	3.2
252.151	1.9
252.532	4.18
252.913	3.22
253.295	4.76
253.676	3.24
254.057	3.08
254.438	4.24
254.819	3.89
255.2	2.62
255.581	3.9
255.962	2.21
256.343	2.21
256.724	3.13
257.105	3.53
257.486	3.15
257.867	2.38
258.247	2.75
258.628	3.3
259.009	1.89
259.389	3.44
259.77	2.93
260.15	2.77
260.531	3.92
260.911	4.1
261.292	3.27
261.672	3.29
262.052	3.3
262.432	3.26
262.813	3.29
263.193	3.93
263.573	3.56
263.953	4.78
264.333	4.27
264.713	3.32
265.093	3.36
265.473	3.56
265.853	3.18
266.233	2.84
266.612	2.44
266.992	3.69
267.372	4.12
267.752	4.04
268.131	1.99
268.511	3.08
268.89	2.23
269.27	2.64
269.649	3.41
270.029	3.22
270.408	3.69
270.787	2.99
271.167	3.16
271.546	3.76
271.925	3.47
272.304	3.74
272.683	2.48
273.062	3.24
273.441	3.6
273.82	2.69
274.199	3.17
274.578	2.77
274.957	3.23
275.336	2.88
275.715	3.56
276.093	2.73
276.472	3.07
276.851	3.31
277.229	3.21
277.608	3.14
277.986	2.55
278.365	3.15
278.743	3.49
279.122	3.55
279.5	2.17
279.878	2.89
280.257	2.41
280.635	2.61
281.013	3.11
281.391	2.96
281.769	2.99
282.147	3.46
282.525	2.89
282.903	2.8
283.281	3.02
283.659	3.01
284.037	3.24
284.415	3.12
284.792	3.37
285.17	2.77
285.548	3.18
285.925	2.8
286.303	3.02
286.68	3
287.058	3.29
287.435	2.83
287.813	2.82
288.19	3.12
288.567	2.92
288.945	3.14
289.322	2.67
289.699	2.87
290.076	3.09
290.453	3.08
290.83	3.06
291.207	3.94
291.584	3.21
291.961	3.03
292.338	3.42
292.715	3.06
293.092	3.39
293.469	3.12
293.845	2.92
294.222	3.11
294.599	3.37
294.975	2.19
295.352	2.83
295.728	3.16
296.105	3.04
296.481	3.75
296.858	3.66
297.234	3.42
297.61	3.46
297.986	3.4
298.363	3.6
298.739	3.39
299.115	3.1
299.491	3.45
299.867	3.45
300.243	3.03
300.619	3.32
300.995	3.02
301.371	3.77
301.746	3.27
302.122	3.96
302.498	2.94
302.874	3.15
303.249	3.81
303.625	3.07
304	3.59
304.376	3.3
304.751	3.56
305.127	3.43
305.502	4.17
305.878	3.4
306.253	3.03
306.628	3.45
307.003	3.15
307.378	2.85
307.754	3.34
308.129	3.42
308.504	3.98
308.879	3.34
309.254	3.51
309.629	3.82
310.003	3.26
310.378	3.69
310.753	3.48
311.128	4
311.502	3.36
311.877	3.46
312.252	3.2
312.626	3.49
313.001	3.51
313.375	3.36
313.75	3.84
314.124	3.58
314.498	3.68
314.873	3.68
315.247	3.52
315.621	3.19
315.995	3.67
316.369	3.13
316.743	3.62
317.117	3.03
317.491	3.06
317.865	3.81
318.239	3.57
318.613	4.01
318.987	3.86
319.361	3.05
319.734	3.71
320.108	3.4
320.482	4.3
320.855	3.64
321.229	3.45
321.602	3.76
321.976	4.09
322.349	4.05
322.723	3.62
323.096	3.93
323.469	3.71
323.843	4.41
324.216	3.84
324.589	3.68
324.962	3.7
325.335	4.27
325.708	4.03
326.081	3.99
326.454	3.88
326.827	3.83
327.2	3.72
327.573	3.58
327.945	3.9
328.318	4.01
328.691	3.03
329.063	3.34
329.436	3.79
329.809	3.35
330.181	3.58
330.553	3.32
330.926	3.32
331.298	3.82
331.671	3.19
332.043	3.56
332.415	4.04
332.787	3.37
333.159	3.94
333.532	3.8
333.904	3.54
334.276	4.05
334.648	3.92
335.02	2.96
335.391	3.14
335.763	3.81
336.135	3.8
336.507	4.18
336.879	3.49
337.25	3.69
337.622	3.77
337.993	3.75
338.365	3.65
338.736	3.99
339.108	3.56
339.479	4.01
339.851	3.38
340.222	3.16
340.593	3.42
340.964	3.87
341.336	3.64
341.707	3.28
342.078	2.87
342.449	3.65
342.82	3.78
343.191	4.05
343.562	3.92
343.933	3.79
344.303	3.33
344.674	3.88
345.045	4.24
345.416	3.75
345.786	3.72
346.157	3.65
346.527	4.05
346.898	3.74
347.268	3.77
347.639	4.06
348.009	3.73
348.38	3.74
348.75	3.79
349.12	3.84
349.49	3.4
349.861	3.74
350.231	3.77
350.601	4.29
350.971	3.74
351.341	3.35
351.711	4.22
352.081	3.67
352.45	3.44
352.82	3.83
353.19	3.42
353.56	4.11
353.929	3.47
354.299	3.24
354.669	3.63
355.038	3.29
355.408	3.53
355.777	4.2
356.147	3.57
356.516	4.02
356.885	3.67
357.254	3.76
357.624	3.56
357.993	3.63
358.362	3.71
358.731	3.86
359.1	3.49
359.469	3.61
359.838	3.74
360.207	3.67
360.576	3.9
360.945	3.43
361.314	3.48
361.682	3.75
362.051	4
362.42	3.99
362.788	3.82
363.157	4.28
363.525	3.78
363.894	3.62
364.262	3.57
364.631	3.46
364.999	3.71
365.367	4.22
365.735	3.72
366.104	3.78
366.472	4.02
366.84	3.82
367.208	3.66
367.576	3.52
367.944	3.88
368.312	3.58
368.68	3.54
369.048	3.72
369.416	3.73
369.783	3.97
370.151	3.93
370.519	3.7
370.886	3.91
371.254	3.8
371.621	4.11
371.989	3.68
372.356	3.94
372.724	3.71
373.091	3.72
373.458	3.6
373.826	3.95
374.193	3.78
374.56	4.14
374.927	3.55
375.294	3.95
375.661	4.22
376.028	4.16
376.395	4.02
376.762	4.25
377.129	3.97
377.496	3.99
377.863	3.93
378.229	4.02
378.596	3.69
378.963	4.08
379.329	3.94
379.696	3.86
380.062	4.19
380.429	3.9
380.795	4.09
381.161	4.08
381.528	3.82
381.894	4.03
382.26	3.86
382.626	3.98
382.993	3.91
383.359	3.68
383.725	3.85
384.091	3.75
384.457	3.92
384.823	4.02
385.188	3.96
385.554	4.08
385.92	3.73
386.286	4
386.651	4.08
387.017	4.47
387.383	3.99
387.748	3.97
388.114	3.99
388.479	4.11
388.845	4.08
389.21	3.87
389.575	3.69
389.94	3.98
390.306	4.26
390.671	4
391.036	4.28
391.401	3.95
391.766	3.97
392.131	3.9
392.496	3.68
392.861	3.99
393.226	4.3
393.591	3.91
393.956	3.94
394.32	4.2
394.685	4.18
395.05	3.96
395.414	3.88
395.779	3.81
396.143	4.15
396.508	3.71
396.872	4.17
397.236	3.94
397.601	4.09
397.965	3.91
398.329	4.13
398.694	4
399.058	4.22
399.422	4.01
399.786	3.97
400.15	4.04
400.514	4.05
400.878	4.15
401.242	4.11
401.605	4.25
401.969	4.14
402.333	4.24
402.697	3.96
403.06	4.07
403.424	4.09
403.787	3.96
404.151	4.18
404.514	3.8
404.878	3.91
405.241	4.04
405.604	3.87
405.968	3.78
406.331	4.18
406.694	4.3
407.057	3.87
407.42	3.99
407.783	3.92
408.146	4.13
408.509	4.15
408.872	4.24
409.235	4.1
409.598	4.17
409.961	3.97
410.323	4.28
410.686	4.19
411.049	4.07
411.411	4.44
411.774	4.19
412.136	4.29
412.499	3.99
412.861	4.11
413.223	4.37
413.586	3.96
413.948	4.1
414.31	4.2
414.672	4.41
415.035	4.18
415.397	4.07
415.759	4.18
416.121	4.23
416.483	4.09
416.845	4.03
417.206	4.3
417.568	4.13
417.93	4.21
418.292	4.07
418.653	4.22
419.015	4.32
419.377	4.13
419.738	4.09
420.1	4.1
420.461	4.11
420.822	4.11
421.184	4.13
421.545	4.33
421.906	4.07
422.267	4.04
422.629	4.16
422.99	4.05
423.351	4.05
423.712	4.07
424.073	4.12
424.434	4.19
424.795	4.24
425.155	4.1
425.516	3.97
425.877	4.22
426.238	4.2
426.598	4.15
426.959	4.16
427.32	4.15
427.68	4.17
428.041	4.26
428.401	4.17
428.761	4.19
429.122	4.08
429.482	4.36
429.842	4.4
430.202	4.16
430.563	4.22
430.923	4.31
431.283	4.09
431.643	4.4
432.003	4.21
432.363	4.31
432.722	4.1
433.082	4.26
433.442	4.28
433.802	4.26
434.161	4.35
434.521	4.3
434.881	4.18
435.24	4.28
435.6	4.33
435.959	4.24
436.319	4.38
436.678	4.41
437.037	4.36
437.396	4.03
437.756	4.19
438.115	4.29
438.474	4.22
438.833	4.45
439.192	4.38
439.551	4.26
439.91	4.21
440.269	4.26
440.628	4.28
440.987	4.12
441.345	4.37
441.704	4.29
442.063	4.29
442.421	4.28
442.78	4.39
443.138	4.18
443.497	4.34
443.855	4.34
444.214	4.31
444.572	4.39
444.93	4.38
445.288	4.21
445.647	4.35
446.005	4.24
446.363	4.17
446.721	4.22
447.079	4.28
447.437	4.2
447.795	4.28
448.153	4.23
448.51	4.32
448.868	4.29
449.226	4.33
449.584	4.37
449.941	4.29
450.299	4.39
450.656	4.39
451.014	4.38
451.371	4.39
451.729	4.46
452.086	4.37
452.443	4.49
452.801	4.35
453.158	4.48
453.515	4.41
453.872	4.37
454.229	4.54
454.586	4.26
454.943	4.32
455.3	4.43
455.657	4.56
456.014	4.58
456.371	4.35
456.727	4.41
457.084	4.44
457.441	4.47
457.797	4.51
458.154	4.42
458.51	4.47
458.867	4.49
459.223	4.51
459.58	4.39
459.936	4.45
460.292	4.36
460.648	4.48
461.005	4.4
461.361	4.33
461.717	4.44
462.073	4.41
462.429	4.39
462.785	4.38
463.141	4.41
463.496	4.36
463.852	4.58
464.208	4.63
464.564	4.57
464.919	4.66
465.275	4.62
465.631	4.74
465.986	4.63
466.342	4.43
466.697	4.61
467.052	4.69
467.408	4.49
467.763	4.64
468.118	4.65
468.473	4.6
468.829	4.49
469.184	4.45
469.539	4.61
469.894	4.57
470.249	4.52
470.603	4.54
470.958	4.68
471.313	4.76
471.668	4.66
472.023	4.43
472.377	4.63
472.732	4.64
473.086	4.45
473.441	4.64
473.795	4.59
474.15	4.7
474.504	4.5
474.859	4.71
475.213	4.56
475.567	4.62
475.921	4.77
476.275	4.64
476.63	4.63
476.984	4.67
477.338	4.54
477.692	4.59
478.045	4.7
478.399	4.52
478.753	4.63
479.107	4.76
479.461	4.67
479.814	4.52
480.168	4.52
480.521	4.47
480.875	4.72
481.228	4.76
481.582	4.58
481.935	4.64
482.289	4.75
482.642	4.84
482.995	4.7
483.348	4.6
483.701	4.77
484.055	4.64
484.408	4.61
484.761	4.63
485.114	4.44
485.466	4.4
485.819	4.37
486.172	4.38
486.525	4.42
486.878	4.45
487.23	4.54
487.583	4.48
487.936	4.59
488.288	4.51
488.641	4.58
488.993	4.49
489.345	4.52
489.698	4.47
490.05	4.47
490.402	4.56
490.754	4.54
491.107	4.53
491.459	4.72
491.811	4.68
492.163	4.74
492.515	4.78
492.866	4.58
493.218	4.58
493.57	4.56
493.922	4.5
494.274	4.6
494.625	4.71
494.977	4.79
495.328	4.92
495.68	4.73
496.031	4.89
496.383	4.77
496.734	4.87
497.086	4.82
497.437	4.85
497.788	4.8
498.139	4.81
498.49	4.91
498.842	4.68
499.193	4.92
499.544	4.87
499.894	4.87
500.245	4.9
500.596	4.93
500.947	4.79
501.298	4.96
501.648	4.9
501.999	4.96
502.35	4.99
502.7	5.01
503.051	4.87
503.401	4.93
503.752	5.2
504.102	4.84
504.452	4.96
504.803	4.94
505.153	5.11
505.503	5.15
505.853	5.08
506.203	4.97
506.553	4.94
506.903	5.02
507.253	5.07
507.603	5.02
507.953	5.02
508.303	5.06
508.652	4.96
509.002	5.07
509.352	4.98
509.701	5.16
510.051	5.01
510.4	4.98
510.75	5.06
511.099	4.93
511.449	5.07
511.798	5.08
512.147	4.99
512.496	5.21
512.846	5.03
513.195	5.05
513.544	5.26
513.893	5.1
514.242	5.04
514.591	5.06
514.939	5.09
515.288	5.07
515.637	5.15
515.986	5.08
516.334	5.23
516.683	5.18
517.032	5.3
517.38	5.17
517.729	5.37
518.077	5.2
518.426	5.29
518.774	5.33
519.122	5.22
519.47	5.25
519.819	5.09
520.167	5.13
520.515	5.18
520.863	5.29
521.211	5.08
521.559	5.24
521.907	5.26
522.255	5.28
522.602	5.41
522.95	5.23
523.298	5.29
523.645	5.45
523.993	5.41
524.341	5.44
524.688	5.39
525.036	5.49
525.383	5.39
525.73	5.37
526.078	5.35
526.425	5.42
526.772	5.36
527.119	5.33
527.466	5.37
527.814	5.31
528.161	5.44
528.508	5.4
528.854	5.34
529.201	5.39
529.548	5.37
529.895	5.33
530.242	5.19
530.588	5.19
530.935	5.29
531.282	5.27
531.628	5.33
531.975	5.37
532.321	5.39
532.667	5.4
533.014	5.45
533.36	5.48
533.706	5.49
534.052	5.49
534.399	5.55
534.745	5.49
535.091	5.49
535.437	5.44
535.783	5.49
536.129	5.64
536.474	5.61
536.82	5.64
537.166	5.76
537.512	5.67
537.857	5.68
538.203	5.64
538.549	5.63
538.894	5.74
539.239	5.63
539.585	5.77
539.93	5.82
540.276	5.8
540.621	5.78
540.966	5.78
541.311	5.85
541.656	5.93
542.001	5.72
542.346	5.84
542.691	5.85
543.036	5.71
543.381	5.62
543.726	5.72
544.071	5.75
544.415	5.79
544.76	5.81
545.105	5.89
545.449	5.92
545.794	6.01
546.138	5.85
546.483	6
546.827	6.05
547.171	6.06
547.516	6.07
547.86	6.11
548.204	6.17
548.548	6.13
548.892	6.13
549.236	6.02
549.58	6.2
549.924	6.25
550.268	6.23
550.612	6.17
550.956	6.31
551.3	6.37
551.643	6.28
551.987	6.56
552.33	6.47
552.674	6.5
553.017	6.48
553.361	6.6
553.704	6.27
554.048	6.53
554.391	6.51
554.734	6.27
555.077	6.61
555.42	6.38
555.764	6.54
556.107	6.66
556.45	6.35
556.793	6.73
557.135	6.71
557.478	6.56
557.821	6.42
558.164	6.61
558.507	6.81
558.849	6.73
559.192	6.74
559.534	6.65
559.877	6.71
560.219	6.72
560.562	6.62
560.904	6.89
561.246	6.97
561.589	6.95
561.931	6.63
562.273	6.84
562.615	6.75
562.957	6.9
563.299	6.81
563.641	7.19
563.983	6.89
564.325	6.89
564.667	7.13
565.008	6.73
565.35	7.08
565.692	7.03
566.033	7.34
566.375	7.01
566.716	7.06
567.058	7.19
567.399	7.2
567.741	7.11
568.082	7.15
568.423	7.24
568.764	7.27
569.105	7.25
569.447	7.24
569.788	7.27
570.129	7.06
570.47	7.25
570.811	7.33
571.151	7.55
571.492	7.44
571.833	7.44
572.174	7.36
572.514	7.36
572.855	7.5
573.195	7.44
573.536	7.3
573.876	7.48
574.217	7.6
574.557	7.53
574.898	7.5
575.238	7.57
575.578	7.54
575.918	7.74
576.258	7.7
576.598	7.61
576.938	7.79
577.278	7.88
577.618	7.85
577.958	7.64
578.298	7.95
578.638	7.81
578.977	7.98
579.317	7.96
579.657	7.99
579.996	7.98
580.336	8.05
580.675	7.95
581.014	8.21
581.354	8.1
581.693	8.03
582.032	8
582.372	8.22
582.711	8.32
583.05	8.56
583.389	8.14
583.728	8.3
584.067	8.47
584.406	8.42
584.745	8.5
585.083	8.21
585.422	8.56
585.761	8.63
586.1	8.6
586.438	8.7
586.777	8.57
587.115	8.44
587.454	8.64
587.792	8.46
588.13	8.59
588.469	8.63
588.807	8.52
589.145	8.64
589.483	8.6
589.821	8.58
590.159	8.66
590.497	8.71
590.835	8.82
591.173	8.73
591.511	9.17
591.849	9.03
592.187	8.95
592.524	8.8
592.862	8.73
593.2	8.68
593.537	8.66
593.875	9.07
594.212	9.15
594.55	9.43
594.887	9.48
595.224	9.11
595.561	9.35
595.899	9.15
596.236	9.3
596.573	9.2
596.91	9.48
597.247	9.39
597.584	9.34
597.921	9.52
598.258	9.53
598.594	9.3
598.931	9.32
599.268	9.28
599.604	9.45
599.941	9.52
600.277	9.75
600.614	9.63
600.95	9.77
601.287	9.6
601.623	9.84
601.959	9.85
602.296	9.93
602.632	9.66
602.968	9.91
603.304	10.1
603.64	9.91
603.976	9.96
604.312	9.92
604.648	10.01
604.984	10.05
605.319	10.06
605.655	10
605.991	10.31
606.326	9.85
606.662	10.2
606.998	10.13
607.333	10.21
607.668	10.19
608.004	10.22
608.339	10.4
608.674	10.25
609.01	10.13
609.345	10.38
609.68	10.49
610.015	10.24
610.35	10.48
610.685	10.51
611.02	10.3
611.355	10.55
611.689	10.34
612.024	10.65
612.359	10.65
612.694	10.77
613.028	10.63
613.363	10.74
613.697	10.74
614.032	10.98
614.366	10.88
614.7	10.9
615.035	10.72
615.369	11.09
615.703	11.18
616.037	11.11
616.371	10.72
616.705	11.08
617.039	11.14
617.373	11.08
617.707	10.92
618.041	11.19
618.375	11.12
618.709	11
619.042	11.35
619.376	10.98
619.71	11.32
620.043	11.43
620.377	11.45
620.71	11.48
621.043	11.1
621.377	11.31
621.71	11.44
622.043	11.48
622.376	11.79
622.709	11.53
623.043	11.55
623.376	12.15
623.709	11.76
624.041	11.51
624.374	11.59
624.707	11.97
625.04	11.86
625.373	12.3
625.705	12
626.038	12.16
626.37	11.99
626.703	12.13
627.035	12.16
627.368	12.64
627.7	11.72
628.032	12
628.365	12.24
628.697	12.53
629.029	11.94
629.361	11.95
629.693	12.37
630.025	12.08
630.357	12.06
630.689	12.26
631.021	12.5
631.353	12.73
631.684	12.61
632.016	12.48
632.348	12.91
632.679	12.32
633.011	13.04
633.342	12.9
633.674	12.61
634.005	13.02
634.336	12.9
634.668	12.92
634.999	12.83
635.33	13.26
635.661	13.07
635.992	12.89
636.323	12.9
636.654	13.4
636.985	12.92
637.316	13.16
637.647	12.99
637.977	13.09
638.308	13.01
638.639	13.17
638.969	13.21
639.3	13.01
639.63	13.41
639.961	13.58
640.291	13.46
640.622	13.51
640.952	13.65
641.282	13.24
641.612	13.21
641.943	13.46
642.273	13.81
642.603	14.42
642.933	13.83
643.263	13.5
643.592	13.64
643.922	14.1
644.252	13.8
644.582	13.33
644.911	13.78
645.241	13.34
645.571	14.39
645.9	13.71
646.23	13.81
646.559	14.01
646.888	13.94
647.218	13.96
647.547	14.07
647.876	14.16
648.205	14.19
648.534	14.64
648.863	14.41
649.192	14.91
649.521	14.61
649.85	14.15
650.179	14.81
650.508	14.54
650.837	14.47
651.165	14.13
651.494	14.52
651.822	14.55
652.151	14.46
652.479	14.87
652.808	15.01
653.136	14.57
653.465	15
653.793	14.49
654.121	15.16
654.449	14.39
654.777	14.62
655.105	15.34
655.433	14.83
655.761	15.21
656.089	15.07
656.417	15.61
656.745	15.29
657.073	14.79
657.4	15.38
657.728	14.74
658.056	15.26
658.383	14.95
658.711	15.54
659.038	15.27
659.365	15.02
659.693	15.2
660.02	15.36
660.347	15.67
660.674	15.81
661.001	15.49
661.329	15.51
661.656	15.58
661.982	15.47
662.309	15.73
662.636	15.46
662.963	15.91
663.29	16.03
663.616	15.99
663.943	16.31
664.27	16.59
664.596	16.23
664.923	16.25
665.249	15.52
665.576	15.96
665.902	16.24
666.228	15.57
666.554	15.88
666.881	15.54
667.207	16.24
667.533	16.6
667.859	16
668.185	16.61
668.511	16.31
668.837	16.01
669.162	17.12
669.488	15.95
669.814	17.02
670.139	16.49
670.465	16.23
670.791	16.86
671.116	16.03
671.442	16.3
671.767	16.55
672.092	17.66
672.418	16.81
672.743	17.38
673.068	16.67
673.393	16.69
673.718	16.92
674.043	16.81
674.368	16.89
674.693	16.65
675.018	16.89
675.343	17.68
675.667	17.27
675.992	16.54
676.317	17.53
676.641	16.82
676.966	17.16
677.29	16.53
677.615	17.06
677.939	17.19
678.264	17.33
678.588	17.68
678.912	18.05
679.236	17.36
679.56	17.73
679.885	17.78
680.209	18.06
680.532	18.04
680.856	17.74
681.18	18.02
681.504	17.66
681.828	17.61
682.152	16.99
682.475	17.94
682.799	17.98
683.122	18.16
683.446	17.67
683.769	18.83
684.093	17.97
684.416	17.98
684.739	18.53
685.062	17.93
685.386	18.29
685.709	18.02
686.032	18.17
686.355	17.71
