Data from 428_crown_Reflection__1__83.txt Node

Date: Tue Dec 12 18:52:35 CST 2023
User: ToomeyLab
Spectrometer: FLMS14357
Trigger mode: 0
Integration Time (sec): 1.000000E-2
Scans to average: 100
Electric dark correction enabled: true
Nonlinearity correction enabled: false
Boxcar width: 0
XAxis mode: Wavelengths
Number of Pixels in Spectrum: 2048
>>>>>Begin Spectral Data<<<<<
189.047	58.15
189.435	58.15
189.823	58.15
190.211	-63.5
190.599	14.11
190.987	57.77
191.375	-13.44
191.763	227.84
192.151	210.74
192.538	116.4
192.926	29.12
193.314	213.2
193.702	86.12
194.089	340.09
194.477	-73.73
194.864	144.52
195.252	129.51
195.639	-1611.43
196.027	-9.82
196.414	-2312.58
196.801	-2.48
197.189	1945.33
197.576	370.02
197.963	5.46
198.351	2.15
198.738	19.76
199.125	7.69
199.512	-35.58
199.899	27.93
200.286	26.39
200.673	-32.56
201.06	-30.29
201.447	-109.24
201.833	-26.87
202.22	-16.27
202.607	-361.75
202.994	-4.17
203.38	1.92
203.767	-44.37
204.154	9
204.54	11.49
204.927	-9.41
205.313	14.84
205.699	8.55
206.086	9.91
206.472	55.43
206.858	5.29
207.245	8.02
207.631	10.96
208.017	-6.66
208.403	-5.73
208.789	5.67
209.175	-75.1
209.561	6.43
209.947	-25.65
210.333	22.36
210.719	-17.56
211.105	-7.04
211.491	31.02
211.876	0.83
212.262	50.55
212.648	-31.62
213.034	-64.09
213.419	-9.59
213.805	-3.95
214.19	29.74
214.576	-11.29
214.961	12.86
215.346	-13.24
215.732	39.48
216.117	-16.43
216.502	-10.98
216.888	-30.8
217.273	-20.65
217.658	-90.37
218.043	-5.07
218.428	-7.72
218.813	-15.4
219.198	-74.32
219.583	-7.48
219.968	-16
220.353	-3.79
220.738	16.18
221.122	6.84
221.507	-24.05
221.892	-22.13
222.276	3.84
222.661	8.47
223.046	-14.13
223.43	-6.58
223.815	4.11
224.199	4.46
224.583	-7.17
224.968	6.61
225.352	-9.07
225.736	1.67
226.121	5.77
226.505	1.33
226.889	-12.09
227.273	-1.7
227.657	4.66
228.041	1.83
228.425	-0.87
228.809	-2.53
229.193	2.41
229.577	1.95
229.961	1.28
230.344	1.99
230.728	3.4
231.112	2.99
231.495	2.08
231.879	2.4
232.263	1.87
232.646	2.46
233.03	2.32
233.413	1.05
233.797	0.6
234.18	1.32
234.563	-0.23
234.946	4.56
235.33	3.86
235.713	3.37
236.096	1.32
236.479	2.84
236.862	1.05
237.245	2.87
237.628	2.9
238.011	3.88
238.394	3.17
238.777	3.6
239.16	4
239.543	1.34
239.925	2.73
240.308	2.72
240.691	0.41
241.073	3.21
241.456	2.99
241.838	2.67
242.221	3.5
242.603	3.68
242.986	1.82
243.368	2.65
243.75	2.74
244.133	2.93
244.515	3.24
244.897	3.13
245.279	4.04
245.661	2.56
246.043	2.24
246.425	2.43
246.807	2.46
247.189	3.23
247.571	2.96
247.953	2.18
248.335	2.76
248.717	2.75
249.098	2.89
249.48	2.64
249.862	2.57
250.243	2.97
250.625	3.45
251.006	2.87
251.388	2.32
251.769	2.67
252.151	2.01
252.532	1.66
252.913	2.5
253.295	4.42
253.676	2.02
254.057	2.16
254.438	3.12
254.819	2.6
255.2	2.49
255.581	3.51
255.962	2.18
256.343	2.37
256.724	2.44
257.105	1.8
257.486	0.84
257.867	2.33
258.247	1.18
258.628	3.12
259.009	2.21
259.389	2.72
259.77	1.65
260.15	2.59
260.531	3.09
260.911	2.54
261.292	2.14
261.672	2.44
262.052	2.58
262.432	2.86
262.813	2.84
263.193	3.16
263.573	2.62
263.953	2.97
264.333	3.42
264.713	3.02
265.093	1.69
265.473	3.28
265.853	2.12
266.233	1.6
266.612	1.86
266.992	2.05
267.372	3.1
267.752	3.21
268.131	2.15
268.511	1.97
268.89	1.65
269.27	1.39
269.649	2.17
270.029	1.78
270.408	2.8
270.787	2.67
271.167	2.26
271.546	2.27
271.925	2.83
272.304	3.18
272.683	2
273.062	2.68
273.441	2.87
273.82	1.97
274.199	2.43
274.578	2.57
274.957	2.27
275.336	2.1
275.715	2.38
276.093	2.23
276.472	2.28
276.851	2.54
277.229	1.9
277.608	2.18
277.986	1.86
278.365	3
278.743	2.49
279.122	2.61
279.5	1.79
279.878	1.33
280.257	2.47
280.635	2.29
281.013	2.81
281.391	2.23
281.769	2.2
282.147	2.6
282.525	2.09
282.903	2.48
283.281	2.46
283.659	2.89
284.037	2.24
284.415	2.27
284.792	2.58
285.17	2.33
285.548	2.48
285.925	2.11
286.303	2.51
286.68	2.84
287.058	2.78
287.435	1.99
287.813	2.05
288.19	2.34
288.567	2.62
288.945	2.43
289.322	1.69
289.699	2.51
290.076	2.78
290.453	2.78
290.83	2.14
291.207	2.47
291.584	2.33
291.961	2.38
292.338	2.54
292.715	2.05
293.092	2.27
293.469	2.86
293.845	2.08
294.222	2.53
294.599	2.06
294.975	1.99
295.352	2.55
295.728	2.2
296.105	2.54
296.481	3.18
296.858	2.63
297.234	2.92
297.61	2.41
297.986	2.77
298.363	2.63
298.739	2.34
299.115	2.17
299.491	2.86
299.867	2.77
300.243	2.33
300.619	2.64
300.995	2.61
301.371	2.98
301.746	2.22
302.122	3.34
302.498	2.41
302.874	2.74
303.249	3.47
303.625	2.13
304	2.83
304.376	2.61
304.751	3.2
305.127	2.04
305.502	2.76
305.878	2.52
306.253	2.35
306.628	2.7
307.003	2.45
307.378	2.66
307.754	2.83
308.129	2.86
308.504	3.08
308.879	2.19
309.254	2.92
309.629	3.24
310.003	2.65
310.378	3.06
310.753	2.87
311.128	3.22
311.502	2.53
311.877	2.44
312.252	2.47
312.626	2.85
313.001	2.59
313.375	2.49
313.75	3.04
314.124	2.87
314.498	3.54
314.873	2.66
315.247	2.4
315.621	2.59
315.995	2.88
316.369	3
316.743	2.29
317.117	2.85
317.491	2.5
317.865	2.92
318.239	2.61
318.613	2.97
318.987	2.64
319.361	2.2
319.734	2.34
320.108	3.04
320.482	2.75
320.855	2.56
321.229	2.83
321.602	3.09
321.976	2.89
322.349	3.22
322.723	2.75
323.096	3.21
323.469	3.28
323.843	3.5
324.216	2.65
324.589	2.96
324.962	3.38
325.335	3.48
325.708	3.19
326.081	3
326.454	3.23
326.827	3.24
327.2	3.14
327.573	2.78
327.945	3.09
328.318	3.26
328.691	1.87
329.063	3.26
329.436	2.99
329.809	3.31
330.181	2.92
330.553	2.43
330.926	3.41
331.298	2.84
331.671	2.85
332.043	2.83
332.415	3.24
332.787	3.19
333.159	2.95
333.532	3.2
333.904	2.97
334.276	3.44
334.648	3.25
335.02	2.86
335.391	2.78
335.763	2.85
336.135	3.27
336.507	3.13
336.879	2.72
337.25	2.98
337.622	2.52
337.993	2.83
338.365	2.9
338.736	2.89
339.108	3.29
339.479	3.55
339.851	3.03
340.222	2.44
340.593	2.4
340.964	2.97
341.336	3.22
341.707	2.65
342.078	2.68
342.449	3.2
342.82	3.4
343.191	3.16
343.562	3.28
343.933	3.67
344.303	3.2
344.674	3.24
345.045	3.01
345.416	3.69
345.786	2.71
346.157	3.09
346.527	3.35
346.898	2.68
347.268	3.22
347.639	2.79
348.009	2.86
348.38	2.77
348.75	3.11
349.12	2.98
349.49	3.03
349.861	3.28
350.231	3.33
350.601	3.19
350.971	3.11
351.341	2.59
351.711	3.47
352.081	3.05
352.45	2.98
352.82	3.28
353.19	3.06
353.56	2.49
353.929	2.78
354.299	2.82
354.669	3.11
355.038	2.77
355.408	2.94
355.777	3.54
356.147	2.6
356.516	3.36
356.885	3.24
357.254	2.95
357.624	2.89
357.993	2.76
358.362	3.21
358.731	3.41
359.1	2.84
359.469	2.85
359.838	3.05
360.207	2.84
360.576	3.27
360.945	2.99
361.314	3.47
361.682	3.11
362.051	3.33
362.42	3.32
362.788	3.22
363.157	3.23
363.525	3.18
363.894	3.07
364.262	3.16
364.631	3
364.999	2.86
365.367	3.35
365.735	3.24
366.104	3.11
366.472	2.95
366.84	3.12
367.208	2.7
367.576	2.92
367.944	3.34
368.312	3.18
368.68	3.04
369.048	3.11
369.416	2.87
369.783	3.18
370.151	3.22
370.519	2.98
370.886	3.03
371.254	3.23
371.621	3.05
371.989	2.97
372.356	3.16
372.724	3.11
373.091	3.25
373.458	3.28
373.826	3.18
374.193	2.78
374.56	3.29
374.927	3.26
375.294	3.05
375.661	3.63
376.028	3.19
376.395	3.58
376.762	3.56
377.129	3.23
377.496	3.1
377.863	3.14
378.229	2.98
378.596	2.91
378.963	3.28
379.329	2.81
379.696	2.93
380.062	3.46
380.429	3.03
380.795	3.23
381.161	3.37
381.528	3.22
381.894	3.53
382.26	3.14
382.626	3.13
382.993	3.18
383.359	3.31
383.725	3.11
384.091	2.94
384.457	3.11
384.823	3.12
385.188	3
385.554	3.09
385.92	2.89
386.286	3.33
386.651	3.41
387.017	3.45
387.383	3.14
387.748	3.41
388.114	3.07
388.479	3.59
388.845	3.15
389.21	2.99
389.575	3.08
389.94	3.17
390.306	3.5
390.671	3.24
391.036	3.18
391.401	3.12
391.766	3.23
392.131	3.14
392.496	3.3
392.861	3.08
393.226	3.48
393.591	3.1
393.956	3.05
394.32	3.45
394.685	3.28
395.05	3.22
395.414	3.28
395.779	3.23
396.143	3.19
396.508	3.24
396.872	3.2
397.236	3.3
397.601	3.23
397.965	3.38
398.329	3.37
398.694	3.08
399.058	3.13
399.422	3.04
399.786	3.24
400.15	3.38
400.514	3.65
400.878	3.49
401.242	3.17
401.605	3.43
401.969	3.2
402.333	3.17
402.697	3.1
403.06	3.14
403.424	3.34
403.787	3.22
404.151	3.37
404.514	2.98
404.878	3.13
405.241	3.21
405.604	3.13
405.968	3.21
406.331	3.28
406.694	3.38
407.057	3.27
407.42	3.19
407.783	3.16
408.146	3.19
408.509	3.28
408.872	3.22
409.235	3.3
409.598	3.07
409.961	3.27
410.323	3.35
410.686	3.22
411.049	3.43
411.411	3.5
411.774	3.29
412.136	3.33
412.499	3.13
412.861	3.48
413.223	3.7
413.586	3.13
413.948	3.39
414.31	3.39
414.672	3.48
415.035	3.27
415.397	3.34
415.759	3.33
416.121	3.26
416.483	3.39
416.845	3.18
417.206	3.34
417.568	3.22
417.93	3.36
418.292	3.16
418.653	3.46
419.015	3.17
419.377	3.12
419.738	3.28
420.1	3.19
420.461	3.24
420.822	3.37
421.184	3.26
421.545	3.42
421.906	3.36
422.267	3.24
422.629	3.23
422.99	3.29
423.351	3.28
423.712	3.24
424.073	3.37
424.434	3.23
424.795	3.32
425.155	3.18
425.516	3.21
425.877	3.25
426.238	3.17
426.598	3.27
426.959	3.27
427.32	3.46
427.68	3.25
428.041	3.31
428.401	3.3
428.761	3.25
429.122	3.5
429.482	3.55
429.842	3.49
430.202	3.37
430.563	3.27
430.923	3.33
431.283	3.4
431.643	3.48
432.003	3.31
432.363	3.54
432.722	3.19
433.082	3.3
433.442	3.26
433.802	3.38
434.161	3.36
434.521	3.33
434.881	3.22
435.24	3.54
435.6	3.39
435.959	3.51
436.319	3.51
436.678	3.55
437.037	3.52
437.396	3.39
437.756	3.31
438.115	3.53
438.474	3.46
438.833	3.44
439.192	3.52
439.551	3.36
439.91	3.39
440.269	3.41
440.628	3.24
440.987	3.38
441.345	3.52
441.704	3.31
442.063	3.54
442.421	3.34
442.78	3.43
443.138	3.32
443.497	3.46
443.855	3.3
444.214	3.47
444.572	3.52
444.93	3.52
445.288	3.21
445.647	3.48
446.005	3.46
446.363	3.34
446.721	3.47
447.079	3.47
447.437	3.33
447.795	3.43
448.153	3.38
448.51	3.48
448.868	3.37
449.226	3.43
449.584	3.44
449.941	3.44
450.299	3.38
450.656	3.37
451.014	3.56
451.371	3.42
451.729	3.66
452.086	3.4
452.443	3.57
452.801	3.33
453.158	3.35
453.515	3.6
453.872	3.38
454.229	3.62
454.586	3.41
454.943	3.42
455.3	3.45
455.657	3.39
456.014	3.68
456.371	3.5
456.727	3.63
457.084	3.52
457.441	3.41
457.797	3.4
458.154	3.51
458.51	3.48
458.867	3.6
459.223	3.7
459.58	3.48
459.936	3.32
460.292	3.49
460.648	3.49
461.005	3.5
461.361	3.36
461.717	3.51
462.073	3.41
462.429	3.35
462.785	3.48
463.141	3.55
463.496	3.48
463.852	3.69
464.208	3.43
464.564	3.51
464.919	3.77
465.275	3.55
465.631	3.58
465.986	3.54
466.342	3.33
466.697	3.55
467.052	3.75
467.408	3.8
467.763	3.62
468.118	3.54
468.473	3.6
468.829	3.54
469.184	3.55
469.539	3.52
469.894	3.55
470.249	3.68
470.603	3.64
470.958	3.64
471.313	3.64
471.668	3.68
472.023	3.45
472.377	3.48
472.732	3.59
473.086	3.69
473.441	3.73
473.795	3.68
474.15	3.6
474.504	3.57
474.859	3.54
475.213	3.4
475.567	3.47
475.921	3.71
476.275	3.49
476.63	3.64
476.984	3.63
477.338	3.71
477.692	3.64
478.045	3.66
478.399	3.47
478.753	3.56
479.107	3.68
479.461	3.51
479.814	3.7
480.168	3.5
480.521	3.48
480.875	3.67
481.228	3.73
481.582	3.61
481.935	3.58
482.289	3.61
482.642	3.8
482.995	3.57
483.348	3.6
483.701	3.61
484.055	3.5
484.408	3.57
484.761	3.51
485.114	3.41
485.466	3.36
485.819	3.29
486.172	3.32
486.525	3.44
486.878	3.48
487.23	3.45
487.583	3.46
487.936	3.51
488.288	3.4
488.641	3.43
488.993	3.44
489.345	3.45
489.698	3.42
490.05	3.44
490.402	3.49
490.754	3.48
491.107	3.47
491.459	3.6
491.811	3.61
492.163	3.51
492.515	3.67
492.866	3.44
493.218	3.39
493.57	3.41
493.922	3.38
494.274	3.47
494.625	3.57
494.977	3.65
495.328	3.71
495.68	3.59
496.031	3.65
496.383	3.59
496.734	3.6
497.086	3.57
497.437	3.6
497.788	3.62
498.139	3.6
498.49	3.67
498.842	3.53
499.193	3.64
499.544	3.59
499.894	3.52
500.245	3.68
500.596	3.67
500.947	3.65
501.298	3.79
501.648	3.8
501.999	3.55
502.35	3.72
502.7	3.68
503.051	3.65
503.401	3.73
503.752	3.74
504.102	3.77
504.452	3.61
504.803	3.73
505.153	3.61
505.503	3.71
505.853	3.68
506.203	3.59
506.553	3.63
506.903	3.77
507.253	3.67
507.603	3.8
507.953	3.67
508.303	3.73
508.652	3.73
509.002	3.58
509.352	3.62
509.701	3.64
510.051	3.64
510.4	3.63
510.75	3.54
511.099	3.65
511.449	3.78
511.798	3.7
512.147	3.8
512.496	3.82
512.846	3.71
513.195	3.57
513.544	3.74
513.893	3.74
514.242	3.53
514.591	3.62
514.939	3.68
515.288	3.6
515.637	3.49
515.986	3.65
516.334	3.72
516.683	3.7
517.032	3.72
517.38	3.7
517.729	3.72
518.077	3.7
518.426	3.83
518.774	3.67
519.122	3.69
519.47	3.64
519.819	3.57
520.167	3.56
520.515	3.57
520.863	3.59
521.211	3.68
521.559	3.72
521.907	3.69
522.255	3.66
522.602	3.79
522.95	3.67
523.298	3.76
523.645	3.79
523.993	3.79
524.341	3.85
524.688	3.62
525.036	3.79
525.383	3.61
525.73	3.64
526.078	3.86
526.425	3.64
526.772	3.53
527.119	3.66
527.466	3.65
527.814	3.54
528.161	3.67
528.508	3.67
528.854	3.6
529.201	3.62
529.548	3.6
529.895	3.56
530.242	3.48
530.588	3.46
530.935	3.5
531.282	3.56
531.628	3.61
531.975	3.64
532.321	3.56
532.667	3.57
533.014	3.54
533.36	3.64
533.706	3.6
534.052	3.71
534.399	3.74
534.745	3.63
535.091	3.52
535.437	3.62
535.783	3.56
536.129	3.7
536.474	3.73
536.82	3.73
537.166	3.76
537.512	3.72
537.857	3.67
538.203	3.71
538.549	3.69
538.894	3.72
539.239	3.73
539.585	3.77
539.93	3.82
540.276	3.66
540.621	3.72
540.966	3.7
541.311	3.71
541.656	3.85
542.001	3.67
542.346	3.64
542.691	3.57
543.036	3.59
543.381	3.5
543.726	3.6
544.071	3.58
544.415	3.6
544.76	3.68
545.105	3.64
545.449	3.7
545.794	3.73
546.138	3.54
546.483	3.66
546.827	3.85
547.171	3.74
547.516	3.64
547.86	3.77
548.204	3.81
548.548	3.73
548.892	3.78
549.236	3.75
549.58	3.85
549.924	3.73
550.268	3.78
550.612	3.62
550.956	3.79
551.3	3.79
551.643	3.91
551.987	3.93
552.33	3.94
552.674	3.88
553.017	3.99
553.361	4.09
553.704	3.87
554.048	3.87
554.391	3.75
554.734	3.78
555.077	3.95
555.42	3.79
555.764	3.89
556.107	3.82
556.45	3.73
556.793	3.69
557.135	3.6
557.478	3.69
557.821	3.91
558.164	3.92
558.507	3.83
558.849	4.03
559.192	3.92
559.534	3.74
559.877	3.8
560.219	3.68
560.562	3.76
560.904	3.95
561.246	3.9
561.589	3.86
561.931	3.95
562.273	3.87
562.615	3.71
562.957	3.88
563.299	3.93
563.641	4.05
563.983	3.8
564.325	3.9
564.667	3.82
565.008	3.62
565.35	3.9
565.692	3.87
566.033	4.03
566.375	3.88
566.716	3.77
567.058	4
567.399	3.87
567.741	3.76
568.082	3.61
568.423	3.8
568.764	3.87
569.105	3.85
569.447	3.95
569.788	3.85
570.129	3.69
570.47	3.85
570.811	3.86
571.151	3.94
571.492	3.99
571.833	4.02
572.174	3.83
572.514	3.97
572.855	3.88
573.195	3.73
573.536	3.78
573.876	3.8
574.217	3.91
574.557	3.76
574.898	3.66
575.238	3.83
575.578	3.76
575.918	3.78
576.258	3.95
576.598	3.66
576.938	3.84
577.278	3.86
577.618	3.97
577.958	3.93
578.298	3.9
578.638	3.83
578.977	3.83
579.317	3.82
579.657	3.85
579.996	3.98
580.336	3.77
580.675	3.79
581.014	3.98
581.354	3.7
581.693	3.94
582.032	3.83
582.372	3.83
582.711	4.07
583.05	4.05
583.389	4
583.728	3.82
584.067	3.82
584.406	3.87
584.745	4.13
585.083	3.84
585.422	4.01
585.761	4.01
586.1	3.99
586.438	3.95
586.777	3.9
587.115	4.02
587.454	4.16
587.792	3.61
588.13	3.96
588.469	3.99
588.807	4.02
589.145	4.02
589.483	3.85
589.821	4.16
590.159	3.97
590.497	3.74
590.835	3.97
591.173	3.8
591.511	4.03
591.849	3.79
592.187	3.88
592.524	3.57
592.862	3.95
593.2	3.45
593.537	3.69
593.875	4.05
594.212	4.03
594.55	4.12
594.887	4.28
595.224	3.9
595.561	3.99
595.899	3.88
596.236	4.07
596.573	3.8
596.91	4.02
597.247	3.79
597.584	3.86
597.921	3.99
598.258	3.87
598.594	3.97
598.931	3.81
599.268	3.78
599.604	3.98
599.941	3.8
600.277	3.72
600.614	4.12
600.95	4.2
601.287	3.82
601.623	3.94
601.959	4
602.296	4.19
602.632	3.81
602.968	4.05
603.304	3.88
603.64	4.12
603.976	3.76
604.312	3.97
604.648	3.94
604.984	3.84
605.319	3.84
605.655	3.84
605.991	3.95
606.326	3.81
606.662	3.84
606.998	4.01
607.333	4.02
607.668	3.88
608.004	4.09
608.339	4.2
608.674	4.08
609.01	4.07
609.345	4.23
609.68	3.93
610.015	3.73
610.35	3.99
610.685	4.1
611.02	3.93
611.355	3.84
611.689	3.84
612.024	3.84
612.359	3.97
612.694	3.91
613.028	4.18
613.363	4.08
613.697	3.73
614.032	4.25
614.366	3.96
614.7	3.79
615.035	3.95
615.369	3.91
615.703	3.98
616.037	4.03
616.371	3.63
616.705	4.03
617.039	4.06
617.373	4.1
617.707	4.02
618.041	4.02
618.375	3.92
618.709	3.91
619.042	3.75
619.376	3.98
619.71	4.13
620.043	3.95
620.377	4.23
620.71	3.7
621.043	3.86
621.377	3.74
621.71	4.13
622.043	4.26
622.376	4.29
622.709	4.21
623.043	4.03
623.376	4.28
623.709	4
624.041	4.34
624.374	3.76
624.707	4.21
625.04	4.02
625.373	4.54
625.705	3.9
626.038	4.13
626.37	4.11
626.703	4.21
627.035	3.73
627.368	4.05
627.7	3.75
628.032	3.78
628.365	3.97
628.697	3.83
629.029	3.92
629.361	3.62
629.693	3.76
630.025	3.79
630.357	4.21
630.689	3.76
631.021	4.15
631.353	4.1
631.684	3.83
632.016	3.9
632.348	4.02
632.679	3.91
633.011	4.19
633.342	4.2
633.674	4.42
634.005	3.9
634.336	4.1
634.668	4.03
634.999	4.08
635.33	4.19
635.661	4.28
635.992	4.08
636.323	3.59
636.654	4.47
636.985	4.08
637.316	4.16
637.647	3.75
637.977	4.26
638.308	4.26
638.639	4.34
638.969	3.72
639.3	3.81
639.63	4.26
639.961	4.02
640.291	3.55
640.622	4.04
640.952	4.48
641.282	3.86
641.612	4.4
641.943	4.07
642.273	4.08
642.603	4.56
642.933	4.19
643.263	3.82
643.592	4.08
643.922	3.91
644.252	4.27
644.582	3.57
644.911	4.28
645.241	3.8
645.571	4.12
645.9	4.3
646.23	3.94
646.559	4.52
646.888	4.08
647.218	3.93
647.547	4.17
647.876	3.86
648.205	4.33
648.534	4.61
648.863	4.41
649.192	4.6
649.521	4.2
649.85	4.18
650.179	4.57
650.508	4.55
650.837	4.3
651.165	4.04
651.494	4.13
651.822	3.99
652.151	4.39
652.479	4.71
652.808	3.68
653.136	4.07
653.465	4.27
653.793	4.19
654.121	4.34
654.449	4.08
654.777	4.52
655.105	4.52
655.433	4.43
655.761	4.23
656.089	4.43
656.417	4.27
656.745	4.02
657.073	3.7
657.4	4.31
657.728	3.66
658.056	4.09
658.383	3.42
658.711	4.17
659.038	4.65
659.365	4.06
659.693	3.99
660.02	3.94
660.347	4.49
660.674	3.97
661.001	4.38
661.329	4.5
661.656	4.45
661.982	4.08
662.309	4.33
662.636	4.15
662.963	4.2
663.29	4.51
663.616	4
663.943	4.74
664.27	4.49
664.596	4.17
664.923	4.81
665.249	4.1
665.576	4.4
665.902	4.12
666.228	4.21
666.554	4.09
666.881	3.59
667.207	3.63
667.533	4.33
667.859	4.19
668.185	4.01
668.511	4.29
668.837	3.95
669.162	5.42
669.488	3.75
669.814	4.12
670.139	3.88
670.465	3.79
670.791	4.31
671.116	4.2
671.442	4.37
671.767	4.28
672.092	4.88
672.418	4.33
672.743	4.67
673.068	4.11
673.393	4.36
673.718	4.45
674.043	4.07
674.368	4.14
674.693	3.6
675.018	3.85
675.343	3.77
675.667	4.09
675.992	4.04
676.317	3.85
676.641	4.27
676.966	3.7
677.29	3.8
677.615	4.29
677.939	4.46
678.264	4.74
678.588	4.41
678.912	4.64
679.236	4.86
679.56	4.36
679.885	4.82
680.209	4.33
680.532	4.38
680.856	3.64
681.18	4.13
681.504	4.46
681.828	4.2
682.152	4
682.475	4.02
682.799	4.4
683.122	4.68
683.446	4.4
683.769	5.29
684.093	3.82
684.416	4.53
684.739	4.84
685.062	4.3
685.386	4.99
685.709	5.04
686.032	4.05
686.355	4.67
686.678	5.1
687.001	3.98
687.324	4.35
687.646	4.99
687.969	3.76
688.292	4.64
688.614	4.1
688.937	4.04
689.26	5.23
689.582	3.77
689.904	4.52
690.227	4.05
690.549	4.7
690.871	4.41
691.194	4.9
691.516	4.46
691.838	4.83
692.16	4.91
692.482	4.21
692.804	3.73
693.126	4.65
