Data from 428_crown_Reflection__0__82.txt Node

Date: Tue Dec 12 18:52:26 CST 2023
User: ToomeyLab
Spectrometer: FLMS14357
Trigger mode: 0
Integration Time (sec): 1.000000E-2
Scans to average: 100
Electric dark correction enabled: true
Nonlinearity correction enabled: false
Boxcar width: 0
XAxis mode: Wavelengths
Number of Pixels in Spectrum: 2048
>>>>>Begin Spectral Data<<<<<
189.047	-565.23
189.435	-565.23
189.823	-565.23
190.211	101.64
190.599	24.22
190.987	107.47
191.375	-15.93
191.763	-103.74
192.151	176.7
192.538	169.09
192.926	297.6
193.314	119.29
193.702	-44.93
194.089	-101.36
194.477	-220.73
194.864	-3.11
195.252	71.98
195.639	-3421.9
196.027	5.46
196.414	1733.11
196.801	-18
197.189	956.95
197.576	-4.2
197.963	11.99
198.351	8.87
198.738	20.25
199.125	13.1
199.512	-27.07
199.899	98.58
200.286	31.34
200.673	-5.8
201.06	-3.52
201.447	-51.88
201.833	-19.23
202.22	-19.33
202.607	-304.01
202.994	-7.3
203.38	19.83
203.767	-26.68
204.154	-0.36
204.54	40.91
204.927	-42.78
205.313	27.54
205.699	-1.72
206.086	-11.24
206.472	50.62
206.858	-8.01
207.245	12.4
207.631	2.14
208.017	34.51
208.403	-12.7
208.789	-19.9
209.175	5.44
209.561	4.75
209.947	13.87
210.333	11.36
210.719	-7.92
211.105	-0.44
211.491	20.34
211.876	25.95
212.262	2.72
212.648	-18.45
213.034	-40.82
213.419	10.19
213.805	20.52
214.19	38.16
214.576	14.89
214.961	-1.52
215.346	-11.97
215.732	15.73
216.117	-1.64
216.502	-25.34
216.888	-35.8
217.273	-24.32
217.658	-26.37
218.043	-31.2
218.428	-12.69
218.813	10.58
219.198	-34.09
219.583	12.34
219.968	33.23
220.353	-10.41
220.738	-3.37
221.122	1.84
221.507	-16.39
221.892	-1.95
222.276	11.44
222.661	3.96
223.046	-7.08
223.43	-10.95
223.815	-7.26
224.199	1.49
224.583	5.57
224.968	10.55
225.352	-1.43
225.736	3.76
226.121	-0.88
226.505	-1.81
226.889	1.62
227.273	4.41
227.657	9.65
228.041	5.76
228.425	-2.65
228.809	1.56
229.193	0.75
229.577	1.88
229.961	2.14
230.344	2.84
230.728	3.58
231.112	3.03
231.495	2.56
231.879	4.02
232.263	0.56
232.646	2.04
233.03	2.22
233.413	2.29
233.797	2.44
234.18	-0.08
234.563	0.85
234.946	3.33
235.33	2.63
235.713	3.64
236.096	2.91
236.479	2.56
236.862	1.62
237.245	1.61
237.628	1.73
238.011	3
238.394	2.44
238.777	4.53
239.16	1.18
239.543	1.43
239.925	5.04
240.308	1.78
240.691	3.37
241.073	2.83
241.456	3.2
241.838	2.81
242.221	3.82
242.603	2.91
242.986	2.35
243.368	2.46
243.75	2.06
244.133	2.51
244.515	2.74
244.897	2.99
245.279	3.06
245.661	2.12
246.043	1.74
246.425	3.36
246.807	1.8
247.189	2.54
247.571	3.31
247.953	2.62
248.335	2.6
248.717	2.59
249.098	2.58
249.48	2.15
249.862	2.48
250.243	2.66
250.625	3.01
251.006	2.53
251.388	2.39
251.769	2.34
252.151	1.61
252.532	3.85
252.913	3.67
253.295	2.69
253.676	2.35
254.057	2.28
254.438	3
254.819	2.4
255.2	1.89
255.581	2.62
255.962	1.91
256.343	1.43
256.724	1.97
257.105	3.3
257.486	2.62
257.867	2.1
258.247	2.07
258.628	2.94
259.009	1.42
259.389	2.43
259.77	2.52
260.15	2.53
260.531	2.91
260.911	3.09
261.292	2.28
261.672	2.32
262.052	2.37
262.432	2.45
262.813	2.76
263.193	2.13
263.573	2.52
263.953	2.94
264.333	2.96
264.713	2.77
265.093	2.04
265.473	2.96
265.853	2.82
266.233	2.38
266.612	1.46
266.992	2.42
267.372	2.67
267.752	2.69
268.131	1.45
268.511	1.8
268.89	2.04
269.27	1.65
269.649	1.87
270.029	2.34
270.408	2.75
270.787	2.49
271.167	2.25
271.546	1.78
271.925	2.42
272.304	2.65
272.683	2.23
273.062	2.44
273.441	2.26
273.82	1.96
274.199	2.2
274.578	2.18
274.957	2.17
275.336	2.35
275.715	2.45
276.093	1.9
276.472	2.8
276.851	2.81
277.229	1.3
277.608	2.72
277.986	1.93
278.365	2.54
278.743	2.18
279.122	2.42
279.5	2.1
279.878	2.25
280.257	2.41
280.635	2.56
281.013	2.05
281.391	1.93
281.769	2.04
282.147	2.29
282.525	1.75
282.903	2.5
283.281	2.04
283.659	2.36
284.037	2.82
284.415	1.99
284.792	2.36
285.17	2.18
285.548	2.19
285.925	2.15
286.303	2.09
286.68	2.27
287.058	2.8
287.435	2.6
287.813	1.95
288.19	2.01
288.567	2.12
288.945	2.2
289.322	1.7
289.699	2.02
290.076	2.34
290.453	2.57
290.83	2.24
291.207	2.95
291.584	2.47
291.961	2.69
292.338	2.43
292.715	2.52
293.092	1.88
293.469	1.98
293.845	2.01
294.222	1.95
294.599	2.13
294.975	2.34
295.352	2.14
295.728	2.79
296.105	2.68
296.481	2.4
296.858	1.73
297.234	2.36
297.61	2.33
297.986	2.53
298.363	2.43
298.739	2.2
299.115	2.15
299.491	2.39
299.867	2.32
300.243	2.14
300.619	2.59
300.995	2.36
301.371	2.37
301.746	2.41
302.122	3
302.498	2.49
302.874	2.6
303.249	3.15
303.625	2.12
304	2.16
304.376	2.37
304.751	2.43
305.127	2.53
305.502	2.41
305.878	2.35
306.253	2.38
306.628	2.69
307.003	2.54
307.378	2.65
307.754	2.67
308.129	2.95
308.504	3.42
308.879	1.92
309.254	2.73
309.629	2.45
310.003	2.63
310.378	2.83
310.753	2.51
311.128	2.54
311.502	1.88
311.877	2.5
312.252	2.08
312.626	2.35
313.001	2.6
313.375	2.16
313.75	2.83
314.124	2.89
314.498	2.7
314.873	2.43
315.247	2.69
315.621	2.15
315.995	2.8
316.369	2.5
316.743	1.79
317.117	2
317.491	2.98
317.865	2.62
318.239	2.37
318.613	3
318.987	3.66
319.361	2.28
319.734	2.67
320.108	3.17
320.482	2.57
320.855	1.93
321.229	3.21
321.602	2.97
321.976	3.23
322.349	3.58
322.723	2.28
323.096	3.06
323.469	2.54
323.843	3.98
324.216	2.21
324.589	2.48
324.962	3.08
325.335	3.23
325.708	2.76
326.081	3.24
326.454	2.61
326.827	3.15
327.2	2.7
327.573	2.1
327.945	2.39
328.318	3.04
328.691	2.09
329.063	2.87
329.436	3.04
329.809	2.83
330.181	2.37
330.553	2.23
330.926	2.93
331.298	2.18
331.671	2.63
332.043	3.19
332.415	2.69
332.787	2.24
333.159	2.76
333.532	2.84
333.904	2.72
334.276	3.15
334.648	2.34
335.02	2.73
335.391	2.65
335.763	2.86
336.135	3.02
336.507	3.04
336.879	2.58
337.25	2.75
337.622	2.69
337.993	2.55
338.365	2.46
338.736	3.05
339.108	2.7
339.479	3.35
339.851	2.4
340.222	2.48
340.593	2.43
340.964	2.52
341.336	3.28
341.707	2.4
342.078	2.41
342.449	2.54
342.82	2.72
343.191	3.06
343.562	2.78
343.933	3.01
344.303	3.22
344.674	3.01
345.045	2.6
345.416	2.54
345.786	2.56
346.157	2.59
346.527	3.13
346.898	2.33
347.268	2.63
347.639	3.09
348.009	2.38
348.38	2.48
348.75	3.08
349.12	2.98
349.49	2.34
349.861	2.58
350.231	2.77
350.601	2.81
350.971	2.88
351.341	3.08
351.711	3.11
352.081	2.54
352.45	2.47
352.82	3.68
353.19	2.57
353.56	2.88
353.929	2.3
354.299	2.46
354.669	2.79
355.038	2.3
355.408	2.75
355.777	3.5
356.147	2.46
356.516	2.62
356.885	2.68
357.254	2.56
357.624	2.82
357.993	2.55
358.362	2.8
358.731	2.72
359.1	2.31
359.469	2.19
359.838	2.44
360.207	2.67
360.576	3.06
360.945	2.44
361.314	2.77
361.682	2.54
362.051	2.81
362.42	2.92
362.788	2.59
363.157	2.91
363.525	2.61
363.894	2.75
364.262	2.96
364.631	2.54
364.999	2.91
365.367	2.91
365.735	2.36
366.104	2.71
366.472	2.61
366.84	2.91
367.208	2.66
367.576	2.61
367.944	2.89
368.312	2.63
368.68	2.59
369.048	2.95
369.416	2.84
369.783	2.95
370.151	2.52
370.519	2.75
370.886	3.03
371.254	2.77
371.621	3
371.989	2.55
372.356	2.81
372.724	2.37
373.091	2.61
373.458	3.02
373.826	2.85
374.193	2.95
374.56	3
374.927	2.98
375.294	2.86
375.661	3.1
376.028	2.87
376.395	3.22
376.762	3.2
377.129	2.81
377.496	2.78
377.863	2.89
378.229	2.79
378.596	2.6
378.963	3.21
379.329	2.6
379.696	2.52
380.062	3.25
380.429	2.84
380.795	3.02
381.161	2.97
381.528	2.9
381.894	3.11
382.26	2.84
382.626	2.87
382.993	3.11
383.359	2.66
383.725	2.84
384.091	2.92
384.457	2.61
384.823	3.08
385.188	2.89
385.554	2.91
385.92	2.77
386.286	3.27
386.651	2.97
387.017	3.06
387.383	2.97
387.748	2.84
388.114	2.9
388.479	2.98
388.845	3.16
389.21	2.9
389.575	3.05
389.94	2.87
390.306	2.94
390.671	2.86
391.036	2.89
391.401	2.67
391.766	3.03
392.131	3.07
392.496	3.06
392.861	2.88
393.226	3.08
393.591	2.71
393.956	2.79
394.32	2.88
394.685	3.2
395.05	2.86
395.414	3.01
395.779	2.96
396.143	2.92
396.508	2.88
396.872	2.7
397.236	2.98
397.601	2.97
397.965	2.9
398.329	3.04
398.694	2.69
399.058	3.2
399.422	2.79
399.786	3
400.15	2.92
400.514	3.03
400.878	3.06
401.242	2.97
401.605	2.98
401.969	2.84
402.333	2.92
402.697	2.79
403.06	2.75
403.424	2.9
403.787	2.96
404.151	2.94
404.514	2.7
404.878	2.99
405.241	2.93
405.604	2.88
405.968	2.85
406.331	3.1
406.694	3.15
407.057	2.57
407.42	2.99
407.783	2.81
408.146	2.93
408.509	2.97
408.872	2.91
409.235	2.84
409.598	2.78
409.961	2.88
410.323	3.11
410.686	3.08
411.049	3.09
411.411	3.11
411.774	3.07
412.136	2.94
412.499	3.07
412.861	2.95
413.223	3.25
413.586	2.71
413.948	2.93
414.31	3.05
414.672	2.91
415.035	3.02
415.397	2.72
415.759	3.04
416.121	3.14
416.483	2.92
416.845	2.64
417.206	3.11
417.568	2.9
417.93	3.03
418.292	2.86
418.653	2.84
419.015	2.89
419.377	2.98
419.738	2.75
420.1	2.86
420.461	2.99
420.822	2.93
421.184	2.9
421.545	3.02
421.906	2.98
422.267	2.85
422.629	2.94
422.99	2.9
423.351	2.98
423.712	2.84
424.073	2.9
424.434	2.84
424.795	3.02
425.155	2.68
425.516	2.66
425.877	2.88
426.238	2.76
426.598	2.83
426.959	2.82
427.32	2.85
427.68	2.87
428.041	2.97
428.401	2.86
428.761	2.94
429.122	3
429.482	3.08
429.842	3.02
430.202	3.01
430.563	3.09
430.923	2.97
431.283	2.97
431.643	2.96
432.003	2.92
432.363	2.9
432.722	2.77
433.082	2.99
433.442	2.93
433.802	2.97
434.161	2.92
434.521	2.97
434.881	2.98
435.24	3.09
435.6	2.96
435.959	2.98
436.319	3.01
436.678	3.01
437.037	2.9
437.396	2.89
437.756	3.05
438.115	3.11
438.474	3.01
438.833	3.09
439.192	3.14
439.551	3.21
439.91	2.96
440.269	2.93
440.628	2.91
440.987	2.93
441.345	3.03
441.704	2.85
442.063	2.97
442.421	3.04
442.78	3.03
443.138	2.97
443.497	3.05
443.855	2.95
444.214	2.96
444.572	3.05
444.93	3.07
445.288	2.82
445.647	3.04
446.005	2.95
446.363	2.78
446.721	2.93
447.079	3.06
447.437	2.78
447.795	3.05
448.153	2.94
448.51	2.95
448.868	3.03
449.226	3.03
449.584	2.95
449.941	2.94
450.299	3.06
450.656	2.94
451.014	3.13
451.371	2.93
451.729	3.04
452.086	3.06
452.443	3.27
452.801	3.06
453.158	2.88
453.515	3.09
453.872	2.99
454.229	3.08
454.586	2.87
454.943	2.93
455.3	3.05
455.657	2.89
456.014	3.12
456.371	3.25
456.727	3.1
457.084	3.11
457.441	2.99
457.797	3.02
458.154	3.15
458.51	2.94
458.867	3.2
459.223	3.08
459.58	3.02
459.936	2.87
460.292	2.92
460.648	3.14
461.005	3
461.361	3
461.717	3
462.073	2.94
462.429	2.93
462.785	2.97
463.141	3.02
463.496	3.01
463.852	3.23
464.208	3.05
464.564	3.1
464.919	3.19
465.275	3.19
465.631	3.12
465.986	3.05
466.342	2.98
466.697	3.01
467.052	3.37
467.408	3.05
467.763	3.15
468.118	3.03
468.473	3.23
468.829	3.26
469.184	3.01
469.539	3.21
469.894	3.08
470.249	3.23
470.603	3.2
470.958	3.1
471.313	3.21
471.668	3.33
472.023	3.05
472.377	3.04
472.732	3.05
473.086	3.1
473.441	3.36
473.795	3.17
474.15	3.05
474.504	2.99
474.859	3.18
475.213	2.92
475.567	3.04
475.921	3.11
476.275	3.05
476.63	3.2
476.984	3.22
477.338	3.01
477.692	3.12
478.045	3.1
478.399	3.19
478.753	3.13
479.107	3.22
479.461	3.15
479.814	3.09
480.168	3
480.521	2.99
480.875	3.1
481.228	3.17
481.582	3.21
481.935	3.19
482.289	3.14
482.642	3.24
482.995	3.09
483.348	3.08
483.701	3.26
484.055	3.11
484.408	3.01
484.761	3.04
485.114	2.98
485.466	2.89
485.819	2.89
486.172	2.88
486.525	2.95
486.878	2.99
487.23	2.95
487.583	2.95
487.936	3.04
488.288	2.95
488.641	2.94
488.993	3
489.345	3.01
489.698	2.98
490.05	3
490.402	2.99
490.754	2.98
491.107	3.02
491.459	3.07
491.811	3.13
492.163	3.05
492.515	3.06
492.866	2.99
493.218	2.98
493.57	2.98
493.922	2.98
494.274	3.04
494.625	3.07
494.977	3.08
495.328	3.23
495.68	3.15
496.031	3.21
496.383	3.18
496.734	3.24
497.086	3.21
497.437	3.14
497.788	3.13
498.139	3
498.49	3.15
498.842	3.09
499.193	3.08
499.544	3.24
499.894	3.19
500.245	3.25
500.596	3.15
500.947	3.08
501.298	3.21
501.648	3.28
501.999	3.16
502.35	3.06
502.7	3.14
503.051	3.12
503.401	3.13
503.752	3.43
504.102	3.24
504.452	3.2
504.803	3.29
505.153	3.2
505.503	3.26
505.853	3.24
506.203	3.28
506.553	3.15
506.903	3.23
507.253	3.24
507.603	3.23
507.953	3.16
508.303	3.22
508.652	3.11
509.002	3.2
509.352	3.22
509.701	3.21
510.051	3.27
510.4	3.16
510.75	3.17
511.099	3.18
511.449	3.19
511.798	3.09
512.147	3.25
512.496	3.27
512.846	3.18
513.195	3.12
513.544	3.13
513.893	3.26
514.242	3.18
514.591	3.17
514.939	3.21
515.288	3.11
515.637	3.06
515.986	3.23
516.334	3.28
516.683	3.1
517.032	3.18
517.38	3.14
517.729	3.22
518.077	3.17
518.426	3.2
518.774	3.27
519.122	3.24
519.47	3.29
519.819	3.16
520.167	3.12
520.515	3.11
520.863	3.15
521.211	3.15
521.559	3.2
521.907	3.09
522.255	3.2
522.602	3.18
522.95	3.16
523.298	3.18
523.645	3.33
523.993	3.3
524.341	3.32
524.688	3.18
525.036	3.3
525.383	3.17
525.73	3.17
526.078	3.2
526.425	3.18
526.772	3.17
527.119	3.15
527.466	3.16
527.814	3.12
528.161	3.2
528.508	3.18
528.854	3.11
529.201	3.11
529.548	3.14
529.895	3.06
530.242	2.99
530.588	3.03
530.935	3.04
531.282	3.05
531.628	3.12
531.975	3.08
532.321	3.11
532.667	3.11
533.014	3.2
533.36	3.19
533.706	3.12
534.052	3.12
534.399	3.06
534.745	3.12
535.091	3.04
535.437	3.14
535.783	3.1
536.129	3.19
536.474	3.17
536.82	3.27
537.166	3.26
537.512	3.24
537.857	3.19
538.203	3.13
538.549	3.07
538.894	3.14
539.239	3.2
539.585	3.17
539.93	3.22
540.276	3.32
540.621	3.23
540.966	3.27
541.311	3.24
541.656	3.2
542.001	3.24
542.346	3.2
542.691	3.15
543.036	3.05
543.381	2.98
543.726	3.13
544.071	3.1
544.415	3.12
544.76	3.14
545.105	3.19
545.449	3.21
545.794	3.29
546.138	3.01
546.483	3.22
546.827	3.26
547.171	3.26
547.516	3.26
547.86	3.23
548.204	3.21
548.548	3.2
548.892	3.25
549.236	3.26
549.58	3.2
549.924	3.16
550.268	3.42
550.612	3.22
550.956	3.37
551.3	3.37
551.643	3.27
551.987	3.41
552.33	3.41
552.674	3.5
553.017	3.57
553.361	3.46
553.704	3.33
554.048	3.41
554.391	3.39
554.734	3.34
555.077	3.44
555.42	3.2
555.764	3.39
556.107	3.43
556.45	3.26
556.793	3.32
557.135	3.39
557.478	3.32
557.821	3.43
558.164	3.49
558.507	3.46
558.849	3.37
559.192	3.38
559.534	3.34
559.877	3.36
560.219	3.42
560.562	3.26
560.904	3.47
561.246	3.39
561.589	3.33
561.931	3.4
562.273	3.29
562.615	3.43
562.957	3.33
563.299	3.39
563.641	3.51
563.983	3.38
564.325	3.35
564.667	3.42
565.008	3.26
565.35	3.32
565.692	3.27
566.033	3.52
566.375	3.09
566.716	3.17
567.058	3.39
567.399	3.41
567.741	3.4
568.082	3.18
568.423	3.39
568.764	3.4
569.105	3.21
569.447	3.35
569.788	3.47
570.129	3.21
570.47	3.45
570.811	3.24
571.151	3.39
571.492	3.59
571.833	3.36
572.174	3.37
572.514	3.3
572.855	3.28
573.195	3.31
573.536	3.2
573.876	3.3
574.217	3.41
574.557	3.31
574.898	3.43
575.238	3.54
575.578	3.29
575.918	3.23
576.258	3.39
576.598	3.25
576.938	3.4
577.278	3.35
577.618	3.22
577.958	3.23
578.298	3.47
578.638	3.31
578.977	3.42
579.317	3.31
579.657	3.44
579.996	3.55
580.336	3.32
580.675	3.47
581.014	3.49
581.354	3.4
581.693	3.35
582.032	3.28
582.372	3.53
582.711	3.36
583.05	3.52
583.389	3.3
583.728	3.37
584.067	3.63
584.406	3.55
584.745	3.58
585.083	3.42
585.422	3.49
585.761	3.72
586.1	3.35
586.438	3.49
586.777	3.53
587.115	3.51
587.454	3.69
587.792	3.15
588.13	3.45
588.469	3.62
588.807	3.36
589.145	3.44
589.483	3.33
589.821	3.47
590.159	3.46
590.497	3.4
590.835	3.41
591.173	3.34
591.511	3.61
591.849	3.34
592.187	3.42
592.524	3.38
592.862	3.34
593.2	3.37
593.537	3.36
593.875	3.55
594.212	3.37
594.55	3.77
594.887	3.67
595.224	3.4
595.561	3.66
595.899	3.36
596.236	3.25
596.573	3.55
596.91	3.53
597.247	3.28
597.584	3.35
597.921	3.56
598.258	3.44
598.594	3.71
598.931	3.3
599.268	3.32
599.604	3.38
599.941	3.51
600.277	3.31
600.614	3.5
600.95	3.59
601.287	3.4
601.623	3.35
601.959	3.45
602.296	3.73
602.632	3.29
602.968	3.48
603.304	3.34
603.64	3.61
603.976	3.44
604.312	3.46
604.648	3.53
604.984	3.62
605.319	3.33
605.655	3.47
605.991	3.45
606.326	3.32
606.662	3.42
606.998	3.26
607.333	3.48
607.668	3.47
608.004	3.36
608.339	3.49
608.674	3.64
609.01	3.15
609.345	3.48
609.68	3.51
610.015	3.23
610.35	3.6
610.685	3.58
611.02	3.64
611.355	3.34
611.689	3.45
612.024	3.32
612.359	3.69
612.694	3.38
613.028	3.73
613.363	3.29
613.697	3.55
614.032	3.72
614.366	3.7
614.7	3.49
615.035	3.42
615.369	3.53
615.703	3.6
616.037	3.55
616.371	3.4
616.705	3.43
617.039	3.34
617.373	3.69
617.707	3.23
618.041	3.51
618.375	3.34
618.709	3.27
619.042	3.45
619.376	2.99
619.71	3.36
620.043	3.39
620.377	3.51
620.71	3.28
621.043	3.31
621.377	3.23
621.71	3.45
622.043	3.45
622.376	3.63
622.709	3.65
623.043	3.49
623.376	3.93
623.709	3.84
624.041	3.67
624.374	3.5
624.707	3.13
625.04	3.28
625.373	3.99
625.705	3.82
626.038	3.84
626.37	3.74
626.703	3.71
627.035	3.42
627.368	3.6
627.7	3.33
628.032	3.28
628.365	3.73
628.697	3.61
629.029	3.47
629.361	3.3
629.693	3.31
630.025	3.4
630.357	3.6
630.689	3.34
631.021	3.94
631.353	3.74
631.684	3.58
632.016	3.29
632.348	3.56
632.679	3.17
633.011	4.01
633.342	3.64
633.674	3.69
634.005	3.81
634.336	3.52
634.668	3.53
634.999	3.63
635.33	3.69
635.661	3.65
635.992	3.57
636.323	3.5
636.654	3.77
636.985	3.8
637.316	3.5
637.647	3.66
637.977	3.79
638.308	3.7
638.639	3.49
638.969	2.96
639.3	3.59
639.63	3.78
639.961	3.8
640.291	3.43
640.622	3.4
640.952	3.73
641.282	3.61
641.612	3.36
641.943	3.6
642.273	3.92
642.603	4.12
642.933	3.52
643.263	3.55
643.592	3.88
643.922	4.12
644.252	3.86
644.582	2.8
644.911	3.47
645.241	3.12
645.571	4.05
645.9	3.34
646.23	3.24
646.559	3.9
646.888	3.77
647.218	4.1
647.547	3.86
647.876	3.59
648.205	3.81
648.534	4.1
648.863	4.03
649.192	4.28
649.521	4.5
649.85	3.25
650.179	3.68
650.508	4.03
650.837	3.75
651.165	3.34
651.494	3.48
651.822	3.63
652.151	3.66
652.479	3.76
652.808	3.69
653.136	4.3
653.465	3.82
653.793	3.87
654.121	3.98
654.449	3.59
654.777	4.16
655.105	3.67
655.433	3.72
655.761	3.75
656.089	3.64
656.417	4.14
656.745	3.78
657.073	3.36
657.4	3.72
657.728	3.21
658.056	3.6
658.383	3.02
658.711	3.41
659.038	3.52
659.365	3.87
659.693	3.26
660.02	3.18
660.347	3.65
660.674	3.41
661.001	3.62
661.329	3.66
661.656	3.79
661.982	3.36
662.309	4.06
662.636	3.85
662.963	3.66
663.29	4.16
663.616	3.67
663.943	4.07
664.27	4.17
664.596	3.71
664.923	3.67
665.249	2.98
665.576	3.99
665.902	3.48
666.228	4.19
666.554	3.14
666.881	3.05
667.207	3.68
667.533	4.3
667.859	4.03
668.185	4.28
668.511	3.59
668.837	3.73
669.162	4.08
669.488	3.57
669.814	4.04
670.139	3.58
670.465	3.27
670.791	3.94
671.116	3.21
671.442	3.75
671.767	3.72
672.092	4.59
672.418	3.21
672.743	4.25
673.068	3.23
673.393	3.78
673.718	4.38
674.043	3.68
674.368	2.71
674.693	3.5
675.018	2.89
675.343	3.33
675.667	3.88
675.992	3.56
676.317	3.4
676.641	3.54
676.966	4.16
677.29	3.62
677.615	3.43
677.939	3.65
678.264	3.9
678.588	4.37
678.912	4.28
679.236	3.15
679.56	3.82
679.885	4.25
680.209	3.8
680.532	3.92
680.856	3.46
681.18	3.48
681.504	3.78
681.828	3.66
682.152	3.22
682.475	4.11
682.799	3.84
683.122	3.78
683.446	3.8
683.769	4.75
684.093	3.49
684.416	4.05
684.739	4.28
685.062	3.78
685.386	4.45
685.709	4.18
686.032	3.78
686.355	3.77
686.678	3.94
687.001	4.2
687.324	3.4
687.646	4.19
687.969	3.24
688.292	3.33
688.614	3.77
688.937	4.07
689.26	3.56
689.582	3.65
689.904	4.24
690.227	4.21
690.549	3.87
690.871	3.88
691.194	4.22
691.516	4.08
691.838	3.52
692.16	3.84
692.482	3.51
692.804	4.61
