Data from 428_chest_Reflection__4__81.txt Node

Date: Tue Dec 12 18:51:25 CST 2023
User: ToomeyLab
Spectrometer: FLMS14357
Trigger mode: 0
Integration Time (sec): 1.000000E-2
Scans to average: 100
Electric dark correction enabled: true
Nonlinearity correction enabled: false
Boxcar width: 0
XAxis mode: Wavelengths
Number of Pixels in Spectrum: 2048
>>>>>Begin Spectral Data<<<<<
189.047	67.51
189.435	67.51
189.823	67.51
190.211	-190.62
190.599	6.22
190.987	43.1
191.375	2.24
191.763	-551.35
192.151	35.17
192.538	-69.64
192.926	429.26
193.314	184.57
193.702	159.92
194.089	200.68
194.477	-150.72
194.864	-73.08
195.252	47.85
195.639	-1148.57
196.027	-21.72
196.414	-1129.8
196.801	47.69
197.189	599.09
197.576	-47.98
197.963	40.92
198.351	-3.76
198.738	46.35
199.125	45.87
199.512	-32.59
199.899	25.23
200.286	17.03
200.673	42.26
201.06	27.18
201.447	-47.62
201.833	0.14
202.22	-1.74
202.607	-87.51
202.994	42.58
203.38	42.13
203.767	9.43
204.154	29.69
204.54	20.69
204.927	20.1
205.313	41.57
205.699	0.97
206.086	-43.72
206.472	51.1
206.858	0.17
207.245	-21.79
207.631	60.58
208.017	18.31
208.403	-1.15
208.789	-14.61
209.175	23.14
209.561	26.07
209.947	17.91
210.333	41.6
210.719	21.89
211.105	-10.61
211.491	6.92
211.876	10.73
212.262	21.55
212.648	-20.44
213.034	-3.39
213.419	-11.98
213.805	-9.41
214.19	15.25
214.576	0.46
214.961	-16.94
215.346	-6.37
215.732	47.87
216.117	-28.34
216.502	-26.02
216.888	-13.56
217.273	-25.19
217.658	-16.84
218.043	6.9
218.428	29.1
218.813	8.48
219.198	2.35
219.583	36.42
219.968	21.11
220.353	13.14
220.738	11.06
221.122	3.94
221.507	-17.41
221.892	-5.22
222.276	6.18
222.661	9.7
223.046	-8.16
223.43	13.22
223.815	7.75
224.199	12.08
224.583	4.81
224.968	9.23
225.352	3.08
225.736	9.59
226.121	13.2
226.505	-4.45
226.889	-2.97
227.273	2.53
227.657	9.57
228.041	7.38
228.425	4.56
228.809	-1
229.193	-0.56
229.577	6.87
229.961	2.73
230.344	4.73
230.728	5.44
231.112	3.96
231.495	4.31
231.879	3.94
232.263	4.55
232.646	2.76
233.03	5.29
233.413	3.1
233.797	3.79
234.18	2.59
234.563	3.02
234.946	4.81
235.33	5.01
235.713	6.46
236.096	3.73
236.479	4.57
236.862	4.16
237.245	4.17
237.628	4.65
238.011	5.52
238.394	1.38
238.777	5.23
239.16	4.85
239.543	3.8
239.925	5.88
240.308	3.68
240.691	4.39
241.073	5.68
241.456	5.51
241.838	4.66
242.221	3.74
242.603	4.69
242.986	3.23
243.368	4.43
243.75	4.08
244.133	4.19
244.515	4.62
244.897	4.5
245.279	4.97
245.661	3.68
246.043	4.02
246.425	4.69
246.807	4.4
247.189	5.34
247.571	4.76
247.953	4.02
248.335	4.4
248.717	4.05
249.098	4.16
249.48	4.42
249.862	3.93
250.243	3.82
250.625	4.33
251.006	4.21
251.388	4.6
251.769	5.32
252.151	3.72
252.532	4.22
252.913	5.73
253.295	5.15
253.676	3.75
254.057	4.2
254.438	4.49
254.819	3.63
255.2	3.87
255.581	4.48
255.962	4.61
256.343	4.39
256.724	3.69
257.105	6.05
257.486	4.13
257.867	5.04
258.247	3.48
258.628	4.26
259.009	4.46
259.389	4.06
259.77	4.52
260.15	4.36
260.531	4.6
260.911	4.17
261.292	3.62
261.672	3.93
262.052	4.02
262.432	3.96
262.813	3.67
263.193	3.95
263.573	4.31
263.953	5.33
264.333	4.83
264.713	4.49
265.093	4.33
265.473	4.47
265.853	2.99
266.233	3.43
266.612	4.28
266.992	4.5
267.372	3.9
267.752	4.29
268.131	3.02
268.511	4.44
268.89	3.26
269.27	3.14
269.649	3.4
270.029	3.56
270.408	4.13
270.787	3.63
271.167	4.05
271.546	3.93
271.925	4.12
272.304	4.37
272.683	3.32
273.062	3.7
273.441	4.07
273.82	3.85
274.199	3.71
274.578	3.73
274.957	3.09
275.336	3.63
275.715	4.19
276.093	3.77
276.472	4.14
276.851	3.94
277.229	3.5
277.608	3.31
277.986	2.84
278.365	3.71
278.743	4.27
279.122	3.88
279.5	3.54
279.878	2.92
280.257	3.62
280.635	3.69
281.013	2.91
281.391	4.05
281.769	3.22
282.147	3.65
282.525	3.02
282.903	3.89
283.281	3.71
283.659	3.54
284.037	4.09
284.415	3.92
284.792	3.76
285.17	3.43
285.548	3.97
285.925	3.71
286.303	3.4
286.68	3.76
287.058	4.06
287.435	3.57
287.813	3.11
288.19	3.73
288.567	3.3
288.945	3.87
289.322	3.36
289.699	4.34
290.076	3.28
290.453	3.99
290.83	3.51
291.207	3.87
291.584	3.84
291.961	3.66
292.338	3.41
292.715	3.68
293.092	3.63
293.469	3.51
293.845	3.59
294.222	3.95
294.599	3.68
294.975	3.96
295.352	4.05
295.728	3.92
296.105	3.76
296.481	4.14
296.858	4.19
297.234	4.27
297.61	4.09
297.986	4.33
298.363	4.06
298.739	3.75
299.115	3.76
299.491	3.86
299.867	3.86
300.243	3.76
300.619	4.46
300.995	4.02
301.371	4.28
301.746	3.48
302.122	4.59
302.498	3.97
302.874	4.03
303.249	4.47
303.625	4
304	4.58
304.376	4.21
304.751	4.33
305.127	3.79
305.502	4.07
305.878	4.02
306.253	3.86
306.628	4.2
307.003	3.94
307.378	4.7
307.754	4.26
308.129	4
308.504	4.84
308.879	4.1
309.254	4.81
309.629	3.88
310.003	4.52
310.378	4.46
310.753	4.65
311.128	4.56
311.502	3.87
311.877	3.67
312.252	3.82
312.626	4.07
313.001	3.83
313.375	3.7
313.75	4.16
314.124	4.38
314.498	4.32
314.873	4.19
315.247	4.64
315.621	4.13
315.995	4.32
316.369	4.44
316.743	3.87
317.117	3.92
317.491	4.08
317.865	4.4
318.239	4.4
318.613	4.62
318.987	4.68
319.361	4.33
319.734	4.63
320.108	4.69
320.482	3.48
320.855	4.12
321.229	4.43
321.602	4.84
321.976	5.26
322.349	4.83
322.723	4.16
323.096	3.57
323.469	4.04
323.843	5.09
324.216	4.78
324.589	4.48
324.962	4.73
325.335	4.81
325.708	4.52
326.081	4.87
326.454	4.13
326.827	4.17
327.2	4.58
327.573	4.08
327.945	4.83
328.318	4.46
328.691	4.2
329.063	4.39
329.436	4.43
329.809	4.65
330.181	4.49
330.553	4.77
330.926	4.56
331.298	4.32
331.671	4.43
332.043	4.71
332.415	4.59
332.787	4.22
333.159	4.57
333.532	4.77
333.904	4.52
334.276	4.89
334.648	4.05
335.02	4.39
335.391	4
335.763	4.79
336.135	4.63
336.507	4.74
336.879	4.16
337.25	4.16
337.622	4.34
337.993	4.45
338.365	4.33
338.736	4.6
339.108	4.41
339.479	4.7
339.851	4.4
340.222	4.1
340.593	4.36
340.964	4.44
341.336	4.41
341.707	4.08
342.078	4.4
342.449	3.87
342.82	4.78
343.191	4.38
343.562	4.62
343.933	4.81
344.303	4.38
344.674	4.09
345.045	4.64
345.416	4.86
345.786	4.27
346.157	4.16
346.527	4.7
346.898	4.03
347.268	4.24
347.639	4.88
348.009	4.58
348.38	4.62
348.75	5.13
349.12	4.94
349.49	3.99
349.861	4.84
350.231	4.55
350.601	4.5
350.971	4.36
351.341	4.39
351.711	4.83
352.081	4.18
352.45	4.29
352.82	4.38
353.19	4.37
353.56	3.8
353.929	4.01
354.299	4.43
354.669	4.77
355.038	4.16
355.408	4.33
355.777	4.99
356.147	4.37
356.516	4.43
356.885	4.56
357.254	4.79
357.624	4.08
357.993	4.31
358.362	4.6
358.731	4.72
359.1	4.02
359.469	4.08
359.838	4.35
360.207	4.5
360.576	4.79
360.945	3.98
361.314	4.52
361.682	4.45
362.051	4.56
362.42	4.45
362.788	4.44
363.157	4.73
363.525	4.47
363.894	4.24
364.262	4.65
364.631	4.25
364.999	4.81
365.367	4.86
365.735	4.36
366.104	4.43
366.472	4.34
366.84	4.44
367.208	4.39
367.576	4.47
367.944	4.73
368.312	4.52
368.68	4.35
369.048	4.62
369.416	4.75
369.783	4.47
370.151	4.52
370.519	4.29
370.886	4.68
371.254	4.64
371.621	4.99
371.989	4.34
372.356	4.27
372.724	4.44
373.091	4.52
373.458	4.35
373.826	4.2
374.193	4.12
374.56	4.57
374.927	4.77
375.294	4.41
375.661	4.59
376.028	4.81
376.395	4.59
376.762	5.1
377.129	4.34
377.496	4.44
377.863	4.8
378.229	4.7
378.596	4.25
378.963	4.68
379.329	4.48
379.696	4.52
380.062	4.88
380.429	4.4
380.795	4.64
381.161	4.72
381.528	4.77
381.894	5
382.26	4.57
382.626	4.3
382.993	4.65
383.359	4.44
383.725	4.77
384.091	4.45
384.457	4.45
384.823	4.63
385.188	4.54
385.554	4.47
385.92	4.65
386.286	4.86
386.651	4.82
387.017	4.67
387.383	4.78
387.748	4.69
388.114	4.54
388.479	4.82
388.845	4.8
389.21	4.61
389.575	4.7
389.94	4.72
390.306	4.59
390.671	4.5
391.036	5.04
391.401	4.56
391.766	4.59
392.131	4.52
392.496	4.9
392.861	4.5
393.226	4.77
393.591	4.42
393.956	4.58
394.32	4.84
394.685	4.66
395.05	4.57
395.414	4.55
395.779	4.46
396.143	4.81
396.508	4.54
396.872	4.46
397.236	4.71
397.601	4.69
397.965	4.77
398.329	4.74
398.694	4.52
399.058	4.85
399.422	4.63
399.786	4.8
400.15	4.25
400.514	4.7
400.878	4.75
401.242	4.57
401.605	4.82
401.969	4.62
402.333	4.94
402.697	4.58
403.06	4.53
403.424	4.68
403.787	4.36
404.151	4.82
404.514	4.48
404.878	4.61
405.241	4.75
405.604	4.64
405.968	4.73
406.331	4.78
406.694	4.8
407.057	4.75
407.42	4.68
407.783	4.64
408.146	4.74
408.509	4.66
408.872	4.73
409.235	4.71
409.598	4.44
409.961	4.93
410.323	4.87
410.686	4.95
411.049	4.69
411.411	4.87
411.774	4.79
412.136	4.78
412.499	4.87
412.861	4.75
413.223	4.94
413.586	4.75
413.948	4.9
414.31	4.77
414.672	4.79
415.035	4.71
415.397	4.72
415.759	4.85
416.121	4.89
416.483	4.71
416.845	4.72
417.206	5.02
417.568	4.57
417.93	4.79
418.292	4.62
418.653	4.82
419.015	4.77
419.377	4.83
419.738	4.69
420.1	4.69
420.461	4.78
420.822	4.76
421.184	4.82
421.545	4.97
421.906	4.8
422.267	4.71
422.629	4.66
422.99	4.65
423.351	4.63
423.712	4.65
424.073	4.76
424.434	4.79
424.795	4.8
425.155	4.65
425.516	4.55
425.877	4.71
426.238	4.76
426.598	4.75
426.959	4.76
427.32	4.75
427.68	4.67
428.041	4.74
428.401	4.81
428.761	4.75
429.122	4.9
429.482	5.04
429.842	4.97
430.202	4.9
430.563	5
430.923	4.97
431.283	5.03
431.643	5.17
432.003	4.86
432.363	5.02
432.722	4.86
433.082	5.08
433.442	4.82
433.802	4.92
434.161	4.83
434.521	5.04
434.881	4.94
435.24	4.89
435.6	4.97
435.959	4.99
436.319	5.02
436.678	5.02
437.037	4.96
437.396	4.86
437.756	4.91
438.115	4.84
438.474	4.83
438.833	5.13
439.192	5.11
439.551	4.9
439.91	4.89
440.269	4.92
440.628	4.78
440.987	4.79
441.345	4.89
441.704	4.82
442.063	5.01
442.421	5.02
442.78	4.92
443.138	4.91
443.497	4.94
443.855	4.96
444.214	4.96
444.572	5.08
444.93	5.08
445.288	4.74
445.647	5.09
446.005	4.95
446.363	4.85
446.721	4.92
447.079	4.99
447.437	4.76
447.795	4.96
448.153	4.94
448.51	4.92
448.868	4.96
449.226	5.06
449.584	4.96
449.941	4.97
450.299	5.04
450.656	4.95
451.014	5.17
451.371	5.02
451.729	5.06
452.086	5.16
452.443	5.33
452.801	5.1
453.158	5.04
453.515	5.15
453.872	5.03
454.229	5.17
454.586	5.04
454.943	4.96
455.3	5.13
455.657	5.15
456.014	5.25
456.371	5.21
456.727	5.23
457.084	5.23
457.441	5.05
457.797	5
458.154	5.16
458.51	5.16
458.867	5.14
459.223	5.32
459.58	5.14
459.936	5.02
460.292	5.22
460.648	5.15
461.005	5.14
461.361	5.07
461.717	5.12
462.073	5.05
462.429	5.13
462.785	5.02
463.141	5.13
463.496	5.04
463.852	5.37
464.208	5.27
464.564	5.25
464.919	5.28
465.275	5.22
465.631	5.31
465.986	5.15
466.342	5.19
466.697	5.07
467.052	5.39
467.408	5.17
467.763	5.37
468.118	5.12
468.473	5.36
468.829	5.25
469.184	5.16
469.539	5.3
469.894	5.28
470.249	5.46
470.603	5.35
470.958	5.39
471.313	5.63
471.668	5.49
472.023	5.41
472.377	5.31
472.732	5.27
473.086	5.43
473.441	5.44
473.795	5.41
474.15	5.48
474.504	5.24
474.859	5.36
475.213	5.25
475.567	5.39
475.921	5.43
476.275	5.12
476.63	5.31
476.984	5.4
477.338	5.25
477.692	5.33
478.045	5.43
478.399	5.29
478.753	5.29
479.107	5.37
479.461	5.51
479.814	5.42
480.168	5.14
480.521	5.35
480.875	5.41
481.228	5.47
481.582	5.39
481.935	5.39
482.289	5.4
482.642	5.49
482.995	5.33
483.348	5.32
483.701	5.51
484.055	5.35
484.408	5.31
484.761	5.33
485.114	5.21
485.466	5.11
485.819	5.06
486.172	5.09
486.525	5.19
486.878	5.16
487.23	5.25
487.583	5.26
487.936	5.37
488.288	5.3
488.641	5.28
488.993	5.28
489.345	5.23
489.698	5.15
490.05	5.18
490.402	5.24
490.754	5.3
491.107	5.34
491.459	5.45
491.811	5.48
492.163	5.42
492.515	5.51
492.866	5.33
493.218	5.32
493.57	5.35
493.922	5.28
494.274	5.34
494.625	5.41
494.977	5.5
495.328	5.57
495.68	5.46
496.031	5.68
496.383	5.57
496.734	5.67
497.086	5.57
497.437	5.46
497.788	5.66
498.139	5.48
498.49	5.65
498.842	5.47
499.193	5.59
499.544	5.67
499.894	5.62
500.245	5.58
500.596	5.65
500.947	5.68
501.298	5.76
501.648	5.73
501.999	5.72
502.35	5.7
502.7	5.65
503.051	5.53
503.401	5.72
503.752	5.87
504.102	5.79
504.452	5.79
504.803	5.77
505.153	5.82
505.503	5.83
505.853	5.96
506.203	5.89
506.553	5.81
506.903	5.76
507.253	5.85
507.603	5.76
507.953	5.78
508.303	5.86
508.652	5.8
509.002	5.89
509.352	5.83
509.701	5.85
510.051	5.87
510.4	5.7
510.75	5.83
511.099	5.78
511.449	5.96
511.798	5.86
512.147	5.92
512.496	5.93
512.846	5.95
513.195	5.79
513.544	6
513.893	5.92
514.242	5.9
514.591	5.94
514.939	5.9
515.288	5.91
515.637	5.88
515.986	6.07
516.334	6.14
516.683	6
517.032	6.04
517.38	6.15
517.729	6.05
518.077	5.94
518.426	6.12
518.774	6.08
519.122	6.03
519.47	6.04
519.819	5.92
520.167	6
520.515	5.86
520.863	5.98
521.211	6
521.559	6.07
521.907	6.09
522.255	6.13
522.602	6.12
522.95	6.15
523.298	6.17
523.645	6.26
523.993	6.23
524.341	6.15
524.688	6.29
525.036	6.29
525.383	6.17
525.73	6.17
526.078	6.33
526.425	6.29
526.772	6.22
527.119	6.21
527.466	6.17
527.814	6.13
528.161	6.24
528.508	6.37
528.854	6.18
529.201	6.31
529.548	6.25
529.895	6.2
530.242	6.06
530.588	6.01
530.935	6.03
531.282	6.16
531.628	6.2
531.975	6.21
532.321	6.2
532.667	6.23
533.014	6.28
533.36	6.33
533.706	6.42
534.052	6.43
534.399	6.4
534.745	6.45
535.091	6.3
535.437	6.36
535.783	6.26
536.129	6.41
536.474	6.39
536.82	6.53
537.166	6.57
537.512	6.6
537.857	6.56
538.203	6.56
538.549	6.61
538.894	6.6
539.239	6.66
539.585	6.63
539.93	6.67
540.276	6.7
540.621	6.68
540.966	6.59
541.311	6.78
541.656	6.79
542.001	6.77
542.346	6.67
542.691	6.58
543.036	6.59
543.381	6.57
543.726	6.61
544.071	6.68
544.415	6.62
544.76	6.78
545.105	6.85
545.449	6.78
545.794	6.84
546.138	6.85
546.483	6.93
546.827	6.82
547.171	6.95
547.516	6.99
547.86	7.1
548.204	7.04
548.548	6.96
548.892	7.09
549.236	6.95
549.58	7.1
549.924	7.15
550.268	7.28
550.612	7.22
550.956	7.33
551.3	7.4
551.643	7.28
551.987	7.56
552.33	7.34
552.674	7.49
553.017	7.44
553.361	7.54
553.704	7.37
554.048	7.37
554.391	7.45
554.734	7.54
555.077	7.48
555.42	7.46
555.764	7.6
556.107	7.48
556.45	7.42
556.793	7.43
557.135	7.54
557.478	7.59
557.821	7.74
558.164	7.74
558.507	7.84
558.849	7.62
559.192	7.85
559.534	7.85
559.877	7.73
560.219	7.74
560.562	7.91
560.904	7.97
561.246	7.84
561.589	7.97
561.931	7.66
562.273	7.72
562.615	7.91
562.957	8.05
563.299	8.03
563.641	8.02
563.983	8.05
564.325	8.23
564.667	8.14
565.008	7.88
565.35	7.85
565.692	8.18
566.033	8.19
566.375	8.2
566.716	8.14
567.058	8.35
567.399	8.24
567.741	8.24
568.082	8.3
568.423	8.3
568.764	8.35
569.105	8.28
569.447	8.36
569.788	8.43
570.129	8.34
570.47	8.29
570.811	8.42
571.151	8.58
571.492	8.7
571.833	8.57
572.174	8.47
572.514	8.6
572.855	8.58
573.195	8.58
573.536	8.52
573.876	8.63
574.217	8.77
574.557	8.51
574.898	8.61
575.238	8.85
575.578	8.72
575.918	8.77
576.258	8.69
576.598	8.85
576.938	8.93
577.278	8.98
577.618	9.03
577.958	9.09
578.298	8.98
578.638	8.86
578.977	9.13
579.317	9
579.657	9.23
579.996	9.01
580.336	9.02
580.675	9.29
581.014	9.09
581.354	9.28
581.693	9.32
582.032	9.2
582.372	9.34
582.711	9.09
583.05	9.21
583.389	9.43
583.728	9.57
584.067	9.48
584.406	9.74
584.745	9.44
585.083	9.45
585.422	9.76
585.761	9.66
586.1	9.24
586.438	9.89
586.777	9.66
587.115	9.42
587.454	9.74
587.792	9.61
588.13	10.23
588.469	9.7
588.807	9.89
589.145	9.78
589.483	9.99
589.821	9.98
590.159	10.01
590.497	10.02
590.835	10.04
591.173	10.07
591.511	10.31
591.849	9.89
592.187	10.09
592.524	10.24
592.862	10
593.2	9.9
593.537	9.99
593.875	10.39
594.212	10.31
594.55	10.61
594.887	10.51
595.224	10.46
595.561	10.7
595.899	10.31
596.236	10.6
596.573	10.24
596.91	10.52
597.247	10.43
597.584	10.47
597.921	10.44
598.258	10.89
598.594	10.7
598.931	10.68
599.268	10.54
599.604	10.66
599.941	10.7
600.277	10.69
600.614	10.89
600.95	11.08
601.287	10.82
601.623	11.23
601.959	11.1
602.296	11.01
602.632	10.97
602.968	11.19
603.304	10.71
603.64	11.18
603.976	10.94
604.312	10.97
604.648	11.28
604.984	11.07
605.319	11.08
605.655	11.25
605.991	11.25
606.326	11.23
606.662	11.25
606.998	11.18
607.333	11.36
607.668	11.35
608.004	11.61
608.339	11.45
608.674	11.48
609.01	11.73
609.345	11.72
609.68	11.64
610.015	11.07
610.35	11.77
610.685	11.85
611.02	11.8
611.355	11.61
611.689	11.67
612.024	11.59
612.359	12.04
612.694	12.01
613.028	11.87
613.363	11.78
613.697	12.15
614.032	12.22
614.366	12.2
614.7	12.09
615.035	12.15
615.369	12.12
615.703	12.19
616.037	12.18
616.371	12.12
616.705	12.26
617.039	12.5
617.373	12.76
617.707	12.25
618.041	12.26
618.375	12.13
618.709	12.56
619.042	12.52
619.376	12.77
619.71	12.65
620.043	12.7
620.377	12.53
620.71	12.6
621.043	12.61
621.377	12.48
621.71	12.82
622.043	13.32
622.376	13.29
622.709	13.29
623.043	12.51
623.376	13.23
623.709	13.29
624.041	12.81
624.374	12.66
624.707	13.1
625.04	13.13
625.373	13.71
625.705	13.37
626.038	13.24
626.37	13.2
626.703	13.5
627.035	13.62
627.368	13.64
627.7	13.26
628.032	13.16
628.365	13.64
628.697	13.59
629.029	13.37
629.361	13.23
629.693	13.43
630.025	13.41
630.357	13.64
630.689	13.75
631.021	13.76
631.353	14.46
631.684	13.68
632.016	13.89
632.348	13.77
632.679	13.65
633.011	14.42
633.342	13.71
633.674	14.21
634.005	13.92
634.336	14.51
634.668	14.58
634.999	14.36
635.33	14.1
635.661	14.09
635.992	14.54
636.323	14.2
636.654	14.5
636.985	14.62
637.316	14.19
637.647	14.25
637.977	14.8
638.308	14.64
638.639	14.65
638.969	14.57
639.3	14.21
639.63	14.96
639.961	14.79
640.291	14.52
640.622	14.97
640.952	14.94
641.282	14.76
641.612	14.92
641.943	14.54
642.273	14.87
642.603	15.53
642.933	15.29
643.263	15.21
643.592	15.27
643.922	15.63
644.252	15.64
644.582	14.75
644.911	15.08
645.241	14.29
645.571	15.49
645.9	14.94
646.23	15.25
646.559	15.6
646.888	15.77
647.218	15.76
647.547	14.94
647.876	15.85
648.205	15.47
648.534	15.34
648.863	15.32
649.192	15.97
649.521	16.18
649.85	15.31
650.179	15.71
650.508	15.9
650.837	16.32
651.165	15.55
651.494	15.73
651.822	16.21
652.151	15.91
652.479	16.25
652.808	15.73
653.136	16.14
653.465	16.4
653.793	16.31
654.121	16.4
654.449	16.24
654.777	16.67
655.105	16.07
655.433	17.11
655.761	16.78
656.089	16.32
656.417	16.93
656.745	16.86
657.073	16.24
657.4	16.87
657.728	16.52
658.056	16.74
658.383	15.75
658.711	16.33
659.038	16.82
659.365	16.65
659.693	16.98
660.02	16.9
660.347	16.84
660.674	16.71
661.001	17.26
661.329	17.08
661.656	16.96
661.982	16.7
662.309	17.29
662.636	17.36
662.963	17.67
663.29	17.36
663.616	17.4
663.943	17.48
664.27	17.21
664.596	17.47
664.923	18.09
665.249	17.24
665.576	17.3
665.902	17.7
666.228	17.46
666.554	16.85
666.881	17.13
667.207	17.26
667.533	17.52
667.859	17.41
668.185	17.67
668.511	17.67
668.837	18.16
669.162	18.52
669.488	17.1
669.814	18.27
670.139	17.67
670.465	17.98
670.791	17.79
671.116	17.89
671.442	18
671.767	18.09
672.092	18.7
672.418	17.93
672.743	18.37
673.068	18.17
673.393	18.17
673.718	18.21
674.043	18.54
674.368	17.72
674.693	18.07
675.018	17.9
675.343	17.92
675.667	18.57
675.992	18.22
676.317	18.46
676.641	18.64
676.966	18.48
677.29	17.98
677.615	19.15
677.939	18.73
678.264	19.32
678.588	18.8
678.912	19.31
679.236	18.48
679.56	18.86
679.885	18.99
680.209	19.24
680.532	18.97
680.856	19.08
681.18	18.35
681.504	19.36
681.828	19.22
682.152	19.28
682.475	18.79
682.799	19.7
683.122	19.2
683.446	19.39
683.769	20.43
684.093	19.79
684.416	20.06
684.739	19.47
685.062	19.27
685.386	18.93
685.709	19.7
686.032	19.54
