Data from 428_chest_Reflection__0__77.txt Node

Date: Tue Dec 12 18:50:39 CST 2023
User: ToomeyLab
Spectrometer: FLMS14357
Trigger mode: 0
Integration Time (sec): 1.000000E-2
Scans to average: 100
Electric dark correction enabled: true
Nonlinearity correction enabled: false
Boxcar width: 0
XAxis mode: Wavelengths
Number of Pixels in Spectrum: 2048
>>>>>Begin Spectral Data<<<<<
189.047	173.58
189.435	173.58
189.823	173.58
190.211	-87.12
190.599	40.75
190.987	17.39
191.375	-41.09
191.763	-150.06
192.151	-0.61
192.538	21.42
192.926	277.02
193.314	-46.8
193.702	97.78
194.089	462.72
194.477	-269.25
194.864	32.37
195.252	0.08
195.639	3020
196.027	36.16
196.414	1078.81
196.801	83.91
197.189	1191.12
197.576	181.71
197.963	46.74
198.351	-5.95
198.738	7.18
199.125	-65.1
199.512	-9.22
199.899	-1.81
200.286	23.49
200.673	-35.57
201.06	33.45
201.447	-33.9
201.833	30.44
202.22	-5.17
202.607	-502.47
202.994	20.1
203.38	13.68
203.767	12.06
204.154	25.93
204.54	26.33
204.927	-29.85
205.313	24.57
205.699	-13.07
206.086	-5.63
206.472	15.89
206.858	22.69
207.245	-18.67
207.631	-1.28
208.017	-8.09
208.403	-47.74
208.789	-5.42
209.175	-14.68
209.561	26.13
209.947	-63.07
210.333	15.68
210.719	9.33
211.105	16.97
211.491	18.76
211.876	6.9
212.262	33.3
212.648	-26.93
213.034	-31.5
213.419	-7.59
213.805	-13.84
214.19	24.56
214.576	15.62
214.961	-28.67
215.346	-36.43
215.732	35.34
216.117	-24.68
216.502	-31.07
216.888	-45.34
217.273	4.16
217.658	-8.68
218.043	4.04
218.428	1.45
218.813	5.11
219.198	-54.32
219.583	-1.52
219.968	23.53
220.353	-10.52
220.738	5
221.122	4.75
221.507	-33.62
221.892	11.58
222.276	-5.95
222.661	-10.99
223.046	-8.4
223.43	4.77
223.815	4.42
224.199	11.81
224.583	-4.39
224.968	0.21
225.352	-0.34
225.736	15.63
226.121	-7.34
226.505	-6.97
226.889	2.64
227.273	5.26
227.657	8.24
228.041	2.58
228.425	0.1
228.809	0.95
229.193	0.59
229.577	1.53
229.961	2.81
230.344	4.28
230.728	3.91
231.112	3.66
231.495	3.6
231.879	3.31
232.263	2.5
232.646	3.06
233.03	4.33
233.413	1.8
233.797	2.17
234.18	0.79
234.563	1.35
234.946	1.69
235.33	5.35
235.713	3.68
236.096	2.9
236.479	3.83
236.862	3.16
237.245	2.9
237.628	4.48
238.011	5.51
238.394	3.21
238.777	3.39
239.16	2.55
239.543	4.19
239.925	3.46
240.308	3.9
240.691	3.21
241.073	3.06
241.456	3.48
241.838	4.02
242.221	4.21
242.603	3.55
242.986	2.82
243.368	3.95
243.75	3.42
244.133	4
244.515	4.26
244.897	4.27
245.279	3.85
245.661	3.64
246.043	2.76
246.425	4.55
246.807	2.56
247.189	3.79
247.571	4.26
247.953	3.99
248.335	3.79
248.717	3.95
249.098	3.84
249.48	3.77
249.862	3.65
250.243	3.47
250.625	4.09
251.006	4.05
251.388	2.91
251.769	3.85
252.151	3.39
252.532	3.77
252.913	3.82
253.295	3.9
253.676	3.4
254.057	3.46
254.438	4.12
254.819	4.06
255.2	3.23
255.581	2.59
255.962	3.64
256.343	3.77
256.724	3.89
257.105	4.27
257.486	2.92
257.867	2.7
258.247	2.36
258.628	4.72
259.009	2.83
259.389	3.58
259.77	2.76
260.15	3.68
260.531	3.96
260.911	3.78
261.292	3.39
261.672	3.47
262.052	3.68
262.432	3.61
262.813	3.33
263.193	3.83
263.573	3.69
263.953	4.41
264.333	4.77
264.713	4.17
265.093	4.32
265.473	3.69
265.853	3.1
266.233	3.04
266.612	3.49
266.992	3.47
267.372	3.97
267.752	3.66
268.131	3.22
268.511	3.14
268.89	2.95
269.27	2.8
269.649	3.32
270.029	3
270.408	3.65
270.787	3.71
271.167	3.52
271.546	2.94
271.925	4.06
272.304	3.87
272.683	2.97
273.062	3.39
273.441	3.64
273.82	2.89
274.199	3.38
274.578	3.43
274.957	3.27
275.336	3.94
275.715	3.74
276.093	3.43
276.472	4.03
276.851	3.78
277.229	3.15
277.608	3.56
277.986	3.09
278.365	3.54
278.743	2.96
279.122	3.49
279.5	3.17
279.878	2.23
280.257	2.74
280.635	3.05
281.013	3.48
281.391	3.49
281.769	3.52
282.147	3.02
282.525	2.46
282.903	3.41
283.281	3.02
283.659	3.03
284.037	3.61
284.415	3.63
284.792	3.29
285.17	3.02
285.548	3.76
285.925	3.3
286.303	3.36
286.68	3.48
287.058	3.22
287.435	3.4
287.813	3.01
288.19	3.36
288.567	3.49
288.945	3.48
289.322	2.6
289.699	3.53
290.076	3.7
290.453	4.1
290.83	3.49
291.207	3.7
291.584	3.62
291.961	4.04
292.338	3.32
292.715	3.65
293.092	3.64
293.469	3.47
293.845	3.74
294.222	3.76
294.599	3.75
294.975	3.56
295.352	3.92
295.728	3.98
296.105	4.14
296.481	4.32
296.858	3.74
297.234	4.32
297.61	4.18
297.986	4.59
298.363	4.15
298.739	4.04
299.115	3.74
299.491	4
299.867	4.29
300.243	4.03
300.619	4.26
300.995	4.15
301.371	4.1
301.746	4
302.122	4.47
302.498	4.42
302.874	4.4
303.249	4.38
303.625	3.87
304	4.27
304.376	4.17
304.751	4.56
305.127	3.65
305.502	4.99
305.878	4.16
306.253	4.33
306.628	4.65
307.003	4.38
307.378	3.94
307.754	4.04
308.129	4.38
308.504	4.93
308.879	4.4
309.254	4.94
309.629	4.13
310.003	4.73
310.378	4.51
310.753	4.82
311.128	4.63
311.502	3.97
311.877	4.14
312.252	4.17
312.626	4.35
313.001	4.09
313.375	3.96
313.75	4.58
314.124	4.62
314.498	4.35
314.873	4.72
315.247	4.72
315.621	4.29
315.995	4.85
316.369	4.41
316.743	4.42
317.117	3.95
317.491	4.06
317.865	4.58
318.239	4.22
318.613	4.85
318.987	4.78
319.361	3.61
319.734	4.23
320.108	4.39
320.482	4.64
320.855	4.15
321.229	5.21
321.602	5.18
321.976	4.9
322.349	4.99
322.723	5.17
323.096	4.53
323.469	5.77
323.843	5.21
324.216	4.76
324.589	5.13
324.962	5.56
325.335	5.41
325.708	5.08
326.081	4.64
326.454	4.77
326.827	5.19
327.2	4.94
327.573	4.55
327.945	4.74
328.318	5.04
328.691	4.43
329.063	4.83
329.436	4.86
329.809	4.9
330.181	4.61
330.553	4.93
330.926	4.96
331.298	5.08
331.671	4.98
332.043	4.92
332.415	5.29
332.787	4.93
333.159	4.64
333.532	4.81
333.904	5.13
334.276	5.34
334.648	4.78
335.02	4.77
335.391	4.75
335.763	4.83
336.135	5.26
336.507	5.09
336.879	4.14
337.25	4.37
337.622	4.38
337.993	4.4
338.365	4.45
338.736	5.24
339.108	4.34
339.479	4.93
339.851	4.59
340.222	4.29
340.593	4.76
340.964	4.94
341.336	4.92
341.707	4.64
342.078	4.33
342.449	4.59
342.82	5
343.191	5.31
343.562	5.15
343.933	4.9
344.303	5.09
344.674	5
345.045	5.04
345.416	5.15
345.786	4.83
346.157	5.06
346.527	5.11
346.898	4.44
347.268	4.87
347.639	5.2
348.009	5.13
348.38	4.6
348.75	5.03
349.12	5.12
349.49	4.71
349.861	5.34
350.231	4.66
350.601	5.06
350.971	5.35
351.341	4.65
351.711	4.97
352.081	5.08
352.45	4.94
352.82	5.27
353.19	4.63
353.56	4.84
353.929	4.93
354.299	4.45
354.669	4.8
355.038	4.52
355.408	4.97
355.777	4.99
356.147	4.48
356.516	5.17
356.885	5.08
357.254	4.74
357.624	5.02
357.993	5.03
358.362	5.07
358.731	5.1
359.1	4.8
359.469	4.84
359.838	4.63
360.207	5.18
360.576	5.01
360.945	4.7
361.314	5.48
361.682	4.82
362.051	5.35
362.42	5.05
362.788	4.96
363.157	5.35
363.525	5.15
363.894	4.79
364.262	5
364.631	4.62
364.999	5.02
365.367	5.04
365.735	4.83
366.104	4.75
366.472	5.02
366.84	5.27
367.208	4.78
367.576	5.42
367.944	5.27
368.312	5.21
368.68	4.99
369.048	5.5
369.416	5.28
369.783	5.17
370.151	5.03
370.519	4.92
370.886	5.27
371.254	5.14
371.621	5.53
371.989	5.02
372.356	5.03
372.724	5.08
373.091	5.25
373.458	4.87
373.826	5.08
374.193	4.7
374.56	5.39
374.927	5.53
375.294	4.75
375.661	5.19
376.028	5.32
376.395	5.32
376.762	5.56
377.129	5.03
377.496	5.27
377.863	5.14
378.229	5.24
378.596	4.99
378.963	5.1
379.329	4.88
379.696	4.87
380.062	5.34
380.429	5.36
380.795	5.35
381.161	5.63
381.528	5.07
381.894	5.7
382.26	5.27
382.626	5.09
382.993	5.34
383.359	4.94
383.725	5.29
384.091	5.3
384.457	5.1
384.823	5.33
385.188	5
385.554	5.35
385.92	5.27
386.286	5.36
386.651	5.16
387.017	5.48
387.383	5.28
387.748	5.4
388.114	4.95
388.479	5.28
388.845	5.11
389.21	5.31
389.575	4.93
389.94	5.2
390.306	5.27
390.671	5.19
391.036	5.39
391.401	5.33
391.766	5.11
392.131	5.21
392.496	4.95
392.861	5.27
393.226	5.25
393.591	4.92
393.956	5.37
394.32	5.4
394.685	5.34
395.05	4.9
395.414	5.38
395.779	5.21
396.143	5.42
396.508	5.07
396.872	5.44
397.236	5.47
397.601	5.39
397.965	5.57
398.329	5.37
398.694	5.43
399.058	5.52
399.422	5.08
399.786	5.33
400.15	5.02
400.514	5.75
400.878	5.23
401.242	5.35
401.605	5.54
401.969	5.22
402.333	5.39
402.697	5.26
403.06	5.37
403.424	5.54
403.787	4.97
404.151	5.62
404.514	5.06
404.878	5.14
405.241	5.55
405.604	5.28
405.968	5.31
406.331	5.51
406.694	5.47
407.057	5.21
407.42	5.38
407.783	5.27
408.146	5.4
408.509	5.13
408.872	5.42
409.235	5.43
409.598	5.37
409.961	5.7
410.323	5.56
410.686	5.41
411.049	5.7
411.411	5.7
411.774	5.56
412.136	5.6
412.499	5.3
412.861	5.49
413.223	5.74
413.586	5.33
413.948	5.51
414.31	5.73
414.672	5.34
415.035	5.2
415.397	5.57
415.759	5.49
416.121	5.66
416.483	5.52
416.845	5.37
417.206	5.63
417.568	5.41
417.93	5.52
418.292	5.52
418.653	5.59
419.015	5.6
419.377	5.36
419.738	5.48
420.1	5.4
420.461	5.42
420.822	5.5
421.184	5.39
421.545	5.6
421.906	5.41
422.267	5.39
422.629	5.44
422.99	5.47
423.351	5.47
423.712	5.37
424.073	5.4
424.434	5.48
424.795	5.44
425.155	5.32
425.516	5.33
425.877	5.57
426.238	5.37
426.598	5.48
426.959	5.5
427.32	5.58
427.68	5.45
428.041	5.67
428.401	5.59
428.761	5.63
429.122	5.67
429.482	5.81
429.842	5.75
430.202	5.66
430.563	5.6
430.923	5.61
431.283	5.61
431.643	5.66
432.003	5.56
432.363	5.66
432.722	5.56
433.082	5.68
433.442	5.73
433.802	5.84
434.161	5.73
434.521	5.58
434.881	5.52
435.24	5.63
435.6	5.69
435.959	5.81
436.319	5.81
436.678	5.83
437.037	5.64
437.396	5.61
437.756	5.75
438.115	5.73
438.474	5.64
438.833	5.78
439.192	5.79
439.551	5.77
439.91	5.65
440.269	5.68
440.628	5.64
440.987	5.56
441.345	5.65
441.704	5.75
442.063	5.69
442.421	5.79
442.78	5.68
443.138	5.76
443.497	5.79
443.855	5.82
444.214	5.74
444.572	5.85
444.93	5.9
445.288	5.65
445.647	5.79
446.005	5.84
446.363	5.71
446.721	5.72
447.079	5.77
447.437	5.55
447.795	5.77
448.153	5.77
448.51	5.79
448.868	5.79
449.226	5.74
449.584	5.82
449.941	5.82
450.299	5.84
450.656	5.84
451.014	5.86
451.371	5.88
451.729	5.86
452.086	5.86
452.443	6.09
452.801	6.04
453.158	5.79
453.515	6.03
453.872	6.05
454.229	6
454.586	5.81
454.943	5.9
455.3	5.83
455.657	5.89
456.014	6.09
456.371	6.1
456.727	6.17
457.084	6.02
457.441	6.03
457.797	6.06
458.154	6
458.51	5.9
458.867	6.09
459.223	6.08
459.58	5.94
459.936	5.81
460.292	5.97
460.648	6.02
461.005	5.94
461.361	5.89
461.717	5.95
462.073	5.9
462.429	5.92
462.785	6.05
463.141	6.02
463.496	6.02
463.852	6.34
464.208	6.21
464.564	6.09
464.919	6.26
465.275	6.12
465.631	6.08
465.986	6.11
466.342	5.95
466.697	6.15
467.052	6.31
467.408	6.09
467.763	6.24
468.118	6.11
468.473	6.24
468.829	6.17
469.184	5.91
469.539	6.17
469.894	6.2
470.249	6.14
470.603	6.18
470.958	6.16
471.313	6.34
471.668	6.3
472.023	6.25
472.377	6.14
472.732	6.07
473.086	6.22
473.441	6.38
473.795	6.35
474.15	6.23
474.504	6.07
474.859	6.15
475.213	6.08
475.567	6.32
475.921	6.33
476.275	6.31
476.63	6.2
476.984	6.41
477.338	6.25
477.692	6.31
478.045	6.29
478.399	6.24
478.753	6.23
479.107	6.23
479.461	6.31
479.814	6.34
480.168	6.13
480.521	6.13
480.875	6.29
481.228	6.36
481.582	6.45
481.935	6.44
482.289	6.39
482.642	6.47
482.995	6.37
483.348	6.24
483.701	6.48
484.055	6.33
484.408	6.2
484.761	6.26
485.114	6.09
485.466	6.01
485.819	5.97
486.172	5.99
486.525	6.07
486.878	6.1
487.23	6.16
487.583	6.16
487.936	6.28
488.288	6.25
488.641	6.17
488.993	6.17
489.345	6.12
489.698	6.12
490.05	6.15
490.402	6.21
490.754	6.22
491.107	6.26
491.459	6.4
491.811	6.36
492.163	6.38
492.515	6.42
492.866	6.27
493.218	6.32
493.57	6.23
493.922	6.21
494.274	6.29
494.625	6.41
494.977	6.5
495.328	6.55
495.68	6.47
496.031	6.75
496.383	6.57
496.734	6.55
497.086	6.46
497.437	6.54
497.788	6.6
498.139	6.56
498.49	6.73
498.842	6.57
499.193	6.6
499.544	6.48
499.894	6.59
500.245	6.66
500.596	6.68
500.947	6.67
501.298	6.73
501.648	6.72
501.999	6.69
502.35	6.73
502.7	6.74
503.051	6.8
503.401	6.73
503.752	7.06
504.102	6.65
504.452	6.68
504.803	6.81
505.153	6.92
505.503	6.81
505.853	6.91
506.203	6.9
506.553	6.85
506.903	6.86
507.253	6.96
507.603	6.95
507.953	6.81
508.303	6.97
508.652	6.95
509.002	7
509.352	6.91
509.701	7
510.051	6.82
510.4	6.87
510.75	6.82
511.099	6.76
511.449	6.93
511.798	6.97
512.147	6.94
512.496	7.05
512.846	7.01
513.195	6.9
513.544	7.09
513.893	7.03
514.242	6.98
514.591	6.92
514.939	7
515.288	7.02
515.637	7.05
515.986	7.07
516.334	7.18
516.683	7.02
517.032	7.22
517.38	7.09
517.729	7.24
518.077	7.1
518.426	7.18
518.774	7.17
519.122	7.08
519.47	7.1
519.819	7.05
520.167	7.01
520.515	7.04
520.863	7.05
521.211	7.06
521.559	7.2
521.907	7.11
522.255	7.2
522.602	7.39
522.95	7.26
523.298	7.13
523.645	7.33
523.993	7.39
524.341	7.49
524.688	7.31
525.036	7.36
525.383	7.38
525.73	7.31
526.078	7.41
526.425	7.41
526.772	7.42
527.119	7.34
527.466	7.4
527.814	7.27
528.161	7.35
528.508	7.38
528.854	7.41
529.201	7.34
529.548	7.34
529.895	7.23
530.242	7.1
530.588	7.12
530.935	7.16
531.282	7.22
531.628	7.3
531.975	7.28
532.321	7.34
532.667	7.39
533.014	7.46
533.36	7.48
533.706	7.48
534.052	7.54
534.399	7.64
534.745	7.44
535.091	7.43
535.437	7.48
535.783	7.45
536.129	7.55
536.474	7.55
536.82	7.68
537.166	7.81
537.512	7.7
537.857	7.81
538.203	7.82
538.549	7.72
538.894	7.77
539.239	7.8
539.585	7.82
539.93	7.89
540.276	7.78
540.621	7.92
540.966	7.86
541.311	7.83
541.656	7.94
542.001	7.92
542.346	7.86
542.691	7.86
543.036	7.76
543.381	7.66
543.726	7.81
544.071	7.79
544.415	7.88
544.76	7.88
545.105	7.93
545.449	8.04
545.794	8.05
546.138	7.98
546.483	8.1
546.827	8.17
547.171	8.25
547.516	8.29
547.86	8.26
548.204	8.19
548.548	8.3
548.892	8.29
549.236	8.27
549.58	8.26
549.924	8.24
550.268	8.4
550.612	8.43
550.956	8.56
551.3	8.6
551.643	8.59
551.987	8.61
552.33	8.62
552.674	8.66
553.017	8.64
553.361	8.7
553.704	8.43
554.048	8.65
554.391	8.66
554.734	8.58
555.077	8.83
555.42	8.61
555.764	8.86
556.107	8.74
556.45	8.73
556.793	8.66
557.135	8.81
557.478	8.71
557.821	8.83
558.164	8.83
558.507	8.96
558.849	8.91
559.192	9.04
559.534	8.97
559.877	8.85
560.219	8.73
560.562	8.98
560.904	9.1
561.246	9.04
561.589	9.21
561.931	8.97
562.273	8.89
562.615	9.06
562.957	9.09
563.299	9.34
563.641	9.31
563.983	9.28
564.325	9.08
564.667	9.24
565.008	9.02
565.35	9.11
565.692	9.28
566.033	9.34
566.375	9.37
566.716	9.25
567.058	9.47
567.399	9.46
567.741	9.47
568.082	9.47
568.423	9.41
568.764	9.5
569.105	9.35
569.447	9.53
569.788	9.56
570.129	9.49
570.47	9.59
570.811	9.82
571.151	9.65
571.492	9.71
571.833	9.66
572.174	9.59
572.514	9.67
572.855	9.94
573.195	9.67
573.536	9.69
573.876	9.74
574.217	9.94
574.557	9.72
574.898	9.75
575.238	9.87
575.578	9.77
575.918	9.73
576.258	9.99
576.598	10
576.938	10.04
577.278	10.26
577.618	10.02
577.958	9.97
578.298	10.07
578.638	10.13
578.977	10.2
579.317	10.32
579.657	10.15
579.996	10.31
580.336	10.21
580.675	10.3
581.014	10.23
581.354	10.39
581.693	10.44
582.032	10.27
582.372	10.54
582.711	10.39
583.05	10.31
583.389	10.55
583.728	10.53
584.067	10.87
584.406	10.58
584.745	10.77
585.083	10.43
585.422	10.88
585.761	10.92
586.1	10.56
586.438	10.85
586.777	10.9
587.115	10.79
587.454	10.85
587.792	10.43
588.13	10.93
588.469	10.88
588.807	10.86
589.145	10.93
589.483	11.06
589.821	11.02
590.159	10.99
590.497	11.09
590.835	11.04
591.173	11.13
591.511	11.16
591.849	10.94
592.187	11.07
592.524	11.06
592.862	11.23
593.2	11.03
593.537	10.89
593.875	11.54
594.212	11.53
594.55	11.59
594.887	11.46
595.224	11.31
595.561	11.5
595.899	11.31
596.236	11.4
596.573	11.58
596.91	11.82
597.247	11.64
597.584	11.63
597.921	11.53
598.258	11.59
598.594	11.69
598.931	11.41
599.268	11.55
599.604	11.48
599.941	11.68
600.277	11.71
600.614	11.88
600.95	11.78
601.287	11.77
601.623	11.92
601.959	11.93
602.296	12.13
602.632	12.03
602.968	11.99
603.304	11.93
603.64	11.84
603.976	11.98
604.312	12.01
604.648	12.23
604.984	12.1
605.319	12.07
605.655	12.11
605.991	12.22
606.326	12.06
606.662	12.31
606.998	12.2
607.333	12.01
607.668	12.39
608.004	12.38
608.339	12.38
608.674	12.25
609.01	12.12
609.345	12.43
609.68	12.93
610.015	12.48
610.35	12.64
610.685	12.64
611.02	12.57
611.355	12.42
611.689	12.53
612.024	12.56
612.359	12.76
612.694	12.63
613.028	12.69
613.363	12.73
613.697	12.7
614.032	12.86
614.366	13.04
614.7	12.87
615.035	12.6
615.369	12.96
615.703	12.7
616.037	12.77
616.371	12.86
616.705	13.11
617.039	13.07
617.373	13.09
617.707	13.1
618.041	13.49
618.375	13.05
618.709	12.95
619.042	13.24
619.376	13.14
619.71	13.38
620.043	13.15
620.377	13.13
620.71	13.15
621.043	13.35
621.377	12.85
621.71	13.34
622.043	13.53
622.376	13.42
622.709	13.93
623.043	13.29
623.376	14.02
623.709	13.67
624.041	13.62
624.374	13.65
624.707	13.54
625.04	13.86
625.373	14.31
625.705	14.04
626.038	13.82
626.37	13.73
626.703	13.92
627.035	13.64
627.368	13.81
627.7	13.48
628.032	13.84
628.365	14.03
628.697	14.03
629.029	13.44
629.361	13.74
629.693	14.03
630.025	13.61
630.357	14.35
630.689	13.97
631.021	14.47
631.353	14.34
631.684	14.18
632.016	14.48
632.348	14.39
632.679	14.28
633.011	14.41
633.342	14.21
633.674	14.42
634.005	14.45
634.336	14.57
634.668	14.66
634.999	14.39
635.33	14.49
635.661	14.52
635.992	14.48
636.323	14.22
636.654	14.59
636.985	14.6
637.316	14.65
637.647	14.8
637.977	14.77
638.308	14.97
638.639	14.64
638.969	14.98
639.3	14.51
639.63	15.07
639.961	14.87
640.291	14.21
640.622	14.95
640.952	15.42
641.282	14.94
641.612	15.06
641.943	14.83
642.273	15.14
642.603	15.49
642.933	15.26
643.263	15
643.592	15.75
643.922	15.6
644.252	15.53
644.582	14.81
644.911	15.38
645.241	14.98
645.571	15.49
645.9	14.91
646.23	15.19
646.559	15.56
646.888	15.31
647.218	15.75
647.547	15.16
647.876	15.52
648.205	15.6
648.534	15.98
648.863	15.32
649.192	15.98
649.521	15.71
649.85	15.4
650.179	16.05
650.508	15.72
650.837	16.12
651.165	15.01
651.494	15.31
651.822	15.51
652.151	16.16
652.479	15.86
652.808	15.82
653.136	16.23
653.465	15.96
653.793	16.23
654.121	16.03
654.449	16.14
654.777	15.87
655.105	16.45
655.433	16.37
655.761	16.2
656.089	15.81
656.417	16.49
656.745	16.7
657.073	16
657.4	16.38
657.728	15.93
658.056	16.54
658.383	16.03
658.711	16.28
659.038	16.4
659.365	16.44
659.693	16.43
660.02	16.4
660.347	16.34
660.674	16.42
661.001	16.79
661.329	16.71
661.656	16.32
661.982	16.45
662.309	16.85
662.636	16.38
662.963	16.61
663.29	17.07
663.616	16.82
663.943	16.67
664.27	16.81
664.596	17.5
664.923	17.79
665.249	16.58
665.576	16.94
665.902	17.07
666.228	17.01
666.554	16.75
666.881	16.46
667.207	17.43
667.533	16.99
667.859	17.26
668.185	17.31
668.511	17.34
668.837	17.06
669.162	18.07
669.488	17.19
669.814	16.75
670.139	17.37
670.465	16.8
670.791	17.32
671.116	16.55
671.442	16.89
671.767	17.92
672.092	18.19
672.418	17.74
672.743	17.73
673.068	17.46
673.393	17.79
673.718	17.32
674.043	17.8
674.368	16.8
674.693	17.18
675.018	17.05
675.343	17.32
675.667	17.29
675.992	17.59
676.317	17.45
676.641	18.2
676.966	17.26
677.29	17.08
677.615	18.21
677.939	17.38
678.264	18.7
678.588	17.9
678.912	17.99
679.236	17.82
679.56	18.21
679.885	18.57
680.209	18.1
680.532	18.34
680.856	18.23
681.18	18.48
681.504	17.95
681.828	18.06
682.152	18.07
682.475	18.54
682.799	18.56
683.122	18.81
683.446	18.4
683.769	19.62
684.093	18.09
684.416	18.12
684.739	18.73
685.062	18.66
685.386	18.41
