Data from 428_crown_Reflection__2__84.txt Node

Date: Tue Dec 12 18:52:44 CST 2023
User: ToomeyLab
Spectrometer: FLMS14357
Trigger mode: 0
Integration Time (sec): 1.000000E-2
Scans to average: 100
Electric dark correction enabled: true
Nonlinearity correction enabled: false
Boxcar width: 0
XAxis mode: Wavelengths
Number of Pixels in Spectrum: 2048
>>>>>Begin Spectral Data<<<<<
189.047	-430.97
189.435	-430.97
189.823	-430.97
190.211	-221.66
190.599	-3.34
190.987	77.22
191.375	292.25
191.763	-168.54
192.151	89.97
192.538	-2.16
192.926	11.82
193.314	74.82
193.702	40.96
194.089	170.13
194.477	99.24
194.864	37.04
195.252	50.12
195.639	-349.52
196.027	76.47
196.414	-827.15
196.801	71.28
197.189	-484.97
197.576	71.65
197.963	7.03
198.351	31.32
198.738	33.13
199.125	-2.8
199.512	-9.4
199.899	15.81
200.286	-6.94
200.673	-16.57
201.06	-35.63
201.447	-76.11
201.833	-41.02
202.22	27.13
202.607	-266.48
202.994	-40.74
203.38	42.52
203.767	-13.76
204.154	20.51
204.54	47.62
204.927	-24.8
205.313	16.95
205.699	-6.98
206.086	13.02
206.472	30.26
206.858	-9.34
207.245	-17.04
207.631	51.01
208.017	12.68
208.403	5.36
208.789	-7.14
209.175	-10.9
209.561	53.63
209.947	-28.35
210.333	-12.63
210.719	-11.27
211.105	-20.56
211.491	-13.16
211.876	-3.89
212.262	7.24
212.648	-26.41
213.034	-45.01
213.419	-2.63
213.805	-6.62
214.19	18.45
214.576	10.07
214.961	21.81
215.346	-18.59
215.732	19.07
216.117	-3.1
216.502	-13.14
216.888	-40.34
217.273	-14.75
217.658	-17.72
218.043	-26.58
218.428	10.7
218.813	-8.73
219.198	-43.99
219.583	1.09
219.968	2.57
220.353	-4.81
220.738	19.17
221.122	18.45
221.507	-15.06
221.892	-12.24
222.276	-6.71
222.661	-11.92
223.046	-8.4
223.43	6.93
223.815	9.48
224.199	0.4
224.583	-4.44
224.968	5.15
225.352	-5.99
225.736	7.3
226.121	-1.16
226.505	-0.3
226.889	2.39
227.273	0.88
227.657	9.72
228.041	2.99
228.425	-1.87
228.809	1.6
229.193	-0.76
229.577	3.24
229.961	1.67
230.344	2.95
230.728	3.63
231.112	2.37
231.495	2.73
231.879	2.81
232.263	1.14
232.646	2.14
233.03	2.1
233.413	1.55
233.797	1.96
234.18	0.03
234.563	0.5
234.946	0.18
235.33	4.61
235.713	3.27
236.096	1.89
236.479	2.05
236.862	2.58
237.245	2
237.628	2.51
238.011	1.2
238.394	-0.01
238.777	2.45
239.16	2.27
239.543	2.68
239.925	1.14
240.308	2.47
240.691	0.17
241.073	2.4
241.456	2.31
241.838	3.16
242.221	2.37
242.603	2.42
242.986	1.61
243.368	2.76
243.75	2.4
244.133	2.65
244.515	2.75
244.897	2.87
245.279	2.67
245.661	2
246.043	2.29
246.425	3.45
246.807	2.53
247.189	2.93
247.571	2.88
247.953	2.21
248.335	2.69
248.717	2.7
249.098	2.71
249.48	2.41
249.862	2.47
250.243	2.18
250.625	3.08
251.006	2.32
251.388	2.74
251.769	1.79
252.151	1.23
252.532	3.16
252.913	2.87
253.295	2.76
253.676	1.37
254.057	2.01
254.438	2.62
254.819	2.41
255.2	1.73
255.581	2.92
255.962	1.89
256.343	1.31
256.724	1.53
257.105	3.24
257.486	0.8
257.867	1.48
258.247	1.37
258.628	1.86
259.009	1.94
259.389	1.66
259.77	2.07
260.15	2.48
260.531	2.71
260.911	3.05
261.292	1.88
261.672	2.41
262.052	2.44
262.432	2.53
262.813	2.56
263.193	2.47
263.573	3.16
263.953	2.98
264.333	3.02
264.713	2.83
265.093	3.25
265.473	2.88
265.853	2.22
266.233	1.13
266.612	0.94
266.992	1.86
267.372	2.93
267.752	3.26
268.131	1.58
268.511	1.84
268.89	1.38
269.27	1.87
269.649	2.55
270.029	1.55
270.408	3.09
270.787	2.24
271.167	2.71
271.546	2.51
271.925	3.21
272.304	2.92
272.683	2.04
273.062	2.17
273.441	2.35
273.82	1.92
274.199	2.09
274.578	2.48
274.957	2.2
275.336	1.99
275.715	2.62
276.093	1.87
276.472	1.97
276.851	2.01
277.229	1.75
277.608	2.12
277.986	1.66
278.365	2.45
278.743	2.11
279.122	3.34
279.5	2.15
279.878	0.93
280.257	2.5
280.635	2.52
281.013	1.91
281.391	2.45
281.769	2.68
282.147	2.62
282.525	1.87
282.903	1.39
283.281	2.09
283.659	2.63
284.037	2.35
284.415	1.96
284.792	2.43
285.17	2
285.548	2.17
285.925	1.68
286.303	2.22
286.68	1.73
287.058	2.12
287.435	2.26
287.813	1.78
288.19	2.27
288.567	2.13
288.945	2.31
289.322	1.65
289.699	1.81
290.076	2.11
290.453	2.31
290.83	1.94
291.207	2.39
291.584	1.95
291.961	2.23
292.338	1.82
292.715	1.77
293.092	2.02
293.469	2.08
293.845	2.35
294.222	2.69
294.599	1.83
294.975	1.43
295.352	2.07
295.728	2.31
296.105	2.66
296.481	2.54
296.858	1.98
297.234	2.37
297.61	2.08
297.986	2.38
298.363	2.29
298.739	2.23
299.115	2
299.491	2.07
299.867	2.05
300.243	2.03
300.619	2.15
300.995	2.14
301.371	2.25
301.746	2.4
302.122	3.13
302.498	1.86
302.874	2.46
303.249	2.87
303.625	2.23
304	2.96
304.376	2.47
304.751	2.56
305.127	2.18
305.502	2.53
305.878	1.96
306.253	1.72
306.628	2.09
307.003	2.04
307.378	2.32
307.754	2.48
308.129	2.11
308.504	2.86
308.879	1.88
309.254	2.19
309.629	2.82
310.003	2.83
310.378	2.12
310.753	1.93
311.128	3.08
311.502	1.94
311.877	2.05
312.252	1.64
312.626	2.27
313.001	2.14
313.375	1.78
313.75	2.75
314.124	2.2
314.498	2.59
314.873	1.94
315.247	2.38
315.621	2.01
315.995	2.5
316.369	2.13
316.743	1.77
317.117	1.88
317.491	2.23
317.865	2.39
318.239	2.16
318.613	2.01
318.987	3.1
319.361	1.41
319.734	2.32
320.108	2.66
320.482	2.69
320.855	2.09
321.229	2.34
321.602	2.07
321.976	2.54
322.349	2.49
322.723	2.13
323.096	1.96
323.469	3.09
323.843	3.59
324.216	2.38
324.589	2.58
324.962	2.7
325.335	2.81
325.708	2.01
326.081	2.48
326.454	1.92
326.827	2.92
327.2	2.68
327.573	2.2
327.945	2.65
328.318	2.64
328.691	2.08
329.063	2.6
329.436	2.41
329.809	2.4
330.181	1.82
330.553	2.07
330.926	2.2
331.298	2.17
331.671	2.73
332.043	2.51
332.415	2.32
332.787	2.47
333.159	2.6
333.532	2.73
333.904	1.95
334.276	3.12
334.648	2.09
335.02	2.61
335.391	2.36
335.763	2.75
336.135	2.81
336.507	2.64
336.879	2.12
337.25	2.06
337.622	2.24
337.993	2.49
338.365	2.27
338.736	2.83
339.108	2.27
339.479	2.54
339.851	1.82
340.222	1.62
340.593	2.54
340.964	2.27
341.336	2.71
341.707	1.93
342.078	2.16
342.449	2.01
342.82	2.72
343.191	2.64
343.562	2.68
343.933	2.8
344.303	2.71
344.674	2.65
345.045	2.44
345.416	2.46
345.786	1.92
346.157	2.1
346.527	2.73
346.898	2.05
347.268	2.63
347.639	2.35
348.009	2.04
348.38	2.25
348.75	2.98
349.12	2.63
349.49	2.69
349.861	2.96
350.231	2.29
350.601	2.93
350.971	1.98
351.341	2.44
351.711	2.68
352.081	2.63
352.45	2.24
352.82	2.61
353.19	2.21
353.56	2.02
353.929	1.98
354.299	1.98
354.669	2.57
355.038	2.17
355.408	2.43
355.777	2.8
356.147	2.27
356.516	2.99
356.885	2.4
357.254	2.03
357.624	2.11
357.993	1.81
358.362	2.37
358.731	2.31
359.1	2.41
359.469	2.4
359.838	2.36
360.207	2.45
360.576	2.7
360.945	2.11
361.314	2.62
361.682	2.56
362.051	2.84
362.42	2.57
362.788	2.53
363.157	2.86
363.525	2.81
363.894	2.25
364.262	2.56
364.631	2.09
364.999	2.49
365.367	2.72
365.735	2.36
366.104	2.46
366.472	2.44
366.84	2.62
367.208	2.52
367.576	2.45
367.944	2.77
368.312	2.58
368.68	2.49
369.048	2.89
369.416	2.51
369.783	2.21
370.151	2.47
370.519	2.55
370.886	2.38
371.254	2.33
371.621	2.92
371.989	2.43
372.356	2.43
372.724	2.35
373.091	2.4
373.458	2.52
373.826	2.42
374.193	2.13
374.56	2.39
374.927	2.6
375.294	2.21
375.661	2.58
376.028	2.65
376.395	2.72
376.762	2.87
377.129	2.48
377.496	2.66
377.863	2.46
378.229	2.39
378.596	2.54
378.963	2.87
379.329	2.48
379.696	2.32
380.062	2.71
380.429	2.68
380.795	2.73
381.161	2.76
381.528	2.72
381.894	2.66
382.26	2.08
382.626	2.44
382.993	2.65
383.359	2.44
383.725	2.35
384.091	2.74
384.457	2.58
384.823	2.64
385.188	2.37
385.554	2.88
385.92	2.42
386.286	2.79
386.651	2.65
387.017	2.76
387.383	2.69
387.748	2.58
388.114	2.65
388.479	2.77
388.845	2.62
389.21	2.38
389.575	2.64
389.94	2.63
390.306	2.68
390.671	2.38
391.036	2.39
391.401	2.33
391.766	2.53
392.131	2.47
392.496	2.39
392.861	2.62
393.226	2.87
393.591	2.48
393.956	2.58
394.32	2.68
394.685	2.6
395.05	2.47
395.414	2.7
395.779	2.47
396.143	2.82
396.508	2.51
396.872	2.63
397.236	2.76
397.601	2.4
397.965	2.63
398.329	2.55
398.694	2.44
399.058	2.67
399.422	2.37
399.786	2.41
400.15	2.3
400.514	2.68
400.878	2.67
401.242	2.57
401.605	2.56
401.969	2.68
402.333	2.61
402.697	2.56
403.06	2.34
403.424	2.67
403.787	2.73
404.151	2.66
404.514	2.38
404.878	2.59
405.241	2.52
405.604	2.58
405.968	2.54
406.331	2.61
406.694	2.78
407.057	2.57
407.42	2.74
407.783	2.44
408.146	2.64
408.509	2.79
408.872	2.43
409.235	2.54
409.598	2.67
409.961	2.63
410.323	2.66
410.686	2.71
411.049	2.68
411.411	2.62
411.774	2.82
412.136	2.95
412.499	2.7
412.861	2.7
413.223	3.07
413.586	2.63
413.948	2.48
414.31	2.88
414.672	2.73
415.035	2.78
415.397	2.65
415.759	2.6
416.121	2.58
416.483	2.62
416.845	2.71
417.206	2.82
417.568	2.48
417.93	2.81
418.292	2.69
418.653	2.75
419.015	2.67
419.377	2.65
419.738	2.58
420.1	2.72
420.461	2.75
420.822	2.76
421.184	2.53
421.545	2.94
421.906	2.56
422.267	2.68
422.629	2.59
422.99	2.65
423.351	2.64
423.712	2.58
424.073	2.65
424.434	2.67
424.795	2.74
425.155	2.53
425.516	2.53
425.877	2.58
426.238	2.61
426.598	2.59
426.959	2.65
427.32	2.65
427.68	2.62
428.041	2.71
428.401	2.69
428.761	2.59
429.122	2.77
429.482	2.96
429.842	2.67
430.202	2.6
430.563	2.79
430.923	2.83
431.283	2.53
431.643	2.8
432.003	2.56
432.363	2.8
432.722	2.56
433.082	2.64
433.442	2.71
433.802	2.66
434.161	2.68
434.521	2.73
434.881	2.69
435.24	2.82
435.6	2.68
435.959	2.84
436.319	2.88
436.678	2.92
437.037	2.73
437.396	2.52
437.756	2.68
438.115	2.68
438.474	2.66
438.833	2.87
439.192	2.87
439.551	2.65
439.91	2.51
440.269	2.8
440.628	2.69
440.987	2.58
441.345	2.72
441.704	2.75
442.063	2.82
442.421	2.79
442.78	2.76
443.138	2.7
443.497	2.75
443.855	2.76
444.214	2.72
444.572	2.8
444.93	2.87
445.288	2.7
445.647	2.85
446.005	2.77
446.363	2.66
446.721	2.7
447.079	2.7
447.437	2.59
447.795	2.82
448.153	2.82
448.51	2.78
448.868	2.79
449.226	2.85
449.584	2.72
449.941	2.69
450.299	2.72
450.656	2.77
451.014	2.72
451.371	2.78
451.729	2.83
452.086	2.64
452.443	2.92
452.801	2.92
453.158	2.77
453.515	2.82
453.872	2.71
454.229	2.89
454.586	2.75
454.943	2.68
455.3	2.62
455.657	2.76
456.014	2.84
456.371	2.9
456.727	2.77
457.084	2.75
457.441	2.78
457.797	2.79
458.154	2.83
458.51	2.65
458.867	2.9
459.223	2.72
459.58	2.8
459.936	2.58
460.292	2.86
460.648	2.91
461.005	2.8
461.361	2.76
461.717	2.85
462.073	2.67
462.429	2.83
462.785	2.76
463.141	2.76
463.496	2.62
463.852	2.99
464.208	2.88
464.564	2.92
464.919	3.02
465.275	2.96
465.631	2.96
465.986	2.92
466.342	2.56
466.697	2.72
467.052	3.11
467.408	2.92
467.763	2.97
468.118	2.86
468.473	2.92
468.829	2.84
469.184	2.66
469.539	2.87
469.894	3.05
470.249	2.95
470.603	2.93
470.958	2.95
471.313	3.27
471.668	2.98
472.023	2.93
472.377	2.85
472.732	2.81
473.086	2.79
473.441	2.78
473.795	2.78
474.15	2.98
474.504	2.62
474.859	2.73
475.213	2.76
475.567	2.87
475.921	2.93
476.275	2.73
476.63	2.85
476.984	2.85
477.338	2.86
477.692	2.86
478.045	2.93
478.399	2.77
478.753	2.8
479.107	2.9
479.461	2.91
479.814	2.84
480.168	2.69
480.521	2.72
480.875	2.89
481.228	3
481.582	2.9
481.935	2.82
482.289	2.77
482.642	3
482.995	2.85
483.348	2.77
483.701	2.9
484.055	2.77
484.408	2.82
484.761	2.83
485.114	2.67
485.466	2.67
485.819	2.66
486.172	2.69
486.525	2.76
486.878	2.76
487.23	2.76
487.583	2.76
487.936	2.89
488.288	2.8
488.641	2.85
488.993	2.75
489.345	2.74
489.698	2.69
490.05	2.75
490.402	2.83
490.754	2.82
491.107	2.76
491.459	2.81
491.811	2.88
492.163	2.84
492.515	2.86
492.866	2.81
493.218	2.74
493.57	2.74
493.922	2.74
494.274	2.85
494.625	2.9
494.977	2.92
495.328	2.96
495.68	2.89
496.031	3
496.383	3.03
496.734	3.03
497.086	2.91
497.437	2.96
497.788	2.92
498.139	2.88
498.49	3.01
498.842	2.9
499.193	2.93
499.544	2.92
499.894	2.85
500.245	3.02
500.596	2.99
500.947	2.93
501.298	3
501.648	2.91
501.999	3.03
502.35	2.89
502.7	3.05
503.051	2.82
503.401	2.93
503.752	2.98
504.102	2.85
504.452	3.06
504.803	3.01
505.153	2.97
505.503	2.97
505.853	2.97
506.203	3.07
506.553	3
506.903	3.04
507.253	2.92
507.603	2.92
507.953	2.98
508.303	2.93
508.652	2.93
509.002	3.06
509.352	2.91
509.701	3.03
510.051	2.88
510.4	2.97
510.75	3.01
511.099	2.89
511.449	2.96
511.798	2.91
512.147	3
512.496	3.11
512.846	2.98
513.195	2.89
513.544	2.93
513.893	2.98
514.242	2.84
514.591	2.98
514.939	3
515.288	2.85
515.637	2.82
515.986	2.98
516.334	3.01
516.683	2.93
517.032	3.06
517.38	2.86
517.729	3
518.077	3.02
518.426	3.03
518.774	2.9
519.122	2.93
519.47	2.93
519.819	2.84
520.167	2.91
520.515	2.87
520.863	2.93
521.211	2.88
521.559	2.91
521.907	2.93
522.255	3.07
522.602	3.05
522.95	2.95
523.298	2.95
523.645	3.05
523.993	3.08
524.341	2.98
524.688	2.98
525.036	3.11
525.383	3.01
525.73	2.9
526.078	3.01
526.425	2.9
526.772	2.85
527.119	2.92
527.466	3.01
527.814	2.84
528.161	2.98
528.508	3.08
528.854	2.96
529.201	2.91
529.548	2.95
529.895	2.87
530.242	2.78
530.588	2.79
530.935	2.84
531.282	2.89
531.628	2.89
531.975	2.93
532.321	2.88
532.667	2.82
533.014	2.9
533.36	2.96
533.706	2.92
534.052	2.91
534.399	2.95
534.745	2.91
535.091	2.9
535.437	2.89
535.783	2.88
536.129	3.01
536.474	2.87
536.82	2.94
537.166	3.04
537.512	3
537.857	3.01
538.203	3.01
538.549	2.99
538.894	3.01
539.239	2.99
539.585	3.02
539.93	3.04
540.276	3.01
540.621	2.94
540.966	2.94
541.311	3.02
541.656	3.05
542.001	3.03
542.346	2.89
542.691	2.91
543.036	2.84
543.381	2.82
543.726	2.87
544.071	2.94
544.415	2.92
544.76	2.95
545.105	2.95
545.449	3.03
545.794	2.99
546.138	2.79
546.483	3
546.827	3.05
547.171	3.02
547.516	2.94
547.86	3.17
548.204	3.05
548.548	2.99
548.892	2.96
549.236	2.97
549.58	3.08
549.924	3.09
550.268	3.01
550.612	2.99
550.956	3.06
551.3	3.15
551.643	3.06
551.987	3.22
552.33	2.99
552.674	3.09
553.017	3.09
553.361	3.22
553.704	3.11
554.048	3.02
554.391	3.11
554.734	2.83
555.077	3.08
555.42	2.96
555.764	3.22
556.107	3.1
556.45	3.09
556.793	3.06
557.135	3.05
557.478	3.07
557.821	3.02
558.164	3.05
558.507	3.3
558.849	3
559.192	3.2
559.534	3.05
559.877	3.11
560.219	2.95
560.562	3.1
560.904	3.12
561.246	3.15
561.589	3.19
561.931	2.81
562.273	2.99
562.615	2.98
562.957	3.15
563.299	3.23
563.641	3.22
563.983	3.24
564.325	3.25
564.667	3.17
565.008	3.08
565.35	2.97
565.692	2.93
566.033	3.05
566.375	3.07
566.716	3.08
567.058	3.27
567.399	3.32
567.741	3.1
568.082	3.17
568.423	3.06
568.764	3.29
569.105	3.1
569.447	3.31
569.788	3.11
570.129	3.18
570.47	3.08
570.811	3.08
571.151	3.24
571.492	3.15
571.833	3.11
572.174	3.23
572.514	3.28
572.855	3.09
573.195	2.95
573.536	3.09
573.876	3.05
574.217	3.16
574.557	3
574.898	3.12
575.238	3.19
575.578	3.16
575.918	3.11
576.258	3.16
576.598	3.11
576.938	3.05
577.278	3.14
577.618	3.26
577.958	3.16
578.298	3.2
578.638	3.05
578.977	3.12
579.317	3.1
579.657	3.24
579.996	3.27
580.336	3.16
580.675	3.24
581.014	3.28
581.354	3.23
581.693	3.06
582.032	2.98
582.372	3.23
582.711	3.31
583.05	2.95
583.389	3.25
583.728	3.05
584.067	3.22
584.406	3.27
584.745	3.23
585.083	3.22
585.422	3.45
585.761	3.32
586.1	3.2
586.438	3.33
586.777	3.26
587.115	3.18
587.454	3.3
587.792	2.91
588.13	3.18
588.469	3.05
588.807	3.01
589.145	3.04
589.483	3.4
589.821	3.36
590.159	3.02
590.497	3.24
590.835	3.16
591.173	3.19
591.511	3.37
591.849	3.13
592.187	3.23
592.524	3.08
592.862	3.16
593.2	3.01
593.537	3.12
593.875	3.39
594.212	3.28
594.55	3.34
594.887	3.25
595.224	3.39
595.561	3.24
595.899	2.91
596.236	2.99
596.573	3.04
596.91	3.42
597.247	3.14
597.584	3.44
597.921	3.36
598.258	3.16
598.594	3.35
598.931	3.17
599.268	3.07
599.604	3.2
599.941	3.31
600.277	3.22
600.614	3.31
600.95	3.27
601.287	3.21
601.623	3.3
601.959	3.1
602.296	3.49
602.632	2.94
602.968	3.43
603.304	3.07
603.64	3.51
603.976	3.03
604.312	3.38
604.648	3.42
604.984	3.19
605.319	3.35
605.655	2.99
605.991	3.21
606.326	2.97
606.662	3.22
606.998	3.1
607.333	3.15
607.668	3.28
608.004	3.4
608.339	3.42
608.674	3.44
609.01	3.22
609.345	3.35
609.68	3.3
610.015	2.98
610.35	3.25
610.685	3.28
611.02	3.28
611.355	3.15
611.689	3.15
612.024	3.15
612.359	3.5
612.694	3.1
613.028	3.26
613.363	3.02
613.697	3.16
614.032	3.32
614.366	3.59
614.7	3.33
615.035	3.19
615.369	3.4
615.703	3.12
616.037	3.27
616.371	2.86
616.705	2.9
617.039	3.43
617.373	3.27
617.707	3.1
618.041	3.27
618.375	3.4
618.709	3.17
619.042	3.07
619.376	3
619.71	3.27
620.043	3.34
620.377	3.3
620.71	3.06
621.043	3.17
621.377	2.82
621.71	3.27
622.043	3.1
622.376	3.42
622.709	3.49
623.043	3.05
623.376	3.58
623.709	3.68
624.041	3.34
624.374	3.06
624.707	3.33
625.04	3.1
625.373	3.79
625.705	3.69
626.038	3.04
626.37	3.54
626.703	3.65
627.035	3.38
627.368	3.21
627.7	3.08
628.032	3.15
628.365	3.36
628.697	3.31
629.029	3.23
629.361	3.31
629.693	3.04
630.025	3.31
630.357	3.45
630.689	3.22
631.021	3.46
631.353	3.53
631.684	3.29
632.016	3.53
632.348	3.42
632.679	3.05
633.011	3.74
633.342	3.23
633.674	3.88
634.005	3.41
634.336	3.09
634.668	3.48
634.999	3.42
635.33	3.21
635.661	3.09
635.992	3.65
636.323	3.02
636.654	3.48
636.985	3.35
637.316	3.49
637.647	3.07
637.977	3.32
638.308	3.44
638.639	3.33
638.969	3.28
639.3	3.56
639.63	3.73
639.961	3.22
640.291	3.09
640.622	3.53
640.952	3.89
641.282	3.44
641.612	3.65
641.943	3.09
642.273	3.43
642.603	3.69
642.933	3.17
643.263	3.07
643.592	3.53
643.922	3.53
644.252	3.92
644.582	3.1
644.911	3.23
645.241	2.76
645.571	3.54
645.9	3.49
646.23	3.02
646.559	3.85
646.888	3.28
647.218	3.22
647.547	3.44
647.876	3.53
648.205	3.38
648.534	3.75
648.863	3.7
649.192	3.5
649.521	3.5
649.85	3.22
650.179	3.9
650.508	3.56
650.837	3.35
651.165	2.93
651.494	2.95
651.822	3.27
652.151	3.72
652.479	3.63
652.808	3.42
653.136	3.77
653.465	3.45
653.793	3.18
654.121	3.73
654.449	3.07
654.777	4.04
655.105	3.7
655.433	3.69
655.761	3.46
656.089	3.11
656.417	4.04
656.745	3.31
657.073	2.96
657.4	3.74
657.728	2.9
658.056	3.66
658.383	3.16
658.711	3.51
659.038	3.25
659.365	3.29
659.693	3.27
660.02	3.44
660.347	3.45
660.674	3.37
661.001	3.59
661.329	3.59
661.656	3.28
661.982	3.62
662.309	3.67
662.636	3.39
662.963	3.82
663.29	3.78
663.616	3.34
663.943	3.83
664.27	3.7
664.596	3.42
664.923	4.35
665.249	2.63
665.576	3.71
665.902	3.67
666.228	3.93
666.554	3.46
666.881	3.16
667.207	3.45
667.533	4.26
667.859	3.37
668.185	3.64
668.511	3.93
668.837	3.73
669.162	4.18
669.488	3.08
669.814	3.33
670.139	3.22
670.465	2.73
670.791	3.51
671.116	3.51
671.442	3.59
671.767	3.26
672.092	3.8
672.418	3.22
672.743	3.66
673.068	3.18
673.393	3.66
673.718	3.8
674.043	3.41
674.368	2.91
674.693	2.93
675.018	2.74
675.343	3.41
675.667	3.52
675.992	3.84
676.317	2.92
676.641	2.92
676.966	3.76
677.29	3.33
677.615	3.55
677.939	3.91
678.264	3.82
678.588	4.19
678.912	3.96
679.236	3.26
679.56	4.16
679.885	3.24
680.209	4.36
680.532	3.94
680.856	3.19
681.18	3.45
681.504	3.47
681.828	3.72
682.152	3.9
682.475	4.21
682.799	3.27
683.122	3.86
683.446	4.18
683.769	5.19
684.093	2.94
684.416	3.57
684.739	3.83
685.062	3.76
685.386	4.1
685.709	4.04
686.032	3.27
686.355	2.83
686.678	3.9
687.001	3.95
687.324	3.5
687.646	3.81
687.969	3.85
688.292	3.52
688.614	3.76
688.937	3.95
689.26	3.48
689.582	3.29
689.904	3.06
690.227	3.43
690.549	3.78
690.871	3.78
691.194	3.65
691.516	4.37
691.838	3.18
692.16	3.91
