Data from 428_forehead_Reflection__0__87.txt Node

Date: Tue Dec 12 18:54:27 CST 2023
User: ToomeyLab
Spectrometer: FLMS14357
Trigger mode: 0
Integration Time (sec): 1.000000E-2
Scans to average: 100
Electric dark correction enabled: true
Nonlinearity correction enabled: false
Boxcar width: 0
XAxis mode: Wavelengths
Number of Pixels in Spectrum: 2048
>>>>>Begin Spectral Data<<<<<
189.047	-43.49
189.435	-43.49
189.823	-43.49
190.211	45.83
190.599	16.26
190.987	70.61
191.375	177.09
191.763	-835.56
192.151	-17.23
192.538	-193.72
192.926	167.27
193.314	-75.53
193.702	189.98
194.089	379.23
194.477	-260.55
194.864	7.8
195.252	33.19
195.639	723.81
196.027	69.9
196.414	-270.2
196.801	110.72
197.189	1241
197.576	148.92
197.963	45.74
198.351	45.11
198.738	44.02
199.125	94.62
199.512	-10.25
199.899	23.81
200.286	12.38
200.673	10.08
201.06	53.89
201.447	11.98
201.833	-2.06
202.22	7.52
202.607	-250.49
202.994	36.64
203.38	41.17
203.767	-16.2
204.154	21.28
204.54	12.58
204.927	29.1
205.313	42.62
205.699	13.54
206.086	-6.61
206.472	54.34
206.858	-2.85
207.245	35.09
207.631	27.65
208.017	44.55
208.403	21.89
208.789	9.85
209.175	-11.51
209.561	45.27
209.947	8.54
210.333	34.81
210.719	30.16
211.105	-7.35
211.491	37.81
211.876	16.68
212.262	19.09
212.648	-28.9
213.034	-16.23
213.419	12.31
213.805	24.71
214.19	24.28
214.576	27.28
214.961	21.13
215.346	21.26
215.732	57.16
216.117	25.41
216.502	2.93
216.888	-3.94
217.273	9.67
217.658	-19.87
218.043	4.5
218.428	1.17
218.813	13.35
219.198	-16.65
219.583	18.5
219.968	43.19
220.353	1.14
220.738	7.33
221.122	20.01
221.507	13.03
221.892	15.06
222.276	8.37
222.661	16.93
223.046	13.29
223.43	9.84
223.815	3.77
224.199	17.52
224.583	4.23
224.968	15.5
225.352	-4.09
225.736	13.62
226.121	0.09
226.505	5.64
226.889	-4.91
227.273	10.88
227.657	17.84
228.041	8.56
228.425	6.63
228.809	5.18
229.193	7.01
229.577	8.17
229.961	4.56
230.344	5.33
230.728	6.03
231.112	5.9
231.495	4.99
231.879	5.61
232.263	6.58
232.646	5.97
233.03	4.59
233.413	5.49
233.797	6.81
234.18	4.73
234.563	6.42
234.946	5.26
235.33	8.38
235.713	5.34
236.096	3.92
236.479	4.82
236.862	6.7
237.245	6.21
237.628	5.59
238.011	6.69
238.394	5.63
238.777	5.62
239.16	5.19
239.543	5.67
239.925	5.82
240.308	7.36
240.691	7.47
241.073	7.01
241.456	6.16
241.838	4.37
242.221	6.67
242.603	6.21
242.986	4.44
243.368	5.99
243.75	5.2
244.133	5.41
244.515	5.36
244.897	5.59
245.279	5.72
245.661	5.12
246.043	5.45
246.425	6.99
246.807	4.93
247.189	6.3
247.571	4.94
247.953	5.4
248.335	5.75
248.717	5.27
249.098	5.34
249.48	5.26
249.862	5.53
250.243	5.01
250.625	5.86
251.006	5.87
251.388	5.58
251.769	6.25
252.151	5.16
252.532	5.91
252.913	5.84
253.295	6.21
253.676	5.55
254.057	5.47
254.438	5.76
254.819	5.28
255.2	5.98
255.581	6.15
255.962	5.01
256.343	6.13
256.724	5.99
257.105	6.21
257.486	4.92
257.867	6.22
258.247	3.92
258.628	5.89
259.009	4.98
259.389	5.72
259.77	4.84
260.15	5.54
260.531	5.67
260.911	5.6
261.292	5.25
261.672	5.04
262.052	5.07
262.432	5.28
262.813	5.58
263.193	5.7
263.573	6.29
263.953	6.49
264.333	6.34
264.713	6.02
265.093	5.55
265.473	5.79
265.853	4.84
266.233	5.41
266.612	4.84
266.992	4.92
267.372	5.72
267.752	6.55
268.131	4.76
268.511	5.46
268.89	4.79
269.27	4.49
269.649	5.19
270.029	5.05
270.408	5.29
270.787	5.26
271.167	5.51
271.546	5.55
271.925	6.06
272.304	5.52
272.683	4.78
273.062	5.61
273.441	4.92
273.82	4.85
274.199	5.31
274.578	4.93
274.957	5.34
275.336	5.61
275.715	5.44
276.093	4.66
276.472	5.06
276.851	5.27
277.229	4.6
277.608	4.71
277.986	4.7
278.365	5.42
278.743	5.17
279.122	5.66
279.5	5.15
279.878	4.52
280.257	4.86
280.635	5.33
281.013	4.45
281.391	5.31
281.769	4.8
282.147	4.74
282.525	4.99
282.903	4.91
283.281	4.74
283.659	4.65
284.037	5.32
284.415	4.87
284.792	5.51
285.17	4.79
285.548	5.09
285.925	4.86
286.303	5.01
286.68	5.06
287.058	5.2
287.435	4.87
287.813	4.77
288.19	5.12
288.567	4.75
288.945	5.17
289.322	4.83
289.699	5.15
290.076	5.08
290.453	5.33
290.83	5.46
291.207	5.79
291.584	5.27
291.961	5.54
292.338	5.61
292.715	5.16
293.092	5.52
293.469	5.31
293.845	5.71
294.222	5.66
294.599	5.72
294.975	5.82
295.352	6.08
295.728	6.36
296.105	5.87
296.481	6.32
296.858	5.78
297.234	6.26
297.61	6.07
297.986	6.24
298.363	6.61
298.739	6.14
299.115	5.92
299.491	6.15
299.867	6.13
300.243	6.02
300.619	6.02
300.995	6.79
301.371	6.9
301.746	6.36
302.122	7.52
302.498	6.56
302.874	7.21
303.249	7.39
303.625	6.26
304	7.37
304.376	6.79
304.751	7.22
305.127	6.7
305.502	7.55
305.878	7.32
306.253	7.31
306.628	7.58
307.003	7.73
307.378	7.63
307.754	8.2
308.129	7.25
308.504	8.33
308.879	7.47
309.254	8.09
309.629	7.93
310.003	8.19
310.378	8.39
310.753	8.4
311.128	8.72
311.502	7.73
311.877	7.89
312.252	8.18
312.626	8.06
313.001	8.07
313.375	7.94
313.75	8.71
314.124	8.7
314.498	8.73
314.873	8.22
315.247	9.31
315.621	9.25
315.995	9.49
316.369	9.53
316.743	8.91
317.117	8.77
317.491	9.27
317.865	9.12
318.239	9.22
318.613	10.13
318.987	10.47
319.361	9.14
319.734	9.55
320.108	10.27
320.482	9.98
320.855	9.66
321.229	10.14
321.602	10.04
321.976	9.87
322.349	10.59
322.723	9.82
323.096	10.13
323.469	10.34
323.843	11.3
324.216	10.52
324.589	10.09
324.962	10.63
325.335	10.77
325.708	10.69
326.081	10.6
326.454	10.11
326.827	10.99
327.2	10.77
327.573	9.98
327.945	11.07
328.318	10.64
328.691	10.46
329.063	11.37
329.436	11.09
329.809	11.66
330.181	10.16
330.553	10.76
330.926	10.63
331.298	11.18
331.671	11.8
332.043	11.31
332.415	11.75
332.787	11.33
333.159	11.48
333.532	11.38
333.904	11.88
334.276	11.56
334.648	11.42
335.02	10.99
335.391	11.77
335.763	11.69
336.135	12.07
336.507	11.94
336.879	11.69
337.25	11.76
337.622	11.94
337.993	11.5
338.365	11.26
338.736	12.07
339.108	11.67
339.479	12.76
339.851	11.67
340.222	11.9
340.593	12.2
340.964	12.14
341.336	12.66
341.707	12.7
342.078	12.04
342.449	12.73
342.82	12.59
343.191	12.63
343.562	13.09
343.933	12.74
344.303	12.54
344.674	13.02
345.045	12.26
345.416	13.05
345.786	12.38
346.157	12.63
346.527	13.37
346.898	12.68
347.268	12.65
347.639	12.91
348.009	13.12
348.38	12.84
348.75	13.4
349.12	13.47
349.49	13.12
349.861	13.54
350.231	13.74
350.601	13.41
350.971	13.88
351.341	13.46
351.711	13.6
352.081	13.54
352.45	13.63
352.82	13.97
353.19	13.87
353.56	13.37
353.929	13.7
354.299	13.31
354.669	13.97
355.038	12.77
355.408	13.83
355.777	14.39
356.147	13.67
356.516	14.22
356.885	14.12
357.254	13.84
357.624	13.75
357.993	14.16
358.362	13.89
358.731	14.29
359.1	14.04
359.469	14.16
359.838	14.16
360.207	14.2
360.576	14.45
360.945	14
361.314	14.67
361.682	14.53
362.051	14.65
362.42	14.63
362.788	14.47
363.157	15.15
363.525	14.94
363.894	14.56
364.262	14.27
364.631	14.75
364.999	14.93
365.367	15.07
365.735	14.8
366.104	14.97
366.472	15.08
366.84	15.48
367.208	15.11
367.576	15.54
367.944	15.69
368.312	15.48
368.68	15.2
369.048	15.36
369.416	15.44
369.783	15.77
370.151	15.33
370.519	15.47
370.886	15.79
371.254	15.54
371.621	15.95
371.989	15.81
372.356	15.65
372.724	16.08
373.091	15.97
373.458	15.4
373.826	15.98
374.193	15.66
374.56	16.2
374.927	15.88
375.294	16.05
375.661	16.47
376.028	16.09
376.395	16.84
376.762	16.68
377.129	16.1
377.496	16.75
377.863	16.2
378.229	16.25
378.596	16.55
378.963	16.69
379.329	16.2
379.696	16.26
380.062	16.94
380.429	16.49
380.795	16.73
381.161	16.84
381.528	16.77
381.894	16.85
382.26	16.91
382.626	16.81
382.993	16.82
383.359	16.59
383.725	17.09
384.091	16.92
384.457	16.63
384.823	17.42
385.188	17.15
385.554	17.49
385.92	17.25
386.286	17.16
386.651	17.41
387.017	17.59
387.383	17.21
387.748	17.11
388.114	17.56
388.479	17.55
388.845	17.39
389.21	17.52
389.575	17.51
389.94	17.64
390.306	17.94
390.671	17.83
391.036	17.57
391.401	17.39
391.766	17.81
392.131	17.59
392.496	17.8
392.861	17.92
393.226	18.03
393.591	17.65
393.956	17.97
394.32	18.14
394.685	18.18
395.05	17.9
395.414	18.01
395.779	17.95
396.143	18.19
396.508	17.97
396.872	18.12
397.236	18.22
397.601	17.98
397.965	18.47
398.329	18.56
398.694	18.1
399.058	18.62
399.422	18.39
399.786	18.4
400.15	18.4
400.514	18.58
400.878	18.78
401.242	18.32
401.605	18.78
401.969	18.63
402.333	18.71
402.697	18.74
403.06	18.86
403.424	19.05
403.787	18.6
404.151	18.98
404.514	18.93
404.878	18.64
405.241	18.91
405.604	18.71
405.968	18.94
406.331	18.97
406.694	19.01
407.057	18.9
407.42	18.98
407.783	18.89
408.146	18.95
408.509	19.1
408.872	19.35
409.235	19
409.598	19.16
409.961	19.17
410.323	19.27
410.686	19.17
411.049	19.41
411.411	19.52
411.774	19.23
412.136	19.36
412.499	19.38
412.861	19.54
413.223	19.84
413.586	19.31
413.948	19.7
414.31	19.47
414.672	19.8
415.035	19.7
415.397	19.97
415.759	19.88
416.121	19.7
416.483	19.76
416.845	19.87
417.206	19.98
417.568	19.83
417.93	20
418.292	19.87
418.653	19.72
419.015	19.98
419.377	19.84
419.738	19.77
420.1	19.84
420.461	19.91
420.822	19.91
421.184	19.99
421.545	20.26
421.906	19.99
422.267	20.04
422.629	20.08
422.99	20.09
423.351	20.1
423.712	20.16
424.073	20.21
424.434	20.37
424.795	20.41
425.155	20.4
425.516	20.25
425.877	20.46
426.238	20.39
426.598	20.52
426.959	20.49
427.32	20.71
427.68	20.87
428.041	20.94
428.401	21.05
428.761	21.13
429.122	21.12
429.482	21.47
429.842	21.42
430.202	21.49
430.563	21.59
430.923	21.51
431.283	21.51
431.643	21.46
432.003	21.78
432.363	21.77
432.722	21.6
433.082	22.1
433.442	21.99
433.802	22.09
434.161	21.91
434.521	21.93
434.881	21.9
435.24	22.08
435.6	21.82
435.959	22.13
436.319	22.41
436.678	22.44
437.037	22.51
437.396	22.2
437.756	22.51
438.115	22.56
438.474	22.58
438.833	22.64
439.192	22.71
439.551	22.78
439.91	22.59
440.269	22.57
440.628	22.59
440.987	22.88
441.345	22.97
441.704	22.67
442.063	22.77
442.421	22.85
442.78	22.92
443.138	22.75
443.497	22.87
443.855	23.05
444.214	23.25
444.572	23.26
444.93	23.4
445.288	23.43
445.647	23.51
446.005	23.31
446.363	23.3
446.721	23.46
447.079	23.38
447.437	23.32
447.795	23.2
448.153	23.3
448.51	23.19
448.868	23.41
449.226	23.5
449.584	23.51
449.941	23.65
450.299	23.76
450.656	23.96
451.014	23.87
451.371	24.04
451.729	24.24
452.086	24.09
452.443	24.37
452.801	24.46
453.158	24.32
453.515	24.44
453.872	24.32
454.229	24.57
454.586	24.29
454.943	24.46
455.3	24.54
455.657	24.6
456.014	24.77
456.371	25.01
456.727	24.7
457.084	24.84
457.441	24.98
457.797	24.98
458.154	25.01
458.51	24.83
458.867	25.1
459.223	25.34
459.58	25.09
459.936	25.05
460.292	25.1
460.648	25.19
461.005	25.02
461.361	24.91
461.717	25.02
462.073	24.82
462.429	25.12
462.785	25.3
463.141	25.22
463.496	25.36
463.852	25.8
464.208	25.73
464.564	25.74
464.919	25.98
465.275	25.94
465.631	25.81
465.986	25.99
466.342	25.94
466.697	26.03
467.052	26.22
467.408	25.93
467.763	26.1
468.118	26.3
468.473	25.99
468.829	26.19
469.184	25.96
469.539	26.32
469.894	26.23
470.249	26.34
470.603	26.55
470.958	26.4
471.313	26.54
471.668	26.71
472.023	26.82
472.377	26.7
472.732	26.9
473.086	26.66
473.441	26.98
473.795	26.89
474.15	26.84
474.504	26.68
474.859	27
475.213	26.96
475.567	26.81
475.921	27.13
476.275	26.93
476.63	27.02
476.984	27.34
477.338	27.04
477.692	27.29
478.045	27.18
478.399	27.27
478.753	27.37
479.107	27.39
479.461	27.6
479.814	27.33
480.168	27.28
480.521	27.42
480.875	27.54
481.228	27.63
481.582	27.61
481.935	27.71
482.289	27.84
482.642	27.69
482.995	27.68
483.348	27.65
483.701	27.68
484.055	27.6
484.408	27.38
484.761	27.32
485.114	26.98
485.466	26.68
485.819	26.67
486.172	26.77
486.525	26.98
486.878	27.05
487.23	27.34
487.583	27.55
487.936	27.65
488.288	27.69
488.641	27.47
488.993	27.36
489.345	27.39
489.698	27.33
490.05	27.45
490.402	27.61
490.754	27.76
491.107	28.02
491.459	28.26
491.811	28.24
492.163	28.3
492.515	28.45
492.866	28.12
493.218	27.88
493.57	27.86
493.922	27.92
494.274	28.02
494.625	28.29
494.977	28.6
495.328	28.82
495.68	29.01
496.031	29.4
496.383	29.29
496.734	29.22
497.086	29.13
497.437	29.41
497.788	29.33
498.139	29.28
498.49	29.34
498.842	29.18
499.193	29.27
499.544	29.15
499.894	29.31
500.245	29.48
500.596	29.49
500.947	29.49
501.298	29.8
501.648	29.81
501.999	29.71
502.35	29.77
502.7	29.67
503.051	30.01
503.401	29.93
503.752	30.19
504.102	30.07
504.452	30.23
504.803	30.35
505.153	30.28
505.503	30.1
505.853	30.29
506.203	30.38
506.553	30.34
506.903	30.27
507.253	30.28
507.603	30.46
507.953	30.55
508.303	30.66
508.652	30.67
509.002	30.51
509.352	30.67
509.701	30.57
510.051	30.62
510.4	30.52
510.75	30.54
511.099	30.58
511.449	30.77
511.798	30.77
512.147	30.97
512.496	30.91
512.846	30.91
513.195	30.9
513.544	31.1
513.893	30.86
514.242	31.1
514.591	30.93
514.939	31.04
515.288	31.16
515.637	31.03
515.986	31.18
516.334	31.33
516.683	31.23
517.032	31.31
517.38	31.42
517.729	31.57
518.077	31.35
518.426	31.56
518.774	31.43
519.122	31.58
519.47	31.55
519.819	31.3
520.167	31.19
520.515	31.12
520.863	31.34
521.211	31.34
521.559	31.43
521.907	31.58
522.255	31.76
522.602	31.74
522.95	31.85
523.298	31.98
523.645	32.08
523.993	32.19
524.341	32.1
524.688	32.14
525.036	32.27
525.383	32.31
525.73	32.18
526.078	32.42
526.425	32.15
526.772	32.28
527.119	31.97
527.466	31.83
527.814	31.88
528.161	32
528.508	32.24
528.854	32.19
529.201	32.01
529.548	32.01
529.895	31.75
530.242	31.39
530.588	31.52
530.935	31.66
531.282	31.65
531.628	31.93
531.975	31.98
532.321	32.29
532.667	32.38
533.014	32.37
533.36	32.61
533.706	32.52
534.052	32.56
534.399	32.62
534.745	32.39
535.091	32.22
535.437	32.4
535.783	32.44
536.129	32.58
536.474	32.78
536.82	32.94
537.166	33.15
537.512	33.17
537.857	33.16
538.203	33.23
538.549	32.96
538.894	33.12
539.239	33.26
539.585	33.43
539.93	33.5
540.276	33.44
540.621	33.87
540.966	33.64
541.311	33.75
541.656	34.03
542.001	33.72
542.346	33.62
542.691	33.29
543.036	33.12
543.381	33.09
543.726	33.21
544.071	33.42
544.415	33.46
544.76	33.62
545.105	33.6
545.449	33.79
545.794	33.78
546.138	34.01
546.483	34.28
546.827	34.29
547.171	34.32
547.516	34.22
547.86	34.44
548.204	34.43
548.548	34.59
548.892	34.48
549.236	34.49
549.58	34.52
549.924	34.84
550.268	34.89
550.612	34.74
550.956	35.11
551.3	35.12
551.643	34.99
551.987	35.4
552.33	35.26
552.674	35.2
553.017	35.45
553.361	35.58
553.704	35.41
554.048	35.4
554.391	35.28
554.734	35.31
555.077	35.51
555.42	35.24
555.764	35.44
556.107	35.58
556.45	35.6
556.793	35.83
557.135	35.7
557.478	35.85
557.821	35.65
558.164	35.84
558.507	35.93
558.849	36.17
559.192	35.98
559.534	35.98
559.877	36.12
560.219	36.11
560.562	36.11
560.904	36.06
561.246	36.22
561.589	36.36
561.931	36.31
562.273	36.38
562.615	36.22
562.957	36.59
563.299	36.41
563.641	36.64
563.983	36.43
564.325	36.46
564.667	36.55
565.008	36.28
565.35	36.65
565.692	36.78
566.033	36.69
566.375	36.68
566.716	36.68
567.058	36.9
567.399	36.87
567.741	36.79
568.082	36.76
568.423	36.71
568.764	36.82
569.105	36.87
569.447	37.1
569.788	36.83
570.129	36.89
570.47	37.14
570.811	37.15
571.151	37.29
571.492	37.35
571.833	37.28
572.174	37.56
572.514	37.36
572.855	37.36
573.195	37.29
573.536	37.22
573.876	37.33
574.217	37.41
574.557	37.26
574.898	37.35
575.238	37.47
575.578	37.59
575.918	37.64
576.258	37.84
576.598	37.79
576.938	37.7
577.278	37.76
577.618	38.04
577.958	37.94
578.298	38.06
578.638	38.01
578.977	38.19
579.317	38.27
579.657	38.18
579.996	38.28
580.336	38.47
580.675	38.44
581.014	38.46
581.354	38.73
581.693	38.25
582.032	38.58
582.372	38.57
582.711	38.65
583.05	38.63
583.389	38.83
583.728	38.6
584.067	38.9
584.406	38.97
584.745	39.11
585.083	38.7
585.422	38.91
585.761	38.92
586.1	39.12
586.438	39.19
586.777	39.22
587.115	39.04
587.454	39.26
587.792	39.24
588.13	39.37
588.469	39.15
588.807	39.1
589.145	39.45
589.483	39.58
589.821	39.29
590.159	39.47
590.497	39.27
590.835	39.3
591.173	39.72
591.511	39.48
591.849	39.65
592.187	39.64
592.524	39.82
592.862	39.82
593.2	39.42
593.537	39.6
593.875	39.99
594.212	39.92
594.55	40.14
594.887	39.82
595.224	40.07
595.561	40.2
595.899	39.84
596.236	39.77
596.573	40.02
596.91	40.2
597.247	40.41
597.584	40.14
597.921	40.32
598.258	40.34
598.594	40.19
598.931	39.98
599.268	40
599.604	40.21
599.941	39.88
600.277	40.32
600.614	40.45
600.95	40.7
601.287	40.64
601.623	40.89
601.959	40.63
602.296	40.71
602.632	40.6
602.968	40.54
603.304	40.27
603.64	40.79
603.976	40.68
604.312	40.94
604.648	40.87
604.984	40.81
605.319	40.5
605.655	40.62
605.991	40.93
606.326	40.65
606.662	40.89
606.998	40.6
607.333	40.66
607.668	40.98
608.004	41.14
608.339	40.94
608.674	40.93
609.01	41.39
609.345	41.14
609.68	41.43
610.015	41.26
610.35	41.31
610.685	41.4
611.02	41.55
611.355	41.02
611.689	41.33
612.024	41.27
612.359	41.75
612.694	41.58
613.028	41.48
613.363	41.44
613.697	41.86
614.032	41.81
614.366	41.97
614.7	41.45
615.035	41.89
615.369	41.9
615.703	42.08
616.037	41.76
616.371	42.13
616.705	42.26
617.039	42.35
617.373	42.8
617.707	42.33
618.041	42.11
618.375	41.72
618.709	42.21
619.042	42
619.376	42.36
619.71	42.13
620.043	42.31
620.377	42.22
620.71	42.06
621.043	42.3
621.377	42.15
621.71	42.23
622.043	42.92
622.376	42.86
622.709	43.2
623.043	42.85
623.376	43.03
623.709	43.26
624.041	42.99
624.374	42.42
624.707	43.08
625.04	42.8
625.373	43.06
625.705	43.16
626.038	43.13
626.37	42.9
626.703	43.19
627.035	42.92
627.368	43.39
627.7	42.65
628.032	43.31
628.365	43.17
628.697	43.03
629.029	43.1
629.361	42.82
629.693	43.25
630.025	43.03
630.357	43.33
630.689	43.19
631.021	43.49
631.353	44.05
631.684	43.37
632.016	43.52
632.348	43.35
632.679	43.39
633.011	43.47
633.342	43.54
633.674	43.71
634.005	44.07
634.336	43.71
634.668	44.05
634.999	43.68
635.33	43.61
635.661	43.78
635.992	44.31
636.323	43.94
636.654	44.19
636.985	44.38
637.316	43.72
637.647	43.97
637.977	43.59
638.308	43.98
638.639	43.7
638.969	44.03
639.3	44.16
639.63	44.35
639.961	44.03
640.291	44.32
640.622	44.38
640.952	44.63
641.282	44.01
641.612	44.55
641.943	44.11
642.273	44.59
642.603	44.83
642.933	44.59
643.263	44.13
643.592	45.01
643.922	44.54
644.252	44.64
644.582	44.41
644.911	44.35
645.241	43.92
645.571	45.06
645.9	44.88
646.23	44.7
646.559	45.09
646.888	44.26
647.218	45.39
647.547	45.04
647.876	45.11
648.205	44.88
648.534	44.95
648.863	45
649.192	45.67
649.521	45.36
649.85	45.21
650.179	45.02
650.508	45.35
650.837	45.36
651.165	45.14
651.494	45.07
651.822	45.38
652.151	45.15
652.479	45.47
652.808	45.43
653.136	45.76
653.465	45.75
653.793	45.1
654.121	45.47
654.449	45.32
654.777	45.34
655.105	46.04
655.433	46.04
655.761	46.24
656.089	45.21
656.417	45.96
656.745	46.06
657.073	45.41
657.4	45.61
657.728	45.25
658.056	45.93
658.383	45.91
658.711	46.07
659.038	46.28
659.365	45.61
659.693	45.92
660.02	45.9
660.347	45.55
660.674	46.21
661.001	46.49
661.329	46.06
661.656	46.17
661.982	45.86
662.309	46.3
662.636	46.24
662.963	46.54
663.29	46.19
663.616	46.55
663.943	46.24
664.27	47.04
664.596	46.82
664.923	46.44
665.249	46.45
665.576	46.58
665.902	47.15
666.228	46.1
666.554	46.21
666.881	46.7
667.207	46.96
667.533	46.14
667.859	46.63
668.185	46.85
668.511	47.38
668.837	46.95
669.162	46.67
669.488	46.71
