Data from 428_forehead_Reflection__3__90.txt Node

Date: Tue Dec 12 18:54:56 CST 2023
User: ToomeyLab
Spectrometer: FLMS14357
Trigger mode: 0
Integration Time (sec): 1.000000E-2
Scans to average: 100
Electric dark correction enabled: true
Nonlinearity correction enabled: false
Boxcar width: 0
XAxis mode: Wavelengths
Number of Pixels in Spectrum: 2048
>>>>>Begin Spectral Data<<<<<
189.047	-583.44
189.435	-583.44
189.823	-583.44
190.211	167.1
190.599	65.77
190.987	104.89
191.375	324.46
191.763	-262.81
192.151	36.8
192.538	-171.46
192.926	200.33
193.314	80.3
193.702	216.33
194.089	47.06
194.477	201.05
194.864	71.29
195.252	76.15
195.639	2673.33
196.027	-34.17
196.414	-2314.57
196.801	86.98
197.189	-202.05
197.576	-106.52
197.963	62.19
198.351	58.82
198.738	43.56
199.125	76.27
199.512	-4.71
199.899	66.53
200.286	55.24
200.673	20.22
201.06	35.55
201.447	-61.85
201.833	50.25
202.22	28.45
202.607	-147.71
202.994	38.31
203.38	27.05
203.767	-14.46
204.154	22.69
204.54	48.33
204.927	30.22
205.313	55.16
205.699	-0.96
206.086	-4.31
206.472	30.11
206.858	43.35
207.245	18.16
207.631	36.49
208.017	20.22
208.403	0.47
208.789	28.52
209.175	2.15
209.561	31.76
209.947	27.09
210.333	15.2
210.719	26.84
211.105	30.67
211.491	0.22
211.876	20.91
212.262	51.58
212.648	-3.43
213.034	-4.08
213.419	33.32
213.805	15.33
214.19	16.63
214.576	11.51
214.961	23.73
215.346	15.3
215.732	58
216.117	42.33
216.502	2.57
216.888	-5.59
217.273	-0.06
217.658	-3.89
218.043	1.35
218.428	-4.54
218.813	31.46
219.198	-47.55
219.583	21.3
219.968	23.94
220.353	-1.14
220.738	14.77
221.122	-7.77
221.507	-1.16
221.892	18.46
222.276	26.67
222.661	9.06
223.046	-6.45
223.43	8.44
223.815	4.69
224.199	18.89
224.583	10.24
224.968	13.17
225.352	-1.71
225.736	12.79
226.121	3.41
226.505	13.47
226.889	3.04
227.273	4.97
227.657	7.58
228.041	6.05
228.425	9.05
228.809	4.18
229.193	0.93
229.577	4.22
229.961	1.99
230.344	3.17
230.728	3.21
231.112	2.93
231.495	2.75
231.879	3.32
232.263	2.22
232.646	2.4
233.03	2.14
233.413	0.78
233.797	4.74
234.18	0.96
234.563	3.13
234.946	5.5
235.33	6.49
235.713	4.92
236.096	2.53
236.479	3.71
236.862	5.32
237.245	4.1
237.628	3.95
238.011	3.58
238.394	2.83
238.777	4.52
239.16	3.69
239.543	3.93
239.925	4.23
240.308	2.9
240.691	5.21
241.073	3.89
241.456	3.8
241.838	3.12
242.221	5.07
242.603	4.19
242.986	2.81
243.368	3.73
243.75	3.26
244.133	3.11
244.515	3.39
244.897	3.47
245.279	3.96
245.661	2.63
246.043	2.08
246.425	2.97
246.807	2.49
247.189	3.6
247.571	3.38
247.953	2.81
248.335	3.16
248.717	2.78
249.098	3.08
249.48	2.57
249.862	2.9
250.243	3.18
250.625	3.4
251.006	3.1
251.388	3.41
251.769	2.72
252.151	3.36
252.532	4.62
252.913	4.19
253.295	4.89
253.676	2.65
254.057	2.61
254.438	3.41
254.819	2.84
255.2	3.1
255.581	4.03
255.962	2.91
256.343	3.36
256.724	3.95
257.105	3.8
257.486	3.06
257.867	3.14
258.247	2.7
258.628	4.73
259.009	2.65
259.389	3.37
259.77	2.65
260.15	3.8
260.531	3.78
260.911	3.65
261.292	2.76
261.672	3
262.052	2.92
262.432	3.1
262.813	2.92
263.193	3.02
263.573	3.41
263.953	3.95
264.333	4.31
264.713	3.01
265.093	3.67
265.473	3.69
265.853	2.77
266.233	2.91
266.612	4.08
266.992	3.21
267.372	3.59
267.752	4.52
268.131	2.81
268.511	2.66
268.89	2.76
269.27	2.76
269.649	3
270.029	3.15
270.408	3.65
270.787	2.68
271.167	3.3
271.546	3.04
271.925	3.27
272.304	3.6
272.683	2.64
273.062	2.95
273.441	3.46
273.82	2.39
274.199	3.04
274.578	2.67
274.957	2.86
275.336	3.01
275.715	2.96
276.093	3
276.472	3.62
276.851	3.55
277.229	2.69
277.608	3.28
277.986	2.79
278.365	3.78
278.743	3.55
279.122	3.15
279.5	3.15
279.878	2.58
280.257	2.42
280.635	3.18
281.013	2.98
281.391	3.3
281.769	3.3
282.147	3.28
282.525	2.52
282.903	2.79
283.281	2.72
283.659	3.32
284.037	3.69
284.415	3.25
284.792	3.29
285.17	2.7
285.548	3.07
285.925	3.11
286.303	3.13
286.68	3.27
287.058	3.43
287.435	2.85
287.813	3.12
288.19	3.36
288.567	3.31
288.945	3.61
289.322	3.03
289.699	3.3
290.076	2.74
290.453	3.59
290.83	3.25
291.207	3.54
291.584	3.29
291.961	3.32
292.338	3.01
292.715	3.26
293.092	3.33
293.469	3.27
293.845	3.79
294.222	3.54
294.599	3.97
294.975	3.02
295.352	3.49
295.728	3.8
296.105	3.76
296.481	3.74
296.858	3.78
297.234	4.54
297.61	4.05
297.986	4.32
298.363	3.89
298.739	3.66
299.115	3.55
299.491	3.73
299.867	3.53
300.243	3.76
300.619	4.07
300.995	4.36
301.371	4.5
301.746	3.9
302.122	4.58
302.498	4.18
302.874	4.51
303.249	5.16
303.625	4.48
304	4.68
304.376	4.93
304.751	4.73
305.127	4.72
305.502	5.35
305.878	4.93
306.253	4.92
306.628	4.91
307.003	5.06
307.378	4.72
307.754	5.74
308.129	5.22
308.504	6.05
308.879	4.78
309.254	5.93
309.629	5.67
310.003	5.76
310.378	5.9
310.753	6.07
311.128	5.87
311.502	4.94
311.877	5.35
312.252	5.19
312.626	5.71
313.001	5.52
313.375	5.87
313.75	6.27
314.124	6.12
314.498	6.22
314.873	6.86
315.247	6.5
315.621	5.92
315.995	7.44
316.369	6.4
316.743	6.39
317.117	6.23
317.491	6.47
317.865	6.61
318.239	7.02
318.613	7.27
318.987	7.66
319.361	7.21
319.734	6.97
320.108	7.95
320.482	7.27
320.855	7.33
321.229	7.19
321.602	7.48
321.976	8.04
322.349	7.98
322.723	7.6
323.096	7.92
323.469	7.24
323.843	9.21
324.216	7.71
324.589	8.1
324.962	7.66
325.335	8.46
325.708	8.46
326.081	8.12
326.454	8.19
326.827	8.88
327.2	8.57
327.573	7.82
327.945	8.65
328.318	8.57
328.691	7.95
329.063	8.56
329.436	9.37
329.809	8.98
330.181	8.03
330.553	8.87
330.926	8.76
331.298	8.43
331.671	8.67
332.043	8.74
332.415	9.3
332.787	9.36
333.159	9.67
333.532	9.18
333.904	8.95
334.276	9.5
334.648	9.18
335.02	8.9
335.391	8.85
335.763	9.32
336.135	9.67
336.507	9.98
336.879	10.12
337.25	9.36
337.622	9.59
337.993	9.44
338.365	9.57
338.736	9.58
339.108	9.87
339.479	10.14
339.851	9.95
340.222	9.72
340.593	10.08
340.964	10.1
341.336	10.24
341.707	9.62
342.078	10.34
342.449	9.69
342.82	10.26
343.191	10.62
343.562	10.48
343.933	10.64
344.303	10.34
344.674	10.55
345.045	10.72
345.416	10.89
345.786	10.4
346.157	10.41
346.527	10.79
346.898	10.56
347.268	10.55
347.639	11.12
348.009	10.75
348.38	10.87
348.75	11.04
349.12	11.08
349.49	10.45
349.861	10.99
350.231	11.25
350.601	11.34
350.971	10.87
351.341	11.15
351.711	11.33
352.081	11.75
352.45	11.4
352.82	11.16
353.19	11.54
353.56	11.21
353.929	11.09
354.299	11.43
354.669	11.25
355.038	11.36
355.408	11.5
355.777	12.04
356.147	11.79
356.516	12.09
356.885	11.9
357.254	12.08
357.624	11.89
357.993	11.82
358.362	12.03
358.731	11.98
359.1	11.92
359.469	11.83
359.838	12.26
360.207	12.15
360.576	12.37
360.945	12.35
361.314	12.41
361.682	12.59
362.051	12.69
362.42	12.76
362.788	12.47
363.157	12.82
363.525	12.4
363.894	12.49
364.262	12.44
364.631	12.31
364.999	12.85
365.367	12.89
365.735	12.81
366.104	12.77
366.472	13.1
366.84	13.07
367.208	13.18
367.576	13.04
367.944	13.28
368.312	13.33
368.68	13.45
369.048	13.66
369.416	13.17
369.783	13.4
370.151	13.31
370.519	13.28
370.886	13.77
371.254	13.37
371.621	13.98
371.989	13.4
372.356	13.65
372.724	13.66
373.091	13.57
373.458	13.89
373.826	13.59
374.193	13.48
374.56	14.36
374.927	14.38
375.294	14.33
375.661	14.27
376.028	14.41
376.395	14.51
376.762	14.35
377.129	14.37
377.496	14.71
377.863	14.16
378.229	14.35
378.596	14.35
378.963	14.39
379.329	14.34
379.696	14.57
380.062	15.37
380.429	14.7
380.795	14.96
381.161	15.18
381.528	14.9
381.894	15
382.26	15.06
382.626	15.07
382.993	14.77
383.359	15.17
383.725	14.85
384.091	15.21
384.457	14.83
384.823	15.51
385.188	15.06
385.554	15.24
385.92	15.34
386.286	15.45
386.651	15.67
387.017	15.64
387.383	15.35
387.748	15.56
388.114	15.22
388.479	16.01
388.845	15.65
389.21	15.42
389.575	15.47
389.94	16.08
390.306	15.93
390.671	15.67
391.036	16.02
391.401	15.67
391.766	15.98
392.131	16
392.496	16.19
392.861	16.28
393.226	16.33
393.591	15.9
393.956	16.01
394.32	16.29
394.685	16.36
395.05	16.29
395.414	16.26
395.779	16.44
396.143	16.84
396.508	16.42
396.872	16.39
397.236	16.82
397.601	16.39
397.965	16.85
398.329	16.9
398.694	16.68
399.058	16.87
399.422	16.74
399.786	16.96
400.15	16.53
400.514	16.99
400.878	16.94
401.242	16.76
401.605	16.99
401.969	17.32
402.333	17.18
402.697	17.17
403.06	17.1
403.424	17.39
403.787	17.12
404.151	17.22
404.514	17.36
404.878	17.31
405.241	17.4
405.604	17
405.968	17.37
406.331	17.49
406.694	17.82
407.057	17.14
407.42	17.63
407.783	17.66
408.146	17.77
408.509	17.62
408.872	17.69
409.235	17.67
409.598	17.83
409.961	18.1
410.323	18.07
410.686	18.1
411.049	18.36
411.411	18.24
411.774	18.37
412.136	18.14
412.499	18.34
412.861	18.06
413.223	18.45
413.586	18.12
413.948	18.13
414.31	18.45
414.672	18.46
415.035	18.29
415.397	18.53
415.759	18.54
416.121	18.28
416.483	18.55
416.845	18.47
417.206	18.77
417.568	18.5
417.93	18.48
418.292	18.47
418.653	18.71
419.015	18.42
419.377	18.78
419.738	18.72
420.1	18.6
420.461	18.73
420.822	18.57
421.184	18.73
421.545	18.9
421.906	18.78
422.267	18.67
422.629	18.8
422.99	18.8
423.351	18.86
423.712	18.93
424.073	18.94
424.434	19.08
424.795	19.06
425.155	19.08
425.516	19.08
425.877	19.06
426.238	19.15
426.598	19.18
426.959	19.2
427.32	19.5
427.68	19.61
428.041	19.58
428.401	19.66
428.761	19.66
429.122	20.01
429.482	20.25
429.842	20.34
430.202	20.13
430.563	20.27
430.923	20.25
431.283	20.25
431.643	20.31
432.003	20.16
432.363	20.28
432.722	20.35
433.082	20.34
433.442	20.45
433.802	20.72
434.161	20.45
434.521	20.75
434.881	20.49
435.24	20.74
435.6	20.62
435.959	20.85
436.319	20.82
436.678	20.95
437.037	20.89
437.396	20.92
437.756	21.22
438.115	21.23
438.474	21.15
438.833	21.28
439.192	21.36
439.551	21.25
439.91	21.13
440.269	21.14
440.628	21.34
440.987	21.13
441.345	21.45
441.704	21.2
442.063	21.32
442.421	21.46
442.78	21.39
443.138	21.53
443.497	21.56
443.855	21.74
444.214	21.84
444.572	21.84
444.93	21.93
445.288	21.94
445.647	22.02
446.005	21.72
446.363	22.07
446.721	22.04
447.079	21.91
447.437	21.75
447.795	21.78
448.153	21.81
448.51	21.85
448.868	22.02
449.226	22
449.584	22.06
449.941	22.32
450.299	22.39
450.656	22.35
451.014	22.67
451.371	22.55
451.729	22.83
452.086	22.79
452.443	22.83
452.801	22.83
453.158	22.85
453.515	22.92
453.872	23.12
454.229	23.03
454.586	22.92
454.943	22.87
455.3	23.03
455.657	23.15
456.014	23.33
456.371	23.49
456.727	23.49
457.084	23.29
457.441	23.57
457.797	23.35
458.154	23.61
458.51	23.45
458.867	23.5
459.223	23.76
459.58	23.48
459.936	23.66
460.292	23.73
460.648	23.72
461.005	23.52
461.361	23.55
461.717	23.44
462.073	23.38
462.429	23.57
462.785	23.79
463.141	23.86
463.496	24.06
463.852	24.27
464.208	24.33
464.564	24.3
464.919	24.44
465.275	24.43
465.631	24.58
465.986	24.43
466.342	24.26
466.697	24.48
467.052	24.66
467.408	24.73
467.763	24.71
468.118	24.74
468.473	24.51
468.829	24.61
469.184	24.54
469.539	24.87
469.894	24.81
470.249	24.91
470.603	25.02
470.958	24.89
471.313	25.1
471.668	25.34
472.023	25.26
472.377	25.27
472.732	25.18
473.086	25.16
473.441	25.44
473.795	25.45
474.15	25.51
474.504	25.17
474.859	25.5
475.213	25.54
475.567	25.51
475.921	25.64
476.275	25.54
476.63	25.74
476.984	25.61
477.338	25.68
477.692	25.72
478.045	25.77
478.399	25.73
478.753	25.79
479.107	25.84
479.461	25.89
479.814	25.79
480.168	25.8
480.521	25.97
480.875	25.99
481.228	26.17
481.582	26.12
481.935	26.27
482.289	26.12
482.642	26.16
482.995	26.12
483.348	25.96
483.701	26.02
484.055	25.94
484.408	25.82
484.761	25.65
485.114	25.41
485.466	25.02
485.819	25.05
486.172	25.13
486.525	25.46
486.878	25.54
487.23	25.7
487.583	25.86
487.936	26.06
488.288	26.01
488.641	25.85
488.993	25.75
489.345	25.67
489.698	25.66
490.05	25.83
490.402	26
490.754	26.14
491.107	26.3
491.459	26.57
491.811	26.75
492.163	26.75
492.515	26.77
492.866	26.61
493.218	26.27
493.57	26.27
493.922	26.24
494.274	26.58
494.625	26.81
494.977	26.98
495.328	27.26
495.68	27.53
496.031	27.51
496.383	27.56
496.734	27.58
497.086	27.72
497.437	27.63
497.788	27.82
498.139	27.79
498.49	27.89
498.842	27.56
499.193	27.88
499.544	27.84
499.894	27.9
500.245	27.81
500.596	27.92
500.947	27.8
501.298	28.2
501.648	28.2
501.999	28.22
502.35	28.26
502.7	28.25
503.051	28.38
503.401	28.64
503.752	28.54
504.102	28.53
504.452	28.46
504.803	28.73
505.153	28.67
505.503	28.69
505.853	28.73
506.203	28.76
506.553	28.66
506.903	28.67
507.253	28.81
507.603	28.83
507.953	28.86
508.303	28.94
508.652	29.19
509.002	29.15
509.352	29.15
509.701	29.07
510.051	28.8
510.4	28.93
510.75	28.94
511.099	29.02
511.449	29.04
511.798	29.03
512.147	29.24
512.496	29.21
512.846	29.32
513.195	29.11
513.544	29.58
513.893	29.37
514.242	29.28
514.591	29.36
514.939	29.39
515.288	29.62
515.637	29.49
515.986	29.74
516.334	29.74
516.683	29.57
517.032	29.72
517.38	29.86
517.729	29.86
518.077	29.92
518.426	30.02
518.774	29.84
519.122	29.93
519.47	29.95
519.819	29.6
520.167	29.54
520.515	29.44
520.863	29.58
521.211	29.74
521.559	29.89
521.907	30
522.255	30.13
522.602	30.25
522.95	30.3
523.298	30.26
523.645	30.41
523.993	30.45
524.341	30.67
524.688	30.64
525.036	30.54
525.383	30.71
525.73	30.64
526.078	30.61
526.425	30.64
526.772	30.59
527.119	30.41
527.466	30.3
527.814	30.17
528.161	30.32
528.508	30.7
528.854	30.44
529.201	30.46
529.548	30.27
529.895	30.11
530.242	29.72
530.588	29.79
530.935	29.99
531.282	30.07
531.628	30.28
531.975	30.36
532.321	30.46
532.667	30.71
533.014	30.76
533.36	30.85
533.706	30.87
534.052	31
534.399	30.95
534.745	30.77
535.091	30.49
535.437	30.57
535.783	30.75
536.129	31.05
536.474	31.26
536.82	31.28
537.166	31.63
537.512	31.53
537.857	31.54
538.203	31.53
538.549	31.24
538.894	31.42
539.239	31.54
539.585	31.67
539.93	31.9
540.276	31.96
540.621	32.05
540.966	31.87
541.311	32.21
541.656	32.18
542.001	31.94
542.346	31.71
542.691	31.67
543.036	31.21
543.381	31.29
543.726	31.42
544.071	31.59
544.415	31.66
544.76	31.7
545.105	31.92
545.449	31.97
545.794	32.14
546.138	32.29
546.483	32.35
546.827	32.45
547.171	32.55
547.516	32.56
547.86	32.55
548.204	32.71
548.548	32.61
548.892	32.56
549.236	32.66
549.58	32.89
549.924	33.01
550.268	33.33
550.612	33
550.956	33.26
551.3	33.23
551.643	33.43
551.987	33.73
552.33	33.51
552.674	33.55
553.017	33.51
553.361	33.7
553.704	33.55
554.048	33.52
554.391	33.53
554.734	33.55
555.077	33.73
555.42	33.63
555.764	33.64
556.107	34.06
556.45	33.79
556.793	33.95
557.135	34
557.478	33.93
557.821	34.2
558.164	34.24
558.507	34.42
558.849	34.38
559.192	34.27
559.534	34.39
559.877	34.33
560.219	34.15
560.562	34.33
560.904	34.56
561.246	34.72
561.589	34.77
561.931	34.56
562.273	34.42
562.615	34.44
562.957	34.86
563.299	34.52
563.641	34.6
563.983	34.61
564.325	34.89
564.667	34.74
565.008	34.56
565.35	34.63
565.692	34.81
566.033	34.91
566.375	35.03
566.716	34.93
567.058	35.16
567.399	34.83
567.741	34.94
568.082	34.83
568.423	34.87
568.764	34.72
569.105	34.89
569.447	35.12
569.788	34.99
570.129	35.23
570.47	35.3
570.811	35.21
571.151	35.25
571.492	35.42
571.833	35.52
572.174	35.62
572.514	35.44
572.855	35.16
573.195	35.12
573.536	35.36
573.876	35.38
574.217	35.57
574.557	35.39
574.898	35.4
575.238	35.36
575.578	35.51
575.918	35.61
576.258	35.73
576.598	35.81
576.938	35.72
577.278	35.99
577.618	35.79
577.958	35.82
578.298	36.03
578.638	35.86
578.977	36.14
579.317	36.23
579.657	36.31
579.996	36.29
580.336	36.41
580.675	36.4
581.014	36.46
581.354	36.69
581.693	36.41
582.032	36.44
582.372	36.72
582.711	36.73
583.05	36.45
583.389	36.96
583.728	36.61
584.067	37.13
584.406	36.79
584.745	37.02
585.083	36.71
585.422	37.14
585.761	37.1
586.1	36.86
586.438	37.02
586.777	37.42
587.115	37.01
587.454	37.46
587.792	37.24
588.13	37.56
588.469	37.31
588.807	36.92
589.145	37.01
589.483	37.68
589.821	37.37
590.159	37.19
590.497	37.39
590.835	37.32
591.173	37.55
591.511	37.28
591.849	37.57
592.187	37.55
592.524	37.52
592.862	37.52
593.2	37.56
593.537	37.31
593.875	37.71
594.212	37.61
594.55	37.9
594.887	38.06
595.224	38.12
595.561	38.06
595.899	37.51
596.236	37.8
596.573	37.71
596.91	37.89
597.247	37.97
597.584	37.92
597.921	37.84
598.258	38.27
598.594	38.06
598.931	37.87
599.268	37.76
599.604	37.77
599.941	37.97
600.277	38.09
600.614	38.29
600.95	38.44
601.287	38.37
601.623	38.71
601.959	38.61
602.296	38.79
602.632	38.54
602.968	38.65
603.304	38.52
603.64	38.33
603.976	38.4
604.312	38.46
604.648	38.71
604.984	38.31
605.319	38.39
605.655	38.62
605.991	38.8
606.326	38.24
606.662	38.55
606.998	38.38
607.333	38.59
607.668	38.94
608.004	39
608.339	39.08
608.674	38.93
609.01	38.94
609.345	39.24
609.68	39.33
610.015	38.85
610.35	39.07
610.685	39.2
611.02	38.88
611.355	38.96
611.689	38.97
612.024	39.03
612.359	39.56
612.694	39.24
613.028	39.09
613.363	39.3
613.697	39.6
614.032	39.52
614.366	39.33
614.7	39.76
615.035	39.92
615.369	39.52
615.703	39.91
616.037	39.52
616.371	39.48
616.705	39.71
617.039	39.93
617.373	39.84
617.707	39.7
618.041	40.56
618.375	39.99
618.709	40.62
619.042	39.73
619.376	39.9
619.71	40.16
620.043	39.85
620.377	39.7
620.71	39.79
621.043	39.93
621.377	39.85
621.71	40.42
622.043	40.08
622.376	40.34
622.709	41.03
623.043	39.68
623.376	40.77
623.709	40.35
624.041	40.3
624.374	39.97
624.707	40.48
625.04	40.6
625.373	40.85
625.705	40.63
626.038	40.84
626.37	40.47
626.703	41.07
627.035	40.55
627.368	40.74
627.7	40.19
628.032	40.67
628.365	40.66
628.697	40.77
629.029	40.7
629.361	40.38
629.693	40.87
630.025	40.67
630.357	40.74
630.689	40.84
631.021	40.68
631.353	40.85
631.684	40.9
632.016	41.11
632.348	40.8
632.679	40.91
633.011	40.99
633.342	41.16
633.674	41.2
634.005	41.46
634.336	41.23
634.668	41.48
634.999	41.01
635.33	41.34
635.661	41.62
635.992	41.13
636.323	41.56
636.654	41.63
636.985	41.42
637.316	41.16
637.647	41.24
637.977	41.47
638.308	41.25
638.639	42.05
638.969	41.11
639.3	41.51
639.63	42.46
639.961	41.7
640.291	41.68
640.622	42.14
640.952	41.74
641.282	41.86
641.612	41.89
641.943	41.92
642.273	42.21
642.603	42.69
642.933	42.28
643.263	41.45
643.592	42.15
643.922	42.5
644.252	42.36
644.582	41.98
644.911	41.91
645.241	41.6
645.571	42.56
645.9	42.54
646.23	42.19
646.559	42.85
646.888	41.94
647.218	42.39
647.547	42.54
647.876	42.55
648.205	42.01
648.534	42.65
648.863	42.27
649.192	42.92
649.521	42.63
649.85	42.17
650.179	42.48
650.508	42.63
650.837	43.08
651.165	42.74
651.494	42.5
651.822	42.69
652.151	42.94
652.479	43.08
652.808	42.45
653.136	43.11
653.465	43.2
653.793	42.8
654.121	43.22
654.449	42.94
654.777	43.21
655.105	43.35
655.433	43.11
655.761	43.05
656.089	42.96
656.417	43.35
656.745	43.59
657.073	42.54
657.4	42.84
657.728	42.28
658.056	43.13
658.383	42.93
658.711	43.32
659.038	43.57
659.365	43.06
659.693	43.41
660.02	43.09
660.347	42.88
660.674	43.57
661.001	43.27
661.329	43.17
661.656	43.24
661.982	42.82
662.309	43.42
662.636	43.49
662.963	43.12
663.29	43.6
663.616	43.43
663.943	43.9
664.27	44.33
664.596	43.97
664.923	44.18
665.249	43.41
665.576	43.56
665.902	43.87
666.228	43.43
666.554	43.85
666.881	44.14
667.207	43.88
667.533	44.05
667.859	44.03
668.185	44.86
668.511	43.98
668.837	44.26
669.162	44.39
669.488	43.6
669.814	44.29
670.139	44.8
670.465	43.89
