Data from 0360_chest_Reflection__4__35.txt Node

Date: Mon Dec 11 17:57:49 CST 2023
User: ToomeyLab
Spectrometer: FLMS14357
Trigger mode: 0
Integration Time (sec): 1.000000E-2
Scans to average: 100
Electric dark correction enabled: true
Nonlinearity correction enabled: false
Boxcar width: 0
XAxis mode: Wavelengths
Number of Pixels in Spectrum: 2048
>>>>>Begin Spectral Data<<<<<
189.047	23.7
189.435	23.7
189.823	23.7
190.211	-465.69
190.599	1.87
190.987	41.27
191.375	63.92
191.763	166.15
192.151	-108.12
192.538	96.96
192.926	377.29
193.314	-118.2
193.702	161.59
194.089	417.22
194.477	49.22
194.864	5.67
195.252	255.17
195.639	-633.83
196.027	57.6
196.414	-197.18
196.801	113.47
197.189	360.59
197.576	177.84
197.963	55.1
198.351	-3.69
198.738	8.17
199.125	-52.49
199.512	22.04
199.899	-12.73
200.286	38.4
200.673	6.5
201.06	14.68
201.447	18.82
201.833	33.84
202.22	16.97
202.607	-12.67
202.994	-5.83
203.38	-35.54
203.767	57.4
204.154	18.99
204.54	-8.85
204.927	7.85
205.313	-1.45
205.699	-24.84
206.086	-36.27
206.472	45.35
206.858	7.45
207.245	3.09
207.631	-2.41
208.017	-5.08
208.403	-11.09
208.789	-2.62
209.175	61.48
209.561	24.95
209.947	-2.05
210.333	5
210.719	17.27
211.105	14.92
211.491	-19.96
211.876	19.58
212.262	-20.97
212.648	28.86
213.034	3.83
213.419	29.95
213.805	-0.86
214.19	25.12
214.576	-23.93
214.961	17.19
215.346	-11.77
215.732	5.47
216.117	11.04
216.502	-6.65
216.888	0.38
217.273	33.14
217.658	6.5
218.043	11.02
218.428	12.51
218.813	1.39
219.198	3.76
219.583	24.61
219.968	-1.45
220.353	-21.53
220.738	43.32
221.122	8.32
221.507	12.75
221.892	3.25
222.276	4.34
222.661	-7.97
223.046	-6.13
223.43	18.49
223.815	-9.33
224.199	2.85
224.583	-2.81
224.968	5.33
225.352	8.92
225.736	6.36
226.121	6.8
226.505	0.7
226.889	0.78
227.273	4.09
227.657	10.72
228.041	7.8
228.425	1.46
228.809	0.17
229.193	2.94
229.577	5.53
229.961	2.69
230.344	4.33
230.728	4.32
231.112	4.19
231.495	5.06
231.879	4.04
232.263	2.63
232.646	3.7
233.03	2.97
233.413	3.27
233.797	3.83
234.18	4.46
234.563	3.85
234.946	7.11
235.33	5.59
235.713	4.44
236.096	5
236.479	5.21
236.862	2.38
237.245	3.83
237.628	2.08
238.011	4.49
238.394	5.06
238.777	5.55
239.16	4.12
239.543	4.33
239.925	2.49
240.308	4.65
240.691	5.13
241.073	2.94
241.456	5.34
241.838	6.37
242.221	4.4
242.603	3.51
242.986	3.59
243.368	4.34
243.75	4.24
244.133	3.89
244.515	3.91
244.897	4.2
245.279	4.62
245.661	3.46
246.043	3.59
246.425	4.52
246.807	4.56
247.189	3.58
247.571	3.81
247.953	4.14
248.335	4.29
248.717	4.31
249.098	3.93
249.48	3.85
249.862	4.11
250.243	3.83
250.625	4.18
251.006	3.98
251.388	4.04
251.769	4.42
252.151	5.38
252.532	4.2
252.913	4.04
253.295	4.88
253.676	4.13
254.057	4.2
254.438	4.21
254.819	3.46
255.2	3.26
255.581	3.53
255.962	3.14
256.343	2.88
256.724	4.55
257.105	3.81
257.486	3.1
257.867	5.32
258.247	3.55
258.628	4.34
259.009	5.49
259.389	5.31
259.77	4.13
260.15	3.81
260.531	3.94
260.911	3.4
261.292	3.59
261.672	3.86
262.052	3.73
262.432	3.91
262.813	3.7
263.193	3.6
263.573	4.12
263.953	4.4
264.333	3.31
264.713	3.71
265.093	4.1
265.473	4.45
265.853	4.18
266.233	3.38
266.612	3.52
266.992	3.7
267.372	4.84
267.752	4.37
268.131	4.28
268.511	3.28
268.89	3.96
269.27	4.18
269.649	3.95
270.029	4.21
270.408	3.58
270.787	3.46
271.167	2.95
271.546	3.97
271.925	3.73
272.304	4.39
272.683	3.73
273.062	3.46
273.441	3.33
273.82	3.43
274.199	3.83
274.578	3.67
274.957	3.94
275.336	3.88
275.715	3.42
276.093	4.23
276.472	3.61
276.851	3.94
277.229	4.22
277.608	4.02
277.986	4.22
278.365	3.41
278.743	3.78
279.122	3.72
279.5	4.31
279.878	3.76
280.257	3.69
280.635	3.29
281.013	3.5
281.391	4.31
281.769	4.07
282.147	3.31
282.525	3.05
282.903	3.74
283.281	3.51
283.659	3.4
284.037	2.98
284.415	3.47
284.792	3.77
285.17	3.59
285.548	3.28
285.925	3.35
286.303	3.62
286.68	3.61
287.058	3.79
287.435	3.6
287.813	3.74
288.19	3.78
288.567	3.47
288.945	3.85
289.322	3.56
289.699	3.59
290.076	3.66
290.453	4.04
290.83	4.01
291.207	3.95
291.584	3.82
291.961	3.89
292.338	3.81
292.715	3.95
293.092	3.69
293.469	3.86
293.845	3.92
294.222	4.23
294.599	3.41
294.975	3.7
295.352	3.52
295.728	4.08
296.105	4.06
296.481	4.1
296.858	3.63
297.234	4.13
297.61	3.83
297.986	4.27
298.363	3.85
298.739	4.01
299.115	3.78
299.491	4.14
299.867	3.98
300.243	4
300.619	3.86
300.995	3.75
301.371	3.91
301.746	3.82
302.122	3.68
302.498	4.74
302.874	4.14
303.249	4.34
303.625	4.12
304	4.35
304.376	4.09
304.751	3.92
305.127	4.29
305.502	4.13
305.878	4.32
306.253	4.51
306.628	4.26
307.003	4.86
307.378	4.54
307.754	4.67
308.129	4.46
308.504	4.2
308.879	4.35
309.254	4.4
309.629	4.79
310.003	4.33
310.378	4.16
310.753	4.42
311.128	4.29
311.502	4.19
311.877	4.49
312.252	4.78
312.626	4.57
313.001	4.48
313.375	4.23
313.75	4.06
314.124	4.03
314.498	4.15
314.873	4.36
315.247	3.96
315.621	5.22
315.995	4.51
316.369	4.92
316.743	5.05
317.117	4.67
317.491	4.44
317.865	4.56
318.239	5.1
318.613	4.61
318.987	4.58
319.361	4.79
319.734	4.69
320.108	4.58
320.482	4.72
320.855	4.03
321.229	4.45
321.602	4.61
321.976	5.32
322.349	4.08
322.723	4.73
323.096	5.11
323.469	5.31
323.843	4.78
324.216	4.98
324.589	4.74
324.962	4.8
325.335	4.87
325.708	4.9
326.081	5.41
326.454	4.65
326.827	4.57
327.2	4.49
327.573	4.58
327.945	4.83
328.318	5.04
328.691	4.82
329.063	4.47
329.436	5.1
329.809	4.57
330.181	5.36
330.553	4.54
330.926	4.66
331.298	5.28
331.671	4.94
332.043	5.38
332.415	5.14
332.787	5.26
333.159	4.69
333.532	4.45
333.904	4.83
334.276	4.93
334.648	5.01
335.02	4.97
335.391	4.65
335.763	4.58
336.135	4.85
336.507	5.01
336.879	5.15
337.25	4.65
337.622	4.85
337.993	4.91
338.365	4.72
338.736	5.4
339.108	5.26
339.479	4.71
339.851	4.68
340.222	4.84
340.593	4.42
340.964	5.33
341.336	5.02
341.707	4.58
342.078	4.85
342.449	5.32
342.82	4.79
343.191	4.81
343.562	4.76
343.933	5.01
344.303	4.84
344.674	5.33
345.045	5.42
345.416	4.48
345.786	5.05
346.157	4.65
346.527	5.18
346.898	5.15
347.268	5.05
347.639	5.12
348.009	5.13
348.38	4.77
348.75	4.75
349.12	5.32
349.49	4.85
349.861	4.86
350.231	5.24
350.601	5.43
350.971	4.99
351.341	5.1
351.711	4.69
352.081	4.76
352.45	5.14
352.82	4.33
353.19	4.7
353.56	4.68
353.929	5
354.299	5.12
354.669	5.11
355.038	5.17
355.408	4.83
355.777	5.13
356.147	5.13
356.516	4.72
356.885	5.05
357.254	5.01
357.624	5.23
357.993	4.84
358.362	5.54
358.731	5.02
359.1	4.95
359.469	5.04
359.838	5.15
360.207	4.99
360.576	4.97
360.945	5.43
361.314	5.47
361.682	4.81
362.051	5.13
362.42	5.05
362.788	4.91
363.157	4.88
363.525	4.73
363.894	5.11
364.262	5.05
364.631	5.23
364.999	5.03
365.367	5.25
365.735	5.2
366.104	5.13
366.472	5.04
366.84	4.97
367.208	5.08
367.576	5.36
367.944	5.16
368.312	5.15
368.68	5.18
369.048	4.96
369.416	4.78
369.783	5.19
370.151	5.3
370.519	5.41
370.886	5.14
371.254	5.76
371.621	5.4
371.989	5.33
372.356	5.25
372.724	5.57
373.091	5.41
373.458	5.57
373.826	5.41
374.193	5.24
374.56	5.15
374.927	5.52
375.294	5.31
375.661	5.12
376.028	5.28
376.395	5.61
376.762	5.29
377.129	5.48
377.496	5.09
377.863	5.21
378.229	5.12
378.596	5.3
378.963	5.41
379.329	5.07
379.696	5.46
380.062	5.25
380.429	5.38
380.795	5.64
381.161	5.48
381.528	5.4
381.894	5.16
382.26	5.53
382.626	5.32
382.993	5.43
383.359	5.47
383.725	5.3
384.091	5.33
384.457	5.34
384.823	5.69
385.188	5.44
385.554	5.23
385.92	5.51
386.286	5.34
386.651	5.44
387.017	5.52
387.383	5.38
387.748	5.36
388.114	5.05
388.479	5.25
388.845	5.31
389.21	5.71
389.575	5.69
389.94	5.47
390.306	5.65
390.671	5.38
391.036	5.48
391.401	5.7
391.766	5.38
392.131	5.29
392.496	5.65
392.861	5.82
393.226	5.61
393.591	5.67
393.956	5.55
394.32	5.42
394.685	5.22
395.05	5.55
395.414	5.77
395.779	5.62
396.143	5.48
396.508	5.34
396.872	5.51
397.236	5.5
397.601	5.46
397.965	5.46
398.329	5.67
398.694	5.48
399.058	5.47
399.422	5.55
399.786	5.46
400.15	5.31
400.514	5.78
400.878	5.57
401.242	5.74
401.605	5.74
401.969	5.51
402.333	5.61
402.697	5.39
403.06	5.42
403.424	5.73
403.787	5.83
404.151	5.66
404.514	5.54
404.878	5.7
405.241	5.49
405.604	5.51
405.968	5.71
406.331	5.47
406.694	5.49
407.057	5.4
407.42	5.95
407.783	5.57
408.146	5.73
408.509	5.76
408.872	5.58
409.235	5.45
409.598	5.57
409.961	5.89
410.323	5.63
410.686	5.72
411.049	5.72
411.411	5.6
411.774	5.82
412.136	5.58
412.499	5.84
412.861	5.64
413.223	5.84
413.586	5.78
413.948	5.64
414.31	5.77
414.672	5.47
415.035	5.63
415.397	5.59
415.759	5.7
416.121	5.81
416.483	5.74
416.845	6
417.206	5.6
417.568	5.69
417.93	6.01
418.292	5.68
418.653	5.57
419.015	5.76
419.377	5.95
419.738	5.71
420.1	5.78
420.461	5.7
420.822	5.63
421.184	5.69
421.545	5.65
421.906	5.73
422.267	5.64
422.629	5.66
422.99	5.68
423.351	5.63
423.712	5.57
424.073	5.69
424.434	5.7
424.795	5.75
425.155	5.62
425.516	5.77
425.877	5.61
426.238	5.75
426.598	5.68
426.959	5.64
427.32	5.85
427.68	5.89
428.041	5.71
428.401	5.8
428.761	5.92
429.122	5.94
429.482	5.99
429.842	6
430.202	5.94
430.563	5.71
430.923	5.86
431.283	5.95
431.643	6.12
432.003	6.05
432.363	6.01
432.722	6.12
433.082	6.06
433.442	6.06
433.802	5.84
434.161	6.07
434.521	5.91
434.881	5.93
435.24	5.93
435.6	5.88
435.959	6.03
436.319	6
436.678	5.96
437.037	5.97
437.396	6.07
437.756	6.12
438.115	6.23
438.474	6.03
438.833	6.1
439.192	6.05
439.551	6.05
439.91	6.18
440.269	6.18
440.628	5.88
440.987	6.25
441.345	6.09
441.704	6.11
442.063	6.05
442.421	6.03
442.78	5.98
443.138	6.1
443.497	5.97
443.855	5.99
444.214	6.4
444.572	6.14
444.93	6.29
445.288	6.31
445.647	6.18
446.005	6
446.363	6.26
446.721	6.19
447.079	6.08
447.437	6.19
447.795	6.07
448.153	6.02
448.51	6.14
448.868	5.96
449.226	6.01
449.584	6.12
449.941	6.25
450.299	6.13
450.656	6.14
451.014	6.39
451.371	6.05
451.729	6.26
452.086	6.17
452.443	6.41
452.801	6.29
453.158	6.31
453.515	6.16
453.872	6.19
454.229	6.25
454.586	6.18
454.943	6.34
455.3	6.36
455.657	6.28
456.014	6.46
456.371	6.49
456.727	6.43
457.084	6.34
457.441	6.34
457.797	6.32
458.154	6.42
458.51	6.36
458.867	6.17
459.223	6.24
459.58	6.28
459.936	6.45
460.292	6.48
460.648	6.31
461.005	6.26
461.361	6.27
461.717	6.16
462.073	6.22
462.429	6.35
462.785	6.34
463.141	6.37
463.496	6.39
463.852	6.39
464.208	6.44
464.564	6.41
464.919	6.51
465.275	6.45
465.631	6.43
465.986	6.44
466.342	6.5
466.697	6.57
467.052	6.45
467.408	6.66
467.763	6.6
468.118	6.44
468.473	6.5
468.829	6.59
469.184	6.8
469.539	6.6
469.894	6.52
470.249	6.38
470.603	6.54
470.958	6.75
471.313	6.56
471.668	6.79
472.023	6.84
472.377	6.53
472.732	6.5
473.086	6.64
473.441	6.74
473.795	6.66
474.15	6.74
474.504	6.66
474.859	6.47
475.213	6.64
475.567	6.91
475.921	6.76
476.275	6.54
476.63	6.56
476.984	6.65
477.338	6.49
477.692	6.65
478.045	6.63
478.399	6.49
478.753	6.38
479.107	6.62
479.461	6.73
479.814	6.57
480.168	6.77
480.521	6.81
480.875	6.76
481.228	6.65
481.582	6.87
481.935	6.71
482.289	6.72
482.642	6.67
482.995	6.76
483.348	6.62
483.701	6.53
484.055	6.74
484.408	6.61
484.761	6.53
485.114	6.43
485.466	6.33
485.819	6.24
486.172	6.32
486.525	6.38
486.878	6.5
487.23	6.54
487.583	6.54
487.936	6.56
488.288	6.7
488.641	6.57
488.993	6.48
489.345	6.51
489.698	6.46
490.05	6.45
490.402	6.53
490.754	6.61
491.107	6.65
491.459	6.69
491.811	6.83
492.163	6.78
492.515	6.8
492.866	6.71
493.218	6.58
493.57	6.64
493.922	6.65
494.274	6.7
494.625	6.79
494.977	6.89
495.328	6.98
495.68	6.97
496.031	6.89
496.383	6.98
496.734	6.94
497.086	7.11
497.437	7.07
497.788	7.1
498.139	7.03
498.49	6.94
498.842	7.07
499.193	7.14
499.544	7.06
499.894	7.05
500.245	7.07
500.596	7.13
500.947	6.99
501.298	7.05
501.648	7.07
501.999	7.08
502.35	7.15
502.7	7.24
503.051	7.04
503.401	7.26
503.752	7.28
504.102	7.25
504.452	7.23
504.803	7.37
505.153	7.36
505.503	7.33
505.853	7.24
506.203	7.14
506.553	7.35
506.903	7.15
507.253	7.27
507.603	7.17
507.953	7.32
508.303	7.21
508.652	7.29
509.002	7.39
509.352	7.34
509.701	7.37
510.051	7.32
510.4	7.31
510.75	7.25
511.099	7.28
511.449	7.36
511.798	7.25
512.147	7.43
512.496	7.35
512.846	7.47
513.195	7.46
513.544	7.52
513.893	7.39
514.242	7.45
514.591	7.31
514.939	7.39
515.288	7.52
515.637	7.43
515.986	7.41
516.334	7.55
516.683	7.71
517.032	7.53
517.38	7.68
517.729	7.63
518.077	7.5
518.426	7.63
518.774	7.64
519.122	7.6
519.47	7.54
519.819	7.5
520.167	7.5
520.515	7.47
520.863	7.37
521.211	7.62
521.559	7.48
521.907	7.59
522.255	7.57
522.602	7.55
522.95	7.7
523.298	7.74
523.645	7.9
523.993	7.8
524.341	7.92
524.688	7.77
525.036	7.88
525.383	7.85
525.73	7.79
526.078	7.81
526.425	7.69
526.772	7.7
527.119	7.79
527.466	7.73
527.814	7.66
528.161	7.77
528.508	7.67
528.854	7.79
529.201	7.68
529.548	7.69
529.895	7.72
530.242	7.54
530.588	7.48
530.935	7.56
531.282	7.63
531.628	7.66
531.975	7.66
532.321	7.79
532.667	7.91
533.014	7.88
533.36	7.99
533.706	8.04
534.052	8
534.399	7.97
534.745	7.86
535.091	7.77
535.437	7.76
535.783	7.88
536.129	7.96
536.474	8.08
536.82	8.03
537.166	8.04
537.512	8.08
537.857	8.25
538.203	8.08
538.549	8.06
538.894	8.13
539.239	8.19
539.585	8.18
539.93	8.24
540.276	8.36
540.621	8.32
540.966	8.41
541.311	8.47
541.656	8.43
542.001	8.51
542.346	8.45
542.691	8.29
543.036	8.23
543.381	8.1
543.726	8.1
544.071	8.27
544.415	8.27
544.76	8.33
545.105	8.35
545.449	8.3
545.794	8.41
546.138	8.63
546.483	8.5
546.827	8.69
547.171	8.56
547.516	8.59
547.86	8.7
548.204	8.69
548.548	8.77
548.892	8.63
549.236	8.6
549.58	8.92
549.924	8.87
550.268	8.86
550.612	8.8
550.956	8.76
551.3	8.97
551.643	9.12
551.987	9.07
552.33	9.13
552.674	9.12
553.017	9.15
553.361	9
553.704	8.96
554.048	9.2
554.391	9
554.734	8.93
555.077	9.12
555.42	9.03
555.764	9.1
556.107	9.27
556.45	9.33
556.793	9.35
557.135	9.31
557.478	9.46
557.821	9.24
558.164	9.61
558.507	9.26
558.849	9.42
559.192	9.44
559.534	9.45
559.877	9.47
560.219	9.53
560.562	9.73
560.904	9.63
561.246	9.9
561.589	9.73
561.931	9.65
562.273	9.52
562.615	9.58
562.957	9.9
563.299	9.75
563.641	9.68
563.983	9.73
564.325	9.75
564.667	9.93
565.008	9.89
565.35	10.09
565.692	9.83
566.033	9.75
566.375	10.28
566.716	10.11
567.058	9.91
567.399	10
567.741	9.83
568.082	10.13
568.423	9.85
568.764	10.02
569.105	10.04
569.447	10.08
569.788	10.14
570.129	10.07
570.47	9.89
570.811	9.87
571.151	10.29
571.492	10.29
571.833	10.29
572.174	10.44
572.514	10.23
572.855	10.04
573.195	10.32
573.536	10.35
573.876	10.34
574.217	10.45
574.557	10.19
574.898	10.56
575.238	10.61
575.578	10.4
575.918	10.62
576.258	10.52
576.598	10.6
576.938	10.67
577.278	10.72
577.618	10.48
577.958	10.72
578.298	10.88
578.638	10.94
578.977	10.83
579.317	10.78
579.657	10.84
579.996	10.84
580.336	10.81
580.675	11.08
581.014	10.99
581.354	10.92
581.693	11.1
582.032	10.99
582.372	11.24
582.711	11.04
583.05	11.28
583.389	11.3
583.728	11.45
584.067	11.1
584.406	11.22
584.745	11.39
585.083	11.28
585.422	11.56
585.761	11.44
586.1	11.39
586.438	11.18
586.777	11.41
587.115	11.25
587.454	11.48
587.792	11.48
588.13	11.64
588.469	11.6
588.807	11.73
589.145	11.81
589.483	11.81
589.821	11.49
590.159	11.68
590.497	11.87
590.835	11.8
591.173	11.86
591.511	12
591.849	12.24
592.187	11.84
592.524	11.58
592.862	11.81
593.2	12.07
593.537	11.93
593.875	12.05
594.212	12.01
594.55	12.05
594.887	12.32
595.224	12.32
595.561	12.35
595.899	12.36
596.236	12.3
596.573	12.36
596.91	12.27
597.247	12.46
597.584	12.24
597.921	12.42
598.258	12.59
598.594	12.34
598.931	12.32
599.268	12.31
599.604	12.31
599.941	12.53
600.277	12.48
600.614	12.63
600.95	12.71
601.287	12.73
601.623	12.72
601.959	12.78
602.296	12.77
602.632	12.74
602.968	12.63
603.304	13.06
603.64	12.9
603.976	12.69
604.312	13.23
604.648	12.93
604.984	12.91
605.319	12.92
605.655	13.07
605.991	13
606.326	13.1
606.662	12.95
606.998	12.96
607.333	13.23
607.668	13.37
608.004	13.03
608.339	13.29
608.674	13.43
609.01	13.55
609.345	13.39
609.68	13.42
610.015	13.63
610.35	13.55
610.685	13.47
611.02	13.05
611.355	13.78
611.689	13.57
612.024	13.66
612.359	13.41
612.694	13.74
613.028	13.55
613.363	13.66
613.697	13.68
614.032	14.02
614.366	14
614.7	14.01
615.035	14.17
615.369	14.09
615.703	14.1
616.037	14.12
616.371	14.21
616.705	14.13
617.039	14.04
617.373	14.3
617.707	14.36
618.041	14.53
618.375	14.37
618.709	14.13
619.042	14.69
619.376	14.61
619.71	14.19
620.043	14.29
620.377	14.57
620.71	14.79
621.043	14.52
621.377	14.13
621.71	14.5
622.043	14.19
622.376	14.72
622.709	15.21
623.043	15
623.376	14.97
623.709	15.07
624.041	14.84
624.374	14.93
624.707	14.58
625.04	15.12
625.373	15.3
625.705	15.2
626.038	14.95
626.37	15.04
626.703	15.34
627.035	14.99
627.368	15.77
627.7	15.29
628.032	14.97
628.365	15.16
628.697	15.18
629.029	15.36
629.361	15.38
629.693	15.18
630.025	15.35
630.357	15.39
630.689	15.35
631.021	16.07
631.353	15.52
631.684	15.67
632.016	15.75
632.348	15.57
632.679	16.07
633.011	15.75
633.342	15.98
633.674	16.18
634.005	16.24
634.336	15.99
634.668	16.1
634.999	16.39
635.33	15.66
635.661	16.29
635.992	16.6
636.323	16.15
636.654	16.37
636.985	15.95
637.316	16.25
637.647	16.44
637.977	16.32
638.308	16.35
638.639	16.49
638.969	16.49
639.3	16.61
639.63	16.49
639.961	16.51
640.291	17.06
640.622	16.86
640.952	17.33
641.282	17.04
641.612	16.8
641.943	16.76
642.273	16.43
642.603	17.06
642.933	16.77
643.263	16.94
643.592	16.97
643.922	17.14
644.252	16.51
644.582	16.97
644.911	17.15
645.241	16.92
645.571	17.45
645.9	16.96
646.23	17.03
646.559	17.02
646.888	17.51
647.218	17.26
647.547	17.13
647.876	17.15
648.205	16.85
648.534	17.79
648.863	17.58
649.192	17.51
649.521	17.45
649.85	17.87
650.179	17.75
650.508	17.81
650.837	17.44
651.165	18.13
651.494	17.76
651.822	17.77
652.151	17.76
652.479	18.04
652.808	18
653.136	17.93
653.465	18.06
653.793	17.97
654.121	18.15
654.449	17.93
654.777	17.75
655.105	18.09
655.433	18.14
655.761	18.28
656.089	18.25
656.417	18.24
656.745	18.62
657.073	18.44
657.4	18.6
657.728	18.6
658.056	18.58
658.383	18.49
658.711	18.59
659.038	18.45
659.365	18.62
659.693	18.36
660.02	18.13
660.347	18.58
660.674	18.41
661.001	18.38
661.329	18.54
661.656	18.47
661.982	18.97
662.309	19.05
662.636	18.78
662.963	19.1
663.29	19.19
663.616	18.51
663.943	18.72
664.27	19.08
664.596	19.38
664.923	18.56
665.249	19.5
665.576	19.15
665.902	19.26
666.228	19.32
666.554	19.01
666.881	19.2
667.207	19.63
667.533	19.7
667.859	19.23
668.185	19.89
668.511	19.83
668.837	19.8
669.162	19.94
669.488	19.27
669.814	19.44
670.139	19.86
670.465	19.42
670.791	19.31
671.116	20.2
671.442	20.35
671.767	19.97
672.092	19.75
672.418	19.91
672.743	19.73
673.068	19.63
673.393	19.84
673.718	19.89
674.043	20.12
674.368	20.11
674.693	20.11
675.018	20.97
675.343	19.46
675.667	20.43
675.992	20.91
676.317	20.52
676.641	20.9
676.966	20.43
677.29	20.35
677.615	20.62
677.939	20.21
678.264	20.54
678.588	21.25
678.912	20.64
679.236	20.88
679.56	20.56
679.885	20.72
680.209	20.78
680.532	21.2
680.856	21.11
681.18	21.62
681.504	20.94
681.828	20.22
682.152	20.57
682.475	21.49
682.799	21.08
683.122	20.66
683.446	21.01
683.769	20.97
684.093	21.37
684.416	20.9
684.739	22.1
685.062	21.62
