Data from 0360_forehead_Reflection__1__42.txt Node

Date: Mon Dec 11 18:02:08 CST 2023
User: ToomeyLab
Spectrometer: FLMS14357
Trigger mode: 0
Integration Time (sec): 1.000000E-2
Scans to average: 100
Electric dark correction enabled: true
Nonlinearity correction enabled: false
Boxcar width: 0
XAxis mode: Wavelengths
Number of Pixels in Spectrum: 2048
>>>>>Begin Spectral Data<<<<<
189.047	-56.52
189.435	-56.52
189.823	-56.52
190.211	-472.57
190.599	59.74
190.987	-23.7
191.375	222.54
191.763	217.04
192.151	75.33
192.538	63.86
192.926	125.85
193.314	-287.7
193.702	464.11
194.089	-126.09
194.477	26.2
194.864	81.34
195.252	161.01
195.639	25.84
196.027	64.68
196.414	-92.94
196.801	44.97
197.189	133.13
197.576	171.79
197.963	-19.45
198.351	-2.58
198.738	33.75
199.125	18.41
199.512	44.1
199.899	49.01
200.286	18.54
200.673	10.64
201.06	65.84
201.447	20.36
201.833	37.68
202.22	51.22
202.607	35.63
202.994	-10.14
203.38	-40.31
203.767	49.09
204.154	32.83
204.54	17.25
204.927	2.19
205.313	7.15
205.699	-16.17
206.086	15.66
206.472	38.98
206.858	-25.97
207.245	21.25
207.631	38.17
208.017	30.79
208.403	49.27
208.789	-6.25
209.175	39.04
209.561	39.72
209.947	0.56
210.333	53.47
210.719	41.5
211.105	18.2
211.491	25.78
211.876	23.78
212.262	5.98
212.648	36.74
213.034	8.98
213.419	17.95
213.805	1.95
214.19	23.01
214.576	-15.68
214.961	4.61
215.346	8.8
215.732	51.53
216.117	7.12
216.502	39.49
216.888	7.41
217.273	27.99
217.658	20.31
218.043	-4.25
218.428	19.01
218.813	17.57
219.198	-4.8
219.583	28.43
219.968	12.76
220.353	-5.8
220.738	15.52
221.122	13.86
221.507	28.67
221.892	8.93
222.276	7.13
222.661	0.81
223.046	2.37
223.43	10.36
223.815	7.74
224.199	7.37
224.583	9.18
224.968	7.14
225.352	11.34
225.736	5.98
226.121	4.54
226.505	7.99
226.889	12.37
227.273	8.19
227.657	16.46
228.041	5.58
228.425	1.59
228.809	4.31
229.193	5.86
229.577	6.12
229.961	4.8
230.344	4.68
230.728	4.5
231.112	4.34
231.495	5.31
231.879	4.21
232.263	3.72
232.646	4.78
233.03	3.79
233.413	5.71
233.797	4.84
234.18	4.62
234.563	6.9
234.946	4.6
235.33	5.64
235.713	4.09
236.096	4.41
236.479	5.19
236.862	3.94
237.245	7.3
237.628	5.28
238.011	3.9
238.394	3.64
238.777	3.39
239.16	4.56
239.543	4.94
239.925	4.12
240.308	5.62
240.691	2.9
241.073	5.78
241.456	6.42
241.838	7.74
242.221	5.26
242.603	3.29
242.986	3.62
243.368	4.11
243.75	4.61
244.133	4.55
244.515	3.46
244.897	4.05
245.279	4.51
245.661	3.72
246.043	4.19
246.425	4.55
246.807	5.16
247.189	5.31
247.571	4.52
247.953	3.86
248.335	4.29
248.717	4.13
249.098	4.23
249.48	4.17
249.862	4.47
250.243	4.87
250.625	4.5
251.006	3.88
251.388	4.74
251.769	5.25
252.151	5.97
252.532	5.8
252.913	4.28
253.295	5.2
253.676	4.47
254.057	4.37
254.438	4.91
254.819	4.42
255.2	4.35
255.581	4.33
255.962	4.62
256.343	3.89
256.724	4.71
257.105	4.33
257.486	5.16
257.867	5.86
258.247	3.84
258.628	4.81
259.009	5.16
259.389	5.02
259.77	4.87
260.15	4.39
260.531	4.42
260.911	3.81
261.292	4.1
261.672	4.25
262.052	4.18
262.432	4.2
262.813	4.48
263.193	4.43
263.573	4.36
263.953	4.54
264.333	4.21
264.713	4.36
265.093	3.9
265.473	5.17
265.853	4.8
266.233	4.31
266.612	4.58
266.992	5.19
267.372	5.36
267.752	5.06
268.131	4.67
268.511	4.2
268.89	4.91
269.27	4.41
269.649	4.16
270.029	4.55
270.408	4.6
270.787	4.05
271.167	3.68
271.546	4.62
271.925	4.42
272.304	4.47
272.683	3.89
273.062	4.13
273.441	4.09
273.82	3.78
274.199	4.32
274.578	4.13
274.957	4.23
275.336	4.22
275.715	4.44
276.093	4.65
276.472	4.53
276.851	4.86
277.229	4.77
277.608	4.12
277.986	5.04
278.365	4.68
278.743	4.46
279.122	4.62
279.5	4.7
279.878	4.6
280.257	5.09
280.635	4.22
281.013	4.13
281.391	4.73
281.769	4.3
282.147	4.07
282.525	3.97
282.903	4.25
283.281	4.36
283.659	4
284.037	4.55
284.415	4.2
284.792	4.72
285.17	4.46
285.548	4.77
285.925	4.21
286.303	4.25
286.68	4.36
287.058	4.3
287.435	4.46
287.813	4.73
288.19	4.2
288.567	4.16
288.945	4.67
289.322	3.83
289.699	4.19
290.076	4.77
290.453	4.76
290.83	4.7
291.207	4.33
291.584	4.64
291.961	4.87
292.338	4.58
292.715	5.29
293.092	4.7
293.469	4.77
293.845	4.74
294.222	5.31
294.599	5.18
294.975	4.68
295.352	4.93
295.728	5.3
296.105	4.83
296.481	4.6
296.858	5.04
297.234	5.12
297.61	5.13
297.986	5.12
298.363	5.29
298.739	5.11
299.115	5.01
299.491	5.05
299.867	5.15
300.243	5.35
300.619	5.14
300.995	5.01
301.371	5.22
301.746	5.13
302.122	5.21
302.498	6
302.874	5.83
303.249	5.79
303.625	5.65
304	5.81
304.376	5.89
304.751	6.03
305.127	5.8
305.502	6.66
305.878	6.07
306.253	6.28
306.628	6.57
307.003	6.59
307.378	5.95
307.754	6.19
308.129	6.41
308.504	6.02
308.879	6.28
309.254	6.35
309.629	6.61
310.003	6.53
310.378	6.39
310.753	6.57
311.128	6.53
311.502	6.77
311.877	6.5
312.252	6.49
312.626	7.12
313.001	6.64
313.375	6.48
313.75	6.46
314.124	6.75
314.498	7.1
314.873	7.2
315.247	7.37
315.621	7.91
315.995	8.03
316.369	7.77
316.743	7.55
317.117	7.33
317.491	7.43
317.865	7.89
318.239	7.61
318.613	7.64
318.987	7.71
319.361	8
319.734	8.02
320.108	8.03
320.482	7.68
320.855	7.96
321.229	7.35
321.602	7.53
321.976	7.88
322.349	8.35
322.723	8.39
323.096	8.54
323.469	8.62
323.843	8.61
324.216	8.97
324.589	8.69
324.962	8.44
325.335	8.53
325.708	8.28
326.081	9.04
326.454	8.78
326.827	9.25
327.2	8.34
327.573	8.49
327.945	9.05
328.318	8.97
328.691	8.85
329.063	8.97
329.436	8.71
329.809	8.4
330.181	9
330.553	8.6
330.926	8.97
331.298	9.91
331.671	9.35
332.043	9.74
332.415	8.9
332.787	9.63
333.159	9.37
333.532	9.72
333.904	9.86
334.276	9.9
334.648	9.8
335.02	9.91
335.391	9.76
335.763	10
336.135	10.11
336.507	10.27
336.879	10.42
337.25	9.83
337.622	9.88
337.993	9.72
338.365	9.63
338.736	10.03
339.108	10.47
339.479	10.48
339.851	9.83
340.222	10.27
340.593	9.99
340.964	10.54
341.336	10.05
341.707	10.09
342.078	10.17
342.449	10.63
342.82	10.17
343.191	10.15
343.562	10.19
343.933	10.27
344.303	10.68
344.674	10.53
345.045	11.03
345.416	10.34
345.786	10.52
346.157	10.96
346.527	10.93
346.898	11.11
347.268	10.92
347.639	10.95
348.009	11.05
348.38	10.42
348.75	10.91
349.12	11.45
349.49	11.33
349.861	11.64
350.231	11.26
350.601	11.68
350.971	11.5
351.341	10.84
351.711	11.94
352.081	11.34
352.45	11.67
352.82	10.93
353.19	11.94
353.56	11.77
353.929	11.64
354.299	12.13
354.669	11.85
355.038	12.02
355.408	11.7
355.777	12.16
356.147	11.75
356.516	12.11
356.885	12.01
357.254	12.23
357.624	12.17
357.993	11.9
358.362	12.19
358.731	12.28
359.1	12.45
359.469	12.2
359.838	12.32
360.207	12.23
360.576	12.57
360.945	12.78
361.314	12.7
361.682	12.89
362.051	12.71
362.42	12.76
362.788	12.37
363.157	12.75
363.525	12.67
363.894	12.75
364.262	12.59
364.631	12.87
364.999	13.06
365.367	12.83
365.735	13.1
366.104	12.88
366.472	13.36
366.84	13.2
367.208	13.35
367.576	13.55
367.944	13.56
368.312	13.27
368.68	13.57
369.048	13.32
369.416	13.08
369.783	13.45
370.151	13.58
370.519	13.96
370.886	13.54
371.254	14.03
371.621	14.06
371.989	13.84
372.356	14.05
372.724	14.17
373.091	14.29
373.458	13.9
373.826	14.02
374.193	13.9
374.56	14.63
374.927	14.49
375.294	14.13
375.661	14.24
376.028	14.58
376.395	14.9
376.762	14.5
377.129	14.87
377.496	14.5
377.863	14.38
378.229	14.49
378.596	14.69
378.963	14.73
379.329	14.95
379.696	14.94
380.062	14.44
380.429	14.74
380.795	15.31
381.161	14.82
381.528	15.06
381.894	15.05
382.26	15.17
382.626	15.21
382.993	15.23
383.359	15.37
383.725	15.21
384.091	15.4
384.457	15.42
384.823	15.86
385.188	15.63
385.554	15.46
385.92	15.86
386.286	15.84
386.651	15.69
387.017	15.6
387.383	16.08
387.748	15.8
388.114	15.54
388.479	15.68
388.845	15.51
389.21	16.04
389.575	15.92
389.94	16.22
390.306	16.18
390.671	16.12
391.036	16.18
391.401	16.46
391.766	16.27
392.131	16.37
392.496	16.41
392.861	16.5
393.226	16.62
393.591	16.61
393.956	16.43
394.32	16.43
394.685	16.6
395.05	16.86
395.414	16.87
395.779	16.67
396.143	16.5
396.508	16.72
396.872	16.81
397.236	16.93
397.601	17.03
397.965	17.37
398.329	17.23
398.694	17.25
399.058	17.34
399.422	17.24
399.786	17.45
400.15	17.33
400.514	17.69
400.878	17.4
401.242	17.34
401.605	17.76
401.969	17.5
402.333	17.32
402.697	17.42
403.06	17.88
403.424	18.12
403.787	18.13
404.151	17.81
404.514	17.93
404.878	18.02
405.241	17.98
405.604	18.04
405.968	17.94
406.331	18.03
406.694	18.16
407.057	18.15
407.42	18.4
407.783	18.24
408.146	18.39
408.509	18.61
408.872	18.23
409.235	18.65
409.598	18.62
409.961	18.77
410.323	18.69
410.686	18.57
411.049	18.56
411.411	18.84
411.774	18.92
412.136	18.73
412.499	18.77
412.861	18.74
413.223	18.92
413.586	19.07
413.948	19.23
414.31	18.97
414.672	19
415.035	19.37
415.397	19.13
415.759	19.4
416.121	19.38
416.483	19.21
416.845	19.34
417.206	19.41
417.568	19.68
417.93	19.64
418.292	19.44
418.653	19.42
419.015	19.25
419.377	19.52
419.738	19.54
420.1	19.54
420.461	19.48
420.822	19.57
421.184	19.67
421.545	19.61
421.906	19.57
422.267	19.75
422.629	19.74
422.99	19.72
423.351	19.65
423.712	19.81
424.073	19.79
424.434	19.85
424.795	20.1
425.155	19.89
425.516	20.03
425.877	20.02
426.238	20.21
426.598	20.1
426.959	20.15
427.32	20.29
427.68	20.44
428.041	20.35
428.401	20.53
428.761	20.59
429.122	20.89
429.482	20.83
429.842	20.77
430.202	21.13
430.563	21.04
430.923	21.08
431.283	21.05
431.643	21.21
432.003	21.36
432.363	21.28
432.722	21.29
433.082	21.37
433.442	21.37
433.802	21.35
434.161	21.67
434.521	21.47
434.881	21.45
435.24	21.47
435.6	21.58
435.959	21.43
436.319	21.54
436.678	21.54
437.037	21.82
437.396	21.9
437.756	21.89
438.115	21.96
438.474	22.19
438.833	22.06
439.192	21.84
439.551	22.18
439.91	22.16
440.269	22.21
440.628	21.94
440.987	22.31
441.345	22.21
441.704	22.23
442.063	22.14
442.421	22.28
442.78	22.4
443.138	22.45
443.497	22.07
443.855	22.38
444.214	22.64
444.572	22.59
444.93	22.77
445.288	22.85
445.647	23.01
446.005	22.63
446.363	22.82
446.721	22.85
447.079	22.87
447.437	22.99
447.795	22.77
448.153	22.89
448.51	22.67
448.868	22.86
449.226	22.77
449.584	22.97
449.941	23.15
450.299	23.29
450.656	23.27
451.014	23.45
451.371	23.28
451.729	23.64
452.086	23.54
452.443	23.78
452.801	23.84
453.158	23.97
453.515	23.72
453.872	24.02
454.229	24
454.586	23.88
454.943	24.05
455.3	23.96
455.657	24.1
456.014	24.24
456.371	24.35
456.727	24.28
457.084	24.54
457.441	24.4
457.797	24.43
458.154	24.42
458.51	24.51
458.867	24.44
459.223	24.61
459.58	24.5
459.936	24.92
460.292	24.75
460.648	24.63
461.005	24.59
461.361	24.66
461.717	24.4
462.073	24.5
462.429	24.47
462.785	24.74
463.141	24.75
463.496	24.95
463.852	24.97
464.208	25.14
464.564	25.27
464.919	25.19
465.275	25.45
465.631	25.51
465.986	25.61
466.342	25.67
466.697	25.6
467.052	25.68
467.408	25.77
467.763	25.69
468.118	25.62
468.473	25.68
468.829	25.89
469.184	25.93
469.539	25.75
469.894	25.86
470.249	25.93
470.603	25.95
470.958	26.11
471.313	26.12
471.668	26.35
472.023	26.43
472.377	26.28
472.732	26.32
473.086	26.55
473.441	26.31
473.795	26.61
474.15	26.62
474.504	26.65
474.859	26.7
475.213	26.67
475.567	26.92
475.921	26.73
476.275	26.6
476.63	26.81
476.984	27.07
477.338	26.99
477.692	26.81
478.045	26.88
478.399	26.93
478.753	26.88
479.107	27.17
479.461	27.2
479.814	27.09
480.168	27.04
480.521	27.21
480.875	27.21
481.228	27.23
481.582	27.3
481.935	27.34
482.289	27.37
482.642	27.28
482.995	27.35
483.348	27.32
483.701	27.2
484.055	27.43
484.408	27.17
484.761	27.14
485.114	26.83
485.466	26.5
485.819	26.54
486.172	26.57
486.525	26.72
486.878	26.95
487.23	27.1
487.583	27.17
487.936	27.29
488.288	27.43
488.641	27.32
488.993	27.14
489.345	27.16
489.698	27.14
490.05	27.19
490.402	27.23
490.754	27.49
491.107	27.61
491.459	27.77
491.811	27.98
492.163	28.19
492.515	28.13
492.866	27.99
493.218	27.82
493.57	27.66
493.922	27.78
494.274	27.92
494.625	28.07
494.977	28.24
495.328	28.5
495.68	28.71
496.031	28.72
496.383	28.91
496.734	28.98
497.086	29.05
497.437	29.21
497.788	29.25
498.139	29.15
498.49	29.13
498.842	29.28
499.193	29.13
499.544	29.33
499.894	29.29
500.245	29.38
500.596	29.55
500.947	29.35
501.298	29.72
501.648	29.66
501.999	29.78
502.35	29.77
502.7	29.87
503.051	29.91
503.401	30.01
503.752	30.12
504.102	30.18
504.452	30.07
504.803	30.53
505.153	30.17
505.503	30.27
505.853	30.41
506.203	30.34
506.553	30.25
506.903	30.44
507.253	30.3
507.603	30.36
507.953	30.46
508.303	30.45
508.652	30.69
509.002	30.61
509.352	30.83
509.701	30.84
510.051	30.76
510.4	30.58
510.75	30.68
511.099	30.61
511.449	30.75
511.798	30.87
512.147	31.02
512.496	30.97
512.846	30.91
513.195	31.02
513.544	30.99
513.893	30.86
514.242	31.14
514.591	31.01
514.939	31.13
515.288	31.22
515.637	31.21
515.986	31.32
516.334	31.46
516.683	31.52
517.032	31.68
517.38	31.68
517.729	31.65
518.077	31.72
518.426	31.8
518.774	31.6
519.122	31.8
519.47	31.52
519.819	31.62
520.167	31.51
520.515	31.36
520.863	31.49
521.211	31.5
521.559	31.62
521.907	31.78
522.255	31.74
522.602	31.85
522.95	32.41
523.298	32.14
523.645	32.26
523.993	32.3
524.341	32.33
524.688	32.42
525.036	32.28
525.383	32.48
525.73	32.57
526.078	32.63
526.425	32.48
526.772	32.49
527.119	32.38
527.466	32.23
527.814	32.29
528.161	32.14
528.508	32.19
528.854	32.32
529.201	32.34
529.548	32.11
529.895	31.98
530.242	31.86
530.588	31.84
530.935	31.9
531.282	32.07
531.628	32.1
531.975	32.2
532.321	32.42
532.667	32.65
533.014	32.66
533.36	32.81
533.706	32.93
534.052	32.96
534.399	33.01
534.745	32.99
535.091	32.62
535.437	32.6
535.783	32.76
536.129	32.95
536.474	33.08
536.82	33.11
537.166	33.24
537.512	33.49
537.857	33.55
538.203	33.44
538.549	33.38
538.894	33.24
539.239	33.52
539.585	33.53
539.93	33.75
540.276	33.9
540.621	33.96
540.966	34.11
541.311	33.99
541.656	34
542.001	34.15
542.346	34.01
542.691	33.87
543.036	33.58
543.381	33.48
543.726	33.46
544.071	33.75
544.415	33.77
544.76	33.95
545.105	33.78
545.449	33.93
545.794	34.13
546.138	34.34
546.483	34.29
546.827	34.7
547.171	34.53
547.516	34.83
547.86	34.75
548.204	34.96
548.548	34.88
548.892	34.58
549.236	34.89
549.58	34.86
549.924	35.07
550.268	35.27
550.612	35.45
550.956	35.22
551.3	35.62
551.643	35.62
551.987	35.91
552.33	35.81
552.674	35.7
553.017	35.83
553.361	35.89
553.704	35.92
554.048	36.12
554.391	36.08
554.734	35.78
555.077	35.62
555.42	36.01
555.764	35.81
556.107	36.06
556.45	36.09
556.793	36.35
557.135	36.13
557.478	36.23
557.821	36.41
558.164	36.41
558.507	36.3
558.849	36.4
559.192	36.28
559.534	36.62
559.877	36.67
560.219	36.65
560.562	36.91
560.904	36.83
561.246	37.01
561.589	37.04
561.931	36.89
562.273	36.83
562.615	36.97
562.957	37.18
563.299	37.12
563.641	36.83
563.983	37.1
564.325	37.16
564.667	37.25
565.008	37.11
565.35	37.33
565.692	37.32
566.033	37.12
566.375	37.41
566.716	37.22
567.058	37.1
567.399	37.48
567.741	37.43
568.082	37.23
568.423	37.42
568.764	37.46
569.105	37.44
569.447	37.57
569.788	37.54
570.129	37.61
570.47	37.39
570.811	37.48
571.151	38
571.492	38.01
571.833	37.72
572.174	38.05
572.514	37.79
572.855	37.84
573.195	37.94
573.536	37.94
573.876	38.17
574.217	37.79
574.557	37.87
574.898	38.19
575.238	38.41
575.578	38.11
575.918	38.51
576.258	38.39
576.598	38.47
576.938	38.2
577.278	38.38
577.618	38.33
577.958	38.25
578.298	38.6
578.638	38.85
578.977	38.73
579.317	38.73
579.657	38.69
579.996	38.78
580.336	39.34
580.675	38.74
581.014	39.17
581.354	39.46
581.693	39.03
582.032	39.2
582.372	39.51
582.711	39.46
583.05	39.25
583.389	39.18
583.728	39.46
584.067	39.56
584.406	39.09
584.745	39.26
585.083	39.61
585.422	39.73
585.761	39.66
586.1	39.86
586.438	40.08
586.777	39.67
587.115	39.68
587.454	39.61
587.792	39.73
588.13	40.11
588.469	40
588.807	40.23
589.145	40.25
589.483	40.16
589.821	39.68
590.159	40.39
590.497	40.01
590.835	40.27
591.173	40.49
591.511	40.18
591.849	40.43
592.187	40.04
592.524	40.47
592.862	40.54
593.2	40.21
593.537	40.49
593.875	40.37
594.212	40.64
594.55	40.54
594.887	40.59
595.224	40.78
595.561	40.7
595.899	40.46
596.236	40.7
596.573	40.5
596.91	40.98
597.247	40.64
597.584	40.74
597.921	40.86
598.258	40.83
598.594	40.5
598.931	40.56
599.268	40.59
599.604	40.49
599.941	40.69
600.277	40.75
600.614	40.98
600.95	40.94
601.287	41.12
601.623	41.13
601.959	41.24
602.296	41.21
602.632	41.23
602.968	41.2
603.304	41.38
603.64	41.51
603.976	41.4
604.312	41.26
604.648	41.48
604.984	41.62
605.319	41.35
605.655	41.48
605.991	41.23
606.326	41.28
606.662	41.23
606.998	41
607.333	41.36
607.668	41.38
608.004	41.56
608.339	41.81
608.674	41.96
609.01	41.94
609.345	41.84
609.68	41.82
610.015	41.96
610.35	42.34
610.685	41.66
611.02	41.83
611.355	42.1
611.689	41.95
612.024	42.01
612.359	42.05
612.694	42.22
613.028	42.19
613.363	42.33
613.697	42.39
614.032	42.32
614.366	42.49
614.7	42.52
615.035	42.59
615.369	42.96
615.703	42.65
616.037	42.73
616.371	42.65
616.705	42.62
617.039	43.17
617.373	42.77
617.707	43.21
618.041	43.15
618.375	43
618.709	42.96
619.042	43.53
619.376	43.15
619.71	42.91
620.043	42.5
620.377	43.18
620.71	43.21
621.043	42.95
621.377	42.49
621.71	42.89
622.043	43.04
622.376	43.1
622.709	43.87
623.043	43.58
623.376	43.48
623.709	43.87
624.041	43.81
624.374	43.08
624.707	43.69
625.04	43.44
625.373	43.55
625.705	43.76
626.038	43.74
626.37	43.7
626.703	43.82
627.035	43.93
627.368	43.97
627.7	43.85
628.032	43.4
628.365	44.01
628.697	43.85
629.029	43.87
629.361	43.93
629.693	44.22
630.025	44.16
630.357	43.8
630.689	43.8
631.021	44.35
631.353	43.87
631.684	44.29
632.016	44.44
632.348	44.18
632.679	44.63
633.011	44.72
633.342	44.47
633.674	44.88
634.005	44.79
634.336	44.77
634.668	44.26
634.999	44.91
635.33	44.12
635.661	45.07
635.992	44.87
636.323	44.25
636.654	44.67
636.985	44.56
637.316	44.85
637.647	44.79
637.977	44.89
638.308	44.91
638.639	44.95
638.969	45.28
639.3	45.13
639.63	45.15
639.961	45.05
640.291	45.24
640.622	44.97
640.952	45.36
641.282	44.74
641.612	44.75
641.943	45.31
642.273	45.08
642.603	45.65
642.933	45.06
643.263	45.18
643.592	45.57
643.922	45.1
644.252	44.71
644.582	45.32
644.911	45.95
645.241	45.47
645.571	46.04
645.9	45.57
646.23	45.59
646.559	45.43
646.888	46.29
647.218	45.76
647.547	46.08
647.876	46.17
648.205	45.51
648.534	45.46
648.863	45.61
649.192	46.3
649.521	45.73
649.85	46.16
650.179	45.78
650.508	46.1
650.837	46.55
651.165	46.87
651.494	45.76
651.822	46.12
652.151	46.52
652.479	45.63
652.808	45.81
653.136	46.19
653.465	46.27
653.793	46.41
654.121	46.35
654.449	46.57
654.777	46.54
655.105	46.66
655.433	46.62
655.761	46.63
656.089	46.18
656.417	46.47
656.745	46.91
657.073	46.15
657.4	46.63
657.728	46.8
658.056	47.1
658.383	46.44
658.711	46.29
659.038	46.58
659.365	47.22
659.693	47.21
660.02	47.15
660.347	46.35
660.674	46.37
661.001	46.94
661.329	46.98
661.656	47
661.982	46.79
662.309	46.69
662.636	47.14
662.963	46.91
663.29	46.71
663.616	47.1
663.943	47.2
664.27	48
664.596	47.4
664.923	46.97
665.249	47.39
665.576	47.1
665.902	47.77
666.228	47.33
666.554	47.8
666.881	47.32
667.207	47.57
667.533	47.22
667.859	47.64
668.185	47.67
668.511	47.89
668.837	47.57
669.162	47.44
669.488	47.65
669.814	48.34
670.139	48.01
670.465	47.39
670.791	48.32
