Data from 0360_forehead_Reflection__3__44.txt Node

Date: Mon Dec 11 18:02:28 CST 2023
User: ToomeyLab
Spectrometer: FLMS14357
Trigger mode: 0
Integration Time (sec): 1.000000E-2
Scans to average: 100
Electric dark correction enabled: true
Nonlinearity correction enabled: false
Boxcar width: 0
XAxis mode: Wavelengths
Number of Pixels in Spectrum: 2048
>>>>>Begin Spectral Data<<<<<
189.047	-75.71
189.435	-75.71
189.823	-75.71
190.211	-98.42
190.599	95.66
190.987	25.06
191.375	71.67
191.763	111.47
192.151	133.8
192.538	29.38
192.926	146.22
193.314	-168.25
193.702	120.7
194.089	-120.31
194.477	65.12
194.864	-61.01
195.252	-62.22
195.639	-370.26
196.027	38.93
196.414	244.82
196.801	71.72
197.189	273.32
197.576	339.51
197.963	134.11
198.351	-16.01
198.738	31.27
199.125	-9.72
199.512	91.87
199.899	4.1
200.286	36.93
200.673	-71.17
201.06	72.42
201.447	-18.46
201.833	22.93
202.22	56.35
202.607	8.12
202.994	-18.42
203.38	-10.94
203.767	32.72
204.154	40.65
204.54	16.61
204.927	-4.83
205.313	27.84
205.699	2.19
206.086	33.57
206.472	10.74
206.858	21.03
207.245	34.75
207.631	0.17
208.017	41.09
208.403	40.96
208.789	3.46
209.175	49.16
209.561	16.74
209.947	31.44
210.333	17.01
210.719	9.94
211.105	19.49
211.491	32.49
211.876	17.86
212.262	14.98
212.648	35.77
213.034	-8.07
213.419	25.99
213.805	11.25
214.19	52.84
214.576	22.29
214.961	35.89
215.346	-1.21
215.732	19.08
216.117	15.21
216.502	29.47
216.888	1.16
217.273	21.82
217.658	24.94
218.043	16.33
218.428	6.25
218.813	23.78
219.198	14.12
219.583	23.67
219.968	14.97
220.353	-18.93
220.738	30.77
221.122	16.54
221.507	21.08
221.892	13.18
222.276	6.59
222.661	-2.06
223.046	-2.99
223.43	6.91
223.815	-2.31
224.199	8.07
224.583	5.42
224.968	15.1
225.352	2.1
225.736	2.39
226.121	7.01
226.505	-1.78
226.889	3.92
227.273	3.84
227.657	14.6
228.041	4.63
228.425	3.73
228.809	0.39
229.193	3.26
229.577	4.97
229.961	3.76
230.344	5.35
230.728	3.95
231.112	4.2
231.495	4.49
231.879	3.77
232.263	3.36
232.646	4.26
233.03	3.77
233.413	4.95
233.797	4.84
234.18	2.88
234.563	4.26
234.946	4.48
235.33	6.9
235.713	3.18
236.096	4.65
236.479	4.92
236.862	3.54
237.245	3.17
237.628	3.04
238.011	3.56
238.394	5.18
238.777	4.44
239.16	4.03
239.543	4.29
239.925	3.26
240.308	5.12
240.691	7.15
241.073	3.56
241.456	5.6
241.838	5.87
242.221	5.03
242.603	3.82
242.986	3.9
243.368	4.3
243.75	4.65
244.133	4.33
244.515	4.06
244.897	4.06
245.279	4.19
245.661	4.86
246.043	4.97
246.425	5.32
246.807	4.51
247.189	4.65
247.571	4.34
247.953	3.74
248.335	4.56
248.717	4.12
249.098	4.06
249.48	3.94
249.862	4.47
250.243	4.03
250.625	4.08
251.006	3.99
251.388	4.61
251.769	4.48
252.151	5.25
252.532	5.06
252.913	4.16
253.295	5.04
253.676	4.46
254.057	4.43
254.438	4.61
254.819	3.9
255.2	3.8
255.581	2.9
255.962	4.52
256.343	4.06
256.724	4.87
257.105	4.08
257.486	3.94
257.867	5.19
258.247	3.65
258.628	3.89
259.009	5.51
259.389	4.51
259.77	4.16
260.15	3.14
260.531	4.39
260.911	3.9
261.292	3.78
261.672	4.15
262.052	4.07
262.432	4.14
262.813	4.27
263.193	3.95
263.573	4.82
263.953	4.83
264.333	3.85
264.713	4.58
265.093	4.03
265.473	4.9
265.853	4.43
266.233	3.96
266.612	4.85
266.992	4.84
267.372	4.75
267.752	5.01
268.131	4.5
268.511	4.03
268.89	4.33
269.27	4.37
269.649	3.96
270.029	4.43
270.408	4.24
270.787	3.72
271.167	3.58
271.546	4.01
271.925	3.85
272.304	3.77
272.683	4.2
273.062	3.83
273.441	3.36
273.82	3.94
274.199	3.96
274.578	3.99
274.957	4.09
275.336	3.91
275.715	4.04
276.093	4.46
276.472	4.33
276.851	4.83
277.229	4.14
277.608	3.77
277.986	4.33
278.365	3.52
278.743	3.91
279.122	4.01
279.5	4.64
279.878	4.01
280.257	4.11
280.635	4.31
281.013	3.25
281.391	4.08
281.769	3.96
282.147	3.31
282.525	4.04
282.903	3.93
283.281	3.91
283.659	4.11
284.037	3.74
284.415	4.14
284.792	4.3
285.17	4.43
285.548	4.04
285.925	4.01
286.303	4.07
286.68	4.12
287.058	4.23
287.435	4.26
287.813	4.53
288.19	3.76
288.567	4.13
288.945	4.36
289.322	4.34
289.699	3.55
290.076	4.15
290.453	4.16
290.83	4.38
291.207	4.37
291.584	4.37
291.961	4.81
292.338	4.2
292.715	4.8
293.092	4.59
293.469	4.23
293.845	4.33
294.222	4.94
294.599	4.25
294.975	4.27
295.352	4.16
295.728	4.48
296.105	4.44
296.481	4.32
296.858	4.63
297.234	4.91
297.61	4.66
297.986	4.79
298.363	4.56
298.739	5.1
299.115	4.94
299.491	4.76
299.867	4.93
300.243	5.1
300.619	4.97
300.995	4.7
301.371	5.11
301.746	4.64
302.122	4.9
302.498	4.84
302.874	4.84
303.249	4.89
303.625	5.28
304	4.99
304.376	5.32
304.751	5
305.127	5.2
305.502	5.29
305.878	5.44
306.253	5.76
306.628	5.47
307.003	5.84
307.378	5.47
307.754	5.63
308.129	5.56
308.504	5.48
308.879	5.21
309.254	6.08
309.629	5.9
310.003	6.27
310.378	5.73
310.753	5.92
311.128	5.85
311.502	5.32
311.877	6.33
312.252	5.61
312.626	5.68
313.001	6.25
313.375	5.33
313.75	6.02
314.124	5.72
314.498	5.89
314.873	5.8
315.247	5.72
315.621	6.76
315.995	6.54
316.369	6.46
316.743	6.4
317.117	6.38
317.491	6.89
317.865	6.41
318.239	7.02
318.613	6.78
318.987	6.38
319.361	6.71
319.734	6.52
320.108	6.83
320.482	6.69
320.855	6.86
321.229	6.72
321.602	7.19
321.976	7.33
322.349	6.71
322.723	6.75
323.096	7.16
323.469	7.38
323.843	7.5
324.216	7.48
324.589	7.9
324.962	6.88
325.335	7.31
325.708	7.51
326.081	7.68
326.454	7.52
326.827	7.75
327.2	7.01
327.573	6.61
327.945	8.07
328.318	7.08
328.691	7.53
329.063	7.51
329.436	7.54
329.809	7.47
330.181	8
330.553	7.67
330.926	7.62
331.298	8
331.671	7.65
332.043	8.28
332.415	7.53
332.787	8.34
333.159	8.06
333.532	8.12
333.904	8.41
334.276	8.48
334.648	8.08
335.02	8.01
335.391	7.88
335.763	8.37
336.135	8.62
336.507	8.44
336.879	8.3
337.25	8.06
337.622	8.08
337.993	8.01
338.365	8.24
338.736	8.17
339.108	8.59
339.479	8.86
339.851	8.09
340.222	8.47
340.593	8.41
340.964	8.79
341.336	8.28
341.707	8.77
342.078	8.56
342.449	8.95
342.82	8.53
343.191	8.55
343.562	9.06
343.933	8.62
344.303	8.48
344.674	8.69
345.045	9.42
345.416	8.82
345.786	9.03
346.157	9.26
346.527	8.89
346.898	8.88
347.268	9.08
347.639	8.96
348.009	9.2
348.38	8.57
348.75	9.12
349.12	9.14
349.49	9.44
349.861	9.14
350.231	9.31
350.601	9.71
350.971	9.15
351.341	9.09
351.711	9.63
352.081	9.2
352.45	9.34
352.82	9.18
353.19	9.52
353.56	9.16
353.929	9.55
354.299	9.93
354.669	9.58
355.038	9.82
355.408	9.35
355.777	10.05
356.147	9.92
356.516	9.9
356.885	9.52
357.254	10.08
357.624	9.83
357.993	9.81
358.362	10.17
358.731	10.11
359.1	9.9
359.469	9.83
359.838	10.17
360.207	9.84
360.576	9.99
360.945	10.75
361.314	10.37
361.682	9.97
362.051	10.24
362.42	10.19
362.788	10.08
363.157	10.3
363.525	10.13
363.894	10.47
364.262	10.44
364.631	10.61
364.999	10.33
365.367	10.38
365.735	10.54
366.104	10.54
366.472	10.85
366.84	10.27
367.208	10.71
367.576	10.98
367.944	10.68
368.312	10.85
368.68	10.89
369.048	11.18
369.416	10.52
369.783	10.97
370.151	11.12
370.519	11.36
370.886	11.12
371.254	11.33
371.621	11.23
371.989	11.16
372.356	10.98
372.724	11.6
373.091	11.75
373.458	11.09
373.826	11.51
374.193	11.4
374.56	11.44
374.927	11.77
375.294	11.55
375.661	11.43
376.028	11.57
376.395	11.94
376.762	11.84
377.129	12.18
377.496	11.71
377.863	11.93
378.229	11.95
378.596	12.04
378.963	11.95
379.329	11.99
379.696	12.33
380.062	11.64
380.429	11.9
380.795	12.38
381.161	12.29
381.528	12.35
381.894	12.05
382.26	12.27
382.626	12.26
382.993	12.52
383.359	12.67
383.725	12.34
384.091	12.36
384.457	12.15
384.823	12.83
385.188	12.57
385.554	12.42
385.92	12.37
386.286	12.52
386.651	12.88
387.017	12.85
387.383	12.72
387.748	12.4
388.114	12.75
388.479	12.67
388.845	12.78
389.21	12.89
389.575	13.02
389.94	12.87
390.306	13.05
390.671	13.19
391.036	13.19
391.401	13.33
391.766	12.9
392.131	13.3
392.496	13.43
392.861	13.45
393.226	13.5
393.591	13.39
393.956	13.24
394.32	13.41
394.685	13.28
395.05	13.61
395.414	13.47
395.779	13.4
396.143	13.16
396.508	13.43
396.872	13.58
397.236	13.82
397.601	13.42
397.965	13.87
398.329	14.06
398.694	13.77
399.058	13.68
399.422	14.01
399.786	13.82
400.15	13.94
400.514	13.9
400.878	14.15
401.242	13.87
401.605	14.19
401.969	14.13
402.333	14.03
402.697	14.21
403.06	14.09
403.424	14.07
403.787	14.52
404.151	14.14
404.514	13.92
404.878	14.84
405.241	14.42
405.604	14.42
405.968	14.24
406.331	14.44
406.694	14.37
407.057	14.46
407.42	14.49
407.783	14.63
408.146	14.71
408.509	14.57
408.872	14.86
409.235	14.94
409.598	14.78
409.961	14.87
410.323	14.78
410.686	14.81
411.049	14.95
411.411	15.07
411.774	14.92
412.136	14.96
412.499	15.13
412.861	14.58
413.223	15.02
413.586	15.15
413.948	15.2
414.31	14.99
414.672	14.9
415.035	15.42
415.397	15.31
415.759	15.33
416.121	15.36
416.483	15.48
416.845	15.4
417.206	15.35
417.568	15.51
417.93	15.78
418.292	15.32
418.653	15.3
419.015	15.25
419.377	15.54
419.738	15.44
420.1	15.38
420.461	15.58
420.822	15.57
421.184	15.49
421.545	15.65
421.906	15.65
422.267	15.67
422.629	15.5
422.99	15.56
423.351	15.42
423.712	15.68
424.073	15.72
424.434	15.82
424.795	15.94
425.155	15.81
425.516	15.93
425.877	15.78
426.238	15.91
426.598	16.05
426.959	15.97
427.32	16.24
427.68	16.16
428.041	16.23
428.401	16.17
428.761	16.4
429.122	16.54
429.482	16.54
429.842	16.62
430.202	16.77
430.563	16.51
430.923	16.88
431.283	16.84
431.643	16.76
432.003	16.83
432.363	17.2
432.722	17.16
433.082	17.21
433.442	17.22
433.802	16.81
434.161	17.18
434.521	16.97
434.881	17.15
435.24	16.97
435.6	17.06
435.959	17.03
436.319	17.29
436.678	17.28
437.037	17.42
437.396	17.48
437.756	17.56
438.115	17.61
438.474	17.46
438.833	17.64
439.192	17.63
439.551	17.54
439.91	17.87
440.269	18.06
440.628	17.57
440.987	17.75
441.345	17.69
441.704	17.8
442.063	17.72
442.421	17.8
442.78	17.66
443.138	17.67
443.497	17.81
443.855	18.05
444.214	18.06
444.572	18.05
444.93	18.14
445.288	18.15
445.647	18.52
446.005	18.16
446.363	18.18
446.721	18.17
447.079	18.23
447.437	18.33
447.795	18.17
448.153	18.19
448.51	18.37
448.868	18.08
449.226	18.23
449.584	18.49
449.941	18.52
450.299	18.54
450.656	18.52
451.014	18.93
451.371	18.71
451.729	18.86
452.086	18.84
452.443	19.07
452.801	19.04
453.158	19.25
453.515	19.02
453.872	18.99
454.229	19.25
454.586	19.17
454.943	19.19
455.3	19.23
455.657	19.38
456.014	19.35
456.371	19.61
456.727	19.61
457.084	19.51
457.441	19.63
457.797	19.44
458.154	19.73
458.51	19.78
458.867	19.54
459.223	19.7
459.58	19.57
459.936	19.75
460.292	19.92
460.648	19.71
461.005	19.68
461.361	19.61
461.717	19.45
462.073	19.55
462.429	19.59
462.785	19.65
463.141	19.88
463.496	20.14
463.852	20.09
464.208	20.3
464.564	20.4
464.919	20.41
465.275	20.3
465.631	20.3
465.986	20.52
466.342	20.69
466.697	20.52
467.052	20.55
467.408	20.65
467.763	20.79
468.118	20.55
468.473	20.48
468.829	20.77
469.184	20.84
469.539	20.73
469.894	20.7
470.249	20.85
470.603	20.97
470.958	21.05
471.313	21.11
471.668	21.25
472.023	21.31
472.377	21.12
472.732	21.06
473.086	21.3
473.441	21.39
473.795	21.34
474.15	21.52
474.504	21.12
474.859	21.46
475.213	21.38
475.567	21.49
475.921	21.46
476.275	21.58
476.63	21.68
476.984	21.72
477.338	21.64
477.692	21.67
478.045	21.69
478.399	21.58
478.753	21.44
479.107	21.68
479.461	21.82
479.814	21.84
480.168	21.82
480.521	21.98
480.875	21.91
481.228	22.03
481.582	22.24
481.935	21.99
482.289	21.94
482.642	22.08
482.995	22.09
483.348	21.96
483.701	21.85
484.055	22.07
484.408	21.83
484.761	21.79
485.114	21.43
485.466	21.18
485.819	21.13
486.172	21.22
486.525	21.48
486.878	21.67
487.23	21.7
487.583	21.86
487.936	21.99
488.288	22.13
488.641	21.92
488.993	21.71
489.345	21.71
489.698	21.75
490.05	21.75
490.402	21.84
490.754	22.1
491.107	22.28
491.459	22.46
491.811	22.59
492.163	22.76
492.515	22.69
492.866	22.52
493.218	22.27
493.57	22.18
493.922	22.3
494.274	22.58
494.625	22.83
494.977	22.9
495.328	22.99
495.68	23.09
496.031	23.26
496.383	23.4
496.734	23.5
497.086	23.58
497.437	23.57
497.788	23.63
498.139	23.45
498.49	23.45
498.842	23.57
499.193	23.81
499.544	23.69
499.894	23.69
500.245	23.73
500.596	23.89
500.947	23.96
501.298	24.1
501.648	24.09
501.999	24.04
502.35	24.15
502.7	24.03
503.051	24.23
503.401	24.26
503.752	24.42
504.102	24.47
504.452	24.5
504.803	24.75
505.153	24.48
505.503	24.79
505.853	24.69
506.203	24.51
506.553	24.55
506.903	24.68
507.253	24.58
507.603	24.67
507.953	24.96
508.303	24.85
508.652	24.82
509.002	24.97
509.352	24.98
509.701	24.86
510.051	24.98
510.4	24.72
510.75	24.8
511.099	24.92
511.449	24.91
511.798	25.1
512.147	25.01
512.496	24.93
512.846	25.11
513.195	25.41
513.544	25.09
513.893	25.07
514.242	25.35
514.591	25.1
514.939	25.27
515.288	25.6
515.637	25.31
515.986	25.42
516.334	25.6
516.683	25.63
517.032	25.79
517.38	25.79
517.729	25.83
518.077	25.81
518.426	25.84
518.774	25.71
519.122	25.77
519.47	25.77
519.819	25.55
520.167	25.52
520.515	25.36
520.863	25.46
521.211	25.68
521.559	25.66
521.907	25.9
522.255	25.78
522.602	26.05
522.95	26.28
523.298	26.22
523.645	26.43
523.993	26.12
524.341	26.27
524.688	26.35
525.036	26.23
525.383	26.28
525.73	26.41
526.078	26.54
526.425	26.35
526.772	26.37
527.119	26.08
527.466	26.1
527.814	26.12
528.161	26.06
528.508	26.08
528.854	26.17
529.201	26.17
529.548	26.14
529.895	25.86
530.242	25.75
530.588	25.59
530.935	25.72
531.282	26.07
531.628	26.06
531.975	26.18
532.321	26.32
532.667	26.46
533.014	26.48
533.36	26.63
533.706	26.77
534.052	26.67
534.399	26.76
534.745	26.68
535.091	26.45
535.437	26.46
535.783	26.54
536.129	26.71
536.474	26.9
536.82	27.01
537.166	27.1
537.512	27.3
537.857	27.3
538.203	27.11
538.549	27.14
538.894	27.08
539.239	27.35
539.585	27.41
539.93	27.57
540.276	27.65
540.621	27.8
540.966	27.92
541.311	27.99
541.656	27.88
542.001	27.84
542.346	27.7
542.691	27.44
543.036	27.18
543.381	26.99
543.726	27.28
544.071	27.37
544.415	27.51
544.76	27.75
545.105	27.6
545.449	27.65
545.794	27.87
546.138	28.08
546.483	28.2
546.827	28.28
547.171	28.21
547.516	28.32
547.86	28.39
548.204	28.55
548.548	28.28
548.892	28.13
549.236	28.58
549.58	28.5
549.924	28.82
550.268	28.85
550.612	28.91
550.956	28.8
551.3	29.07
551.643	29.13
551.987	29.19
552.33	29.13
552.674	29.21
553.017	29.31
553.361	29.23
553.704	29.47
554.048	29.21
554.391	29.28
554.734	29.38
555.077	29.4
555.42	29.56
555.764	29.45
556.107	29.5
556.45	29.43
556.793	29.7
557.135	29.96
557.478	29.8
557.821	29.81
558.164	29.98
558.507	29.82
558.849	29.74
559.192	29.88
559.534	30.02
559.877	30.27
560.219	30.02
560.562	30
560.904	30.36
561.246	30.12
561.589	30.29
561.931	30.38
562.273	30.12
562.615	30.25
562.957	30.27
563.299	30.17
563.641	30.38
563.983	30.3
564.325	30.44
564.667	30.64
565.008	30.52
565.35	30.64
565.692	30.5
566.033	30.38
566.375	30.6
566.716	30.53
567.058	30.52
567.399	30.56
567.741	30.49
568.082	30.67
568.423	30.44
568.764	30.37
569.105	30.34
569.447	30.82
569.788	30.78
570.129	30.68
570.47	30.72
570.811	30.68
571.151	30.94
571.492	31
571.833	31.11
572.174	31.02
572.514	31.19
572.855	30.93
573.195	31.02
573.536	30.72
573.876	31.05
574.217	31
574.557	31.07
574.898	31.31
575.238	31.35
575.578	31.24
575.918	31.4
576.258	31.25
576.598	31.45
576.938	31.34
577.278	31.36
577.618	31.66
577.958	31.49
578.298	31.5
578.638	31.59
578.977	31.66
579.317	31.72
579.657	31.76
579.996	31.63
580.336	31.78
580.675	32
581.014	32.31
581.354	32.13
581.693	32.19
582.032	32.11
582.372	32.33
582.711	32.31
583.05	32.23
583.389	32.4
583.728	32.53
584.067	32.34
584.406	32.29
584.745	32.58
585.083	32.43
585.422	32.55
585.761	32.4
586.1	32.61
586.438	32.36
586.777	32.71
587.115	32.53
587.454	32.52
587.792	32.67
588.13	33.04
588.469	33.05
588.807	32.88
589.145	32.96
589.483	32.87
589.821	32.66
590.159	32.92
590.497	32.86
590.835	32.93
591.173	32.97
591.511	33.21
591.849	33.14
592.187	32.95
592.524	32.96
592.862	33.04
593.2	33.08
593.537	33.01
593.875	33.2
594.212	33.09
594.55	33.11
594.887	33.31
595.224	33.59
595.561	33.38
595.899	33.26
596.236	33.58
596.573	33.4
596.91	33.34
597.247	33.46
597.584	32.96
597.921	33.35
598.258	33.39
598.594	33.69
598.931	33.07
599.268	33.33
599.604	33.19
599.941	33.5
600.277	33.59
600.614	33.68
600.95	33.56
601.287	33.45
601.623	33.88
601.959	34.15
602.296	33.8
602.632	33.92
602.968	33.92
603.304	34.18
603.64	33.99
603.976	34.25
604.312	33.93
604.648	33.98
604.984	34.16
605.319	34.13
605.655	34.02
605.991	34.03
606.326	34.04
606.662	33.84
606.998	33.93
607.333	34.15
607.668	34.01
608.004	34.14
608.339	34.35
608.674	34.4
609.01	34.26
609.345	34.66
609.68	34.21
610.015	34.77
610.35	34.56
610.685	34.41
611.02	34.33
611.355	34.51
611.689	34.46
612.024	34.43
612.359	34.75
612.694	34.94
613.028	34.58
613.363	34.98
613.697	34.79
614.032	34.99
614.366	35.22
614.7	34.87
615.035	35.19
615.369	35.47
615.703	35.06
616.037	35.39
616.371	35.4
616.705	35.26
617.039	35.54
617.373	35.13
617.707	35.97
618.041	35.69
618.375	36.12
618.709	35.44
619.042	36.25
619.376	36
619.71	35.53
620.043	35.19
620.377	35.57
620.71	35.77
621.043	35.47
621.377	35.35
621.71	35.69
622.043	35.55
622.376	35.75
622.709	35.74
623.043	35.82
623.376	35.96
623.709	35.88
624.041	35.7
624.374	35.48
624.707	35.99
625.04	36.05
625.373	35.78
625.705	36.01
626.038	35.9
626.37	36.09
626.703	36.02
627.035	35.91
627.368	36.15
627.7	36.01
628.032	35.92
628.365	36.07
628.697	36.28
629.029	36.05
629.361	35.96
629.693	36.3
630.025	36.53
630.357	36.01
630.689	36.12
631.021	36.5
631.353	36.12
631.684	36.73
632.016	37.02
632.348	36.34
632.679	36.71
633.011	36.66
633.342	36.89
633.674	36.87
634.005	37.46
634.336	36.91
634.668	36.93
634.999	37.03
635.33	36.38
635.661	36.74
635.992	36.57
636.323	36.82
636.654	36.78
636.985	37.05
637.316	36.75
637.647	37.3
637.977	37.11
638.308	37.28
638.639	36.77
638.969	36.83
639.3	37.16
639.63	37.35
639.961	36.94
640.291	37.52
640.622	37.21
640.952	37.52
641.282	37.27
641.612	37.27
641.943	37.48
642.273	37.21
642.603	37.33
642.933	37.03
643.263	37.78
643.592	37.68
643.922	37.48
644.252	36.94
644.582	37.7
644.911	37.91
645.241	37.57
645.571	37.74
645.9	37.43
646.23	37.81
646.559	37.63
646.888	38.27
647.218	38.01
647.547	37.48
647.876	37.83
648.205	37.71
648.534	37.88
648.863	38.08
649.192	38.28
649.521	38.39
649.85	37.8
650.179	38.11
650.508	38.4
650.837	38.1
651.165	38.1
651.494	38.17
651.822	38.09
652.151	38.13
652.479	38.19
652.808	38.11
653.136	38.15
653.465	38.69
653.793	38.31
654.121	38.39
654.449	38.2
654.777	38.37
655.105	38.54
655.433	38.22
655.761	38.66
656.089	39.32
656.417	38.78
656.745	38.7
657.073	38.87
657.4	38.62
657.728	39.42
658.056	38.97
658.383	38.92
658.711	38.4
659.038	38.17
659.365	38.69
659.693	39.03
660.02	38.67
660.347	38.53
660.674	38.67
661.001	38.94
661.329	38.89
661.656	38.69
661.982	38.69
662.309	39.14
662.636	39.24
662.963	39.43
663.29	39.11
663.616	38.76
663.943	39.06
664.27	39.11
664.596	39.46
664.923	39.09
665.249	38.96
665.576	38.96
665.902	39.26
666.228	39.54
666.554	39.32
666.881	38.93
667.207	39.49
667.533	39.38
667.859	39.87
668.185	39.82
668.511	39.74
668.837	39.91
669.162	39.58
669.488	39.72
669.814	39.51
670.139	38.98
670.465	39.62
670.791	39.14
671.116	39.89
671.442	39.91
