Data from 0360_forehead_Reflection__0__41.txt Node

Date: Mon Dec 11 18:01:58 CST 2023
User: ToomeyLab
Spectrometer: FLMS14357
Trigger mode: 0
Integration Time (sec): 1.000000E-2
Scans to average: 100
Electric dark correction enabled: true
Nonlinearity correction enabled: false
Boxcar width: 0
XAxis mode: Wavelengths
Number of Pixels in Spectrum: 2048
>>>>>Begin Spectral Data<<<<<
189.047	121.23
189.435	121.23
189.823	121.23
190.211	-197.18
190.599	9.08
190.987	11.31
191.375	60.6
191.763	165.84
192.151	-30.94
192.538	25.45
192.926	270.77
193.314	-63.74
193.702	138.26
194.089	4.5
194.477	135.65
194.864	70.62
195.252	-102.95
195.639	-157.06
196.027	-18.02
196.414	-248.87
196.801	4.43
197.189	84.25
197.576	167.35
197.963	21.37
198.351	11.26
198.738	3.03
199.125	-49.09
199.512	71.92
199.899	60.3
200.286	56.57
200.673	-13.99
201.06	36.14
201.447	42.69
201.833	83.92
202.22	61.6
202.607	23.64
202.994	37.74
203.38	4.23
203.767	55.53
204.154	36.62
204.54	6.2
204.927	14.18
205.313	16.24
205.699	-9.2
206.086	-23.53
206.472	33.04
206.858	2.49
207.245	29.84
207.631	0.79
208.017	12.26
208.403	33.62
208.789	-6.94
209.175	27.24
209.561	18.32
209.947	-2.09
210.333	19.84
210.719	14.46
211.105	22.07
211.491	38.1
211.876	24.41
212.262	13.08
212.648	22.53
213.034	13.22
213.419	12.71
213.805	1.73
214.19	11.97
214.576	10.24
214.961	13.37
215.346	30.63
215.732	-0.17
216.117	7.93
216.502	8.29
216.888	32.74
217.273	18.66
217.658	9.56
218.043	-22.85
218.428	15.66
218.813	14.84
219.198	16.95
219.583	8.93
219.968	0.28
220.353	-1.71
220.738	19.37
221.122	24.33
221.507	39.36
221.892	10.61
222.276	11.27
222.661	0.29
223.046	13.72
223.43	9.89
223.815	7.91
224.199	6.85
224.583	5.04
224.968	9.3
225.352	9.22
225.736	4.08
226.121	7.72
226.505	2.61
226.889	9.58
227.273	7.84
227.657	8.77
228.041	8.37
228.425	7.85
228.809	2.68
229.193	7.51
229.577	4.89
229.961	5.43
230.344	5.02
230.728	4.35
231.112	4.21
231.495	5.03
231.879	4.47
232.263	3.48
232.646	4.07
233.03	3.97
233.413	4.8
233.797	6.36
234.18	5.97
234.563	4.29
234.946	4.83
235.33	6.39
235.713	3.73
236.096	4.37
236.479	6.13
236.862	3.75
237.245	5.58
237.628	5.16
238.011	6.53
238.394	6.63
238.777	5.91
239.16	5.62
239.543	5.21
239.925	3.85
240.308	4.33
240.691	5.52
241.073	5.6
241.456	5.34
241.838	7.02
242.221	5.68
242.603	5.08
242.986	4.98
243.368	4.15
243.75	4.95
244.133	4.87
244.515	4.06
244.897	4.24
245.279	5.05
245.661	4.35
246.043	4.38
246.425	5.03
246.807	4.66
247.189	4.96
247.571	4.98
247.953	5.19
248.335	5.16
248.717	4.63
249.098	4.48
249.48	4.27
249.862	4.76
250.243	4.91
250.625	4.55
251.006	4.58
251.388	4.62
251.769	5.25
252.151	5.46
252.532	6.1
252.913	5.09
253.295	5.23
253.676	4.67
254.057	4.59
254.438	5.06
254.819	4.13
255.2	4.07
255.581	3.83
255.962	4.45
256.343	5.38
256.724	5
257.105	4.08
257.486	4.61
257.867	5.43
258.247	3.79
258.628	4.89
259.009	6.04
259.389	5.22
259.77	4.68
260.15	5.27
260.531	5.15
260.911	4.04
261.292	4.28
261.672	4.4
262.052	4.63
262.432	4.4
262.813	4.39
263.193	4.16
263.573	4.72
263.953	4.26
264.333	4.17
264.713	4.87
265.093	4.27
265.473	5.39
265.853	4.39
266.233	4.47
266.612	4.99
266.992	5.54
267.372	5.31
267.752	5.43
268.131	4.98
268.511	4.53
268.89	4.59
269.27	5.19
269.649	4.65
270.029	5.32
270.408	4.4
270.787	4.18
271.167	3.96
271.546	4.44
271.925	4.34
272.304	4.16
272.683	4.91
273.062	3.79
273.441	4.6
273.82	3.82
274.199	3.93
274.578	4.53
274.957	4.65
275.336	4.6
275.715	4.79
276.093	5.32
276.472	4.64
276.851	4.5
277.229	4.5
277.608	4.84
277.986	4.85
278.365	3.86
278.743	4.43
279.122	5.25
279.5	5
279.878	4.58
280.257	4.88
280.635	4.57
281.013	3.84
281.391	4.96
281.769	4.5
282.147	4.52
282.525	4.17
282.903	4.79
283.281	4.3
283.659	4.66
284.037	4.36
284.415	4.31
284.792	4.64
285.17	4.88
285.548	4.13
285.925	4.46
286.303	4.49
286.68	4.3
287.058	4.22
287.435	4.68
287.813	4.74
288.19	4.5
288.567	4.27
288.945	4.61
289.322	4.05
289.699	4.32
290.076	4.12
290.453	5.2
290.83	5.19
291.207	4.86
291.584	5.01
291.961	4.6
292.338	4.67
292.715	4.99
293.092	5.1
293.469	4.7
293.845	4.6
294.222	5.62
294.599	5.17
294.975	5
295.352	4.79
295.728	5.42
296.105	4.92
296.481	5.06
296.858	4.93
297.234	5.76
297.61	5.73
297.986	5.7
298.363	5.4
298.739	5.38
299.115	5.23
299.491	5.53
299.867	5.23
300.243	5.62
300.619	5.53
300.995	5.65
301.371	5.35
301.746	5.21
302.122	5.58
302.498	6
302.874	6.31
303.249	5.94
303.625	5.72
304	5.88
304.376	5.88
304.751	5.71
305.127	6.09
305.502	6.28
305.878	6.19
306.253	6.48
306.628	6.87
307.003	7.06
307.378	6.19
307.754	6.62
308.129	6.47
308.504	6.46
308.879	6.71
309.254	6.72
309.629	6.77
310.003	7.07
310.378	6.89
310.753	7.11
311.128	7.19
311.502	6.65
311.877	7.14
312.252	7.14
312.626	7.36
313.001	7.35
313.375	6.93
313.75	7.02
314.124	7.31
314.498	7.4
314.873	7.35
315.247	7.41
315.621	8.24
315.995	7.76
316.369	7.93
316.743	8.28
317.117	8.16
317.491	7.8
317.865	8.17
318.239	8.75
318.613	8.1
318.987	8.5
319.361	9.06
319.734	7.93
320.108	8.32
320.482	8.36
320.855	8.23
321.229	8.52
321.602	9.01
321.976	9.16
322.349	8.55
322.723	8.4
323.096	9.09
323.469	9.03
323.843	9.32
324.216	9.58
324.589	9.25
324.962	8.83
325.335	9.25
325.708	9.51
326.081	9.5
326.454	9.33
326.827	9.41
327.2	9.28
327.573	9.14
327.945	9.85
328.318	9.76
328.691	10
329.063	9.75
329.436	9.93
329.809	10.06
330.181	10.24
330.553	10.07
330.926	10.58
331.298	10.1
331.671	9.89
332.043	10.09
332.415	10.54
332.787	10.51
333.159	10.47
333.532	10.27
333.904	10.56
334.276	10.97
334.648	10.86
335.02	10.3
335.391	10.42
335.763	10.97
336.135	10.91
336.507	10.63
336.879	10.9
337.25	10.8
337.622	10.58
337.993	10.86
338.365	10.91
338.736	11.07
339.108	11.84
339.479	11.08
339.851	11.49
340.222	11.31
340.593	10.57
340.964	11.47
341.336	11.5
341.707	11.79
342.078	11.36
342.449	11.24
342.82	11.47
343.191	11.38
343.562	11.78
343.933	11.71
344.303	11.55
344.674	11.74
345.045	12.26
345.416	11.96
345.786	12.03
346.157	11.88
346.527	12.27
346.898	12.29
347.268	12.14
347.639	12.36
348.009	12.48
348.38	12.16
348.75	12.28
349.12	12.86
349.49	12.27
349.861	12.3
350.231	12.88
350.601	12.87
350.971	13.05
351.341	12.73
351.711	12.84
352.081	12.35
352.45	12.92
352.82	12.07
353.19	12.76
353.56	13.24
353.929	13.2
354.299	13.32
354.669	13.44
355.038	12.98
355.408	12.67
355.777	13.21
356.147	13.4
356.516	13.78
356.885	13.47
357.254	13.46
357.624	13.27
357.993	13.23
358.362	13.64
358.731	13.54
359.1	13.85
359.469	13.63
359.838	13.78
360.207	13.56
360.576	13.95
360.945	14.2
361.314	14.42
361.682	14.05
362.051	14.27
362.42	14.14
362.788	13.94
363.157	13.81
363.525	13.99
363.894	14.29
364.262	14.21
364.631	14.42
364.999	14.44
365.367	14.74
365.735	14.6
366.104	14.61
366.472	14.64
366.84	14.26
367.208	14.66
367.576	14.72
367.944	15.19
368.312	15.12
368.68	15.13
369.048	14.92
369.416	14.72
369.783	14.91
370.151	15.57
370.519	15.81
370.886	15.68
371.254	15.51
371.621	15.46
371.989	15.54
372.356	15.82
372.724	15.96
373.091	15.85
373.458	15.71
373.826	15.8
374.193	16.05
374.56	15.85
374.927	15.96
375.294	16.19
375.661	15.93
376.028	16.39
376.395	16.6
376.762	16.13
377.129	16.39
377.496	16.31
377.863	16.59
378.229	16.27
378.596	16.31
378.963	16.66
379.329	16.51
379.696	16.86
380.062	16.5
380.429	16.55
380.795	17.2
381.161	16.92
381.528	16.91
381.894	16.89
382.26	17
382.626	17.29
382.993	17.1
383.359	17.08
383.725	17.09
384.091	17.31
384.457	17.09
384.823	17.65
385.188	17.41
385.554	17.17
385.92	17.57
386.286	17.72
386.651	17.52
387.017	17.8
387.383	17.6
387.748	18.01
388.114	17.72
388.479	18.04
388.845	17.92
389.21	17.92
389.575	18.17
389.94	17.98
390.306	18.3
390.671	18.41
391.036	18.25
391.401	18.52
391.766	18.35
392.131	18.35
392.496	18.73
392.861	18.7
393.226	18.34
393.591	18.99
393.956	18.85
394.32	18.9
394.685	18.67
395.05	18.85
395.414	19.19
395.779	18.92
396.143	18.85
396.508	18.92
396.872	18.91
397.236	19.16
397.601	18.98
397.965	19.36
398.329	19.2
398.694	19.48
399.058	19.44
399.422	19.59
399.786	19.6
400.15	19.77
400.514	19.95
400.878	19.84
401.242	19.88
401.605	19.8
401.969	19.7
402.333	19.84
402.697	19.85
403.06	19.92
403.424	19.82
403.787	20.12
404.151	20.26
404.514	20.03
404.878	20.39
405.241	20.34
405.604	20.31
405.968	20.29
406.331	20.36
406.694	20.24
407.057	20.4
407.42	20.79
407.783	20.73
408.146	20.74
408.509	20.59
408.872	20.66
409.235	20.67
409.598	20.91
409.961	20.85
410.323	21.2
410.686	21.15
411.049	21.15
411.411	21.21
411.774	21.21
412.136	21.42
412.499	21.26
412.861	21.17
413.223	21.29
413.586	21.52
413.948	21.45
414.31	21.48
414.672	21.39
415.035	21.77
415.397	21.66
415.759	21.73
416.121	21.73
416.483	21.81
416.845	21.87
417.206	21.67
417.568	22.21
417.93	22.02
418.292	21.85
418.653	21.97
419.015	21.89
419.377	22.03
419.738	22.11
420.1	22.04
420.461	21.91
420.822	22.17
421.184	22.2
421.545	22.03
421.906	22.06
422.267	22.15
422.629	22.17
422.99	22.07
423.351	22.27
423.712	22.25
424.073	22.38
424.434	22.38
424.795	22.59
425.155	22.45
425.516	22.58
425.877	22.45
426.238	22.5
426.598	22.74
426.959	22.61
427.32	22.96
427.68	22.8
428.041	22.99
428.401	22.93
428.761	23.23
429.122	23.16
429.482	23.34
429.842	23.38
430.202	23.36
430.563	23.42
430.923	23.66
431.283	23.76
431.643	23.84
432.003	23.77
432.363	23.8
432.722	23.78
433.082	24.14
433.442	23.92
433.802	24.01
434.161	24.17
434.521	24.04
434.881	24.27
435.24	23.96
435.6	24.12
435.959	24.16
436.319	24.2
436.678	24.2
437.037	24.52
437.396	24.34
437.756	24.37
438.115	24.7
438.474	24.63
438.833	24.82
439.192	24.7
439.551	24.79
439.91	24.82
440.269	24.88
440.628	24.6
440.987	24.76
441.345	24.94
441.704	24.94
442.063	24.81
442.421	24.9
442.78	24.99
443.138	24.93
443.497	25.08
443.855	24.98
444.214	25.27
444.572	25.38
444.93	25.4
445.288	25.56
445.647	25.64
446.005	25.39
446.363	25.53
446.721	25.62
447.079	25.59
447.437	25.59
447.795	25.39
448.153	25.67
448.51	25.3
448.868	25.39
449.226	25.44
449.584	25.74
449.941	25.85
450.299	25.76
450.656	26.13
451.014	26.1
451.371	25.91
451.729	26.41
452.086	26.33
452.443	26.34
452.801	26.41
453.158	26.66
453.515	26.33
453.872	26.63
454.229	26.5
454.586	26.54
454.943	26.7
455.3	26.8
455.657	26.77
456.014	26.74
456.371	27
456.727	26.97
457.084	27.28
457.441	27.25
457.797	27.29
458.154	27.39
458.51	27.23
458.867	27.18
459.223	27.15
459.58	27.47
459.936	27.29
460.292	27.73
460.648	27.3
461.005	27.37
461.361	27.42
461.717	27.3
462.073	27.28
462.429	27.42
462.785	27.53
463.141	27.58
463.496	27.89
463.852	27.73
464.208	27.83
464.564	27.92
464.919	27.92
465.275	28.07
465.631	28.22
465.986	28.46
466.342	28.29
466.697	28.32
467.052	28.45
467.408	28.62
467.763	28.37
468.118	28.38
468.473	28.4
468.829	28.77
469.184	28.7
469.539	28.71
469.894	28.58
470.249	28.74
470.603	28.85
470.958	28.9
471.313	28.98
471.668	29.06
472.023	29.06
472.377	28.87
472.732	29.22
473.086	29.29
473.441	29.25
473.795	29.38
474.15	29.41
474.504	29.47
474.859	29.29
475.213	29.61
475.567	29.52
475.921	29.47
476.275	29.55
476.63	29.74
476.984	29.67
477.338	29.75
477.692	29.84
478.045	29.82
478.399	29.49
478.753	29.62
479.107	29.77
479.461	30.01
479.814	30.04
480.168	29.89
480.521	30.07
480.875	29.96
481.228	30.09
481.582	30.18
481.935	30.07
482.289	30.17
482.642	30.04
482.995	30.2
483.348	30.19
483.701	30.06
484.055	30.13
484.408	30.04
484.761	29.96
485.114	29.62
485.466	29.49
485.819	29.55
486.172	29.55
486.525	29.51
486.878	29.56
487.23	29.75
487.583	29.89
487.936	30.13
488.288	30.36
488.641	30.12
488.993	30.07
489.345	30.07
489.698	30.06
490.05	29.95
490.402	29.91
490.754	30.11
491.107	30.45
491.459	30.56
491.811	30.88
492.163	30.95
492.515	31.04
492.866	30.85
493.218	30.77
493.57	30.67
493.922	30.62
494.274	30.64
494.625	30.82
494.977	31.15
495.328	31.22
495.68	31.57
496.031	31.75
496.383	31.79
496.734	31.89
497.086	31.9
497.437	32.16
497.788	32.06
498.139	32
498.49	32.08
498.842	32.16
499.193	32.11
499.544	32.22
499.894	32.32
500.245	32.38
500.596	32.34
500.947	32.39
501.298	32.69
501.648	32.38
501.999	32.55
502.35	32.71
502.7	32.81
503.051	32.55
503.401	32.87
503.752	33.04
504.102	32.87
504.452	33.12
504.803	33.2
505.153	33.13
505.503	33.18
505.853	33.25
506.203	33.13
506.553	33.13
506.903	33.22
507.253	33.22
507.603	33.3
507.953	33.4
508.303	33.26
508.652	33.68
509.002	33.54
509.352	33.65
509.701	33.62
510.051	33.67
510.4	33.55
510.75	33.62
511.099	33.51
511.449	33.55
511.798	33.75
512.147	34.04
512.496	33.72
512.846	33.87
513.195	34.13
513.544	33.92
513.893	33.82
514.242	33.96
514.591	33.94
514.939	34.06
515.288	34.26
515.637	34.18
515.986	34.29
516.334	34.4
516.683	34.62
517.032	34.44
517.38	34.52
517.729	34.46
518.077	34.73
518.426	34.67
518.774	34.71
519.122	34.67
519.47	34.5
519.819	34.55
520.167	34.33
520.515	34.34
520.863	34.41
521.211	34.43
521.559	34.43
521.907	34.64
522.255	34.83
522.602	34.9
522.95	35.37
523.298	35.07
523.645	35.49
523.993	35.12
524.341	35.34
524.688	35.4
525.036	35.14
525.383	35.25
525.73	35.53
526.078	35.71
526.425	35.44
526.772	35.57
527.119	35.3
527.466	35.2
527.814	35.2
528.161	35.07
528.508	35.18
528.854	35.19
529.201	35.25
529.548	35.27
529.895	35.12
530.242	34.93
530.588	34.96
530.935	35.06
531.282	34.88
531.628	34.78
531.975	35.08
532.321	35.26
532.667	35.62
533.014	35.63
533.36	35.62
533.706	35.72
534.052	35.85
534.399	35.89
534.745	35.77
535.091	35.81
535.437	35.68
535.783	35.66
536.129	35.8
536.474	36.01
536.82	36.15
537.166	36.27
537.512	36.44
537.857	36.6
538.203	36.39
538.549	36.43
538.894	36.26
539.239	36.49
539.585	36.48
539.93	36.56
540.276	36.77
540.621	36.93
540.966	37.36
541.311	37.16
541.656	37.01
542.001	37.09
542.346	37.03
542.691	36.76
543.036	36.58
543.381	36.48
543.726	36.54
544.071	36.5
544.415	36.41
544.76	36.67
545.105	36.75
545.449	36.88
545.794	37.07
546.138	37.05
546.483	37.29
546.827	37.51
547.171	37.43
547.516	37.78
547.86	37.81
548.204	37.73
548.548	37.53
548.892	37.51
549.236	37.72
549.58	37.82
549.924	37.87
550.268	38.21
550.612	38.09
550.956	38.12
551.3	38.3
551.643	38.47
551.987	38.67
552.33	38.73
552.674	38.65
553.017	38.77
553.361	38.7
553.704	38.71
554.048	38.84
554.391	38.69
554.734	38.91
555.077	38.85
555.42	38.78
555.764	38.76
556.107	38.96
556.45	38.88
556.793	39.28
557.135	39.28
557.478	38.97
557.821	39.21
558.164	39.45
558.507	39.28
558.849	39.29
559.192	39.27
559.534	39.54
559.877	39.98
560.219	39.44
560.562	39.75
560.904	39.68
561.246	39.56
561.589	39.92
561.931	39.82
562.273	39.66
562.615	39.66
562.957	39.93
563.299	39.71
563.641	39.58
563.983	39.89
564.325	40.09
564.667	39.79
565.008	40
565.35	40.19
565.692	39.91
566.033	40.13
566.375	40.3
566.716	40.28
567.058	40.14
567.399	40.52
567.741	40.21
568.082	40.42
568.423	40.08
568.764	40.11
569.105	40.21
569.447	40.23
569.788	40.12
570.129	40.47
570.47	40.35
570.811	40.47
571.151	40.52
571.492	40.82
571.833	40.46
572.174	40.63
572.514	40.7
572.855	40.71
573.195	40.95
573.536	40.68
573.876	40.71
574.217	40.79
574.557	40.78
574.898	41.1
575.238	40.9
575.578	40.9
575.918	41.09
576.258	41.03
576.598	41.15
576.938	41.04
577.278	41.28
577.618	41.12
577.958	41.32
578.298	41.31
578.638	41.55
578.977	41.36
579.317	41.47
579.657	41.67
579.996	41.45
580.336	41.65
580.675	41.59
581.014	41.77
581.354	41.55
581.693	42.04
582.032	41.87
582.372	41.72
582.711	41.82
583.05	42.05
583.389	42.12
583.728	42.08
584.067	41.94
584.406	42.11
584.745	42.13
585.083	42.09
585.422	42.3
585.761	42.15
586.1	42.08
586.438	42.34
586.777	42.6
587.115	42.26
587.454	42.39
587.792	42.51
588.13	42.79
588.469	42.54
588.807	42.88
589.145	42.95
589.483	42.67
589.821	42.52
590.159	42.89
590.497	42.86
590.835	42.78
591.173	42.87
591.511	42.9
591.849	43.16
592.187	42.65
592.524	43
592.862	42.75
593.2	42.78
593.537	42.85
593.875	43
594.212	42.77
594.55	43.08
594.887	43.31
595.224	43.46
595.561	43.42
595.899	43.18
596.236	43.5
596.573	42.97
596.91	43.3
597.247	43.16
597.584	43.11
597.921	43.53
598.258	43.63
598.594	43.38
598.931	43.24
599.268	43.22
599.604	43.06
599.941	43.46
600.277	43.21
600.614	43.44
600.95	43.4
601.287	43.33
601.623	43.7
601.959	43.96
602.296	43.98
602.632	43.8
602.968	44.23
603.304	43.91
603.64	44.22
603.976	44.09
604.312	43.93
604.648	43.77
604.984	44.15
605.319	44.17
605.655	43.82
605.991	44.05
606.326	43.93
606.662	43.88
606.998	43.76
607.333	44
607.668	43.91
608.004	43.91
608.339	44.02
608.674	44.5
609.01	44.51
609.345	44.47
609.68	44.37
610.015	44.85
610.35	44.86
610.685	44.42
611.02	44.25
611.355	44.7
611.689	44.66
612.024	44.37
612.359	44.61
612.694	44.8
613.028	44.43
613.363	44.98
613.697	45.01
614.032	44.56
614.366	45.11
614.7	44.88
615.035	44.72
615.369	45.12
615.703	45.1
616.037	44.97
616.371	45.06
616.705	45.27
617.039	45.37
617.373	45.11
617.707	45.35
618.041	45.86
618.375	45.56
618.709	45.42
619.042	45.36
619.376	45.76
619.71	45.7
620.043	45.74
620.377	45.1
620.71	45.88
621.043	45.8
621.377	45.74
621.71	45.71
622.043	45.71
622.376	45.4
622.709	45.69
623.043	45.77
623.376	45.83
623.709	46.37
624.041	45.78
624.374	45.98
624.707	46.14
625.04	45.91
625.373	45.97
625.705	46.15
626.038	45.6
626.37	46.07
626.703	46.05
627.035	46.38
627.368	46.21
627.7	45.43
628.032	46.18
628.365	46.64
628.697	46.66
629.029	46.21
629.361	46.66
629.693	46.28
630.025	46.41
630.357	46.32
630.689	46.5
631.021	46.29
631.353	46
631.684	46.79
632.016	46.32
632.348	46.84
632.679	46.62
633.011	47.04
633.342	46.95
633.674	47.52
634.005	46.93
634.336	46.8
634.668	47
634.999	46.91
635.33	46.44
635.661	46.88
635.992	47.33
636.323	47.24
636.654	47.17
636.985	47.21
637.316	47.21
637.647	47.17
637.977	47.27
638.308	47.22
638.639	46.75
638.969	47.59
639.3	47.11
639.63	46.81
639.961	47.75
640.291	47.84
640.622	47.45
640.952	48.13
641.282	47.72
641.612	46.97
641.943	47.32
642.273	47.62
642.603	47.69
642.933	46.85
643.263	47.86
643.592	47.64
643.922	47.6
644.252	47.77
644.582	48.09
644.911	48
645.241	47.72
645.571	47.96
645.9	47.54
646.23	47.85
646.559	48.2
646.888	48.52
647.218	48.19
647.547	47.86
647.876	47.87
648.205	48.19
648.534	48.53
648.863	48.12
649.192	48.12
649.521	48.27
649.85	48.49
650.179	48.57
650.508	48.45
650.837	47.78
651.165	48.18
651.494	48.4
651.822	48.17
652.151	48.61
652.479	48.35
652.808	47.99
653.136	47.92
653.465	48.7
653.793	48.17
654.121	48.85
654.449	48.53
654.777	48.16
655.105	48.79
655.433	48.99
655.761	48.75
656.089	48.83
656.417	49.38
656.745	48.86
657.073	48.86
657.4	48.85
657.728	49.5
658.056	48.85
658.383	48.8
658.711	48.56
659.038	49.06
659.365	48.82
659.693	48.77
660.02	48.6
660.347	48.38
660.674	48.89
661.001	49.3
661.329	48.82
661.656	49.08
661.982	49.01
662.309	48.88
662.636	48.95
662.963	49.13
663.29	48.77
663.616	49.07
663.943	48.67
664.27	49.05
664.596	48.88
664.923	49.33
665.249	49.61
665.576	49.22
665.902	49.57
666.228	48.98
666.554	49.71
666.881	49.79
667.207	49.63
667.533	49.45
667.859	49.19
668.185	49.68
668.511	50.03
668.837	49.82
669.162	49.58
669.488	49.98
669.814	50.02
670.139	50.06
670.465	49.67
670.791	50.09
