Data from 0360_chest_Reflection__3__34.txt Node

Date: Mon Dec 11 17:57:36 CST 2023
User: ToomeyLab
Spectrometer: FLMS14357
Trigger mode: 0
Integration Time (sec): 1.000000E-2
Scans to average: 100
Electric dark correction enabled: true
Nonlinearity correction enabled: false
Boxcar width: 0
XAxis mode: Wavelengths
Number of Pixels in Spectrum: 2048
>>>>>Begin Spectral Data<<<<<
189.047	127.9
189.435	127.9
189.823	127.9
190.211	33.41
190.599	55.78
190.987	43.89
191.375	213.52
191.763	118.12
192.151	73.79
192.538	78.05
192.926	307.25
193.314	-85.79
193.702	225.33
194.089	132.65
194.477	80.61
194.864	116.22
195.252	271.69
195.639	-108.55
196.027	14.1
196.414	-238.79
196.801	13.89
197.189	565.23
197.576	147.96
197.963	12.36
198.351	-25.6
198.738	17.78
199.125	-96.39
199.512	-58.49
199.899	26.69
200.286	24.23
200.673	-190.06
201.06	20.35
201.447	23.02
201.833	31.77
202.22	38.99
202.607	-16.01
202.994	-16.15
203.38	-18.23
203.767	16.52
204.154	35.11
204.54	25.75
204.927	-18.34
205.313	13.84
205.699	-8.04
206.086	-22.88
206.472	26.01
206.858	-2.22
207.245	-12.37
207.631	21.67
208.017	10.54
208.403	1.76
208.789	-48.72
209.175	38.95
209.561	-1.8
209.947	5.1
210.333	35.03
210.719	20
211.105	14.4
211.491	35.53
211.876	18.64
212.262	-13.04
212.648	-11.49
213.034	8.35
213.419	-35.54
213.805	-5.12
214.19	7.56
214.576	-14.17
214.961	6.39
215.346	-3.62
215.732	6.41
216.117	-6.78
216.502	-7.36
216.888	5.19
217.273	9.27
217.658	9.54
218.043	-4.05
218.428	-6.95
218.813	3.82
219.198	-3.54
219.583	9.8
219.968	-9.92
220.353	-31.46
220.738	17.41
221.122	10.29
221.507	22.59
221.892	11.58
222.276	5.7
222.661	-24.17
223.046	0.83
223.43	0.96
223.815	-6.32
224.199	5.86
224.583	3.65
224.968	5.57
225.352	2.69
225.736	4.34
226.121	4.59
226.505	-1.18
226.889	-1.99
227.273	7.38
227.657	7.76
228.041	0.93
228.425	-0.6
228.809	-0.97
229.193	2.72
229.577	4.49
229.961	1.57
230.344	2.4
230.728	2.52
231.112	2.21
231.495	2.47
231.879	1
232.263	0.88
232.646	1.03
233.03	1.38
233.413	2.64
233.797	3.23
234.18	0.96
234.563	4.16
234.946	1.45
235.33	3.45
235.713	2.39
236.096	3.13
236.479	1.73
236.862	1.47
237.245	0.85
237.628	1.7
238.011	1.96
238.394	2.12
238.777	1.58
239.16	2.52
239.543	3.02
239.925	1.83
240.308	1.11
240.691	0.95
241.073	3.72
241.456	3.36
241.838	4.38
242.221	3.34
242.603	0.14
242.986	1.52
243.368	1.88
243.75	2.53
244.133	2.27
244.515	2.12
244.897	2.03
245.279	1.81
245.661	1.42
246.043	2.28
246.425	2.55
246.807	2.56
247.189	3.11
247.571	2.26
247.953	1.94
248.335	2.54
248.717	2.41
249.098	2.12
249.48	1.97
249.862	2.28
250.243	2.38
250.625	2.36
251.006	1.74
251.388	2.46
251.769	2.3
252.151	3.28
252.532	1.91
252.913	2.95
253.295	2.22
253.676	1.84
254.057	1.75
254.438	2.12
254.819	1.63
255.2	1.84
255.581	2
255.962	1.51
256.343	2.13
256.724	2.3
257.105	2.53
257.486	1.12
257.867	3.34
258.247	1.96
258.628	1.7
259.009	3.03
259.389	2.9
259.77	1.83
260.15	2.02
260.531	2.43
260.911	1.56
261.292	1.93
261.672	2.01
262.052	2.07
262.432	2.01
262.813	2.09
263.193	1.72
263.573	2.51
263.953	2.37
264.333	1.43
264.713	2.87
265.093	2
265.473	2.73
265.853	1.63
266.233	2.44
266.612	2.04
266.992	2.48
267.372	2.98
267.752	2.84
268.131	2.27
268.511	1.42
268.89	2.33
269.27	2.25
269.649	2.22
270.029	2.2
270.408	2.02
270.787	1.83
271.167	1.55
271.546	1.99
271.925	2.28
272.304	2.07
272.683	2.1
273.062	1.95
273.441	1.84
273.82	1.48
274.199	1.47
274.578	2.1
274.957	1.99
275.336	1.69
275.715	1.52
276.093	3.01
276.472	2.45
276.851	2.34
277.229	2.3
277.608	2.19
277.986	2.03
278.365	1.55
278.743	2.41
279.122	1.55
279.5	2.31
279.878	1.98
280.257	1.5
280.635	2.06
281.013	1.63
281.391	2.25
281.769	2.09
282.147	1.57
282.525	1.99
282.903	1.86
283.281	1.78
283.659	2.12
284.037	2.14
284.415	2.03
284.792	2.14
285.17	2.08
285.548	1.78
285.925	1.51
286.303	1.61
286.68	1.67
287.058	2.06
287.435	1.95
287.813	2.23
288.19	2.01
288.567	1.84
288.945	2.07
289.322	1.7
289.699	2.01
290.076	2.1
290.453	2.29
290.83	2.53
291.207	2.49
291.584	2.2
291.961	2.13
292.338	2.05
292.715	2.46
293.092	2.09
293.469	2.65
293.845	1.88
294.222	2.38
294.599	2.08
294.975	2.14
295.352	2.01
295.728	2.24
296.105	1.99
296.481	1.84
296.858	2.11
297.234	2.07
297.61	2.07
297.986	2.3
298.363	2.42
298.739	2.73
299.115	2.14
299.491	2.33
299.867	2.27
300.243	2.25
300.619	2.48
300.995	2.05
301.371	2.1
301.746	1.99
302.122	2.22
302.498	2.59
302.874	2.38
303.249	2.68
303.625	2.59
304	2.29
304.376	2.31
304.751	2.17
305.127	2.55
305.502	2.52
305.878	2.31
306.253	2.86
306.628	2.54
307.003	2.55
307.378	2.12
307.754	3.11
308.129	2.49
308.504	2.32
308.879	1.88
309.254	2.69
309.629	3.12
310.003	2.71
310.378	2.48
310.753	2.82
311.128	2.57
311.502	2.37
311.877	2.67
312.252	2.67
312.626	2.83
313.001	2.83
313.375	2.53
313.75	2.72
314.124	2.36
314.498	2.84
314.873	2.77
315.247	3.22
315.621	3.28
315.995	3.51
316.369	2.82
316.743	3.13
317.117	3.06
317.491	3.08
317.865	2.76
318.239	3.07
318.613	2.91
318.987	3.03
319.361	3.11
319.734	2.25
320.108	2.81
320.482	2.63
320.855	3.04
321.229	3.27
321.602	2.79
321.976	3.59
322.349	2.73
322.723	2.74
323.096	3.72
323.469	3.7
323.843	3.57
324.216	3.13
324.589	3.15
324.962	2.93
325.335	3.14
325.708	3.05
326.081	2.89
326.454	3.43
326.827	3
327.2	2.66
327.573	2.88
327.945	2.91
328.318	2.6
328.691	2.52
329.063	2.81
329.436	2.6
329.809	3.14
330.181	3.24
330.553	3.23
330.926	3.12
331.298	3.63
331.671	2.87
332.043	3.44
332.415	2.89
332.787	3.35
333.159	2.99
333.532	3.59
333.904	3.31
334.276	2.92
334.648	3.02
335.02	3.08
335.391	3.06
335.763	3.03
336.135	3.64
336.507	3.39
336.879	3.38
337.25	2.69
337.622	3.29
337.993	2.9
338.365	3.1
338.736	3.38
339.108	3.57
339.479	2.96
339.851	3.22
340.222	3.16
340.593	2.86
340.964	3.03
341.336	3.09
341.707	2.77
342.078	3.18
342.449	3.15
342.82	2.8
343.191	3.22
343.562	3.07
343.933	3.12
344.303	2.65
344.674	3.09
345.045	3.08
345.416	3.09
345.786	3.3
346.157	2.77
346.527	3.36
346.898	3.06
347.268	3.57
347.639	3.16
348.009	3.22
348.38	2.67
348.75	3.36
349.12	3.01
349.49	2.91
349.861	2.83
350.231	3.08
350.601	3.19
350.971	3.47
351.341	2.77
351.711	2.86
352.081	2.88
352.45	3.05
352.82	2.76
353.19	3
353.56	2.89
353.929	3.32
354.299	3.26
354.669	3.8
355.038	3.24
355.408	2.86
355.777	3.17
356.147	3.05
356.516	3.12
356.885	3.24
357.254	3.41
357.624	3.24
357.993	2.97
358.362	3.55
358.731	2.84
359.1	3.35
359.469	3.18
359.838	3.32
360.207	3.2
360.576	3.47
360.945	3.24
361.314	3.56
361.682	3.16
362.051	3.07
362.42	3.39
362.788	3.12
363.157	3.25
363.525	3.08
363.894	3.43
364.262	3.34
364.631	3.31
364.999	3.18
365.367	3.3
365.735	3.47
366.104	2.98
366.472	3.31
366.84	3.05
367.208	3.09
367.576	3.13
367.944	3.36
368.312	3.45
368.68	3.44
369.048	3.31
369.416	3.08
369.783	3.21
370.151	3.65
370.519	3.77
370.886	3.2
371.254	3.53
371.621	3.29
371.989	3.4
372.356	3.81
372.724	3.95
373.091	3.69
373.458	3.64
373.826	3.41
374.193	3.42
374.56	3.58
374.927	3.51
375.294	3.57
375.661	3.31
376.028	3.32
376.395	3.8
376.762	3.46
377.129	3.91
377.496	3.41
377.863	3.35
378.229	3.31
378.596	3.5
378.963	3.23
379.329	3.13
379.696	3.54
380.062	3.28
380.429	3.33
380.795	3.55
381.161	3.35
381.528	3.59
381.894	3.67
382.26	3.46
382.626	3.34
382.993	3.71
383.359	3.49
383.725	3.38
384.091	3.82
384.457	3.12
384.823	3.63
385.188	3.35
385.554	3.44
385.92	3.57
386.286	3.7
386.651	3.51
387.017	3.5
387.383	3.23
387.748	3.21
388.114	3.63
388.479	3.48
388.845	3.48
389.21	3.58
389.575	3.75
389.94	3.61
390.306	3.67
390.671	3.6
391.036	3.7
391.401	3.78
391.766	3.4
392.131	3.6
392.496	3.79
392.861	3.61
393.226	3.73
393.591	3.58
393.956	3.47
394.32	3.58
394.685	3.63
395.05	3.67
395.414	3.78
395.779	3.45
396.143	3.42
396.508	3.51
396.872	3.63
397.236	3.52
397.601	3.33
397.965	3.69
398.329	3.83
398.694	3.76
399.058	3.62
399.422	3.72
399.786	3.65
400.15	3.42
400.514	3.8
400.878	3.79
401.242	3.77
401.605	3.8
401.969	3.84
402.333	3.55
402.697	3.69
403.06	3.71
403.424	3.88
403.787	3.96
404.151	3.63
404.514	3.41
404.878	3.7
405.241	3.66
405.604	3.64
405.968	3.67
406.331	3.6
406.694	3.6
407.057	3.61
407.42	3.88
407.783	3.72
408.146	3.94
408.509	3.67
408.872	3.7
409.235	3.76
409.598	3.63
409.961	3.67
410.323	3.9
410.686	3.64
411.049	3.8
411.411	3.77
411.774	3.83
412.136	3.71
412.499	3.94
412.861	3.61
413.223	3.85
413.586	3.92
413.948	3.83
414.31	3.74
414.672	3.75
415.035	3.78
415.397	3.68
415.759	3.82
416.121	4.03
416.483	3.8
416.845	3.79
417.206	3.7
417.568	3.84
417.93	4.03
418.292	3.68
418.653	3.65
419.015	3.69
419.377	3.95
419.738	3.86
420.1	3.74
420.461	3.86
420.822	3.79
421.184	3.68
421.545	3.77
421.906	3.91
422.267	3.88
422.629	3.82
422.99	3.71
423.351	3.74
423.712	3.67
424.073	3.85
424.434	3.75
424.795	3.81
425.155	3.85
425.516	3.77
425.877	3.68
426.238	3.79
426.598	3.77
426.959	3.73
427.32	3.87
427.68	3.93
428.041	3.81
428.401	3.85
428.761	3.78
429.122	3.77
429.482	3.87
429.842	4.01
430.202	3.83
430.563	3.92
430.923	3.89
431.283	4.01
431.643	4.03
432.003	4.14
432.363	4.02
432.722	3.83
433.082	3.91
433.442	3.9
433.802	3.69
434.161	4.01
434.521	3.85
434.881	4.05
435.24	3.9
435.6	3.87
435.959	4.12
436.319	3.95
436.678	4
437.037	4.1
437.396	4.1
437.756	4.06
438.115	4.02
438.474	4.06
438.833	4.08
439.192	4
439.551	4.13
439.91	4.06
440.269	4.12
440.628	3.87
440.987	4.18
441.345	4
441.704	4.04
442.063	4.04
442.421	3.95
442.78	3.97
443.138	4.06
443.497	4.01
443.855	4.04
444.214	4.21
444.572	4.07
444.93	4.22
445.288	4.16
445.647	4.24
446.005	4.02
446.363	4.04
446.721	4.03
447.079	3.95
447.437	4.05
447.795	4.03
448.153	4.14
448.51	4
448.868	3.97
449.226	3.93
449.584	4.06
449.941	4.25
450.299	4.15
450.656	4.08
451.014	4.17
451.371	4.07
451.729	4.29
452.086	4.15
452.443	4.28
452.801	4.19
453.158	4.29
453.515	4.11
453.872	4.28
454.229	4.1
454.586	4.13
454.943	4.3
455.3	4.33
455.657	4.32
456.014	4.2
456.371	4.4
456.727	4.36
457.084	4.32
457.441	4.5
457.797	4.24
458.154	4.19
458.51	4.27
458.867	4.1
459.223	4.27
459.58	4.21
459.936	4.27
460.292	4.48
460.648	4.35
461.005	4.24
461.361	4.26
461.717	4.2
462.073	4.19
462.429	4.24
462.785	4.21
463.141	4.23
463.496	4.34
463.852	4.31
464.208	4.23
464.564	4.39
464.919	4.38
465.275	4.37
465.631	4.21
465.986	4.42
466.342	4.57
466.697	4.53
467.052	4.41
467.408	4.49
467.763	4.48
468.118	4.28
468.473	4.35
468.829	4.52
469.184	4.59
469.539	4.6
469.894	4.44
470.249	4.38
470.603	4.36
470.958	4.39
471.313	4.42
471.668	4.51
472.023	4.69
472.377	4.5
472.732	4.47
473.086	4.36
473.441	4.66
473.795	4.48
474.15	4.54
474.504	4.62
474.859	4.47
475.213	4.54
475.567	4.41
475.921	4.47
476.275	4.53
476.63	4.45
476.984	4.54
477.338	4.54
477.692	4.46
478.045	4.69
478.399	4.41
478.753	4.39
479.107	4.47
479.461	4.63
479.814	4.52
480.168	4.59
480.521	4.65
480.875	4.58
481.228	4.56
481.582	4.72
481.935	4.59
482.289	4.66
482.642	4.5
482.995	4.63
483.348	4.55
483.701	4.46
484.055	4.64
484.408	4.52
484.761	4.54
485.114	4.44
485.466	4.35
485.819	4.28
486.172	4.34
486.525	4.35
486.878	4.41
487.23	4.47
487.583	4.51
487.936	4.49
488.288	4.57
488.641	4.44
488.993	4.41
489.345	4.44
489.698	4.44
490.05	4.45
490.402	4.48
490.754	4.5
491.107	4.57
491.459	4.6
491.811	4.63
492.163	4.75
492.515	4.69
492.866	4.58
493.218	4.55
493.57	4.57
493.922	4.51
494.274	4.59
494.625	4.68
494.977	4.75
495.328	4.79
495.68	4.82
496.031	4.81
496.383	4.76
496.734	4.96
497.086	4.89
497.437	4.96
497.788	4.86
498.139	4.83
498.49	4.81
498.842	4.89
499.193	4.89
499.544	4.82
499.894	4.86
500.245	4.84
500.596	4.96
500.947	4.91
501.298	4.9
501.648	4.86
501.999	4.94
502.35	4.92
502.7	4.94
503.051	4.87
503.401	5.03
503.752	4.96
504.102	4.95
504.452	4.98
504.803	5.06
505.153	5.1
505.503	5.19
505.853	5.06
506.203	4.93
506.553	5.06
506.903	4.92
507.253	5.13
507.603	5.19
507.953	5.1
508.303	5.01
508.652	5.05
509.002	5.1
509.352	5.25
509.701	5.08
510.051	5.08
510.4	5.01
510.75	5.08
511.099	5.11
511.449	5.04
511.798	5.13
512.147	5.25
512.496	5.12
512.846	5.27
513.195	5.27
513.544	5.22
513.893	5.12
514.242	5.2
514.591	5.08
514.939	5.09
515.288	5.23
515.637	5.26
515.986	5.23
516.334	5.28
516.683	5.34
517.032	5.37
517.38	5.23
517.729	5.27
518.077	5.33
518.426	5.38
518.774	5.3
519.122	5.32
519.47	5.26
519.819	5.3
520.167	5.29
520.515	5.19
520.863	5.19
521.211	5.37
521.559	5.35
521.907	5.42
522.255	5.31
522.602	5.38
522.95	5.48
523.298	5.44
523.645	5.65
523.993	5.42
524.341	5.48
524.688	5.58
525.036	5.47
525.383	5.58
525.73	5.48
526.078	5.54
526.425	5.48
526.772	5.49
527.119	5.43
527.466	5.42
527.814	5.43
528.161	5.46
528.508	5.41
528.854	5.46
529.201	5.43
529.548	5.4
529.895	5.44
530.242	5.31
530.588	5.29
530.935	5.38
531.282	5.41
531.628	5.49
531.975	5.52
532.321	5.5
532.667	5.57
533.014	5.57
533.36	5.51
533.706	5.73
534.052	5.65
534.399	5.62
534.745	5.65
535.091	5.56
535.437	5.55
535.783	5.57
536.129	5.67
536.474	5.78
536.82	5.82
537.166	5.78
537.512	5.77
537.857	5.79
538.203	5.8
538.549	5.83
538.894	5.77
539.239	5.85
539.585	5.88
539.93	5.8
540.276	5.99
540.621	6.03
540.966	6.08
541.311	6.03
541.656	5.88
542.001	6.06
542.346	6.04
542.691	5.93
543.036	5.78
543.381	5.79
543.726	5.82
544.071	5.9
544.415	5.91
544.76	5.95
545.105	5.98
545.449	6
545.794	5.98
546.138	6.15
546.483	6.14
546.827	6.24
547.171	6.13
547.516	6.14
547.86	6.26
548.204	6.26
548.548	6.28
548.892	6.2
549.236	6.19
549.58	6.44
549.924	6.33
550.268	6.35
550.612	6.31
550.956	6.24
551.3	6.39
551.643	6.55
551.987	6.7
552.33	6.48
552.674	6.61
553.017	6.65
553.361	6.53
553.704	6.42
554.048	6.56
554.391	6.49
554.734	6.64
555.077	6.6
555.42	6.69
555.764	6.75
556.107	6.55
556.45	6.65
556.793	6.63
557.135	6.78
557.478	6.71
557.821	6.82
558.164	6.9
558.507	6.73
558.849	6.92
559.192	6.92
559.534	6.81
559.877	6.92
560.219	6.88
560.562	7.13
560.904	7.1
561.246	7.1
561.589	7.06
561.931	6.94
562.273	6.74
562.615	7.09
562.957	7.15
563.299	7.05
563.641	6.88
563.983	7.19
564.325	7.32
564.667	7.41
565.008	7.3
565.35	7.29
565.692	7.22
566.033	7.18
566.375	7.36
566.716	7.36
567.058	7.19
567.399	7.15
567.741	7.12
568.082	7.28
568.423	7.29
568.764	7.26
569.105	7.24
569.447	7.26
569.788	7.24
570.129	7.4
570.47	7.31
570.811	7.25
571.151	7.44
571.492	7.63
571.833	7.37
572.174	7.38
572.514	7.56
572.855	7.48
573.195	7.57
573.536	7.56
573.876	7.53
574.217	7.49
574.557	7.46
574.898	7.65
575.238	7.64
575.578	7.76
575.918	7.8
576.258	7.54
576.598	7.68
576.938	7.83
577.278	7.73
577.618	7.7
577.958	7.71
578.298	7.82
578.638	7.91
578.977	7.9
579.317	7.84
579.657	7.71
579.996	7.92
580.336	8.07
580.675	8.24
581.014	8.09
581.354	7.93
581.693	8.05
582.032	7.67
582.372	8.04
582.711	7.91
583.05	8.01
583.389	7.99
583.728	8.33
584.067	8.15
584.406	8.17
584.745	8.36
585.083	8.34
585.422	8.36
585.761	8.38
586.1	8.29
586.438	8.12
586.777	8.45
587.115	8.08
587.454	8.25
587.792	8.29
588.13	8.59
588.469	8.43
588.807	8.56
589.145	8.41
589.483	8.73
589.821	8.38
590.159	8.45
590.497	8.45
590.835	8.43
591.173	8.74
591.511	8.74
591.849	8.68
592.187	8.38
592.524	8.8
592.862	8.6
593.2	8.71
593.537	8.63
593.875	8.86
594.212	8.72
594.55	8.58
594.887	8.91
595.224	8.88
595.561	9.13
595.899	8.65
596.236	9.15
596.573	8.77
596.91	8.78
597.247	8.93
597.584	8.77
597.921	9.04
598.258	8.79
598.594	8.77
598.931	8.93
599.268	8.85
599.604	8.99
599.941	9.28
600.277	9.01
600.614	9.3
600.95	9.03
601.287	9.19
601.623	9.17
601.959	9.29
602.296	9.21
602.632	9.25
602.968	9.1
603.304	9.48
603.64	9.38
603.976	9.59
604.312	9.22
604.648	9.2
604.984	9.56
605.319	9.24
605.655	9.52
605.991	9.28
606.326	9.37
606.662	9.26
606.998	9.3
607.333	9.34
607.668	9.42
608.004	9.38
608.339	9.72
608.674	9.66
609.01	9.55
609.345	9.43
609.68	9.44
610.015	9.68
610.35	9.92
610.685	9.72
611.02	9.66
611.355	9.89
611.689	9.7
612.024	9.78
612.359	9.7
612.694	9.65
613.028	9.65
613.363	9.88
613.697	9.64
614.032	9.77
614.366	10.21
614.7	10.02
615.035	9.98
615.369	10.01
615.703	10.06
616.037	10.19
616.371	10.38
616.705	9.84
617.039	10.12
617.373	10.18
617.707	10.13
618.041	10.47
618.375	10.3
618.709	9.94
619.042	10.25
619.376	10.38
619.71	10.25
620.043	10.08
620.377	10.39
620.71	10.37
621.043	10.12
621.377	10.29
621.71	10.4
622.043	10.25
622.376	10.1
622.709	10.35
623.043	10.4
623.376	10.38
623.709	10.52
624.041	10.79
624.374	10.5
624.707	10.55
625.04	10.93
625.373	10.37
625.705	10.79
626.038	10.56
626.37	10.25
626.703	11.25
627.035	10.68
627.368	11.31
627.7	10.84
628.032	10.86
628.365	10.71
628.697	11.14
629.029	10.76
629.361	10.65
629.693	10.72
630.025	10.97
630.357	11.06
630.689	10.71
631.021	10.97
631.353	11.21
631.684	10.95
632.016	11.04
632.348	11.47
632.679	11.49
633.011	11.14
633.342	11.08
633.674	11.41
634.005	11.59
634.336	11.09
634.668	11.13
634.999	11.11
635.33	10.88
635.661	11.45
635.992	11.66
636.323	11.52
636.654	11.35
636.985	11.18
637.316	11.28
637.647	11.69
637.977	11.51
638.308	11.46
638.639	11.34
638.969	11.72
639.3	11.77
639.63	11.25
639.961	11.62
640.291	11.92
640.622	11.32
640.952	11.64
641.282	11.57
641.612	12.03
641.943	11.6
642.273	11.51
642.603	11.57
642.933	11.56
643.263	12.07
643.592	11.73
643.922	11.83
644.252	10.81
644.582	11.95
644.911	12.23
645.241	11.81
645.571	12.03
645.9	11.54
646.23	12.03
646.559	11.97
646.888	11.8
647.218	12.05
647.547	11.83
647.876	12.28
648.205	11.81
648.534	11.97
648.863	11.88
649.192	11.72
649.521	12.34
649.85	12.57
650.179	12.4
650.508	12.27
650.837	12.03
651.165	12.41
651.494	12.57
651.822	12.29
652.151	12.26
652.479	12.16
652.808	12.38
653.136	12.37
653.465	12.57
653.793	12.37
654.121	12.55
654.449	12.65
654.777	12.29
655.105	12.38
655.433	12.81
655.761	12.77
656.089	12.3
656.417	12.53
656.745	12.75
657.073	12.64
657.4	12.88
657.728	12.79
658.056	12.72
658.383	12.53
658.711	12.78
659.038	12.67
659.365	13.36
659.693	12.81
660.02	12.5
660.347	12.87
660.674	12.72
661.001	12.53
661.329	13.04
661.656	12.51
661.982	13
662.309	13.11
662.636	13.38
662.963	13.34
663.29	12.96
663.616	12.31
663.943	12.23
664.27	12.9
664.596	13.34
664.923	12.91
665.249	13.43
665.576	13
665.902	13.48
666.228	12.98
666.554	13.62
666.881	13
667.207	13.35
667.533	12.93
667.859	13.43
668.185	13.57
668.511	13.36
668.837	14.11
669.162	13.19
669.488	13.41
669.814	13.19
670.139	13.75
670.465	13.16
670.791	13.16
671.116	13.81
671.442	13.87
671.767	13.64
672.092	14.21
672.418	14.24
672.743	13.33
673.068	13.66
673.393	13.56
673.718	13.46
674.043	13.67
674.368	13.48
674.693	13.52
675.018	14.24
675.343	13.46
675.667	13.45
675.992	13.87
676.317	13.62
676.641	14.14
676.966	14.24
677.29	14.07
677.615	14.62
677.939	14.04
678.264	14.14
678.588	14.03
678.912	13.09
679.236	14.01
679.56	13.28
679.885	14.06
680.209	14.95
680.532	14.6
680.856	14.36
681.18	14.45
681.504	14.27
681.828	13.71
682.152	13.72
682.475	14.52
682.799	14.08
683.122	14.31
683.446	13.67
683.769	13.65
684.093	14.68
684.416	14.01
684.739	14.99
685.062	13.97
685.386	14.63
685.709	13.86
686.032	14.73
686.355	14.36
686.678	14.69
687.001	14.75
687.324	14.03
687.646	13.46
