Data from 0360_crown_Reflection__1__37.txt Node

Date: Mon Dec 11 18:00:32 CST 2023
User: ToomeyLab
Spectrometer: FLMS14357
Trigger mode: 0
Integration Time (sec): 1.000000E-2
Scans to average: 100
Electric dark correction enabled: true
Nonlinearity correction enabled: false
Boxcar width: 0
XAxis mode: Wavelengths
Number of Pixels in Spectrum: 2048
>>>>>Begin Spectral Data<<<<<
189.047	-38.93
189.435	-38.93
189.823	-38.93
190.211	-177.77
190.599	71.54
190.987	63.11
191.375	184.22
191.763	-15.76
192.151	95.63
192.538	22.75
192.926	394.77
193.314	-120.75
193.702	274
194.089	379.31
194.477	110.08
194.864	48.37
195.252	219.18
195.639	200.56
196.027	109.6
196.414	-226.65
196.801	28.1
197.189	307.66
197.576	60.75
197.963	-18.4
198.351	16.64
198.738	27.69
199.125	15.36
199.512	64.68
199.899	2.97
200.286	19.4
200.673	-83.72
201.06	21.92
201.447	6.99
201.833	36.65
202.22	49.44
202.607	15.25
202.994	-33.14
203.38	-24.62
203.767	51.04
204.154	52.37
204.54	17.28
204.927	-19.93
205.313	38.13
205.699	-33.55
206.086	1.5
206.472	33.51
206.858	4.26
207.245	-2.33
207.631	5.61
208.017	8.05
208.403	21.95
208.789	1.08
209.175	17.82
209.561	21.5
209.947	-1.48
210.333	4.51
210.719	38
211.105	6.59
211.491	20.33
211.876	10.08
212.262	10.02
212.648	-1.06
213.034	5.18
213.419	-16.44
213.805	7.31
214.19	0.4
214.576	-7
214.961	14.67
215.346	-20.73
215.732	5.73
216.117	7.7
216.502	-9.9
216.888	7.8
217.273	17.88
217.658	18.65
218.043	7.15
218.428	32.52
218.813	9.71
219.198	10.24
219.583	-8.31
219.968	-4.72
220.353	4.44
220.738	24.64
221.122	-3.37
221.507	23.35
221.892	2.23
222.276	3.75
222.661	8.36
223.046	7.2
223.43	15.64
223.815	5.23
224.199	3.4
224.583	8.83
224.968	10.81
225.352	11.41
225.736	-4.39
226.121	2.71
226.505	-3.22
226.889	4.27
227.273	1.82
227.657	11.89
228.041	2.83
228.425	6.24
228.809	0.3
229.193	3.88
229.577	6.66
229.961	5.13
230.344	4.5
230.728	4.03
231.112	4.67
231.495	5.25
231.879	5.21
232.263	2.87
232.646	3.63
233.03	4.62
233.413	4.37
233.797	5.09
234.18	3.45
234.563	6.17
234.946	5.05
235.33	5.82
235.713	3.05
236.096	5.06
236.479	5.95
236.862	4.59
237.245	4.46
237.628	6.41
238.011	4.98
238.394	2.98
238.777	4.18
239.16	5.03
239.543	5.01
239.925	5.06
240.308	4.22
240.691	3.73
241.073	5.07
241.456	6.46
241.838	5.41
242.221	5.03
242.603	3.62
242.986	3.89
243.368	3.53
243.75	4.41
244.133	4.12
244.515	4.35
244.897	4.3
245.279	4.34
245.661	4.47
246.043	4.56
246.425	4.86
246.807	5.13
247.189	4.46
247.571	3.83
247.953	4.25
248.335	4.4
248.717	4.2
249.098	4.35
249.48	4.04
249.862	4.3
250.243	4.35
250.625	4.17
251.006	3.82
251.388	4.27
251.769	3.97
252.151	4.65
252.532	4.98
252.913	4.97
253.295	4.25
253.676	4.52
254.057	4.22
254.438	4.12
254.819	4.13
255.2	3.49
255.581	2.82
255.962	3.74
256.343	4.07
256.724	4.48
257.105	4.15
257.486	4.71
257.867	4.48
258.247	3.53
258.628	3.81
259.009	4.39
259.389	4.29
259.77	3.8
260.15	4.24
260.531	4.23
260.911	4.06
261.292	3.76
261.672	3.81
262.052	3.93
262.432	3.85
262.813	4.08
263.193	3.73
263.573	4.43
263.953	3.52
264.333	3.28
264.713	4.86
265.093	4.71
265.473	4.41
265.853	3.99
266.233	3.6
266.612	4.39
266.992	4.6
267.372	5.2
267.752	4.16
268.131	3.97
268.511	3.49
268.89	4.18
269.27	4.51
269.649	4.34
270.029	4.58
270.408	3.88
270.787	3.5
271.167	2.73
271.546	4.05
271.925	3.49
272.304	4.09
272.683	3.61
273.062	2.95
273.441	3.91
273.82	3.51
274.199	3.56
274.578	3.97
274.957	3.97
275.336	3.7
275.715	3.93
276.093	4.81
276.472	4.1
276.851	4.21
277.229	3.79
277.608	3.79
277.986	4.05
278.365	3.4
278.743	3.35
279.122	3.77
279.5	4.51
279.878	4.16
280.257	3.57
280.635	3.48
281.013	3.65
281.391	4.01
281.769	3.63
282.147	3.1
282.525	3.85
282.903	4.2
283.281	3.66
283.659	3.49
284.037	3.59
284.415	3.66
284.792	3.69
285.17	4.34
285.548	3.72
285.925	3.41
286.303	3.8
286.68	3.38
287.058	3.5
287.435	3.55
287.813	3.99
288.19	3.49
288.567	3.5
288.945	3.5
289.322	3.31
289.699	3.31
290.076	3.49
290.453	3.86
290.83	3.91
291.207	3.45
291.584	3.81
291.961	3.56
292.338	3.56
292.715	3.75
293.092	3.6
293.469	3.74
293.845	3.64
294.222	3.79
294.599	3.72
294.975	3.34
295.352	3.43
295.728	3.36
296.105	3.21
296.481	2.99
296.858	3.19
297.234	3.89
297.61	3.35
297.986	3.78
298.363	3.64
298.739	3.69
299.115	3.4
299.491	3.62
299.867	3.39
300.243	3.65
300.619	3.54
300.995	3.5
301.371	3.16
301.746	3.18
302.122	3.3
302.498	3.67
302.874	3.69
303.249	3.81
303.625	3.31
304	3.18
304.376	3.62
304.751	2.93
305.127	3.41
305.502	3.62
305.878	3.44
306.253	3.44
306.628	3.02
307.003	3.58
307.378	3.22
307.754	3.91
308.129	3.83
308.504	3.43
308.879	3.23
309.254	3.47
309.629	3.6
310.003	3.99
310.378	3.5
310.753	3.56
311.128	3.63
311.502	2.98
311.877	3.56
312.252	3.38
312.626	3.35
313.001	3.48
313.375	3.07
313.75	3.14
314.124	3.23
314.498	3.55
314.873	3.34
315.247	3.61
315.621	3.81
315.995	3.37
316.369	3.48
316.743	3.88
317.117	3.45
317.491	3.64
317.865	2.73
318.239	3.37
318.613	3.33
318.987	3.6
319.361	3.9
319.734	2.91
320.108	2.99
320.482	2.69
320.855	3.29
321.229	2.89
321.602	3.37
321.976	4.03
322.349	3.47
322.723	2.92
323.096	4.08
323.469	3.93
323.843	3.65
324.216	3.7
324.589	3.66
324.962	3.19
325.335	3.5
325.708	3.62
326.081	3.63
326.454	3.53
326.827	3.25
327.2	2.67
327.573	2.95
327.945	3.41
328.318	3.23
328.691	3.02
329.063	3.67
329.436	3.49
329.809	2.88
330.181	3.52
330.553	3.69
330.926	3.73
331.298	3.41
331.671	3.11
332.043	3.66
332.415	3.27
332.787	3.51
333.159	3.19
333.532	3.7
333.904	3.47
334.276	3.66
334.648	3.71
335.02	3.25
335.391	3.3
335.763	3.56
336.135	4
336.507	3.37
336.879	3.92
337.25	3.85
337.622	3.31
337.993	3.41
338.365	3.05
338.736	3.45
339.108	3.29
339.479	3.53
339.851	3.3
340.222	3.34
340.593	3.13
340.964	3.48
341.336	3.46
341.707	3.56
342.078	3.88
342.449	3.19
342.82	3.11
343.191	3
343.562	3.48
343.933	3.14
344.303	3.3
344.674	3.7
345.045	3.63
345.416	3.15
345.786	3.6
346.157	3.43
346.527	3.29
346.898	3.23
347.268	2.97
347.639	3.25
348.009	3.63
348.38	3.09
348.75	3.11
349.12	3.72
349.49	2.88
349.861	3.31
350.231	3.12
350.601	3.89
350.971	3.64
351.341	3.28
351.711	3.8
352.081	3.1
352.45	3.21
352.82	2.92
353.19	3.42
353.56	3.01
353.929	3.3
354.299	3.82
354.669	3.68
355.038	3.62
355.408	3.29
355.777	3.78
356.147	3.59
356.516	3.14
356.885	3.18
357.254	3.32
357.624	3.49
357.993	3.21
358.362	3.53
358.731	3.23
359.1	3.52
359.469	3.41
359.838	3.39
360.207	3.34
360.576	3.44
360.945	3.78
361.314	3.77
361.682	3.7
362.051	3.27
362.42	3.12
362.788	3.36
363.157	3.31
363.525	2.96
363.894	3.41
364.262	3.5
364.631	3.34
364.999	3.49
365.367	3.33
365.735	3.67
366.104	3.22
366.472	3.64
366.84	3.28
367.208	2.99
367.576	3.64
367.944	3.56
368.312	3.43
368.68	3.52
369.048	3.31
369.416	3.42
369.783	3.32
370.151	3.45
370.519	3.96
370.886	3.64
371.254	3.73
371.621	3.87
371.989	3.35
372.356	3.32
372.724	3.88
373.091	4.05
373.458	3.64
373.826	3.51
374.193	3.48
374.56	3.54
374.927	3.52
375.294	3.69
375.661	3.68
376.028	3.55
376.395	3.7
376.762	3.45
377.129	4.01
377.496	3.46
377.863	3.56
378.229	3.5
378.596	3.47
378.963	3.39
379.329	3.48
379.696	3.86
380.062	3.63
380.429	3.81
380.795	4.05
381.161	3.81
381.528	3.92
381.894	3.45
382.26	3.68
382.626	3.8
382.993	3.9
383.359	3.59
383.725	3.64
384.091	3.59
384.457	3.57
384.823	3.9
385.188	3.57
385.554	3.31
385.92	3.41
386.286	3.72
386.651	3.33
387.017	3.43
387.383	3.65
387.748	3.7
388.114	3.39
388.479	3.43
388.845	3.62
389.21	3.95
389.575	3.4
389.94	3.55
390.306	3.67
390.671	3.73
391.036	3.81
391.401	3.85
391.766	3.54
392.131	3.81
392.496	3.85
392.861	4.02
393.226	3.81
393.591	3.69
393.956	3.63
394.32	3.69
394.685	3.45
395.05	4.13
395.414	3.94
395.779	3.73
396.143	3.45
396.508	3.72
396.872	3.96
397.236	3.8
397.601	3.48
397.965	3.81
398.329	3.71
398.694	3.89
399.058	3.73
399.422	3.79
399.786	3.87
400.15	3.99
400.514	3.83
400.878	4.02
401.242	3.78
401.605	3.79
401.969	3.49
402.333	3.77
402.697	3.77
403.06	3.82
403.424	3.85
403.787	4.32
404.151	3.66
404.514	3.71
404.878	4.01
405.241	3.94
405.604	3.77
405.968	3.57
406.331	3.57
406.694	3.7
407.057	3.81
407.42	4.08
407.783	3.77
408.146	3.98
408.509	3.68
408.872	3.76
409.235	3.92
409.598	3.78
409.961	3.8
410.323	3.92
410.686	3.94
411.049	3.79
411.411	3.85
411.774	3.78
412.136	3.66
412.499	3.96
412.861	3.89
413.223	3.92
413.586	3.91
413.948	4.07
414.31	4.06
414.672	3.64
415.035	3.87
415.397	3.62
415.759	4.21
416.121	4.06
416.483	3.85
416.845	4.04
417.206	3.85
417.568	4.05
417.93	4.05
418.292	3.93
418.653	3.76
419.015	3.78
419.377	3.89
419.738	3.91
420.1	3.85
420.461	3.76
420.822	3.76
421.184	3.91
421.545	3.78
421.906	3.81
422.267	3.87
422.629	3.79
422.99	3.85
423.351	3.72
423.712	3.79
424.073	3.78
424.434	3.78
424.795	3.79
425.155	3.84
425.516	3.75
425.877	3.68
426.238	3.85
426.598	3.82
426.959	3.84
427.32	3.83
427.68	3.89
428.041	3.68
428.401	3.82
428.761	3.96
429.122	3.69
429.482	3.92
429.842	3.83
430.202	3.72
430.563	3.92
430.923	4.02
431.283	3.97
431.643	3.93
432.003	3.95
432.363	4.04
432.722	3.78
433.082	3.96
433.442	3.88
433.802	3.94
434.161	4.06
434.521	3.78
434.881	4
435.24	3.8
435.6	3.93
435.959	3.86
436.319	3.9
436.678	3.76
437.037	4.04
437.396	3.95
437.756	3.89
438.115	4.07
438.474	4.15
438.833	3.8
439.192	3.97
439.551	3.99
439.91	3.99
440.269	3.97
440.628	3.85
440.987	4.14
441.345	3.82
441.704	4
442.063	3.97
442.421	3.86
442.78	3.86
443.138	3.96
443.497	3.9
443.855	3.86
444.214	4.05
444.572	4.06
444.93	4.04
445.288	4.06
445.647	4.14
446.005	3.81
446.363	3.94
446.721	4.12
447.079	3.93
447.437	3.93
447.795	3.82
448.153	4.06
448.51	3.95
448.868	3.76
449.226	3.82
449.584	4
449.941	4.05
450.299	4.02
450.656	3.94
451.014	4
451.371	3.83
451.729	4.08
452.086	4.03
452.443	4.22
452.801	4.03
453.158	4.04
453.515	3.97
453.872	4.12
454.229	3.96
454.586	4.17
454.943	4.11
455.3	4.09
455.657	4.12
456.014	4.05
456.371	4.1
456.727	4.28
457.084	4.1
457.441	4.19
457.797	4.01
458.154	4.07
458.51	4
458.867	3.74
459.223	4.02
459.58	4.08
459.936	4.2
460.292	4.15
460.648	4
461.005	4.03
461.361	3.94
461.717	4
462.073	3.98
462.429	4.03
462.785	4.06
463.141	4.07
463.496	4.13
463.852	4.2
464.208	4.13
464.564	3.97
464.919	4.21
465.275	3.91
465.631	4.01
465.986	4.31
466.342	4.06
466.697	4.19
467.052	4.2
467.408	4.24
467.763	4.15
468.118	4.09
468.473	4.13
468.829	4.19
469.184	4.38
469.539	4.13
469.894	3.85
470.249	4.2
470.603	4.03
470.958	4.29
471.313	4.21
471.668	4.21
472.023	4.38
472.377	4.34
472.732	4.19
473.086	4.25
473.441	4.28
473.795	4.16
474.15	4.12
474.504	4.04
474.859	4.22
475.213	4.14
475.567	4.17
475.921	4.14
476.275	3.97
476.63	4.25
476.984	4.25
477.338	4.13
477.692	4.19
478.045	4.17
478.399	3.97
478.753	4
479.107	3.93
479.461	3.96
479.814	4.03
480.168	4.16
480.521	4.16
480.875	4.15
481.228	4.04
481.582	4.22
481.935	4.17
482.289	4.06
482.642	4.27
482.995	4.14
483.348	4.09
483.701	3.95
484.055	4.07
484.408	4.14
484.761	4.02
485.114	3.98
485.466	3.87
485.819	3.76
486.172	3.88
486.525	3.89
486.878	4.01
487.23	4
487.583	4.04
487.936	4.01
488.288	4.08
488.641	3.9
488.993	3.88
489.345	3.97
489.698	3.9
490.05	3.96
490.402	3.86
490.754	4
491.107	4.05
491.459	4.01
491.811	4.15
492.163	4.09
492.515	4.08
492.866	4.01
493.218	3.93
493.57	3.95
493.922	3.94
494.274	4.04
494.625	4.1
494.977	4.2
495.328	4.21
495.68	4.21
496.031	4.08
496.383	4.09
496.734	4.26
497.086	4.25
497.437	4.26
497.788	4.22
498.139	4.17
498.49	4.05
498.842	4.14
499.193	4.18
499.544	4.09
499.894	4.19
500.245	4.15
500.596	4.19
500.947	4.24
501.298	4.12
501.648	4.09
501.999	4.13
502.35	4.12
502.7	4.14
503.051	4.14
503.401	4.12
503.752	4.22
504.102	4.18
504.452	4.21
504.803	4.34
505.153	4.4
505.503	4.23
505.853	4.26
506.203	4.13
506.553	4.32
506.903	4.14
507.253	4.32
507.603	4.17
507.953	4.21
508.303	4.18
508.652	4.2
509.002	4.18
509.352	4.23
509.701	4.26
510.051	4.18
510.4	4.12
510.75	4.18
511.099	4.12
511.449	4.3
511.798	4.3
512.147	4.25
512.496	4.29
512.846	4.18
513.195	4.31
513.544	4.24
513.893	4.17
514.242	4.19
514.591	4.1
514.939	4.16
515.288	4.26
515.637	4.21
515.986	4.18
516.334	4.24
516.683	4.44
517.032	4.26
517.38	4.38
517.729	4.28
518.077	4.24
518.426	4.3
518.774	4.24
519.122	4.17
519.47	4.2
519.819	4.13
520.167	4.2
520.515	4.07
520.863	4.07
521.211	4.21
521.559	4.12
521.907	4.21
522.255	4.09
522.602	4.11
522.95	4.34
523.298	4.24
523.645	4.48
523.993	4.22
524.341	4.35
524.688	4.14
525.036	4.23
525.383	4.24
525.73	4.3
526.078	4.26
526.425	4.23
526.772	4.17
527.119	4.12
527.466	4.15
527.814	4.16
528.161	4.13
528.508	4.19
528.854	4.15
529.201	4.1
529.548	4.11
529.895	4.04
530.242	4.06
530.588	3.96
530.935	4.02
531.282	4.09
531.628	4.07
531.975	4.16
532.321	4.17
532.667	4.12
533.014	4.14
533.36	4.14
533.706	4.3
534.052	4.22
534.399	4.16
534.745	4.2
535.091	4.04
535.437	4.06
535.783	4.09
536.129	4.17
536.474	4.24
536.82	4.1
537.166	4.14
537.512	4.15
537.857	4.2
538.203	4.19
538.549	4.22
538.894	4.16
539.239	4.28
539.585	4.29
539.93	4.22
540.276	4.18
540.621	4.31
540.966	4.27
541.311	4.26
541.656	4.14
542.001	4.35
542.346	4.25
542.691	4.15
543.036	4.09
543.381	4
543.726	4.07
544.071	4.14
544.415	4.15
544.76	4.16
545.105	4.11
545.449	4.13
545.794	4.23
546.138	4.27
546.483	4.23
546.827	4.39
547.171	4.19
547.516	4.27
547.86	4.27
548.204	4.27
548.548	4.21
548.892	4.37
549.236	4.26
549.58	4.32
549.924	4.31
550.268	4.22
550.612	4.15
550.956	4.26
551.3	4.3
551.643	4.4
551.987	4.48
552.33	4.44
552.674	4.46
553.017	4.3
553.361	4.16
553.704	4.23
554.048	4.26
554.391	4.19
554.734	4.42
555.077	4.29
555.42	4.41
555.764	4.26
556.107	4.57
556.45	4.42
556.793	4.35
557.135	4.41
557.478	4.34
557.821	4.4
558.164	4.44
558.507	4.29
558.849	4.43
559.192	4.26
559.534	4.39
559.877	4.35
560.219	4.42
560.562	4.23
560.904	4.45
561.246	4.42
561.589	4.48
561.931	4.5
562.273	4.33
562.615	4.34
562.957	4.31
563.299	4.37
563.641	4.32
563.983	4.6
564.325	4.59
564.667	4.41
565.008	4.47
565.35	4.6
565.692	4.46
566.033	4.25
566.375	4.61
566.716	4.28
567.058	4.22
567.399	4.32
567.741	4.34
568.082	4.35
568.423	4.25
568.764	4.38
569.105	4.23
569.447	4.5
569.788	4.22
570.129	4.32
570.47	4.26
570.811	4.24
571.151	4.26
571.492	4.4
571.833	4.46
572.174	4.47
572.514	4.5
572.855	4.25
573.195	4.49
573.536	4.28
573.876	4.31
574.217	4.3
574.557	4.32
574.898	4.48
575.238	4.54
575.578	4.33
575.918	4.37
576.258	4.34
576.598	4.39
576.938	4.33
577.278	4.32
577.618	4.34
577.958	4.16
578.298	4.72
578.638	4.47
578.977	4.54
579.317	4.44
579.657	4.19
579.996	4.29
580.336	4.49
580.675	4.47
581.014	4.37
581.354	4.22
581.693	4.56
582.032	4.02
582.372	4.44
582.711	4.15
583.05	4.41
583.389	4.45
583.728	4.54
584.067	4.49
584.406	4.24
584.745	4.32
585.083	4.19
585.422	4.38
585.761	4.28
586.1	4.33
586.438	4.28
586.777	4.48
587.115	4.34
587.454	4.38
587.792	4.11
588.13	4.39
588.469	4.18
588.807	4.3
589.145	4.73
589.483	4.53
589.821	4.27
590.159	4.24
590.497	4.42
590.835	4.5
591.173	4.46
591.511	4.41
591.849	4.41
592.187	4.14
592.524	4.32
592.862	4.4
593.2	4.27
593.537	4.35
593.875	4.35
594.212	4.4
594.55	4.23
594.887	4.4
595.224	4.47
595.561	4.48
595.899	4.18
596.236	4.55
596.573	4.36
596.91	4.26
597.247	4.43
597.584	4.11
597.921	4.24
598.258	4.37
598.594	4.2
598.931	4.26
599.268	4.32
599.604	4.43
599.941	4.48
600.277	4.43
600.614	4.52
600.95	4.3
601.287	4.34
601.623	4.29
601.959	4.42
602.296	4.37
602.632	4.35
602.968	4.43
603.304	4.69
603.64	4.37
603.976	4.63
604.312	4.36
604.648	4.39
604.984	4.64
605.319	4.37
605.655	4.41
605.991	4.43
606.326	4.52
606.662	4.21
606.998	4.23
607.333	4.23
607.668	4.55
608.004	4.09
608.339	4.38
608.674	4.53
609.01	4.28
609.345	4.06
609.68	4.21
610.015	4.29
610.35	4.49
610.685	4.25
611.02	4.19
611.355	4.32
611.689	4.22
612.024	4.19
612.359	4.26
612.694	4.25
613.028	4.31
613.363	4.27
613.697	4.22
614.032	4.37
614.366	4.62
614.7	4.35
615.035	4.57
615.369	4.54
615.703	4.49
616.037	4.69
616.371	4.65
616.705	4.42
617.039	4.59
617.373	4.74
617.707	4.37
618.041	4.43
618.375	4.89
618.709	4.43
619.042	4.27
619.376	4.37
619.71	4.55
620.043	4.34
620.377	4.53
620.71	4.76
621.043	4.38
621.377	4.07
621.71	4.6
622.043	4.12
622.376	4.29
622.709	4.64
623.043	4.7
623.376	4.46
623.709	4.4
624.041	4.26
624.374	4.33
624.707	4.48
625.04	4.98
625.373	4.35
625.705	4.43
626.038	4.4
626.37	4.35
626.703	4.64
627.035	4.3
627.368	4.63
627.7	4.21
628.032	4.45
628.365	4.53
628.697	4.3
629.029	4.52
629.361	4.36
629.693	4.36
630.025	4.31
630.357	4.05
630.689	4.11
631.021	4.47
631.353	4.25
631.684	4.5
632.016	4.54
632.348	4.48
632.679	4.97
633.011	4.27
633.342	4.26
633.674	4.92
634.005	4.56
634.336	4.61
634.668	4.33
634.999	4.55
635.33	4.29
635.661	4.34
635.992	4.75
636.323	4.65
636.654	4.68
636.985	4.05
637.316	4.25
637.647	4.76
637.977	4.39
638.308	4.48
638.639	4.3
638.969	4.33
639.3	4.44
639.63	4.2
639.961	4.58
640.291	4.52
640.622	4.06
640.952	4.62
641.282	4.54
641.612	4.51
641.943	4.38
642.273	4.45
642.603	4.76
642.933	4.38
643.263	4.8
643.592	4.55
643.922	4.91
644.252	3.82
644.582	4.22
644.911	4.77
645.241	4.66
645.571	4.39
645.9	4.42
646.23	4.32
646.559	4.33
646.888	4.17
647.218	4.49
647.547	4.18
647.876	4.76
648.205	3.83
648.534	4.65
648.863	4.44
649.192	4.45
649.521	4.27
649.85	4.48
650.179	5.09
650.508	4.56
650.837	4.22
651.165	5.07
651.494	4.7
651.822	4.88
652.151	4.73
652.479	4.78
652.808	4.52
653.136	4.31
653.465	4.82
653.793	4.54
654.121	5.01
654.449	4.56
654.777	4.68
655.105	4
655.433	4.61
655.761	5
656.089	4.16
656.417	4.77
656.745	4.41
657.073	4.73
657.4	4.8
657.728	4.55
658.056	4.6
658.383	4.74
658.711	4.75
659.038	5.06
659.365	4.62
659.693	4.53
660.02	4.5
660.347	4.44
660.674	4.23
661.001	4.39
661.329	4.5
661.656	4.72
661.982	4.54
662.309	4.74
662.636	4.32
662.963	5.13
663.29	4.79
663.616	3.71
663.943	4.26
664.27	4.9
664.596	4.7
664.923	4.55
665.249	4.68
665.576	4.81
665.902	4.64
666.228	4.82
666.554	5.07
666.881	4.28
667.207	4.79
667.533	4.33
667.859	5.02
668.185	4.82
668.511	4.36
668.837	5.19
669.162	4.85
669.488	4.54
669.814	4.79
670.139	4.37
670.465	4.63
670.791	4.73
671.116	5.04
671.442	5.14
671.767	4.57
672.092	4.28
672.418	5.07
672.743	4.3
673.068	4.66
673.393	4.64
673.718	4.82
674.043	5.19
674.368	4.77
674.693	4.6
675.018	5.06
675.343	4.4
675.667	4.57
675.992	5.52
676.317	4.21
676.641	4.59
676.966	5.31
677.29	3.99
677.615	4.97
677.939	4.39
678.264	4.75
678.588	5.14
678.912	3.74
679.236	4.58
679.56	5
679.885	4.67
680.209	5
680.532	4.74
680.856	5.1
681.18	4.28
681.504	4.67
681.828	4.36
682.152	4.16
682.475	4.77
682.799	5.06
683.122	4.13
683.446	4.22
683.769	4.76
684.093	4.93
684.416	4.65
684.739	5.08
685.062	5.09
685.386	5.39
685.709	4.76
686.032	4.96
686.355	4.5
686.678	5.25
687.001	5.4
687.324	4.1
687.646	4.43
687.969	4.69
688.292	5.45
688.614	5.58
688.937	4.69
689.26	4.55
689.582	4.72
689.904	4.76
690.227	4.86
690.549	5.11
690.871	4.51
691.194	4.44
691.516	4.68
691.838	4.85
692.16	4.95
692.482	5.23
692.804	4.74
693.126	4.8
693.448	5.14
693.769	4.53
