Data from 0360_forehead_Reflection__2__43.txt Node

Date: Mon Dec 11 18:02:18 CST 2023
User: ToomeyLab
Spectrometer: FLMS14357
Trigger mode: 0
Integration Time (sec): 1.000000E-2
Scans to average: 100
Electric dark correction enabled: true
Nonlinearity correction enabled: false
Boxcar width: 0
XAxis mode: Wavelengths
Number of Pixels in Spectrum: 2048
>>>>>Begin Spectral Data<<<<<
189.047	-25.54
189.435	-25.54
189.823	-25.54
190.211	-520.43
190.599	31.02
190.987	-28.14
191.375	184.1
191.763	232.33
192.151	-57.06
192.538	16.75
192.926	199.92
193.314	-79.34
193.702	187.69
194.089	27.12
194.477	114.1
194.864	174.35
195.252	109.61
195.639	-165.99
196.027	82.56
196.414	-348.31
196.801	75.87
197.189	-75.47
197.576	258.08
197.963	49.36
198.351	47.16
198.738	44.03
199.125	21.77
199.512	44.22
199.899	31.4
200.286	15.85
200.673	-21.8
201.06	81.51
201.447	31.08
201.833	30.14
202.22	27.28
202.607	1.21
202.994	41.71
203.38	-7.86
203.767	47.21
204.154	41.54
204.54	6.33
204.927	42.12
205.313	10.6
205.699	9.94
206.086	49.76
206.472	26.35
206.858	22.03
207.245	6.33
207.631	36.03
208.017	48.51
208.403	41.42
208.789	26.76
209.175	19.07
209.561	23.47
209.947	40.01
210.333	25.35
210.719	28.86
211.105	48.24
211.491	39.01
211.876	23.54
212.262	10.77
212.648	18.68
213.034	14.34
213.419	0.92
213.805	6.29
214.19	29.9
214.576	33.44
214.961	24.29
215.346	5.76
215.732	25.32
216.117	8
216.502	41.25
216.888	35.35
217.273	23.63
217.658	19.74
218.043	-14.75
218.428	23.5
218.813	37.44
219.198	1.3
219.583	18.55
219.968	19.38
220.353	-2.11
220.738	24.19
221.122	11.4
221.507	21.61
221.892	26.35
222.276	24.61
222.661	15.11
223.046	10.79
223.43	11.96
223.815	5.24
224.199	20.06
224.583	10.28
224.968	13.42
225.352	11.08
225.736	12.29
226.121	11.44
226.505	3.72
226.889	6.08
227.273	7.62
227.657	11.85
228.041	7.4
228.425	9.21
228.809	4.92
229.193	7.12
229.577	8.42
229.961	5.52
230.344	5.42
230.728	4.89
231.112	4.75
231.495	6
231.879	5.31
232.263	5.34
232.646	5.7
233.03	5.4
233.413	6.85
233.797	7.49
234.18	6.49
234.563	6.46
234.946	5.99
235.33	5.78
235.713	5.25
236.096	5.52
236.479	6.05
236.862	4.33
237.245	5.39
237.628	6.78
238.011	5.89
238.394	4.79
238.777	4.91
239.16	5.52
239.543	8.43
239.925	4.25
240.308	4.22
240.691	6.47
241.073	5.61
241.456	5.84
241.838	8.28
242.221	5.7
242.603	4.15
242.986	5.18
243.368	5.18
243.75	4.68
244.133	5.14
244.515	4.92
244.897	4.97
245.279	5.24
245.661	4.66
246.043	4.1
246.425	5.55
246.807	6.29
247.189	6.06
247.571	4.64
247.953	5.43
248.335	5.27
248.717	5.02
249.098	4.8
249.48	4.67
249.862	5.12
250.243	5.45
250.625	5.31
251.006	4.93
251.388	5.7
251.769	5.29
252.151	6.53
252.532	5.59
252.913	5.45
253.295	5.46
253.676	5.75
254.057	5.06
254.438	5.66
254.819	4.37
255.2	5.53
255.581	4.76
255.962	5.76
256.343	5.43
256.724	6.06
257.105	4.99
257.486	5
257.867	6.17
258.247	5.03
258.628	5.02
259.009	5.88
259.389	5.44
259.77	4.73
260.15	4.81
260.531	5.08
260.911	4.16
261.292	4.35
261.672	4.69
262.052	4.74
262.432	4.86
262.813	5
263.193	4.94
263.573	5.26
263.953	5.11
264.333	4.36
264.713	5.86
265.093	4.94
265.473	5.21
265.853	5.6
266.233	5.31
266.612	5.35
266.992	5.47
267.372	5.7
267.752	6.24
268.131	5.7
268.511	4.53
268.89	5.23
269.27	5.44
269.649	5.27
270.029	5.66
270.408	4.98
270.787	4.59
271.167	4.07
271.546	5.2
271.925	4.91
272.304	4.87
272.683	5.15
273.062	4.49
273.441	4.79
273.82	4.58
274.199	4.5
274.578	4.78
274.957	5.07
275.336	4.66
275.715	4.7
276.093	5.41
276.472	5.3
276.851	4.79
277.229	5.46
277.608	5.33
277.986	5.19
278.365	5
278.743	4.94
279.122	5.03
279.5	5.4
279.878	4.6
280.257	4.65
280.635	5.12
281.013	4.27
281.391	4.88
281.769	4.75
282.147	4.78
282.525	4.21
282.903	5.5
283.281	4.41
283.659	4.4
284.037	4.41
284.415	4.75
284.792	5.15
285.17	4.46
285.548	4.15
285.925	4.67
286.303	4.29
286.68	4.93
287.058	5.04
287.435	5
287.813	5.17
288.19	4.64
288.567	4.86
288.945	4.86
289.322	4.63
289.699	4.91
290.076	4.33
290.453	5.34
290.83	5.33
291.207	4.98
291.584	5.15
291.961	5.05
292.338	5.18
292.715	5.05
293.092	5.13
293.469	5.22
293.845	5.19
294.222	5.18
294.599	5
294.975	4.84
295.352	4.86
295.728	5.31
296.105	5.41
296.481	5.74
296.858	4.98
297.234	5.8
297.61	5.66
297.986	5.64
298.363	5.3
298.739	5.5
299.115	5.13
299.491	5.69
299.867	5.41
300.243	5.55
300.619	5.88
300.995	5.38
301.371	5.6
301.746	5.57
302.122	5.57
302.498	6.15
302.874	6.06
303.249	6.03
303.625	5.75
304	6.46
304.376	6.29
304.751	5.98
305.127	6.25
305.502	6.23
305.878	6.13
306.253	6.25
306.628	6.26
307.003	6.36
307.378	5.87
307.754	6.45
308.129	6.56
308.504	5.97
308.879	6.25
309.254	6.8
309.629	7.05
310.003	6.87
310.378	6.31
310.753	6.78
311.128	6.69
311.502	6.29
311.877	6.37
312.252	6.92
312.626	7
313.001	7.12
313.375	6.42
313.75	6.97
314.124	6.91
314.498	6.92
314.873	7.29
315.247	7.27
315.621	7.58
315.995	7.94
316.369	7.51
316.743	7.5
317.117	7.22
317.491	7.63
317.865	7.56
318.239	7.75
318.613	8.03
318.987	7.95
319.361	8.3
319.734	8.25
320.108	8.37
320.482	8.06
320.855	7.7
321.229	7.79
321.602	8.33
321.976	8.45
322.349	8.11
322.723	7.58
323.096	8.42
323.469	8.79
323.843	8.63
324.216	8.83
324.589	9.17
324.962	8.53
325.335	8.57
325.708	8.44
326.081	8.97
326.454	8.73
326.827	8.83
327.2	8.73
327.573	8.99
327.945	9.26
328.318	8.54
328.691	8.57
329.063	8.57
329.436	8.91
329.809	8.98
330.181	9.86
330.553	9.09
330.926	9.15
331.298	9.13
331.671	9.13
332.043	9.81
332.415	9.71
332.787	9.21
333.159	9.79
333.532	9.37
333.904	9.96
334.276	9.47
334.648	9.17
335.02	9.46
335.391	9.33
335.763	9.46
336.135	10.03
336.507	9.7
336.879	9.84
337.25	10.11
337.622	9.19
337.993	9.4
338.365	9.35
338.736	10.39
339.108	10.4
339.479	10.01
339.851	9.68
340.222	10.36
340.593	9.7
340.964	10.41
341.336	10.47
341.707	10.03
342.078	10.52
342.449	10.27
342.82	10.03
343.191	10.36
343.562	10.16
343.933	10.58
344.303	10.01
344.674	10.47
345.045	11.05
345.416	10.7
345.786	10.49
346.157	10.27
346.527	10.8
346.898	10.79
347.268	10.74
347.639	10.93
348.009	11.42
348.38	10.45
348.75	10.62
349.12	11.46
349.49	10.65
349.861	11.05
350.231	10.6
350.601	11.2
350.971	11.65
351.341	10.56
351.711	11
352.081	10.71
352.45	10.99
352.82	11.19
353.19	10.71
353.56	10.8
353.929	11.61
354.299	11.59
354.669	11.5
355.038	11.34
355.408	11.19
355.777	11.96
356.147	11.58
356.516	11.85
356.885	11.61
357.254	11.82
357.624	11.93
357.993	11.54
358.362	11.91
358.731	11.92
359.1	12.16
359.469	11.93
359.838	12.07
360.207	12.3
360.576	12.07
360.945	12.15
361.314	12.44
361.682	12.02
362.051	12.18
362.42	12.25
362.788	11.86
363.157	12.3
363.525	11.82
363.894	12.33
364.262	12.34
364.631	12.4
364.999	12.8
365.367	12.83
365.735	12.8
366.104	12.5
366.472	12.92
366.84	12.68
367.208	12.65
367.576	12.95
367.944	12.78
368.312	13.03
368.68	13.18
369.048	13.03
369.416	12.7
369.783	13.22
370.151	13.59
370.519	13.66
370.886	13.12
371.254	14.14
371.621	13.31
371.989	13.62
372.356	13.38
372.724	13.75
373.091	13.39
373.458	13.36
373.826	13.6
374.193	13.71
374.56	13.78
374.927	13.85
375.294	13.7
375.661	13.93
376.028	14.14
376.395	13.96
376.762	13.75
377.129	14.28
377.496	13.82
377.863	14.19
378.229	14.26
378.596	14.17
378.963	14.57
379.329	14.25
379.696	14.34
380.062	13.96
380.429	14.23
380.795	14.58
381.161	14.51
381.528	14.5
381.894	14.61
382.26	14.74
382.626	14.53
382.993	14.82
383.359	14.96
383.725	14.81
384.091	14.92
384.457	14.56
384.823	15.05
385.188	15.03
385.554	14.78
385.92	15.1
386.286	15.38
386.651	14.95
387.017	15.34
387.383	15.06
387.748	15.28
388.114	15.23
388.479	15.28
388.845	15.37
389.21	15.4
389.575	15.78
389.94	15.68
390.306	15.68
390.671	15.81
391.036	15.64
391.401	15.81
391.766	15.65
392.131	15.85
392.496	15.83
392.861	16.11
393.226	16.24
393.591	16.06
393.956	15.84
394.32	16.17
394.685	15.94
395.05	16.25
395.414	16.4
395.779	16.22
396.143	16.12
396.508	16.41
396.872	16.21
397.236	16.39
397.601	16.5
397.965	16.43
398.329	16.32
398.694	16.53
399.058	16.43
399.422	16.33
399.786	16.61
400.15	16.5
400.514	16.93
400.878	16.83
401.242	16.82
401.605	16.75
401.969	16.59
402.333	16.95
402.697	17.07
403.06	17.01
403.424	17.11
403.787	17.49
404.151	17.04
404.514	16.99
404.878	17.12
405.241	17.04
405.604	17.49
405.968	17.27
406.331	17.09
406.694	17.25
407.057	17.55
407.42	17.57
407.783	17.5
408.146	17.97
408.509	17.53
408.872	17.41
409.235	17.88
409.598	17.69
409.961	17.95
410.323	17.57
410.686	17.62
411.049	18.2
411.411	18.11
411.774	18.12
412.136	18.17
412.499	18.07
412.861	17.89
413.223	17.89
413.586	18.25
413.948	18.05
414.31	18.18
414.672	18.01
415.035	18.5
415.397	18.39
415.759	18.55
416.121	18.4
416.483	18.47
416.845	18.71
417.206	18.65
417.568	18.86
417.93	18.71
418.292	18.57
418.653	18.53
419.015	18.66
419.377	18.7
419.738	18.63
420.1	18.69
420.461	18.69
420.822	18.58
421.184	18.85
421.545	18.74
421.906	18.72
422.267	18.94
422.629	18.64
422.99	18.78
423.351	18.87
423.712	18.85
424.073	19.02
424.434	18.96
424.795	19.05
425.155	19.19
425.516	19.01
425.877	18.95
426.238	19.31
426.598	19.21
426.959	19.3
427.32	19.4
427.68	19.52
428.041	19.55
428.401	19.61
428.761	19.66
429.122	19.74
429.482	19.75
429.842	19.98
430.202	20
430.563	20.28
430.923	20.28
431.283	20.47
431.643	20.41
432.003	20.58
432.363	20.47
432.722	20.39
433.082	20.62
433.442	20.57
433.802	20.71
434.161	20.67
434.521	20.6
434.881	20.92
435.24	20.65
435.6	20.76
435.959	20.76
436.319	20.76
436.678	20.85
437.037	20.99
437.396	21.12
437.756	21.26
438.115	21.27
438.474	21.18
438.833	21.37
439.192	21.1
439.551	21.36
439.91	21.5
440.269	21.4
440.628	21.38
440.987	21.69
441.345	21.46
441.704	21.61
442.063	21.41
442.421	21.47
442.78	21.42
443.138	21.66
443.497	21.46
443.855	21.69
444.214	21.87
444.572	21.91
444.93	22.11
445.288	22.17
445.647	22.4
446.005	21.96
446.363	21.99
446.721	22.18
447.079	22.14
447.437	22.13
447.795	22.13
448.153	22.04
448.51	21.95
448.868	22.01
449.226	22.01
449.584	22.24
449.941	22.53
450.299	22.5
450.656	22.42
451.014	22.74
451.371	22.68
451.729	22.93
452.086	22.92
452.443	23.01
452.801	23.11
453.158	23.31
453.515	23.23
453.872	23.33
454.229	23.33
454.586	23.34
454.943	23.24
455.3	23.25
455.657	23.42
456.014	23.61
456.371	23.71
456.727	23.8
457.084	23.91
457.441	23.76
457.797	23.85
458.154	23.98
458.51	23.82
458.867	23.74
459.223	24.22
459.58	24.05
459.936	23.94
460.292	24.25
460.648	23.96
461.005	24.16
461.361	24
461.717	23.88
462.073	23.96
462.429	24.04
462.785	24.04
463.141	24.1
463.496	24.37
463.852	24.3
464.208	24.47
464.564	24.75
464.919	24.74
465.275	24.82
465.631	24.84
465.986	25.02
466.342	25.03
466.697	24.97
467.052	25.07
467.408	25.43
467.763	25.46
468.118	25.12
468.473	25.2
468.829	25.41
469.184	25.47
469.539	25.58
469.894	25.44
470.249	25.34
470.603	25.55
470.958	25.83
471.313	25.88
471.668	25.97
472.023	26.14
472.377	25.83
472.732	25.79
473.086	25.98
473.441	25.85
473.795	26.15
474.15	26.16
474.504	26.3
474.859	26.09
475.213	26.19
475.567	26.32
475.921	26.23
476.275	26.46
476.63	26.45
476.984	26.62
477.338	26.51
477.692	26.71
478.045	26.71
478.399	26.38
478.753	26.61
479.107	26.72
479.461	26.71
479.814	26.83
480.168	26.63
480.521	26.88
480.875	26.82
481.228	26.83
481.582	27.07
481.935	27.21
482.289	27.03
482.642	27.03
482.995	26.93
483.348	26.99
483.701	27.02
484.055	27.01
484.408	26.87
484.761	26.68
485.114	26.59
485.466	26.28
485.819	26.34
486.172	26.38
486.525	26.35
486.878	26.43
487.23	26.63
487.583	26.81
487.936	26.98
488.288	27.15
488.641	27.05
488.993	26.91
489.345	26.99
489.698	26.91
490.05	26.9
490.402	26.92
490.754	27.1
491.107	27.4
491.459	27.46
491.811	27.69
492.163	28
492.515	27.87
492.866	27.78
493.218	27.56
493.57	27.65
493.922	27.59
494.274	27.61
494.625	27.82
494.977	28.09
495.328	28.4
495.68	28.61
496.031	28.69
496.383	28.73
496.734	28.94
497.086	28.96
497.437	29.03
497.788	29.21
498.139	29.02
498.49	29.07
498.842	29.27
499.193	29.12
499.544	29.07
499.894	29.24
500.245	29.29
500.596	29.4
500.947	29.59
501.298	29.56
501.648	29.48
501.999	29.59
502.35	29.83
502.7	29.99
503.051	29.93
503.401	30.07
503.752	30.06
504.102	30.16
504.452	30.25
504.803	30.39
505.153	30.19
505.503	30.39
505.853	30.3
506.203	30.3
506.553	30.36
506.903	30.29
507.253	30.59
507.603	30.47
507.953	30.68
508.303	30.66
508.652	30.57
509.002	30.66
509.352	30.83
509.701	30.78
510.051	30.72
510.4	30.82
510.75	30.66
511.099	30.7
511.449	30.75
511.798	30.79
512.147	30.83
512.496	30.88
512.846	31.06
513.195	31.12
513.544	31.14
513.893	30.98
514.242	31.24
514.591	31
514.939	31.2
515.288	31.42
515.637	31.26
515.986	31.46
516.334	31.65
516.683	31.7
517.032	31.68
517.38	31.87
517.729	31.77
518.077	31.94
518.426	31.88
518.774	32.02
519.122	31.89
519.47	31.78
519.819	31.74
520.167	31.7
520.515	31.7
520.863	31.68
521.211	31.75
521.559	31.68
521.907	31.97
522.255	31.77
522.602	32.03
522.95	32.55
523.298	32.45
523.645	32.76
523.993	32.61
524.341	32.54
524.688	32.63
525.036	32.65
525.383	32.85
525.73	32.64
526.078	32.92
526.425	32.86
526.772	32.78
527.119	32.54
527.466	32.5
527.814	32.64
528.161	32.48
528.508	32.44
528.854	32.75
529.201	32.46
529.548	32.5
529.895	32.44
530.242	32.12
530.588	32.17
530.935	32.21
531.282	32.25
531.628	32.22
531.975	32.31
532.321	32.62
532.667	32.99
533.014	32.99
533.36	33.01
533.706	33.23
534.052	33.25
534.399	33.34
534.745	33.24
535.091	33.07
535.437	33.05
535.783	33.19
536.129	33.13
536.474	33.37
536.82	33.46
537.166	33.74
537.512	33.89
537.857	33.97
538.203	33.68
538.549	33.91
538.894	33.75
539.239	33.9
539.585	34
539.93	34.17
540.276	34.33
540.621	34.44
540.966	34.45
541.311	34.54
541.656	34.42
542.001	34.9
542.346	34.62
542.691	34.25
543.036	34.14
543.381	33.97
543.726	34.04
544.071	33.99
544.415	34.04
544.76	34.25
545.105	34.38
545.449	34.53
545.794	34.61
546.138	34.68
546.483	34.91
546.827	35.13
547.171	35.05
547.516	35.28
547.86	35.43
548.204	35.41
548.548	35.24
548.892	35.32
549.236	35.43
549.58	35.56
549.924	35.66
550.268	35.77
550.612	35.86
550.956	35.9
551.3	36.04
551.643	36.25
551.987	36.48
552.33	36.59
552.674	36.25
553.017	36.45
553.361	36.51
553.704	36.36
554.048	36.56
554.391	36.34
554.734	36.57
555.077	36.6
555.42	36.82
555.764	36.54
556.107	36.67
556.45	36.7
556.793	37.14
557.135	36.89
557.478	37.07
557.821	36.82
558.164	37.19
558.507	37.1
558.849	37.21
559.192	37.21
559.534	37.37
559.877	37.37
560.219	37.58
560.562	37.55
560.904	37.37
561.246	37.64
561.589	37.63
561.931	37.87
562.273	37.3
562.615	37.53
562.957	37.91
563.299	37.72
563.641	37.56
563.983	37.88
564.325	37.94
564.667	38.03
565.008	38.04
565.35	38.25
565.692	38.06
566.033	38.24
566.375	38.27
566.716	38.28
567.058	38.09
567.399	38.33
567.741	38.08
568.082	38.45
568.423	38.08
568.764	38.24
569.105	38.32
569.447	38.21
569.788	38.32
570.129	38.33
570.47	38.41
570.811	38.56
571.151	38.65
571.492	39.06
571.833	38.91
572.174	38.6
572.514	38.79
572.855	38.88
573.195	38.96
573.536	38.75
573.876	39.02
574.217	38.85
574.557	38.73
574.898	39.04
575.238	39.19
575.578	38.87
575.918	39.08
576.258	39.2
576.598	39.27
576.938	39.34
577.278	39.37
577.618	39.24
577.958	39.23
578.298	39.23
578.638	39.46
578.977	39.47
579.317	39.31
579.657	39.65
579.996	39.45
580.336	40.09
580.675	40.03
581.014	40.2
581.354	39.56
581.693	40.31
582.032	39.88
582.372	40.49
582.711	40.06
583.05	40.49
583.389	40.31
583.728	40.46
584.067	40.45
584.406	40.39
584.745	40.41
585.083	40.63
585.422	41.06
585.761	40.26
586.1	40.45
586.438	40.67
586.777	41.08
587.115	40.72
587.454	40.94
587.792	41.02
588.13	40.82
588.469	41.24
588.807	41.43
589.145	41.18
589.483	41.01
589.821	41.23
590.159	41.02
590.497	41.05
590.835	41.05
591.173	41.1
591.511	41.46
591.849	41.37
592.187	41.01
592.524	41.58
592.862	41.38
593.2	41.4
593.537	41.38
593.875	41.3
594.212	41.43
594.55	41.43
594.887	41.88
595.224	41.86
595.561	41.81
595.899	41.88
596.236	42.01
596.573	41.61
596.91	41.73
597.247	41.82
597.584	41.73
597.921	41.85
598.258	41.63
598.594	41.8
598.931	41.88
599.268	41.69
599.604	41.63
599.941	41.7
600.277	41.66
600.614	42.22
600.95	42.03
601.287	42.45
601.623	42.57
601.959	42.42
602.296	42.12
602.632	42.01
602.968	42.56
603.304	42.48
603.64	42.79
603.976	42.45
604.312	42.33
604.648	42.22
604.984	42.65
605.319	42.86
605.655	42.49
605.991	42.67
606.326	42.43
606.662	42.6
606.998	42.37
607.333	42.67
607.668	42.58
608.004	42.48
608.339	42.75
608.674	43.08
609.01	43.25
609.345	43.18
609.68	43.12
610.015	43.19
610.35	42.94
610.685	42.94
611.02	43.03
611.355	43.37
611.689	43.2
612.024	43.25
612.359	43.21
612.694	43.2
613.028	43.53
613.363	43.23
613.697	43.61
614.032	43.67
614.366	43.6
614.7	43.54
615.035	43.89
615.369	43.99
615.703	43.57
616.037	43.95
616.371	44.09
616.705	43.79
617.039	44.62
617.373	43.92
617.707	44.12
618.041	44.09
618.375	44.56
618.709	44.06
619.042	44.59
619.376	44.43
619.71	44.08
620.043	44.12
620.377	44.46
620.71	44.66
621.043	44.55
621.377	44.14
621.71	44.61
622.043	44.59
622.376	44.61
622.709	44.61
623.043	44.92
623.376	44.51
623.709	45.03
624.041	44.69
624.374	44.57
624.707	44.93
625.04	44.9
625.373	44.97
625.705	44.79
626.038	45.09
626.37	44.75
626.703	45.3
627.035	45.3
627.368	45.09
627.7	45.01
628.032	45.16
628.365	45.06
628.697	45.57
629.029	45.42
629.361	45.16
629.693	45.02
630.025	45.57
630.357	44.96
630.689	45
631.021	45.3
631.353	45.35
631.684	45.75
632.016	45.61
632.348	45.41
632.679	45.79
633.011	45.54
633.342	45.9
633.674	46.48
634.005	46.4
634.336	46.05
634.668	46.43
634.999	46.22
635.33	45.56
635.661	46.19
635.992	45.89
636.323	46.29
636.654	46.46
636.985	46.43
637.316	45.93
637.647	46.33
637.977	46.4
638.308	46.35
638.639	46.17
638.969	46.1
639.3	46.52
639.63	46.21
639.961	46.53
640.291	46.53
640.622	46.65
640.952	46.63
641.282	46.62
641.612	46.4
641.943	46.68
642.273	46.16
642.603	46.66
642.933	46.62
643.263	46.91
643.592	46.87
643.922	46.92
644.252	46.56
644.582	47.26
644.911	47.09
645.241	46.97
645.571	47.41
645.9	46.94
646.23	47.03
646.559	46.47
646.888	47.01
647.218	47.19
647.547	47.46
647.876	47.32
648.205	47.34
648.534	47.03
648.863	46.94
649.192	47.7
649.521	47.56
649.85	46.9
650.179	47.52
650.508	47.27
650.837	46.9
651.165	47.95
651.494	47.9
651.822	47.73
652.151	47.76
652.479	47.01
652.808	47.73
653.136	47.42
653.465	47.83
653.793	47.53
654.121	47.83
654.449	47.58
654.777	47.8
655.105	47.78
655.433	48.1
655.761	47.9
656.089	47.88
656.417	47.98
656.745	48.51
657.073	47.57
657.4	48.04
657.728	48.61
658.056	48.51
658.383	47.77
658.711	47.86
659.038	47.89
659.365	48.6
659.693	48.68
660.02	48.26
660.347	48.23
660.674	48.5
661.001	48.34
661.329	48.56
661.656	48.52
661.982	48.49
662.309	48.5
662.636	48.93
662.963	48.57
663.29	48.22
663.616	48.19
663.943	48.59
664.27	48.49
664.596	48.79
664.923	48.98
665.249	48.74
665.576	48.38
665.902	48.93
666.228	48.78
666.554	48.67
666.881	48.63
667.207	49.43
667.533	49.78
667.859	49.36
668.185	49.64
668.511	49.98
668.837	49.41
669.162	49.17
669.488	49.87
669.814	49.1
670.139	49.24
670.465	49.29
670.791	49.45
