Data from 0360_chest_Reflection__1__32.txt Node

Date: Mon Dec 11 17:57:09 CST 2023
User: ToomeyLab
Spectrometer: FLMS14357
Trigger mode: 0
Integration Time (sec): 1.000000E-2
Scans to average: 100
Electric dark correction enabled: true
Nonlinearity correction enabled: false
Boxcar width: 0
XAxis mode: Wavelengths
Number of Pixels in Spectrum: 2048
>>>>>Begin Spectral Data<<<<<
189.047	57.57
189.435	57.57
189.823	57.57
190.211	136.23
190.599	23.21
190.987	26.1
191.375	-4.68
191.763	304.74
192.151	73.83
192.538	107.63
192.926	433.57
193.314	-33.01
193.702	194.8
194.089	-399.87
194.477	59.34
194.864	77.52
195.252	45.94
195.639	-123.23
196.027	-6.08
196.414	-70.15
196.801	224.2
197.189	29.69
197.576	308.71
197.963	56.18
198.351	1.46
198.738	-3.22
199.125	-64.6
199.512	1.59
199.899	7.25
200.286	-1.87
200.673	-163.93
201.06	15.04
201.447	26.88
201.833	-4.5
202.22	21.82
202.607	20.8
202.994	-43.74
203.38	-47.4
203.767	29.13
204.154	27.92
204.54	-19.67
204.927	-19.83
205.313	-3.9
205.699	-54.04
206.086	-16.58
206.472	37.59
206.858	19.23
207.245	21.88
207.631	-4.46
208.017	23.41
208.403	28.67
208.789	1.94
209.175	30.68
209.561	1.21
209.947	8.71
210.333	26.45
210.719	28.01
211.105	31.21
211.491	16.57
211.876	10.07
212.262	16.67
212.648	32.9
213.034	-16.65
213.419	26.93
213.805	-12.13
214.19	16.07
214.576	-26.36
214.961	-0.14
215.346	-5.67
215.732	7.47
216.117	21.11
216.502	12.29
216.888	5.93
217.273	19.33
217.658	6.26
218.043	-10.24
218.428	2.5
218.813	19.69
219.198	12.99
219.583	16.06
219.968	-10.07
220.353	-11.08
220.738	17.99
221.122	17.14
221.507	24.8
221.892	19.17
222.276	8.69
222.661	2.55
223.046	0.59
223.43	23.13
223.815	-7.93
224.199	5.95
224.583	2.08
224.968	14.1
225.352	6.48
225.736	13.91
226.121	1.8
226.505	1.48
226.889	8.78
227.273	2.77
227.657	13.38
228.041	3.71
228.425	0.7
228.809	1.47
229.193	3.27
229.577	4.71
229.961	3.25
230.344	4.19
230.728	3.08
231.112	3.81
231.495	3.87
231.879	4.36
232.263	2.68
232.646	3.49
233.03	3.84
233.413	4.01
233.797	5.01
234.18	5.12
234.563	3.44
234.946	5.42
235.33	4.71
235.713	4.67
236.096	5.26
236.479	6.23
236.862	3.75
237.245	3.19
237.628	3.72
238.011	4.1
238.394	4.51
238.777	3.69
239.16	4.13
239.543	4.37
239.925	3.4
240.308	4.96
240.691	3.66
241.073	4.01
241.456	5.16
241.838	6.09
242.221	4
242.603	2.7
242.986	3.93
243.368	3.87
243.75	3.39
244.133	4.36
244.515	3.77
244.897	3.76
245.279	3.84
245.661	3.35
246.043	3.15
246.425	4.98
246.807	5.38
247.189	4.38
247.571	3.89
247.953	3.98
248.335	4.18
248.717	3.76
249.098	3.72
249.48	3.8
249.862	3.87
250.243	3.66
250.625	3.65
251.006	3.56
251.388	3.91
251.769	4.26
252.151	4.91
252.532	3.21
252.913	4.3
253.295	4
253.676	4.04
254.057	4.1
254.438	4.04
254.819	3.53
255.2	2.38
255.581	3
255.962	3.26
256.343	3.41
256.724	3.89
257.105	4.14
257.486	3.05
257.867	3.87
258.247	3.55
258.628	4.18
259.009	4.08
259.389	4.76
259.77	3.6
260.15	3.73
260.531	3.44
260.911	3.23
261.292	3.45
261.672	3.35
262.052	3.51
262.432	3.56
262.813	3.5
263.193	3.21
263.573	3.8
263.953	3.55
264.333	2.8
264.713	4.32
265.093	3.58
265.473	3.78
265.853	3.67
266.233	3.41
266.612	3.16
266.992	3.66
267.372	4.17
267.752	3.59
268.131	4.4
268.511	2.77
268.89	3.5
269.27	3.94
269.649	3.71
270.029	3.91
270.408	3.23
270.787	2.93
271.167	3.28
271.546	3.19
271.925	3.74
272.304	3.37
272.683	3.24
273.062	3.26
273.441	3.38
273.82	3.29
274.199	3.44
274.578	3.45
274.957	3.62
275.336	3.49
275.715	3.45
276.093	4.03
276.472	3.63
276.851	3.79
277.229	3.54
277.608	3.48
277.986	3.62
278.365	3.51
278.743	3.5
279.122	3.4
279.5	4.12
279.878	3.77
280.257	3.18
280.635	4
281.013	3.54
281.391	3.79
281.769	2.91
282.147	3.43
282.525	2.85
282.903	4
283.281	3.74
283.659	3.19
284.037	3.17
284.415	3.28
284.792	3.53
285.17	3.43
285.548	3.38
285.925	2.9
286.303	3.29
286.68	3.4
287.058	3.13
287.435	3.58
287.813	3.52
288.19	3.13
288.567	3.05
288.945	3.34
289.322	2.98
289.699	3.1
290.076	3.46
290.453	3.63
290.83	3.77
291.207	3.21
291.584	3.49
291.961	3.59
292.338	3.34
292.715	3.72
293.092	3.32
293.469	3.34
293.845	3.41
294.222	3.75
294.599	3.77
294.975	3.2
295.352	2.99
295.728	3.25
296.105	3.41
296.481	3.17
296.858	3.22
297.234	3.66
297.61	3.49
297.986	3.56
298.363	3.19
298.739	3.49
299.115	2.94
299.491	3.37
299.867	3.21
300.243	3.28
300.619	3.13
300.995	3.26
301.371	3.22
301.746	3
302.122	3.08
302.498	3.75
302.874	3.82
303.249	3.21
303.625	3.31
304	3.58
304.376	3.14
304.751	3.08
305.127	3.56
305.502	3.44
305.878	3.42
306.253	3.49
306.628	3.54
307.003	3.5
307.378	2.93
307.754	3.44
308.129	3.08
308.504	3.34
308.879	2.98
309.254	3.72
309.629	3.81
310.003	3.66
310.378	3.42
310.753	3.37
311.128	3.54
311.502	3.18
311.877	3.37
312.252	4.01
312.626	3.3
313.001	3.69
313.375	3.04
313.75	3.03
314.124	3.39
314.498	3.08
314.873	3.12
315.247	3.38
315.621	4.01
315.995	3.4
316.369	3.56
316.743	3.62
317.117	3.41
317.491	3.85
317.865	3.33
318.239	3.3
318.613	3.41
318.987	4.02
319.361	3.51
319.734	2.9
320.108	3.61
320.482	3.72
320.855	3.25
321.229	3.16
321.602	3.36
321.976	3.31
322.349	3.56
322.723	2.71
323.096	3.57
323.469	3.55
323.843	4.06
324.216	3.65
324.589	3.32
324.962	3.07
325.335	3.16
325.708	3.64
326.081	3.73
326.454	3.73
326.827	3.29
327.2	2.96
327.573	3.05
327.945	3.47
328.318	3.13
328.691	3.55
329.063	3.58
329.436	2.94
329.809	3.11
330.181	4.01
330.553	3.59
330.926	3.33
331.298	4.2
331.671	3.51
332.043	3.63
332.415	3.21
332.787	3.39
333.159	3.48
333.532	3.28
333.904	3.61
334.276	3.49
334.648	4.07
335.02	3.34
335.391	3.22
335.763	3.86
336.135	3.49
336.507	3.93
336.879	3.82
337.25	3.34
337.622	3.31
337.993	3.49
338.365	3.4
338.736	3.51
339.108	3.97
339.479	3.07
339.851	3.45
340.222	3.48
340.593	3.12
340.964	3.44
341.336	3.71
341.707	3.36
342.078	3.65
342.449	3.61
342.82	3.37
343.191	3.1
343.562	3.49
343.933	3.26
344.303	2.89
344.674	3.55
345.045	3.81
345.416	2.83
345.786	3.85
346.157	3.66
346.527	3.67
346.898	3.53
347.268	3.61
347.639	3.3
348.009	3.75
348.38	3.36
348.75	3.54
349.12	3.83
349.49	3.28
349.861	3.45
350.231	3.56
350.601	4.26
350.971	3.58
351.341	2.82
351.711	3.88
352.081	3.43
352.45	3.67
352.82	3.14
353.19	3.63
353.56	3.49
353.929	3.64
354.299	3.24
354.669	3.3
355.038	3.67
355.408	3.09
355.777	3.3
356.147	3.58
356.516	4.05
356.885	3.71
357.254	3.59
357.624	3.68
357.993	3.29
358.362	3.58
358.731	3.35
359.1	3.42
359.469	3.29
359.838	3.66
360.207	3.54
360.576	3.38
360.945	3.69
361.314	4.03
361.682	3.47
362.051	3.38
362.42	3.26
362.788	3.45
363.157	3.47
363.525	3.28
363.894	3.72
364.262	3.36
364.631	3.4
364.999	3.42
365.367	3.63
365.735	3.53
366.104	3.17
366.472	3.64
366.84	3.49
367.208	3.28
367.576	3.97
367.944	3.65
368.312	3.69
368.68	3.68
369.048	3.76
369.416	3.12
369.783	3.61
370.151	3.39
370.519	4.01
370.886	3.71
371.254	3.76
371.621	3.63
371.989	3.89
372.356	3.98
372.724	3.88
373.091	3.97
373.458	3.54
373.826	3.87
374.193	3.64
374.56	3.68
374.927	3.85
375.294	3.69
375.661	3.57
376.028	3.91
376.395	3.54
376.762	3.87
377.129	3.8
377.496	3.65
377.863	3.82
378.229	3.62
378.596	3.56
378.963	3.76
379.329	3.6
379.696	3.98
380.062	3.46
380.429	3.89
380.795	3.91
381.161	3.74
381.528	3.86
381.894	3.88
382.26	3.82
382.626	3.72
382.993	3.89
383.359	3.62
383.725	3.75
384.091	3.73
384.457	3.56
384.823	4.03
385.188	3.71
385.554	3.4
385.92	3.81
386.286	3.62
386.651	3.78
387.017	3.91
387.383	3.78
387.748	3.9
388.114	3.66
388.479	3.66
388.845	3.7
389.21	3.51
389.575	3.91
389.94	3.88
390.306	4.09
390.671	3.66
391.036	3.93
391.401	3.98
391.766	3.7
392.131	3.94
392.496	4.26
392.861	3.96
393.226	3.89
393.591	3.91
393.956	3.77
394.32	3.95
394.685	3.71
395.05	3.85
395.414	3.94
395.779	3.55
396.143	3.79
396.508	3.76
396.872	3.7
397.236	3.84
397.601	3.82
397.965	4.06
398.329	3.54
398.694	3.84
399.058	3.58
399.422	3.92
399.786	3.91
400.15	3.72
400.514	3.82
400.878	3.87
401.242	3.9
401.605	3.92
401.969	3.72
402.333	3.61
402.697	4.05
403.06	3.74
403.424	3.96
403.787	4.32
404.151	3.66
404.514	3.7
404.878	3.86
405.241	3.76
405.604	3.54
405.968	3.86
406.331	3.82
406.694	3.7
407.057	3.76
407.42	3.98
407.783	3.84
408.146	4.04
408.509	3.88
408.872	3.82
409.235	3.61
409.598	3.85
409.961	4.02
410.323	4.02
410.686	3.98
411.049	4.09
411.411	3.82
411.774	4.23
412.136	3.85
412.499	4.01
412.861	3.83
413.223	4.07
413.586	3.89
413.948	3.99
414.31	4.1
414.672	3.7
415.035	4.02
415.397	3.93
415.759	3.84
416.121	3.8
416.483	3.91
416.845	3.92
417.206	4.03
417.568	4.03
417.93	4.1
418.292	3.94
418.653	3.75
419.015	3.86
419.377	3.86
419.738	3.82
420.1	3.81
420.461	3.87
420.822	3.8
421.184	3.82
421.545	3.93
421.906	3.85
422.267	3.85
422.629	3.77
422.99	3.85
423.351	3.81
423.712	3.86
424.073	3.93
424.434	3.83
424.795	3.91
425.155	3.81
425.516	3.94
425.877	3.86
426.238	3.86
426.598	3.84
426.959	3.85
427.32	3.82
427.68	3.97
428.041	3.83
428.401	3.81
428.761	3.96
429.122	3.8
429.482	3.84
429.842	3.88
430.202	4.02
430.563	4.14
430.923	4.03
431.283	4.15
431.643	4.1
432.003	4.14
432.363	4.05
432.722	3.89
433.082	4.05
433.442	3.97
433.802	3.93
434.161	4.18
434.521	3.81
434.881	4.06
435.24	3.88
435.6	4.05
435.959	3.89
436.319	3.82
436.678	4.06
437.037	3.87
437.396	3.92
437.756	3.98
438.115	4.14
438.474	4.19
438.833	3.97
439.192	4.07
439.551	4.09
439.91	4.03
440.269	4.02
440.628	3.88
440.987	4.04
441.345	3.99
441.704	3.96
442.063	3.91
442.421	4.06
442.78	3.97
443.138	3.96
443.497	3.86
443.855	3.89
444.214	4.07
444.572	3.82
444.93	4.12
445.288	4.06
445.647	4.09
446.005	3.91
446.363	3.94
446.721	4.09
447.079	3.84
447.437	3.99
447.795	3.92
448.153	4.16
448.51	4
448.868	3.83
449.226	3.87
449.584	4.05
449.941	4.15
450.299	4.04
450.656	4.11
451.014	3.96
451.371	3.91
451.729	4.05
452.086	4.13
452.443	4.16
452.801	4.13
453.158	4.01
453.515	4
453.872	4.08
454.229	4.02
454.586	4.02
454.943	4.16
455.3	4.09
455.657	4.21
456.014	4.08
456.371	4.27
456.727	4.2
457.084	3.96
457.441	4.22
457.797	4.18
458.154	4.1
458.51	4.26
458.867	4.01
459.223	4.12
459.58	3.92
459.936	4.22
460.292	4.33
460.648	4.04
461.005	4.04
461.361	4.07
461.717	4.05
462.073	4.1
462.429	4.08
462.785	4.11
463.141	4.1
463.496	4.26
463.852	4.07
464.208	3.97
464.564	4.17
464.919	4.1
465.275	4.12
465.631	4.22
465.986	4.34
466.342	4.26
466.697	4.2
467.052	4.3
467.408	4.33
467.763	4.38
468.118	4.18
468.473	4.12
468.829	4.37
469.184	4.35
469.539	4.27
469.894	4.08
470.249	4.29
470.603	4.04
470.958	4.25
471.313	4.29
471.668	4.36
472.023	4.33
472.377	4.18
472.732	4.13
473.086	4.21
473.441	4.19
473.795	4.35
474.15	4.24
474.504	4.18
474.859	4.36
475.213	4.37
475.567	4.39
475.921	4.2
476.275	4.04
476.63	4.23
476.984	4.25
477.338	4.14
477.692	4.17
478.045	4.17
478.399	4.07
478.753	4.01
479.107	4.02
479.461	4.3
479.814	4.22
480.168	4.34
480.521	4.33
480.875	4.09
481.228	4.24
481.582	4.34
481.935	4.22
482.289	4.24
482.642	4.22
482.995	4.27
483.348	4.19
483.701	4.12
484.055	4.28
484.408	4.15
484.761	4.13
485.114	4.06
485.466	4
485.819	3.92
486.172	3.98
486.525	3.99
486.878	4.07
487.23	4.13
487.583	4.18
487.936	4.09
488.288	4.23
488.641	4.09
488.993	4.02
489.345	4.11
489.698	4.03
490.05	4.09
490.402	4.05
490.754	4.15
491.107	4.09
491.459	4.21
491.811	4.3
492.163	4.3
492.515	4.22
492.866	4.17
493.218	4.13
493.57	4.16
493.922	4.12
494.274	4.2
494.625	4.18
494.977	4.29
495.328	4.38
495.68	4.44
496.031	4.33
496.383	4.35
496.734	4.46
497.086	4.33
497.437	4.41
497.788	4.4
498.139	4.42
498.49	4.35
498.842	4.37
499.193	4.41
499.544	4.34
499.894	4.37
500.245	4.37
500.596	4.48
500.947	4.42
501.298	4.58
501.648	4.38
501.999	4.45
502.35	4.48
502.7	4.49
503.051	4.38
503.401	4.41
503.752	4.39
504.102	4.4
504.452	4.51
504.803	4.64
505.153	4.59
505.503	4.44
505.853	4.51
506.203	4.43
506.553	4.47
506.903	4.4
507.253	4.52
507.603	4.36
507.953	4.56
508.303	4.49
508.652	4.46
509.002	4.48
509.352	4.58
509.701	4.53
510.051	4.49
510.4	4.44
510.75	4.42
511.099	4.44
511.449	4.48
511.798	4.55
512.147	4.58
512.496	4.46
512.846	4.57
513.195	4.64
513.544	4.49
513.893	4.49
514.242	4.57
514.591	4.4
514.939	4.46
515.288	4.58
515.637	4.57
515.986	4.55
516.334	4.65
516.683	4.72
517.032	4.71
517.38	4.7
517.729	4.55
518.077	4.68
518.426	4.67
518.774	4.63
519.122	4.65
519.47	4.58
519.819	4.6
520.167	4.57
520.515	4.47
520.863	4.52
521.211	4.66
521.559	4.61
521.907	4.64
522.255	4.58
522.602	4.6
522.95	4.78
523.298	4.67
523.645	4.92
523.993	4.72
524.341	4.66
524.688	4.67
525.036	4.75
525.383	4.65
525.73	4.78
526.078	4.71
526.425	4.66
526.772	4.72
527.119	4.69
527.466	4.65
527.814	4.65
528.161	4.73
528.508	4.73
528.854	4.69
529.201	4.67
529.548	4.72
529.895	4.53
530.242	4.56
530.588	4.54
530.935	4.59
531.282	4.6
531.628	4.64
531.975	4.65
532.321	4.72
532.667	4.68
533.014	4.76
533.36	4.84
533.706	4.9
534.052	4.83
534.399	4.82
534.745	4.75
535.091	4.71
535.437	4.7
535.783	4.78
536.129	4.83
536.474	4.95
536.82	4.87
537.166	4.93
537.512	4.9
537.857	5.02
538.203	4.91
538.549	4.92
538.894	4.94
539.239	4.97
539.585	4.92
539.93	4.92
540.276	5
540.621	5.07
540.966	5.12
541.311	5.05
541.656	5.2
542.001	4.99
542.346	5.09
542.691	4.92
543.036	4.91
543.381	4.85
543.726	4.88
544.071	4.99
544.415	4.9
544.76	5.01
545.105	5.04
545.449	4.99
545.794	5.02
546.138	5.1
546.483	5.06
546.827	5.15
547.171	5.19
547.516	5.13
547.86	5.23
548.204	5.27
548.548	5.18
548.892	5.26
549.236	5.19
549.58	5.35
549.924	5.32
550.268	5.31
550.612	5.35
550.956	5.36
551.3	5.32
551.643	5.51
551.987	5.58
552.33	5.41
552.674	5.76
553.017	5.52
553.361	5.38
553.704	5.39
554.048	5.63
554.391	5.52
554.734	5.37
555.077	5.45
555.42	5.57
555.764	5.53
556.107	5.65
556.45	5.57
556.793	5.62
557.135	5.65
557.478	5.56
557.821	5.53
558.164	5.67
558.507	5.46
558.849	5.73
559.192	5.65
559.534	5.79
559.877	5.61
560.219	5.74
560.562	5.98
560.904	5.88
561.246	5.83
561.589	5.77
561.931	5.75
562.273	5.79
562.615	5.67
562.957	5.8
563.299	5.87
563.641	5.84
563.983	6
564.325	6.18
564.667	5.86
565.008	5.98
565.35	6.11
565.692	5.94
566.033	5.86
566.375	6.13
566.716	6.11
567.058	5.96
567.399	6.07
567.741	5.91
568.082	6.12
568.423	6.02
568.764	6.06
569.105	6.08
569.447	6.1
569.788	6.14
570.129	6.25
570.47	6.06
570.811	6.04
571.151	6.17
571.492	6.34
571.833	6.3
572.174	6.26
572.514	6.1
572.855	6.2
573.195	6.32
573.536	6.28
573.876	6.34
574.217	6.26
574.557	6.15
574.898	6.32
575.238	6.35
575.578	6.58
575.918	6.43
576.258	6.46
576.598	6.57
576.938	6.64
577.278	6.53
577.618	6.59
577.958	6.62
578.298	6.72
578.638	6.69
578.977	6.7
579.317	6.62
579.657	6.55
579.996	6.66
580.336	6.72
580.675	6.84
581.014	6.85
581.354	6.71
581.693	6.88
582.032	6.69
582.372	6.99
582.711	6.71
583.05	6.84
583.389	7
583.728	7.35
584.067	6.87
584.406	6.77
584.745	7.08
585.083	6.9
585.422	7.13
585.761	7.18
586.1	6.96
586.438	6.94
586.777	7.13
587.115	6.86
587.454	6.95
587.792	7.29
588.13	7.34
588.469	7.17
588.807	7.47
589.145	7.44
589.483	7.54
589.821	7.2
590.159	7.24
590.497	7.33
590.835	7.41
591.173	7.32
591.511	7.58
591.849	7.58
592.187	7.29
592.524	7.55
592.862	7.49
593.2	7.44
593.537	7.74
593.875	7.63
594.212	7.57
594.55	7.8
594.887	7.65
595.224	8.05
595.561	7.75
595.899	7.65
596.236	7.71
596.573	7.56
596.91	7.59
597.247	7.72
597.584	7.68
597.921	7.72
598.258	8
598.594	7.67
598.931	7.6
599.268	7.74
599.604	7.88
599.941	7.95
600.277	7.88
600.614	8.11
600.95	7.93
601.287	7.88
601.623	8.07
601.959	8.27
602.296	8.06
602.632	8.11
602.968	8.16
603.304	8.16
603.64	8.11
603.976	8.5
604.312	8.13
604.648	8.26
604.984	8.29
605.319	8.35
605.655	8.18
605.991	8.25
606.326	8.16
606.662	8.19
606.998	8.21
607.333	8.41
607.668	8.43
608.004	8.16
608.339	8.49
608.674	8.57
609.01	8.43
609.345	8.4
609.68	8.54
610.015	8.69
610.35	8.67
610.685	8.61
611.02	8.77
611.355	8.89
611.689	8.94
612.024	8.68
612.359	8.71
612.694	8.68
613.028	8.85
613.363	8.67
613.697	8.79
614.032	8.87
614.366	8.93
614.7	8.74
615.035	8.8
615.369	9.09
615.703	9.16
616.037	9.36
616.371	9.28
616.705	9.14
617.039	9.38
617.373	9.18
617.707	9.2
618.041	9.36
618.375	9.52
618.709	9.14
619.042	9.63
619.376	9.63
619.71	9.23
620.043	9.22
620.377	9.34
620.71	9.8
621.043	9.49
621.377	9.2
621.71	9.54
622.043	8.83
622.376	9.58
622.709	9.73
623.043	9.86
623.376	9.6
623.709	9.67
624.041	9.33
624.374	9.8
624.707	9.93
625.04	10.04
625.373	9.66
625.705	10.05
626.038	9.96
626.37	10.02
626.703	10.24
627.035	10.04
627.368	9.85
627.7	9.99
628.032	9.95
628.365	10.1
628.697	9.87
629.029	10.09
629.361	10.03
629.693	9.97
630.025	9.9
630.357	10.13
630.689	10.17
631.021	10.17
631.353	10.14
631.684	10.39
632.016	10.15
632.348	10.52
632.679	10.59
633.011	10.43
633.342	10.26
633.674	11.14
634.005	11.01
634.336	10.55
634.668	10.94
634.999	10.84
635.33	10.43
635.661	10.53
635.992	11.02
636.323	10.48
636.654	10.87
636.985	10.39
637.316	10.63
637.647	10.87
637.977	10.96
638.308	11.44
638.639	10.78
638.969	10.9
639.3	11.05
639.63	10.82
639.961	11.09
640.291	11.58
640.622	10.85
640.952	11.77
641.282	11.34
641.612	11.51
641.943	11.25
642.273	11.44
642.603	11.32
642.933	11.43
643.263	11.64
643.592	11.12
643.922	11.49
644.252	11.07
644.582	11.54
644.911	12.05
645.241	11.38
645.571	11.75
645.9	11.48
646.23	12.03
646.559	11.63
646.888	11.92
647.218	11.47
647.547	11.51
647.876	11.88
648.205	11.26
648.534	12.12
648.863	11.65
649.192	11.84
649.521	11.98
649.85	11.92
650.179	11.8
650.508	12.19
650.837	11.87
651.165	12.49
651.494	12.09
651.822	11.87
652.151	12.24
652.479	12.16
652.808	11.94
653.136	11.88
653.465	12.3
653.793	12.33
654.121	12.22
654.449	12.3
654.777	12.28
655.105	12.26
655.433	12.52
655.761	12.79
656.089	12.05
656.417	12.29
656.745	13.13
657.073	12.47
657.4	12.85
657.728	13.09
658.056	12.98
658.383	12.27
658.711	12.95
659.038	12.37
659.365	13.34
659.693	12.53
660.02	12.3
660.347	12.51
660.674	12.92
661.001	12.72
661.329	13.09
661.656	12.77
661.982	12.86
662.309	13.55
662.636	13.31
662.963	13.43
663.29	12.9
663.616	12.81
663.943	12.67
664.27	12.89
664.596	13.3
664.923	13.25
665.249	13.18
665.576	12.87
665.902	13.09
666.228	12.91
666.554	13.58
666.881	13.22
667.207	13.94
667.533	13.67
667.859	13.18
668.185	13.87
668.511	13.95
668.837	13.57
669.162	13.56
669.488	13.75
669.814	13.33
670.139	13.26
670.465	14.05
670.791	13.81
671.116	14.19
671.442	14.08
671.767	14.58
672.092	13.69
672.418	13.99
672.743	13.64
673.068	14.37
673.393	14.27
673.718	13.51
674.043	14.33
674.368	14.28
674.693	13.64
675.018	14.49
675.343	13.81
675.667	14.45
675.992	13.81
676.317	13.93
676.641	14.87
676.966	14.52
677.29	13.43
677.615	14.98
677.939	14
678.264	14.45
678.588	14.86
678.912	14.79
679.236	14.91
679.56	14.88
679.885	14.65
680.209	15.4
680.532	15.56
680.856	14.76
681.18	14.22
681.504	14.96
681.828	14.6
682.152	14.24
682.475	15.86
682.799	15.34
683.122	15.12
683.446	14.1
683.769	14.43
684.093	14.98
684.416	15.04
684.739	15.23
685.062	14.95
685.386	15.21
685.709	15.02
686.032	15.05
686.355	15.08
686.678	15.87
687.001	15.92
687.324	15.37
687.646	15.02
687.969	15.56
688.292	16.49
688.614	16.13
