Data from 0360_chest_Reflection__0__31.txt Node

Date: Mon Dec 11 17:56:59 CST 2023
User: ToomeyLab
Spectrometer: FLMS14357
Trigger mode: 0
Integration Time (sec): 1.000000E-2
Scans to average: 100
Electric dark correction enabled: true
Nonlinearity correction enabled: false
Boxcar width: 0
XAxis mode: Wavelengths
Number of Pixels in Spectrum: 2048
>>>>>Begin Spectral Data<<<<<
189.047	39.95
189.435	39.95
189.823	39.95
190.211	150.34
190.599	-26.61
190.987	-40.07
191.375	145.2
191.763	135.07
192.151	138.92
192.538	50.33
192.926	-142.03
193.314	-192.57
193.702	59.53
194.089	-53.98
194.477	71.73
194.864	41.23
195.252	40.39
195.639	115.24
196.027	8.31
196.414	-28.25
196.801	144.72
197.189	-30.64
197.576	225.2
197.963	108.34
198.351	-22.86
198.738	17.54
199.125	-26.48
199.512	3.28
199.899	-4.01
200.286	59.4
200.673	-178.6
201.06	68.02
201.447	24.5
201.833	-1.49
202.22	40.27
202.607	6.54
202.994	18.37
203.38	-1.2
203.767	48.91
204.154	33.99
204.54	4.93
204.927	-35.07
205.313	-38.15
205.699	-2.09
206.086	-36.25
206.472	0.92
206.858	-13.87
207.245	7.68
207.631	8.58
208.017	8.71
208.403	16.79
208.789	-34.92
209.175	24.02
209.561	-33.17
209.947	35.29
210.333	17.16
210.719	29.88
211.105	3.2
211.491	-0.28
211.876	22.8
212.262	25.5
212.648	-10.53
213.034	30.05
213.419	-9.28
213.805	13.24
214.19	1.71
214.576	15.42
214.961	14.38
215.346	6.45
215.732	9.12
216.117	-1.04
216.502	1.58
216.888	-8.04
217.273	7.53
217.658	-8.55
218.043	-10.98
218.428	-6.55
218.813	17.27
219.198	19.74
219.583	-2.67
219.968	3.6
220.353	-10.62
220.738	12.53
221.122	7.36
221.507	27.58
221.892	-3.56
222.276	-12.16
222.661	8.98
223.046	3.55
223.43	-0.97
223.815	-7.9
224.199	6.58
224.583	-7.85
224.968	-1.97
225.352	5.35
225.736	13.12
226.121	1.94
226.505	-3.9
226.889	5.49
227.273	6.3
227.657	12.36
228.041	-0.21
228.425	-0.79
228.809	-1.25
229.193	2.86
229.577	4.85
229.961	3.22
230.344	2.4
230.728	2.1
231.112	2.22
231.495	2.7
231.879	1.94
232.263	2.48
232.646	1.5
233.03	0.8
233.413	1.76
233.797	3.29
234.18	2.05
234.563	1.15
234.946	2.88
235.33	5.73
235.713	2.55
236.096	2.28
236.479	3.15
236.862	1.9
237.245	3.04
237.628	1.53
238.011	2.56
238.394	2.16
238.777	1.79
239.16	1.2
239.543	2.4
239.925	1.77
240.308	0.72
240.691	3.06
241.073	1.52
241.456	3.13
241.838	4.12
242.221	3.4
242.603	2.01
242.986	2.75
243.368	2.02
243.75	2.49
244.133	2.63
244.515	1.95
244.897	2.04
245.279	2.33
245.661	2.94
246.043	1.86
246.425	3.1
246.807	2.84
247.189	3.36
247.571	2.51
247.953	2.27
248.335	2.6
248.717	2.22
249.098	2.1
249.48	2.28
249.862	2.51
250.243	2.54
250.625	2.24
251.006	2.18
251.388	2.39
251.769	2.97
252.151	3.81
252.532	2.94
252.913	3.23
253.295	2.91
253.676	2.49
254.057	2.6
254.438	2.5
254.819	1.97
255.2	1.75
255.581	1.48
255.962	1.23
256.343	1.63
256.724	2.22
257.105	2.36
257.486	2.16
257.867	3.15
258.247	2
258.628	2.62
259.009	3.85
259.389	3.19
259.77	2.28
260.15	2.04
260.531	2.61
260.911	2.16
261.292	2.27
261.672	2
262.052	2.15
262.432	2.15
262.813	2.26
263.193	2.14
263.573	2.26
263.953	2.02
264.333	1.8
264.713	2.52
265.093	2
265.473	2.77
265.853	2.09
266.233	2.29
266.612	2.47
266.992	2.43
267.372	3.16
267.752	2.6
268.131	2.51
268.511	2.35
268.89	2.35
269.27	2.42
269.649	2.23
270.029	2.43
270.408	2.5
270.787	2.46
271.167	1.54
271.546	2.48
271.925	2.24
272.304	1.87
272.683	2.31
273.062	2.02
273.441	2.27
273.82	1.71
274.199	1.96
274.578	2.49
274.957	2.32
275.336	2.25
275.715	1.46
276.093	3.13
276.472	2.03
276.851	2.45
277.229	2.5
277.608	2.08
277.986	2.4
278.365	1.73
278.743	2.14
279.122	2.27
279.5	2.18
279.878	2.43
280.257	2.19
280.635	2.36
281.013	1.64
281.391	1.89
281.769	2.57
282.147	2.13
282.525	1.87
282.903	2.35
283.281	2.5
283.659	1.75
284.037	1.73
284.415	1.66
284.792	1.99
285.17	2.28
285.548	2.44
285.925	1.83
286.303	2.14
286.68	1.89
287.058	2.03
287.435	2.31
287.813	2.47
288.19	2.37
288.567	2
288.945	2.39
289.322	1.85
289.699	1.87
290.076	1.68
290.453	2.45
290.83	2.77
291.207	2.17
291.584	2.67
291.961	2.52
292.338	2.35
292.715	2.94
293.092	2.17
293.469	2.12
293.845	2.32
294.222	2.75
294.599	2.5
294.975	1.48
295.352	1.76
295.728	2.3
296.105	2.08
296.481	1.97
296.858	2.05
297.234	2.47
297.61	2.53
297.986	2.52
298.363	2.27
298.739	2.54
299.115	2.13
299.491	2.5
299.867	2.45
300.243	2.33
300.619	2.57
300.995	2.09
301.371	2.21
301.746	2.14
302.122	2.67
302.498	2.49
302.874	2.13
303.249	2.56
303.625	2.41
304	2.22
304.376	2.8
304.751	2.28
305.127	2.52
305.502	2.62
305.878	2.51
306.253	2.97
306.628	2.92
307.003	2.83
307.378	2.42
307.754	2.62
308.129	2.41
308.504	2.58
308.879	2.6
309.254	2.85
309.629	3.04
310.003	3
310.378	2.59
310.753	2.74
311.128	2.65
311.502	2.57
311.877	2.3
312.252	2.78
312.626	2.46
313.001	2.89
313.375	2.41
313.75	2.28
314.124	2.33
314.498	2.21
314.873	2.62
315.247	2.37
315.621	2.7
315.995	2.67
316.369	2.82
316.743	2.84
317.117	2.61
317.491	2.67
317.865	2.65
318.239	2.57
318.613	2.65
318.987	2.64
319.361	3.07
319.734	2.74
320.108	2.46
320.482	2.61
320.855	2.61
321.229	2.77
321.602	2.53
321.976	3.25
322.349	3.06
322.723	2.71
323.096	3.21
323.469	2.88
323.843	3.64
324.216	3.03
324.589	3.62
324.962	2.64
325.335	2.69
325.708	2.49
326.081	3.37
326.454	3.07
326.827	3.1
327.2	2.36
327.573	2.79
327.945	2.73
328.318	2.59
328.691	2.99
329.063	2.94
329.436	2.93
329.809	2.39
330.181	2.92
330.553	2.85
330.926	2.8
331.298	3.42
331.671	2.59
332.043	3.33
332.415	2.89
332.787	3.05
333.159	3.26
333.532	2.98
333.904	2.89
334.276	3.38
334.648	3.17
335.02	2.81
335.391	2.87
335.763	3.25
336.135	3.07
336.507	2.93
336.879	3.04
337.25	2.99
337.622	2.71
337.993	2.97
338.365	2.78
338.736	3.14
339.108	3.33
339.479	2.77
339.851	2.78
340.222	3.03
340.593	2.36
340.964	3.08
341.336	3.18
341.707	2.5
342.078	3.17
342.449	3.01
342.82	2.66
343.191	2.74
343.562	2.94
343.933	2.41
344.303	2.96
344.674	2.97
345.045	3.03
345.416	2.47
345.786	3.12
346.157	3.35
346.527	3.05
346.898	3.14
347.268	3
347.639	3
348.009	3.2
348.38	2.72
348.75	2.97
349.12	3.29
349.49	2.89
349.861	2.88
350.231	2.52
350.601	3.7
350.971	3.37
351.341	2.4
351.711	2.96
352.081	2.52
352.45	3.35
352.82	2.53
353.19	3.05
353.56	3.05
353.929	3.01
354.299	3.36
354.669	3.14
355.038	2.97
355.408	2.59
355.777	3.23
356.147	3.09
356.516	3.19
356.885	2.94
357.254	2.84
357.624	3.04
357.993	2.56
358.362	3.3
358.731	2.85
359.1	3.05
359.469	2.94
359.838	2.89
360.207	2.76
360.576	2.87
360.945	3.2
361.314	3.39
361.682	3.06
362.051	2.87
362.42	2.85
362.788	2.77
363.157	3.01
363.525	2.82
363.894	3.02
364.262	3.04
364.631	3.06
364.999	3.16
365.367	3.62
365.735	3.1
366.104	2.84
366.472	2.87
366.84	3.04
367.208	2.9
367.576	3.38
367.944	3.44
368.312	3.01
368.68	2.96
369.048	2.98
369.416	2.86
369.783	3.11
370.151	3.41
370.519	3.35
370.886	2.89
371.254	3.3
371.621	3.57
371.989	3.39
372.356	3.33
372.724	3.37
373.091	3
373.458	3.19
373.826	3.15
374.193	3.02
374.56	3.13
374.927	3.31
375.294	3.38
375.661	3.06
376.028	3.22
376.395	3
376.762	3.11
377.129	3.28
377.496	3.12
377.863	3.25
378.229	3.41
378.596	3.21
378.963	3.29
379.329	2.9
379.696	3.24
380.062	2.81
380.429	3.21
380.795	3.37
381.161	3.18
381.528	3.27
381.894	3.25
382.26	3.29
382.626	3.12
382.993	3.44
383.359	3.44
383.725	2.97
384.091	3.12
384.457	2.97
384.823	3.52
385.188	3.35
385.554	3.11
385.92	3.5
386.286	3.41
386.651	3.09
387.017	3.44
387.383	3.38
387.748	3.02
388.114	3.31
388.479	3.25
388.845	3.14
389.21	3.41
389.575	3.42
389.94	3.52
390.306	3.47
390.671	3.2
391.036	3.37
391.401	3.4
391.766	3.17
392.131	3.24
392.496	3.54
392.861	3.38
393.226	3.36
393.591	3.25
393.956	3.24
394.32	3.42
394.685	3.29
395.05	3.42
395.414	3.37
395.779	3.28
396.143	3.26
396.508	3.21
396.872	3.37
397.236	3.52
397.601	3.47
397.965	3.51
398.329	3.6
398.694	3.28
399.058	3.19
399.422	3.33
399.786	3.46
400.15	3.08
400.514	3.46
400.878	3.42
401.242	3.48
401.605	3.4
401.969	3.3
402.333	3.16
402.697	3.49
403.06	3.54
403.424	3.39
403.787	3.69
404.151	3.34
404.514	3.26
404.878	3.29
405.241	3.25
405.604	3.41
405.968	3.27
406.331	2.98
406.694	3.39
407.057	3.45
407.42	3.54
407.783	3.43
408.146	3.56
408.509	3.3
408.872	3.57
409.235	3.48
409.598	3.6
409.961	3.55
410.323	3.63
410.686	3.58
411.049	3.46
411.411	3.41
411.774	3.43
412.136	3.3
412.499	3.56
412.861	3.38
413.223	3.61
413.586	3.54
413.948	3.69
414.31	3.33
414.672	3.24
415.035	3.21
415.397	3.47
415.759	3.53
416.121	3.57
416.483	3.56
416.845	3.57
417.206	3.39
417.568	3.47
417.93	3.56
418.292	3.46
418.653	3.38
419.015	3.23
419.377	3.6
419.738	3.49
420.1	3.47
420.461	3.36
420.822	3.46
421.184	3.47
421.545	3.41
421.906	3.45
422.267	3.51
422.629	3.41
422.99	3.43
423.351	3.36
423.712	3.41
424.073	3.35
424.434	3.3
424.795	3.55
425.155	3.51
425.516	3.37
425.877	3.34
426.238	3.55
426.598	3.48
426.959	3.45
427.32	3.47
427.68	3.52
428.041	3.43
428.401	3.55
428.761	3.41
429.122	3.53
429.482	3.59
429.842	3.59
430.202	3.48
430.563	3.64
430.923	3.78
431.283	3.65
431.643	3.7
432.003	3.58
432.363	3.62
432.722	3.54
433.082	3.59
433.442	3.64
433.802	3.47
434.161	3.77
434.521	3.41
434.881	3.74
435.24	3.44
435.6	3.62
435.959	3.54
436.319	3.46
436.678	3.65
437.037	3.6
437.396	3.61
437.756	3.72
438.115	3.71
438.474	3.68
438.833	3.76
439.192	3.68
439.551	3.73
439.91	3.59
440.269	3.65
440.628	3.51
440.987	3.68
441.345	3.61
441.704	3.7
442.063	3.53
442.421	3.66
442.78	3.57
443.138	3.55
443.497	3.57
443.855	3.53
444.214	3.73
444.572	3.7
444.93	3.82
445.288	3.66
445.647	3.73
446.005	3.48
446.363	3.54
446.721	3.64
447.079	3.55
447.437	3.57
447.795	3.64
448.153	3.73
448.51	3.64
448.868	3.55
449.226	3.57
449.584	3.66
449.941	3.77
450.299	3.76
450.656	3.65
451.014	3.83
451.371	3.51
451.729	3.82
452.086	3.86
452.443	3.88
452.801	3.67
453.158	3.7
453.515	3.75
453.872	3.66
454.229	3.81
454.586	3.64
454.943	3.71
455.3	3.83
455.657	3.87
456.014	3.87
456.371	3.87
456.727	3.81
457.084	3.79
457.441	3.98
457.797	3.78
458.154	3.78
458.51	3.9
458.867	3.65
459.223	3.8
459.58	3.78
459.936	3.86
460.292	3.88
460.648	3.99
461.005	3.81
461.361	3.69
461.717	3.73
462.073	3.69
462.429	3.85
462.785	3.71
463.141	3.94
463.496	3.96
463.852	3.78
464.208	3.82
464.564	3.88
464.919	3.73
465.275	3.88
465.631	3.76
465.986	4.06
466.342	3.91
466.697	3.98
467.052	3.78
467.408	4.01
467.763	3.91
468.118	3.91
468.473	3.92
468.829	3.92
469.184	4.13
469.539	3.93
469.894	3.74
470.249	3.92
470.603	3.96
470.958	4.16
471.313	4
471.668	3.98
472.023	4.13
472.377	4.09
472.732	3.95
473.086	4.15
473.441	3.96
473.795	4.01
474.15	4.06
474.504	3.89
474.859	4.08
475.213	3.89
475.567	4.03
475.921	4.11
476.275	4.14
476.63	4.02
476.984	4.13
477.338	3.92
477.692	4.06
478.045	3.94
478.399	4.04
478.753	3.86
479.107	3.9
479.461	4.15
479.814	3.99
480.168	4.1
480.521	4.07
480.875	4.05
481.228	4.04
481.582	4.28
481.935	4.03
482.289	4.18
482.642	4.11
482.995	4.03
483.348	4.06
483.701	3.91
484.055	4.1
484.408	4.01
484.761	4
485.114	3.92
485.466	3.83
485.819	3.75
486.172	3.78
486.525	3.86
486.878	3.94
487.23	3.98
487.583	4.01
487.936	3.97
488.288	4.05
488.641	3.92
488.993	3.88
489.345	3.93
489.698	3.92
490.05	3.91
490.402	3.93
490.754	4
491.107	4.04
491.459	4.05
491.811	4.06
492.163	4.11
492.515	4.2
492.866	4.04
493.218	3.91
493.57	3.94
493.922	3.96
494.274	4.1
494.625	4.12
494.977	4.25
495.328	4.24
495.68	4.31
496.031	4.32
496.383	4.22
496.734	4.24
497.086	4.27
497.437	4.43
497.788	4.29
498.139	4.2
498.49	4.31
498.842	4.27
499.193	4.34
499.544	4.29
499.894	4.34
500.245	4.32
500.596	4.43
500.947	4.19
501.298	4.35
501.648	4.27
501.999	4.28
502.35	4.35
502.7	4.51
503.051	4.26
503.401	4.39
503.752	4.44
504.102	4.38
504.452	4.42
504.803	4.56
505.153	4.44
505.503	4.48
505.853	4.59
506.203	4.48
506.553	4.51
506.903	4.4
507.253	4.37
507.603	4.37
507.953	4.51
508.303	4.37
508.652	4.53
509.002	4.45
509.352	4.65
509.701	4.43
510.051	4.42
510.4	4.51
510.75	4.48
511.099	4.44
511.449	4.52
511.798	4.49
512.147	4.67
512.496	4.47
512.846	4.59
513.195	4.6
513.544	4.59
513.893	4.52
514.242	4.54
514.591	4.54
514.939	4.59
515.288	4.67
515.637	4.49
515.986	4.57
516.334	4.72
516.683	4.82
517.032	4.62
517.38	4.63
517.729	4.69
518.077	4.8
518.426	4.86
518.774	4.74
519.122	4.69
519.47	4.63
519.819	4.6
520.167	4.67
520.515	4.59
520.863	4.58
521.211	4.74
521.559	4.64
521.907	4.8
522.255	4.64
522.602	4.75
522.95	4.89
523.298	4.81
523.645	4.99
523.993	4.77
524.341	4.83
524.688	4.76
525.036	4.82
525.383	4.93
525.73	4.86
526.078	4.92
526.425	4.74
526.772	4.84
527.119	4.77
527.466	4.78
527.814	4.8
528.161	4.79
528.508	4.92
528.854	4.85
529.201	4.77
529.548	4.86
529.895	4.68
530.242	4.66
530.588	4.62
530.935	4.69
531.282	4.78
531.628	4.82
531.975	4.88
532.321	4.91
532.667	5
533.014	4.89
533.36	4.96
533.706	5.05
534.052	4.98
534.399	4.95
534.745	4.96
535.091	4.82
535.437	4.9
535.783	4.99
536.129	5.07
536.474	5.08
536.82	5.08
537.166	5.13
537.512	5.13
537.857	5.25
538.203	5.07
538.549	5.23
538.894	5.15
539.239	5.13
539.585	5.24
539.93	5.36
540.276	5.47
540.621	5.27
540.966	5.3
541.311	5.41
541.656	5.32
542.001	5.43
542.346	5.32
542.691	5.25
543.036	5.14
543.381	5.1
543.726	5.15
544.071	5.27
544.415	5.3
544.76	5.34
545.105	5.29
545.449	5.34
545.794	5.38
546.138	5.57
546.483	5.5
546.827	5.56
547.171	5.47
547.516	5.47
547.86	5.63
548.204	5.62
548.548	5.51
548.892	5.61
549.236	5.52
549.58	5.77
549.924	5.73
550.268	5.72
550.612	5.66
550.956	5.59
551.3	5.74
551.643	5.85
551.987	6.08
552.33	5.85
552.674	5.99
553.017	5.82
553.361	5.95
553.704	5.75
554.048	5.95
554.391	5.88
554.734	5.94
555.077	5.94
555.42	6.07
555.764	6.05
556.107	6.17
556.45	6.06
556.793	6.02
557.135	6.04
557.478	6.05
557.821	6.05
558.164	6.31
558.507	6.13
558.849	6.2
559.192	6.28
559.534	6.28
559.877	6.3
560.219	6.1
560.562	6.39
560.904	6.43
561.246	6.5
561.589	6.57
561.931	6.56
562.273	6.24
562.615	6.33
562.957	6.32
563.299	6.43
563.641	6.44
563.983	6.68
564.325	6.64
564.667	6.55
565.008	6.67
565.35	6.81
565.692	6.68
566.033	6.53
566.375	6.68
566.716	6.5
567.058	6.65
567.399	6.68
567.741	6.47
568.082	6.67
568.423	6.54
568.764	6.71
569.105	6.61
569.447	6.84
569.788	6.71
570.129	6.67
570.47	6.6
570.811	6.69
571.151	6.86
571.492	6.88
571.833	6.95
572.174	7.09
572.514	6.98
572.855	6.87
573.195	7
573.536	6.88
573.876	6.77
574.217	6.95
574.557	6.84
574.898	7.11
575.238	7.25
575.578	7.09
575.918	7.17
576.258	7.16
576.598	7.16
576.938	7.31
577.278	7.17
577.618	7.39
577.958	7.29
578.298	7.39
578.638	7.41
578.977	7.37
579.317	7.35
579.657	7.5
579.996	7.21
580.336	7.48
580.675	7.53
581.014	7.57
581.354	7.62
581.693	7.75
582.032	7.38
582.372	7.62
582.711	7.65
583.05	7.76
583.389	7.61
583.728	7.97
584.067	7.93
584.406	7.67
584.745	8.09
585.083	7.79
585.422	7.96
585.761	8.03
586.1	7.92
586.438	7.93
586.777	8.03
587.115	7.76
587.454	7.95
587.792	8.06
588.13	8.25
588.469	7.96
588.807	8.1
589.145	8.34
589.483	8.27
589.821	7.99
590.159	8.27
590.497	8.27
590.835	8.14
591.173	8.03
591.511	8.47
591.849	8.27
592.187	8.23
592.524	8.45
592.862	8.25
593.2	7.95
593.537	8.19
593.875	8.33
594.212	8.41
594.55	8.59
594.887	8.6
595.224	8.77
595.561	8.86
595.899	8.42
596.236	8.82
596.573	8.61
596.91	8.77
597.247	8.64
597.584	8.57
597.921	8.64
598.258	8.49
598.594	8.74
598.931	8.7
599.268	8.67
599.604	8.69
599.941	8.94
600.277	8.72
600.614	9.02
600.95	8.93
601.287	8.92
601.623	8.87
601.959	9.18
602.296	9.24
602.632	8.93
602.968	8.94
603.304	8.99
603.64	9.14
603.976	9.35
604.312	9
604.648	9.29
604.984	9.43
605.319	9.22
605.655	9.14
605.991	9.22
606.326	9.09
606.662	9.1
606.998	9.14
607.333	9.45
607.668	9.43
608.004	9.35
608.339	9.55
608.674	9.79
609.01	9.46
609.345	9.42
609.68	9.52
610.015	9.6
610.35	9.74
610.685	9.6
611.02	9.46
611.355	9.6
611.689	9.65
612.024	9.66
612.359	9.87
612.694	9.76
613.028	9.76
613.363	9.8
613.697	10.1
614.032	9.84
614.366	10.11
614.7	10.1
615.035	10.14
615.369	10.38
615.703	10.35
616.037	10.39
616.371	10.27
616.705	10.3
617.039	10.38
617.373	10.4
617.707	10.57
618.041	10.64
618.375	10.48
618.709	10.43
619.042	10.6
619.376	10.53
619.71	10.67
620.043	10.64
620.377	10.5
620.71	10.67
621.043	10.52
621.377	10.05
621.71	10.86
622.043	10.43
622.376	10.51
622.709	10.83
623.043	11.08
623.376	10.74
623.709	11.05
624.041	10.82
624.374	10.62
624.707	10.92
625.04	11.12
625.373	11.18
625.705	11.1
626.038	11.1
626.37	11.24
626.703	11.14
627.035	11.36
627.368	11.01
627.7	10.7
628.032	10.83
628.365	11.13
628.697	11.14
629.029	11.45
629.361	11.28
629.693	11.35
630.025	11.36
630.357	11.2
630.689	11.18
631.021	11.19
631.353	11.29
631.684	11.44
632.016	11.73
632.348	11.75
632.679	11.97
633.011	11.6
633.342	11.75
633.674	12.05
634.005	11.95
634.336	11.81
634.668	11.96
634.999	12.08
635.33	11.46
635.661	11.92
635.992	12.23
636.323	12.03
636.654	12.11
636.985	11.92
637.316	11.99
637.647	11.9
637.977	12.09
638.308	12.19
638.639	12.12
638.969	11.88
639.3	12.5
639.63	11.78
639.961	11.97
640.291	12.47
640.622	11.92
640.952	12.64
641.282	12.16
641.612	12.7
641.943	12.56
642.273	12.25
642.603	12.33
642.933	12.38
643.263	12.63
643.592	12.89
643.922	12.79
644.252	11.71
644.582	12.56
644.911	12.86
645.241	12.76
645.571	13.24
645.9	12.76
646.23	12.75
646.559	13.24
646.888	13.34
647.218	13.04
647.547	12.9
647.876	13.02
648.205	13.15
648.534	13.17
648.863	12.84
649.192	12.98
649.521	13.11
649.85	13.21
650.179	13.05
650.508	13.47
650.837	13.1
651.165	13.47
651.494	13.65
651.822	13.09
652.151	13.49
652.479	13.26
652.808	13.77
653.136	12.58
653.465	13.56
653.793	12.98
654.121	13.45
654.449	13.32
654.777	13.99
655.105	13.61
655.433	13.59
655.761	13.78
656.089	13.94
656.417	13.8
656.745	14.14
657.073	14.17
657.4	14.31
657.728	13.92
658.056	14.34
658.383	14.38
658.711	13.81
659.038	13.92
659.365	14.02
659.693	13.81
660.02	13.88
660.347	13.95
660.674	14.07
661.001	13.35
661.329	13.98
661.656	14
661.982	13.93
662.309	14.14
662.636	14.13
662.963	14.73
663.29	13.92
663.616	13.9
663.943	13.96
664.27	14.91
664.596	14.72
664.923	14.2
665.249	14.53
665.576	14.44
665.902	14.64
666.228	14.87
666.554	14.39
666.881	14.64
667.207	15.18
667.533	14.75
667.859	14.7
668.185	14.93
668.511	14.97
668.837	15.13
669.162	15.19
669.488	15.16
669.814	14.35
670.139	14.64
670.465	15.12
670.791	14.82
671.116	15.45
671.442	15.04
671.767	14.86
672.092	14.89
672.418	15.18
672.743	14.62
673.068	14.83
673.393	15.52
673.718	15.02
674.043	15.55
674.368	15.77
674.693	15.72
675.018	16.22
675.343	14.79
675.667	15.29
675.992	15.67
676.317	15.18
676.641	15.91
676.966	16.06
677.29	15.2
677.615	16.3
677.939	15.81
678.264	15.93
678.588	16.16
678.912	15.43
679.236	16.26
679.56	15.95
679.885	15.79
680.209	15.89
680.532	15.97
680.856	15.9
681.18	16.01
681.504	15.74
681.828	15.4
682.152	15.5
682.475	15.97
682.799	15.65
683.122	15.76
683.446	15.75
683.769	15.84
684.093	16.14
684.416	16.03
684.739	16.38
685.062	15.91
685.386	16.43
685.709	16.44
686.032	16.28
686.355	16.15
686.678	15.91
687.001	15.92
687.324	16.05
687.646	16.47
687.969	16.42
