Data from 0360_forehead_Reflection__4__45.txt Node

Date: Mon Dec 11 18:02:38 CST 2023
User: ToomeyLab
Spectrometer: FLMS14357
Trigger mode: 0
Integration Time (sec): 1.000000E-2
Scans to average: 100
Electric dark correction enabled: true
Nonlinearity correction enabled: false
Boxcar width: 0
XAxis mode: Wavelengths
Number of Pixels in Spectrum: 2048
>>>>>Begin Spectral Data<<<<<
189.047	0.32
189.435	0.32
189.823	0.32
190.211	-548.42
190.599	39.62
190.987	105.66
191.375	193.77
191.763	192.22
192.151	104.99
192.538	38.48
192.926	275.28
193.314	-116.85
193.702	152.68
194.089	-15.04
194.477	-8.71
194.864	124.24
195.252	-33
195.639	-48.51
196.027	-116.28
196.414	-227.02
196.801	128.31
197.189	-503.01
197.576	337.25
197.963	84.58
198.351	-29.97
198.738	33.21
199.125	-17.02
199.512	6.26
199.899	14.55
200.286	9.98
200.673	-82.1
201.06	113.55
201.447	39.58
201.833	34.48
202.22	45.4
202.607	7.63
202.994	0.81
203.38	2.9
203.767	35.77
204.154	29.63
204.54	18.18
204.927	-0.87
205.313	-13.74
205.699	4.43
206.086	-17.83
206.472	23.9
206.858	59.12
207.245	22.4
207.631	25.11
208.017	3.93
208.403	30.58
208.789	12.61
209.175	11.98
209.561	-3.37
209.947	-4.09
210.333	26.09
210.719	39.78
211.105	31.2
211.491	26.59
211.876	-6.59
212.262	-12.46
212.648	14.18
213.034	3.29
213.419	25.26
213.805	41.78
214.19	63.01
214.576	20.13
214.961	28.83
215.346	-4.95
215.732	22.48
216.117	24.89
216.502	37.02
216.888	31.51
217.273	40.61
217.658	21.58
218.043	1.76
218.428	20.78
218.813	24.25
219.198	-11.81
219.583	23.95
219.968	17.29
220.353	12.08
220.738	29.24
221.122	10.88
221.507	30.84
221.892	14.27
222.276	-3.98
222.661	21.88
223.046	5.86
223.43	10.48
223.815	13.74
224.199	9.62
224.583	4.04
224.968	11.18
225.352	10.58
225.736	4.63
226.121	8.11
226.505	12.26
226.889	9.44
227.273	9.88
227.657	13.43
228.041	9.53
228.425	6.32
228.809	3.93
229.193	8.07
229.577	5.31
229.961	6.94
230.344	5.75
230.728	5.53
231.112	5.23
231.495	5.78
231.879	4.96
232.263	4.44
232.646	5.48
233.03	5.27
233.413	5.15
233.797	6.16
234.18	6.35
234.563	6.03
234.946	4.74
235.33	5.83
235.713	5.91
236.096	5.75
236.479	6.91
236.862	4.94
237.245	5.71
237.628	3.56
238.011	4.78
238.394	5.58
238.777	5.82
239.16	6.56
239.543	4.98
239.925	5.27
240.308	6.68
240.691	5.18
241.073	7.07
241.456	6.69
241.838	6.25
242.221	4.79
242.603	4.85
242.986	4.89
243.368	4.83
243.75	5.15
244.133	5.28
244.515	4.67
244.897	5.06
245.279	5.35
245.661	5.07
246.043	5.45
246.425	6.09
246.807	5.33
247.189	5.21
247.571	5.6
247.953	5.35
248.335	5.43
248.717	5.29
249.098	4.87
249.48	4.63
249.862	5.31
250.243	5.15
250.625	5.39
251.006	4.98
251.388	5.78
251.769	5.97
252.151	6.96
252.532	6.43
252.913	5.81
253.295	5.98
253.676	5.06
254.057	5.35
254.438	5.58
254.819	4.83
255.2	4.62
255.581	4.85
255.962	4.92
256.343	5.12
256.724	6.07
257.105	4.66
257.486	5.04
257.867	7.18
258.247	4.5
258.628	5.3
259.009	6.62
259.389	6.04
259.77	5.06
260.15	5.31
260.531	5.49
260.911	4.66
261.292	4.98
261.672	4.94
262.052	4.87
262.432	4.84
262.813	5.03
263.193	4.56
263.573	5.84
263.953	5.69
264.333	5.38
264.713	5.43
265.093	4.66
265.473	5.94
265.853	5.75
266.233	4.97
266.612	6.4
266.992	5.76
267.372	6.44
267.752	5.8
268.131	5.12
268.511	4.74
268.89	5.34
269.27	5.67
269.649	5.24
270.029	5.98
270.408	4.94
270.787	5.07
271.167	4.99
271.546	4.67
271.925	4.73
272.304	4.97
272.683	4.85
273.062	4.72
273.441	5.05
273.82	4.61
274.199	4.65
274.578	4.88
274.957	5.14
275.336	5.02
275.715	4.76
276.093	5.7
276.472	4.94
276.851	5.16
277.229	5.31
277.608	5.31
277.986	5.37
278.365	5.2
278.743	4.81
279.122	5.16
279.5	5.61
279.878	4.83
280.257	5.02
280.635	5.04
281.013	5.07
281.391	5.5
281.769	4.91
282.147	5
282.525	5.49
282.903	5.35
283.281	5.08
283.659	4.93
284.037	4.47
284.415	4.37
284.792	5.22
285.17	5.3
285.548	5.26
285.925	4.69
286.303	4.91
286.68	5.02
287.058	5.09
287.435	5.18
287.813	5.16
288.19	5.14
288.567	4.96
288.945	4.8
289.322	5
289.699	5.16
290.076	4.88
290.453	5.56
290.83	5.66
291.207	5.8
291.584	5.41
291.961	5.01
292.338	5.17
292.715	5.76
293.092	5.65
293.469	5.8
293.845	5.68
294.222	5.83
294.599	5.24
294.975	5.52
295.352	5.37
295.728	5.62
296.105	5.76
296.481	5.12
296.858	5.72
297.234	6.33
297.61	6.38
297.986	6.36
298.363	5.89
298.739	6.09
299.115	5.78
299.491	6.12
299.867	5.92
300.243	6.24
300.619	6.09
300.995	6.36
301.371	5.9
301.746	6.28
302.122	6.93
302.498	6.96
302.874	6.33
303.249	6.93
303.625	6.58
304	6.8
304.376	6.63
304.751	6.46
305.127	6.84
305.502	7
305.878	6.71
306.253	7.09
306.628	7.29
307.003	7.06
307.378	7.3
307.754	7.15
308.129	7.05
308.504	7.26
308.879	6.82
309.254	8.16
309.629	7.07
310.003	7.36
310.378	7.18
310.753	7.71
311.128	7.61
311.502	7.06
311.877	7.56
312.252	7.53
312.626	7.76
313.001	7.25
313.375	7.74
313.75	7.83
314.124	7.85
314.498	7.86
314.873	8.11
315.247	7.95
315.621	9.12
315.995	8.44
316.369	8.22
316.743	8.66
317.117	8.86
317.491	8.54
317.865	8.75
318.239	9.18
318.613	9.45
318.987	8.96
319.361	9.88
319.734	8.43
320.108	9.09
320.482	9.03
320.855	9.27
321.229	9.28
321.602	8.89
321.976	9.66
322.349	9.91
322.723	9.12
323.096	9.81
323.469	9.89
323.843	9.6
324.216	10.49
324.589	10.47
324.962	9.97
325.335	9.98
325.708	9.85
326.081	10.21
326.454	10.41
326.827	10.34
327.2	9.58
327.573	9.93
327.945	10.56
328.318	10.35
328.691	10.21
329.063	10.43
329.436	10.25
329.809	10.32
330.181	10.41
330.553	11.29
330.926	10.43
331.298	10.9
331.671	11.26
332.043	11.28
332.415	10.85
332.787	11.08
333.159	10.69
333.532	11.47
333.904	11.23
334.276	11.75
334.648	11.65
335.02	11.42
335.391	11.29
335.763	11.12
336.135	11.92
336.507	12.18
336.879	11.97
337.25	11.58
337.622	11.16
337.993	12.14
338.365	11.38
338.736	11.59
339.108	12.17
339.479	11.79
339.851	12.35
340.222	12.07
340.593	11.41
340.964	12.13
341.336	12.23
341.707	11.87
342.078	12.59
342.449	12.6
342.82	11.73
343.191	12.13
343.562	12.55
343.933	12.58
344.303	12.12
344.674	12.69
345.045	13.09
345.416	12.55
345.786	13.08
346.157	12.98
346.527	12.85
346.898	12.81
347.268	12.78
347.639	13
348.009	13.21
348.38	12.64
348.75	12.95
349.12	13.65
349.49	13.3
349.861	13.13
350.231	13.24
350.601	13.93
350.971	13.45
351.341	12.83
351.711	13.75
352.081	13.23
352.45	13.67
352.82	13.35
353.19	13.49
353.56	13.56
353.929	13.61
354.299	13.95
354.669	14.15
355.038	14.24
355.408	13.58
355.777	14.28
356.147	14.27
356.516	14.47
356.885	14.27
357.254	14.31
357.624	14.27
357.993	14.18
358.362	14.44
358.731	14.43
359.1	14.53
359.469	14.16
359.838	14.48
360.207	14.38
360.576	14.7
360.945	15.07
361.314	14.89
361.682	14.89
362.051	14.54
362.42	14.66
362.788	14.62
363.157	14.84
363.525	15.05
363.894	15.17
364.262	14.98
364.631	15.12
364.999	15.53
365.367	15.43
365.735	15.25
366.104	15.21
366.472	15.6
366.84	15.26
367.208	15.33
367.576	15.96
367.944	15.41
368.312	15.83
368.68	15.7
369.048	15.77
369.416	15.85
369.783	15.91
370.151	16
370.519	16.27
370.886	16.02
371.254	16.37
371.621	16.51
371.989	16.11
372.356	16.35
372.724	16.54
373.091	16.36
373.458	16.26
373.826	16.48
374.193	16.6
374.56	16.51
374.927	16.74
375.294	17.13
375.661	16.79
376.028	17.14
376.395	16.89
376.762	16.79
377.129	17.01
377.496	17.05
377.863	17.28
378.229	17.05
378.596	17.39
378.963	17.35
379.329	17.29
379.696	17.24
380.062	17.21
380.429	17.21
380.795	18.04
381.161	17.81
381.528	17.43
381.894	17.74
382.26	17.9
382.626	17.74
382.993	17.74
383.359	17.75
383.725	17.85
384.091	17.76
384.457	17.93
384.823	18.25
385.188	17.89
385.554	18.14
385.92	18.25
386.286	18.22
386.651	18.27
387.017	18.31
387.383	18.42
387.748	18.34
388.114	18.51
388.479	18.63
388.845	18.24
389.21	18.42
389.575	18.88
389.94	18.6
390.306	18.7
390.671	18.97
391.036	18.96
391.401	19.31
391.766	19
392.131	19.24
392.496	19.35
392.861	19.49
393.226	19.35
393.591	19.28
393.956	19.09
394.32	19.39
394.685	19.33
395.05	19.58
395.414	19.59
395.779	19.54
396.143	19.62
396.508	19.4
396.872	19.77
397.236	19.61
397.601	19.72
397.965	20
398.329	20.1
398.694	19.96
399.058	20.06
399.422	20.15
399.786	20.1
400.15	20.07
400.514	20.24
400.878	20.28
401.242	20.3
401.605	20.4
401.969	20.27
402.333	20.25
402.697	20.41
403.06	20.53
403.424	20.9
403.787	20.89
404.151	20.68
404.514	20.66
404.878	20.92
405.241	20.79
405.604	20.98
405.968	20.93
406.331	20.68
406.694	20.72
407.057	20.92
407.42	21.3
407.783	21.08
408.146	21.1
408.509	21.31
408.872	21.25
409.235	21.4
409.598	21.29
409.961	21.56
410.323	21.43
410.686	21.43
411.049	21.93
411.411	21.7
411.774	21.65
412.136	21.53
412.499	21.9
412.861	21.91
413.223	21.89
413.586	22.05
413.948	22.17
414.31	22.24
414.672	21.88
415.035	22.2
415.397	22.32
415.759	22.62
416.121	22.39
416.483	22.24
416.845	22.49
417.206	22.57
417.568	22.68
417.93	22.64
418.292	22.33
418.653	22.35
419.015	22.41
419.377	22.65
419.738	22.47
420.1	22.45
420.461	22.59
420.822	22.43
421.184	22.56
421.545	22.55
421.906	22.6
422.267	22.71
422.629	22.45
422.99	22.68
423.351	22.59
423.712	22.58
424.073	22.68
424.434	22.77
424.795	22.99
425.155	23
425.516	22.86
425.877	22.94
426.238	23.1
426.598	22.93
426.959	23.15
427.32	23.37
427.68	23.34
428.041	23.31
428.401	23.3
428.761	23.7
429.122	23.84
429.482	23.84
429.842	23.81
430.202	23.82
430.563	23.97
430.923	24.19
431.283	24.15
431.643	24.22
432.003	24.04
432.363	24.51
432.722	24.46
433.082	24.42
433.442	24.48
433.802	24.5
434.161	24.62
434.521	24.5
434.881	24.7
435.24	24.5
435.6	24.48
435.959	24.59
436.319	24.64
436.678	24.68
437.037	25.17
437.396	24.88
437.756	24.76
438.115	25.19
438.474	25.17
438.833	25.32
439.192	25.18
439.551	25.49
439.91	25.32
440.269	25.45
440.628	25.09
440.987	25.6
441.345	25.26
441.704	25.39
442.063	25.12
442.421	25.4
442.78	25.35
443.138	25.33
443.497	25.19
443.855	25.43
444.214	25.81
444.572	25.75
444.93	25.81
445.288	25.8
445.647	25.88
446.005	25.94
446.363	25.85
446.721	25.99
447.079	25.87
447.437	25.75
447.795	25.81
448.153	25.95
448.51	25.81
448.868	25.79
449.226	25.95
449.584	25.95
449.941	26.34
450.299	26.21
450.656	26.47
451.014	26.57
451.371	26.32
451.729	26.72
452.086	26.73
452.443	26.87
452.801	26.93
453.158	27.01
453.515	26.8
453.872	27.1
454.229	27.01
454.586	27.13
454.943	27.13
455.3	27.21
455.657	27.16
456.014	27.04
456.371	27.49
456.727	27.67
457.084	27.55
457.441	27.58
457.797	27.64
458.154	27.72
458.51	27.75
458.867	27.44
459.223	27.73
459.58	27.7
459.936	27.97
460.292	27.8
460.648	27.68
461.005	27.7
461.361	27.57
461.717	27.58
462.073	27.43
462.429	27.66
462.785	27.66
463.141	27.88
463.496	28.29
463.852	27.96
464.208	28.17
464.564	28.32
464.919	28.41
465.275	28.43
465.631	28.48
465.986	28.61
466.342	28.8
466.697	28.91
467.052	28.95
467.408	28.93
467.763	28.79
468.118	28.98
468.473	28.76
468.829	29.05
469.184	29.19
469.539	29.15
469.894	28.72
470.249	29.03
470.603	29.13
470.958	29.37
471.313	29.3
471.668	29.29
472.023	29.31
472.377	29.18
472.732	29.38
473.086	29.48
473.441	29.63
473.795	29.62
474.15	29.56
474.504	29.59
474.859	29.77
475.213	29.83
475.567	29.96
475.921	29.86
476.275	29.87
476.63	29.78
476.984	30.02
477.338	30.01
477.692	30.2
478.045	30.12
478.399	29.87
478.753	30.18
479.107	30.2
479.461	30.26
479.814	30.43
480.168	30.25
480.521	30.34
480.875	30.3
481.228	30.42
481.582	30.61
481.935	30.63
482.289	30.66
482.642	30.45
482.995	30.65
483.348	30.38
483.701	30.49
484.055	30.53
484.408	30.46
484.761	30.3
485.114	30.11
485.466	29.79
485.819	29.91
486.172	29.91
486.525	29.77
486.878	29.89
487.23	30.09
487.583	30.4
487.936	30.49
488.288	30.68
488.641	30.49
488.993	30.37
489.345	30.4
489.698	30.33
490.05	30.38
490.402	30.36
490.754	30.66
491.107	30.72
491.459	30.88
491.811	31.08
492.163	31.34
492.515	31.28
492.866	31.17
493.218	31.06
493.57	30.98
493.922	30.94
494.274	30.9
494.625	31.06
494.977	31.35
495.328	31.68
495.68	31.91
496.031	31.96
496.383	31.91
496.734	32.3
497.086	32.18
497.437	32.4
497.788	32.42
498.139	32.34
498.49	32.15
498.842	32.35
499.193	32.34
499.544	32.23
499.894	32.44
500.245	32.58
500.596	32.53
500.947	32.62
501.298	32.7
501.648	32.73
501.999	32.75
502.35	32.98
502.7	33.03
503.051	32.95
503.401	33.2
503.752	33.14
504.102	33.25
504.452	33.41
504.803	33.56
505.153	33.39
505.503	33.52
505.853	33.38
506.203	33.42
506.553	33.44
506.903	33.19
507.253	33.48
507.603	33.42
507.953	33.62
508.303	33.67
508.652	33.65
509.002	33.8
509.352	33.9
509.701	33.78
510.051	33.81
510.4	33.79
510.75	33.68
511.099	33.87
511.449	33.92
511.798	34
512.147	34.04
512.496	34.05
512.846	34.06
513.195	34.34
513.544	34.13
513.893	34
514.242	34.19
514.591	34.15
514.939	34.18
515.288	34.38
515.637	34.36
515.986	34.4
516.334	34.77
516.683	34.91
517.032	34.73
517.38	34.55
517.729	34.86
518.077	35.01
518.426	34.75
518.774	34.88
519.122	35.12
519.47	34.85
519.819	34.79
520.167	34.85
520.515	34.56
520.863	34.58
521.211	34.79
521.559	34.78
521.907	34.79
522.255	34.91
522.602	35.07
522.95	35.5
523.298	35.49
523.645	35.52
523.993	35.57
524.341	35.41
524.688	35.72
525.036	35.54
525.383	35.65
525.73	35.84
526.078	35.96
526.425	35.63
526.772	35.66
527.119	35.58
527.466	35.52
527.814	35.45
528.161	35.33
528.508	35.32
528.854	35.61
529.201	35.47
529.548	35.4
529.895	35.52
530.242	35.17
530.588	35.16
530.935	35.24
531.282	35.08
531.628	35.12
531.975	35.24
532.321	35.48
532.667	35.82
533.014	35.79
533.36	35.99
533.706	36.19
534.052	36.15
534.399	36.12
534.745	36.13
535.091	35.94
535.437	35.96
535.783	35.95
536.129	35.95
536.474	36.17
536.82	36.36
537.166	36.51
537.512	36.59
537.857	36.85
538.203	36.72
538.549	36.56
538.894	36.53
539.239	36.62
539.585	36.69
539.93	36.9
540.276	37.16
540.621	37.24
540.966	37.57
541.311	37.48
541.656	37.32
542.001	37.58
542.346	37.21
542.691	37.21
543.036	36.9
543.381	36.65
543.726	36.73
544.071	36.77
544.415	36.83
544.76	36.96
545.105	37.21
545.449	37.29
545.794	37.39
546.138	37.49
546.483	37.49
546.827	37.73
547.171	37.71
547.516	38.01
547.86	37.85
548.204	38.12
548.548	37.95
548.892	37.68
549.236	37.84
549.58	38.04
549.924	38.11
550.268	38.31
550.612	38.58
550.956	38.56
551.3	38.41
551.643	38.66
551.987	38.82
552.33	38.77
552.674	39.14
553.017	38.94
553.361	39
553.704	39.03
554.048	39.23
554.391	38.84
554.734	39.05
555.077	38.93
555.42	39.05
555.764	39.14
556.107	39.16
556.45	39.34
556.793	39.4
557.135	39.3
557.478	39.62
557.821	39.64
558.164	39.95
558.507	39.66
558.849	39.48
559.192	39.64
559.534	39.69
559.877	39.82
560.219	39.61
560.562	39.82
560.904	39.7
561.246	39.83
561.589	39.94
561.931	40.09
562.273	39.86
562.615	39.79
562.957	40.07
563.299	40.09
563.641	40.06
563.983	40.38
564.325	40.11
564.667	40.35
565.008	40.26
565.35	40.54
565.692	40.47
566.033	40.62
566.375	40.38
566.716	40.46
567.058	40.23
567.399	40.66
567.741	40.41
568.082	40.52
568.423	40.5
568.764	40.47
569.105	40.47
569.447	40.47
569.788	40.54
570.129	40.76
570.47	40.6
570.811	40.72
571.151	40.86
571.492	41.24
571.833	40.99
572.174	40.9
572.514	41.21
572.855	40.97
573.195	41.1
573.536	40.96
573.876	41.03
574.217	41
574.557	41.18
574.898	41.16
575.238	41.39
575.578	41.34
575.918	41.28
576.258	41.4
576.598	41.28
576.938	41.52
577.278	41.54
577.618	41.55
577.958	41.57
578.298	41.7
578.638	41.6
578.977	41.52
579.317	41.72
579.657	41.81
579.996	41.96
580.336	42.06
580.675	41.87
581.014	42.15
581.354	41.99
581.693	42.62
582.032	41.99
582.372	42.36
582.711	42.19
583.05	42.43
583.389	42.17
583.728	42.39
584.067	42.52
584.406	42.41
584.745	42.56
585.083	42.58
585.422	42.54
585.761	42.67
586.1	42.6
586.438	42.61
586.777	43.14
587.115	42.83
587.454	43.11
587.792	42.77
588.13	43.11
588.469	42.95
588.807	43.03
589.145	43.07
589.483	43.06
589.821	42.89
590.159	43.14
590.497	42.99
590.835	43.06
591.173	43.27
591.511	43.41
591.849	43.57
592.187	43.14
592.524	43.47
592.862	43.55
593.2	43.4
593.537	43.41
593.875	42.92
594.212	43.34
594.55	43.39
594.887	43.68
595.224	43.65
595.561	43.79
595.899	43.33
596.236	44
596.573	43.74
596.91	43.68
597.247	43.7
597.584	43.38
597.921	43.57
598.258	43.57
598.594	43.64
598.931	43.42
599.268	43.48
599.604	43.56
599.941	43.65
600.277	43.51
600.614	43.73
600.95	43.84
601.287	44.01
601.623	44.16
601.959	44.05
602.296	44.35
602.632	43.95
602.968	44.45
603.304	43.99
603.64	44.43
603.976	44.41
604.312	44.54
604.648	44.31
604.984	44.62
605.319	44.4
605.655	44.24
605.991	44.09
606.326	44.39
606.662	44.31
606.998	44.02
607.333	44.33
607.668	44.32
608.004	44.17
608.339	44.54
608.674	44.56
609.01	45.01
609.345	44.96
609.68	44.64
610.015	44.98
610.35	44.73
610.685	44.99
611.02	44.96
611.355	45.12
611.689	44.7
612.024	44.65
612.359	44.87
612.694	44.76
613.028	45.39
613.363	45.08
613.697	45.32
614.032	45.29
614.366	45.36
614.7	45.02
615.035	45.42
615.369	45.74
615.703	45.63
616.037	45.36
616.371	45.59
616.705	45.83
617.039	45.95
617.373	45.83
617.707	45.57
618.041	46.08
618.375	46.04
618.709	45.8
619.042	46.24
619.376	45.94
619.71	45.94
620.043	45.95
620.377	46.24
620.71	46.38
621.043	45.88
621.377	45.51
621.71	46.43
622.043	46
622.376	46.28
622.709	46.01
623.043	45.86
623.376	45.89
623.709	46.44
624.041	46.67
624.374	45.97
624.707	46.53
625.04	47.05
625.373	46.36
625.705	46.43
626.038	46.93
626.37	46.42
626.703	46.88
627.035	46.94
627.368	46.94
627.7	46.56
628.032	46.64
628.365	47
628.697	47.54
629.029	46.63
629.361	46.75
629.693	46.55
630.025	46.8
630.357	46.79
630.689	46.7
631.021	46.75
631.353	46.71
631.684	47.07
632.016	46.9
632.348	47.24
632.679	47.34
633.011	46.94
633.342	46.78
633.674	47.71
634.005	47.81
634.336	47.28
634.668	47.41
634.999	47.5
635.33	46.93
635.661	47.46
635.992	47.5
636.323	47.19
636.654	47.32
636.985	47.81
637.316	47.45
637.647	47.51
637.977	46.93
638.308	48.05
638.639	47.55
638.969	47.91
639.3	47.93
639.63	47.74
639.961	48.03
640.291	48.42
640.622	47.67
640.952	48.33
641.282	48.06
641.612	48.46
641.943	48.25
642.273	47.84
642.603	47.76
642.933	47.71
643.263	48.49
643.592	48.09
643.922	47.65
644.252	47.51
644.582	47.83
644.911	48.42
645.241	48.19
645.571	48.3
645.9	48.41
646.23	48.32
646.559	48.38
646.888	48.56
647.218	48.64
647.547	48.71
647.876	48.76
648.205	48.18
648.534	49.14
648.863	48.83
649.192	49.06
649.521	48.36
649.85	48.48
650.179	48.83
650.508	48.78
650.837	48.71
651.165	48.88
651.494	48.88
651.822	48.53
652.151	49.09
652.479	48.85
652.808	48.81
653.136	49.14
653.465	48.71
653.793	49.02
654.121	49.37
654.449	49.31
654.777	49.35
655.105	48.87
655.433	49
655.761	49.37
656.089	50.29
656.417	49.47
656.745	49.29
657.073	49.28
657.4	49.71
657.728	49.52
658.056	49.27
658.383	48.74
658.711	49.07
659.038	49.29
659.365	49.95
659.693	49.66
660.02	48.62
660.347	49.61
660.674	49.85
661.001	49.92
661.329	49.78
661.656	49.82
661.982	49.81
662.309	49.76
662.636	49.74
662.963	49.53
663.29	49.47
663.616	49.33
663.943	49.16
664.27	49.62
664.596	49.84
664.923	49.76
665.249	49.98
665.576	50.11
665.902	50.6
666.228	50.02
666.554	50.55
666.881	49.32
667.207	50.36
667.533	50.41
667.859	50.7
668.185	50.27
668.511	50.34
668.837	50.16
669.162	50.47
669.488	49.87
669.814	50.49
