Data from 0360_chest_Reflection__2__33.txt Node

Date: Mon Dec 11 17:57:24 CST 2023
User: ToomeyLab
Spectrometer: FLMS14357
Trigger mode: 0
Integration Time (sec): 1.000000E-2
Scans to average: 100
Electric dark correction enabled: true
Nonlinearity correction enabled: false
Boxcar width: 0
XAxis mode: Wavelengths
Number of Pixels in Spectrum: 2048
>>>>>Begin Spectral Data<<<<<
189.047	-16.51
189.435	-16.51
189.823	-16.51
190.211	-143.68
190.599	61.25
190.987	26.45
191.375	-20.06
191.763	179.75
192.151	-194.48
192.538	97.2
192.926	80.6
193.314	-114.72
193.702	106.64
194.089	-46.14
194.477	34.44
194.864	89.82
195.252	114.73
195.639	-69.7
196.027	13.7
196.414	-707.44
196.801	7.05
197.189	-262.22
197.576	197.81
197.963	-65.57
198.351	-53.77
198.738	9.29
199.125	-20.82
199.512	-24.13
199.899	0.31
200.286	15.38
200.673	-148.3
201.06	-11.16
201.447	-11.41
201.833	21.85
202.22	15.2
202.607	39.21
202.994	-18.62
203.38	-25.17
203.767	25.97
204.154	37.52
204.54	21.5
204.927	12.54
205.313	15.75
205.699	-43.94
206.086	8.84
206.472	12.93
206.858	-0.43
207.245	25.14
207.631	-24.68
208.017	-11.54
208.403	-3.9
208.789	-31.13
209.175	25.47
209.561	-26.94
209.947	8.84
210.333	33.45
210.719	22.86
211.105	-5.23
211.491	10.99
211.876	6.56
212.262	-1.52
212.648	2.78
213.034	6.01
213.419	-27.06
213.805	-20.88
214.19	-2.53
214.576	5.61
214.961	-1.9
215.346	9.76
215.732	-20.07
216.117	11.76
216.502	-4.4
216.888	14.21
217.273	9.59
217.658	-1.38
218.043	6.5
218.428	15
218.813	-7.25
219.198	-1.29
219.583	11.66
219.968	-5.82
220.353	-28.01
220.738	21.23
221.122	8.46
221.507	21.12
221.892	-0.47
222.276	11.14
222.661	-7.56
223.046	-12.05
223.43	12.93
223.815	-5.08
224.199	4.34
224.583	-0.48
224.968	4.85
225.352	7.92
225.736	9.23
226.121	0.34
226.505	-6.18
226.889	3.92
227.273	4.42
227.657	1.63
228.041	0.44
228.425	-1.96
228.809	-0.4
229.193	1.73
229.577	4.37
229.961	3.42
230.344	3.19
230.728	2.66
231.112	2.72
231.495	2.88
231.879	1.65
232.263	0.72
232.646	2.15
233.03	2.87
233.413	2.32
233.797	2.72
234.18	1.45
234.563	1.49
234.946	2.43
235.33	3.85
235.713	3.1
236.096	2.34
236.479	3.82
236.862	1.02
237.245	1.37
237.628	3.15
238.011	2.51
238.394	1.72
238.777	1.74
239.16	1.92
239.543	3.05
239.925	1.59
240.308	1.69
240.691	2.28
241.073	2.73
241.456	3.6
241.838	4.19
242.221	3.77
242.603	2.07
242.986	2.04
243.368	1.66
243.75	2.07
244.133	2.47
244.515	1.81
244.897	1.99
245.279	2.31
245.661	2.04
246.043	2.85
246.425	2.39
246.807	2.47
247.189	2.27
247.571	2.36
247.953	1.84
248.335	2.36
248.717	2.44
249.098	2.23
249.48	2.11
249.862	2.39
250.243	2.35
250.625	2.26
251.006	1.96
251.388	2.81
251.769	2.42
252.151	3.44
252.532	1.61
252.913	2.06
253.295	3.66
253.676	2.06
254.057	1.94
254.438	2.07
254.819	2.03
255.2	0.98
255.581	1.44
255.962	2.27
256.343	2.5
256.724	2.03
257.105	1.49
257.486	1.38
257.867	2.5
258.247	2.14
258.628	2
259.009	3.2
259.389	2.49
259.77	2.46
260.15	1.98
260.531	2.16
260.911	1.53
261.292	1.88
261.672	2.16
262.052	1.96
262.432	2.13
262.813	2.01
263.193	2.24
263.573	1.76
263.953	1.92
264.333	2.31
264.713	2.27
265.093	1.58
265.473	2.6
265.853	2.14
266.233	1.55
266.612	1.68
266.992	2.57
267.372	2.64
267.752	3.12
268.131	2.09
268.511	1.89
268.89	2.32
269.27	2.36
269.649	2.07
270.029	2.34
270.408	2.06
270.787	2.17
271.167	1.26
271.546	2.41
271.925	2.2
272.304	1.73
272.683	2.15
273.062	1.84
273.441	1.96
273.82	1.6
274.199	2.46
274.578	2.04
274.957	2.38
275.336	1.91
275.715	1.66
276.093	2.7
276.472	2.22
276.851	2.31
277.229	2.36
277.608	2.09
277.986	2.19
278.365	1.88
278.743	2.36
279.122	2.04
279.5	2.21
279.878	1.87
280.257	1.61
280.635	2.33
281.013	1.62
281.391	1.73
281.769	1.89
282.147	1.61
282.525	1.38
282.903	1.85
283.281	1.73
283.659	1.99
284.037	1.75
284.415	1.77
284.792	2.22
285.17	1.83
285.548	1.6
285.925	1.57
286.303	1.9
286.68	1.92
287.058	1.84
287.435	2.01
287.813	2.18
288.19	1.66
288.567	1.88
288.945	2.13
289.322	1.74
289.699	1.67
290.076	2.07
290.453	1.87
290.83	2.61
291.207	2.02
291.584	1.82
291.961	1.82
292.338	2.04
292.715	2.42
293.092	2.04
293.469	2.07
293.845	1.84
294.222	2.37
294.599	1.79
294.975	2.06
295.352	1.59
295.728	2.18
296.105	2.32
296.481	1.87
296.858	2.11
297.234	2.21
297.61	2.42
297.986	2.2
298.363	1.85
298.739	1.98
299.115	1.88
299.491	2.18
299.867	1.83
300.243	2.22
300.619	2.13
300.995	1.45
301.371	1.76
301.746	1.57
302.122	2.06
302.498	2.24
302.874	2.16
303.249	2.1
303.625	2.02
304	2.32
304.376	2.15
304.751	1.62
305.127	2.2
305.502	2.29
305.878	2.19
306.253	2.37
306.628	2.27
307.003	2.13
307.378	1.75
307.754	2.38
308.129	2.14
308.504	2.16
308.879	1.96
309.254	2.31
309.629	2.24
310.003	2.33
310.378	2.07
310.753	2.3
311.128	2.13
311.502	1.8
311.877	2.36
312.252	2.17
312.626	2.33
313.001	2.17
313.375	1.87
313.75	1.67
314.124	2.25
314.498	2.29
314.873	2.04
315.247	2.05
315.621	2.76
315.995	2.51
316.369	1.69
316.743	2.72
317.117	2.43
317.491	2.4
317.865	2.28
318.239	2.13
318.613	2.34
318.987	1.92
319.361	2.62
319.734	2.62
320.108	1.83
320.482	2.03
320.855	2.49
321.229	1.75
321.602	2.04
321.976	2.6
322.349	1.91
322.723	1.39
323.096	2.69
323.469	2.77
323.843	2.74
324.216	2.64
324.589	2.53
324.962	1.73
325.335	1.97
325.708	1.84
326.081	2.46
326.454	2.36
326.827	2.02
327.2	1.67
327.573	1.71
327.945	3.21
328.318	2.1
328.691	2.24
329.063	2.45
329.436	2.26
329.809	1.98
330.181	2.88
330.553	2.38
330.926	2.21
331.298	2.73
331.671	1.73
332.043	2.51
332.415	2.37
332.787	2.74
333.159	1.95
333.532	2.16
333.904	2.49
334.276	2.27
334.648	2.66
335.02	2.13
335.391	1.8
335.763	2.64
336.135	2.36
336.507	2.36
336.879	2.69
337.25	2.64
337.622	1.93
337.993	2.51
338.365	2.59
338.736	2.56
339.108	2.61
339.479	2.5
339.851	2.5
340.222	2.26
340.593	2.1
340.964	2.33
341.336	2.55
341.707	2.28
342.078	2.89
342.449	2.59
342.82	2.32
343.191	2.52
343.562	2.13
343.933	2.09
344.303	1.96
344.674	2.63
345.045	2.32
345.416	1.92
345.786	2.45
346.157	2.37
346.527	2.5
346.898	2.5
347.268	2.46
347.639	2.41
348.009	2.6
348.38	2.15
348.75	1.78
349.12	2.67
349.49	2.29
349.861	1.83
350.231	2.35
350.601	3.02
350.971	2.77
351.341	1.79
351.711	2.58
352.081	2.06
352.45	2.33
352.82	2.04
353.19	2.75
353.56	2.5
353.929	2.38
354.299	2.41
354.669	2.66
355.038	2.36
355.408	2.38
355.777	2.15
356.147	2.69
356.516	2.34
356.885	2.38
357.254	2.13
357.624	2.8
357.993	2.46
358.362	2.58
358.731	2.19
359.1	2.32
359.469	2.32
359.838	2.43
360.207	2.3
360.576	2.38
360.945	2.93
361.314	2.76
361.682	2.05
362.051	2.45
362.42	2.35
362.788	1.94
363.157	2.24
363.525	2.28
363.894	2.49
364.262	2.43
364.631	2.69
364.999	2.25
365.367	2.37
365.735	2.27
366.104	2.29
366.472	2.51
366.84	2.04
367.208	2.46
367.576	2.64
367.944	2.74
368.312	2.39
368.68	2.51
369.048	2.58
369.416	2.09
369.783	2.56
370.151	2.51
370.519	2.92
370.886	2.73
371.254	2.66
371.621	2.87
371.989	2.82
372.356	2.81
372.724	2.68
373.091	2.91
373.458	2.55
373.826	2.32
374.193	2.2
374.56	2.74
374.927	2.63
375.294	2.64
375.661	2.48
376.028	2.92
376.395	2.64
376.762	2.79
377.129	2.69
377.496	2.26
377.863	2.58
378.229	2.39
378.596	2.58
378.963	2.71
379.329	2.29
379.696	2.62
380.062	2.24
380.429	2.27
380.795	2.64
381.161	2.67
381.528	2.75
381.894	2.68
382.26	2.72
382.626	2.32
382.993	2.64
383.359	2.59
383.725	2.4
384.091	2.68
384.457	2.25
384.823	2.84
385.188	2.46
385.554	2.31
385.92	2.43
386.286	2.55
386.651	2.44
387.017	2.39
387.383	2.56
387.748	2.66
388.114	2.39
388.479	2.61
388.845	2.44
389.21	2.37
389.575	2.68
389.94	2.5
390.306	2.57
390.671	2.67
391.036	2.53
391.401	2.63
391.766	2.55
392.131	2.67
392.496	2.86
392.861	3.03
393.226	2.75
393.591	2.68
393.956	2.39
394.32	2.8
394.685	2.6
395.05	2.45
395.414	2.82
395.779	2.46
396.143	2.7
396.508	2.42
396.872	2.29
397.236	2.8
397.601	2.55
397.965	2.53
398.329	2.64
398.694	2.66
399.058	2.74
399.422	2.62
399.786	2.72
400.15	2.76
400.514	2.95
400.878	2.69
401.242	2.47
401.605	2.88
401.969	2.37
402.333	2.64
402.697	2.57
403.06	2.59
403.424	2.65
403.787	2.92
404.151	2.52
404.514	2.35
404.878	2.63
405.241	2.62
405.604	2.48
405.968	2.51
406.331	2.44
406.694	2.46
407.057	2.45
407.42	2.72
407.783	2.48
408.146	2.73
408.509	2.72
408.872	2.53
409.235	2.71
409.598	2.62
409.961	2.6
410.323	2.67
410.686	2.59
411.049	2.7
411.411	2.5
411.774	2.84
412.136	2.47
412.499	2.88
412.861	2.76
413.223	2.54
413.586	2.63
413.948	2.79
414.31	2.62
414.672	2.47
415.035	2.47
415.397	2.59
415.759	2.8
416.121	2.82
416.483	2.57
416.845	2.68
417.206	2.7
417.568	2.84
417.93	2.86
418.292	2.57
418.653	2.59
419.015	2.74
419.377	2.75
419.738	2.68
420.1	2.6
420.461	2.68
420.822	2.47
421.184	2.62
421.545	2.53
421.906	2.63
422.267	2.74
422.629	2.61
422.99	2.66
423.351	2.54
423.712	2.58
424.073	2.67
424.434	2.6
424.795	2.68
425.155	2.59
425.516	2.58
425.877	2.53
426.238	2.63
426.598	2.64
426.959	2.62
427.32	2.61
427.68	2.76
428.041	2.63
428.401	2.61
428.761	2.59
429.122	2.54
429.482	2.61
429.842	2.74
430.202	2.52
430.563	2.55
430.923	2.74
431.283	2.6
431.643	2.82
432.003	2.82
432.363	2.74
432.722	2.63
433.082	2.73
433.442	2.67
433.802	2.64
434.161	3.08
434.521	2.54
434.881	2.82
435.24	2.58
435.6	2.71
435.959	2.56
436.319	2.68
436.678	2.63
437.037	2.79
437.396	2.76
437.756	2.79
438.115	2.84
438.474	2.84
438.833	2.82
439.192	2.72
439.551	2.86
439.91	2.75
440.269	2.86
440.628	2.54
440.987	2.83
441.345	2.8
441.704	2.81
442.063	2.7
442.421	2.75
442.78	2.75
443.138	2.72
443.497	2.65
443.855	2.71
444.214	2.86
444.572	2.6
444.93	2.75
445.288	2.76
445.647	2.88
446.005	2.7
446.363	2.78
446.721	2.76
447.079	2.71
447.437	2.73
447.795	2.66
448.153	2.74
448.51	2.77
448.868	2.56
449.226	2.65
449.584	2.68
449.941	2.87
450.299	2.7
450.656	2.72
451.014	2.88
451.371	2.64
451.729	2.98
452.086	2.81
452.443	2.95
452.801	2.77
453.158	2.8
453.515	2.69
453.872	2.89
454.229	2.91
454.586	2.78
454.943	2.83
455.3	2.91
455.657	2.82
456.014	2.85
456.371	2.88
456.727	2.88
457.084	2.87
457.441	2.96
457.797	2.69
458.154	2.76
458.51	2.91
458.867	2.8
459.223	2.7
459.58	2.77
459.936	2.76
460.292	2.8
460.648	2.97
461.005	2.84
461.361	2.84
461.717	2.83
462.073	2.87
462.429	2.91
462.785	2.74
463.141	2.82
463.496	2.91
463.852	2.8
464.208	2.81
464.564	2.83
464.919	2.85
465.275	2.83
465.631	2.78
465.986	3.04
466.342	2.96
466.697	2.85
467.052	2.84
467.408	3.03
467.763	2.98
468.118	2.81
468.473	2.91
468.829	2.9
469.184	3.02
469.539	2.92
469.894	2.8
470.249	3.01
470.603	2.81
470.958	2.99
471.313	2.98
471.668	3.08
472.023	3.02
472.377	2.82
472.732	2.78
473.086	3.14
473.441	2.83
473.795	2.84
474.15	2.85
474.504	2.92
474.859	2.88
475.213	2.95
475.567	3.12
475.921	2.95
476.275	2.95
476.63	2.93
476.984	2.96
477.338	2.86
477.692	2.93
478.045	3.02
478.399	2.84
478.753	2.72
479.107	2.8
479.461	2.95
479.814	2.93
480.168	3.02
480.521	3.03
480.875	2.93
481.228	2.93
481.582	3.23
481.935	3.09
482.289	2.97
482.642	3.02
482.995	2.95
483.348	2.95
483.701	2.93
484.055	2.95
484.408	2.92
484.761	2.95
485.114	2.83
485.466	2.81
485.819	2.76
486.172	2.8
486.525	2.82
486.878	2.83
487.23	2.9
487.583	2.94
487.936	2.91
488.288	3.04
488.641	2.85
488.993	2.83
489.345	2.98
489.698	2.84
490.05	2.87
490.402	2.85
490.754	2.92
491.107	2.92
491.459	2.93
491.811	3.03
492.163	3.05
492.515	2.98
492.866	3.02
493.218	2.86
493.57	2.87
493.922	2.89
494.274	2.95
494.625	3.04
494.977	3.08
495.328	3.05
495.68	3.16
496.031	3.15
496.383	3.01
496.734	3.2
497.086	3.01
497.437	3.11
497.788	3.2
498.139	2.98
498.49	3.16
498.842	3.25
499.193	3.13
499.544	3.12
499.894	3.06
500.245	3.19
500.596	3.27
500.947	3.11
501.298	3.21
501.648	3.04
501.999	3.05
502.35	3.21
502.7	3.14
503.051	3.02
503.401	3.17
503.752	3.18
504.102	3.08
504.452	3.12
504.803	3.38
505.153	3.33
505.503	3.26
505.853	3.35
506.203	3.15
506.553	3.28
506.903	3.16
507.253	3.22
507.603	3.22
507.953	3.32
508.303	3.08
508.652	3.22
509.002	3.3
509.352	3.32
509.701	3.22
510.051	3.2
510.4	3.1
510.75	3.17
511.099	3.14
511.449	3.33
511.798	3.3
512.147	3.31
512.496	3.25
512.846	3.27
513.195	3.38
513.544	3.3
513.893	3.19
514.242	3.23
514.591	3.24
514.939	3.19
515.288	3.38
515.637	3.26
515.986	3.24
516.334	3.31
516.683	3.39
517.032	3.29
517.38	3.3
517.729	3.29
518.077	3.41
518.426	3.44
518.774	3.42
519.122	3.31
519.47	3.3
519.819	3.29
520.167	3.26
520.515	3.28
520.863	3.29
521.211	3.39
521.559	3.28
521.907	3.39
522.255	3.38
522.602	3.36
522.95	3.51
523.298	3.39
523.645	3.52
523.993	3.37
524.341	3.52
524.688	3.41
525.036	3.41
525.383	3.43
525.73	3.58
526.078	3.57
526.425	3.4
526.772	3.32
527.119	3.51
527.466	3.43
527.814	3.41
528.161	3.36
528.508	3.45
528.854	3.37
529.201	3.39
529.548	3.46
529.895	3.34
530.242	3.36
530.588	3.31
530.935	3.33
531.282	3.38
531.628	3.35
531.975	3.38
532.321	3.44
532.667	3.43
533.014	3.45
533.36	3.48
533.706	3.55
534.052	3.54
534.399	3.55
534.745	3.47
535.091	3.44
535.437	3.44
535.783	3.5
536.129	3.57
536.474	3.61
536.82	3.56
537.166	3.6
537.512	3.54
537.857	3.73
538.203	3.56
538.549	3.69
538.894	3.62
539.239	3.68
539.585	3.66
539.93	3.61
540.276	3.69
540.621	3.69
540.966	3.76
541.311	3.67
541.656	3.72
542.001	3.8
542.346	3.79
542.691	3.67
543.036	3.67
543.381	3.55
543.726	3.63
544.071	3.65
544.415	3.67
544.76	3.71
545.105	3.75
545.449	3.73
545.794	3.67
546.138	3.73
546.483	3.76
546.827	3.92
547.171	3.71
547.516	3.83
547.86	3.94
548.204	3.93
548.548	3.82
548.892	3.83
549.236	3.84
549.58	4.02
549.924	3.99
550.268	3.92
550.612	3.9
550.956	3.88
551.3	4
551.643	4.02
551.987	4.22
552.33	4.14
552.674	4.31
553.017	4.08
553.361	3.96
553.704	3.96
554.048	4.06
554.391	4.04
554.734	4.05
555.077	4.12
555.42	4.29
555.764	4.05
556.107	4.22
556.45	4.06
556.793	4.06
557.135	4.11
557.478	4.21
557.821	4.1
558.164	4.45
558.507	4.05
558.849	4.25
559.192	4.18
559.534	4.15
559.877	4.34
560.219	4.25
560.562	4.48
560.904	4.19
561.246	4.45
561.589	4.35
561.931	4.31
562.273	4.21
562.615	4.41
562.957	4.26
563.299	4.54
563.641	4.21
563.983	4.53
564.325	4.52
564.667	4.65
565.008	4.46
565.35	4.7
565.692	4.47
566.033	4.44
566.375	4.73
566.716	4.57
567.058	4.67
567.399	4.72
567.741	4.45
568.082	4.59
568.423	4.54
568.764	4.57
569.105	4.51
569.447	4.42
569.788	4.5
570.129	4.49
570.47	4.47
570.811	4.59
571.151	4.68
571.492	4.8
571.833	4.64
572.174	4.87
572.514	4.81
572.855	4.64
573.195	4.8
573.536	4.68
573.876	4.72
574.217	4.72
574.557	4.61
574.898	4.83
575.238	4.94
575.578	4.87
575.918	4.96
576.258	5.01
576.598	4.94
576.938	4.94
577.278	5.03
577.618	4.87
577.958	4.9
578.298	5.09
578.638	5.09
578.977	5.18
579.317	4.93
579.657	4.98
579.996	5
580.336	5.15
580.675	5.17
581.014	5.09
581.354	4.96
581.693	5.11
582.032	4.91
582.372	5.34
582.711	5.19
583.05	5.26
583.389	5.15
583.728	5.2
584.067	5.09
584.406	5.09
584.745	5.35
585.083	5.32
585.422	5.65
585.761	5.3
586.1	5.26
586.438	5.22
586.777	5.38
587.115	5.16
587.454	5.37
587.792	5.41
588.13	5.74
588.469	5.52
588.807	5.47
589.145	5.96
589.483	5.71
589.821	5.6
590.159	5.65
590.497	5.38
590.835	5.84
591.173	5.55
591.511	5.67
591.849	5.44
592.187	5.59
592.524	5.94
592.862	5.62
593.2	5.44
593.537	5.74
593.875	5.73
594.212	5.77
594.55	5.77
594.887	5.97
595.224	5.74
595.561	5.86
595.899	5.58
596.236	5.75
596.573	5.81
596.91	5.73
597.247	5.96
597.584	5.75
597.921	5.86
598.258	5.81
598.594	5.76
598.931	5.79
599.268	6
599.604	5.85
599.941	6.13
600.277	6
600.614	6.17
600.95	5.9
601.287	6
601.623	6.1
601.959	6.05
602.296	6.13
602.632	6.07
602.968	5.97
603.304	6.32
603.64	6.31
603.976	6.29
604.312	6.35
604.648	6.3
604.984	6.43
605.319	6.31
605.655	6.38
605.991	6.16
606.326	6.33
606.662	6.14
606.998	6.21
607.333	6.25
607.668	6.34
608.004	6.32
608.339	6.57
608.674	6.66
609.01	6.57
609.345	6.37
609.68	6.48
610.015	6.48
610.35	6.74
610.685	6.62
611.02	6.5
611.355	6.71
611.689	6.74
612.024	6.5
612.359	6.83
612.694	6.74
613.028	6.81
613.363	6.67
613.697	6.73
614.032	6.91
614.366	6.95
614.7	6.59
615.035	6.77
615.369	7.04
615.703	7.1
616.037	7.29
616.371	7.18
616.705	6.96
617.039	7.34
617.373	7.14
617.707	7.23
618.041	7.27
618.375	7.22
618.709	7.1
619.042	6.98
619.376	7.44
619.71	7.26
620.043	6.83
620.377	7.16
620.71	7.14
621.043	6.97
621.377	6.87
621.71	7.28
622.043	7.19
622.376	7.19
622.709	7.32
623.043	7.41
623.376	7.51
623.709	7.56
624.041	7.6
624.374	7.23
624.707	7.1
625.04	7.57
625.373	7.5
625.705	7.66
626.038	7.8
626.37	7.71
626.703	7.81
627.035	7.48
627.368	7.74
627.7	7.34
628.032	7.63
628.365	7.93
628.697	7.89
629.029	7.82
629.361	7.63
629.693	7.88
630.025	7.58
630.357	7.88
630.689	7.78
631.021	7.99
631.353	7.78
631.684	7.87
632.016	7.86
632.348	8.1
632.679	8.3
633.011	7.88
633.342	8.23
633.674	8.45
634.005	8.54
634.336	8.23
634.668	8.39
634.999	8.45
635.33	7.79
635.661	8.47
635.992	8.42
636.323	8.29
636.654	8.33
636.985	7.8
637.316	8.07
637.647	8.55
637.977	8.49
638.308	8.28
638.639	8.1
638.969	8.42
639.3	8.82
639.63	8.75
639.961	8.67
640.291	8.97
640.622	8.84
640.952	8.9
641.282	8.25
641.612	8.78
641.943	8.74
642.273	8.23
642.603	8.74
642.933	8.58
643.263	8.55
643.592	8.7
643.922	8.91
644.252	8.51
644.582	9.04
644.911	8.52
645.241	8.81
645.571	8.92
645.9	8.64
646.23	9.02
646.559	8.62
646.888	9.01
647.218	9.43
647.547	8.97
647.876	9.37
648.205	8.86
648.534	9.25
648.863	9.32
649.192	9.52
649.521	9.56
649.85	8.61
650.179	9.07
650.508	9.44
650.837	9.01
651.165	9.33
651.494	9.28
651.822	9.51
652.151	9.87
652.479	9.93
652.808	9.77
653.136	9.62
653.465	9.57
653.793	9.47
654.121	9.9
654.449	9.61
654.777	9.94
655.105	9.48
655.433	9.48
655.761	9.28
656.089	9.8
656.417	9.85
656.745	9.82
657.073	9.99
657.4	10.03
657.728	10.08
658.056	9.96
658.383	9.61
658.711	10.26
659.038	10.54
659.365	10.38
659.693	10.29
660.02	9.95
660.347	9.94
660.674	10.14
661.001	9.88
661.329	10.15
661.656	10.29
661.982	9.76
662.309	10.43
662.636	9.98
662.963	10.31
663.29	10.04
663.616	9.88
663.943	9.73
664.27	10.14
664.596	10.79
664.923	10.56
665.249	10.69
665.576	10.34
665.902	10.28
666.228	10.46
666.554	10.52
666.881	10.56
667.207	11.46
667.533	10.43
667.859	10.6
668.185	10.82
668.511	11.77
668.837	11.32
669.162	11.18
669.488	11.42
669.814	10.72
670.139	10.61
670.465	11.1
670.791	11.35
671.116	11.1
671.442	11.29
671.767	11.36
672.092	11.39
672.418	10.82
672.743	11.05
673.068	11.4
673.393	11.54
673.718	10.8
674.043	11.56
674.368	11.15
674.693	11.54
675.018	11.26
675.343	11.64
675.667	11.55
675.992	11.38
676.317	11.52
676.641	11.86
676.966	12.11
677.29	10.78
677.615	12.07
677.939	10.99
678.264	11.21
678.588	12.1
678.912	11.01
679.236	11.94
679.56	12.09
679.885	11.94
680.209	11.56
680.532	12.23
680.856	12.42
681.18	11.62
681.504	11.26
681.828	11.81
682.152	11.43
682.475	12.34
682.799	12.06
683.122	12.09
683.446	11.7
683.769	11.93
684.093	12.03
684.416	12.48
684.739	12.31
685.062	12.77
685.386	12.36
685.709	11.82
686.032	12.15
686.355	12.32
686.678	12.51
687.001	12.89
687.324	11.47
687.646	11.25
687.969	12.52
688.292	12.96
688.614	12.54
688.937	12.32
689.26	13.1
689.582	12.52
689.904	12.48
