Data from 0360_crown_Reflection__2__38.txt Node

Date: Mon Dec 11 18:00:42 CST 2023
User: ToomeyLab
Spectrometer: FLMS14357
Trigger mode: 0
Integration Time (sec): 1.000000E-2
Scans to average: 100
Electric dark correction enabled: true
Nonlinearity correction enabled: false
Boxcar width: 0
XAxis mode: Wavelengths
Number of Pixels in Spectrum: 2048
>>>>>Begin Spectral Data<<<<<
189.047	48.98
189.435	48.98
189.823	48.98
190.211	-327.09
190.599	-27.48
190.987	-22.43
191.375	89.83
191.763	191.52
192.151	-48.63
192.538	117.21
192.926	259.1
193.314	-22.93
193.702	202.57
194.089	-382.26
194.477	138.1
194.864	29.49
195.252	-29.47
195.639	-609.29
196.027	106.52
196.414	-102.64
196.801	169.45
197.189	-111.36
197.576	117.49
197.963	46.12
198.351	19.78
198.738	-6.65
199.125	-36.72
199.512	-38.36
199.899	-28.66
200.286	24.28
200.673	-103.65
201.06	32.57
201.447	1.37
201.833	52.85
202.22	44.15
202.607	2.46
202.994	-20.24
203.38	-6.25
203.767	39.33
204.154	43.81
204.54	9.52
204.927	-11.71
205.313	-11.42
205.699	-22.21
206.086	-63.66
206.472	-5.11
206.858	2.62
207.245	-3.36
207.631	16.63
208.017	26.55
208.403	33.84
208.789	-31.32
209.175	18.88
209.561	15.23
209.947	-3.24
210.333	5.67
210.719	20.11
211.105	28.8
211.491	14.69
211.876	29.77
212.262	-12.87
212.648	0.41
213.034	-6.91
213.419	-10.98
213.805	-24.43
214.19	33.16
214.576	11.43
214.961	-0.8
215.346	-4.25
215.732	11.37
216.117	-5.35
216.502	1.88
216.888	-7.32
217.273	12.35
217.658	-4.7
218.043	1.72
218.428	3.87
218.813	8.11
219.198	-1.89
219.583	6.48
219.968	5.92
220.353	-14.57
220.738	14.87
221.122	-6.02
221.507	20.62
221.892	7.92
222.276	5.05
222.661	-5.01
223.046	-4.2
223.43	14.64
223.815	6.18
224.199	6.51
224.583	4.38
224.968	-4.01
225.352	3.01
225.736	4.62
226.121	0.85
226.505	-7.06
226.889	8.21
227.273	1.63
227.657	11.44
228.041	3.7
228.425	-0.17
228.809	2.25
229.193	1.4
229.577	4.57
229.961	2.86
230.344	4.11
230.728	3.95
231.112	3.77
231.495	4.7
231.879	4.62
232.263	1.84
232.646	4.59
233.03	2.73
233.413	4.07
233.797	5.05
234.18	2.56
234.563	2.62
234.946	4.49
235.33	5.36
235.713	3.82
236.096	4.58
236.479	4.38
236.862	2.27
237.245	4
237.628	4.17
238.011	4.18
238.394	4.24
238.777	4.58
239.16	3.95
239.543	4.22
239.925	2.1
240.308	3.14
240.691	3.58
241.073	5.62
241.456	3.55
241.838	4.76
242.221	4.21
242.603	2.77
242.986	3.42
243.368	3.91
243.75	3.87
244.133	3.78
244.515	3.71
244.897	3.47
245.279	3.48
245.661	2.98
246.043	3.14
246.425	4.1
246.807	3.67
247.189	4.29
247.571	4.03
247.953	3.02
248.335	4.01
248.717	3.65
249.098	3.61
249.48	3.56
249.862	3.73
250.243	3.49
250.625	3.6
251.006	3.78
251.388	3.72
251.769	4.01
252.151	3.95
252.532	3.23
252.913	3.87
253.295	4.22
253.676	3.65
254.057	3.34
254.438	3.47
254.819	3.27
255.2	2.14
255.581	3.35
255.962	3.36
256.343	2.73
256.724	3.97
257.105	3.65
257.486	2.83
257.867	4.86
258.247	3.18
258.628	3.65
259.009	4.48
259.389	3.56
259.77	3.62
260.15	3.36
260.531	3.53
260.911	2.96
261.292	3.36
261.672	3.13
262.052	3.27
262.432	3.36
262.813	3.41
263.193	3.1
263.573	3.25
263.953	2.84
264.333	3.08
264.713	3.51
265.093	3.37
265.473	3.93
265.853	3.06
266.233	3.15
266.612	4.18
266.992	3.44
267.372	4.54
267.752	3.6
268.131	3.59
268.511	2.89
268.89	3.48
269.27	3.48
269.649	3.48
270.029	3.35
270.408	3.22
270.787	2.57
271.167	2.35
271.546	3.66
271.925	3.02
272.304	3.15
272.683	2.98
273.062	2.82
273.441	3.53
273.82	3.12
274.199	3.23
274.578	3.28
274.957	3.58
275.336	3.31
275.715	3.22
276.093	4.05
276.472	3.36
276.851	3.8
277.229	3.34
277.608	3.45
277.986	3.85
278.365	2.87
278.743	3.35
279.122	3.63
279.5	2.94
279.878	3.25
280.257	3.23
280.635	3.22
281.013	3.21
281.391	3.39
281.769	3.23
282.147	3.03
282.525	2.78
282.903	2.64
283.281	2.93
283.659	3.13
284.037	3.11
284.415	3.33
284.792	3.49
285.17	3.2
285.548	3.2
285.925	2.81
286.303	3.22
286.68	3.14
287.058	3.3
287.435	3.11
287.813	3.48
288.19	2.94
288.567	2.98
288.945	3.19
289.322	3.13
289.699	3.05
290.076	2.83
290.453	3.36
290.83	3.47
291.207	3.16
291.584	3.13
291.961	3.22
292.338	3.08
292.715	3.33
293.092	3.12
293.469	3.11
293.845	3.34
294.222	3.57
294.599	3.19
294.975	2.49
295.352	2.95
295.728	3.15
296.105	2.83
296.481	2.96
296.858	3.28
297.234	3.38
297.61	3.24
297.986	3.31
298.363	2.96
298.739	3.15
299.115	2.9
299.491	3.18
299.867	3.05
300.243	3.01
300.619	3.23
300.995	2.87
301.371	2.99
301.746	2.83
302.122	2.79
302.498	3.31
302.874	3.23
303.249	3.35
303.625	2.8
304	3.49
304.376	3.38
304.751	3.16
305.127	2.89
305.502	3.12
305.878	3.42
306.253	3.37
306.628	3.67
307.003	3.56
307.378	2.63
307.754	3.19
308.129	3.24
308.504	2.45
308.879	3.4
309.254	3.34
309.629	3.24
310.003	3.17
310.378	2.69
310.753	3.63
311.128	3.39
311.502	2.56
311.877	2.93
312.252	3.36
312.626	3.24
313.001	3.06
313.375	2.64
313.75	2.86
314.124	3.04
314.498	2.84
314.873	2.73
315.247	2.78
315.621	3.46
315.995	3.41
316.369	3.06
316.743	2.98
317.117	3.27
317.491	3.14
317.865	3.04
318.239	3.13
318.613	3.4
318.987	3.23
319.361	3.31
319.734	2.93
320.108	3.08
320.482	2.28
320.855	2.62
321.229	3.26
321.602	2.85
321.976	3.95
322.349	2.78
322.723	2.78
323.096	3.14
323.469	3.57
323.843	3.01
324.216	3.62
324.589	3.53
324.962	2.49
325.335	2.91
325.708	3.03
326.081	3.35
326.454	3.37
326.827	3.38
327.2	2.89
327.573	3.48
327.945	3.39
328.318	3.07
328.691	2.95
329.063	3.05
329.436	3.05
329.809	2.46
330.181	3.18
330.553	3.17
330.926	2.85
331.298	3.18
331.671	3.21
332.043	3.03
332.415	3.3
332.787	3.47
333.159	2.95
333.532	2.82
333.904	3.39
334.276	3.34
334.648	3.65
335.02	2.86
335.391	2.98
335.763	3.11
336.135	3.06
336.507	3.23
336.879	3.85
337.25	3.37
337.622	2.68
337.993	3.41
338.365	2.77
338.736	3.3
339.108	3.7
339.479	3.07
339.851	3.07
340.222	3.44
340.593	3.11
340.964	3.25
341.336	2.98
341.707	2.67
342.078	3.16
342.449	2.9
342.82	3.23
343.191	3.16
343.562	3.11
343.933	2.81
344.303	2.93
344.674	2.98
345.045	3.62
345.416	2.85
345.786	3.41
346.157	3.09
346.527	3.33
346.898	3.14
347.268	3.03
347.639	3.31
348.009	3.07
348.38	2.67
348.75	2.6
349.12	3.36
349.49	2.69
349.861	2.68
350.231	3.44
350.601	3.05
350.971	3.06
351.341	2.72
351.711	3.46
352.081	2.81
352.45	2.67
352.82	3.02
353.19	3.36
353.56	3.07
353.929	3.33
354.299	3.37
354.669	3.14
355.038	3.3
355.408	2.87
355.777	3.36
356.147	2.94
356.516	3.39
356.885	3.18
357.254	3.07
357.624	3.27
357.993	2.98
358.362	3.21
358.731	3.14
359.1	3.12
359.469	2.99
359.838	3.18
360.207	3.07
360.576	3.11
360.945	3.44
361.314	3.48
361.682	2.97
362.051	3.16
362.42	3.03
362.788	2.9
363.157	3.18
363.525	2.94
363.894	3.25
364.262	3.21
364.631	3.08
364.999	3.13
365.367	3.27
365.735	3.15
366.104	3.13
366.472	3.33
366.84	3.16
367.208	2.98
367.576	3.14
367.944	3.18
368.312	3.35
368.68	3.44
369.048	2.99
369.416	3.07
369.783	3.26
370.151	3.49
370.519	3.57
370.886	3.1
371.254	3.28
371.621	3.13
371.989	3.35
372.356	3.37
372.724	3.35
373.091	3.5
373.458	3.17
373.826	3.32
374.193	3.2
374.56	3.38
374.927	3.61
375.294	3.29
375.661	3.27
376.028	3.36
376.395	3.46
376.762	3.36
377.129	3.45
377.496	3.07
377.863	3.18
378.229	2.93
378.596	3.31
378.963	3.22
379.329	3.29
379.696	3.5
380.062	3.11
380.429	3.07
380.795	3.36
381.161	3.3
381.528	3.44
381.894	3.12
382.26	3.18
382.626	3.26
382.993	3.45
383.359	3.64
383.725	2.96
384.091	3.23
384.457	3.15
384.823	3.28
385.188	3.34
385.554	3.04
385.92	3.29
386.286	3.54
386.651	3.25
387.017	3.34
387.383	3.18
387.748	3.37
388.114	3.26
388.479	3.32
388.845	3.19
389.21	3.19
389.575	3.74
389.94	3.54
390.306	3.31
390.671	3.42
391.036	3.45
391.401	3.53
391.766	3.22
392.131	3.58
392.496	3.52
392.861	3.59
393.226	3.47
393.591	3.58
393.956	3.39
394.32	3.42
394.685	3.32
395.05	3.43
395.414	3.43
395.779	3.43
396.143	3.25
396.508	3.48
396.872	3.4
397.236	3.43
397.601	3.38
397.965	3.44
398.329	3.41
398.694	3.43
399.058	3.27
399.422	3.54
399.786	3.47
400.15	3.24
400.514	3.57
400.878	3.57
401.242	3.58
401.605	3.69
401.969	3.52
402.333	3.38
402.697	3.39
403.06	3.48
403.424	3.52
403.787	3.66
404.151	3.41
404.514	3.31
404.878	3.54
405.241	3.45
405.604	3.5
405.968	3.52
406.331	3.1
406.694	3.43
407.057	3.47
407.42	3.81
407.783	3.6
408.146	3.56
408.509	3.45
408.872	3.36
409.235	3.61
409.598	3.48
409.961	3.41
410.323	3.57
410.686	3.76
411.049	3.57
411.411	3.33
411.774	3.69
412.136	3.38
412.499	3.53
412.861	3.55
413.223	3.63
413.586	3.66
413.948	3.44
414.31	3.49
414.672	3.34
415.035	3.45
415.397	3.42
415.759	3.65
416.121	3.39
416.483	3.7
416.845	3.63
417.206	3.33
417.568	3.44
417.93	3.7
418.292	3.51
418.653	3.31
419.015	3.33
419.377	3.59
419.738	3.52
420.1	3.54
420.461	3.39
420.822	3.46
421.184	3.47
421.545	3.41
421.906	3.49
422.267	3.51
422.629	3.28
422.99	3.47
423.351	3.3
423.712	3.33
424.073	3.46
424.434	3.5
424.795	3.5
425.155	3.33
425.516	3.4
425.877	3.42
426.238	3.45
426.598	3.5
426.959	3.44
427.32	3.64
427.68	3.51
428.041	3.45
428.401	3.5
428.761	3.56
429.122	3.45
429.482	3.43
429.842	3.51
430.202	3.39
430.563	3.57
430.923	3.44
431.283	3.53
431.643	3.59
432.003	3.68
432.363	3.54
432.722	3.44
433.082	3.59
433.442	3.49
433.802	3.51
434.161	3.83
434.521	3.36
434.881	3.61
435.24	3.48
435.6	3.47
435.959	3.49
436.319	3.6
436.678	3.54
437.037	3.64
437.396	3.63
437.756	3.62
438.115	3.75
438.474	3.69
438.833	3.59
439.192	3.53
439.551	3.72
439.91	3.68
440.269	3.61
440.628	3.43
440.987	3.76
441.345	3.58
441.704	3.64
442.063	3.54
442.421	3.52
442.78	3.58
443.138	3.5
443.497	3.49
443.855	3.56
444.214	3.63
444.572	3.54
444.93	3.71
445.288	3.5
445.647	3.61
446.005	3.33
446.363	3.6
446.721	3.56
447.079	3.57
447.437	3.59
447.795	3.46
448.153	3.55
448.51	3.53
448.868	3.42
449.226	3.52
449.584	3.59
449.941	3.63
450.299	3.61
450.656	3.53
451.014	3.71
451.371	3.66
451.729	3.58
452.086	3.6
452.443	3.64
452.801	3.67
453.158	3.69
453.515	3.62
453.872	3.69
454.229	3.59
454.586	3.73
454.943	3.69
455.3	3.72
455.657	3.66
456.014	3.59
456.371	3.61
456.727	3.74
457.084	3.74
457.441	3.82
457.797	3.58
458.154	3.57
458.51	3.71
458.867	3.38
459.223	3.62
459.58	3.6
459.936	3.65
460.292	3.64
460.648	3.61
461.005	3.52
461.361	3.64
461.717	3.57
462.073	3.52
462.429	3.51
462.785	3.46
463.141	3.6
463.496	3.73
463.852	3.59
464.208	3.62
464.564	3.64
464.919	3.7
465.275	3.49
465.631	3.43
465.986	3.74
466.342	3.6
466.697	3.64
467.052	3.66
467.408	3.83
467.763	3.68
468.118	3.46
468.473	3.56
468.829	3.66
469.184	3.87
469.539	3.78
469.894	3.51
470.249	3.66
470.603	3.72
470.958	3.74
471.313	3.66
471.668	3.82
472.023	3.75
472.377	3.74
472.732	3.76
473.086	3.84
473.441	3.74
473.795	3.79
474.15	3.73
474.504	3.73
474.859	3.75
475.213	3.68
475.567	3.71
475.921	3.63
476.275	3.77
476.63	3.61
476.984	3.71
477.338	3.44
477.692	3.69
478.045	3.53
478.399	3.44
478.753	3.42
479.107	3.59
479.461	3.67
479.814	3.63
480.168	3.66
480.521	3.79
480.875	3.56
481.228	3.68
481.582	3.76
481.935	3.65
482.289	3.62
482.642	3.59
482.995	3.65
483.348	3.63
483.701	3.54
484.055	3.54
484.408	3.55
484.761	3.59
485.114	3.49
485.466	3.39
485.819	3.34
486.172	3.4
486.525	3.45
486.878	3.52
487.23	3.5
487.583	3.55
487.936	3.55
488.288	3.55
488.641	3.45
488.993	3.48
489.345	3.51
489.698	3.42
490.05	3.49
490.402	3.44
490.754	3.56
491.107	3.64
491.459	3.63
491.811	3.67
492.163	3.71
492.515	3.68
492.866	3.61
493.218	3.42
493.57	3.43
493.922	3.49
494.274	3.56
494.625	3.61
494.977	3.69
495.328	3.63
495.68	3.72
496.031	3.71
496.383	3.64
496.734	3.61
497.086	3.68
497.437	3.68
497.788	3.68
498.139	3.52
498.49	3.69
498.842	3.72
499.193	3.78
499.544	3.68
499.894	3.73
500.245	3.66
500.596	3.75
500.947	3.76
501.298	3.8
501.648	3.69
501.999	3.57
502.35	3.73
502.7	3.81
503.051	3.63
503.401	3.75
503.752	3.69
504.102	3.55
504.452	3.6
504.803	3.96
505.153	3.85
505.503	3.81
505.853	3.78
506.203	3.66
506.553	3.71
506.903	3.59
507.253	3.67
507.603	3.71
507.953	3.69
508.303	3.72
508.652	3.69
509.002	3.7
509.352	3.79
509.701	3.69
510.051	3.7
510.4	3.59
510.75	3.68
511.099	3.78
511.449	3.71
511.798	3.73
512.147	3.73
512.496	3.66
512.846	3.71
513.195	3.87
513.544	3.63
513.893	3.6
514.242	3.73
514.591	3.62
514.939	3.57
515.288	3.74
515.637	3.65
515.986	3.76
516.334	3.81
516.683	3.91
517.032	3.79
517.38	3.81
517.729	3.76
518.077	3.77
518.426	3.86
518.774	3.88
519.122	3.71
519.47	3.65
519.819	3.58
520.167	3.63
520.515	3.52
520.863	3.65
521.211	3.68
521.559	3.71
521.907	3.68
522.255	3.55
522.602	3.65
522.95	3.86
523.298	3.83
523.645	3.9
523.993	3.68
524.341	3.78
524.688	3.73
525.036	3.71
525.383	3.75
525.73	3.76
526.078	3.87
526.425	3.67
526.772	3.81
527.119	3.56
527.466	3.6
527.814	3.62
528.161	3.56
528.508	3.67
528.854	3.59
529.201	3.56
529.548	3.56
529.895	3.49
530.242	3.49
530.588	3.5
530.935	3.47
531.282	3.56
531.628	3.58
531.975	3.68
532.321	3.69
532.667	3.58
533.014	3.53
533.36	3.57
533.706	3.7
534.052	3.63
534.399	3.62
534.745	3.58
535.091	3.5
535.437	3.54
535.783	3.6
536.129	3.65
536.474	3.74
536.82	3.66
537.166	3.56
537.512	3.69
537.857	3.69
538.203	3.61
538.549	3.65
538.894	3.7
539.239	3.71
539.585	3.64
539.93	3.64
540.276	3.65
540.621	3.77
540.966	3.82
541.311	3.7
541.656	3.68
542.001	3.81
542.346	3.6
542.691	3.59
543.036	3.58
543.381	3.51
543.726	3.57
544.071	3.56
544.415	3.62
544.76	3.65
545.105	3.66
545.449	3.59
545.794	3.66
546.138	3.69
546.483	3.64
546.827	3.79
547.171	3.68
547.516	3.74
547.86	3.81
548.204	3.74
548.548	3.61
548.892	3.67
549.236	3.72
549.58	3.83
549.924	3.76
550.268	3.65
550.612	3.75
550.956	3.66
551.3	3.81
551.643	3.77
551.987	3.77
552.33	3.9
552.674	3.94
553.017	3.84
553.361	3.71
553.704	3.79
554.048	3.96
554.391	3.69
554.734	3.82
555.077	3.81
555.42	3.79
555.764	3.7
556.107	3.85
556.45	3.83
556.793	3.54
557.135	3.79
557.478	3.65
557.821	3.67
558.164	3.94
558.507	3.7
558.849	3.8
559.192	3.8
559.534	3.76
559.877	3.84
560.219	3.75
560.562	3.82
560.904	3.82
561.246	3.79
561.589	3.89
561.931	3.84
562.273	3.61
562.615	3.79
562.957	3.74
563.299	3.81
563.641	3.68
563.983	4.05
564.325	3.99
564.667	3.86
565.008	3.97
565.35	3.95
565.692	3.77
566.033	3.71
566.375	3.92
566.716	3.92
567.058	3.81
567.399	3.72
567.741	3.69
568.082	3.71
568.423	3.75
568.764	3.66
569.105	3.79
569.447	3.69
569.788	3.72
570.129	3.72
570.47	3.61
570.811	3.65
571.151	3.78
571.492	3.8
571.833	3.64
572.174	3.91
572.514	3.78
572.855	3.53
573.195	3.79
573.536	3.69
573.876	3.63
574.217	3.75
574.557	3.49
574.898	3.84
575.238	3.87
575.578	3.77
575.918	3.87
576.258	3.77
576.598	3.89
576.938	3.83
577.278	3.73
577.618	3.74
577.958	3.71
578.298	3.96
578.638	3.85
578.977	3.92
579.317	3.85
579.657	3.85
579.996	3.66
580.336	3.75
580.675	3.88
581.014	3.71
581.354	3.69
581.693	3.81
582.032	3.69
582.372	3.86
582.711	3.58
583.05	3.93
583.389	3.76
583.728	3.88
584.067	3.59
584.406	3.58
584.745	3.73
585.083	3.71
585.422	3.74
585.761	3.79
586.1	3.52
586.438	3.61
586.777	3.74
587.115	3.66
587.454	3.86
587.792	3.53
588.13	3.8
588.469	3.67
588.807	3.65
589.145	3.98
589.483	3.89
589.821	3.54
590.159	3.73
590.497	3.64
590.835	3.78
591.173	3.7
591.511	4.09
591.849	4.01
592.187	3.76
592.524	3.91
592.862	3.87
593.2	3.74
593.537	3.73
593.875	3.62
594.212	3.77
594.55	3.65
594.887	3.79
595.224	3.93
595.561	3.89
595.899	3.57
596.236	3.71
596.573	3.65
596.91	3.75
597.247	3.62
597.584	3.44
597.921	3.62
598.258	3.62
598.594	3.76
598.931	3.65
599.268	3.72
599.604	3.76
599.941	3.81
600.277	3.76
600.614	3.72
600.95	3.65
601.287	3.78
601.623	3.62
601.959	3.66
602.296	3.83
602.632	3.66
602.968	3.57
603.304	3.74
603.64	3.69
603.976	3.79
604.312	3.63
604.648	3.65
604.984	3.65
605.319	3.63
605.655	3.65
605.991	3.5
606.326	3.69
606.662	3.62
606.998	3.62
607.333	3.72
607.668	3.72
608.004	3.47
608.339	3.84
608.674	4.06
609.01	3.71
609.345	3.85
609.68	3.81
610.015	4.01
610.35	3.59
610.685	3.68
611.02	3.62
611.355	3.8
611.689	3.71
612.024	3.69
612.359	3.49
612.694	3.78
613.028	3.73
613.363	3.62
613.697	3.56
614.032	3.63
614.366	3.72
614.7	3.64
615.035	4.1
615.369	3.79
615.703	3.85
616.037	4.02
616.371	3.87
616.705	3.72
617.039	4.07
617.373	3.58
617.707	4.03
618.041	4.03
618.375	3.9
618.709	3.46
619.042	3.59
619.376	3.91
619.71	3.66
620.043	3.34
620.377	3.68
620.71	3.84
621.043	3.7
621.377	3.61
621.71	3.86
622.043	3.6
622.376	3.7
622.709	3.77
623.043	4.17
623.376	4.01
623.709	3.81
624.041	3.3
624.374	3.84
624.707	3.45
625.04	4.31
625.373	3.84
625.705	3.65
626.038	3.62
626.37	3.82
626.703	4.22
627.035	3.69
627.368	3.68
627.7	3.53
628.032	3.86
628.365	3.75
628.697	3.71
629.029	3.97
629.361	3.48
629.693	3.87
630.025	3.49
630.357	3.55
630.689	3.51
631.021	3.42
631.353	3.82
631.684	3.69
632.016	3.97
632.348	3.7
632.679	3.93
633.011	3.83
633.342	3.84
633.674	3.88
634.005	4.04
634.336	4.24
634.668	3.9
634.999	3.9
635.33	3.6
635.661	3.9
635.992	4.01
636.323	3.72
636.654	4.1
636.985	3.77
637.316	3.77
637.647	4.14
637.977	3.88
638.308	3.72
638.639	3.44
638.969	3.92
639.3	4.05
639.63	3.87
639.961	3.96
640.291	4.26
640.622	4.21
640.952	4.14
641.282	4.12
641.612	4.14
641.943	3.78
642.273	3.46
642.603	3.77
642.933	3.79
643.263	3.68
643.592	3.69
643.922	3.62
644.252	3.65
644.582	4.03
644.911	3.87
645.241	3.81
645.571	4.41
645.9	3.5
646.23	3.88
646.559	3.7
646.888	3.69
647.218	4.05
647.547	3.74
647.876	3.67
648.205	3.59
648.534	3.91
648.863	3.94
649.192	3.52
649.521	3.54
649.85	3.96
650.179	3.97
650.508	3.77
650.837	3.34
651.165	3.81
651.494	3.85
651.822	4.04
652.151	4.23
652.479	3.78
652.808	3.17
653.136	4
653.465	3.67
653.793	3.79
654.121	3.77
654.449	3.58
654.777	4
655.105	3.34
655.433	3.77
655.761	4.12
656.089	3.69
656.417	3.8
656.745	3.55
657.073	4.22
657.4	3.93
657.728	3.77
658.056	4.29
658.383	3.85
658.711	3.98
659.038	4.02
659.365	3.7
659.693	4.25
660.02	3.41
660.347	3.82
660.674	3.58
661.001	3.73
661.329	3.82
661.656	3.79
661.982	4.1
662.309	3.95
662.636	3.91
662.963	4.34
663.29	3.8
663.616	3.6
663.943	3.68
664.27	4.45
664.596	4.45
664.923	4.09
665.249	3.83
665.576	3.67
665.902	3.9
666.228	3.66
666.554	4.27
666.881	3.38
667.207	4.56
667.533	3.69
667.859	3.62
668.185	4.01
668.511	4.1
668.837	4.35
669.162	4.28
669.488	3.89
669.814	3.33
670.139	4
670.465	4.37
670.791	3.44
671.116	3.91
671.442	4.36
671.767	3.66
672.092	4.05
672.418	4.45
672.743	3.81
673.068	3.78
673.393	4.04
673.718	3.29
674.043	4.23
674.368	3.84
674.693	3.62
675.018	3.99
675.343	3.67
675.667	3.68
675.992	4.26
676.317	3.88
676.641	4.32
676.966	4.35
677.29	3.13
677.615	4.01
677.939	3.77
678.264	4.47
678.588	4.65
678.912	4.02
679.236	4.5
679.56	3.71
679.885	4.05
680.209	4.27
680.532	4.04
680.856	4.29
681.18	4.02
681.504	3.65
681.828	3.21
682.152	3.49
682.475	4.35
682.799	3.72
683.122	3.89
683.446	3.06
683.769	4.02
684.093	3.84
684.416	3.88
684.739	3.93
685.062	4.05
685.386	4.16
685.709	4.1
686.032	4.39
686.355	4.18
686.678	4.05
687.001	4.45
687.324	3.54
687.646	3.33
687.969	3.98
688.292	4.58
688.614	4.71
688.937	4.31
689.26	3.89
689.582	3.74
689.904	4.16
690.227	4.44
690.549	3.78
690.871	3.65
691.194	3.87
691.516	3.92
