Data from 0360_crown_Reflection__3__39.txt Node

Date: Mon Dec 11 18:00:51 CST 2023
User: ToomeyLab
Spectrometer: FLMS14357
Trigger mode: 0
Integration Time (sec): 1.000000E-2
Scans to average: 100
Electric dark correction enabled: true
Nonlinearity correction enabled: false
Boxcar width: 0
XAxis mode: Wavelengths
Number of Pixels in Spectrum: 2048
>>>>>Begin Spectral Data<<<<<
189.047	-38.44
189.435	-38.44
189.823	-38.44
190.211	-152.6
190.599	97.12
190.987	-41.05
191.375	-45.88
191.763	182.83
192.151	180.41
192.538	3.65
192.926	347.18
193.314	-209.1
193.702	239.34
194.089	19.54
194.477	36.58
194.864	33.58
195.252	144.15
195.639	266.17
196.027	24.2
196.414	201.13
196.801	11.06
197.189	-159.04
197.576	372.72
197.963	95.39
198.351	26.22
198.738	31.16
199.125	-50.42
199.512	-3.09
199.899	13.95
200.286	39.97
200.673	24.97
201.06	44.98
201.447	31.86
201.833	78.08
202.22	53.04
202.607	-10.91
202.994	-12
203.38	-34.05
203.767	47.79
204.154	26.2
204.54	-2.32
204.927	27.77
205.313	9.54
205.699	4.59
206.086	-44.62
206.472	25.42
206.858	20.79
207.245	9.03
207.631	-7.92
208.017	20.12
208.403	5.29
208.789	-6.73
209.175	19.35
209.561	-2.18
209.947	23.31
210.333	19.98
210.719	30.23
211.105	36.94
211.491	22.25
211.876	33.24
212.262	0.18
212.648	3.5
213.034	3.87
213.419	5.48
213.805	11.42
214.19	30.42
214.576	2.41
214.961	22.5
215.346	0.77
215.732	8.68
216.117	21.39
216.502	-5.47
216.888	1.53
217.273	28.45
217.658	7.73
218.043	9.78
218.428	5.33
218.813	27.44
219.198	13.24
219.583	1.9
219.968	18.04
220.353	2.27
220.738	40.56
221.122	7.07
221.507	24.62
221.892	8.39
222.276	21.2
222.661	-4.29
223.046	6.96
223.43	15.6
223.815	10.74
224.199	2.89
224.583	8.79
224.968	10.55
225.352	5.44
225.736	11.39
226.121	13.47
226.505	13.74
226.889	13.73
227.273	6.92
227.657	15.42
228.041	5.81
228.425	8.36
228.809	5.21
229.193	7.55
229.577	8.98
229.961	6.62
230.344	7.31
230.728	6.99
231.112	8.08
231.495	7.41
231.879	6.73
232.263	7.6
232.646	6.07
233.03	6.65
233.413	7.29
233.797	7.67
234.18	8.72
234.563	8.69
234.946	8.25
235.33	9.05
235.713	9.56
236.096	8.23
236.479	7.86
236.862	6.55
237.245	7.25
237.628	8.21
238.011	7.65
238.394	6.55
238.777	6.97
239.16	8.52
239.543	6
239.925	7.49
240.308	7.48
240.691	6.93
241.073	8.17
241.456	7.58
241.838	8.16
242.221	8.2
242.603	6.77
242.986	6.35
243.368	6.56
243.75	7.37
244.133	7.06
244.515	6.54
244.897	6.86
245.279	6.7
245.661	6.62
246.043	7.03
246.425	7.31
246.807	8.12
247.189	7.87
247.571	6.45
247.953	6.48
248.335	6.86
248.717	6.83
249.098	6.45
249.48	6.6
249.862	6.61
250.243	6.99
250.625	6.85
251.006	6.5
251.388	6.66
251.769	7.6
252.151	6.96
252.532	7.34
252.913	7.18
253.295	7.15
253.676	6.27
254.057	6.52
254.438	6.67
254.819	6.29
255.2	6.1
255.581	6.99
255.962	6.86
256.343	6.31
256.724	6.77
257.105	6.76
257.486	6.05
257.867	7
258.247	6.5
258.628	7.01
259.009	7.52
259.389	6.93
259.77	6.31
260.15	6.3
260.531	7.04
260.911	6.16
261.292	6.13
261.672	6.17
262.052	6.06
262.432	6.05
262.813	6.14
263.193	5.89
263.573	6.34
263.953	5.72
264.333	5.95
264.713	6.57
265.093	6.34
265.473	5.99
265.853	6.76
266.233	6.03
266.612	6.85
266.992	6.26
267.372	6.82
267.752	6.31
268.131	6.23
268.511	6.03
268.89	6.41
269.27	6.64
269.649	6.16
270.029	6.46
270.408	6.61
270.787	5.63
271.167	5.66
271.546	6.33
271.925	5.93
272.304	5.63
272.683	5.89
273.062	5.51
273.441	5.94
273.82	5.99
274.199	5.45
274.578	5.56
274.957	5.76
275.336	5.79
275.715	5.44
276.093	6.66
276.472	6.2
276.851	6.37
277.229	6.3
277.608	5.84
277.986	6.11
278.365	5.88
278.743	5.56
279.122	6.17
279.5	5.97
279.878	5.57
280.257	5.39
280.635	5.34
281.013	5.23
281.391	6.12
281.769	5.49
282.147	5.64
282.525	5.25
282.903	5.88
283.281	5.55
283.659	5.1
284.037	5.6
284.415	5.74
284.792	5.75
285.17	5.75
285.548	5.7
285.925	5.39
286.303	5.52
286.68	5.31
287.058	5.22
287.435	5.88
287.813	5.4
288.19	5.4
288.567	5.07
288.945	5.53
289.322	4.93
289.699	5.18
290.076	5.66
290.453	5.63
290.83	5.86
291.207	5.62
291.584	5.46
291.961	5.56
292.338	5.22
292.715	5.96
293.092	5.13
293.469	5.12
293.845	5.19
294.222	5.86
294.599	5.06
294.975	5.28
295.352	5.5
295.728	5.54
296.105	5.15
296.481	5.04
296.858	5.1
297.234	5.61
297.61	5.28
297.986	5.29
298.363	5.42
298.739	5.04
299.115	5.24
299.491	5.11
299.867	5.13
300.243	5.08
300.619	4.93
300.995	4.84
301.371	5.08
301.746	4.85
302.122	5.05
302.498	5.26
302.874	4.87
303.249	5.53
303.625	5.32
304	5.03
304.376	5.31
304.751	4.89
305.127	5.64
305.502	4.81
305.878	5.33
306.253	5.48
306.628	5.18
307.003	5.61
307.378	5.38
307.754	5.48
308.129	4.22
308.504	5.15
308.879	4.46
309.254	5.79
309.629	5.2
310.003	4.74
310.378	5.02
310.753	5.17
311.128	5.16
311.502	4.92
311.877	4.94
312.252	5.21
312.626	5.29
313.001	5.03
313.375	4.65
313.75	4.78
314.124	4.78
314.498	4.56
314.873	5.11
315.247	4.84
315.621	5.74
315.995	5.25
316.369	4.96
316.743	5.74
317.117	5.15
317.491	5.41
317.865	4.9
318.239	5.18
318.613	5.16
318.987	4.99
319.361	5.23
319.734	5.16
320.108	4.82
320.482	4.79
320.855	5
321.229	4.73
321.602	4.68
321.976	5.97
322.349	5.05
322.723	5.64
323.096	5.82
323.469	5.94
323.843	5.27
324.216	6.17
324.589	5.29
324.962	5.04
325.335	4.92
325.708	5.22
326.081	5.23
326.454	4.95
326.827	4.79
327.2	4.71
327.573	4.82
327.945	5.46
328.318	4.94
328.691	4.97
329.063	5.09
329.436	4.82
329.809	4.83
330.181	5.21
330.553	5.62
330.926	4.69
331.298	5.09
331.671	4.85
332.043	5.35
332.415	4.68
332.787	5.3
333.159	4.92
333.532	5.06
333.904	5.3
334.276	5.32
334.648	5.07
335.02	4.89
335.391	4.93
335.763	4.62
336.135	5.08
336.507	5.18
336.879	5.39
337.25	5
337.622	4.96
337.993	5.2
338.365	5.13
338.736	4.92
339.108	5.61
339.479	4.93
339.851	5.46
340.222	5.37
340.593	4.73
340.964	5.23
341.336	5.19
341.707	4.46
342.078	5.01
342.449	5.08
342.82	4.88
343.191	4.89
343.562	5.29
343.933	4.74
344.303	4.33
344.674	5.32
345.045	5.12
345.416	4.63
345.786	5.69
346.157	4.96
346.527	5.1
346.898	5.08
347.268	5.02
347.639	5.51
348.009	5.24
348.38	4.89
348.75	4.68
349.12	5.64
349.49	5.02
349.861	4.84
350.231	4.89
350.601	5.6
350.971	5.07
351.341	4.94
351.711	5.02
352.081	4.89
352.45	5.19
352.82	4.53
353.19	5.27
353.56	5.14
353.929	4.96
354.299	5.79
354.669	5.34
355.038	4.85
355.408	4.99
355.777	5.31
356.147	5.27
356.516	5.21
356.885	5.2
357.254	4.93
357.624	5.23
357.993	5.02
358.362	5.09
358.731	4.92
359.1	5.24
359.469	5.19
359.838	5.2
360.207	5.31
360.576	5.1
360.945	5.56
361.314	5.45
361.682	4.77
362.051	4.93
362.42	5
362.788	4.73
363.157	5.2
363.525	4.91
363.894	5.28
364.262	5.38
364.631	5.07
364.999	5.39
365.367	5.39
365.735	5.12
366.104	5.07
366.472	5.46
366.84	4.83
367.208	4.97
367.576	5.38
367.944	5.6
368.312	5.25
368.68	5.62
369.048	5.28
369.416	5.04
369.783	5.51
370.151	5.69
370.519	5.52
370.886	5.01
371.254	5.52
371.621	5.22
371.989	5.35
372.356	5.68
372.724	5.46
373.091	5.52
373.458	5.14
373.826	5.45
374.193	5.36
374.56	5.42
374.927	5.44
375.294	5.32
375.661	5.24
376.028	5.45
376.395	5.58
376.762	5.47
377.129	5.83
377.496	5.14
377.863	5.58
378.229	5.42
378.596	5.61
378.963	5.31
379.329	5.45
379.696	5.46
380.062	5.17
380.429	5.23
380.795	5.87
381.161	5.53
381.528	5.74
381.894	5.36
382.26	5.42
382.626	5.58
382.993	5.78
383.359	5.48
383.725	5.11
384.091	5.35
384.457	5.38
384.823	5.84
385.188	5.75
385.554	5.26
385.92	5.35
386.286	5.56
386.651	5.23
387.017	5.3
387.383	5.68
387.748	5.56
388.114	5.53
388.479	5.84
388.845	5.48
389.21	5.77
389.575	5.65
389.94	5.69
390.306	5.65
390.671	5.73
391.036	5.66
391.401	5.72
391.766	5.61
392.131	5.39
392.496	5.67
392.861	5.91
393.226	5.78
393.591	5.55
393.956	5.51
394.32	5.7
394.685	5.59
395.05	5.74
395.414	5.66
395.779	5.47
396.143	5.59
396.508	5.67
396.872	5.79
397.236	5.79
397.601	5.41
397.965	5.69
398.329	5.73
398.694	5.44
399.058	5.44
399.422	5.68
399.786	5.64
400.15	5.73
400.514	5.66
400.878	5.77
401.242	5.56
401.605	5.77
401.969	5.49
402.333	5.44
402.697	5.55
403.06	5.63
403.424	5.7
403.787	5.94
404.151	5.58
404.514	5.8
404.878	5.77
405.241	5.7
405.604	5.59
405.968	5.59
406.331	5.54
406.694	5.66
407.057	5.78
407.42	6.02
407.783	5.6
408.146	5.78
408.509	5.73
408.872	6.02
409.235	5.68
409.598	5.87
409.961	5.89
410.323	5.73
410.686	5.55
411.049	5.8
411.411	5.71
411.774	6
412.136	5.75
412.499	6.02
412.861	5.72
413.223	5.77
413.586	6.05
413.948	5.86
414.31	5.8
414.672	5.57
415.035	5.98
415.397	5.85
415.759	5.83
416.121	5.97
416.483	6.02
416.845	5.94
417.206	5.71
417.568	6.03
417.93	5.94
418.292	5.76
418.653	5.67
419.015	5.56
419.377	5.94
419.738	5.9
420.1	5.95
420.461	5.66
420.822	5.79
421.184	5.82
421.545	5.75
421.906	5.83
422.267	5.83
422.629	5.66
422.99	5.73
423.351	5.66
423.712	5.67
424.073	5.64
424.434	5.63
424.795	5.95
425.155	5.8
425.516	5.73
425.877	5.69
426.238	5.7
426.598	5.78
426.959	5.78
427.32	5.86
427.68	5.85
428.041	5.8
428.401	5.71
428.761	5.85
429.122	5.81
429.482	5.89
429.842	5.84
430.202	6.07
430.563	5.92
430.923	5.91
431.283	5.94
431.643	5.93
432.003	6
432.363	5.94
432.722	5.91
433.082	6.14
433.442	5.91
433.802	5.81
434.161	6.14
434.521	5.89
434.881	5.99
435.24	5.92
435.6	5.94
435.959	5.93
436.319	5.78
436.678	5.87
437.037	6
437.396	6.09
437.756	6.07
438.115	6
438.474	6.08
438.833	5.94
439.192	5.96
439.551	6.16
439.91	6.14
440.269	6.12
440.628	5.79
440.987	6.17
441.345	6.01
441.704	6.11
442.063	5.95
442.421	5.94
442.78	5.97
443.138	5.89
443.497	5.96
443.855	5.97
444.214	6.11
444.572	5.9
444.93	6.02
445.288	6.11
445.647	6.1
446.005	5.81
446.363	5.93
446.721	5.97
447.079	6
447.437	5.93
447.795	5.9
448.153	5.95
448.51	5.95
448.868	5.82
449.226	5.78
449.584	6
449.941	6.04
450.299	5.89
450.656	5.92
451.014	6.11
451.371	5.98
451.729	6
452.086	6.21
452.443	6.15
452.801	6.05
453.158	6.17
453.515	6.02
453.872	6.05
454.229	6.03
454.586	6.09
454.943	6.14
455.3	6.01
455.657	6.16
456.014	6.2
456.371	6.34
456.727	6.16
457.084	6.04
457.441	6.11
457.797	6.1
458.154	6.24
458.51	6.13
458.867	5.94
459.223	6.07
459.58	6.16
459.936	6.14
460.292	6.1
460.648	6.12
461.005	5.9
461.361	6.05
461.717	6
462.073	5.99
462.429	5.99
462.785	5.95
463.141	6.03
463.496	6.13
463.852	6.06
464.208	6.1
464.564	6.13
464.919	6.09
465.275	6.08
465.631	5.96
465.986	6.21
466.342	6.01
466.697	6.1
467.052	6.23
467.408	6.4
467.763	6.3
468.118	6.13
468.473	6.09
468.829	6.22
469.184	6.37
469.539	6.07
469.894	5.99
470.249	6.17
470.603	6.16
470.958	6.12
471.313	6.12
471.668	6.4
472.023	6.29
472.377	6.15
472.732	5.99
473.086	6.34
473.441	6.28
473.795	6.17
474.15	6.23
474.504	6.21
474.859	6.22
475.213	6.05
475.567	6.32
475.921	6.08
476.275	6.26
476.63	6.13
476.984	6.13
477.338	6.13
477.692	6.31
478.045	6.12
478.399	6.17
478.753	6.06
479.107	5.99
479.461	6.18
479.814	6.13
480.168	6.05
480.521	6.29
480.875	6.12
481.228	6.26
481.582	6.19
481.935	6.11
482.289	6.18
482.642	6.02
482.995	6.07
483.348	6.12
483.701	6.02
484.055	6.04
484.408	6.12
484.761	6.08
485.114	5.99
485.466	5.86
485.819	5.81
486.172	5.77
486.525	5.75
486.878	5.77
487.23	5.9
487.583	5.92
487.936	5.93
488.288	6.04
488.641	5.95
488.993	5.87
489.345	5.99
489.698	5.82
490.05	5.81
490.402	5.8
490.754	5.86
491.107	5.99
491.459	5.98
491.811	6.04
492.163	6.11
492.515	6.08
492.866	6.01
493.218	5.95
493.57	5.94
493.922	5.93
494.274	6
494.625	5.95
494.977	6.13
495.328	6.09
495.68	6.21
496.031	6.08
496.383	6.07
496.734	6.14
497.086	6.21
497.437	6.29
497.788	6.33
498.139	6.08
498.49	6.13
498.842	6.18
499.193	6.19
499.544	6.07
499.894	6.17
500.245	6.09
500.596	6.28
500.947	6.12
501.298	6.24
501.648	6.14
501.999	6.12
502.35	6.25
502.7	6.36
503.051	6
503.401	6.13
503.752	6.25
504.102	6.13
504.452	6.22
504.803	6.4
505.153	6.31
505.503	6.4
505.853	6.38
506.203	6.2
506.553	6.36
506.903	6.05
507.253	6.2
507.603	6.16
507.953	6.34
508.303	6.21
508.652	6.23
509.002	6.16
509.352	6.37
509.701	6.22
510.051	6.23
510.4	6.16
510.75	6.23
511.099	6.17
511.449	6.17
511.798	6.15
512.147	6.23
512.496	6.17
512.846	6.33
513.195	6.15
513.544	6.2
513.893	6.02
514.242	6.25
514.591	6.19
514.939	6.1
515.288	6.3
515.637	6.17
515.986	6.15
516.334	6.22
516.683	6.37
517.032	6.35
517.38	6.29
517.729	6.3
518.077	6.39
518.426	6.38
518.774	6.17
519.122	6.22
519.47	6.18
519.819	6.13
520.167	6.18
520.515	6.08
520.863	6.1
521.211	6.13
521.559	6.15
521.907	6.13
522.255	6.09
522.602	6.11
522.95	6.26
523.298	6.2
523.645	6.29
523.993	6.16
524.341	6.17
524.688	6.15
525.036	6.1
525.383	6.2
525.73	6.26
526.078	6.33
526.425	6.15
526.772	6.24
527.119	6.13
527.466	6.07
527.814	6.17
528.161	6.1
528.508	6.1
528.854	6.08
529.201	6.01
529.548	6.1
529.895	5.96
530.242	5.96
530.588	5.88
530.935	5.93
531.282	5.91
531.628	5.88
531.975	5.91
532.321	5.91
532.667	6.06
533.014	6.02
533.36	6.03
533.706	6.16
534.052	6.09
534.399	6.16
534.745	6.02
535.091	5.99
535.437	6
535.783	5.96
536.129	5.97
536.474	6.08
536.82	6
537.166	6.08
537.512	6.15
537.857	6.21
538.203	6.14
538.549	6.06
538.894	6.08
539.239	6.03
539.585	6.13
539.93	6.09
540.276	6.13
540.621	6.15
540.966	6.28
541.311	6.24
541.656	6.18
542.001	6.29
542.346	6.11
542.691	6.01
543.036	6.04
543.381	5.89
543.726	5.98
544.071	5.94
544.415	5.99
544.76	5.97
545.105	5.94
545.449	5.96
545.794	6.06
546.138	6.03
546.483	6.02
546.827	6.23
547.171	6.12
547.516	6.15
547.86	6.12
548.204	6.21
548.548	6.15
548.892	6.13
549.236	5.97
549.58	6.18
549.924	6.18
550.268	6.14
550.612	6.15
550.956	6.23
551.3	6.13
551.643	6.28
551.987	6.37
552.33	6.39
552.674	6.33
553.017	6.21
553.361	6.2
553.704	6.21
554.048	6.38
554.391	6.06
554.734	6.17
555.077	6.17
555.42	6.31
555.764	6.18
556.107	6.23
556.45	6.21
556.793	6.26
557.135	6.26
557.478	6.18
557.821	6.26
558.164	6.35
558.507	6.03
558.849	6.18
559.192	6.18
559.534	6.24
559.877	6.3
560.219	6.05
560.562	6.43
560.904	6.23
561.246	6.41
561.589	6.2
561.931	6.2
562.273	6.22
562.615	6.16
562.957	6.35
563.299	6.24
563.641	6.1
563.983	6.32
564.325	6.41
564.667	6.32
565.008	6.28
565.35	6.55
565.692	6.32
566.033	6.06
566.375	6.38
566.716	6.23
567.058	6.13
567.399	6.31
567.741	6.27
568.082	6.21
568.423	6.13
568.764	6.29
569.105	6.15
569.447	6.2
569.788	6.13
570.129	6.2
570.47	6.05
570.811	5.99
571.151	6.31
571.492	6.34
571.833	6.19
572.174	6.23
572.514	6.22
572.855	6.06
573.195	6.35
573.536	6.15
573.876	5.99
574.217	6.01
574.557	6
574.898	6.02
575.238	6.19
575.578	6.16
575.918	6.26
576.258	6.08
576.598	6.21
576.938	5.98
577.278	6.13
577.618	6.03
577.958	6.21
578.298	6.24
578.638	6.25
578.977	6.15
579.317	6.11
579.657	5.95
579.996	6.15
580.336	6.17
580.675	6.27
581.014	6.18
581.354	6.04
581.693	6.26
582.032	5.91
582.372	6.38
582.711	5.94
583.05	6.08
583.389	6.3
583.728	6.19
584.067	5.96
584.406	6.17
584.745	6.17
585.083	6.21
585.422	6.19
585.761	6.32
586.1	6.07
586.438	5.97
586.777	6.25
587.115	6.13
587.454	6.04
587.792	6.12
588.13	6.3
588.469	6.25
588.807	6.22
589.145	6.27
589.483	6.46
589.821	5.91
590.159	6.17
590.497	6.04
590.835	6.16
591.173	6.04
591.511	6.16
591.849	6.28
592.187	5.86
592.524	6.03
592.862	6.18
593.2	5.99
593.537	6.15
593.875	6.23
594.212	6.03
594.55	6.13
594.887	6.05
595.224	6.24
595.561	6.11
595.899	5.98
596.236	6.13
596.573	6.11
596.91	5.8
597.247	5.89
597.584	5.95
597.921	6.13
598.258	6.2
598.594	6.05
598.931	5.86
599.268	6.01
599.604	6.16
599.941	6.22
600.277	6.07
600.614	6.13
600.95	5.8
601.287	6.06
601.623	6.09
601.959	6.04
602.296	6.19
602.632	5.76
602.968	5.89
603.304	5.94
603.64	5.9
603.976	6.28
604.312	6.13
604.648	6.11
604.984	6.09
605.319	6.23
605.655	5.93
605.991	5.95
606.326	5.95
606.662	5.82
606.998	5.83
607.333	5.9
607.668	5.95
608.004	5.78
608.339	6.1
608.674	6.19
609.01	5.91
609.345	5.93
609.68	6.08
610.015	5.88
610.35	5.89
610.685	6.07
611.02	5.95
611.355	5.95
611.689	5.89
612.024	5.92
612.359	5.94
612.694	6.07
613.028	5.94
613.363	5.81
613.697	6.17
614.032	5.76
614.366	6.1
614.7	6.07
615.035	5.89
615.369	6.09
615.703	5.99
616.037	6.05
616.371	6.18
616.705	6.3
617.039	6.2
617.373	5.99
617.707	6.19
618.041	6.45
618.375	6
618.709	5.82
619.042	5.97
619.376	6.31
619.71	5.94
620.043	5.77
620.377	6.17
620.71	6.08
621.043	5.92
621.377	5.4
621.71	5.85
622.043	5.9
622.376	5.97
622.709	6.17
623.043	6.43
623.376	5.75
623.709	5.91
624.041	5.78
624.374	6.13
624.707	5.75
625.04	6.46
625.373	6.12
625.705	6.11
626.038	6.01
626.37	6.16
626.703	6.35
627.035	6.02
627.368	6.07
627.7	5.96
628.032	6.35
628.365	6.2
628.697	5.95
629.029	6.2
629.361	5.97
629.693	5.95
630.025	5.8
630.357	5.84
630.689	5.83
631.021	6.28
631.353	5.96
631.684	6.02
632.016	5.87
632.348	6.52
632.679	6.58
633.011	5.93
633.342	6.23
633.674	6.39
634.005	6.19
634.336	6.13
634.668	6.28
634.999	6.42
635.33	6.16
635.661	6.02
635.992	6
636.323	5.87
636.654	5.98
636.985	5.38
637.316	5.67
637.647	6.4
637.977	6.29
638.308	6.13
638.639	5.56
638.969	6.12
639.3	6.3
639.63	6.17
639.961	6.22
640.291	6.54
640.622	6.26
640.952	6.36
641.282	5.83
641.612	6.16
641.943	6.14
642.273	5.78
642.603	6.17
642.933	5.84
643.263	6.19
643.592	6.45
643.922	6.17
644.252	5.73
644.582	6.09
644.911	6.12
645.241	5.63
645.571	6.25
645.9	5.81
646.23	6.09
646.559	5.99
646.888	6.2
647.218	6.32
647.547	5.75
647.876	5.78
648.205	5.74
648.534	5.76
648.863	6.09
649.192	5.61
649.521	6.18
649.85	6.04
650.179	5.96
650.508	5.97
650.837	6.2
651.165	6.46
651.494	6.04
651.822	6.15
652.151	6.33
652.479	5.92
652.808	5.88
653.136	5.65
653.465	6.25
653.793	5.83
654.121	6.29
654.449	6.34
654.777	6.15
655.105	6.15
655.433	6.11
655.761	6.14
656.089	5.62
656.417	5.74
656.745	6.34
657.073	5.96
657.4	6.06
657.728	6.28
658.056	6.34
658.383	6.32
658.711	5.93
659.038	6.36
659.365	6.14
659.693	6.39
660.02	5.53
660.347	6.12
660.674	6.18
661.001	5.83
661.329	5.91
661.656	5.94
661.982	5.89
662.309	6.12
662.636	6.1
662.963	6.37
663.29	6.08
663.616	5.41
663.943	5.32
664.27	5.86
664.596	6.43
664.923	6.02
665.249	5.86
665.576	6
665.902	5.69
666.228	6.08
666.554	6.2
666.881	5.93
667.207	6.43
667.533	6.14
667.859	6.42
668.185	6.52
668.511	6.24
668.837	6.46
669.162	6.4
669.488	6.21
669.814	5.64
670.139	5.99
670.465	6.01
670.791	5.88
671.116	6.81
671.442	6.3
671.767	6.6
672.092	6.09
672.418	6.05
672.743	5.58
673.068	5.84
673.393	5.93
673.718	5.8
674.043	6.34
674.368	5.86
674.693	6.11
675.018	5.58
675.343	5.53
675.667	5.62
675.992	5.76
676.317	5.79
676.641	6.64
676.966	6.22
677.29	5.44
677.615	6.64
677.939	6.07
678.264	5.52
678.588	6.17
678.912	6.36
679.236	5.94
679.56	6.38
679.885	6.2
680.209	5.76
680.532	6.39
680.856	6.34
681.18	6.55
681.504	5.72
681.828	5.62
682.152	5.56
682.475	6.26
682.799	6.39
683.122	5.72
683.446	5.98
683.769	6.4
684.093	6.2
684.416	5.36
684.739	6.08
685.062	6.46
685.386	6.68
685.709	6.04
686.032	5.96
686.355	6.45
686.678	6.5
687.001	6.01
687.324	5.46
687.646	6.05
687.969	6.71
688.292	6.69
688.614	6.82
688.937	6.48
689.26	6.33
689.582	6.44
689.904	6.15
690.227	6.54
690.549	6.35
690.871	5.54
691.194	6.01
691.516	5.93
691.838	6.04
692.16	6.68
692.482	6.8
692.804	5.56
693.126	6.95
693.448	6.09
