Data from 0360_crown_Reflection__4__40.txt Node

Date: Mon Dec 11 18:01:01 CST 2023
User: ToomeyLab
Spectrometer: FLMS14357
Trigger mode: 0
Integration Time (sec): 1.000000E-2
Scans to average: 100
Electric dark correction enabled: true
Nonlinearity correction enabled: false
Boxcar width: 0
XAxis mode: Wavelengths
Number of Pixels in Spectrum: 2048
>>>>>Begin Spectral Data<<<<<
189.047	-79.59
189.435	-79.59
189.823	-79.59
190.211	-0.34
190.599	62.85
190.987	76.7
191.375	9.52
191.763	184.02
192.151	39.67
192.538	48.74
192.926	263.04
193.314	-3.57
193.702	218.18
194.089	304.76
194.477	96.19
194.864	77.3
195.252	-6.33
195.639	24.35
196.027	97.71
196.414	188.04
196.801	48.09
197.189	159.98
197.576	250.37
197.963	54.02
198.351	-7.3
198.738	14.34
199.125	-17.66
199.512	18.01
199.899	13.86
200.286	14.88
200.673	-124.06
201.06	38.33
201.447	-18.83
201.833	37.45
202.22	15.24
202.607	-12.56
202.994	13
203.38	-29.2
203.767	27.06
204.154	32.48
204.54	-9.16
204.927	-32.96
205.313	-4.76
205.699	-44.82
206.086	7.68
206.472	21.15
206.858	8.13
207.245	4.3
207.631	-7.42
208.017	23.05
208.403	5.43
208.789	8.02
209.175	18.87
209.561	9.01
209.947	7.85
210.333	26.75
210.719	17.57
211.105	20.16
211.491	26.95
211.876	6.31
212.262	19.99
212.648	9.68
213.034	-19.97
213.419	-27.37
213.805	-32.49
214.19	11.75
214.576	-11.03
214.961	9.23
215.346	-3.09
215.732	20.92
216.117	-2.75
216.502	17.74
216.888	11.7
217.273	19.04
217.658	12.11
218.043	-24.85
218.428	-4.25
218.813	16.58
219.198	-4.33
219.583	13.85
219.968	2.55
220.353	-13.36
220.738	31.52
221.122	3.93
221.507	16.61
221.892	2.63
222.276	8.44
222.661	-0.31
223.046	-9.54
223.43	5.83
223.815	-4.36
224.199	10.99
224.583	3.37
224.968	-1.12
225.352	2.13
225.736	6.29
226.121	1.05
226.505	-1.37
226.889	9.32
227.273	6.59
227.657	7.18
228.041	6.5
228.425	3.94
228.809	0.74
229.193	4.75
229.577	4.48
229.961	5.03
230.344	5.06
230.728	4.47
231.112	4.93
231.495	4.7
231.879	5.71
232.263	3.27
232.646	4.15
233.03	5.31
233.413	5.21
233.797	6.5
234.18	3.08
234.563	3
234.946	4.21
235.33	5.78
235.713	4.49
236.096	5.36
236.479	5.7
236.862	3.5
237.245	5.13
237.628	2.73
238.011	4.31
238.394	5.26
238.777	5.12
239.16	4.86
239.543	4.71
239.925	4.89
240.308	4.1
240.691	3.68
241.073	4.97
241.456	5.11
241.838	5.77
242.221	5.09
242.603	3.65
242.986	3.92
243.368	4.09
243.75	4.93
244.133	5
244.515	4.25
244.897	4.23
245.279	5.13
245.661	4.99
246.043	5.25
246.425	4
246.807	5.3
247.189	4.76
247.571	4.18
247.953	4.58
248.335	4.95
248.717	4.63
249.098	4.75
249.48	4.51
249.862	4.88
250.243	4.91
250.625	4.62
251.006	4.1
251.388	4.48
251.769	4.99
252.151	6.48
252.532	4.6
252.913	4.26
253.295	4.91
253.676	4.26
254.057	5.01
254.438	4.99
254.819	4.5
255.2	2.99
255.581	3.63
255.962	3.84
256.343	4.02
256.724	4.33
257.105	5.2
257.486	5.53
257.867	5.4
258.247	3.75
258.628	4.24
259.009	5.02
259.389	5.26
259.77	4.63
260.15	4.58
260.531	4.66
260.911	4.21
261.292	4.21
261.672	4.28
262.052	4.36
262.432	4.37
262.813	4.38
263.193	4.11
263.573	4.19
263.953	4.72
264.333	4.19
264.713	4.47
265.093	4.52
265.473	5.22
265.853	4.24
266.233	3.6
266.612	4.07
266.992	4.12
267.372	5.18
267.752	5.26
268.131	4.25
268.511	3.85
268.89	4.76
269.27	4.79
269.649	3.96
270.029	4.74
270.408	4.57
270.787	4.09
271.167	3.52
271.546	4.07
271.925	4.11
272.304	4.73
272.683	4.25
273.062	3.98
273.441	4.23
273.82	4.04
274.199	4.35
274.578	4.19
274.957	4.33
275.336	4.3
275.715	4.19
276.093	4.55
276.472	4.23
276.851	4.08
277.229	4.7
277.608	4.06
277.986	4.64
278.365	4.18
278.743	4.4
279.122	4.3
279.5	4.66
279.878	4.8
280.257	4.4
280.635	4.39
281.013	3.75
281.391	4.86
281.769	3.89
282.147	4.09
282.525	4.14
282.903	3.83
283.281	4.07
283.659	3.86
284.037	4.13
284.415	3.94
284.792	4.38
285.17	4.51
285.548	4.34
285.925	3.82
286.303	4.64
286.68	4.19
287.058	4.07
287.435	4.23
287.813	4.46
288.19	3.94
288.567	3.91
288.945	4.05
289.322	3.76
289.699	3.81
290.076	3.59
290.453	4.23
290.83	4.74
291.207	4.46
291.584	3.83
291.961	3.93
292.338	4.11
292.715	4.1
293.092	4.29
293.469	4.45
293.845	4.12
294.222	4.68
294.599	3.61
294.975	3.87
295.352	3.78
295.728	3.9
296.105	3.96
296.481	3.39
296.858	3.66
297.234	3.97
297.61	4.24
297.986	4.03
298.363	4.01
298.739	3.87
299.115	4.04
299.491	4.01
299.867	3.96
300.243	4.08
300.619	4.05
300.995	3.24
301.371	3.45
301.746	3.29
302.122	3.99
302.498	3.99
302.874	3.74
303.249	3.82
303.625	3.75
304	4.09
304.376	3.64
304.751	3.5
305.127	3.65
305.502	4.03
305.878	3.67
306.253	3.87
306.628	4.39
307.003	3.91
307.378	3.68
307.754	3.83
308.129	3.58
308.504	3.59
308.879	3.52
309.254	4.43
309.629	4.16
310.003	3.92
310.378	3.84
310.753	4.35
311.128	3.98
311.502	3.4
311.877	3.95
312.252	4.03
312.626	4.04
313.001	3.91
313.375	3.65
313.75	3.51
314.124	3.57
314.498	3.97
314.873	3.74
315.247	4.5
315.621	4.35
315.995	4
316.369	3.14
316.743	4.49
317.117	4
317.491	4.04
317.865	3.03
318.239	4.15
318.613	3.84
318.987	3.31
319.361	4.07
319.734	3.44
320.108	3.68
320.482	3.25
320.855	3.56
321.229	3.7
321.602	3.73
321.976	4.18
322.349	3.8
322.723	3.42
323.096	3.79
323.469	4.41
323.843	3.7
324.216	3.8
324.589	4.08
324.962	3.23
325.335	3.61
325.708	4.2
326.081	4.26
326.454	3.74
326.827	3.9
327.2	3.45
327.573	4.14
327.945	4.08
328.318	3.7
328.691	3.28
329.063	3.5
329.436	3.46
329.809	3.12
330.181	4.05
330.553	3.95
330.926	3.82
331.298	3.83
331.671	3.13
332.043	4.35
332.415	3.48
332.787	4.39
333.159	3.97
333.532	3.66
333.904	3.4
334.276	4.03
334.648	4.09
335.02	3.55
335.391	3.7
335.763	3.87
336.135	3.89
336.507	3.88
336.879	4.01
337.25	3.79
337.622	3.56
337.993	3.41
338.365	3.23
338.736	3.71
339.108	3.58
339.479	3.8
339.851	4.03
340.222	3.76
340.593	2.96
340.964	3.72
341.336	3.73
341.707	3.47
342.078	3.43
342.449	3.75
342.82	3.65
343.191	3.86
343.562	3.46
343.933	3.5
344.303	3.5
344.674	4.05
345.045	3.51
345.416	3.3
345.786	4.24
346.157	3.88
346.527	3.99
346.898	4.08
347.268	3.44
347.639	3.52
348.009	3.76
348.38	3.27
348.75	3.46
349.12	3.68
349.49	3.62
349.861	3.48
350.231	3.52
350.601	4.02
350.971	3.71
351.341	3.15
351.711	3.4
352.081	3.35
352.45	3.96
352.82	3.11
353.19	3.68
353.56	3.83
353.929	3.9
354.299	3.85
354.669	3.69
355.038	3.91
355.408	3.43
355.777	3.62
356.147	3.64
356.516	3.61
356.885	3.71
357.254	4.06
357.624	3.51
357.993	3.38
358.362	3.9
358.731	3.67
359.1	3.94
359.469	3.58
359.838	3.74
360.207	3.82
360.576	3.72
360.945	4.09
361.314	4.03
361.682	3.61
362.051	3.76
362.42	3.73
362.788	3.5
363.157	3.55
363.525	3.46
363.894	3.8
364.262	3.75
364.631	4
364.999	3.8
365.367	3.99
365.735	3.91
366.104	3.39
366.472	3.85
366.84	3.63
367.208	3.69
367.576	3.95
367.944	3.94
368.312	3.73
368.68	3.56
369.048	3.63
369.416	3.59
369.783	3.62
370.151	4.15
370.519	4.28
370.886	3.79
371.254	4.14
371.621	4.1
371.989	3.9
372.356	3.75
372.724	4.15
373.091	3.88
373.458	3.75
373.826	3.8
374.193	3.85
374.56	3.98
374.927	3.97
375.294	3.92
375.661	3.87
376.028	3.92
376.395	3.78
376.762	3.85
377.129	4.54
377.496	3.87
377.863	4.11
378.229	3.83
378.596	4.15
378.963	4.08
379.329	3.78
379.696	3.91
380.062	3.68
380.429	3.74
380.795	4.4
381.161	4.06
381.528	3.85
381.894	4
382.26	3.84
382.626	3.99
382.993	4.21
383.359	3.96
383.725	3.86
384.091	3.89
384.457	3.7
384.823	4.07
385.188	3.94
385.554	3.86
385.92	4.08
386.286	4.13
386.651	3.99
387.017	3.96
387.383	3.94
387.748	4.01
388.114	3.82
388.479	3.91
388.845	3.94
389.21	4.03
389.575	4.09
389.94	4.04
390.306	4.23
390.671	3.84
391.036	4.05
391.401	4.34
391.766	4.04
392.131	4.11
392.496	4.15
392.861	4.22
393.226	4.18
393.591	4.39
393.956	3.97
394.32	4.23
394.685	4.14
395.05	4.17
395.414	4.41
395.779	3.95
396.143	3.72
396.508	4.13
396.872	4.17
397.236	4.32
397.601	3.85
397.965	3.97
398.329	4.18
398.694	3.97
399.058	3.98
399.422	4.11
399.786	3.94
400.15	4.16
400.514	4.37
400.878	4.22
401.242	4.09
401.605	4.15
401.969	4.15
402.333	3.91
402.697	4.12
403.06	4.22
403.424	4.25
403.787	4.45
404.151	3.96
404.514	4
404.878	4.27
405.241	4.27
405.604	4.23
405.968	4.06
406.331	4.2
406.694	4.04
407.057	4.12
407.42	4.35
407.783	4.5
408.146	4.13
408.509	4.06
408.872	4.22
409.235	4.34
409.598	4.24
409.961	4.44
410.323	4.07
410.686	4.19
411.049	4.17
411.411	4.14
411.774	4.35
412.136	4.3
412.499	4.52
412.861	4.06
413.223	4.34
413.586	4.24
413.948	4.38
414.31	4.01
414.672	3.99
415.035	4.37
415.397	4.23
415.759	4.18
416.121	4.47
416.483	4.32
416.845	4.71
417.206	4.34
417.568	4.28
417.93	4.4
418.292	4.18
418.653	4.11
419.015	4.12
419.377	4.35
419.738	4.32
420.1	4.29
420.461	4.22
420.822	4.2
421.184	4.38
421.545	4.22
421.906	4.24
422.267	4.31
422.629	4.1
422.99	4.25
423.351	4.2
423.712	4.19
424.073	4.28
424.434	4.34
424.795	4.41
425.155	4.29
425.516	4.16
425.877	4.15
426.238	4.29
426.598	4.27
426.959	4.3
427.32	4.27
427.68	4.35
428.041	4.23
428.401	4.14
428.761	4.35
429.122	4.3
429.482	4.43
429.842	4.3
430.202	4.36
430.563	4.18
430.923	4.41
431.283	4.48
431.643	4.49
432.003	4.41
432.363	4.42
432.722	4.19
433.082	4.41
433.442	4.68
433.802	4.39
434.161	4.39
434.521	4.15
434.881	4.41
435.24	4.22
435.6	4.36
435.959	4.31
436.319	4.26
436.678	4.37
437.037	4.5
437.396	4.57
437.756	4.48
438.115	4.64
438.474	4.5
438.833	4.33
439.192	4.44
439.551	4.49
439.91	4.49
440.269	4.6
440.628	4.21
440.987	4.51
441.345	4.41
441.704	4.42
442.063	4.49
442.421	4.54
442.78	4.29
443.138	4.4
443.497	4.33
443.855	4.27
444.214	4.71
444.572	4.47
444.93	4.5
445.288	4.41
445.647	4.49
446.005	4.31
446.363	4.39
446.721	4.39
447.079	4.46
447.437	4.31
447.795	4.34
448.153	4.48
448.51	4.37
448.868	4.23
449.226	4.29
449.584	4.48
449.941	4.53
450.299	4.47
450.656	4.5
451.014	4.43
451.371	4.35
451.729	4.44
452.086	4.47
452.443	4.62
452.801	4.55
453.158	4.54
453.515	4.34
453.872	4.6
454.229	4.53
454.586	4.42
454.943	4.57
455.3	4.51
455.657	4.56
456.014	4.49
456.371	4.7
456.727	4.61
457.084	4.51
457.441	4.68
457.797	4.63
458.154	4.66
458.51	4.66
458.867	4.48
459.223	4.57
459.58	4.47
459.936	4.57
460.292	4.5
460.648	4.48
461.005	4.44
461.361	4.44
461.717	4.42
462.073	4.49
462.429	4.41
462.785	4.5
463.141	4.41
463.496	4.6
463.852	4.46
464.208	4.47
464.564	4.58
464.919	4.62
465.275	4.44
465.631	4.42
465.986	4.61
466.342	4.54
466.697	4.45
467.052	4.47
467.408	4.74
467.763	4.55
468.118	4.4
468.473	4.6
468.829	4.51
469.184	4.76
469.539	4.68
469.894	4.43
470.249	4.44
470.603	4.54
470.958	4.73
471.313	4.67
471.668	4.63
472.023	4.81
472.377	4.7
472.732	4.61
473.086	4.67
473.441	4.72
473.795	4.75
474.15	4.54
474.504	4.66
474.859	4.59
475.213	4.56
475.567	4.68
475.921	4.59
476.275	4.64
476.63	4.5
476.984	4.64
477.338	4.5
477.692	4.5
478.045	4.52
478.399	4.5
478.753	4.48
479.107	4.47
479.461	4.68
479.814	4.57
480.168	4.64
480.521	4.72
480.875	4.52
481.228	4.47
481.582	4.77
481.935	4.74
482.289	4.67
482.642	4.66
482.995	4.66
483.348	4.47
483.701	4.4
484.055	4.66
484.408	4.47
484.761	4.42
485.114	4.42
485.466	4.32
485.819	4.23
486.172	4.28
486.525	4.4
486.878	4.45
487.23	4.46
487.583	4.43
487.936	4.48
488.288	4.5
488.641	4.43
488.993	4.32
489.345	4.43
489.698	4.45
490.05	4.43
490.402	4.4
490.754	4.49
491.107	4.52
491.459	4.52
491.811	4.55
492.163	4.54
492.515	4.54
492.866	4.49
493.218	4.41
493.57	4.36
493.922	4.44
494.274	4.52
494.625	4.57
494.977	4.6
495.328	4.62
495.68	4.75
496.031	4.67
496.383	4.57
496.734	4.74
497.086	4.56
497.437	4.8
497.788	4.64
498.139	4.62
498.49	4.57
498.842	4.68
499.193	4.69
499.544	4.69
499.894	4.64
500.245	4.73
500.596	4.77
500.947	4.69
501.298	4.77
501.648	4.6
501.999	4.52
502.35	4.77
502.7	4.69
503.051	4.68
503.401	4.64
503.752	4.78
504.102	4.68
504.452	4.73
504.803	4.87
505.153	4.74
505.503	4.81
505.853	4.83
506.203	4.62
506.553	4.74
506.903	4.73
507.253	4.8
507.603	4.64
507.953	4.68
508.303	4.58
508.652	4.72
509.002	4.7
509.352	4.81
509.701	4.88
510.051	4.68
510.4	4.64
510.75	4.73
511.099	4.65
511.449	4.73
511.798	4.71
512.147	4.79
512.496	4.57
512.846	4.75
513.195	4.76
513.544	4.73
513.893	4.64
514.242	4.69
514.591	4.62
514.939	4.67
515.288	4.83
515.637	4.74
515.986	4.7
516.334	4.74
516.683	4.96
517.032	4.81
517.38	4.77
517.729	4.75
518.077	4.83
518.426	4.83
518.774	4.78
519.122	4.78
519.47	4.65
519.819	4.64
520.167	4.64
520.515	4.65
520.863	4.59
521.211	4.7
521.559	4.74
521.907	4.7
522.255	4.62
522.602	4.62
522.95	4.88
523.298	4.71
523.645	4.93
523.993	4.83
524.341	4.78
524.688	4.77
525.036	4.72
525.383	4.84
525.73	4.85
526.078	4.84
526.425	4.65
526.772	4.69
527.119	4.68
527.466	4.69
527.814	4.63
528.161	4.57
528.508	4.75
528.854	4.68
529.201	4.63
529.548	4.62
529.895	4.58
530.242	4.51
530.588	4.49
530.935	4.5
531.282	4.56
531.628	4.62
531.975	4.61
532.321	4.62
532.667	4.7
533.014	4.66
533.36	4.7
533.706	4.75
534.052	4.75
534.399	4.73
534.745	4.67
535.091	4.56
535.437	4.55
535.783	4.61
536.129	4.72
536.474	4.74
536.82	4.72
537.166	4.77
537.512	4.74
537.857	4.73
538.203	4.69
538.549	4.78
538.894	4.73
539.239	4.78
539.585	4.77
539.93	4.7
540.276	4.77
540.621	4.72
540.966	4.95
541.311	4.88
541.656	4.76
542.001	4.81
542.346	4.87
542.691	4.67
543.036	4.58
543.381	4.51
543.726	4.6
544.071	4.65
544.415	4.68
544.76	4.64
545.105	4.69
545.449	4.62
545.794	4.7
546.138	4.7
546.483	4.56
546.827	4.87
547.171	4.71
547.516	4.73
547.86	4.75
548.204	4.87
548.548	4.76
548.892	4.73
549.236	4.72
549.58	4.84
549.924	4.84
550.268	4.71
550.612	4.62
550.956	4.76
551.3	4.77
551.643	4.84
551.987	5.08
552.33	4.97
552.674	5.16
553.017	4.81
553.361	4.81
553.704	4.77
554.048	4.76
554.391	4.71
554.734	4.81
555.077	4.88
555.42	5
555.764	4.83
556.107	4.9
556.45	4.81
556.793	4.86
557.135	4.76
557.478	4.93
557.821	4.84
558.164	5
558.507	4.87
558.849	4.82
559.192	4.83
559.534	4.81
559.877	5.08
560.219	4.77
560.562	4.93
560.904	4.92
561.246	4.85
561.589	5.02
561.931	4.94
562.273	4.77
562.615	4.93
562.957	5.17
563.299	4.98
563.641	4.76
563.983	4.97
564.325	4.99
564.667	4.7
565.008	4.84
565.35	5.03
565.692	4.93
566.033	4.84
566.375	4.92
566.716	4.8
567.058	4.85
567.399	4.96
567.741	4.76
568.082	4.95
568.423	4.77
568.764	4.9
569.105	4.85
569.447	4.79
569.788	4.75
570.129	4.86
570.47	4.68
570.811	4.56
571.151	4.83
571.492	5.03
571.833	4.74
572.174	4.97
572.514	4.92
572.855	4.7
573.195	4.86
573.536	4.64
573.876	4.87
574.217	4.94
574.557	4.84
574.898	4.93
575.238	4.94
575.578	4.9
575.918	4.89
576.258	5.02
576.598	4.91
576.938	5
577.278	4.75
577.618	4.68
577.958	4.72
578.298	4.91
578.638	4.95
578.977	4.91
579.317	4.86
579.657	4.71
579.996	4.79
580.336	5.08
580.675	4.69
581.014	4.84
581.354	4.63
581.693	5.02
582.032	4.68
582.372	4.95
582.711	4.63
583.05	4.94
583.389	4.92
583.728	4.88
584.067	4.7
584.406	4.86
584.745	4.98
585.083	4.67
585.422	5
585.761	4.8
586.1	4.86
586.438	4.78
586.777	4.88
587.115	4.51
587.454	4.49
587.792	4.89
588.13	5.08
588.469	4.98
588.807	4.79
589.145	5.02
589.483	4.84
589.821	4.82
590.159	4.67
590.497	4.64
590.835	4.74
591.173	4.72
591.511	5.03
591.849	4.86
592.187	4.67
592.524	4.81
592.862	4.98
593.2	4.81
593.537	4.79
593.875	5.03
594.212	4.91
594.55	4.76
594.887	4.69
595.224	4.94
595.561	5.01
595.899	4.69
596.236	4.92
596.573	4.92
596.91	4.67
597.247	4.87
597.584	4.71
597.921	4.74
598.258	4.55
598.594	4.7
598.931	4.74
599.268	4.82
599.604	4.71
599.941	4.85
600.277	4.75
600.614	5.12
600.95	4.93
601.287	4.85
601.623	4.89
601.959	4.86
602.296	4.81
602.632	4.8
602.968	4.83
603.304	5.03
603.64	4.9
603.976	5.07
604.312	5
604.648	4.65
604.984	4.77
605.319	4.73
605.655	4.74
605.991	4.78
606.326	4.76
606.662	4.69
606.998	4.54
607.333	4.77
607.668	4.65
608.004	4.62
608.339	4.94
608.674	5.17
609.01	4.66
609.345	4.78
609.68	4.72
610.015	4.8
610.35	5.12
610.685	4.66
611.02	4.79
611.355	4.78
611.689	4.97
612.024	4.7
612.359	4.57
612.694	4.81
613.028	4.57
613.363	4.75
613.697	4.77
614.032	4.85
614.366	4.96
614.7	4.75
615.035	4.56
615.369	4.89
615.703	4.7
616.037	4.92
616.371	4.96
616.705	4.9
617.039	4.82
617.373	4.8
617.707	5.05
618.041	5.3
618.375	4.81
618.709	4.66
619.042	4.89
619.376	5.07
619.71	4.56
620.043	4.52
620.377	4.8
620.71	5.07
621.043	4.43
621.377	4.26
621.71	4.79
622.043	4.77
622.376	4.95
622.709	5.13
623.043	5.1
623.376	4.76
623.709	5.03
624.041	4.73
624.374	4.69
624.707	4.63
625.04	5.1
625.373	4.52
625.705	4.66
626.038	4.49
626.37	4.78
626.703	4.91
627.035	4.72
627.368	4.44
627.7	4.73
628.032	4.73
628.365	4.73
628.697	4.63
629.029	4.79
629.361	4.49
629.693	4.63
630.025	4.74
630.357	4.53
630.689	4.51
631.021	4.72
631.353	4.59
631.684	4.59
632.016	4.94
632.348	4.9
632.679	4.98
633.011	4.55
633.342	4.64
633.674	5.06
634.005	4.81
634.336	4.79
634.668	4.86
634.999	4.95
635.33	4.69
635.661	4.72
635.992	4.83
636.323	4.65
636.654	4.73
636.985	4.63
637.316	4.77
637.647	4.57
637.977	4.87
638.308	5.03
638.639	4.58
638.969	4.64
639.3	4.87
639.63	4.45
639.961	4.82
640.291	5.12
640.622	4.92
640.952	5.35
641.282	5.05
641.612	5.3
641.943	4.78
642.273	4.81
642.603	4.69
642.933	4.74
643.263	4.93
643.592	4.65
643.922	4.96
644.252	4.52
644.582	4.93
644.911	4.92
645.241	4.32
645.571	5.15
645.9	4.24
646.23	4.85
646.559	4.78
646.888	4.87
647.218	5.1
647.547	4.57
647.876	4.82
648.205	4.6
648.534	4.79
648.863	4.97
649.192	4.8
649.521	4.92
649.85	4.61
650.179	4.99
650.508	4.5
650.837	4.31
651.165	5.18
651.494	4.87
651.822	4.6
652.151	5.16
652.479	4.77
652.808	4.8
653.136	4.84
653.465	4.92
653.793	4.9
654.121	4.97
654.449	4.7
654.777	5.34
655.105	4.26
655.433	4.67
655.761	5.12
656.089	4.69
656.417	4.53
656.745	4.64
657.073	5.01
657.4	4.88
657.728	4.66
658.056	5.17
658.383	4.67
658.711	4.74
659.038	4.86
659.365	4.65
659.693	5.28
660.02	4.87
660.347	4.82
660.674	4.97
661.001	4.27
661.329	5.01
661.656	4.89
661.982	4.75
662.309	4.93
662.636	4.83
662.963	5.08
663.29	4.7
663.616	4.34
663.943	4.48
664.27	4.38
664.596	4.6
664.923	4.36
665.249	4.41
665.576	4.18
665.902	4.6
666.228	5.24
666.554	4.92
666.881	4.72
667.207	4.49
667.533	4.21
667.859	4.83
668.185	4.96
668.511	4.9
668.837	4.9
669.162	5.04
669.488	5.11
669.814	4.36
670.139	4.69
670.465	5.1
670.791	4.91
671.116	5.26
671.442	5.21
671.767	5.41
672.092	4.76
672.418	4.78
672.743	4.33
673.068	4.72
673.393	4.99
673.718	5.06
674.043	5.5
674.368	5.34
674.693	4.13
675.018	5.12
675.343	4.68
675.667	4.54
675.992	5.36
676.317	4.63
676.641	5.29
676.966	5.26
677.29	4.65
677.615	5.71
677.939	4.3
678.264	5.06
678.588	4.74
678.912	4.71
679.236	5.23
679.56	4.81
679.885	5
680.209	5.42
680.532	4.89
680.856	4.95
681.18	4.77
681.504	5.12
681.828	4.4
682.152	4.58
682.475	5
682.799	5.16
683.122	4.6
683.446	4.55
683.769	4.63
684.093	5.16
684.416	4.35
684.739	5.33
685.062	4.79
685.386	5.12
685.709	5.49
686.032	5.07
686.355	4.83
686.678	5.09
687.001	5.29
687.324	4.31
687.646	4.34
687.969	5.2
688.292	5.97
688.614	5.29
688.937	5.28
689.26	4.92
689.582	4.68
689.904	5.22
690.227	5.07
690.549	4.68
690.871	4.52
691.194	4.71
691.516	4.14
691.838	4.65
692.16	5.88
692.482	5.57
692.804	4.92
693.126	5.33
693.448	5.12
693.769	4.33
