Data from 20-6_crown_Reflection__0__126.txt Node

Date: Fri Nov 11 21:06:46 CST 2022
User: ToomeyLab
Spectrometer: FLMS14357
Trigger mode: 0
Integration Time (sec): 1.000000E-2
Scans to average: 100
Electric dark correction enabled: true
Nonlinearity correction enabled: false
Boxcar width: 0
XAxis mode: Wavelengths
Number of Pixels in Spectrum: 2048
>>>>>Begin Spectral Data<<<<<
189.047	-14.6
189.435	-14.6
189.823	-14.6
190.211	-235.14
190.599	-13.84
190.987	104.83
191.375	-78.62
191.763	-474.83
192.151	271.43
192.538	162.98
192.926	127.79
193.314	75.43
193.702	-1086.09
194.089	26.24
194.477	78.98
194.864	-2.59
195.252	73.26
195.639	100
196.027	-15.11
196.414	155.02
196.801	114.92
197.189	86.96
197.576	159.57
197.963	37.08
198.351	-100.23
198.738	-43
199.125	3.58
199.512	22.26
199.899	-51.17
200.286	5.29
200.673	5.56
201.06	57.99
201.447	2.99
201.833	25.33
202.22	-34.48
202.607	2.04
202.994	8.93
203.38	-6.38
203.767	62.46
204.154	15.85
204.54	-22.35
204.927	-29.01
205.313	-27.63
205.699	-33.14
206.086	25.58
206.472	-13.64
206.858	33.46
207.245	29.66
207.631	2.57
208.017	7.36
208.403	-10.29
208.789	-3.33
209.175	30.92
209.561	33.93
209.947	-4.68
210.333	-4.96
210.719	24.87
211.105	42.87
211.491	-14.33
211.876	9.12
212.262	8.96
212.648	3.53
213.034	-6.95
213.419	-73.33
213.805	-36.85
214.19	-8.26
214.576	-1.11
214.961	-65.94
215.346	-23.59
215.732	-8.16
216.117	20.51
216.502	4.95
216.888	-21.66
217.273	12.17
217.658	-54.08
218.043	22.8
218.428	-0.19
218.813	4.83
219.198	17.12
219.583	4.06
219.968	-11.14
220.353	-44.32
220.738	-30.92
221.122	15.66
221.507	-5.68
221.892	-28.04
222.276	14.27
222.661	15.08
223.046	-12.84
223.43	-0.43
223.815	6.34
224.199	0.83
224.583	-1.21
224.968	2.07
225.352	15.51
225.736	-4.49
226.121	-6.71
226.505	6.29
226.889	-6.5
227.273	1.3
227.657	-2.29
228.041	1.74
228.425	5.34
228.809	10.05
229.193	8.41
229.577	7.31
229.961	9.79
230.344	7.83
230.728	6.39
231.112	7.13
231.495	7.82
231.879	6.31
232.263	6.48
232.646	6.41
233.03	6.67
233.413	7.5
233.797	6.9
234.18	3.78
234.563	8.13
234.946	8.38
235.33	6.36
235.713	5.6
236.096	5.48
236.479	6.21
236.862	9.26
237.245	6.02
237.628	5.87
238.011	8.11
238.394	7.55
238.777	6.65
239.16	8.66
239.543	4.37
239.925	6.14
240.308	4.98
240.691	8.32
241.073	7.62
241.456	5.51
241.838	8.3
242.221	5.61
242.603	7.55
242.986	7.02
243.368	6.9
243.75	6.85
244.133	7.49
244.515	6.8
244.897	7.59
245.279	6.56
245.661	6.91
246.043	5.78
246.425	6.83
246.807	6.84
247.189	6.47
247.571	6.68
247.953	6.75
248.335	6.87
248.717	6.63
249.098	7.18
249.48	6.64
249.862	6.92
250.243	6.38
250.625	6.31
251.006	7.93
251.388	6.94
251.769	7.09
252.151	6.14
252.532	6.48
252.913	6.38
253.295	6.37
253.676	5.99
254.057	6.1
254.438	6.31
254.819	5.99
255.2	6.88
255.581	5.5
255.962	5.32
256.343	6.09
256.724	5.13
257.105	4.89
257.486	6.05
257.867	6.31
258.247	4.88
258.628	6.08
259.009	5.78
259.389	5.73
259.77	6.52
260.15	6.17
260.531	6
260.911	6.35
261.292	6.26
261.672	5.94
262.052	6.23
262.432	6.16
262.813	6.47
263.193	5.86
263.573	6.51
263.953	6.62
264.333	6.67
264.713	5.92
265.093	6.51
265.473	5.72
265.853	5.37
266.233	5.97
266.612	5.49
266.992	5.79
267.372	6.4
267.752	6.06
268.131	5.85
268.511	6.38
268.89	5.82
269.27	5.81
269.649	5.81
270.029	6.37
270.408	5.67
270.787	5.22
271.167	4.93
271.546	6.03
271.925	5.98
272.304	6.07
272.683	5.72
273.062	5.44
273.441	5.91
273.82	5.23
274.199	5.52
274.578	5.28
274.957	5.65
275.336	6.08
275.715	5.47
276.093	5.67
276.472	5.11
276.851	5.51
277.229	5.21
277.608	5.5
277.986	6.24
278.365	5.06
278.743	5.5
279.122	6.08
279.5	5.73
279.878	5.46
280.257	5.76
280.635	5.02
281.013	5.41
281.391	5.57
281.769	5.24
282.147	5.29
282.525	4.57
282.903	4.97
283.281	5.24
283.659	5.14
284.037	5.54
284.415	4.97
284.792	5.52
285.17	5.46
285.548	5.14
285.925	5.06
286.303	5.18
286.68	5.91
287.058	5.16
287.435	5.4
287.813	5.34
288.19	4.77
288.567	5.13
288.945	5.47
289.322	5.21
289.699	4.66
290.076	5.78
290.453	5.01
290.83	5.1
291.207	4.89
291.584	5.04
291.961	5.04
292.338	5.01
292.715	5.05
293.092	5.02
293.469	5.12
293.845	4.97
294.222	4.94
294.599	4.96
294.975	5
295.352	5.1
295.728	5.01
296.105	4.65
296.481	4.39
296.858	4.71
297.234	5
297.61	4.62
297.986	4.96
298.363	5.14
298.739	5.16
299.115	4.9
299.491	4.91
299.867	4.92
300.243	4.77
300.619	4.78
300.995	4.8
301.371	5.01
301.746	5.27
302.122	4.92
302.498	4.8
302.874	4.72
303.249	5.22
303.625	4.69
304	4.53
304.376	4.54
304.751	4.41
305.127	4.44
305.502	4.79
305.878	4.76
306.253	4.67
306.628	4.44
307.003	4.52
307.378	4.52
307.754	4.97
308.129	4.67
308.504	4.73
308.879	4.37
309.254	4.5
309.629	4.35
310.003	4.33
310.378	4.88
310.753	5.08
311.128	5
311.502	4.71
311.877	4.47
312.252	4.84
312.626	4.67
313.001	4.73
313.375	4.79
313.75	4.52
314.124	4.36
314.498	4.61
314.873	4.89
315.247	4.4
315.621	4.81
315.995	4.32
316.369	4.8
316.743	4.49
317.117	4.67
317.491	4.89
317.865	3.62
318.239	4.48
318.613	4.61
318.987	4.27
319.361	4.27
319.734	4.47
320.108	4.38
320.482	4.28
320.855	3.65
321.229	4.25
321.602	4.35
321.976	4.41
322.349	4.57
322.723	4.56
323.096	4.42
323.469	4.62
323.843	4.79
324.216	4.07
324.589	4.71
324.962	4.85
325.335	4.49
325.708	4.85
326.081	4.84
326.454	4.12
326.827	4.37
327.2	4.36
327.573	4.91
327.945	4.41
328.318	4.4
328.691	4.54
329.063	4.54
329.436	4.4
329.809	4.74
330.181	4.46
330.553	3.75
330.926	4.21
331.298	4.23
331.671	4.49
332.043	4.03
332.415	4.37
332.787	4.47
333.159	3.9
333.532	4.53
333.904	4.37
334.276	4.01
334.648	4.02
335.02	3.84
335.391	4.51
335.763	4.69
336.135	4.2
336.507	4.37
336.879	4.3
337.25	4.31
337.622	4.32
337.993	4.42
338.365	4.49
338.736	4.49
339.108	4.18
339.479	4.13
339.851	4.21
340.222	4.3
340.593	4.72
340.964	4.22
341.336	4.73
341.707	4.48
342.078	4.04
342.449	4.53
342.82	4.46
343.191	4.62
343.562	4.71
343.933	4.18
344.303	4.06
344.674	4.45
345.045	4.07
345.416	4.64
345.786	4.26
346.157	4.43
346.527	4.55
346.898	4.23
347.268	4.07
347.639	4.27
348.009	4.53
348.38	4.41
348.75	4.4
349.12	4.87
349.49	4.79
349.861	4.54
350.231	4.8
350.601	4.64
350.971	4.24
351.341	4.58
351.711	4.27
352.081	4.41
352.45	4.41
352.82	4.58
353.19	4.77
353.56	4.43
353.929	4.34
354.299	4.62
354.669	4.81
355.038	4.7
355.408	4.5
355.777	4.47
356.147	4.8
356.516	4.5
356.885	4.6
357.254	4.48
357.624	4
357.993	4.4
358.362	4.64
358.731	4.44
359.1	4.51
359.469	4.08
359.838	4.38
360.207	4.62
360.576	4.63
360.945	4.7
361.314	4.26
361.682	4.43
362.051	4.46
362.42	4.74
362.788	4.51
363.157	4.59
363.525	4.48
363.894	4.62
364.262	4.82
364.631	4.98
364.999	4.57
365.367	4.65
365.735	4.71
366.104	4.51
366.472	4.33
366.84	4.31
367.208	4.38
367.576	5.07
367.944	4.94
368.312	4.5
368.68	4.56
369.048	4.75
369.416	4.67
369.783	5.15
370.151	4.58
370.519	4.92
370.886	4.51
371.254	5.11
371.621	4.48
371.989	4.4
372.356	4.84
372.724	4.88
373.091	4.91
373.458	4.46
373.826	4.53
374.193	4.63
374.56	4.76
374.927	4.62
375.294	4.93
375.661	4.86
376.028	4.5
376.395	4.76
376.762	4.81
377.129	4.78
377.496	4.69
377.863	4.77
378.229	4.92
378.596	4.77
378.963	4.67
379.329	4.92
379.696	4.89
380.062	4.91
380.429	4.89
380.795	4.95
381.161	4.97
381.528	4.84
381.894	5.15
382.26	5
382.626	4.86
382.993	4.85
383.359	4.98
383.725	4.44
384.091	4.84
384.457	4.79
384.823	4.68
385.188	4.74
385.554	4.85
385.92	4.77
386.286	4.78
386.651	4.94
387.017	4.8
387.383	4.99
387.748	4.97
388.114	4.77
388.479	4.69
388.845	4.79
389.21	4.8
389.575	4.97
389.94	4.81
390.306	4.56
390.671	5.01
391.036	4.87
391.401	4.93
391.766	5.08
392.131	4.97
392.496	4.98
392.861	4.89
393.226	5.01
393.591	5.04
393.956	5.01
394.32	4.75
394.685	4.96
395.05	4.94
395.414	4.94
395.779	4.92
396.143	4.97
396.508	4.96
396.872	5.03
397.236	4.74
397.601	4.95
397.965	4.88
398.329	5.05
398.694	5.19
399.058	4.96
399.422	5.21
399.786	5.03
400.15	5.17
400.514	5.16
400.878	5.07
401.242	4.8
401.605	4.99
401.969	5.08
402.333	4.89
402.697	5.22
403.06	5.1
403.424	4.73
403.787	5.1
404.151	5.05
404.514	4.84
404.878	5.16
405.241	4.82
405.604	4.86
405.968	5.05
406.331	4.85
406.694	5.02
407.057	5.05
407.42	5.19
407.783	5.16
408.146	5.09
408.509	4.99
408.872	5.02
409.235	5.21
409.598	5
409.961	5.28
410.323	4.8
410.686	5.18
411.049	5.05
411.411	4.97
411.774	5.16
412.136	5.07
412.499	5.18
412.861	5.06
413.223	5.05
413.586	4.86
413.948	5.39
414.31	5.23
414.672	5.27
415.035	5.19
415.397	5.02
415.759	5.03
416.121	5.12
416.483	5.03
416.845	4.98
417.206	4.99
417.568	5.08
417.93	5.05
418.292	4.92
418.653	5.24
419.015	5.09
419.377	5.19
419.738	5.23
420.1	5.1
420.461	5.15
420.822	5.1
421.184	5.06
421.545	5.1
421.906	4.98
422.267	5.05
422.629	4.97
422.99	5.14
423.351	5.11
423.712	5.05
424.073	5.13
424.434	5.19
424.795	5.18
425.155	5.11
425.516	5.14
425.877	5.06
426.238	5.13
426.598	5.12
426.959	5.04
427.32	5.23
427.68	5.15
428.041	5.25
428.401	5.08
428.761	5.2
429.122	4.97
429.482	5.18
429.842	5.2
430.202	5.18
430.563	5.15
430.923	5.29
431.283	5.03
431.643	5.2
432.003	5.36
432.363	5.11
432.722	5.37
433.082	5.29
433.442	5.19
433.802	5.22
434.161	5.24
434.521	5.22
434.881	5.36
435.24	5.21
435.6	5.21
435.959	5.26
436.319	5.19
436.678	5.22
437.037	5.26
437.396	5.34
437.756	5.26
438.115	5.13
438.474	5.11
438.833	5.22
439.192	5.2
439.551	5.18
439.91	5.36
440.269	5.32
440.628	5.53
440.987	5.24
441.345	5.23
441.704	5.16
442.063	5.28
442.421	5.14
442.78	5.27
443.138	5.3
443.497	5.21
443.855	5.28
444.214	5.19
444.572	5.29
444.93	5.35
445.288	5.28
445.647	5.46
446.005	5.26
446.363	5.41
446.721	5.29
447.079	5.38
447.437	5.23
447.795	5.3
448.153	5.28
448.51	5.21
448.868	5.22
449.226	5.26
449.584	5.24
449.941	5.3
450.299	5.22
450.656	5.41
451.014	5.4
451.371	5.41
451.729	5.36
452.086	5.43
452.443	5.38
452.801	5.48
453.158	5.3
453.515	5.29
453.872	5.31
454.229	5.43
454.586	5.36
454.943	5.39
455.3	5.36
455.657	5.4
456.014	5.58
456.371	5.54
456.727	5.49
457.084	5.14
457.441	5.48
457.797	5.42
458.154	5.34
458.51	5.47
458.867	5.29
459.223	5.42
459.58	5.29
459.936	5.29
460.292	5.4
460.648	5.42
461.005	5.42
461.361	5.33
461.717	5.25
462.073	5.38
462.429	5.31
462.785	5.3
463.141	5.35
463.496	5.38
463.852	5.41
464.208	5.51
464.564	5.49
464.919	5.33
465.275	5.37
465.631	5.41
465.986	5.68
466.342	5.41
466.697	5.43
467.052	5.43
467.408	5.45
467.763	5.35
468.118	5.45
468.473	5.59
468.829	5.55
469.184	5.48
469.539	5.34
469.894	5.51
470.249	5.36
470.603	5.42
470.958	5.42
471.313	5.48
471.668	5.7
472.023	5.34
472.377	5.45
472.732	5.4
473.086	5.3
473.441	5.41
473.795	5.38
474.15	5.43
474.504	5.61
474.859	5.54
475.213	5.58
475.567	5.61
475.921	5.43
476.275	5.44
476.63	5.54
476.984	5.53
477.338	5.61
477.692	5.45
478.045	5.42
478.399	5.66
478.753	5.38
479.107	5.48
479.461	5.48
479.814	5.33
480.168	5.54
480.521	5.58
480.875	5.49
481.228	5.51
481.582	5.53
481.935	5.3
482.289	5.39
482.642	5.54
482.995	5.37
483.348	5.4
483.701	5.4
484.055	5.42
484.408	5.34
484.761	5.28
485.114	5.19
485.466	5.15
485.819	5.16
486.172	5.15
486.525	5.22
486.878	5.22
487.23	5.24
487.583	5.26
487.936	5.31
488.288	5.34
488.641	5.26
488.993	5.24
489.345	5.23
489.698	5.2
490.05	5.24
490.402	5.27
490.754	5.29
491.107	5.27
491.459	5.32
491.811	5.47
492.163	5.43
492.515	5.39
492.866	5.39
493.218	5.26
493.57	5.26
493.922	5.25
494.274	5.34
494.625	5.31
494.977	5.41
495.328	5.45
495.68	5.39
496.031	5.45
496.383	5.54
496.734	5.45
497.086	5.54
497.437	5.51
497.788	5.45
498.139	5.48
498.49	5.38
498.842	5.43
499.193	5.48
499.544	5.45
499.894	5.39
500.245	5.5
500.596	5.46
500.947	5.44
501.298	5.53
501.648	5.48
501.999	5.52
502.35	5.62
502.7	5.53
503.051	5.44
503.401	5.49
503.752	5.44
504.102	5.51
504.452	5.59
504.803	5.37
505.153	5.44
505.503	5.51
505.853	5.57
506.203	5.62
506.553	5.44
506.903	5.48
507.253	5.48
507.603	5.38
507.953	5.46
508.303	5.44
508.652	5.55
509.002	5.48
509.352	5.41
509.701	5.62
510.051	5.44
510.4	5.55
510.75	5.45
511.099	5.35
511.449	5.53
511.798	5.43
512.147	5.33
512.496	5.34
512.846	5.63
513.195	5.45
513.544	5.49
513.893	5.4
514.242	5.36
514.591	5.47
514.939	5.48
515.288	5.47
515.637	5.52
515.986	5.52
516.334	5.52
516.683	5.48
517.032	5.58
517.38	5.54
517.729	5.54
518.077	5.63
518.426	5.61
518.774	5.56
519.122	5.56
519.47	5.41
519.819	5.45
520.167	5.4
520.515	5.5
520.863	5.43
521.211	5.39
521.559	5.36
521.907	5.48
522.255	5.47
522.602	5.43
522.95	5.54
523.298	5.56
523.645	5.49
523.993	5.62
524.341	5.5
524.688	5.5
525.036	5.54
525.383	5.57
525.73	5.46
526.078	5.4
526.425	5.42
526.772	5.51
527.119	5.37
527.466	5.46
527.814	5.41
528.161	5.45
528.508	5.39
528.854	5.4
529.201	5.39
529.548	5.33
529.895	5.27
530.242	5.23
530.588	5.24
530.935	5.26
531.282	5.29
531.628	5.28
531.975	5.33
532.321	5.3
532.667	5.4
533.014	5.37
533.36	5.45
533.706	5.43
534.052	5.43
534.399	5.35
534.745	5.35
535.091	5.35
535.437	5.32
535.783	5.38
536.129	5.33
536.474	5.31
536.82	5.31
537.166	5.37
537.512	5.46
537.857	5.46
538.203	5.32
538.549	5.43
538.894	5.41
539.239	5.37
539.585	5.42
539.93	5.47
540.276	5.53
540.621	5.58
540.966	5.61
541.311	5.49
541.656	5.51
542.001	5.46
542.346	5.38
542.691	5.36
543.036	5.24
543.381	5.29
543.726	5.22
544.071	5.24
544.415	5.28
544.76	5.39
545.105	5.3
545.449	5.27
545.794	5.48
546.138	5.38
546.483	5.34
546.827	5.44
547.171	5.45
547.516	5.35
547.86	5.35
548.204	5.39
548.548	5.39
548.892	5.39
549.236	5.36
549.58	5.47
549.924	5.49
550.268	5.52
550.612	5.39
550.956	5.54
551.3	5.46
551.643	5.51
551.987	5.54
552.33	5.47
552.674	5.43
553.017	5.53
553.361	5.57
553.704	5.54
554.048	5.38
554.391	5.51
554.734	5.43
555.077	5.58
555.42	5.44
555.764	5.36
556.107	5.39
556.45	5.45
556.793	5.47
557.135	5.37
557.478	5.5
557.821	5.44
558.164	5.57
558.507	5.49
558.849	5.57
559.192	5.52
559.534	5.57
559.877	5.5
560.219	5.46
560.562	5.41
560.904	5.48
561.246	5.27
561.589	5.42
561.931	5.28
562.273	5.48
562.615	5.52
562.957	5.43
563.299	5.43
563.641	5.36
563.983	5.42
564.325	5.34
564.667	5.55
565.008	5.53
565.35	5.37
565.692	5.32
566.033	5.32
566.375	5.76
566.716	5.52
567.058	5.41
567.399	5.62
567.741	5.49
568.082	5.51
568.423	5.43
568.764	5.49
569.105	5.28
569.447	5.46
569.788	5.4
570.129	5.34
570.47	5.51
570.811	5.48
571.151	5.61
571.492	5.4
571.833	5.47
572.174	5.44
572.514	5.44
572.855	5.53
573.195	5.35
573.536	5.56
573.876	5.47
574.217	5.51
574.557	5.41
574.898	5.41
575.238	5.43
575.578	5.45
575.918	5.51
576.258	5.67
576.598	5.46
576.938	5.37
577.278	5.23
577.618	5.45
577.958	5.42
578.298	5.42
578.638	5.41
578.977	5.47
579.317	5.54
579.657	5.63
579.996	5.28
580.336	5.27
580.675	5.57
581.014	5.52
581.354	5.35
581.693	5.24
582.032	5.46
582.372	5.38
582.711	5.6
583.05	5.36
583.389	5.54
583.728	5.66
584.067	5.58
584.406	5.24
584.745	5.49
585.083	5.46
585.422	5.21
585.761	5.39
586.1	5.4
586.438	5.42
586.777	5.41
587.115	5.11
587.454	5.43
587.792	5.58
588.13	5.31
588.469	5.49
588.807	5.4
589.145	5.31
589.483	5.35
589.821	5.56
590.159	5.65
590.497	5.55
590.835	5.5
591.173	5.28
591.511	5.09
591.849	5.39
592.187	5.16
592.524	5.26
592.862	5.24
593.2	5.34
593.537	5.41
593.875	5.57
594.212	5.58
594.55	5.24
594.887	5.47
595.224	5.28
595.561	5.3
595.899	5.19
596.236	5.2
596.573	5.32
596.91	5.46
597.247	5.46
597.584	5.27
597.921	5.34
598.258	5.31
598.594	5.15
598.931	5.17
599.268	5.24
599.604	5.25
599.941	5.27
600.277	5.46
600.614	5.39
600.95	5.18
601.287	5.38
601.623	5.54
601.959	5.42
602.296	5.1
602.632	5.24
602.968	5.13
603.304	5.36
603.64	5.63
603.976	5.26
604.312	5.18
604.648	5.15
604.984	5.14
605.319	5.34
605.655	5.3
605.991	5.13
606.326	5.49
606.662	5.3
606.998	5.24
607.333	5.19
607.668	5.17
608.004	5.22
608.339	5.44
608.674	5.35
609.01	5.17
609.345	5.24
609.68	5.14
610.015	5.28
610.35	5.08
610.685	5.46
611.02	5.14
611.355	5.18
611.689	5.31
612.024	5.14
612.359	4.97
612.694	5.13
613.028	5.37
613.363	5.19
613.697	5.42
614.032	5.14
614.366	5.07
614.7	5.28
615.035	5.26
615.369	5.03
615.703	5.27
616.037	5.38
616.371	5.15
616.705	5.55
617.039	5.36
617.373	5.1
617.707	4.98
618.041	5.36
618.375	4.95
618.709	5.44
619.042	5.55
619.376	5.4
619.71	5.3
620.043	5.59
620.377	5.19
620.71	5.07
621.043	5.16
621.377	5.18
621.71	5.14
622.043	5.28
622.376	5.29
622.709	5.18
623.043	5.04
623.376	5.07
623.709	5.36
624.041	5.11
624.374	4.8
624.707	5.09
625.04	5.17
625.373	5.16
625.705	5.19
626.038	5.32
626.37	5.46
626.703	5.44
627.035	5.2
627.368	5.1
627.7	5.26
628.032	5.19
628.365	5.27
628.697	5.12
629.029	5.1
629.361	5.05
629.693	5.09
630.025	5.01
630.357	5.18
630.689	5.25
631.021	5.39
631.353	5.42
631.684	5.18
632.016	5.07
632.348	5.04
632.679	4.99
633.011	5.66
633.342	5.38
633.674	5.1
634.005	5.24
634.336	5.25
634.668	5.06
634.999	4.88
635.33	5.22
635.661	5.59
635.992	5.15
636.323	4.88
636.654	5.53
636.985	5.02
637.316	5.2
637.647	5.61
637.977	5.36
638.308	5.25
638.639	5.2
638.969	5.12
639.3	5.27
639.63	5.19
639.961	5.04
640.291	5.02
640.622	5.41
640.952	5.44
641.282	5.22
641.612	5.39
641.943	5.57
642.273	5.12
642.603	5.11
642.933	5.32
643.263	5.1
643.592	5.24
643.922	5.23
644.252	5.69
644.582	5.28
644.911	4.69
645.241	5.22
645.571	5.15
645.9	5.07
646.23	5.2
646.559	4.98
646.888	5.02
647.218	5.08
647.547	5.03
647.876	4.92
648.205	5.11
648.534	5.15
648.863	5.24
649.192	4.92
649.521	5.15
649.85	5.17
650.179	4.98
650.508	4.99
650.837	5.27
651.165	5.22
651.494	5.4
651.822	4.67
652.151	5.1
652.479	4.84
652.808	5.4
653.136	5.19
653.465	5.31
653.793	5.4
654.121	5.06
654.449	4.91
654.777	5.42
655.105	4.9
655.433	5.24
655.761	4.71
656.089	5.13
656.417	5.21
656.745	5.09
657.073	4.87
657.4	4.65
657.728	5.28
658.056	5.42
658.383	4.86
658.711	4.77
659.038	5.31
659.365	4.63
659.693	4.88
660.02	5.77
660.347	5.29
660.674	5.25
661.001	5.42
661.329	5.02
661.656	5.03
661.982	5.34
662.309	5.07
662.636	5.61
662.963	5.28
663.29	5.27
663.616	4.72
663.943	5.14
664.27	5.23
664.596	5.1
664.923	5.39
665.249	5.49
665.576	5.17
665.902	5.68
666.228	5.28
666.554	5.12
666.881	4.88
667.207	5.33
667.533	5.43
667.859	5.36
668.185	5.16
668.511	4.87
668.837	5.09
669.162	5.52
669.488	4.81
669.814	4.79
670.139	4.94
670.465	5.01
670.791	4.23
671.116	4.93
671.442	4.87
671.767	5.04
672.092	4.51
672.418	4.95
672.743	4.69
673.068	4.84
673.393	5.28
673.718	4.96
674.043	5.1
674.368	4.98
674.693	4.21
675.018	4.74
675.343	4.64
675.667	5.6
675.992	5.75
676.317	4.42
676.641	4.43
676.966	5.4
677.29	5.25
677.615	4.88
677.939	5.15
678.264	5.04
678.588	5.32
678.912	4.77
679.236	5.01
679.56	5.66
679.885	4.93
680.209	5.18
680.532	5.2
680.856	5.49
681.18	5.2
681.504	4.67
681.828	5.07
682.152	5.29
682.475	5.13
682.799	5.09
683.122	5.06
683.446	5.2
683.769	5.43
684.093	5.65
684.416	5.36
684.739	5.67
685.062	4.88
685.386	5.42
685.709	5.36
686.032	4.67
686.355	5.17
686.678	5.55
687.001	5.45
687.324	5.36
687.646	4.7
687.969	5.05
688.292	5.41
688.614	5.14
688.937	5
689.26	4.3
689.582	5.62
689.904	4.84
690.227	5.44
690.549	5.28
690.871	4.72
691.194	5.05
691.516	4.77
691.838	5.76
692.16	4.91
