Data from 20-6_forehead_Reflection__2__133.txt Node

Date: Fri Nov 11 21:08:19 CST 2022
User: ToomeyLab
Spectrometer: FLMS14357
Trigger mode: 0
Integration Time (sec): 1.000000E-2
Scans to average: 100
Electric dark correction enabled: true
Nonlinearity correction enabled: false
Boxcar width: 0
XAxis mode: Wavelengths
Number of Pixels in Spectrum: 2048
>>>>>Begin Spectral Data<<<<<
189.047	-48.68
189.435	-48.68
189.823	-48.68
190.211	1443.24
190.599	-75.97
190.987	114.95
191.375	7.97
191.763	-435.76
192.151	-254.86
192.538	106.38
192.926	162.95
193.314	58.48
193.702	-353.04
194.089	-180.14
194.477	114.23
194.864	65.9
195.252	59.01
195.639	-247.81
196.027	121.85
196.414	143.74
196.801	96.99
197.189	98.75
197.576	1093.62
197.963	-80.38
198.351	-98.72
198.738	-20.79
199.125	25.18
199.512	19.54
199.899	-30.93
200.286	39.03
200.673	-6.1
201.06	72.07
201.447	57.13
201.833	12.26
202.22	-21.55
202.607	18.98
202.994	28.49
203.38	28.48
203.767	29.12
204.154	41.27
204.54	25.64
204.927	54.28
205.313	-2.67
205.699	-32.5
206.086	27.85
206.472	18.6
206.858	24.02
207.245	48.01
207.631	-13.06
208.017	29.64
208.403	10.85
208.789	-13.38
209.175	6.72
209.561	30.3
209.947	1.62
210.333	20.7
210.719	14.2
211.105	54.88
211.491	15.19
211.876	17.49
212.262	36.83
212.648	-9.3
213.034	4.99
213.419	-9.57
213.805	-9.81
214.19	7.83
214.576	-3.49
214.961	-50.44
215.346	-36.83
215.732	-16.96
216.117	56.82
216.502	14.94
216.888	-24.86
217.273	8.54
217.658	-57.42
218.043	27.78
218.428	-0.7
218.813	-10.58
219.198	3.95
219.583	12.79
219.968	-0.67
220.353	-16.9
220.738	-18.51
221.122	20.8
221.507	-13.5
221.892	-9.69
222.276	-4.85
222.661	18.07
223.046	-22.04
223.43	-6.8
223.815	-1.3
224.199	5.44
224.583	-12.72
224.968	-2.12
225.352	-0.74
225.736	-8.14
226.121	5.9
226.505	-3.31
226.889	-14.18
227.273	7.22
227.657	2.51
228.041	-2.94
228.425	1.81
228.809	2.35
229.193	3.54
229.577	1.57
229.961	3.15
230.344	2.71
230.728	0.62
231.112	0.05
231.495	2.24
231.879	2.43
232.263	1.27
232.646	1.15
233.03	1.25
233.413	0.66
233.797	3.16
234.18	-0.22
234.563	2.68
234.946	1.16
235.33	1.99
235.713	2.09
236.096	2.27
236.479	2.93
236.862	3.27
237.245	2.93
237.628	3.34
238.011	1.9
238.394	2.87
238.777	2.78
239.16	4.91
239.543	1.67
239.925	1.75
240.308	-0.25
240.691	1.62
241.073	1
241.456	0.39
241.838	2.32
242.221	2.05
242.603	1.64
242.986	1.93
243.368	1.75
243.75	1.96
244.133	1.96
244.515	1.4
244.897	2.14
245.279	2.01
245.661	2.15
246.043	1.67
246.425	2.76
246.807	1.95
247.189	1.51
247.571	1.53
247.953	2.25
248.335	1.98
248.717	2.01
249.098	2.34
249.48	1.82
249.862	2.53
250.243	2.32
250.625	2.17
251.006	2.84
251.388	2.83
251.769	2.5
252.151	1.85
252.532	2.21
252.913	2.33
253.295	2.18
253.676	1.65
254.057	2.09
254.438	1.95
254.819	1.98
255.2	3.16
255.581	2.53
255.962	1.2
256.343	2.37
256.724	2.35
257.105	1.42
257.486	2.18
257.867	3.43
258.247	1.5
258.628	1.5
259.009	1.8
259.389	1.98
259.77	2.39
260.15	1.89
260.531	1.89
260.911	1.94
261.292	1.98
261.672	1.95
262.052	1.98
262.432	1.86
262.813	2.38
263.193	1.78
263.573	2.02
263.953	2.37
264.333	1.75
264.713	2.3
265.093	2.49
265.473	1.08
265.853	1.16
266.233	1.72
266.612	1.12
266.992	1.58
267.372	2.55
267.752	1.65
268.131	1.96
268.511	1.73
268.89	1.85
269.27	1.63
269.649	1.53
270.029	2.39
270.408	1.26
270.787	2.39
271.167	1.54
271.546	2.13
271.925	1.69
272.304	2.03
272.683	1.97
273.062	1.71
273.441	1.81
273.82	1.72
274.199	1.7
274.578	1.75
274.957	1.91
275.336	2.5
275.715	1.89
276.093	1.37
276.472	1.8
276.851	1.39
277.229	1.74
277.608	2.16
277.986	1.95
278.365	1.28
278.743	1.65
279.122	2.3
279.5	1.84
279.878	1.86
280.257	1.61
280.635	2.17
281.013	1.55
281.391	1.24
281.769	1.34
282.147	1.58
282.525	1.15
282.903	1.38
283.281	2.07
283.659	2.18
284.037	1.87
284.415	1.62
284.792	1.73
285.17	2.18
285.548	1.45
285.925	1.57
286.303	1.64
286.68	1.96
287.058	1.82
287.435	1.55
287.813	1.94
288.19	1.62
288.567	1.85
288.945	2.01
289.322	2.18
289.699	1.71
290.076	2.2
290.453	2.08
290.83	1.79
291.207	1.83
291.584	2.11
291.961	1.98
292.338	2.1
292.715	1.96
293.092	2.18
293.469	2.22
293.845	2.21
294.222	1.89
294.599	2.57
294.975	1.99
295.352	2.62
295.728	2.1
296.105	2.17
296.481	1.98
296.858	2.32
297.234	2.34
297.61	1.92
297.986	2.12
298.363	2.66
298.739	2.5
299.115	2.67
299.491	2.68
299.867	2.27
300.243	2.49
300.619	2.07
300.995	2.36
301.371	2.83
301.746	2.78
302.122	2.21
302.498	2.86
302.874	2.69
303.249	2.75
303.625	2.41
304	2.32
304.376	2.99
304.751	2.42
305.127	2.6
305.502	3.05
305.878	3.15
306.253	2.62
306.628	2.77
307.003	3.11
307.378	2.51
307.754	3.79
308.129	3.11
308.504	3.28
308.879	3.13
309.254	3.16
309.629	3.23
310.003	3.02
310.378	3.19
310.753	3.35
311.128	3.49
311.502	3.32
311.877	3.24
312.252	3.23
312.626	3.35
313.001	2.93
313.375	3.29
313.75	3.36
314.124	3.36
314.498	3.28
314.873	3.57
315.247	3.26
315.621	3.2
315.995	3.75
316.369	3.62
316.743	3.68
317.117	3.63
317.491	3.66
317.865	3.44
318.239	4.12
318.613	4.01
318.987	3.74
319.361	3.73
319.734	4.01
320.108	3.4
320.482	4.27
320.855	4.14
321.229	3.88
321.602	3.53
321.976	3.73
322.349	4.22
322.723	4.18
323.096	4.32
323.469	4.19
323.843	4.35
324.216	3.99
324.589	4.71
324.962	4.76
325.335	4.39
325.708	4.24
326.081	4.65
326.454	4.15
326.827	4.15
327.2	4.94
327.573	5.15
327.945	4.42
328.318	4.57
328.691	4.4
329.063	4.63
329.436	4.54
329.809	4.22
330.181	4.34
330.553	4.25
330.926	5.03
331.298	5.02
331.671	4.67
332.043	4.61
332.415	4.32
332.787	4.95
333.159	4.51
333.532	5.38
333.904	4.91
334.276	4.29
334.648	4.85
335.02	4.86
335.391	5.18
335.763	4.86
336.135	4.88
336.507	4.81
336.879	4.94
337.25	4.98
337.622	5.12
337.993	5.17
338.365	5.44
338.736	4.88
339.108	5.08
339.479	4.74
339.851	5.55
340.222	5.17
340.593	5.85
340.964	4.96
341.336	5.34
341.707	5.29
342.078	4.95
342.449	5.41
342.82	5.48
343.191	5.55
343.562	5.33
343.933	5.58
344.303	5.12
344.674	5.54
345.045	5.5
345.416	5.68
345.786	5.25
346.157	5.43
346.527	5.57
346.898	5.02
347.268	5.47
347.639	5.33
348.009	5.4
348.38	5.78
348.75	5.71
349.12	6.15
349.49	6
349.861	5.77
350.231	5.9
350.601	5.9
350.971	5.85
351.341	6.12
351.711	5.84
352.081	5.52
352.45	5.8
352.82	5.46
353.19	6.14
353.56	5.61
353.929	5.75
354.299	5.83
354.669	6.32
355.038	5.92
355.408	5.75
355.777	6.08
356.147	6.1
356.516	6.22
356.885	6.21
357.254	6.05
357.624	5.93
357.993	6.34
358.362	6.27
358.731	5.95
359.1	6.12
359.469	5.89
359.838	6.01
360.207	6.4
360.576	6.19
360.945	6.49
361.314	6.15
361.682	6.35
362.051	6.28
362.42	6.32
362.788	6.5
363.157	6.21
363.525	6.18
363.894	6.23
364.262	6.36
364.631	6.58
364.999	6.51
365.367	6.55
365.735	6.57
366.104	6.31
366.472	6.48
366.84	6.39
367.208	6.49
367.576	6.75
367.944	7.05
368.312	6.71
368.68	6.6
369.048	6.58
369.416	6.63
369.783	6.98
370.151	6.56
370.519	6.8
370.886	6.71
371.254	7.02
371.621	6.66
371.989	6.4
372.356	6.99
372.724	7.2
373.091	6.93
373.458	7.12
373.826	6.77
374.193	6.62
374.56	6.84
374.927	7.09
375.294	7.23
375.661	7.08
376.028	6.98
376.395	7.41
376.762	7.5
377.129	6.73
377.496	7.16
377.863	6.95
378.229	7.45
378.596	7.24
378.963	7.18
379.329	7.3
379.696	7.51
380.062	7.18
380.429	7.28
380.795	7.76
381.161	7.33
381.528	7.33
381.894	7.35
382.26	7.39
382.626	7.74
382.993	7.32
383.359	7.99
383.725	7.36
384.091	7.54
384.457	7.26
384.823	7.43
385.188	7.57
385.554	7.53
385.92	7.63
386.286	7.43
386.651	7.54
387.017	7.58
387.383	7.55
387.748	7.64
388.114	7.53
388.479	7.33
388.845	7.5
389.21	7.47
389.575	7.67
389.94	7.5
390.306	7.6
390.671	7.92
391.036	7.73
391.401	7.72
391.766	7.89
392.131	7.97
392.496	7.55
392.861	7.68
393.226	7.56
393.591	7.6
393.956	7.6
394.32	7.58
394.685	7.66
395.05	8.09
395.414	7.77
395.779	7.74
396.143	7.69
396.508	7.92
396.872	7.86
397.236	7.78
397.601	7.88
397.965	7.72
398.329	7.9
398.694	7.97
399.058	7.97
399.422	7.95
399.786	7.77
400.15	7.93
400.514	7.85
400.878	7.96
401.242	7.97
401.605	7.95
401.969	8.19
402.333	7.65
402.697	8.01
403.06	8.22
403.424	7.64
403.787	7.91
404.151	7.77
404.514	7.94
404.878	8.11
405.241	7.93
405.604	7.9
405.968	7.92
406.331	7.7
406.694	7.88
407.057	7.97
407.42	8.13
407.783	7.91
408.146	8.14
408.509	8.17
408.872	8.11
409.235	8.08
409.598	8.06
409.961	8
410.323	7.95
410.686	8.15
411.049	8.02
411.411	8.17
411.774	8
412.136	8.11
412.499	8.27
412.861	8.1
413.223	8.09
413.586	8.14
413.948	8.42
414.31	8.31
414.672	8.09
415.035	8.11
415.397	8.31
415.759	8.14
416.121	8.23
416.483	8.16
416.845	8.06
417.206	8.01
417.568	8.36
417.93	8.36
418.292	8.23
418.653	8.46
419.015	8.4
419.377	8.3
419.738	8.38
420.1	8.25
420.461	8.47
420.822	8.26
421.184	8.31
421.545	8.35
421.906	8.35
422.267	8.34
422.629	8.3
422.99	8.46
423.351	8.49
423.712	8.51
424.073	8.64
424.434	8.69
424.795	8.72
425.155	8.59
425.516	8.71
425.877	8.77
426.238	8.77
426.598	8.73
426.959	8.81
427.32	8.86
427.68	9.07
428.041	9.18
428.401	8.94
428.761	9.23
429.122	9.19
429.482	9.38
429.842	9.1
430.202	9.36
430.563	9.58
430.923	9.47
431.283	9.38
431.643	9.32
432.003	9.68
432.363	9.64
432.722	9.94
433.082	9.69
433.442	9.85
433.802	9.71
434.161	9.78
434.521	9.76
434.881	9.95
435.24	9.83
435.6	9.93
435.959	9.92
436.319	9.94
436.678	9.84
437.037	10.02
437.396	10.24
437.756	10
438.115	10.06
438.474	10.04
438.833	10.02
439.192	10.23
439.551	10.34
439.91	10.28
440.269	10.25
440.628	10.39
440.987	10.4
441.345	10.3
441.704	10.46
442.063	10.3
442.421	10.39
442.78	10.41
443.138	10.67
443.497	10.51
443.855	10.65
444.214	10.64
444.572	10.72
444.93	10.81
445.288	10.79
445.647	10.76
446.005	10.8
446.363	10.94
446.721	10.8
447.079	10.93
447.437	10.76
447.795	10.83
448.153	10.83
448.51	10.9
448.868	11.08
449.226	10.88
449.584	10.98
449.941	11
450.299	11.06
450.656	11.17
451.014	11.2
451.371	11.31
451.729	11.41
452.086	11.37
452.443	11.45
452.801	11.52
453.158	11.35
453.515	11.48
453.872	11.45
454.229	11.61
454.586	11.57
454.943	11.76
455.3	11.56
455.657	11.7
456.014	11.8
456.371	11.79
456.727	11.81
457.084	11.48
457.441	11.86
457.797	11.87
458.154	11.96
458.51	12.05
458.867	11.98
459.223	12.1
459.58	11.85
459.936	12.01
460.292	12.09
460.648	12.04
461.005	11.92
461.361	11.87
461.717	11.87
462.073	12.08
462.429	12.08
462.785	12.13
463.141	12.1
463.496	12.19
463.852	12.28
464.208	12.46
464.564	12.44
464.919	12.42
465.275	12.34
465.631	12.46
465.986	12.59
466.342	12.49
466.697	12.69
467.052	12.69
467.408	12.76
467.763	12.76
468.118	12.75
468.473	12.94
468.829	12.99
469.184	12.77
469.539	12.92
469.894	12.94
470.249	12.86
470.603	12.78
470.958	12.85
471.313	13.02
471.668	13.09
472.023	12.87
472.377	13.11
472.732	13.06
473.086	13.06
473.441	13.24
473.795	13.25
474.15	13.41
474.504	13.33
474.859	13.27
475.213	13.38
475.567	13.38
475.921	13.35
476.275	13.39
476.63	13.54
476.984	13.61
477.338	13.49
477.692	13.56
478.045	13.43
478.399	13.65
478.753	13.26
479.107	13.51
479.461	13.58
479.814	13.48
480.168	13.6
480.521	13.7
480.875	13.69
481.228	13.64
481.582	13.8
481.935	13.62
482.289	13.64
482.642	13.76
482.995	13.69
483.348	13.73
483.701	13.76
484.055	13.62
484.408	13.56
484.761	13.42
485.114	13.25
485.466	13.19
485.819	13.21
486.172	13.27
486.525	13.32
486.878	13.44
487.23	13.56
487.583	13.68
487.936	13.75
488.288	13.76
488.641	13.63
488.993	13.57
489.345	13.56
489.698	13.6
490.05	13.61
490.402	13.7
490.754	13.87
491.107	13.93
491.459	14.07
491.811	14.13
492.163	14.2
492.515	14.12
492.866	14.05
493.218	13.87
493.57	13.96
493.922	14.02
494.274	14.12
494.625	14.29
494.977	14.41
495.328	14.54
495.68	14.56
496.031	14.73
496.383	14.76
496.734	14.81
497.086	14.98
497.437	14.87
497.788	14.74
498.139	14.8
498.49	14.79
498.842	14.7
499.193	14.9
499.544	14.98
499.894	14.84
500.245	14.96
500.596	14.95
500.947	15.06
501.298	15.03
501.648	15.07
501.999	15.1
502.35	15.26
502.7	15.21
503.051	15.27
503.401	15.31
503.752	15.28
504.102	15.26
504.452	15.44
504.803	15.32
505.153	15.31
505.503	15.47
505.853	15.38
506.203	15.45
506.553	15.37
506.903	15.5
507.253	15.44
507.603	15.64
507.953	15.58
508.303	15.51
508.652	15.63
509.002	15.5
509.352	15.71
509.701	15.67
510.051	15.59
510.4	15.53
510.75	15.51
511.099	15.36
511.449	15.62
511.798	15.59
512.147	15.64
512.496	15.59
512.846	15.82
513.195	15.74
513.544	15.6
513.893	15.8
514.242	15.76
514.591	15.81
514.939	15.76
515.288	15.9
515.637	16.03
515.986	15.94
516.334	15.96
516.683	15.99
517.032	16.01
517.38	16.06
517.729	16.11
518.077	16.12
518.426	16.02
518.774	16.05
519.122	16.16
519.47	15.93
519.819	15.88
520.167	15.79
520.515	15.79
520.863	15.96
521.211	15.86
521.559	15.87
521.907	16.05
522.255	15.98
522.602	16.18
522.95	16.2
523.298	16.11
523.645	16.16
523.993	16.34
524.341	16.55
524.688	16.43
525.036	16.38
525.383	16.48
525.73	16.33
526.078	16.26
526.425	16.26
526.772	16.24
527.119	16.13
527.466	16.13
527.814	16.18
528.161	16.12
528.508	16.07
528.854	16.14
529.201	16.12
529.548	16.01
529.895	15.92
530.242	15.76
530.588	15.83
530.935	15.9
531.282	15.95
531.628	16.02
531.975	16.14
532.321	16.2
532.667	16.33
533.014	16.4
533.36	16.49
533.706	16.54
534.052	16.43
534.399	16.36
534.745	16.3
535.091	16.22
535.437	16.3
535.783	16.34
536.129	16.6
536.474	16.52
536.82	16.66
537.166	16.66
537.512	16.72
537.857	16.62
538.203	16.63
538.549	16.75
538.894	16.7
539.239	16.78
539.585	16.8
539.93	16.92
540.276	17.21
540.621	17.17
540.966	17.24
541.311	17.09
541.656	17.28
542.001	16.97
542.346	16.95
542.691	16.68
543.036	16.53
543.381	16.66
543.726	16.69
544.071	16.8
544.415	16.93
544.76	16.97
545.105	16.95
545.449	17.12
545.794	17.26
546.138	17.26
546.483	17.34
546.827	17.42
547.171	17.47
547.516	17.33
547.86	17.39
548.204	17.56
548.548	17.4
548.892	17.44
549.236	17.49
549.58	17.58
549.924	17.79
550.268	17.78
550.612	17.72
550.956	18.17
551.3	18.13
551.643	18
551.987	18.05
552.33	18
552.674	18.13
553.017	18.24
553.361	18.24
553.704	18.11
554.048	18.12
554.391	18.07
554.734	18.01
555.077	18.21
555.42	18.23
555.764	18.15
556.107	18.21
556.45	18.45
556.793	18.41
557.135	18.37
557.478	18.43
557.821	18.38
558.164	18.31
558.507	18.41
558.849	18.69
559.192	18.46
559.534	18.74
559.877	18.73
560.219	18.68
560.562	18.5
560.904	18.48
561.246	18.59
561.589	18.79
561.931	18.65
562.273	18.53
562.615	18.63
562.957	18.68
563.299	18.72
563.641	18.63
563.983	18.74
564.325	18.82
564.667	18.81
565.008	18.92
565.35	18.84
565.692	18.73
566.033	18.62
566.375	18.89
566.716	19.02
567.058	18.99
567.399	19.09
567.741	19.02
568.082	18.95
568.423	18.98
568.764	19.06
569.105	18.99
569.447	19.12
569.788	19.2
570.129	19.05
570.47	19.11
570.811	19.18
571.151	19.31
571.492	19.2
571.833	19.35
572.174	19.49
572.514	19.4
572.855	19.39
573.195	19.17
573.536	19.49
573.876	19.34
574.217	19.51
574.557	19.46
574.898	19.49
575.238	19.51
575.578	19.52
575.918	19.68
576.258	19.58
576.598	19.51
576.938	19.64
577.278	19.55
577.618	19.61
577.958	19.72
578.298	19.84
578.638	19.76
578.977	19.9
579.317	19.83
579.657	19.75
579.996	19.84
580.336	19.96
580.675	20.16
581.014	20.08
581.354	19.8
581.693	19.98
582.032	20.25
582.372	20.15
582.711	20.29
583.05	20.08
583.389	20.25
583.728	20.35
584.067	20.41
584.406	20
584.745	20.44
585.083	20.44
585.422	20.14
585.761	20.51
586.1	20.42
586.438	20.68
586.777	20.42
587.115	20.59
587.454	20.67
587.792	20.56
588.13	20.7
588.469	20.87
588.807	20.7
589.145	20.88
589.483	20.62
589.821	20.82
590.159	20.81
590.497	21.11
590.835	20.89
591.173	20.84
591.511	20.75
591.849	20.93
592.187	20.93
592.524	20.84
592.862	20.87
593.2	20.97
593.537	21.28
593.875	21.29
594.212	21.18
594.55	21.3
594.887	21.11
595.224	21.11
595.561	21.13
595.899	21.1
596.236	21.09
596.573	21.22
596.91	21.53
597.247	21.27
597.584	21.21
597.921	21.35
598.258	21.11
598.594	21.04
598.931	21.19
599.268	21.26
599.604	21.4
599.941	21.32
600.277	21.46
600.614	21.72
600.95	21.36
601.287	21.54
601.623	22.06
601.959	21.78
602.296	21.58
602.632	21.43
602.968	21.86
603.304	21.76
603.64	22.05
603.976	22.02
604.312	21.6
604.648	21.82
604.984	21.67
605.319	21.79
605.655	21.91
605.991	21.75
606.326	22.01
606.662	21.63
606.998	21.85
607.333	21.98
607.668	21.9
608.004	22.03
608.339	22.11
608.674	22.09
609.01	22.16
609.345	22.07
609.68	22.04
610.015	22.16
610.35	22.32
610.685	22.17
611.02	21.93
611.355	22.15
611.689	22.11
612.024	22.19
612.359	22.39
612.694	22.11
613.028	22.38
613.363	22.38
613.697	22.81
614.032	22.56
614.366	22.4
614.7	22.29
615.035	22.53
615.369	22.87
615.703	22.69
616.037	22.99
616.371	22.78
616.705	22.85
617.039	23
617.373	22.82
617.707	22.71
618.041	22.68
618.375	22.61
618.709	22.88
619.042	23
619.376	23.14
619.71	23.2
620.043	22.8
620.377	23.18
620.71	23.48
621.043	22.93
621.377	22.89
621.71	22.97
622.043	23.25
622.376	23.17
622.709	22.91
623.043	23.32
623.376	23.28
623.709	22.92
624.041	23.55
624.374	23.12
624.707	23.6
625.04	23.32
625.373	23.3
625.705	23.14
626.038	23.41
626.37	23.6
626.703	23.33
627.035	23.81
627.368	23.37
627.7	23.59
628.032	23.74
628.365	23.35
628.697	23.51
629.029	23.76
629.361	23.49
629.693	23.14
630.025	23.87
630.357	23.83
630.689	23.68
631.021	23.52
631.353	23.98
631.684	23.67
632.016	23.72
632.348	23.97
632.679	23.55
633.011	24.25
633.342	23.73
633.674	23.81
634.005	23.84
634.336	23.94
634.668	24.36
634.999	24.19
635.33	24
635.661	24.2
635.992	24.17
636.323	24.11
636.654	24.35
636.985	24.13
637.316	24.19
637.647	24.42
637.977	24.45
638.308	24.18
638.639	24.28
638.969	24.34
639.3	24.57
639.63	24.42
639.961	24.45
640.291	25.18
640.622	24.73
640.952	24.56
641.282	24.57
641.612	24.7
641.943	24.82
642.273	24.64
642.603	24.55
642.933	24.66
643.263	24.61
643.592	24.92
643.922	24.67
644.252	24.7
644.582	24.71
644.911	24.6
645.241	24.6
645.571	24.92
645.9	24.83
646.23	24.77
646.559	25.13
646.888	24.71
647.218	24.8
647.547	24.92
647.876	25.21
648.205	25.09
648.534	25.03
648.863	24.98
649.192	25.06
649.521	25.2
649.85	25.36
650.179	25.16
650.508	25.31
650.837	25.18
651.165	25.4
651.494	25.4
651.822	25.23
652.151	24.95
652.479	25.1
652.808	25.55
653.136	25.41
653.465	25.72
653.793	24.97
654.121	25.43
654.449	25.2
654.777	25.7
655.105	25.76
655.433	25.06
655.761	25.59
656.089	25.6
656.417	25.47
656.745	25.61
657.073	25.21
657.4	25.69
657.728	26.18
658.056	25.98
658.383	25.75
658.711	25.86
659.038	26.24
659.365	25.79
659.693	25.65
660.02	25.95
660.347	25.77
660.674	25.96
661.001	26.05
661.329	25.67
661.656	25.63
661.982	26.12
662.309	25.76
662.636	26.09
662.963	26.08
663.29	25.76
663.616	25.85
663.943	26.14
664.27	26.5
664.596	26.45
664.923	26.22
665.249	26.04
665.576	26.67
665.902	26.45
666.228	26.24
666.554	26.29
666.881	26.07
667.207	26.82
667.533	26.86
667.859	26.42
668.185	26.76
668.511	26.2
668.837	26.83
669.162	26.35
669.488	26.76
669.814	26.8
670.139	26.53
670.465	26.5
670.791	26.3
671.116	26.85
671.442	26.59
671.767	26.91
672.092	26.34
672.418	26.57
672.743	26.71
673.068	26.73
673.393	26.98
673.718	26.92
674.043	27.18
674.368	27.08
674.693	26.13
675.018	26.89
675.343	26.82
675.667	27.44
675.992	27.51
