Data from 20-6_crown_Reflection__4__130.txt Node

Date: Fri Nov 11 21:07:24 CST 2022
User: ToomeyLab
Spectrometer: FLMS14357
Trigger mode: 0
Integration Time (sec): 1.000000E-2
Scans to average: 100
Electric dark correction enabled: true
Nonlinearity correction enabled: false
Boxcar width: 0
XAxis mode: Wavelengths
Number of Pixels in Spectrum: 2048
>>>>>Begin Spectral Data<<<<<
189.047	90.19
189.435	90.19
189.823	90.19
190.211	1522.97
190.599	-66.39
190.987	86.49
191.375	-93.19
191.763	-121.52
192.151	-504.86
192.538	-302.77
192.926	221.58
193.314	148.36
193.702	-775.22
194.089	-655.67
194.477	110.76
194.864	74.5
195.252	87.74
195.639	140.09
196.027	0.82
196.414	242.43
196.801	171.9
197.189	37.63
197.576	1635.11
197.963	12.75
198.351	-178.92
198.738	17.16
199.125	-25.9
199.512	-18.93
199.899	-86.15
200.286	2.8
200.673	-19.88
201.06	58.48
201.447	-13.45
201.833	18.4
202.22	-21.26
202.607	1.74
202.994	39.06
203.38	69.57
203.767	10.41
204.154	17.53
204.54	21.07
204.927	36.82
205.313	5.76
205.699	-91.92
206.086	34.82
206.472	31.13
206.858	-2.97
207.245	22.83
207.631	21.22
208.017	-27.09
208.403	17.65
208.789	3.97
209.175	31.83
209.561	42.75
209.947	-9.51
210.333	-24.37
210.719	35.82
211.105	32.58
211.491	17.29
211.876	3.3
212.262	-9.88
212.648	-17.21
213.034	2.03
213.419	-26.5
213.805	-30.31
214.19	-6.97
214.576	-13.08
214.961	-64.86
215.346	-53.23
215.732	-10.29
216.117	27.23
216.502	-3.42
216.888	1.06
217.273	-7.74
217.658	-1.71
218.043	-13.93
218.428	18.45
218.813	-0.08
219.198	-5.3
219.583	3.26
219.968	-6.01
220.353	-3.34
220.738	-1.8
221.122	-1.08
221.507	-32.25
221.892	-7.58
222.276	18.2
222.661	18.64
223.046	-9.23
223.43	6.87
223.815	3.9
224.199	8.17
224.583	2.01
224.968	-1.97
225.352	11.23
225.736	2.7
226.121	4.96
226.505	8.39
226.889	-12.66
227.273	5.2
227.657	2.83
228.041	3.81
228.425	3.68
228.809	9.13
229.193	9.36
229.577	8.37
229.961	7.82
230.344	7.76
230.728	6.76
231.112	6.46
231.495	7.64
231.879	5.46
232.263	6.14
232.646	6.25
233.03	7.71
233.413	5.76
233.797	6.51
234.18	6.42
234.563	5.62
234.946	5.61
235.33	8.37
235.713	5.27
236.096	5.43
236.479	6.39
236.862	8
237.245	5.71
237.628	8.77
238.011	8.26
238.394	6.46
238.777	6.06
239.16	9.15
239.543	6.38
239.925	7.48
240.308	6.18
240.691	8.72
241.073	6.6
241.456	6.48
241.838	6.66
242.221	6.73
242.603	7.58
242.986	6.23
243.368	6.41
243.75	7.66
244.133	6.81
244.515	7.03
244.897	7.31
245.279	6.34
245.661	6.27
246.043	7.46
246.425	8.46
246.807	7.08
247.189	7.04
247.571	6.63
247.953	6.71
248.335	6.83
248.717	6.72
249.098	7.01
249.48	6.62
249.862	6.87
250.243	6.39
250.625	6.93
251.006	7.63
251.388	6.92
251.769	6.3
252.151	6.67
252.532	6.66
252.913	7.59
253.295	6.93
253.676	5.95
254.057	5.99
254.438	6.48
254.819	5.57
255.2	6.63
255.581	6.18
255.962	6.16
256.343	6.12
256.724	6
257.105	5.33
257.486	5.18
257.867	6.83
258.247	5.17
258.628	6.08
259.009	5.86
259.389	5.45
259.77	6.85
260.15	6.28
260.531	6.44
260.911	6.17
261.292	6.23
261.672	5.86
262.052	5.96
262.432	6.38
262.813	6.11
263.193	5.28
263.573	5.65
263.953	5.98
264.333	5.96
264.713	5.96
265.093	6.19
265.473	5.45
265.853	6.08
266.233	6.33
266.612	4.9
266.992	5.53
267.372	6.33
267.752	5.52
268.131	5.75
268.511	5.99
268.89	5.4
269.27	5.32
269.649	5.08
270.029	5.98
270.408	6.04
270.787	5.51
271.167	5.1
271.546	5.78
271.925	5.97
272.304	6.25
272.683	5.35
273.062	5.66
273.441	5.76
273.82	5.12
274.199	5.63
274.578	5.63
274.957	6.07
275.336	6.37
275.715	5.95
276.093	5.14
276.472	4.93
276.851	5.91
277.229	5.49
277.608	5.35
277.986	5.9
278.365	5.25
278.743	5.87
279.122	6.06
279.5	5.08
279.878	6.36
280.257	5.9
280.635	4.82
281.013	5.27
281.391	5.47
281.769	5.9
282.147	4.82
282.525	4.51
282.903	4.84
283.281	5.5
283.659	5.73
284.037	5.71
284.415	5.23
284.792	5.62
285.17	5.73
285.548	5.02
285.925	5.17
286.303	5.3
286.68	5.52
287.058	5.38
287.435	5.47
287.813	5.4
288.19	4.9
288.567	5.17
288.945	5.46
289.322	5.28
289.699	5.42
290.076	5.94
290.453	5.33
290.83	5
291.207	4.84
291.584	5.11
291.961	5.2
292.338	5.59
292.715	5.09
293.092	5.27
293.469	4.68
293.845	5.32
294.222	4.91
294.599	5.4
294.975	5.2
295.352	4.86
295.728	5.22
296.105	4.78
296.481	4.56
296.858	4.83
297.234	5.02
297.61	4.4
297.986	5.13
298.363	5.27
298.739	5.02
299.115	5.02
299.491	5.17
299.867	4.95
300.243	5
300.619	4.87
300.995	4.76
301.371	5.49
301.746	5.6
302.122	4.93
302.498	5.14
302.874	5.14
303.249	4.85
303.625	5
304	4.63
304.376	4.84
304.751	4.4
305.127	4.8
305.502	5.21
305.878	4.98
306.253	4.96
306.628	4.84
307.003	4.66
307.378	4.48
307.754	5.23
308.129	4.72
308.504	4.97
308.879	4.73
309.254	4.59
309.629	4.67
310.003	4.66
310.378	4.54
310.753	5.13
311.128	5.14
311.502	5.07
311.877	4.84
312.252	4.97
312.626	4.39
313.001	4.24
313.375	4.62
313.75	4.25
314.124	4.4
314.498	4.5
314.873	4.57
315.247	5.02
315.621	4.72
315.995	4.93
316.369	4.45
316.743	4.54
317.117	4.92
317.491	4.66
317.865	4.89
318.239	4.81
318.613	4.68
318.987	4.49
319.361	4.37
319.734	4.91
320.108	4.69
320.482	4.88
320.855	4.37
321.229	4.63
321.602	5.07
321.976	4.46
322.349	4.99
322.723	5
323.096	4.88
323.469	4.7
323.843	4.64
324.216	4.49
324.589	4.8
324.962	4.67
325.335	4.17
325.708	4.9
326.081	4.64
326.454	4.4
326.827	4.55
327.2	5.11
327.573	5.1
327.945	4.3
328.318	4.62
328.691	4.84
329.063	4.72
329.436	4.78
329.809	4.37
330.181	3.77
330.553	4.47
330.926	4.75
331.298	4.42
331.671	4.72
332.043	4.7
332.415	4.41
332.787	4.61
333.159	4.54
333.532	5.13
333.904	4.54
334.276	4.08
334.648	4.43
335.02	4.38
335.391	4.75
335.763	4.4
336.135	4.4
336.507	4.24
336.879	4.81
337.25	4.39
337.622	4.99
337.993	4.8
338.365	4.83
338.736	4.64
339.108	4.8
339.479	4.3
339.851	4.53
340.222	4.68
340.593	5.41
340.964	4.67
341.336	5.19
341.707	4.39
342.078	4.19
342.449	4.39
342.82	4.89
343.191	4.71
343.562	4.58
343.933	4.45
344.303	4.31
344.674	4.66
345.045	4.91
345.416	4.74
345.786	4.41
346.157	4.3
346.527	4.82
346.898	4.25
347.268	4.33
347.639	4.59
348.009	4.27
348.38	4.88
348.75	4.65
349.12	5.27
349.49	4.91
349.861	4.51
350.231	4.86
350.601	4.76
350.971	4.69
351.341	4.73
351.711	4.83
352.081	4.66
352.45	4.72
352.82	4.4
353.19	4.84
353.56	4.61
353.929	4.7
354.299	4.63
354.669	4.88
355.038	4.73
355.408	4.67
355.777	4.77
356.147	4.98
356.516	4.68
356.885	4.95
357.254	4.5
357.624	4.44
357.993	4.75
358.362	4.54
358.731	4.28
359.1	4.52
359.469	4.2
359.838	4.75
360.207	4.68
360.576	4.59
360.945	4.91
361.314	4.76
361.682	4.63
362.051	4.69
362.42	4.85
362.788	5.08
363.157	4.83
363.525	4.79
363.894	4.59
364.262	4.75
364.631	4.96
364.999	4.87
365.367	4.67
365.735	4.7
366.104	4.62
366.472	4.92
366.84	4.51
367.208	4.78
367.576	4.89
367.944	5.02
368.312	4.6
368.68	4.6
369.048	4.74
369.416	4.65
369.783	5.05
370.151	4.65
370.519	5.27
370.886	4.75
371.254	5.08
371.621	4.8
371.989	4.76
372.356	4.9
372.724	4.86
373.091	4.93
373.458	4.74
373.826	4.84
374.193	4.65
374.56	4.84
374.927	4.88
375.294	5.13
375.661	5.19
376.028	4.66
376.395	5.22
376.762	5.14
377.129	4.96
377.496	4.95
377.863	4.88
378.229	5.09
378.596	4.93
378.963	4.87
379.329	4.87
379.696	4.97
380.062	5.03
380.429	5.07
380.795	5.46
381.161	5.28
381.528	5.15
381.894	5.06
382.26	5.19
382.626	4.98
382.993	4.95
383.359	5.39
383.725	5.03
384.091	5.44
384.457	4.95
384.823	4.98
385.188	5.06
385.554	5.01
385.92	5.04
386.286	4.87
386.651	5.33
387.017	4.99
387.383	5.13
387.748	4.91
388.114	5.07
388.479	4.95
388.845	4.99
389.21	4.92
389.575	5.2
389.94	5.01
390.306	5.31
390.671	4.99
391.036	5.34
391.401	5.09
391.766	5.12
392.131	5.1
392.496	5.23
392.861	5.07
393.226	5.09
393.591	5.03
393.956	5.26
394.32	5.37
394.685	4.95
395.05	5.46
395.414	5.2
395.779	5.07
396.143	5.23
396.508	5.41
396.872	5.47
397.236	5.38
397.601	5.21
397.965	5.25
398.329	5.17
398.694	5.12
399.058	5.13
399.422	5.24
399.786	5.23
400.15	5.33
400.514	5.47
400.878	5.15
401.242	5.17
401.605	5.29
401.969	5.19
402.333	5.08
402.697	5.28
403.06	5.34
403.424	5.25
403.787	5.19
404.151	5.44
404.514	5.29
404.878	5.31
405.241	5.28
405.604	5.16
405.968	5.34
406.331	5.02
406.694	5.23
407.057	5.26
407.42	5.26
407.783	5.29
408.146	5.47
408.509	5.35
408.872	5.35
409.235	5.28
409.598	5.45
409.961	5.49
410.323	5.34
410.686	5.53
411.049	5.3
411.411	5.41
411.774	5.31
412.136	5.22
412.499	5.26
412.861	5.39
413.223	5.17
413.586	5.43
413.948	5.6
414.31	5.42
414.672	5.29
415.035	5.47
415.397	5.34
415.759	5.12
416.121	5.24
416.483	5.15
416.845	5.52
417.206	5.21
417.568	5.26
417.93	5.22
418.292	5.02
418.653	5.39
419.015	5.36
419.377	5.48
419.738	5.26
420.1	5.36
420.461	5.23
420.822	5.3
421.184	5.29
421.545	5.3
421.906	5.27
422.267	5.2
422.629	5.19
422.99	5.33
423.351	5.25
423.712	5.24
424.073	5.37
424.434	5.35
424.795	5.45
425.155	5.37
425.516	5.32
425.877	5.35
426.238	5.36
426.598	5.22
426.959	5.3
427.32	5.42
427.68	5.43
428.041	5.56
428.401	5.23
428.761	5.56
429.122	5.39
429.482	5.51
429.842	5.32
430.202	5.48
430.563	5.62
430.923	5.64
431.283	5.36
431.643	5.51
432.003	5.56
432.363	5.48
432.722	5.69
433.082	5.43
433.442	5.56
433.802	5.58
434.161	5.49
434.521	5.46
434.881	5.56
435.24	5.43
435.6	5.42
435.959	5.52
436.319	5.49
436.678	5.51
437.037	5.48
437.396	5.58
437.756	5.53
438.115	5.51
438.474	5.46
438.833	5.57
439.192	5.58
439.551	5.53
439.91	5.46
440.269	5.54
440.628	5.58
440.987	5.51
441.345	5.64
441.704	5.48
442.063	5.5
442.421	5.47
442.78	5.36
443.138	5.53
443.497	5.42
443.855	5.4
444.214	5.62
444.572	5.69
444.93	5.53
445.288	5.51
445.647	5.61
446.005	5.66
446.363	5.6
446.721	5.69
447.079	5.55
447.437	5.49
447.795	5.61
448.153	5.45
448.51	5.52
448.868	5.52
449.226	5.43
449.584	5.47
449.941	5.58
450.299	5.52
450.656	5.63
451.014	5.64
451.371	5.72
451.729	5.67
452.086	5.73
452.443	5.65
452.801	5.67
453.158	5.7
453.515	5.54
453.872	5.54
454.229	5.54
454.586	5.59
454.943	5.71
455.3	5.72
455.657	5.66
456.014	5.73
456.371	5.67
456.727	5.87
457.084	5.5
457.441	5.86
457.797	5.61
458.154	5.67
458.51	5.83
458.867	5.59
459.223	5.77
459.58	5.75
459.936	5.65
460.292	5.66
460.648	5.84
461.005	5.67
461.361	5.65
461.717	5.56
462.073	5.61
462.429	5.6
462.785	5.66
463.141	5.52
463.496	5.61
463.852	5.78
464.208	5.61
464.564	5.64
464.919	5.62
465.275	5.65
465.631	5.73
465.986	5.82
466.342	5.71
466.697	5.76
467.052	5.8
467.408	5.79
467.763	5.66
468.118	5.76
468.473	5.82
468.829	5.88
469.184	5.85
469.539	5.79
469.894	5.9
470.249	5.73
470.603	5.81
470.958	5.75
471.313	5.87
471.668	5.91
472.023	5.68
472.377	5.75
472.732	5.63
473.086	5.69
473.441	5.79
473.795	5.75
474.15	5.82
474.504	5.81
474.859	5.76
475.213	5.93
475.567	5.75
475.921	5.86
476.275	5.86
476.63	5.83
476.984	5.85
477.338	6.01
477.692	5.73
478.045	5.77
478.399	5.85
478.753	5.65
479.107	5.8
479.461	5.77
479.814	5.69
480.168	5.89
480.521	5.83
480.875	5.87
481.228	5.78
481.582	5.79
481.935	5.7
482.289	5.66
482.642	5.73
482.995	5.65
483.348	5.75
483.701	5.82
484.055	5.73
484.408	5.67
484.761	5.57
485.114	5.46
485.466	5.42
485.819	5.4
486.172	5.43
486.525	5.54
486.878	5.62
487.23	5.62
487.583	5.68
487.936	5.65
488.288	5.66
488.641	5.55
488.993	5.51
489.345	5.47
489.698	5.55
490.05	5.57
490.402	5.59
490.754	5.64
491.107	5.64
491.459	5.65
491.811	5.69
492.163	5.75
492.515	5.75
492.866	5.6
493.218	5.57
493.57	5.59
493.922	5.63
494.274	5.65
494.625	5.72
494.977	5.83
495.328	5.86
495.68	5.94
496.031	5.87
496.383	5.9
496.734	5.91
497.086	5.91
497.437	5.85
497.788	5.7
498.139	5.87
498.49	5.74
498.842	5.78
499.193	5.83
499.544	5.89
499.894	5.73
500.245	5.89
500.596	5.87
500.947	5.79
501.298	5.92
501.648	5.93
501.999	5.94
502.35	6.02
502.7	6.03
503.051	5.91
503.401	5.94
503.752	5.88
504.102	5.84
504.452	6.03
504.803	5.79
505.153	5.93
505.503	6.04
505.853	5.84
506.203	5.95
506.553	5.84
506.903	5.81
507.253	5.86
507.603	6.03
507.953	5.79
508.303	5.87
508.652	5.91
509.002	5.91
509.352	5.95
509.701	6.05
510.051	5.86
510.4	5.88
510.75	5.81
511.099	5.7
511.449	5.83
511.798	5.83
512.147	5.83
512.496	5.84
512.846	5.91
513.195	5.78
513.544	5.83
513.893	5.94
514.242	5.77
514.591	5.88
514.939	5.94
515.288	5.84
515.637	5.96
515.986	5.85
516.334	5.9
516.683	5.98
517.032	6.01
517.38	5.83
517.729	6.03
518.077	5.91
518.426	5.89
518.774	5.91
519.122	5.91
519.47	5.93
519.819	5.85
520.167	5.7
520.515	5.78
520.863	5.8
521.211	5.8
521.559	5.82
521.907	5.89
522.255	5.73
522.602	5.93
522.95	5.95
523.298	5.96
523.645	5.95
523.993	5.92
524.341	5.97
524.688	5.98
525.036	5.97
525.383	5.95
525.73	5.85
526.078	5.87
526.425	5.83
526.772	5.88
527.119	5.73
527.466	5.78
527.814	5.85
528.161	5.83
528.508	5.75
528.854	5.74
529.201	5.8
529.548	5.7
529.895	5.59
530.242	5.55
530.588	5.54
530.935	5.57
531.282	5.68
531.628	5.69
531.975	5.75
532.321	5.74
532.667	5.8
533.014	5.82
533.36	5.81
533.706	5.85
534.052	5.8
534.399	5.72
534.745	5.67
535.091	5.66
535.437	5.66
535.783	5.71
536.129	5.84
536.474	5.8
536.82	5.83
537.166	5.86
537.512	5.8
537.857	5.79
538.203	5.64
538.549	5.84
538.894	5.81
539.239	5.76
539.585	5.86
539.93	5.82
540.276	6.01
540.621	6.01
540.966	5.97
541.311	5.86
541.656	5.94
542.001	5.81
542.346	5.8
542.691	5.69
543.036	5.58
543.381	5.64
543.726	5.65
544.071	5.76
544.415	5.77
544.76	5.83
545.105	5.73
545.449	5.75
545.794	5.83
546.138	5.78
546.483	5.91
546.827	5.85
547.171	5.94
547.516	5.84
547.86	5.89
548.204	5.85
548.548	5.82
548.892	5.87
549.236	5.83
549.58	5.85
549.924	6.03
550.268	6.03
550.612	6.02
550.956	6.09
551.3	6.03
551.643	5.91
551.987	5.92
552.33	6.07
552.674	5.96
553.017	6.1
553.361	5.97
553.704	5.88
554.048	5.91
554.391	5.83
554.734	5.83
555.077	5.9
555.42	5.95
555.764	6.01
556.107	6.01
556.45	5.98
556.793	6.06
557.135	6
557.478	5.77
557.821	6.03
558.164	5.91
558.507	5.99
558.849	5.9
559.192	6.03
559.534	6.09
559.877	6.01
560.219	6.09
560.562	5.95
560.904	6
561.246	5.72
561.589	5.85
561.931	5.67
562.273	6.05
562.615	5.65
562.957	5.94
563.299	5.91
563.641	5.84
563.983	5.76
564.325	5.91
564.667	5.99
565.008	6.11
565.35	5.94
565.692	5.83
566.033	5.93
566.375	5.94
566.716	6.1
567.058	5.9
567.399	6.08
567.741	6
568.082	5.97
568.423	5.82
568.764	5.99
569.105	5.78
569.447	6.07
569.788	5.99
570.129	5.9
570.47	5.95
570.811	6.04
571.151	6.21
571.492	5.9
571.833	6
572.174	6.04
572.514	5.97
572.855	5.94
573.195	5.82
573.536	5.91
573.876	5.98
574.217	6.03
574.557	5.89
574.898	5.92
575.238	6.01
575.578	6
575.918	5.96
576.258	5.93
576.598	5.97
576.938	5.89
577.278	5.94
577.618	5.89
577.958	5.83
578.298	5.81
578.638	6.05
578.977	5.97
579.317	5.99
579.657	6.02
579.996	6.03
580.336	5.76
580.675	6.11
581.014	6.1
581.354	5.8
581.693	5.91
582.032	5.74
582.372	6.03
582.711	5.96
583.05	5.66
583.389	5.95
583.728	5.94
584.067	6.03
584.406	5.9
584.745	6.24
585.083	5.87
585.422	5.67
585.761	5.94
586.1	6.01
586.438	5.9
586.777	5.83
587.115	5.78
587.454	5.9
587.792	6
588.13	5.94
588.469	5.93
588.807	5.8
589.145	6.16
589.483	6.08
589.821	5.81
590.159	6.02
590.497	5.91
590.835	5.99
591.173	5.87
591.511	5.77
591.849	5.79
592.187	5.87
592.524	5.65
592.862	5.7
593.2	5.98
593.537	5.74
593.875	5.98
594.212	5.88
594.55	6.09
594.887	5.92
595.224	5.91
595.561	5.79
595.899	5.75
596.236	5.81
596.573	5.94
596.91	6.09
597.247	5.8
597.584	5.78
597.921	5.96
598.258	5.76
598.594	5.8
598.931	5.65
599.268	5.78
599.604	5.82
599.941	5.96
600.277	5.9
600.614	6.03
600.95	6.09
601.287	5.95
601.623	5.99
601.959	5.86
602.296	5.76
602.632	5.97
602.968	6.08
603.304	6.12
603.64	6.09
603.976	5.93
604.312	5.8
604.648	5.84
604.984	5.84
605.319	5.96
605.655	5.78
605.991	5.71
606.326	6.03
606.662	5.79
606.998	5.75
607.333	5.79
607.668	5.87
608.004	5.8
608.339	5.94
608.674	5.72
609.01	5.91
609.345	5.74
609.68	5.43
610.015	5.9
610.35	5.78
610.685	5.97
611.02	5.54
611.355	5.78
611.689	5.84
612.024	5.64
612.359	5.63
612.694	5.88
613.028	5.84
613.363	5.79
613.697	5.96
614.032	6.11
614.366	5.78
614.7	5.63
615.035	5.77
615.369	5.64
615.703	5.89
616.037	5.9
616.371	5.85
616.705	6.01
617.039	6.08
617.373	6.12
617.707	6.02
618.041	6.15
618.375	5.52
618.709	6.06
619.042	6.24
619.376	5.84
619.71	5.78
620.043	5.8
620.377	5.82
620.71	5.73
621.043	5.39
621.377	5.71
621.71	5.4
622.043	5.67
622.376	6.33
622.709	5.81
623.043	6.08
623.376	6.07
623.709	6
624.041	6.25
624.374	5.34
624.707	5.91
625.04	5.71
625.373	5.42
625.705	6.09
626.038	5.98
626.37	5.93
626.703	5.87
627.035	6.06
627.368	5.14
627.7	5.63
628.032	5.71
628.365	6.02
628.697	5.87
629.029	5.79
629.361	5.83
629.693	5.77
630.025	5.86
630.357	5.82
630.689	5.68
631.021	5.57
631.353	5.8
631.684	5.56
632.016	5.89
632.348	5.49
632.679	5.58
633.011	5.93
633.342	5.81
633.674	5.66
634.005	5.89
634.336	5.86
634.668	5.68
634.999	5.68
635.33	5.68
635.661	5.87
635.992	5.86
636.323	5.58
636.654	6.04
636.985	5.57
637.316	5.76
637.647	6.28
637.977	5.99
638.308	5.93
638.639	5.58
638.969	5.57
639.3	5.76
639.63	5.61
639.961	5.72
640.291	6.17
640.622	6.01
640.952	5.92
641.282	5.38
641.612	5.45
641.943	6.07
642.273	5.69
642.603	5.67
642.933	5.73
643.263	6.09
643.592	5.68
643.922	5.59
644.252	5.76
644.582	5.88
644.911	5.67
645.241	5.85
645.571	5.56
645.9	5.93
646.23	6.01
646.559	5.71
646.888	5.66
647.218	5.54
647.547	5.6
647.876	5.65
648.205	5.81
648.534	5.62
648.863	5.92
649.192	5.57
649.521	5.78
649.85	5.7
650.179	5.72
650.508	5.8
650.837	5.99
651.165	5.51
651.494	5.93
651.822	5.57
652.151	5.49
652.479	5.22
652.808	5.65
653.136	5.07
653.465	5.9
653.793	6.07
654.121	5.41
654.449	5.43
654.777	5.94
655.105	5.76
655.433	5.89
655.761	6.09
656.089	5.91
656.417	5.37
656.745	6.26
657.073	5.77
657.4	5.58
657.728	5.84
658.056	5.93
658.383	5.68
658.711	5.88
659.038	5.79
659.365	5.61
659.693	5.57
660.02	6.13
660.347	5.93
660.674	5.61
661.001	5.87
661.329	5.7
661.656	5.88
661.982	5.97
662.309	5.79
662.636	5.82
662.963	5.66
663.29	5.75
663.616	5.41
663.943	5.63
664.27	5.78
664.596	6.11
664.923	5.6
665.249	5.73
665.576	5.96
665.902	5.82
666.228	5.86
666.554	5.61
666.881	5.73
667.207	5.97
667.533	6.25
667.859	6.2
668.185	5.82
668.511	5.4
668.837	6.18
669.162	6.41
669.488	5.17
669.814	5.84
670.139	5.65
670.465	5.73
670.791	5.4
671.116	5.74
671.442	5.87
671.767	6.34
672.092	5.9
672.418	5.69
672.743	5.53
673.068	5.47
673.393	6.06
673.718	5.54
674.043	5.38
674.368	5.81
674.693	5.09
675.018	5.33
675.343	5.66
675.667	5.87
675.992	7.07
676.317	5.73
676.641	5.22
676.966	6.16
677.29	5.42
677.615	6.09
677.939	5.49
678.264	6.27
678.588	5.46
678.912	5.95
679.236	5.95
679.56	5.74
679.885	5.27
680.209	5.78
680.532	5.94
680.856	5.79
681.18	5.01
681.504	5.66
681.828	5.98
682.152	5.76
682.475	5.74
682.799	5.62
683.122	5.79
683.446	6.28
683.769	5.72
684.093	6.02
684.416	5.49
684.739	6.61
685.062	5.71
685.386	6.18
685.709	5
686.032	5.87
686.355	5.39
686.678	6.23
687.001	6.06
687.324	5.76
687.646	5.26
687.969	5.47
688.292	6.84
688.614	4.98
688.937	5.32
689.26	5.01
689.582	5.82
689.904	6.08
690.227	6
690.549	6.07
690.871	5.78
691.194	5.37
691.516	5.49
691.838	5.8
692.16	5.83
692.482	5.97
692.804	5.33
