Data from 20-6_chest_Reflection__3__124.txt Node

Date: Fri Nov 11 21:04:53 CST 2022
User: ToomeyLab
Spectrometer: FLMS14357
Trigger mode: 0
Integration Time (sec): 1.000000E-2
Scans to average: 100
Electric dark correction enabled: true
Nonlinearity correction enabled: false
Boxcar width: 0
XAxis mode: Wavelengths
Number of Pixels in Spectrum: 2048
>>>>>Begin Spectral Data<<<<<
189.047	51.08
189.435	51.08
189.823	51.08
190.211	-2538.51
190.599	-88.23
190.987	62.09
191.375	42.92
191.763	-485.26
192.151	-110.14
192.538	8.19
192.926	-29.63
193.314	120.29
193.702	496.74
194.089	-129.96
194.477	74.51
194.864	147.62
195.252	50.56
195.639	-129.66
196.027	144.68
196.414	215.65
196.801	168.86
197.189	99.26
197.576	372.87
197.963	-47.64
198.351	-137.43
198.738	21.47
199.125	-11.06
199.512	24.33
199.899	-77.06
200.286	0.92
200.673	-7.52
201.06	52.85
201.447	2.12
201.833	14.22
202.22	-60.23
202.607	32.09
202.994	15.34
203.38	25.04
203.767	14.03
204.154	16.38
204.54	-42.59
204.927	11.88
205.313	-3.79
205.699	-78.12
206.086	22.2
206.472	7.87
206.858	17.41
207.245	13.37
207.631	2.56
208.017	-10.16
208.403	1.45
208.789	6.75
209.175	13.46
209.561	31.96
209.947	-1.84
210.333	-23.06
210.719	23.48
211.105	25.42
211.491	3.07
211.876	24
212.262	-2.21
212.648	1.56
213.034	-69.51
213.419	-31.91
213.805	-6.82
214.19	-24.13
214.576	-13.42
214.961	-57.07
215.346	-55.38
215.732	-54.57
216.117	26.02
216.502	-21.91
216.888	-36.89
217.273	-2.7
217.658	-68.2
218.043	0.78
218.428	6.5
218.813	5.32
219.198	-12.79
219.583	6.55
219.968	-24.69
220.353	-24.64
220.738	-17.32
221.122	-15.7
221.507	-30.16
221.892	-3.97
222.276	0.11
222.661	7.11
223.046	-19.64
223.43	1.13
223.815	-1.4
224.199	-0.9
224.583	-12.56
224.968	-1.62
225.352	-1.04
225.736	-16.5
226.121	-7.66
226.505	-4.77
226.889	-4.16
227.273	-3.04
227.657	-6.87
228.041	-1.41
228.425	0.6
228.809	-0.74
229.193	0.32
229.577	2.44
229.961	2.11
230.344	2.07
230.728	1.05
231.112	1.75
231.495	2.23
231.879	-0.12
232.263	1.6
232.646	0.33
233.03	1.31
233.413	2.53
233.797	2.88
234.18	2.15
234.563	2.35
234.946	0.67
235.33	1.82
235.713	2.4
236.096	0.9
236.479	1.83
236.862	2.06
237.245	-0.29
237.628	2.13
238.011	0.47
238.394	2.59
238.777	2.94
239.16	3.92
239.543	0.33
239.925	2.54
240.308	2.01
240.691	3.57
241.073	1.96
241.456	-0.08
241.838	2.04
242.221	1.78
242.603	1.65
242.986	1.5
243.368	1.71
243.75	1.86
244.133	1.96
244.515	1.81
244.897	2.05
245.279	2.07
245.661	1.96
246.043	2.19
246.425	2.75
246.807	2.23
247.189	0.97
247.571	2.08
247.953	1.68
248.335	2.23
248.717	1.99
249.098	2.23
249.48	1.93
249.862	2.01
250.243	1.95
250.625	1.88
251.006	2.65
251.388	2.47
251.769	2.43
252.151	1.63
252.532	1.85
252.913	2.13
253.295	2.02
253.676	1.43
254.057	1.8
254.438	2.04
254.819	1.38
255.2	2.16
255.581	1.57
255.962	1.01
256.343	1.4
256.724	2.01
257.105	1.94
257.486	1.22
257.867	2.45
258.247	0.31
258.628	1.39
259.009	1.78
259.389	1.38
259.77	2.76
260.15	2.04
260.531	1.79
260.911	1.83
261.292	2.15
261.672	1.83
262.052	1.87
262.432	2.01
262.813	1.91
263.193	1.73
263.573	1.84
263.953	1.97
264.333	1.93
264.713	1.74
265.093	2.25
265.473	0.87
265.853	1.83
266.233	1.52
266.612	1.38
266.992	1.72
267.372	2.03
267.752	1.65
268.131	1.32
268.511	1.61
268.89	1.54
269.27	1.56
269.649	1.07
270.029	1.82
270.408	1.15
270.787	1.46
271.167	0.92
271.546	1.31
271.925	1.98
272.304	2.03
272.683	1.86
273.062	1.7
273.441	2.41
273.82	1.67
274.199	1.78
274.578	1.55
274.957	1.91
275.336	2.11
275.715	2.03
276.093	1.58
276.472	1.47
276.851	1.46
277.229	1.94
277.608	1.8
277.986	1.86
278.365	1.36
278.743	1.37
279.122	2.41
279.5	1.84
279.878	2.05
280.257	1.89
280.635	1.87
281.013	1.96
281.391	1.47
281.769	0.89
282.147	1.74
282.525	1.24
282.903	1.21
283.281	1.52
283.659	1.51
284.037	2.1
284.415	1.33
284.792	1.64
285.17	1.99
285.548	1.6
285.925	1.28
286.303	1.53
286.68	2.09
287.058	1.87
287.435	1.87
287.813	1.88
288.19	1.5
288.567	1.76
288.945	1.62
289.322	2.07
289.699	1.16
290.076	2.35
290.453	1.76
290.83	2.01
291.207	1.64
291.584	1.98
291.961	1.99
292.338	1.85
292.715	1.86
293.092	1.72
293.469	1.64
293.845	1.81
294.222	1.6
294.599	2.01
294.975	1.81
295.352	1.86
295.728	1.91
296.105	1.76
296.481	1.6
296.858	1.73
297.234	1.99
297.61	1.58
297.986	2.1
298.363	2.14
298.739	1.98
299.115	1.98
299.491	2.01
299.867	2.07
300.243	1.9
300.619	2.05
300.995	1.96
301.371	2.18
301.746	2.32
302.122	2.36
302.498	1.71
302.874	1.72
303.249	2.05
303.625	1.75
304	1.48
304.376	2.21
304.751	1.65
305.127	1.67
305.502	1.98
305.878	2.45
306.253	1.42
306.628	1.8
307.003	2.24
307.378	2
307.754	2.22
308.129	2.05
308.504	2.01
308.879	2.44
309.254	1.93
309.629	2.43
310.003	1.82
310.378	2.09
310.753	2.15
311.128	2.67
311.502	2.31
311.877	1.77
312.252	1.86
312.626	1.86
313.001	1.85
313.375	2.04
313.75	2.09
314.124	1.88
314.498	1.8
314.873	1.75
315.247	2.51
315.621	1.76
315.995	2.41
316.369	2.08
316.743	2.2
317.117	2.16
317.491	1.8
317.865	1.77
318.239	1.77
318.613	2.22
318.987	1.69
319.361	2.24
319.734	2.5
320.108	2.14
320.482	2.48
320.855	1.69
321.229	1.92
321.602	1.85
321.976	1.99
322.349	2.16
322.723	2.45
323.096	1.92
323.469	1.92
323.843	2.94
324.216	1.87
324.589	2.02
324.962	2.57
325.335	1.9
325.708	2.4
326.081	2.01
326.454	2.13
326.827	2.01
327.2	2.32
327.573	2.76
327.945	2
328.318	2.37
328.691	2.34
329.063	2.56
329.436	1.91
329.809	1.99
330.181	1.8
330.553	1.69
330.926	2.36
331.298	1.67
331.671	1.91
332.043	1.93
332.415	2.18
332.787	2.47
333.159	1.93
333.532	2.25
333.904	2.38
334.276	2.08
334.648	2.14
335.02	2.2
335.391	2.28
335.763	2.07
336.135	1.98
336.507	2.06
336.879	2.57
337.25	2.09
337.622	2.42
337.993	2.5
338.365	2.55
338.736	2.51
339.108	2.48
339.479	2.12
339.851	2.36
340.222	2.37
340.593	2.76
340.964	2.77
341.336	2.48
341.707	2.46
342.078	1.88
342.449	2.38
342.82	2.37
343.191	2.44
343.562	2.38
343.933	2.2
344.303	2.06
344.674	1.86
345.045	1.99
345.416	2.31
345.786	2.1
346.157	2.22
346.527	2.54
346.898	2.03
347.268	1.94
347.639	2.38
348.009	2.39
348.38	2.74
348.75	2.18
349.12	3.07
349.49	2.5
349.861	2.17
350.231	2.37
350.601	2.31
350.971	2.4
351.341	2.71
351.711	2.1
352.081	2.52
352.45	2.71
352.82	2.33
353.19	2.24
353.56	2.66
353.929	2
354.299	2.27
354.669	2.72
355.038	2.18
355.408	2.61
355.777	2.57
356.147	2.39
356.516	2.19
356.885	2.51
357.254	2.16
357.624	1.98
357.993	2.61
358.362	2.4
358.731	2.27
359.1	2.38
359.469	2.18
359.838	2.32
360.207	2.8
360.576	2.25
360.945	2.88
361.314	2.12
361.682	2.47
362.051	2.2
362.42	2.6
362.788	2.43
363.157	2.48
363.525	2.38
363.894	2.29
364.262	2.48
364.631	2.44
364.999	2.54
365.367	2.62
365.735	2.23
366.104	2.3
366.472	2.46
366.84	1.95
367.208	2.43
367.576	2.73
367.944	2.74
368.312	2.49
368.68	2.56
369.048	2.34
369.416	2.27
369.783	2.6
370.151	2.3
370.519	2.44
370.886	2.27
371.254	2.65
371.621	1.98
371.989	2.16
372.356	2.54
372.724	2.7
373.091	2.57
373.458	2.6
373.826	2.13
374.193	2.43
374.56	2.39
374.927	2.54
375.294	2.53
375.661	2.77
376.028	2.07
376.395	2.64
376.762	2.68
377.129	2.45
377.496	2.42
377.863	2.25
378.229	2.61
378.596	2.53
378.963	2.47
379.329	2.63
379.696	2.57
380.062	2.63
380.429	2.57
380.795	2.75
381.161	2.61
381.528	2.52
381.894	2.61
382.26	2.72
382.626	2.53
382.993	2.45
383.359	2.85
383.725	2.3
384.091	2.56
384.457	2.46
384.823	2.41
385.188	2.38
385.554	2.51
385.92	2.63
386.286	2.57
386.651	2.32
387.017	2.4
387.383	2.72
387.748	2.42
388.114	2.39
388.479	2.37
388.845	2.6
389.21	2.35
389.575	2.78
389.94	2.58
390.306	2.54
390.671	2.37
391.036	2.64
391.401	2.7
391.766	2.92
392.131	2.59
392.496	2.59
392.861	2.72
393.226	2.53
393.591	2.49
393.956	2.51
394.32	2.67
394.685	2.66
395.05	3.08
395.414	2.39
395.779	2.5
396.143	2.67
396.508	2.67
396.872	2.9
397.236	2.58
397.601	2.71
397.965	2.6
398.329	2.53
398.694	2.85
399.058	2.66
399.422	2.74
399.786	2.46
400.15	2.74
400.514	2.7
400.878	2.67
401.242	2.7
401.605	2.69
401.969	2.76
402.333	2.45
402.697	2.8
403.06	2.76
403.424	2.5
403.787	2.64
404.151	2.7
404.514	2.51
404.878	2.67
405.241	2.72
405.604	2.6
405.968	2.69
406.331	2.39
406.694	2.73
407.057	2.75
407.42	2.8
407.783	2.74
408.146	2.7
408.509	2.55
408.872	2.64
409.235	2.72
409.598	2.62
409.961	2.78
410.323	2.51
410.686	2.87
411.049	2.73
411.411	2.54
411.774	2.69
412.136	2.67
412.499	2.83
412.861	2.6
413.223	2.58
413.586	2.64
413.948	2.91
414.31	2.8
414.672	2.72
415.035	2.58
415.397	2.67
415.759	2.57
416.121	2.75
416.483	2.62
416.845	2.56
417.206	2.67
417.568	2.65
417.93	2.69
418.292	2.7
418.653	2.79
419.015	2.78
419.377	2.8
419.738	2.85
420.1	2.8
420.461	2.83
420.822	2.74
421.184	2.69
421.545	2.68
421.906	2.67
422.267	2.61
422.629	2.6
422.99	2.76
423.351	2.74
423.712	2.66
424.073	2.74
424.434	2.72
424.795	2.83
425.155	2.7
425.516	2.67
425.877	2.75
426.238	2.76
426.598	2.7
426.959	2.63
427.32	2.78
427.68	2.83
428.041	2.81
428.401	2.65
428.761	2.87
429.122	2.74
429.482	2.9
429.842	2.75
430.202	2.82
430.563	2.96
430.923	2.8
431.283	2.77
431.643	2.64
432.003	2.89
432.363	2.76
432.722	2.92
433.082	2.9
433.442	2.91
433.802	2.8
434.161	2.8
434.521	2.69
434.881	2.88
435.24	2.9
435.6	2.79
435.959	2.88
436.319	2.71
436.678	2.83
437.037	2.77
437.396	2.97
437.756	2.81
438.115	2.76
438.474	2.83
438.833	2.71
439.192	2.94
439.551	2.83
439.91	2.93
440.269	2.87
440.628	2.95
440.987	2.89
441.345	2.95
441.704	2.93
442.063	2.84
442.421	2.85
442.78	2.79
443.138	2.95
443.497	2.78
443.855	2.99
444.214	2.81
444.572	3.03
444.93	2.87
445.288	2.93
445.647	2.97
446.005	2.97
446.363	3.02
446.721	2.97
447.079	3
447.437	2.85
447.795	2.96
448.153	2.93
448.51	3
448.868	2.92
449.226	2.96
449.584	2.93
449.941	3.04
450.299	2.86
450.656	3.06
451.014	3.06
451.371	2.93
451.729	2.89
452.086	3.03
452.443	3.07
452.801	3.24
453.158	2.96
453.515	2.99
453.872	2.79
454.229	2.94
454.586	2.95
454.943	2.98
455.3	2.92
455.657	3.08
456.014	3.11
456.371	3.11
456.727	3.21
457.084	2.83
457.441	3.33
457.797	2.97
458.154	3.12
458.51	3.11
458.867	2.95
459.223	3.09
459.58	2.97
459.936	3.01
460.292	3.07
460.648	3.13
461.005	3
461.361	3.04
461.717	2.97
462.073	3.03
462.429	3.02
462.785	3.09
463.141	2.96
463.496	2.98
463.852	3.09
464.208	3.1
464.564	3.09
464.919	3.01
465.275	2.97
465.631	3.1
465.986	3.27
466.342	3.21
466.697	3.13
467.052	3.1
467.408	3.13
467.763	3.05
468.118	3.18
468.473	3.21
468.829	3.09
469.184	3.2
469.539	3.23
469.894	3.12
470.249	3.2
470.603	3.09
470.958	3.07
471.313	3.11
471.668	3.31
472.023	3.04
472.377	3.22
472.732	3.13
473.086	3.13
473.441	3.29
473.795	3.15
474.15	3.25
474.504	3.28
474.859	3.17
475.213	3.24
475.567	3.22
475.921	3.22
476.275	3.08
476.63	3.35
476.984	3.42
477.338	3.35
477.692	3.08
478.045	3.14
478.399	3.36
478.753	3.11
479.107	3.24
479.461	3.17
479.814	3.17
480.168	3.26
480.521	3.3
480.875	3.14
481.228	3.18
481.582	3.36
481.935	3.15
482.289	3.1
482.642	3.33
482.995	3.17
483.348	3.22
483.701	3.22
484.055	3.17
484.408	3.25
484.761	3.21
485.114	3.09
485.466	3.09
485.819	3.06
486.172	3.09
486.525	3.09
486.878	3.14
487.23	3.14
487.583	3.17
487.936	3.2
488.288	3.21
488.641	3.17
488.993	3.23
489.345	3.16
489.698	3.17
490.05	3.15
490.402	3.19
490.754	3.24
491.107	3.19
491.459	3.27
491.811	3.33
492.163	3.33
492.515	3.32
492.866	3.34
493.218	3.21
493.57	3.22
493.922	3.25
494.274	3.31
494.625	3.28
494.977	3.4
495.328	3.38
495.68	3.35
496.031	3.44
496.383	3.4
496.734	3.35
497.086	3.41
497.437	3.47
497.788	3.37
498.139	3.48
498.49	3.35
498.842	3.33
499.193	3.46
499.544	3.54
499.894	3.36
500.245	3.38
500.596	3.5
500.947	3.55
501.298	3.52
501.648	3.42
501.999	3.56
502.35	3.6
502.7	3.46
503.051	3.53
503.401	3.48
503.752	3.32
504.102	3.39
504.452	3.52
504.803	3.4
505.153	3.56
505.503	3.59
505.853	3.49
506.203	3.5
506.553	3.44
506.903	3.53
507.253	3.54
507.603	3.51
507.953	3.63
508.303	3.47
508.652	3.56
509.002	3.59
509.352	3.58
509.701	3.63
510.051	3.54
510.4	3.64
510.75	3.58
511.099	3.49
511.449	3.6
511.798	3.62
512.147	3.55
512.496	3.56
512.846	3.68
513.195	3.58
513.544	3.56
513.893	3.61
514.242	3.55
514.591	3.7
514.939	3.68
515.288	3.66
515.637	3.75
515.986	3.75
516.334	3.76
516.683	3.76
517.032	3.74
517.38	3.71
517.729	3.7
518.077	3.79
518.426	3.75
518.774	3.6
519.122	3.84
519.47	3.78
519.819	3.81
520.167	3.73
520.515	3.72
520.863	3.74
521.211	3.76
521.559	3.67
521.907	3.77
522.255	3.75
522.602	3.84
522.95	3.69
523.298	3.77
523.645	3.87
523.993	3.86
524.341	4.04
524.688	3.96
525.036	3.94
525.383	3.83
525.73	3.8
526.078	3.84
526.425	3.89
526.772	3.88
527.119	3.71
527.466	3.84
527.814	3.86
528.161	3.88
528.508	3.9
528.854	3.84
529.201	3.83
529.548	3.82
529.895	3.75
530.242	3.74
530.588	3.77
530.935	3.78
531.282	3.83
531.628	3.85
531.975	3.88
532.321	3.88
532.667	3.98
533.014	3.95
533.36	3.93
533.706	4.04
534.052	3.99
534.399	3.97
534.745	3.93
535.091	3.92
535.437	3.94
535.783	3.95
536.129	4.05
536.474	4.05
536.82	3.99
537.166	4.01
537.512	4.15
537.857	4.12
538.203	4.08
538.549	4.18
538.894	4.07
539.239	4.09
539.585	4.15
539.93	4.21
540.276	4.36
540.621	4.25
540.966	4.36
541.311	4.15
541.656	4.26
542.001	4.24
542.346	4.17
542.691	4.16
543.036	4.14
543.381	4.14
543.726	4.14
544.071	4.13
544.415	4.17
544.76	4.25
545.105	4.19
545.449	4.15
545.794	4.32
546.138	4.27
546.483	4.36
546.827	4.45
547.171	4.4
547.516	4.37
547.86	4.37
548.204	4.51
548.548	4.38
548.892	4.46
549.236	4.39
549.58	4.4
549.924	4.47
550.268	4.5
550.612	4.59
550.956	4.73
551.3	4.47
551.643	4.44
551.987	4.64
552.33	4.6
552.674	4.57
553.017	4.66
553.361	4.64
553.704	4.76
554.048	4.71
554.391	4.67
554.734	4.64
555.077	4.89
555.42	4.69
555.764	4.82
556.107	4.75
556.45	4.97
556.793	4.86
557.135	4.83
557.478	4.79
557.821	4.88
558.164	4.9
558.507	4.86
558.849	4.91
559.192	4.71
559.534	4.87
559.877	4.99
560.219	4.95
560.562	4.79
560.904	5.14
561.246	4.71
561.589	5.03
561.931	4.89
562.273	4.99
562.615	5.11
562.957	5
563.299	5
563.641	4.96
563.983	4.99
564.325	4.95
564.667	5.19
565.008	5.14
565.35	5.15
565.692	5.01
566.033	4.98
566.375	5.26
566.716	5.23
567.058	5.14
567.399	5.3
567.741	5.25
568.082	5.24
568.423	5.22
568.764	5.31
569.105	5.13
569.447	5.42
569.788	5.28
570.129	5.16
570.47	5.38
570.811	5.29
571.151	5.48
571.492	5.52
571.833	5.42
572.174	5.41
572.514	5.58
572.855	5.48
573.195	5.24
573.536	5.61
573.876	5.45
574.217	5.59
574.557	5.46
574.898	5.47
575.238	5.52
575.578	5.43
575.918	5.64
576.258	5.73
576.598	5.79
576.938	5.49
577.278	5.58
577.618	5.82
577.958	5.88
578.298	5.79
578.638	5.7
578.977	5.85
579.317	5.81
579.657	5.79
579.996	5.85
580.336	5.79
580.675	6.13
581.014	5.86
581.354	5.78
581.693	5.83
582.032	5.78
582.372	6.06
582.711	6.12
583.05	5.88
583.389	5.99
583.728	5.99
584.067	6.02
584.406	5.8
584.745	6.16
585.083	5.92
585.422	5.93
585.761	6.18
586.1	6.12
586.438	6.17
586.777	6.19
587.115	6.2
587.454	6.28
587.792	6.23
588.13	6.22
588.469	6.1
588.807	6.27
589.145	6.18
589.483	6.48
589.821	6.5
590.159	6.3
590.497	6.37
590.835	6.21
591.173	6.52
591.511	6.08
591.849	6.34
592.187	6.39
592.524	6.29
592.862	6.25
593.2	6.45
593.537	6.57
593.875	6.48
594.212	6.58
594.55	6.43
594.887	6.73
595.224	6.43
595.561	6.47
595.899	6.45
596.236	6.44
596.573	6.63
596.91	6.85
597.247	6.82
597.584	6.61
597.921	6.99
598.258	6.66
598.594	6.74
598.931	6.76
599.268	6.69
599.604	6.69
599.941	6.78
600.277	6.95
600.614	6.85
600.95	6.69
601.287	6.76
601.623	7.17
601.959	7.33
602.296	7.01
602.632	7.02
602.968	7.17
603.304	7.25
603.64	7.3
603.976	7.17
604.312	7.06
604.648	6.95
604.984	7.17
605.319	7.31
605.655	7.23
605.991	7.02
606.326	7.39
606.662	7.03
606.998	7.2
607.333	7.26
607.668	7.14
608.004	7.32
608.339	7.23
608.674	7.42
609.01	7.55
609.345	7.25
609.68	7.07
610.015	7.43
610.35	7.41
610.685	7.58
611.02	7.34
611.355	7.64
611.689	7.38
612.024	7.47
612.359	7.48
612.694	7.44
613.028	7.53
613.363	7.71
613.697	7.81
614.032	7.74
614.366	7.52
614.7	7.58
615.035	7.67
615.369	7.52
615.703	7.78
616.037	8.01
616.371	7.75
616.705	8.07
617.039	7.89
617.373	7.74
617.707	8.19
618.041	8.16
618.375	7.75
618.709	8.23
619.042	8.38
619.376	8.14
619.71	8.19
620.043	8.32
620.377	8.05
620.71	8.09
621.043	7.72
621.377	8.33
621.71	7.91
622.043	8.13
622.376	8.12
622.709	8.03
623.043	8.22
623.376	8.53
623.709	8.62
624.041	8.47
624.374	7.78
624.707	8.47
625.04	8.22
625.373	8.29
625.705	8.33
626.038	8.49
626.37	8.58
626.703	8.19
627.035	8.65
627.368	8.1
627.7	8.58
628.032	8.64
628.365	8.58
628.697	8.58
629.029	8.84
629.361	8.44
629.693	8.8
630.025	8.76
630.357	8.99
630.689	8.6
631.021	8.8
631.353	8.83
631.684	8.85
632.016	8.79
632.348	8.6
632.679	8.76
633.011	9.1
633.342	9.04
633.674	8.79
634.005	8.98
634.336	9
634.668	8.97
634.999	8.97
635.33	9.02
635.661	9.13
635.992	9.25
636.323	8.89
636.654	9.17
636.985	8.88
637.316	8.9
637.647	9.18
637.977	9.24
638.308	9.3
638.639	9.13
638.969	9.12
639.3	9.72
639.63	9.73
639.961	9.35
640.291	9.79
640.622	10.04
640.952	9.57
641.282	9.4
641.612	9.26
641.943	9.65
642.273	9.59
642.603	9.86
642.933	9.59
643.263	9.7
643.592	9.99
643.922	9.47
644.252	9.78
644.582	10.04
644.911	9.49
645.241	9.79
645.571	9.96
645.9	9.89
646.23	9.89
646.559	10.04
646.888	9.76
647.218	10.01
647.547	10.19
647.876	9.57
648.205	10.08
648.534	10.04
648.863	10.16
649.192	9.74
649.521	9.91
649.85	10.27
650.179	10.59
650.508	10.06
650.837	10.59
651.165	10.17
651.494	10.19
651.822	10.08
652.151	9.89
652.479	9.93
652.808	10.09
653.136	9.77
653.465	10.48
653.793	10.35
654.121	10.37
654.449	9.75
654.777	10.59
655.105	10.17
655.433	10.35
655.761	10.78
656.089	10.73
656.417	10.41
656.745	10.38
657.073	10.37
657.4	10.51
657.728	10.97
658.056	10.72
658.383	10.38
658.711	10.23
659.038	10.7
659.365	10.28
659.693	10.74
660.02	10.93
660.347	10.97
660.674	10.68
661.001	11.02
661.329	10.98
661.656	11.03
661.982	11.09
662.309	10.88
662.636	11.1
662.963	11.21
663.29	11.06
663.616	10.66
663.943	11.12
664.27	11.62
664.596	11.29
664.923	11.33
665.249	11.41
665.576	11.23
665.902	11.49
666.228	11.17
666.554	11.2
666.881	11.32
667.207	11.45
667.533	11.67
667.859	11.6
668.185	11.62
668.511	11.24
668.837	12.18
669.162	11.8
669.488	11.59
669.814	11.31
670.139	11.6
670.465	11.27
670.791	11.3
671.116	11.8
671.442	12.12
671.767	12.11
672.092	11.3
672.418	11.47
672.743	11.2
673.068	11.45
673.393	12.47
673.718	11.98
674.043	11.71
674.368	11.55
674.693	11.71
675.018	12.04
675.343	12.11
675.667	12.05
675.992	12.35
676.317	11.73
676.641	11.42
676.966	12.47
677.29	11.91
677.615	12.09
677.939	11.99
678.264	11.99
678.588	12.16
678.912	12.13
679.236	12.7
679.56	12.35
679.885	11.89
680.209	11.96
680.532	12.89
680.856	12.62
681.18	12.71
681.504	12.13
681.828	12.75
682.152	12.56
682.475	12.18
682.799	12.67
683.122	12.25
683.446	12.71
683.769	12.6
684.093	12.92
684.416	12.91
684.739	12.77
685.062	12.37
685.386	13.2
685.709	12.58
686.032	12.84
686.355	12.84
686.678	12.73
687.001	12.8
687.324	12.63
687.646	12.21
687.969	12.43
688.292	13.33
688.614	12.86
688.937	12.65
689.26	12.5
