Data from 20-6_crown_Reflection__2__128.txt Node

Date: Fri Nov 11 21:07:06 CST 2022
User: ToomeyLab
Spectrometer: FLMS14357
Trigger mode: 0
Integration Time (sec): 1.000000E-2
Scans to average: 100
Electric dark correction enabled: true
Nonlinearity correction enabled: false
Boxcar width: 0
XAxis mode: Wavelengths
Number of Pixels in Spectrum: 2048
>>>>>Begin Spectral Data<<<<<
189.047	-10.61
189.435	-10.61
189.823	-10.61
190.211	-1296.62
190.599	56.23
190.987	150.44
191.375	-8.33
191.763	-392.22
192.151	-304.14
192.538	-568.62
192.926	-166.79
193.314	73.4
193.702	775.43
194.089	-1001.24
194.477	53.24
194.864	27.69
195.252	-2.68
195.639	94.39
196.027	-18.5
196.414	192.85
196.801	184.81
197.189	87.03
197.576	3573.94
197.963	-44.58
198.351	-132.84
198.738	-36.2
199.125	0.78
199.512	14.37
199.899	-67.16
200.286	-8.96
200.673	-42.62
201.06	-2.56
201.447	45.74
201.833	5.33
202.22	-106.37
202.607	47.61
202.994	34.58
203.38	8.9
203.767	-19.95
204.154	3.02
204.54	11.13
204.927	14.13
205.313	-14.37
205.699	-59.29
206.086	24.52
206.472	-25.67
206.858	17.4
207.245	25.53
207.631	22.66
208.017	-3.13
208.403	-53.59
208.789	22.91
209.175	0.01
209.561	32.65
209.947	11.17
210.333	-24.12
210.719	-2.37
211.105	26.83
211.491	3.55
211.876	-16.45
212.262	17.75
212.648	19.86
213.034	-7.45
213.419	-54.47
213.805	-48.86
214.19	-6.34
214.576	55.45
214.961	-45.63
215.346	11.33
215.732	-49.78
216.117	19.1
216.502	-14.11
216.888	-24.51
217.273	-6.45
217.658	-45.07
218.043	-10.86
218.428	-40.05
218.813	-6.58
219.198	11.2
219.583	-22.15
219.968	-26.56
220.353	-14.46
220.738	-22.91
221.122	-0.78
221.507	-42.6
221.892	-17.69
222.276	4.31
222.661	14.47
223.046	-26.74
223.43	-3.75
223.815	-10.28
224.199	10.29
224.583	-3.59
224.968	-14.04
225.352	-0.29
225.736	-9.4
226.121	-3.52
226.505	3.68
226.889	-10.47
227.273	3.07
227.657	-6.29
228.041	1.77
228.425	0.51
228.809	4.64
229.193	5.29
229.577	6.48
229.961	5.58
230.344	4.29
230.728	2.95
231.112	3.27
231.495	4.3
231.879	3.9
232.263	3.27
232.646	2.5
233.03	3.18
233.413	4.42
233.797	5
234.18	3.44
234.563	4.7
234.946	2.79
235.33	3.67
235.713	3.32
236.096	3.26
236.479	4.09
236.862	4.09
237.245	2.02
237.628	3.35
238.011	3.32
238.394	4.72
238.777	5.69
239.16	4.82
239.543	2.14
239.925	3.65
240.308	1.29
240.691	3.77
241.073	4.69
241.456	1.76
241.838	4.45
242.221	3.78
242.603	4.3
242.986	3.71
243.368	3.73
243.75	4.33
244.133	3.86
244.515	3.82
244.897	4.07
245.279	4.02
245.661	4.7
246.043	3.82
246.425	4.57
246.807	3.67
247.189	2.53
247.571	3.55
247.953	3.8
248.335	3.76
248.717	4.02
249.098	4.14
249.48	3.59
249.862	4.24
250.243	3.64
250.625	3.97
251.006	4.54
251.388	3.84
251.769	3.35
252.151	3.49
252.532	3.8
252.913	4.93
253.295	3.58
253.676	3.17
254.057	3.57
254.438	3.68
254.819	2.88
255.2	4.37
255.581	3.62
255.962	4.02
256.343	3.72
256.724	4.18
257.105	3.45
257.486	3.45
257.867	3.95
258.247	2.06
258.628	3.04
259.009	2.76
259.389	3.06
259.77	4.62
260.15	3.57
260.531	3.78
260.911	3.81
261.292	3.69
261.672	3.42
262.052	3.69
262.432	4.05
262.813	3.7
263.193	2.99
263.573	3.62
263.953	4.2
264.333	3.35
264.713	3.83
265.093	3.88
265.473	2.45
265.853	3.49
266.233	2.94
266.612	2.61
266.992	2.67
267.372	3.89
267.752	3.18
268.131	3.19
268.511	3.12
268.89	3.58
269.27	3.23
269.649	3.25
270.029	3.92
270.408	3.37
270.787	3.8
271.167	3.14
271.546	3.44
271.925	3.53
272.304	3.57
272.683	3.58
273.062	3.3
273.441	3.33
273.82	3.28
274.199	3.56
274.578	3.5
274.957	3.65
275.336	3.44
275.715	3.9
276.093	3.21
276.472	3.56
276.851	3.11
277.229	3.29
277.608	3.63
277.986	3.77
278.365	2.71
278.743	3.14
279.122	3.9
279.5	3.22
279.878	3.59
280.257	3.53
280.635	3.34
281.013	3.43
281.391	3.19
281.769	3.33
282.147	3.37
282.525	2.35
282.903	3.12
283.281	3.57
283.659	3.81
284.037	3.27
284.415	3.44
284.792	3.22
285.17	3.41
285.548	2.98
285.925	3.15
286.303	3.23
286.68	3.22
287.058	3.47
287.435	3.1
287.813	3.45
288.19	3.01
288.567	3.2
288.945	3.38
289.322	3.72
289.699	2.45
290.076	3.51
290.453	3.45
290.83	2.79
291.207	3.08
291.584	3.39
291.961	3
292.338	3.23
292.715	3.56
293.092	3.25
293.469	3.19
293.845	3.21
294.222	2.91
294.599	3.54
294.975	3.16
295.352	3.05
295.728	2.67
296.105	3.24
296.481	2.59
296.858	3.05
297.234	3.19
297.61	3.02
297.986	3.46
298.363	3.35
298.739	3.34
299.115	3.45
299.491	3.64
299.867	2.96
300.243	3.68
300.619	3.16
300.995	3.27
301.371	3.76
301.746	3.75
302.122	3.37
302.498	3.45
302.874	3.26
303.249	2.99
303.625	2.82
304	2.95
304.376	3.33
304.751	3.31
305.127	3.16
305.502	3.47
305.878	3.61
306.253	3.2
306.628	3.25
307.003	3.23
307.378	3.36
307.754	3.9
308.129	3.43
308.504	3.15
308.879	3.4
309.254	3.72
309.629	3.63
310.003	3.52
310.378	3.41
310.753	3.58
311.128	3.48
311.502	3.45
311.877	3.17
312.252	3.48
312.626	3.5
313.001	3.58
313.375	3.37
313.75	3.23
314.124	3.14
314.498	3.26
314.873	3.2
315.247	3.21
315.621	3.14
315.995	3.61
316.369	3.61
316.743	3.36
317.117	3.56
317.491	3.29
317.865	3.2
318.239	3.19
318.613	3.54
318.987	3.11
319.361	3.03
319.734	3.53
320.108	3.1
320.482	3.85
320.855	3.18
321.229	3.44
321.602	3.22
321.976	3.39
322.349	3.25
322.723	3.62
323.096	3.72
323.469	3.3
323.843	3.76
324.216	2.73
324.589	3.31
324.962	3.63
325.335	3.08
325.708	3.6
326.081	3.35
326.454	3.06
326.827	2.95
327.2	3.72
327.573	4.05
327.945	3.17
328.318	3.48
328.691	3.43
329.063	3.23
329.436	2.76
329.809	2.97
330.181	3.5
330.553	2.8
330.926	3.3
331.298	3.12
331.671	3.08
332.043	3.09
332.415	3.37
332.787	3.09
333.159	3.17
333.532	3.55
333.904	3.63
334.276	2.91
334.648	3.06
335.02	3.4
335.391	3.43
335.763	3.37
336.135	2.73
336.507	3.14
336.879	3.35
337.25	3.53
337.622	3.06
337.993	3.52
338.365	3.75
338.736	3.3
339.108	3.69
339.479	3.09
339.851	3.45
340.222	2.95
340.593	3.48
340.964	3.47
341.336	3.11
341.707	3.07
342.078	2.65
342.449	3.53
342.82	3.81
343.191	3.83
343.562	3.26
343.933	3.1
344.303	3.31
344.674	3.9
345.045	3.51
345.416	3.63
345.786	3.26
346.157	3.06
346.527	3.31
346.898	3.21
347.268	3.31
347.639	3.67
348.009	3.45
348.38	3.54
348.75	3.14
349.12	3.75
349.49	3.7
349.861	3.31
350.231	3.66
350.601	3.47
350.971	3.36
351.341	3.36
351.711	3.45
352.081	3.58
352.45	3.78
352.82	3.34
353.19	3.64
353.56	3.13
353.929	3.3
354.299	3.23
354.669	3.71
355.038	3.53
355.408	3.56
355.777	3.48
356.147	3.44
356.516	3.55
356.885	3.28
357.254	3.25
357.624	3.15
357.993	3.48
358.362	3.54
358.731	3.34
359.1	3.51
359.469	3.14
359.838	3.34
360.207	3.49
360.576	3.45
360.945	3.79
361.314	3.26
361.682	3.24
362.051	3.26
362.42	3.62
362.788	3.61
363.157	3.48
363.525	3.34
363.894	3.29
364.262	3.71
364.631	3.76
364.999	3.47
365.367	3.65
365.735	3.54
366.104	3.16
366.472	3.32
366.84	3.14
367.208	3.17
367.576	3.71
367.944	3.65
368.312	3.37
368.68	3.46
369.048	3.63
369.416	3.6
369.783	3.59
370.151	3.72
370.519	3.46
370.886	3.49
371.254	3.78
371.621	3.61
371.989	3.11
372.356	3.79
372.724	3.76
373.091	3.78
373.458	3.45
373.826	3.54
374.193	3.55
374.56	3.56
374.927	3.72
375.294	3.62
375.661	3.76
376.028	3.36
376.395	3.5
376.762	3.47
377.129	3.53
377.496	3.5
377.863	3.67
378.229	3.6
378.596	3.59
378.963	3.39
379.329	3.66
379.696	3.82
380.062	3.72
380.429	3.74
380.795	3.75
381.161	3.56
381.528	3.67
381.894	3.69
382.26	3.86
382.626	3.84
382.993	3.55
383.359	3.85
383.725	3.62
384.091	3.73
384.457	3.67
384.823	3.43
385.188	3.75
385.554	3.58
385.92	3.59
386.286	3.6
386.651	3.67
387.017	3.72
387.383	3.81
387.748	3.59
388.114	3.59
388.479	3.34
388.845	3.66
389.21	3.62
389.575	3.74
389.94	3.8
390.306	3.84
390.671	3.72
391.036	3.47
391.401	3.58
391.766	3.68
392.131	3.74
392.496	3.63
392.861	3.54
393.226	3.54
393.591	3.54
393.956	3.64
394.32	3.83
394.685	3.6
395.05	3.78
395.414	3.58
395.779	3.52
396.143	3.76
396.508	3.79
396.872	3.78
397.236	3.57
397.601	3.55
397.965	3.62
398.329	3.51
398.694	3.93
399.058	3.72
399.422	3.78
399.786	3.51
400.15	3.71
400.514	4.05
400.878	3.72
401.242	3.55
401.605	3.73
401.969	3.86
402.333	3.41
402.697	3.75
403.06	3.9
403.424	3.56
403.787	3.61
404.151	3.77
404.514	3.64
404.878	3.85
405.241	3.65
405.604	3.8
405.968	3.85
406.331	3.26
406.694	3.69
407.057	3.73
407.42	3.66
407.783	3.69
408.146	3.76
408.509	3.9
408.872	3.68
409.235	3.76
409.598	3.75
409.961	3.79
410.323	3.73
410.686	3.65
411.049	3.47
411.411	3.69
411.774	3.68
412.136	3.68
412.499	3.61
412.861	3.72
413.223	3.52
413.586	3.79
413.948	3.97
414.31	3.77
414.672	3.67
415.035	3.68
415.397	3.63
415.759	3.63
416.121	3.58
416.483	3.62
416.845	3.78
417.206	3.47
417.568	3.62
417.93	3.68
418.292	3.5
418.653	3.8
419.015	3.74
419.377	3.64
419.738	3.65
420.1	3.62
420.461	3.72
420.822	3.55
421.184	3.71
421.545	3.61
421.906	3.62
422.267	3.62
422.629	3.59
422.99	3.65
423.351	3.72
423.712	3.61
424.073	3.78
424.434	3.71
424.795	3.74
425.155	3.74
425.516	3.77
425.877	3.71
426.238	3.65
426.598	3.55
426.959	3.72
427.32	3.77
427.68	3.68
428.041	3.85
428.401	3.7
428.761	3.89
429.122	3.58
429.482	3.78
429.842	3.77
430.202	3.85
430.563	3.9
430.923	3.9
431.283	3.71
431.643	3.69
432.003	3.85
432.363	3.84
432.722	3.81
433.082	3.88
433.442	3.93
433.802	3.85
434.161	3.74
434.521	3.82
434.881	3.89
435.24	3.78
435.6	3.79
435.959	3.85
436.319	3.78
436.678	3.93
437.037	3.79
437.396	3.82
437.756	3.75
438.115	3.82
438.474	3.9
438.833	3.88
439.192	3.95
439.551	3.77
439.91	3.99
440.269	3.82
440.628	3.95
440.987	3.9
441.345	3.82
441.704	3.89
442.063	3.83
442.421	3.84
442.78	3.75
443.138	3.88
443.497	3.76
443.855	3.98
444.214	3.86
444.572	3.86
444.93	3.83
445.288	3.8
445.647	4.03
446.005	3.97
446.363	4.01
446.721	3.9
447.079	3.94
447.437	3.81
447.795	3.85
448.153	3.82
448.51	3.8
448.868	3.84
449.226	3.83
449.584	4
449.941	3.85
450.299	3.83
450.656	4.03
451.014	3.94
451.371	3.96
451.729	3.93
452.086	3.83
452.443	3.92
452.801	4.19
453.158	3.82
453.515	3.9
453.872	3.85
454.229	3.97
454.586	3.89
454.943	3.91
455.3	4.07
455.657	3.98
456.014	4.12
456.371	4.09
456.727	3.92
457.084	3.79
457.441	4.14
457.797	4.06
458.154	4.03
458.51	4.08
458.867	3.84
459.223	4.01
459.58	4.01
459.936	3.94
460.292	4.05
460.648	4.09
461.005	3.93
461.361	3.89
461.717	3.82
462.073	3.93
462.429	3.89
462.785	3.98
463.141	3.81
463.496	4
463.852	4.07
464.208	4.05
464.564	4
464.919	3.86
465.275	3.93
465.631	3.94
465.986	4.16
466.342	4.06
466.697	3.95
467.052	4.11
467.408	4.04
467.763	3.96
468.118	4.11
468.473	4.07
468.829	3.99
469.184	4.11
469.539	4.15
469.894	4.12
470.249	4.11
470.603	3.92
470.958	3.94
471.313	4.09
471.668	4.1
472.023	3.97
472.377	4.17
472.732	4.1
473.086	3.92
473.441	4.08
473.795	4.1
474.15	3.96
474.504	4.12
474.859	3.95
475.213	4.15
475.567	4.1
475.921	4.14
476.275	4.11
476.63	4.06
476.984	4.08
477.338	4.12
477.692	3.99
478.045	4.02
478.399	4.25
478.753	3.84
479.107	4.08
479.461	4.06
479.814	4.05
480.168	4.05
480.521	3.98
480.875	4.13
481.228	3.98
481.582	4.08
481.935	4.05
482.289	4
482.642	4.05
482.995	4.06
483.348	3.97
483.701	4.17
484.055	3.98
484.408	4
484.761	3.95
485.114	3.79
485.466	3.77
485.819	3.76
486.172	3.81
486.525	3.87
486.878	3.96
487.23	4
487.583	3.98
487.936	4.03
488.288	3.96
488.641	3.87
488.993	3.89
489.345	3.82
489.698	3.89
490.05	3.86
490.402	3.89
490.754	3.93
491.107	3.93
491.459	3.98
491.811	4.11
492.163	3.98
492.515	4.08
492.866	3.94
493.218	3.84
493.57	3.85
493.922	3.89
494.274	3.96
494.625	4.02
494.977	4.05
495.328	4.05
495.68	4.13
496.031	4.13
496.383	4.19
496.734	4.15
497.086	4.09
497.437	4.2
497.788	4.04
498.139	4.08
498.49	4.02
498.842	4.01
499.193	4.05
499.544	4.14
499.894	4.02
500.245	4.1
500.596	4.16
500.947	4.11
501.298	4.09
501.648	4.16
501.999	4.13
502.35	4.12
502.7	4.1
503.051	4.03
503.401	3.97
503.752	3.97
504.102	4.08
504.452	4.24
504.803	4.09
505.153	4.16
505.503	4.22
505.853	4.18
506.203	4.16
506.553	3.94
506.903	4.05
507.253	4.15
507.603	4.09
507.953	4.08
508.303	4.09
508.652	4.13
509.002	4.19
509.352	4.02
509.701	4.23
510.051	4.05
510.4	4.11
510.75	3.97
511.099	3.98
511.449	4.1
511.798	4.01
512.147	4.08
512.496	3.96
512.846	4.2
513.195	4.08
513.544	4.14
513.893	4
514.242	4.05
514.591	4.19
514.939	4.11
515.288	4.16
515.637	4.21
515.986	4.15
516.334	4.13
516.683	4.12
517.032	4.19
517.38	4.1
517.729	4.14
518.077	4.06
518.426	4.2
518.774	4.04
519.122	4.15
519.47	4.02
519.819	4.05
520.167	3.98
520.515	4
520.863	4.12
521.211	4.08
521.559	4.03
521.907	4.12
522.255	4.08
522.602	4.13
522.95	4.12
523.298	4.2
523.645	4.18
523.993	4.11
524.341	4.25
524.688	4.15
525.036	4.17
525.383	4.12
525.73	4.23
526.078	4.03
526.425	4.1
526.772	4.06
527.119	3.96
527.466	4
527.814	3.97
528.161	4.06
528.508	4.01
528.854	4.04
529.201	4.02
529.548	3.99
529.895	3.93
530.242	3.8
530.588	3.85
530.935	3.88
531.282	3.95
531.628	4.02
531.975	4.01
532.321	3.99
532.667	4.16
533.014	4.03
533.36	4.03
533.706	4.06
534.052	4.15
534.399	3.98
534.745	3.95
535.091	3.97
535.437	3.96
535.783	4
536.129	4.08
536.474	4.05
536.82	4.04
537.166	4.07
537.512	4.07
537.857	4
538.203	4
538.549	4.05
538.894	3.97
539.239	4.06
539.585	4.04
539.93	4.1
540.276	4.22
540.621	4.2
540.966	4.18
541.311	4.06
541.656	4.17
542.001	4.06
542.346	4.09
542.691	3.97
543.036	3.89
543.381	3.95
543.726	3.9
544.071	3.99
544.415	4.08
544.76	4.05
545.105	4.01
545.449	3.97
545.794	4.11
546.138	4.06
546.483	4.18
546.827	4.16
547.171	4.16
547.516	4.04
547.86	4
548.204	4.07
548.548	4.1
548.892	4.06
549.236	4.1
549.58	4.19
549.924	4.16
550.268	4.22
550.612	4.31
550.956	4.37
551.3	4.16
551.643	4.05
551.987	4.13
552.33	4.25
552.674	4.2
553.017	4.34
553.361	4.36
553.704	4.06
554.048	4.15
554.391	4.14
554.734	4.11
555.077	4.33
555.42	4.09
555.764	4.21
556.107	4.26
556.45	4.25
556.793	4.27
557.135	4.13
557.478	4.23
557.821	4.35
558.164	4.21
558.507	4.23
558.849	4.17
559.192	3.96
559.534	4.33
559.877	4.28
560.219	4.29
560.562	4.21
560.904	4.35
561.246	4.09
561.589	4.27
561.931	4.14
562.273	4.08
562.615	4.14
562.957	4.27
563.299	4.11
563.641	4.12
563.983	4.14
564.325	4.07
564.667	4.36
565.008	4.28
565.35	4.18
565.692	4.1
566.033	4.07
566.375	4.34
566.716	4.29
567.058	4.27
567.399	4.26
567.741	4.17
568.082	4.14
568.423	4.13
568.764	4.45
569.105	4.18
569.447	4.4
569.788	4.32
570.129	4.16
570.47	4.17
570.811	4.22
571.151	4.41
571.492	4.23
571.833	4.19
572.174	4.28
572.514	4.17
572.855	4.22
573.195	4.16
573.536	4.25
573.876	4.25
574.217	4.23
574.557	4.27
574.898	4.25
575.238	4.18
575.578	4.25
575.918	4.31
576.258	4.15
576.598	4.2
576.938	4.28
577.278	4.1
577.618	4.25
577.958	4.11
578.298	4.22
578.638	4.33
578.977	4.38
579.317	4.31
579.657	4.3
579.996	4.1
580.336	4.15
580.675	4.38
581.014	4.41
581.354	4.13
581.693	4.03
582.032	4.33
582.372	4.33
582.711	4.27
583.05	4.3
583.389	4.18
583.728	4.4
584.067	4.41
584.406	4.4
584.745	4.35
585.083	4.08
585.422	4.09
585.761	4.47
586.1	4.33
586.438	4.18
586.777	4.08
587.115	4.23
587.454	4.04
587.792	4.13
588.13	4.13
588.469	4.29
588.807	4.33
589.145	4.31
589.483	4.44
589.821	4.3
590.159	4.39
590.497	4.37
590.835	4.32
591.173	4.35
591.511	4.32
591.849	4.32
592.187	4.27
592.524	4.16
592.862	4.13
593.2	4.47
593.537	4.2
593.875	4.44
594.212	4.29
594.55	4.3
594.887	4.16
595.224	4.18
595.561	3.98
595.899	4.25
596.236	4.28
596.573	4.19
596.91	4.37
597.247	4.3
597.584	4.27
597.921	4.29
598.258	4.21
598.594	4.11
598.931	4.19
599.268	4.17
599.604	4.21
599.941	4.41
600.277	4.39
600.614	4.41
600.95	4.07
601.287	4.37
601.623	4.54
601.959	4.32
602.296	4.13
602.632	4.28
602.968	4.16
603.304	4.24
603.64	4.44
603.976	4.24
604.312	4.33
604.648	3.94
604.984	4.23
605.319	4.32
605.655	4.24
605.991	4.37
606.326	4.27
606.662	4.18
606.998	4.25
607.333	4.31
607.668	4.16
608.004	4.33
608.339	4.17
608.674	4.15
609.01	4.51
609.345	4.22
609.68	4.41
610.015	4.38
610.35	4.1
610.685	4.29
611.02	4.03
611.355	4.24
611.689	4.18
612.024	4.12
612.359	4.3
612.694	4.2
613.028	4.28
613.363	4.4
613.697	4.33
614.032	4.39
614.366	4.21
614.7	4.38
615.035	3.9
615.369	3.97
615.703	4.52
616.037	4.46
616.371	4.44
616.705	4.33
617.039	4.2
617.373	4.31
617.707	4.1
618.041	4.51
618.375	4.02
618.709	4.46
619.042	4.27
619.376	4.49
619.71	3.95
620.043	4.44
620.377	4.31
620.71	4.23
621.043	4.16
621.377	4.07
621.71	4.39
622.043	4.41
622.376	4.45
622.709	4.13
623.043	4.36
623.376	4.16
623.709	4.3
624.041	4.4
624.374	3.79
624.707	4.56
625.04	4.32
625.373	4.16
625.705	4.44
626.038	4.12
626.37	4.32
626.703	4.29
627.035	4.57
627.368	4.03
627.7	3.91
628.032	4.05
628.365	4.51
628.697	4.26
629.029	4.18
629.361	4.2
629.693	4.19
630.025	4.47
630.357	4.21
630.689	4.24
631.021	4.24
631.353	4.27
631.684	4.2
632.016	4.28
632.348	4.02
632.679	4.07
633.011	4.39
633.342	4.39
633.674	4.46
634.005	4.35
634.336	4.28
634.668	4.34
634.999	4.21
635.33	4.39
635.661	4.53
635.992	4.29
636.323	3.96
636.654	4.32
636.985	4.31
637.316	4.14
637.647	4.3
637.977	4.23
638.308	4.35
638.639	4.15
638.969	4.15
639.3	4.24
639.63	4.62
639.961	4.39
640.291	4.33
640.622	4.48
640.952	4.11
641.282	4.11
641.612	4.41
641.943	4.74
642.273	4.11
642.603	4.51
642.933	4.46
643.263	4.36
643.592	4.53
643.922	4.21
644.252	4.25
644.582	4.16
644.911	3.9
645.241	4.11
645.571	4.34
645.9	4.55
646.23	4.59
646.559	4.44
646.888	4.59
647.218	4.13
647.547	4.03
647.876	4.07
648.205	4.57
648.534	3.81
648.863	4.37
649.192	4.3
649.521	4.17
649.85	4.66
650.179	4.4
650.508	4.74
650.837	4.52
651.165	4.16
651.494	4.7
651.822	4.12
652.151	4.1
652.479	3.73
652.808	4.26
653.136	4.19
653.465	4.61
653.793	4.43
654.121	4.26
654.449	4.08
654.777	4.86
655.105	4.32
655.433	4.29
655.761	4.38
656.089	4.66
656.417	4.02
656.745	4.56
657.073	4.57
657.4	4.01
657.728	4.38
658.056	4.45
658.383	4.6
658.711	3.94
659.038	4.53
659.365	4.22
659.693	4.54
660.02	4.64
660.347	4.5
660.674	4.1
661.001	4.46
661.329	4.25
661.656	4.33
661.982	4.52
662.309	4.42
662.636	4.88
662.963	4.25
663.29	4.66
663.616	4.25
663.943	4.12
664.27	4.68
664.596	4.69
664.923	4.2
665.249	4.94
665.576	4.6
665.902	4.4
666.228	4.91
666.554	4.1
666.881	4.43
667.207	4.55
667.533	4.62
667.859	4.89
668.185	4.3
668.511	4.26
668.837	4.29
669.162	4.32
669.488	4.51
669.814	4.41
670.139	4.1
670.465	4.02
670.791	4.14
671.116	4.6
671.442	4.55
671.767	4.55
672.092	4.22
672.418	4.04
672.743	3.95
673.068	4.64
673.393	4.61
673.718	4.3
674.043	4.68
674.368	4.55
674.693	4.11
675.018	4.11
675.343	4.25
675.667	4.59
675.992	5.17
676.317	4.29
676.641	4.17
676.966	4.56
677.29	4.28
677.615	4.48
677.939	4.06
678.264	4.4
678.588	3.91
678.912	4.19
679.236	4.69
679.56	4.51
679.885	3.48
680.209	3.94
680.532	4.48
680.856	4.62
681.18	3.79
681.504	4.07
681.828	4.34
682.152	4.43
682.475	4.35
682.799	4.16
683.122	4.38
683.446	4.72
683.769	3.94
684.093	4.27
684.416	4.17
684.739	4.93
685.062	4.34
685.386	4.47
685.709	4.54
686.032	4.46
686.355	4.12
686.678	4.38
687.001	4.04
687.324	4.19
687.646	4.14
687.969	4.46
688.292	5.2
688.614	4.36
688.937	4.41
689.26	3.46
689.582	4.42
689.904	4.35
690.227	4.53
690.549	4.57
690.871	3.92
691.194	4.32
691.516	4.02
691.838	4.55
692.16	3.9
