Data from 20-6_chest_Reflection__2__123.txt Node

Date: Fri Nov 11 21:04:42 CST 2022
User: ToomeyLab
Spectrometer: FLMS14357
Trigger mode: 0
Integration Time (sec): 1.000000E-2
Scans to average: 100
Electric dark correction enabled: true
Nonlinearity correction enabled: false
Boxcar width: 0
XAxis mode: Wavelengths
Number of Pixels in Spectrum: 2048
>>>>>Begin Spectral Data<<<<<
189.047	-99.58
189.435	-99.58
189.823	-99.58
190.211	345.95
190.599	-71.76
190.987	158.59
191.375	112.37
191.763	68.87
192.151	180.57
192.538	200.85
192.926	278.74
193.314	159.21
193.702	-177.39
194.089	124.82
194.477	122.78
194.864	64.55
195.252	59.15
195.639	60.64
196.027	52.36
196.414	146.52
196.801	53.91
197.189	128.48
197.576	1327.66
197.963	-105.79
198.351	-140.77
198.738	-37.69
199.125	16.33
199.512	13.26
199.899	-40.23
200.286	27.3
200.673	-12.95
201.06	37.42
201.447	15.04
201.833	1.78
202.22	-5.58
202.607	14.53
202.994	13.31
203.38	16.75
203.767	-17.58
204.154	22.06
204.54	-31.35
204.927	0.81
205.313	-16.23
205.699	-60.48
206.086	22.01
206.472	9.15
206.858	32.17
207.245	26.32
207.631	-1.93
208.017	21.27
208.403	6.88
208.789	37.35
209.175	-15.87
209.561	37
209.947	-32.51
210.333	-6.26
210.719	25.93
211.105	31.96
211.491	-17.69
211.876	1.24
212.262	32.07
212.648	21.11
213.034	7.7
213.419	-4.31
213.805	-38.06
214.19	-32.95
214.576	20.04
214.961	-70.92
215.346	-36.53
215.732	-19.24
216.117	20.82
216.502	10.84
216.888	-50.12
217.273	-5.1
217.658	-24.99
218.043	4.96
218.428	-2.91
218.813	19.6
219.198	9.66
219.583	-0.62
219.968	12.51
220.353	0.24
220.738	-26.28
221.122	5.26
221.507	-4.48
221.892	-7.81
222.276	10.2
222.661	23.37
223.046	-22.65
223.43	-1.9
223.815	11.82
224.199	11.32
224.583	-0.22
224.968	-6.63
225.352	-0.83
225.736	3.88
226.121	0.43
226.505	-0.49
226.889	-4.02
227.273	6.3
227.657	0.35
228.041	0.32
228.425	0.87
228.809	5.59
229.193	6.48
229.577	7.02
229.961	7.07
230.344	6.3
230.728	5.38
231.112	5.06
231.495	5.4
231.879	4.08
232.263	5.35
232.646	2.81
233.03	5.21
233.413	5.99
233.797	5.65
234.18	2.05
234.563	2.34
234.946	3.9
235.33	5.38
235.713	4.44
236.096	4.45
236.479	5.38
236.862	7.36
237.245	4.46
237.628	5.19
238.011	4.79
238.394	6.23
238.777	6.21
239.16	6.99
239.543	3.8
239.925	5.81
240.308	4.92
240.691	4.75
241.073	5.56
241.456	3.41
241.838	5.44
242.221	5.14
242.603	5.21
242.986	4.73
243.368	6.13
243.75	5.26
244.133	5.46
244.515	5.15
244.897	5.35
245.279	5.03
245.661	4.93
246.043	5.57
246.425	6.43
246.807	4.43
247.189	4.21
247.571	5.87
247.953	5.01
248.335	5.68
248.717	5.35
249.098	5.62
249.48	4.75
249.862	5.72
250.243	5.27
250.625	5.76
251.006	6.16
251.388	5.52
251.769	5.28
252.151	6.2
252.532	5.39
252.913	5.58
253.295	5.45
253.676	4.53
254.057	5.38
254.438	5.56
254.819	4.98
255.2	5.56
255.581	5.7
255.962	5.11
256.343	4.9
256.724	4.65
257.105	5.99
257.486	4.05
257.867	5.79
258.247	4.23
258.628	4.34
259.009	4.83
259.389	4.79
259.77	5.17
260.15	5.32
260.531	5.18
260.911	5.15
261.292	5.28
261.672	4.9
262.052	5.11
262.432	5.21
262.813	4.91
263.193	4.63
263.573	4.71
263.953	4.92
264.333	4.74
264.713	4.4
265.093	5.75
265.473	4.11
265.853	5.13
266.233	4.4
266.612	4.63
266.992	4.55
267.372	5.57
267.752	4.89
268.131	4.62
268.511	5.23
268.89	4.74
269.27	5.04
269.649	4.52
270.029	5.07
270.408	4.77
270.787	5.11
271.167	4.69
271.546	4.31
271.925	4.9
272.304	5.01
272.683	4.86
273.062	4.27
273.441	4.65
273.82	4.66
274.199	4.24
274.578	4.76
274.957	5.15
275.336	4.94
275.715	4.9
276.093	4.03
276.472	4.46
276.851	4.88
277.229	4.53
277.608	5.31
277.986	5.1
278.365	4.46
278.743	4.48
279.122	5.26
279.5	4.65
279.878	4.5
280.257	5.33
280.635	4.79
281.013	4.81
281.391	4.23
281.769	4.58
282.147	4.6
282.525	4.26
282.903	4.56
283.281	5.22
283.659	4.76
284.037	4.95
284.415	4.62
284.792	4.77
285.17	4.24
285.548	4.69
285.925	4.33
286.303	4.7
286.68	5
287.058	4.98
287.435	4.87
287.813	5.05
288.19	4.58
288.567	4.78
288.945	5.12
289.322	4.96
289.699	4.37
290.076	5.13
290.453	4.69
290.83	4.84
291.207	5
291.584	4.99
291.961	4.84
292.338	4.85
292.715	5
293.092	5.24
293.469	4.65
293.845	5.44
294.222	5.08
294.599	5.35
294.975	5.09
295.352	5.55
295.728	4.97
296.105	4.93
296.481	5.27
296.858	4.76
297.234	5.11
297.61	4.98
297.986	5.22
298.363	5.18
298.739	5.24
299.115	5.23
299.491	5.39
299.867	5.2
300.243	5.03
300.619	5.14
300.995	5.53
301.371	5.26
301.746	6.08
302.122	5.41
302.498	5.61
302.874	5.41
303.249	5.13
303.625	5.25
304	4.89
304.376	5.55
304.751	5.01
305.127	5.12
305.502	5.57
305.878	5.61
306.253	5.33
306.628	5.11
307.003	5.12
307.378	5.49
307.754	5.72
308.129	5.65
308.504	5.46
308.879	6.11
309.254	5.35
309.629	5.26
310.003	5.09
310.378	5.74
310.753	5.9
311.128	5.57
311.502	5.9
311.877	5.43
312.252	5.61
312.626	5.32
313.001	5.21
313.375	5.23
313.75	5.4
314.124	5.2
314.498	5.22
314.873	5.37
315.247	5.29
315.621	5.91
315.995	5.87
316.369	5.7
316.743	5.39
317.117	5.79
317.491	4.87
317.865	5.39
318.239	5.58
318.613	5.67
318.987	5.7
319.361	5.34
319.734	5.96
320.108	5.34
320.482	5.49
320.855	5.43
321.229	5.15
321.602	5.21
321.976	4.99
322.349	5.79
322.723	6.02
323.096	5.88
323.469	5.8
323.843	5.44
324.216	5.41
324.589	5.51
324.962	5.89
325.335	5.48
325.708	5.84
326.081	5.21
326.454	5.48
326.827	5.4
327.2	6.33
327.573	5.96
327.945	5.56
328.318	5.31
328.691	5.6
329.063	5.46
329.436	5.41
329.809	5.48
330.181	5.66
330.553	5.13
330.926	5.74
331.298	5.53
331.671	5.78
332.043	5.37
332.415	5.6
332.787	5.62
333.159	5.47
333.532	5.83
333.904	6.17
334.276	5.24
334.648	5.59
335.02	5.11
335.391	5.56
335.763	5.52
336.135	5.06
336.507	5.71
336.879	5.62
337.25	5.2
337.622	5.92
337.993	5.86
338.365	6.44
338.736	5.96
339.108	5.48
339.479	5.68
339.851	5.71
340.222	5.69
340.593	6.1
340.964	5.5
341.336	5.84
341.707	5.54
342.078	5.34
342.449	5.83
342.82	5.91
343.191	5.78
343.562	5.72
343.933	5.54
344.303	5.36
344.674	5.51
345.045	5.5
345.416	5.72
345.786	5.51
346.157	5.59
346.527	5.56
346.898	5.15
347.268	5.42
347.639	5.51
348.009	5.65
348.38	5.98
348.75	5.61
349.12	6.26
349.49	5.66
349.861	5.83
350.231	5.61
350.601	5.69
350.971	5.3
351.341	5.9
351.711	6.03
352.081	5.55
352.45	5.5
352.82	5.48
353.19	5.95
353.56	5.51
353.929	5.74
354.299	5.2
354.669	5.79
355.038	5.46
355.408	5.63
355.777	5.97
356.147	5.88
356.516	5.52
356.885	6.01
357.254	5.67
357.624	5.21
357.993	5.88
358.362	5.6
358.731	5.27
359.1	5.57
359.469	5.29
359.838	5.62
360.207	5.63
360.576	5.79
360.945	5.71
361.314	5.42
361.682	5.59
362.051	5.81
362.42	6.1
362.788	5.75
363.157	5.66
363.525	5.61
363.894	5.78
364.262	5.89
364.631	5.73
364.999	5.91
365.367	5.76
365.735	5.85
366.104	5.64
366.472	5.61
366.84	5.12
367.208	5.53
367.576	5.92
367.944	5.99
368.312	5.53
368.68	5.56
369.048	5.67
369.416	5.76
369.783	5.91
370.151	5.9
370.519	5.57
370.886	5.69
371.254	6.04
371.621	5.54
371.989	5.6
372.356	5.91
372.724	5.98
373.091	5.97
373.458	5.81
373.826	5.64
374.193	5.53
374.56	5.66
374.927	5.58
375.294	6.08
375.661	5.76
376.028	5.54
376.395	5.82
376.762	5.99
377.129	5.87
377.496	5.76
377.863	5.64
378.229	5.76
378.596	5.72
378.963	5.91
379.329	6.01
379.696	5.94
380.062	5.83
380.429	5.68
380.795	6.24
381.161	6.04
381.528	5.81
381.894	6.17
382.26	5.85
382.626	5.93
382.993	5.82
383.359	5.96
383.725	5.95
384.091	5.84
384.457	5.88
384.823	5.57
385.188	5.69
385.554	5.8
385.92	5.55
386.286	5.74
386.651	6.04
387.017	5.58
387.383	5.95
387.748	5.58
388.114	5.91
388.479	5.71
388.845	5.88
389.21	5.91
389.575	6.07
389.94	5.85
390.306	5.84
390.671	5.84
391.036	5.8
391.401	5.91
391.766	5.99
392.131	6.04
392.496	6.02
392.861	5.96
393.226	5.82
393.591	5.79
393.956	5.81
394.32	5.76
394.685	5.83
395.05	6.26
395.414	6.08
395.779	5.86
396.143	5.8
396.508	6.13
396.872	6.06
397.236	6.01
397.601	5.88
397.965	5.88
398.329	6.1
398.694	6.12
399.058	5.98
399.422	6.05
399.786	5.81
400.15	6.03
400.514	6.12
400.878	5.9
401.242	5.92
401.605	6.08
401.969	6.03
402.333	5.75
402.697	6.02
403.06	5.97
403.424	5.77
403.787	6.16
404.151	5.92
404.514	5.84
404.878	6.11
405.241	5.9
405.604	5.98
405.968	5.84
406.331	5.83
406.694	5.87
407.057	5.99
407.42	5.98
407.783	6.17
408.146	6
408.509	5.96
408.872	6.02
409.235	6.17
409.598	5.94
409.961	6.07
410.323	6.14
410.686	6.13
411.049	5.85
411.411	6.04
411.774	5.95
412.136	5.95
412.499	6.09
412.861	6.1
413.223	5.86
413.586	6.16
413.948	6.36
414.31	6.17
414.672	6.27
415.035	6.08
415.397	6.18
415.759	5.86
416.121	6.09
416.483	5.9
416.845	6.09
417.206	5.7
417.568	6.03
417.93	5.98
418.292	5.85
418.653	6.19
419.015	6.07
419.377	6.07
419.738	6.02
420.1	6.1
420.461	6.09
420.822	5.91
421.184	5.98
421.545	5.99
421.906	5.89
422.267	5.87
422.629	5.84
422.99	5.93
423.351	6.03
423.712	5.9
424.073	6.05
424.434	5.99
424.795	6.17
425.155	5.99
425.516	6.07
425.877	6.02
426.238	5.96
426.598	5.88
426.959	5.95
427.32	6.17
427.68	6.13
428.041	6.14
428.401	5.96
428.761	6.21
429.122	6.18
429.482	6.2
429.842	6.08
430.202	6.3
430.563	6.37
430.923	6.17
431.283	6.06
431.643	6.11
432.003	6.29
432.363	6.07
432.722	6.36
433.082	6.24
433.442	6.15
433.802	6.16
434.161	6.12
434.521	6.29
434.881	6.41
435.24	6.12
435.6	6.15
435.959	6.17
436.319	6.14
436.678	6.14
437.037	6.24
437.396	6.26
437.756	6.06
438.115	6.17
438.474	6.2
438.833	6.22
439.192	6.33
439.551	6.24
439.91	6.28
440.269	6.23
440.628	6.26
440.987	6.27
441.345	6.19
441.704	6.26
442.063	6.24
442.421	6.13
442.78	6.08
443.138	6.3
443.497	6.08
443.855	6.36
444.214	6.3
444.572	6.35
444.93	6.21
445.288	6.26
445.647	6.38
446.005	6.36
446.363	6.4
446.721	6.35
447.079	6.3
447.437	6.21
447.795	6.26
448.153	6.19
448.51	6.23
448.868	6.26
449.226	6.28
449.584	6.24
449.941	6.33
450.299	6.23
450.656	6.32
451.014	6.4
451.371	6.33
451.729	6.37
452.086	6.43
452.443	6.44
452.801	6.38
453.158	6.53
453.515	6.44
453.872	6.32
454.229	6.41
454.586	6.45
454.943	6.54
455.3	6.42
455.657	6.49
456.014	6.45
456.371	6.5
456.727	6.64
457.084	6.12
457.441	6.55
457.797	6.45
458.154	6.41
458.51	6.52
458.867	6.38
459.223	6.57
459.58	6.49
459.936	6.4
460.292	6.59
460.648	6.51
461.005	6.43
461.361	6.38
461.717	6.38
462.073	6.4
462.429	6.49
462.785	6.38
463.141	6.32
463.496	6.5
463.852	6.58
464.208	6.61
464.564	6.54
464.919	6.49
465.275	6.46
465.631	6.51
465.986	6.72
466.342	6.57
466.697	6.62
467.052	6.59
467.408	6.57
467.763	6.62
468.118	6.64
468.473	6.59
468.829	6.77
469.184	6.61
469.539	6.64
469.894	6.71
470.249	6.67
470.603	6.66
470.958	6.54
471.313	6.71
471.668	6.73
472.023	6.54
472.377	6.74
472.732	6.62
473.086	6.5
473.441	6.76
473.795	6.59
474.15	6.52
474.504	6.64
474.859	6.76
475.213	6.82
475.567	6.83
475.921	6.65
476.275	6.63
476.63	6.77
476.984	6.73
477.338	6.83
477.692	6.67
478.045	6.73
478.399	6.87
478.753	6.61
479.107	6.82
479.461	6.72
479.814	6.79
480.168	6.8
480.521	6.78
480.875	6.87
481.228	6.87
481.582	6.76
481.935	6.59
482.289	6.55
482.642	6.81
482.995	6.61
483.348	6.72
483.701	6.69
484.055	6.67
484.408	6.61
484.761	6.52
485.114	6.38
485.466	6.35
485.819	6.36
486.172	6.38
486.525	6.46
486.878	6.49
487.23	6.55
487.583	6.62
487.936	6.63
488.288	6.69
488.641	6.56
488.993	6.59
489.345	6.45
489.698	6.52
490.05	6.55
490.402	6.57
490.754	6.6
491.107	6.68
491.459	6.76
491.811	6.78
492.163	6.8
492.515	6.69
492.866	6.63
493.218	6.57
493.57	6.56
493.922	6.62
494.274	6.7
494.625	6.74
494.977	6.93
495.328	6.92
495.68	6.87
496.031	6.94
496.383	6.89
496.734	7.1
497.086	7.06
497.437	7.1
497.788	6.95
498.139	6.94
498.49	6.92
498.842	6.84
499.193	7.04
499.544	6.92
499.894	6.82
500.245	7
500.596	7.08
500.947	6.95
501.298	7
501.648	7
501.999	7.06
502.35	7.33
502.7	7.02
503.051	7.08
503.401	7.18
503.752	6.98
504.102	7.03
504.452	7.23
504.803	7.04
505.153	7.08
505.503	7.14
505.853	7.15
506.203	7.14
506.553	7.01
506.903	7.08
507.253	7.23
507.603	7.18
507.953	7.12
508.303	7.22
508.652	7.15
509.002	7.17
509.352	7.28
509.701	7.27
510.051	7.25
510.4	7.26
510.75	7.14
511.099	7.04
511.449	7.28
511.798	7.3
512.147	7.2
512.496	7.14
512.846	7.26
513.195	7.18
513.544	7.22
513.893	7.25
514.242	7.24
514.591	7.36
514.939	7.31
515.288	7.35
515.637	7.38
515.986	7.28
516.334	7.4
516.683	7.51
517.032	7.45
517.38	7.39
517.729	7.64
518.077	7.41
518.426	7.55
518.774	7.39
519.122	7.5
519.47	7.44
519.819	7.4
520.167	7.33
520.515	7.32
520.863	7.42
521.211	7.36
521.559	7.38
521.907	7.51
522.255	7.53
522.602	7.67
522.95	7.57
523.298	7.7
523.645	7.61
523.993	7.59
524.341	7.76
524.688	7.78
525.036	7.72
525.383	7.75
525.73	7.75
526.078	7.63
526.425	7.63
526.772	7.6
527.119	7.43
527.466	7.57
527.814	7.53
528.161	7.65
528.508	7.6
528.854	7.66
529.201	7.61
529.548	7.61
529.895	7.45
530.242	7.38
530.588	7.42
530.935	7.46
531.282	7.54
531.628	7.55
531.975	7.65
532.321	7.64
532.667	7.81
533.014	7.75
533.36	7.8
533.706	7.92
534.052	7.86
534.399	7.73
534.745	7.73
535.091	7.73
535.437	7.73
535.783	7.81
536.129	7.83
536.474	7.91
536.82	7.85
537.166	7.95
537.512	8.07
537.857	7.93
538.203	7.92
538.549	8.03
538.894	7.99
539.239	8.05
539.585	8.08
539.93	8.14
540.276	8.37
540.621	8.35
540.966	8.34
541.311	8.24
541.656	8.3
542.001	8.17
542.346	8.13
542.691	8.01
543.036	7.94
543.381	8.02
543.726	7.98
544.071	8.06
544.415	8.14
544.76	8.17
545.105	8.2
545.449	8.17
545.794	8.39
546.138	8.34
546.483	8.36
546.827	8.52
547.171	8.48
547.516	8.37
547.86	8.39
548.204	8.48
548.548	8.49
548.892	8.42
549.236	8.5
549.58	8.62
549.924	8.67
550.268	8.71
550.612	8.65
550.956	8.92
551.3	8.68
551.643	8.81
551.987	9
552.33	8.92
552.674	8.78
553.017	8.96
553.361	8.96
553.704	9.03
554.048	8.78
554.391	8.94
554.734	8.99
555.077	9.05
555.42	9.07
555.764	9.11
556.107	9.08
556.45	9.13
556.793	9.23
557.135	9.09
557.478	9.21
557.821	9.35
558.164	9.15
558.507	9.21
558.849	9.21
559.192	9.24
559.534	9.42
559.877	9.37
560.219	9.39
560.562	9.25
560.904	9.37
561.246	9.34
561.589	9.58
561.931	9.39
562.273	9.48
562.615	9.4
562.957	9.51
563.299	9.58
563.641	9.51
563.983	9.56
564.325	9.46
564.667	9.71
565.008	9.91
565.35	9.59
565.692	9.46
566.033	9.61
566.375	9.71
566.716	9.77
567.058	9.79
567.399	9.91
567.741	9.77
568.082	9.89
568.423	9.81
568.764	9.91
569.105	9.79
569.447	9.97
569.788	9.96
570.129	9.92
570.47	9.93
570.811	10.14
571.151	10.2
571.492	10.13
571.833	10.13
572.174	10.16
572.514	10.03
572.855	10.16
573.195	9.96
573.536	10.18
573.876	10.26
574.217	10.4
574.557	10.3
574.898	10.29
575.238	10.3
575.578	10.31
575.918	10.41
576.258	10.59
576.598	10.44
576.938	10.64
577.278	10.49
577.618	10.53
577.958	10.51
578.298	10.56
578.638	10.56
578.977	10.64
579.317	10.61
579.657	10.93
579.996	10.77
580.336	10.78
580.675	10.92
581.014	10.84
581.354	10.89
581.693	10.99
582.032	10.91
582.372	11
582.711	10.92
583.05	10.94
583.389	11.25
583.728	11.05
584.067	11.11
584.406	11.02
584.745	11.24
585.083	11.2
585.422	11.04
585.761	11.24
586.1	11.1
586.438	11.06
586.777	11.28
587.115	11.33
587.454	11.24
587.792	11.19
588.13	11.49
588.469	11.4
588.807	11.64
589.145	11.55
589.483	11.68
589.821	11.44
590.159	11.69
590.497	11.68
590.835	11.65
591.173	11.78
591.511	11.58
591.849	11.75
592.187	11.74
592.524	11.71
592.862	11.76
593.2	11.98
593.537	11.84
593.875	12.05
594.212	12.19
594.55	12.02
594.887	12.2
595.224	11.94
595.561	11.79
595.899	12
596.236	12.23
596.573	12.09
596.91	12.12
597.247	12.08
597.584	12.39
597.921	12.39
598.258	12.09
598.594	12.33
598.931	12.31
599.268	12.4
599.604	12.39
599.941	12.47
600.277	12.58
600.614	12.51
600.95	12.37
601.287	12.56
601.623	12.97
601.959	12.82
602.296	12.59
602.632	12.56
602.968	12.81
603.304	12.82
603.64	13.05
603.976	12.78
604.312	12.68
604.648	12.75
604.984	12.97
605.319	13.12
605.655	13.03
605.991	12.86
606.326	13.04
606.662	13.01
606.998	13.04
607.333	13.09
607.668	13.09
608.004	13.18
608.339	13.4
608.674	13.4
609.01	13.17
609.345	13.45
609.68	13.43
610.015	13.45
610.35	13.46
610.685	13.72
611.02	13.54
611.355	13.45
611.689	13.44
612.024	13.45
612.359	13.48
612.694	13.59
613.028	13.56
613.363	14
613.697	14.07
614.032	14.14
614.366	13.77
614.7	13.99
615.035	13.83
615.369	13.68
615.703	14.25
616.037	14.02
616.371	13.99
616.705	14.23
617.039	14.41
617.373	14.18
617.707	14.14
618.041	14.18
618.375	14
618.709	14.54
619.042	14.51
619.376	14.26
619.71	14.36
620.043	14.59
620.377	14.22
620.71	14.27
621.043	14.39
621.377	14.66
621.71	14.41
622.043	14.81
622.376	14.74
622.709	14.69
623.043	14.6
623.376	14.86
623.709	14.73
624.041	15.15
624.374	14.44
624.707	15.07
625.04	15.04
625.373	14.73
625.705	15.01
626.038	15.19
626.37	15.08
626.703	15.05
627.035	15.19
627.368	14.81
627.7	15.15
628.032	15.25
628.365	15.22
628.697	15.43
629.029	15.33
629.361	15.2
629.693	15.31
630.025	15.31
630.357	15.27
630.689	15.52
631.021	15.5
631.353	15.46
631.684	15.5
632.016	15.4
632.348	15.51
632.679	15.76
633.011	15.71
633.342	15.68
633.674	15.63
634.005	15.77
634.336	15.95
634.668	15.86
634.999	15.86
635.33	16.16
635.661	16.1
635.992	16.23
636.323	15.94
636.654	16.1
636.985	16.2
637.316	16.04
637.647	16.55
637.977	16.14
638.308	16.5
638.639	16.25
638.969	16
639.3	16.57
639.63	16.49
639.961	16.8
640.291	16.9
640.622	16.99
640.952	16.68
641.282	16.65
641.612	16.46
641.943	16.98
642.273	16.54
642.603	16.95
642.933	16.76
643.263	16.88
643.592	17.26
643.922	16.81
644.252	16.86
644.582	17.09
644.911	17.02
645.241	16.77
645.571	17.2
645.9	17.24
646.23	17.57
646.559	16.94
646.888	17.34
647.218	17.25
647.547	16.93
647.876	17.11
648.205	17.71
648.534	17.39
648.863	17.57
649.192	17.34
649.521	17.37
649.85	17.23
650.179	17.72
650.508	17.84
650.837	17.35
651.165	17.38
651.494	18.09
651.822	17.63
652.151	17.36
652.479	17.48
652.808	17.49
653.136	17.7
653.465	17.85
653.793	17.87
654.121	18.21
654.449	17.8
654.777	18.25
655.105	18.03
655.433	18.44
655.761	18.16
656.089	18.49
656.417	17.92
656.745	18.4
657.073	18.18
657.4	18.48
657.728	18.17
658.056	18.86
658.383	18.46
658.711	18.75
659.038	18.83
659.365	18.83
659.693	18.53
660.02	18.69
660.347	18.7
660.674	18.58
661.001	18.8
661.329	18.92
661.656	18.81
661.982	18.62
662.309	18.7
662.636	18.96
662.963	18.79
663.29	18.85
663.616	18.94
663.943	19.18
664.27	19.22
664.596	19.11
664.923	19.25
665.249	19.51
665.576	19.35
665.902	19.67
666.228	19.43
666.554	19.29
666.881	19.09
667.207	20.14
667.533	19.6
667.859	19.54
668.185	19.92
668.511	19.17
668.837	19.89
669.162	19.46
669.488	19.97
669.814	19.84
670.139	20.12
670.465	19.86
670.791	19.82
671.116	19.67
671.442	19.74
671.767	19.93
672.092	19.75
672.418	19.68
672.743	19.97
673.068	20.26
673.393	20.7
673.718	20.03
674.043	20.26
674.368	20.32
674.693	19.66
675.018	20.64
675.343	20.3
675.667	20.84
675.992	20.69
676.317	20.32
676.641	20
676.966	20.79
677.29	20.44
677.615	20.21
677.939	20.29
678.264	20.19
678.588	20.57
678.912	20.3
679.236	20.8
679.56	20.61
679.885	20.69
680.209	20.36
680.532	20.65
680.856	21.32
681.18	20.84
681.504	20.67
681.828	20.62
682.152	21.11
682.475	20.7
682.799	20.74
683.122	21.4
683.446	21.5
683.769	21.42
684.093	21.63
684.416	21.32
684.739	21.08
