Data from 20-6_crown_Reflection__1__127.txt Node

Date: Fri Nov 11 21:06:57 CST 2022
User: ToomeyLab
Spectrometer: FLMS14357
Trigger mode: 0
Integration Time (sec): 1.000000E-2
Scans to average: 100
Electric dark correction enabled: true
Nonlinearity correction enabled: false
Boxcar width: 0
XAxis mode: Wavelengths
Number of Pixels in Spectrum: 2048
>>>>>Begin Spectral Data<<<<<
189.047	93.57
189.435	93.57
189.823	93.57
190.211	-261.49
190.599	62.98
190.987	112.09
191.375	45.96
191.763	487.91
192.151	114.71
192.538	19.04
192.926	297.42
193.314	129.34
193.702	-347.17
194.089	-462.94
194.477	21.36
194.864	125.96
195.252	93.94
195.639	-142.06
196.027	36.26
196.414	16.81
196.801	331.74
197.189	151.17
197.576	3005.85
197.963	-38.09
198.351	-147.36
198.738	-0.96
199.125	-4.5
199.512	7.02
199.899	-89
200.286	-49.62
200.673	-12.22
201.06	46.85
201.447	12.3
201.833	22.17
202.22	-28.78
202.607	10.37
202.994	15.3
203.38	-14.18
203.767	33.94
204.154	6.97
204.54	-16.35
204.927	-18.2
205.313	-9.17
205.699	-79.17
206.086	18.61
206.472	0.22
206.858	24.64
207.245	-2.62
207.631	-18.92
208.017	-2.08
208.403	-3.11
208.789	-1.89
209.175	-12.61
209.561	42.82
209.947	2.33
210.333	-11.85
210.719	7.7
211.105	42.44
211.491	-13.09
211.876	7.92
212.262	25.59
212.648	-15.13
213.034	0.82
213.419	-36.39
213.805	-17.67
214.19	4.18
214.576	19.51
214.961	-97.18
215.346	-24.38
215.732	0.89
216.117	7.64
216.502	-15.15
216.888	-18.62
217.273	-10.55
217.658	-30.54
218.043	3.7
218.428	-16.43
218.813	-5.25
219.198	0.98
219.583	5.51
219.968	-6.22
220.353	1.52
220.738	-4.81
221.122	-10.68
221.507	-23.19
221.892	-32.07
222.276	-6.21
222.661	19.62
223.046	-29.29
223.43	-2.94
223.815	-12.48
224.199	3.61
224.583	-5.57
224.968	-10.41
225.352	4.4
225.736	5.19
226.121	-14.48
226.505	4.51
226.889	-3.94
227.273	3.24
227.657	-1.16
228.041	1.88
228.425	2.4
228.809	3.66
229.193	4.59
229.577	5.23
229.961	4.49
230.344	5.95
230.728	3.77
231.112	2.89
231.495	4.66
231.879	4.62
232.263	3.49
232.646	2.2
233.03	4.96
233.413	5.05
233.797	4.57
234.18	2.46
234.563	4.01
234.946	3.75
235.33	4.7
235.713	2.54
236.096	3.51
236.479	3.44
236.862	4.68
237.245	4.14
237.628	3.97
238.011	3.16
238.394	4.89
238.777	4.49
239.16	5.61
239.543	2.41
239.925	4.68
240.308	3.06
240.691	2.53
241.073	2.7
241.456	2.7
241.838	4.27
242.221	3.56
242.603	3.64
242.986	3.73
243.368	3.83
243.75	3.94
244.133	4.21
244.515	4.32
244.897	4.46
245.279	3.81
245.661	3.49
246.043	4.38
246.425	4.89
246.807	4.52
247.189	4.15
247.571	3.86
247.953	3.98
248.335	4.05
248.717	4.23
249.098	4.18
249.48	3.83
249.862	4.04
250.243	3.96
250.625	3.77
251.006	4.33
251.388	3.89
251.769	5.09
252.151	4.29
252.532	2.75
252.913	4.28
253.295	4.06
253.676	3.31
254.057	3.81
254.438	3.76
254.819	2.91
255.2	4.72
255.581	3.63
255.962	2.45
256.343	2.91
256.724	4.05
257.105	3.04
257.486	2.73
257.867	4.93
258.247	2.86
258.628	3.5
259.009	3.46
259.389	2.48
259.77	3.78
260.15	3.24
260.531	3.92
260.911	3.64
261.292	3.87
261.672	3.58
262.052	3.61
262.432	4.01
262.813	3.5
263.193	3.29
263.573	3.69
263.953	3.56
264.333	3.02
264.713	3.94
265.093	3.51
265.473	2.42
265.853	3.01
266.233	3.14
266.612	3.39
266.992	3.37
267.372	4.25
267.752	3.37
268.131	3.37
268.511	3.6
268.89	3.47
269.27	2.96
269.649	3.41
270.029	3.72
270.408	2.99
270.787	3.52
271.167	2.91
271.546	3.36
271.925	3.69
272.304	3.68
272.683	2.96
273.062	3.36
273.441	3.41
273.82	3.26
274.199	3.26
274.578	3.13
274.957	3.48
275.336	3.18
275.715	3
276.093	2.51
276.472	2.96
276.851	3.04
277.229	3.73
277.608	3.34
277.986	3.34
278.365	3.21
278.743	2.74
279.122	3.11
279.5	3.35
279.878	3.71
280.257	3.26
280.635	2.93
281.013	3.49
281.391	3.5
281.769	2.82
282.147	3.34
282.525	2.46
282.903	3.17
283.281	2.92
283.659	3.21
284.037	3.19
284.415	3.3
284.792	3.29
285.17	3.12
285.548	3.28
285.925	3.13
286.303	2.94
286.68	3.68
287.058	3.34
287.435	2.98
287.813	3.15
288.19	3.07
288.567	3.09
288.945	3.04
289.322	3.51
289.699	2.39
290.076	3.19
290.453	3.49
290.83	2.83
291.207	2.42
291.584	3.12
291.961	3.08
292.338	3.29
292.715	3.01
293.092	3.52
293.469	3.05
293.845	2.95
294.222	2.9
294.599	2.92
294.975	2.83
295.352	2.79
295.728	2.96
296.105	2.71
296.481	2.74
296.858	2.91
297.234	2.44
297.61	2.78
297.986	2.84
298.363	3.04
298.739	3.22
299.115	3.23
299.491	3.19
299.867	3.02
300.243	3.08
300.619	3.13
300.995	3.38
301.371	3.39
301.746	3.24
302.122	3.16
302.498	3.22
302.874	2.89
303.249	3.11
303.625	2.78
304	2.87
304.376	2.94
304.751	2.53
305.127	2.9
305.502	3.29
305.878	3.09
306.253	2.88
306.628	2.99
307.003	2.87
307.378	2.83
307.754	3.26
308.129	2.87
308.504	3.01
308.879	3.31
309.254	3.32
309.629	2.97
310.003	2.87
310.378	3.09
310.753	2.99
311.128	3.47
311.502	3.5
311.877	3.16
312.252	3.04
312.626	3.1
313.001	3.01
313.375	3.11
313.75	2.82
314.124	2.86
314.498	2.9
314.873	2.78
315.247	3.34
315.621	3.15
315.995	3.28
316.369	2.73
316.743	2.99
317.117	3.19
317.491	2.65
317.865	2.32
318.239	3.16
318.613	3.35
318.987	2.89
319.361	2.99
319.734	3.02
320.108	2.8
320.482	3.09
320.855	2.76
321.229	3.25
321.602	2.79
321.976	2.85
322.349	3
322.723	3.4
323.096	3.06
323.469	3.06
323.843	2.86
324.216	3
324.589	3.58
324.962	3.47
325.335	2.67
325.708	3.04
326.081	3.03
326.454	2.89
326.827	2.55
327.2	3.04
327.573	3.58
327.945	3.07
328.318	2.86
328.691	3.14
329.063	3.38
329.436	3.54
329.809	2.79
330.181	2.68
330.553	2.29
330.926	3.34
331.298	2.94
331.671	2.3
332.043	2.63
332.415	2.85
332.787	3.21
333.159	3.08
333.532	2.85
333.904	3.27
334.276	2.57
334.648	2.82
335.02	2.82
335.391	3.64
335.763	2.86
336.135	3.12
336.507	2.67
336.879	3.1
337.25	2.57
337.622	3.52
337.993	3.21
338.365	3.55
338.736	3.31
339.108	3.2
339.479	2.74
339.851	3.17
340.222	3.14
340.593	3.25
340.964	2.98
341.336	3.26
341.707	3.4
342.078	2.8
342.449	3.2
342.82	3.49
343.191	3.22
343.562	3.09
343.933	3.24
344.303	2.81
344.674	3.41
345.045	2.54
345.416	3.46
345.786	2.9
346.157	3
346.527	3.2
346.898	2.87
347.268	3.11
347.639	3.29
348.009	3.22
348.38	3.33
348.75	3.16
349.12	3.71
349.49	3.34
349.861	3.13
350.231	3.29
350.601	3.33
350.971	3.36
351.341	3.39
351.711	3.02
352.081	3.61
352.45	3.2
352.82	3.56
353.19	3.22
353.56	3.33
353.929	2.91
354.299	3.27
354.669	3.13
355.038	3.08
355.408	3.19
355.777	3.25
356.147	3.48
356.516	3.31
356.885	3.43
357.254	3.19
357.624	3.02
357.993	3.35
358.362	3.49
358.731	3.03
359.1	3.34
359.469	3.02
359.838	3.26
360.207	3.49
360.576	3.19
360.945	3.52
361.314	3.22
361.682	3.34
362.051	3.2
362.42	3.3
362.788	3.48
363.157	3.46
363.525	3.18
363.894	3.38
364.262	3.32
364.631	3.3
364.999	3.4
365.367	3.41
365.735	3.34
366.104	3.2
366.472	3.26
366.84	3.05
367.208	3.29
367.576	3.49
367.944	3.57
368.312	3.26
368.68	3.33
369.048	3.27
369.416	3.44
369.783	3.27
370.151	3.3
370.519	3.5
370.886	3.37
371.254	3.85
371.621	3.35
371.989	3.52
372.356	3.48
372.724	3.81
373.091	3.63
373.458	3.4
373.826	3.18
374.193	3.25
374.56	3.26
374.927	3.24
375.294	3.28
375.661	3.89
376.028	3.55
376.395	3.65
376.762	3.6
377.129	3.33
377.496	3.41
377.863	3.43
378.229	3.34
378.596	3.58
378.963	3.41
379.329	3.52
379.696	3.44
380.062	3.63
380.429	3.54
380.795	3.87
381.161	3.62
381.528	3.5
381.894	3.51
382.26	3.79
382.626	3.67
382.993	3.61
383.359	3.67
383.725	3.5
384.091	3.42
384.457	3.54
384.823	3.36
385.188	3.46
385.554	3.54
385.92	3.34
386.286	3.32
386.651	3.78
387.017	3.36
387.383	3.59
387.748	3.26
388.114	3.47
388.479	3.59
388.845	3.54
389.21	3.47
389.575	3.76
389.94	3.54
390.306	3.48
390.671	3.6
391.036	3.45
391.401	3.51
391.766	3.49
392.131	3.47
392.496	3.59
392.861	3.56
393.226	3.68
393.591	3.48
393.956	3.63
394.32	3.82
394.685	3.69
395.05	3.98
395.414	3.61
395.779	3.49
396.143	3.46
396.508	3.71
396.872	3.73
397.236	3.67
397.601	3.64
397.965	3.78
398.329	3.55
398.694	3.49
399.058	3.68
399.422	3.6
399.786	3.61
400.15	3.6
400.514	3.65
400.878	3.62
401.242	3.7
401.605	3.74
401.969	3.69
402.333	3.18
402.697	3.6
403.06	3.9
403.424	3.38
403.787	3.72
404.151	3.7
404.514	3.61
404.878	3.64
405.241	3.71
405.604	3.65
405.968	3.6
406.331	3.46
406.694	3.72
407.057	3.61
407.42	3.79
407.783	3.75
408.146	3.82
408.509	3.96
408.872	3.52
409.235	3.91
409.598	3.76
409.961	3.89
410.323	3.81
410.686	3.62
411.049	3.73
411.411	3.6
411.774	3.54
412.136	3.69
412.499	3.74
412.861	3.78
413.223	3.63
413.586	3.81
413.948	3.99
414.31	3.96
414.672	3.96
415.035	3.72
415.397	3.65
415.759	3.71
416.121	3.88
416.483	3.94
416.845	3.61
417.206	3.58
417.568	3.61
417.93	3.52
418.292	3.62
418.653	3.95
419.015	3.79
419.377	3.6
419.738	3.71
420.1	3.51
420.461	3.74
420.822	3.71
421.184	3.7
421.545	3.69
421.906	3.61
422.267	3.65
422.629	3.56
422.99	3.64
423.351	3.68
423.712	3.68
424.073	3.67
424.434	3.72
424.795	3.79
425.155	3.53
425.516	3.69
425.877	3.69
426.238	3.65
426.598	3.54
426.959	3.61
427.32	3.78
427.68	3.71
428.041	3.8
428.401	3.55
428.761	3.84
429.122	3.62
429.482	3.68
429.842	3.64
430.202	3.74
430.563	3.85
430.923	3.79
431.283	3.63
431.643	3.69
432.003	3.88
432.363	3.78
432.722	3.9
433.082	3.77
433.442	3.75
433.802	3.9
434.161	3.87
434.521	3.72
434.881	3.78
435.24	3.74
435.6	3.67
435.959	3.77
436.319	3.75
436.678	3.78
437.037	3.76
437.396	3.77
437.756	3.85
438.115	3.79
438.474	3.71
438.833	3.77
439.192	3.85
439.551	3.77
439.91	3.78
440.269	3.79
440.628	3.86
440.987	3.77
441.345	3.76
441.704	3.78
442.063	3.81
442.421	3.74
442.78	3.68
443.138	3.88
443.497	3.71
443.855	3.84
444.214	3.75
444.572	3.89
444.93	3.79
445.288	3.85
445.647	3.89
446.005	3.91
446.363	3.8
446.721	3.91
447.079	3.82
447.437	3.76
447.795	3.84
448.153	3.72
448.51	3.75
448.868	3.83
449.226	3.83
449.584	3.75
449.941	3.77
450.299	3.83
450.656	3.9
451.014	3.85
451.371	3.79
451.729	3.87
452.086	3.84
452.443	3.85
452.801	3.91
453.158	3.77
453.515	3.82
453.872	3.76
454.229	3.9
454.586	3.97
454.943	3.91
455.3	3.84
455.657	3.79
456.014	3.91
456.371	4.01
456.727	4
457.084	3.6
457.441	3.97
457.797	3.85
458.154	3.88
458.51	3.8
458.867	3.73
459.223	3.9
459.58	3.84
459.936	3.85
460.292	3.89
460.648	3.9
461.005	3.7
461.361	3.88
461.717	3.76
462.073	3.84
462.429	3.89
462.785	3.84
463.141	3.84
463.496	3.83
463.852	3.92
464.208	4.05
464.564	3.91
464.919	3.83
465.275	3.73
465.631	3.94
465.986	3.97
466.342	3.98
466.697	3.93
467.052	3.9
467.408	3.97
467.763	3.82
468.118	3.87
468.473	4.06
468.829	4
469.184	3.85
469.539	4.05
469.894	3.96
470.249	4
470.603	3.76
470.958	3.93
471.313	4.1
471.668	3.94
472.023	3.77
472.377	3.93
472.732	4.01
473.086	3.81
473.441	3.97
473.795	3.75
474.15	3.9
474.504	3.97
474.859	3.98
475.213	4.05
475.567	3.99
475.921	4.02
476.275	3.95
476.63	3.95
476.984	3.87
477.338	3.98
477.692	3.85
478.045	3.92
478.399	4.07
478.753	3.82
479.107	3.89
479.461	3.93
479.814	3.82
480.168	3.9
480.521	4.1
480.875	4
481.228	3.94
481.582	3.97
481.935	3.85
482.289	3.74
482.642	3.92
482.995	3.78
483.348	3.78
483.701	3.88
484.055	3.76
484.408	3.8
484.761	3.71
485.114	3.62
485.466	3.59
485.819	3.58
486.172	3.63
486.525	3.7
486.878	3.75
487.23	3.77
487.583	3.84
487.936	3.82
488.288	3.82
488.641	3.71
488.993	3.68
489.345	3.62
489.698	3.69
490.05	3.68
490.402	3.68
490.754	3.79
491.107	3.73
491.459	3.85
491.811	3.85
492.163	3.89
492.515	3.81
492.866	3.78
493.218	3.65
493.57	3.74
493.922	3.72
494.274	3.78
494.625	3.85
494.977	3.92
495.328	3.94
495.68	3.87
496.031	3.83
496.383	3.96
496.734	3.99
497.086	4.03
497.437	4
497.788	3.74
498.139	3.87
498.49	3.79
498.842	3.9
499.193	3.98
499.544	3.96
499.894	3.85
500.245	3.91
500.596	3.96
500.947	3.92
501.298	3.93
501.648	3.91
501.999	3.91
502.35	4.05
502.7	3.92
503.051	3.95
503.401	3.98
503.752	3.86
504.102	3.95
504.452	3.97
504.803	3.95
505.153	3.89
505.503	3.94
505.853	3.9
506.203	3.94
506.553	3.8
506.903	3.83
507.253	3.9
507.603	4.01
507.953	3.89
508.303	3.82
508.652	3.97
509.002	3.92
509.352	4.01
509.701	3.94
510.051	3.9
510.4	3.9
510.75	3.84
511.099	3.82
511.449	3.96
511.798	3.82
512.147	3.81
512.496	3.86
512.846	3.97
513.195	3.89
513.544	3.81
513.893	3.77
514.242	3.87
514.591	3.96
514.939	3.81
515.288	3.89
515.637	3.93
515.986	3.82
516.334	3.86
516.683	3.94
517.032	3.98
517.38	3.96
517.729	3.93
518.077	3.87
518.426	3.85
518.774	3.79
519.122	3.94
519.47	3.87
519.819	3.92
520.167	3.72
520.515	3.79
520.863	3.81
521.211	3.86
521.559	3.82
521.907	3.84
522.255	3.83
522.602	3.82
522.95	3.86
523.298	3.82
523.645	3.89
523.993	3.96
524.341	3.99
524.688	3.93
525.036	4.08
525.383	3.98
525.73	3.85
526.078	3.76
526.425	3.82
526.772	3.79
527.119	3.75
527.466	3.84
527.814	3.83
528.161	3.83
528.508	3.81
528.854	3.75
529.201	3.81
529.548	3.76
529.895	3.65
530.242	3.58
530.588	3.6
530.935	3.65
531.282	3.72
531.628	3.71
531.975	3.78
532.321	3.75
532.667	3.87
533.014	3.77
533.36	3.79
533.706	3.95
534.052	3.78
534.399	3.74
534.745	3.73
535.091	3.67
535.437	3.65
535.783	3.7
536.129	3.84
536.474	3.88
536.82	3.77
537.166	3.82
537.512	3.82
537.857	3.73
538.203	3.68
538.549	3.8
538.894	3.78
539.239	3.85
539.585	3.86
539.93	3.85
540.276	3.9
540.621	3.97
540.966	3.9
541.311	3.84
541.656	3.91
542.001	3.77
542.346	3.69
542.691	3.67
543.036	3.58
543.381	3.63
543.726	3.65
544.071	3.68
544.415	3.77
544.76	3.76
545.105	3.76
545.449	3.69
545.794	3.77
546.138	3.79
546.483	3.82
546.827	3.88
547.171	3.87
547.516	3.74
547.86	3.76
548.204	3.84
548.548	3.7
548.892	3.74
549.236	3.77
549.58	3.87
549.924	3.83
550.268	3.88
550.612	3.93
550.956	4.01
551.3	3.94
551.643	3.87
551.987	3.91
552.33	3.91
552.674	3.74
553.017	3.87
553.361	3.9
553.704	3.88
554.048	3.89
554.391	3.93
554.734	3.86
555.077	4.09
555.42	3.77
555.764	3.9
556.107	3.87
556.45	3.99
556.793	3.89
557.135	3.92
557.478	4
557.821	3.95
558.164	3.9
558.507	4.13
558.849	3.83
559.192	3.88
559.534	3.95
559.877	3.97
560.219	3.8
560.562	3.82
560.904	3.94
561.246	3.73
561.589	3.86
561.931	3.9
562.273	3.78
562.615	3.77
562.957	3.81
563.299	3.71
563.641	3.67
563.983	3.88
564.325	3.78
564.667	3.9
565.008	3.99
565.35	3.97
565.692	3.7
566.033	3.78
566.375	3.87
566.716	3.85
567.058	3.7
567.399	4.03
567.741	3.83
568.082	3.82
568.423	3.74
568.764	4
569.105	3.72
569.447	3.86
569.788	3.84
570.129	3.81
570.47	3.85
570.811	3.91
571.151	3.93
571.492	3.95
571.833	3.79
572.174	3.99
572.514	3.94
572.855	3.89
573.195	3.74
573.536	3.86
573.876	3.73
574.217	3.89
574.557	3.7
574.898	3.89
575.238	3.91
575.578	3.85
575.918	3.83
576.258	3.9
576.598	3.74
576.938	3.89
577.278	3.64
577.618	3.69
577.958	3.8
578.298	3.89
578.638	3.82
578.977	3.9
579.317	3.88
579.657	3.9
579.996	3.73
580.336	3.85
580.675	3.99
581.014	3.88
581.354	3.61
581.693	3.68
582.032	3.97
582.372	3.53
582.711	3.93
583.05	3.78
583.389	4.02
583.728	3.74
584.067	3.88
584.406	3.69
584.745	3.91
585.083	3.79
585.422	3.74
585.761	3.96
586.1	3.77
586.438	3.75
586.777	3.85
587.115	3.75
587.454	3.77
587.792	3.62
588.13	3.71
588.469	3.64
588.807	3.7
589.145	3.84
589.483	4.04
589.821	3.92
590.159	3.95
590.497	3.98
590.835	3.97
591.173	3.73
591.511	3.78
591.849	3.91
592.187	3.67
592.524	3.52
592.862	3.55
593.2	3.7
593.537	3.89
593.875	3.92
594.212	3.73
594.55	3.75
594.887	3.84
595.224	3.57
595.561	3.59
595.899	3.62
596.236	3.8
596.573	3.73
596.91	3.96
597.247	3.66
597.584	3.67
597.921	3.8
598.258	3.65
598.594	3.6
598.931	3.56
599.268	3.58
599.604	3.67
599.941	3.85
600.277	3.7
600.614	3.79
600.95	3.56
601.287	3.83
601.623	4.06
601.959	4.09
602.296	3.55
602.632	3.81
602.968	3.78
603.304	3.71
603.64	3.84
603.976	3.93
604.312	3.64
604.648	3.65
604.984	3.64
605.319	3.63
605.655	3.66
605.991	3.7
606.326	3.98
606.662	3.68
606.998	3.71
607.333	3.71
607.668	3.65
608.004	3.66
608.339	3.46
608.674	3.69
609.01	3.9
609.345	3.77
609.68	3.7
610.015	3.71
610.35	3.52
610.685	3.73
611.02	3.57
611.355	3.53
611.689	3.77
612.024	3.67
612.359	3.51
612.694	3.62
613.028	3.64
613.363	3.86
613.697	3.81
614.032	3.64
614.366	3.61
614.7	3.86
615.035	3.59
615.369	3.6
615.703	3.86
616.037	3.95
616.371	3.6
616.705	3.79
617.039	3.69
617.373	3.79
617.707	3.59
618.041	3.74
618.375	3.59
618.709	3.77
619.042	3.79
619.376	3.68
619.71	3.83
620.043	3.8
620.377	3.6
620.71	3.48
621.043	3.67
621.377	3.67
621.71	3.46
622.043	3.68
622.376	3.82
622.709	3.4
623.043	3.47
623.376	3.73
623.709	3.67
624.041	3.62
624.374	3.47
624.707	3.73
625.04	3.52
625.373	3.73
625.705	3.54
626.038	3.65
626.37	3.57
626.703	3.73
627.035	3.58
627.368	3.91
627.7	3.62
628.032	3.59
628.365	3.91
628.697	3.69
629.029	3.5
629.361	3.67
629.693	3.8
630.025	3.51
630.357	3.92
630.689	3.73
631.021	3.41
631.353	3.84
631.684	3.65
632.016	3.72
632.348	3.74
632.679	3.49
633.011	3.86
633.342	3.66
633.674	3.39
634.005	3.86
634.336	3.87
634.668	3.64
634.999	3.59
635.33	3.8
635.661	4
635.992	3.64
636.323	3.59
636.654	3.81
636.985	3.51
637.316	3.48
637.647	4.05
637.977	3.64
638.308	3.75
638.639	3.83
638.969	3.65
639.3	3.97
639.63	3.87
639.961	3.71
640.291	3.73
640.622	3.97
640.952	3.77
641.282	3.14
641.612	3.48
641.943	4.03
642.273	3.59
642.603	3.77
642.933	3.9
643.263	3.62
643.592	3.84
643.922	3.63
644.252	4.04
644.582	3.66
644.911	3.58
645.241	3.77
645.571	3.68
645.9	3.56
646.23	3.94
646.559	3.79
646.888	4.22
647.218	3.71
647.547	3.78
647.876	3.32
648.205	3.77
648.534	3.54
648.863	3.33
649.192	3.4
649.521	3.96
649.85	3.75
650.179	3.5
650.508	3.65
650.837	4
651.165	3.68
651.494	3.66
651.822	3.58
652.151	3.51
652.479	3.28
652.808	3.3
653.136	3.27
653.465	3.85
653.793	3.69
654.121	3.38
654.449	3.11
654.777	4.45
655.105	3.76
655.433	3.43
655.761	3.87
656.089	4.19
656.417	3.79
656.745	3.4
657.073	3.34
657.4	3.29
657.728	3.82
658.056	4.56
658.383	3.53
658.711	3.32
659.038	3.55
659.365	3.36
659.693	3.29
660.02	4.26
660.347	3.73
660.674	3.78
661.001	3.84
661.329	3.78
661.656	4.11
661.982	4
662.309	3.83
662.636	4.02
662.963	3.96
663.29	3.56
663.616	3.2
663.943	3.58
664.27	3.51
664.596	4.04
664.923	3.57
665.249	3.83
665.576	3.97
665.902	3.74
666.228	3.78
666.554	3.56
666.881	3.44
667.207	3.9
667.533	3.63
667.859	4.29
668.185	3.85
668.511	3.15
668.837	3.96
669.162	3.94
669.488	3.36
669.814	3.52
670.139	3.85
670.465	2.79
670.791	3.26
671.116	3.35
671.442	3.64
671.767	4
672.092	3.71
672.418	3.58
672.743	3.15
673.068	3.77
673.393	4.18
673.718	3.95
674.043	4.03
674.368	3.82
674.693	3.27
675.018	3.69
675.343	4.01
675.667	4.14
675.992	4.35
676.317	3.79
676.641	2.88
676.966	4.01
677.29	3.38
677.615	3.56
677.939	3.61
678.264	2.98
678.588	3.59
678.912	3.42
679.236	3.74
679.56	4.3
679.885	3.76
680.209	3.64
680.532	3.91
680.856	3.78
681.18	3.56
681.504	3
681.828	4.12
682.152	4.06
682.475	3.77
682.799	3.53
683.122	4.19
683.446	4.04
683.769	3.63
684.093	3.92
684.416	3.52
684.739	4.09
685.062	3.4
685.386	3.77
685.709	3.61
686.032	3.22
686.355	3.46
686.678	3.84
687.001	3.34
687.324	3.43
687.646	2.97
687.969	3.75
688.292	4.85
688.614	3.85
688.937	3.37
689.26	2.43
689.582	4.45
689.904	3.57
690.227	3.71
690.549	3.26
690.871	3.55
691.194	3.05
691.516	3.49
691.838	3.91
692.16	3.39
692.482	3.8
692.804	3.68
