Data from 20-6_crown_Reflection__3__129.txt Node

Date: Fri Nov 11 21:07:15 CST 2022
User: ToomeyLab
Spectrometer: FLMS14357
Trigger mode: 0
Integration Time (sec): 1.000000E-2
Scans to average: 100
Electric dark correction enabled: true
Nonlinearity correction enabled: false
Boxcar width: 0
XAxis mode: Wavelengths
Number of Pixels in Spectrum: 2048
>>>>>Begin Spectral Data<<<<<
189.047	-56.33
189.435	-56.33
189.823	-56.33
190.211	1267.57
190.599	37.54
190.987	8.26
191.375	219.08
191.763	-363.58
192.151	237.14
192.538	-216.6
192.926	167.37
193.314	87.88
193.702	-435.65
194.089	-484.4
194.477	10.86
194.864	30.45
195.252	102.43
195.639	-172.89
196.027	87.3
196.414	263.83
196.801	184.24
197.189	171.33
197.576	2091.49
197.963	-121.26
198.351	-124.85
198.738	3.37
199.125	14.36
199.512	-11.29
199.899	-66.24
200.286	-12.53
200.673	-8.52
201.06	27.32
201.447	11.86
201.833	9.13
202.22	-29.54
202.607	24.84
202.994	21.19
203.38	33.32
203.767	20
204.154	-13.21
204.54	-3.43
204.927	5.88
205.313	-4.22
205.699	-43.94
206.086	31.3
206.472	28.8
206.858	14.88
207.245	14.4
207.631	20.14
208.017	6.06
208.403	15.92
208.789	-25.74
209.175	10.18
209.561	42.29
209.947	14.91
210.333	-6
210.719	21.8
211.105	28.9
211.491	23.52
211.876	7.3
212.262	8.96
212.648	-3.04
213.034	31.79
213.419	-35.45
213.805	-2.86
214.19	-6.73
214.576	-34.86
214.961	-121.88
215.346	-0.94
215.732	-33.38
216.117	19.44
216.502	-13.21
216.888	-8.59
217.273	-1.59
217.658	4.79
218.043	11.65
218.428	-6.13
218.813	12.33
219.198	2.63
219.583	-18.02
219.968	6.54
220.353	-11.35
220.738	-17.74
221.122	-2.47
221.507	-10.82
221.892	-18.64
222.276	14.78
222.661	21.24
223.046	15.63
223.43	6.4
223.815	2.73
224.199	5.95
224.583	-10.01
224.968	-13.04
225.352	0.41
225.736	-5.37
226.121	0.99
226.505	2.84
226.889	-5.79
227.273	9.42
227.657	-1.22
228.041	-1.34
228.425	1.76
228.809	5.82
229.193	6.78
229.577	6.03
229.961	6.05
230.344	5.79
230.728	5.07
231.112	4.54
231.495	5.59
231.879	4.31
232.263	5.75
232.646	3.91
233.03	5.37
233.413	5.09
233.797	6.38
234.18	2.27
234.563	6.56
234.946	4.41
235.33	6.02
235.713	5.19
236.096	5.17
236.479	4.47
236.862	4.67
237.245	6.71
237.628	7.14
238.011	5.16
238.394	4.74
238.777	5.4
239.16	5.99
239.543	4.52
239.925	4.91
240.308	2.7
240.691	6.69
241.073	5.12
241.456	4.73
241.838	4.98
242.221	5.28
242.603	5.4
242.986	5.11
243.368	5.2
243.75	5.1
244.133	5.6
244.515	5.34
244.897	5.28
245.279	4.47
245.661	4.43
246.043	5.09
246.425	6.05
246.807	4.71
247.189	4.09
247.571	4.31
247.953	5.06
248.335	5.05
248.717	5.04
249.098	5.41
249.48	4.97
249.862	5.6
250.243	4.79
250.625	4.96
251.006	5.74
251.388	5.24
251.769	5.83
252.151	4.86
252.532	4.32
252.913	5.5
253.295	5.08
253.676	4.72
254.057	4.59
254.438	4.64
254.819	4.5
255.2	5.58
255.581	4.72
255.962	3.73
256.343	3.94
256.724	4.33
257.105	4.6
257.486	5.37
257.867	4.63
258.247	2.67
258.628	4.82
259.009	4.5
259.389	4.49
259.77	5.03
260.15	4.7
260.531	5.04
260.911	4.83
261.292	4.66
261.672	4.41
262.052	4.65
262.432	4.75
262.813	4.76
263.193	4.73
263.573	3.97
263.953	4.9
264.333	3.94
264.713	5.08
265.093	4.32
265.473	3.72
265.853	4.12
266.233	3.74
266.612	4.02
266.992	4.06
267.372	5.02
267.752	4.4
268.131	4.04
268.511	4.44
268.89	3.93
269.27	3.85
269.649	4.1
270.029	4.78
270.408	4.74
270.787	4.49
271.167	4.15
271.546	4.55
271.925	4.74
272.304	4.26
272.683	4.24
273.062	4.15
273.441	4.26
273.82	3.84
274.199	4.32
274.578	4.15
274.957	4.51
275.336	4.39
275.715	4.16
276.093	3.74
276.472	3.94
276.851	4.51
277.229	4.31
277.608	4
277.986	4.25
278.365	4.08
278.743	4.36
279.122	4.66
279.5	4.1
279.878	4.53
280.257	3.96
280.635	4.22
281.013	3.63
281.391	4.39
281.769	4.2
282.147	4.05
282.525	4.04
282.903	3.76
283.281	4.44
283.659	4.25
284.037	4.4
284.415	3.84
284.792	4.07
285.17	4.14
285.548	3.47
285.925	3.71
286.303	3.97
286.68	4.16
287.058	4.14
287.435	4
287.813	4.31
288.19	3.76
288.567	4.16
288.945	3.87
289.322	4.21
289.699	3.59
290.076	4.34
290.453	4.4
290.83	3.83
291.207	3.68
291.584	4.53
291.961	3.72
292.338	4.17
292.715	4.41
293.092	4.13
293.469	4.16
293.845	3.79
294.222	3.79
294.599	4.24
294.975	3.94
295.352	4.15
295.728	3.78
296.105	4.17
296.481	3.76
296.858	3.6
297.234	4.09
297.61	3.5
297.986	3.88
298.363	4.08
298.739	3.97
299.115	4.23
299.491	4.18
299.867	3.84
300.243	3.76
300.619	4.07
300.995	4.53
301.371	4.42
301.746	4
302.122	3.7
302.498	4.42
302.874	3.91
303.249	3.93
303.625	3.97
304	3.6
304.376	3.66
304.751	3.98
305.127	3.86
305.502	4.26
305.878	4.22
306.253	3.93
306.628	3.29
307.003	4.15
307.378	4.17
307.754	4.24
308.129	3.8
308.504	4.29
308.879	4.1
309.254	4.1
309.629	3.37
310.003	4.01
310.378	3.86
310.753	4.5
311.128	4.06
311.502	4.27
311.877	4.02
312.252	3.85
312.626	3.99
313.001	3.81
313.375	3.93
313.75	3.73
314.124	3.54
314.498	3.56
314.873	4.16
315.247	4.17
315.621	3.61
315.995	3.98
316.369	4.02
316.743	3.93
317.117	3.86
317.491	4.02
317.865	3.29
318.239	3.62
318.613	3.74
318.987	4.08
319.361	3.82
319.734	4.18
320.108	4.03
320.482	4.29
320.855	3.74
321.229	3.77
321.602	4.12
321.976	3.58
322.349	3.83
322.723	4.55
323.096	4.09
323.469	3.81
323.843	4.21
324.216	3.88
324.589	3.95
324.962	4.32
325.335	3.35
325.708	4.34
326.081	3.92
326.454	3.74
326.827	3.65
327.2	4.4
327.573	4.37
327.945	3.67
328.318	3.65
328.691	3.95
329.063	4.01
329.436	3.92
329.809	3.35
330.181	3.9
330.553	3.53
330.926	4.43
331.298	3.87
331.671	3.6
332.043	3.47
332.415	3.99
332.787	4.34
333.159	4.33
333.532	3.91
333.904	4.43
334.276	3.75
334.648	3.64
335.02	4.11
335.391	3.96
335.763	3.53
336.135	3.56
336.507	4.28
336.879	3.71
337.25	3.82
337.622	4.14
337.993	3.96
338.365	4.06
338.736	3.88
339.108	3.9
339.479	3.68
339.851	4.08
340.222	3.69
340.593	4.14
340.964	3.98
341.336	4.01
341.707	3.91
342.078	3.28
342.449	4.32
342.82	4.15
343.191	3.73
343.562	3.85
343.933	3.99
344.303	3.69
344.674	3.68
345.045	3.68
345.416	4.16
345.786	3.57
346.157	3.8
346.527	3.89
346.898	3.19
347.268	4.04
347.639	3.83
348.009	3.77
348.38	3.92
348.75	3.77
349.12	4.68
349.49	4.06
349.861	3.69
350.231	3.95
350.601	4
350.971	3.94
351.341	4
351.711	4.08
352.081	4.29
352.45	3.85
352.82	4.07
353.19	4.03
353.56	3.95
353.929	3.57
354.299	3.77
354.669	4.37
355.038	3.86
355.408	4.11
355.777	4.38
356.147	3.97
356.516	3.88
356.885	3.89
357.254	3.96
357.624	3.57
357.993	4.08
358.362	4.34
358.731	3.77
359.1	3.99
359.469	3.82
359.838	3.96
360.207	4.33
360.576	4.18
360.945	4.15
361.314	3.68
361.682	3.98
362.051	3.97
362.42	4.19
362.788	4.17
363.157	4.1
363.525	3.69
363.894	3.8
364.262	4.03
364.631	4.29
364.999	4.13
365.367	4.18
365.735	4.29
366.104	3.95
366.472	4
366.84	3.56
367.208	4.03
367.576	4.31
367.944	4.19
368.312	4.02
368.68	4.19
369.048	4.16
369.416	4.19
369.783	4.15
370.151	4.16
370.519	4.19
370.886	4.01
371.254	4.27
371.621	3.98
371.989	4.31
372.356	4.18
372.724	4.44
373.091	4.32
373.458	4.23
373.826	4.17
374.193	4.12
374.56	4.08
374.927	4.14
375.294	4.31
375.661	4.43
376.028	3.71
376.395	4.17
376.762	4.48
377.129	4.33
377.496	4.22
377.863	4.4
378.229	4.41
378.596	4.2
378.963	3.97
379.329	4.65
379.696	4.31
380.062	4.08
380.429	4.33
380.795	4.37
381.161	4.49
381.528	4.07
381.894	4.37
382.26	4.51
382.626	4.09
382.993	4.2
383.359	4.29
383.725	4.09
384.091	4.42
384.457	4.34
384.823	4.17
385.188	4.22
385.554	4.3
385.92	3.97
386.286	4.18
386.651	4.25
387.017	4.05
387.383	4.37
387.748	4.2
388.114	4.21
388.479	4.32
388.845	4.41
389.21	4.14
389.575	4.32
389.94	4.29
390.306	4.1
390.671	4.27
391.036	4.26
391.401	4.29
391.766	4.49
392.131	4.3
392.496	4.33
392.861	4.37
393.226	4.18
393.591	4.32
393.956	4.29
394.32	4.39
394.685	4.22
395.05	4.36
395.414	4.11
395.779	4.48
396.143	4.32
396.508	4.38
396.872	4.51
397.236	4.4
397.601	4.35
397.965	4.38
398.329	4.43
398.694	4.46
399.058	4.36
399.422	4.31
399.786	4.1
400.15	4.39
400.514	4.38
400.878	4.27
401.242	4.3
401.605	4.53
401.969	4.54
402.333	4.1
402.697	4.58
403.06	4.46
403.424	4.06
403.787	4.47
404.151	4.38
404.514	4.41
404.878	4.22
405.241	4.44
405.604	4.28
405.968	4.24
406.331	4.07
406.694	4.31
407.057	4.41
407.42	4.44
407.783	4.51
408.146	4.39
408.509	4.35
408.872	4.37
409.235	4.45
409.598	4.53
409.961	4.31
410.323	4.28
410.686	4.53
411.049	4.4
411.411	4.46
411.774	4.35
412.136	4.32
412.499	4.42
412.861	4.51
413.223	4.28
413.586	4.25
413.948	4.56
414.31	4.52
414.672	4.32
415.035	4.58
415.397	4.2
415.759	4.28
416.121	4.43
416.483	4.44
416.845	4.46
417.206	4.18
417.568	4.18
417.93	4.37
418.292	4.23
418.653	4.48
419.015	4.42
419.377	4.4
419.738	4.44
420.1	4.27
420.461	4.41
420.822	4.3
421.184	4.31
421.545	4.42
421.906	4.32
422.267	4.19
422.629	4.21
422.99	4.38
423.351	4.35
423.712	4.23
424.073	4.42
424.434	4.47
424.795	4.48
425.155	4.34
425.516	4.33
425.877	4.4
426.238	4.33
426.598	4.31
426.959	4.29
427.32	4.43
427.68	4.5
428.041	4.47
428.401	4.28
428.761	4.58
429.122	4.33
429.482	4.59
429.842	4.49
430.202	4.49
430.563	4.61
430.923	4.42
431.283	4.3
431.643	4.35
432.003	4.6
432.363	4.38
432.722	4.63
433.082	4.43
433.442	4.52
433.802	4.72
434.161	4.53
434.521	4.43
434.881	4.55
435.24	4.49
435.6	4.5
435.959	4.46
436.319	4.45
436.678	4.44
437.037	4.6
437.396	4.59
437.756	4.56
438.115	4.53
438.474	4.45
438.833	4.58
439.192	4.61
439.551	4.58
439.91	4.61
440.269	4.57
440.628	4.55
440.987	4.45
441.345	4.37
441.704	4.51
442.063	4.41
442.421	4.4
442.78	4.34
443.138	4.56
443.497	4.39
443.855	4.48
444.214	4.46
444.572	4.65
444.93	4.44
445.288	4.5
445.647	4.65
446.005	4.63
446.363	4.49
446.721	4.52
447.079	4.54
447.437	4.34
447.795	4.5
448.153	4.4
448.51	4.43
448.868	4.52
449.226	4.48
449.584	4.53
449.941	4.57
450.299	4.55
450.656	4.63
451.014	4.61
451.371	4.62
451.729	4.51
452.086	4.56
452.443	4.56
452.801	4.65
453.158	4.52
453.515	4.66
453.872	4.5
454.229	4.64
454.586	4.55
454.943	4.69
455.3	4.6
455.657	4.66
456.014	4.77
456.371	4.69
456.727	4.63
457.084	4.48
457.441	4.69
457.797	4.66
458.154	4.56
458.51	4.64
458.867	4.63
459.223	4.61
459.58	4.58
459.936	4.48
460.292	4.73
460.648	4.65
461.005	4.59
461.361	4.58
461.717	4.53
462.073	4.55
462.429	4.47
462.785	4.6
463.141	4.59
463.496	4.5
463.852	4.65
464.208	4.61
464.564	4.68
464.919	4.63
465.275	4.58
465.631	4.78
465.986	4.93
466.342	4.7
466.697	4.63
467.052	4.61
467.408	4.72
467.763	4.55
468.118	4.63
468.473	4.71
468.829	4.62
469.184	4.57
469.539	4.62
469.894	4.72
470.249	4.71
470.603	4.68
470.958	4.51
471.313	4.75
471.668	4.81
472.023	4.48
472.377	4.95
472.732	4.74
473.086	4.55
473.441	4.56
473.795	4.53
474.15	4.85
474.504	4.79
474.859	4.64
475.213	4.84
475.567	4.69
475.921	4.76
476.275	4.62
476.63	4.79
476.984	4.76
477.338	4.84
477.692	4.61
478.045	4.51
478.399	4.79
478.753	4.55
479.107	4.65
479.461	4.73
479.814	4.7
480.168	4.68
480.521	4.83
480.875	4.74
481.228	4.58
481.582	4.75
481.935	4.57
482.289	4.59
482.642	4.65
482.995	4.67
483.348	4.72
483.701	4.68
484.055	4.56
484.408	4.57
484.761	4.52
485.114	4.42
485.466	4.37
485.819	4.39
486.172	4.38
486.525	4.43
486.878	4.5
487.23	4.49
487.583	4.56
487.936	4.56
488.288	4.49
488.641	4.48
488.993	4.49
489.345	4.42
489.698	4.48
490.05	4.47
490.402	4.48
490.754	4.53
491.107	4.53
491.459	4.59
491.811	4.6
492.163	4.65
492.515	4.61
492.866	4.57
493.218	4.47
493.57	4.52
493.922	4.46
494.274	4.49
494.625	4.55
494.977	4.63
495.328	4.6
495.68	4.57
496.031	4.65
496.383	4.64
496.734	4.73
497.086	4.75
497.437	4.74
497.788	4.65
498.139	4.63
498.49	4.57
498.842	4.56
499.193	4.69
499.544	4.75
499.894	4.55
500.245	4.68
500.596	4.75
500.947	4.73
501.298	4.78
501.648	4.62
501.999	4.77
502.35	4.82
502.7	4.76
503.051	4.64
503.401	4.78
503.752	4.57
504.102	4.68
504.452	4.76
504.803	4.64
505.153	4.85
505.503	4.79
505.853	4.64
506.203	4.75
506.553	4.61
506.903	4.62
507.253	4.68
507.603	4.67
507.953	4.75
508.303	4.67
508.652	4.73
509.002	4.68
509.352	4.74
509.701	4.72
510.051	4.59
510.4	4.8
510.75	4.7
511.099	4.52
511.449	4.65
511.798	4.65
512.147	4.63
512.496	4.66
512.846	4.65
513.195	4.64
513.544	4.59
513.893	4.66
514.242	4.59
514.591	4.76
514.939	4.7
515.288	4.64
515.637	4.8
515.986	4.65
516.334	4.77
516.683	4.75
517.032	4.77
517.38	4.62
517.729	4.76
518.077	4.77
518.426	4.7
518.774	4.67
519.122	4.77
519.47	4.7
519.819	4.62
520.167	4.57
520.515	4.64
520.863	4.65
521.211	4.6
521.559	4.55
521.907	4.74
522.255	4.6
522.602	4.79
522.95	4.62
523.298	4.71
523.645	4.68
523.993	4.7
524.341	4.69
524.688	4.67
525.036	4.76
525.383	4.68
525.73	4.78
526.078	4.71
526.425	4.7
526.772	4.64
527.119	4.57
527.466	4.6
527.814	4.64
528.161	4.66
528.508	4.55
528.854	4.56
529.201	4.61
529.548	4.53
529.895	4.43
530.242	4.4
530.588	4.44
530.935	4.43
531.282	4.49
531.628	4.45
531.975	4.53
532.321	4.51
532.667	4.62
533.014	4.61
533.36	4.58
533.706	4.67
534.052	4.59
534.399	4.52
534.745	4.58
535.091	4.45
535.437	4.51
535.783	4.52
536.129	4.57
536.474	4.61
536.82	4.62
537.166	4.64
537.512	4.71
537.857	4.71
538.203	4.49
538.549	4.62
538.894	4.65
539.239	4.64
539.585	4.61
539.93	4.71
540.276	4.79
540.621	4.73
540.966	4.73
541.311	4.62
541.656	4.76
542.001	4.68
542.346	4.63
542.691	4.49
543.036	4.42
543.381	4.48
543.726	4.5
544.071	4.55
544.415	4.58
544.76	4.61
545.105	4.49
545.449	4.5
545.794	4.66
546.138	4.6
546.483	4.66
546.827	4.72
547.171	4.7
547.516	4.63
547.86	4.57
548.204	4.67
548.548	4.62
548.892	4.61
549.236	4.7
549.58	4.67
549.924	4.69
550.268	4.75
550.612	4.79
550.956	4.9
551.3	4.78
551.643	4.75
551.987	4.75
552.33	4.74
552.674	4.56
553.017	4.82
553.361	4.78
553.704	4.77
554.048	4.58
554.391	4.85
554.734	4.64
555.077	4.76
555.42	4.63
555.764	4.76
556.107	4.74
556.45	4.81
556.793	4.71
557.135	4.76
557.478	4.84
557.821	4.82
558.164	4.82
558.507	4.82
558.849	4.79
559.192	4.82
559.534	4.79
559.877	4.95
560.219	4.76
560.562	4.63
560.904	4.78
561.246	4.62
561.589	4.75
561.931	4.53
562.273	4.76
562.615	4.63
562.957	4.8
563.299	4.77
563.641	4.61
563.983	4.81
564.325	4.74
564.667	4.82
565.008	4.81
565.35	4.75
565.692	4.38
566.033	4.75
566.375	4.77
566.716	4.78
567.058	4.68
567.399	4.86
567.741	4.88
568.082	4.59
568.423	4.79
568.764	4.8
569.105	4.69
569.447	4.74
569.788	4.84
570.129	4.54
570.47	4.69
570.811	4.77
571.151	4.76
571.492	4.78
571.833	4.66
572.174	4.85
572.514	4.78
572.855	4.81
573.195	4.52
573.536	4.8
573.876	4.7
574.217	4.72
574.557	4.78
574.898	4.71
575.238	4.76
575.578	4.71
575.918	4.77
576.258	4.7
576.598	4.73
576.938	4.74
577.278	4.58
577.618	4.93
577.958	4.59
578.298	4.78
578.638	4.74
578.977	4.6
579.317	4.92
579.657	4.72
579.996	4.66
580.336	4.69
580.675	4.78
581.014	4.98
581.354	4.76
581.693	4.62
582.032	4.58
582.372	4.93
582.711	4.65
583.05	4.7
583.389	4.69
583.728	4.9
584.067	4.9
584.406	4.53
584.745	4.89
585.083	4.7
585.422	4.45
585.761	4.82
586.1	4.68
586.438	4.6
586.777	4.87
587.115	4.63
587.454	4.67
587.792	4.65
588.13	4.54
588.469	4.61
588.807	4.67
589.145	4.91
589.483	4.97
589.821	4.5
590.159	4.95
590.497	4.86
590.835	4.81
591.173	4.66
591.511	4.73
591.849	4.61
592.187	4.68
592.524	4.55
592.862	4.63
593.2	4.79
593.537	4.87
593.875	4.87
594.212	4.68
594.55	4.8
594.887	4.62
595.224	4.71
595.561	4.62
595.899	4.62
596.236	4.58
596.573	4.7
596.91	4.85
597.247	4.85
597.584	4.65
597.921	4.82
598.258	4.57
598.594	4.72
598.931	4.58
599.268	4.77
599.604	4.72
599.941	4.72
600.277	4.74
600.614	4.88
600.95	4.48
601.287	4.77
601.623	5.09
601.959	4.71
602.296	4.66
602.632	4.72
602.968	4.83
603.304	5
603.64	4.84
603.976	4.88
604.312	4.59
604.648	4.43
604.984	4.74
605.319	4.83
605.655	4.75
605.991	4.61
606.326	4.96
606.662	4.71
606.998	4.74
607.333	4.8
607.668	4.69
608.004	4.82
608.339	4.83
608.674	4.79
609.01	4.97
609.345	4.63
609.68	4.51
610.015	4.77
610.35	4.6
610.685	4.75
611.02	4.65
611.355	4.8
611.689	4.7
612.024	4.77
612.359	4.64
612.694	4.83
613.028	4.71
613.363	4.93
613.697	4.97
614.032	4.82
614.366	4.6
614.7	4.72
615.035	4.59
615.369	4.43
615.703	4.67
616.037	4.66
616.371	4.59
616.705	4.94
617.039	4.84
617.373	4.7
617.707	4.74
618.041	4.86
618.375	4.29
618.709	4.92
619.042	4.89
619.376	4.96
619.71	4.84
620.043	4.88
620.377	4.56
620.71	4.67
621.043	4.29
621.377	4.97
621.71	4.44
622.043	4.86
622.376	4.98
622.709	4.47
623.043	4.72
623.376	4.94
623.709	5.03
624.041	5
624.374	4.44
624.707	4.86
625.04	4.77
625.373	4.59
625.705	4.72
626.038	4.86
626.37	4.74
626.703	4.63
627.035	4.64
627.368	4.3
627.7	4.85
628.032	4.61
628.365	4.91
628.697	4.72
629.029	4.62
629.361	4.56
629.693	4.69
630.025	4.75
630.357	4.63
630.689	4.75
631.021	4.91
631.353	4.94
631.684	4.54
632.016	4.59
632.348	4.64
632.679	4.55
633.011	5.04
633.342	4.81
633.674	4.9
634.005	4.48
634.336	4.41
634.668	4.94
634.999	4.56
635.33	4.74
635.661	4.9
635.992	4.88
636.323	4.66
636.654	4.9
636.985	4.73
637.316	4.62
637.647	5.2
637.977	4.86
638.308	4.73
638.639	4.81
638.969	4.4
639.3	4.71
639.63	5.02
639.961	4.89
640.291	4.85
640.622	5.06
640.952	4.84
641.282	4.32
641.612	4.63
641.943	5.28
642.273	4.8
642.603	4.73
642.933	5.23
643.263	4.76
643.592	4.79
643.922	4.88
644.252	4.9
644.582	4.59
644.911	4.2
645.241	4.87
645.571	4.98
645.9	4.97
646.23	5.11
646.559	5
646.888	4.94
647.218	4.46
647.547	4.66
647.876	4.57
648.205	4.76
648.534	4.42
648.863	4.85
649.192	4.58
649.521	4.8
649.85	4.88
650.179	5.08
650.508	4.86
650.837	4.88
651.165	4.64
651.494	5.05
651.822	4.26
652.151	4.54
652.479	4.3
652.808	4.45
653.136	4.71
653.465	5.08
653.793	4.87
654.121	4.65
654.449	4.36
654.777	5.09
655.105	4.73
655.433	4.54
655.761	4.9
656.089	4.81
656.417	4.32
656.745	4.62
657.073	4.57
657.4	4.93
657.728	4.82
658.056	4.98
658.383	4.86
658.711	4.81
659.038	4.52
659.365	4.71
659.693	4.78
660.02	5.16
660.347	5.18
660.674	4.82
661.001	4.81
661.329	4.89
661.656	4.64
661.982	4.97
662.309	4.89
662.636	4.72
662.963	4.93
663.29	4.95
663.616	4.35
663.943	4.76
664.27	4.6
664.596	4.94
664.923	4.74
665.249	5.16
665.576	5.13
665.902	4.79
666.228	5.19
666.554	4.45
666.881	4.85
667.207	4.95
667.533	4.89
667.859	4.83
668.185	5.07
668.511	4.45
668.837	4.96
669.162	4.71
669.488	4.89
669.814	4.62
670.139	4.67
670.465	4.62
670.791	4.35
671.116	4.69
671.442	4.93
671.767	5.21
672.092	4.9
672.418	4.8
672.743	4.22
673.068	4.52
673.393	5.34
673.718	4.69
674.043	4.71
674.368	4.49
674.693	4.51
675.018	5.22
675.343	4.8
675.667	5.3
675.992	5.35
676.317	4.76
676.641	3.7
676.966	5.1
677.29	4.8
677.615	4.84
677.939	4.97
678.264	4.61
678.588	4.83
678.912	4.5
679.236	4.83
679.56	4.8
679.885	4.71
680.209	4.67
680.532	5.24
680.856	5.24
681.18	5.21
681.504	4.95
681.828	5.03
682.152	4.83
682.475	4.48
682.799	4.63
683.122	5
683.446	5.54
683.769	4.77
684.093	5.11
684.416	4.74
684.739	5.64
685.062	4.7
685.386	4.86
685.709	4.74
686.032	4.85
686.355	4.75
686.678	5.03
687.001	4.66
687.324	4.71
687.646	3.69
687.969	5.35
688.292	5.17
688.614	4.94
688.937	4.49
689.26	4.5
689.582	4.86
689.904	4.8
690.227	5.19
690.549	5.2
690.871	4.46
691.194	4.09
691.516	4.39
691.838	4.53
692.16	4.52
692.482	4.83
692.804	4.82
