Data from 20-6_chest_Reflection__4__125.txt Node

Date: Fri Nov 11 21:05:07 CST 2022
User: ToomeyLab
Spectrometer: FLMS14357
Trigger mode: 0
Integration Time (sec): 1.000000E-2
Scans to average: 100
Electric dark correction enabled: true
Nonlinearity correction enabled: false
Boxcar width: 0
XAxis mode: Wavelengths
Number of Pixels in Spectrum: 2048
>>>>>Begin Spectral Data<<<<<
189.047	-88.39
189.435	-88.39
189.823	-88.39
190.211	506.76
190.599	-50.44
190.987	153.34
191.375	82.08
191.763	-450
192.151	-235.14
192.538	170.43
192.926	53.16
193.314	164.09
193.702	146.52
194.089	-752.13
194.477	91.7
194.864	110.23
195.252	66.14
195.639	320.85
196.027	27
196.414	170.09
196.801	191.64
197.189	106.28
197.576	-356.38
197.963	30.03
198.351	-101.34
198.738	-0.02
199.125	39.26
199.512	18.62
199.899	-95.9
200.286	32.02
200.673	-2.53
201.06	73.2
201.447	20.32
201.833	7.31
202.22	-14.61
202.607	21.03
202.994	29.29
203.38	59.02
203.767	34.54
204.154	3.43
204.54	51.55
204.927	54.18
205.313	17.52
205.699	-24.18
206.086	41.66
206.472	10.8
206.858	24.9
207.245	36.82
207.631	16.85
208.017	17.51
208.403	-6.77
208.789	3.35
209.175	-3.5
209.561	45.14
209.947	-3.24
210.333	40.11
210.719	42.95
211.105	50.1
211.491	-4.14
211.876	13.97
212.262	27.94
212.648	45
213.034	-0.74
213.419	-24.85
213.805	-8.05
214.19	-15.16
214.576	3.16
214.961	-73.05
215.346	-12.44
215.732	-19.39
216.117	28.05
216.502	32.26
216.888	-31.68
217.273	15.36
217.658	7.65
218.043	22.48
218.428	21.58
218.813	25.54
219.198	-6.53
219.583	13.98
219.968	3.3
220.353	35.92
220.738	-9.96
221.122	19.19
221.507	4.57
221.892	-10.69
222.276	9.48
222.661	35.85
223.046	-5.48
223.43	-1.32
223.815	10.19
224.199	20.05
224.583	5.73
224.968	-10.79
225.352	5.85
225.736	7.61
226.121	0.98
226.505	10.5
226.889	-7.43
227.273	6.83
227.657	-0.71
228.041	1.1
228.425	3.22
228.809	6.98
229.193	5.34
229.577	4.93
229.961	4.75
230.344	4.49
230.728	3.75
231.112	3.98
231.495	5.42
231.879	3.74
232.263	4.13
232.646	4.05
233.03	5.36
233.413	4.95
233.797	4.99
234.18	2.31
234.563	5.62
234.946	3.63
235.33	6.2
235.713	3.38
236.096	4.86
236.479	5.51
236.862	6.82
237.245	4.04
237.628	5.28
238.011	4.73
238.394	7.57
238.777	5.07
239.16	6.17
239.543	4.53
239.925	5.02
240.308	3.46
240.691	3.65
241.073	3.1
241.456	3.34
241.838	5.03
242.221	3.88
242.603	4.81
242.986	3.87
243.368	4.1
243.75	4.37
244.133	4.09
244.515	3.69
244.897	4.52
245.279	4.04
245.661	4.47
246.043	3.93
246.425	6.1
246.807	5.07
247.189	3.85
247.571	3.77
247.953	3.85
248.335	3.84
248.717	4.45
249.098	4.37
249.48	4.04
249.862	4.43
250.243	3.86
250.625	4.18
251.006	5.07
251.388	5.45
251.769	4.73
252.151	3.94
252.532	3.4
252.913	4.03
253.295	4.65
253.676	3.52
254.057	3.94
254.438	4.25
254.819	3.87
255.2	4.5
255.581	3.3
255.962	3.41
256.343	3.42
256.724	3.02
257.105	3.83
257.486	4.27
257.867	4.35
258.247	3.14
258.628	4.3
259.009	3.78
259.389	3.97
259.77	4.95
260.15	4.34
260.531	3.68
260.911	4.05
261.292	3.92
261.672	3.67
262.052	3.88
262.432	4.04
262.813	4.08
263.193	3.34
263.573	4.7
263.953	4.58
264.333	3.41
264.713	4.06
265.093	3.4
265.473	3.27
265.853	3
266.233	3.85
266.612	3.89
266.992	2.95
267.372	4.6
267.752	3.75
268.131	3.51
268.511	3.9
268.89	3.57
269.27	3.32
269.649	3.25
270.029	4.04
270.408	3.72
270.787	4
271.167	3.79
271.546	4.13
271.925	3.63
272.304	3.82
272.683	3.88
273.062	3.7
273.441	3.96
273.82	3.65
274.199	3.66
274.578	3.44
274.957	3.98
275.336	3.88
275.715	3.9
276.093	3.23
276.472	3.38
276.851	3.62
277.229	3.45
277.608	3.68
277.986	4.23
278.365	3.56
278.743	3.31
279.122	3.99
279.5	3.73
279.878	3.67
280.257	3.85
280.635	3.88
281.013	3.23
281.391	3.49
281.769	3.69
282.147	3.76
282.525	2.97
282.903	3.72
283.281	4.14
283.659	3.74
284.037	3.88
284.415	3.43
284.792	3.99
285.17	4.09
285.548	3.2
285.925	3.2
286.303	3.76
286.68	4.18
287.058	3.64
287.435	3.54
287.813	3.57
288.19	3.22
288.567	3.38
288.945	3.67
289.322	4.12
289.699	3.53
290.076	4.06
290.453	3.57
290.83	3.82
291.207	3.65
291.584	3.78
291.961	3.34
292.338	3.74
292.715	3.79
293.092	3.86
293.469	3.56
293.845	3.71
294.222	3.74
294.599	4.07
294.975	3.91
295.352	3.7
295.728	3.96
296.105	3.87
296.481	3.73
296.858	3.25
297.234	4.14
297.61	3.58
297.986	3.59
298.363	3.9
298.739	3.73
299.115	3.9
299.491	4.02
299.867	3.84
300.243	4.02
300.619	3.94
300.995	3.91
301.371	4.06
301.746	4.24
302.122	3.76
302.498	3.77
302.874	3.84
303.249	3.88
303.625	3.69
304	3.34
304.376	3.94
304.751	3.77
305.127	3.78
305.502	3.87
305.878	4.51
306.253	3.89
306.628	3.64
307.003	4.15
307.378	3.8
307.754	4.07
308.129	4.24
308.504	4.17
308.879	4.07
309.254	4.12
309.629	3.84
310.003	3.99
310.378	4.21
310.753	4.46
311.128	4.66
311.502	4.08
311.877	3.87
312.252	4.07
312.626	3.93
313.001	3.72
313.375	3.84
313.75	4.12
314.124	3.72
314.498	3.87
314.873	3.98
315.247	4.1
315.621	3.93
315.995	3.95
316.369	3.97
316.743	3.82
317.117	3.62
317.491	3.86
317.865	3.68
318.239	4.11
318.613	4.23
318.987	4.05
319.361	3.84
319.734	4.01
320.108	4.1
320.482	4.47
320.855	3.58
321.229	3.75
321.602	4.01
321.976	4.15
322.349	5.01
322.723	4.87
323.096	3.76
323.469	4.3
323.843	4.22
324.216	4.3
324.589	4
324.962	4.85
325.335	3.76
325.708	4.21
326.081	4.49
326.454	3.55
326.827	3.75
327.2	4.27
327.573	4.34
327.945	3.69
328.318	4.03
328.691	4.27
329.063	4.24
329.436	3.83
329.809	4.09
330.181	3.89
330.553	3.45
330.926	4.3
331.298	3.79
331.671	3.87
332.043	3.71
332.415	4.35
332.787	4.74
333.159	4.35
333.532	4.2
333.904	4.34
334.276	4.24
334.648	3.9
335.02	4.14
335.391	4.29
335.763	4.22
336.135	3.81
336.507	4.08
336.879	4.13
337.25	3.88
337.622	3.97
337.993	4.26
338.365	4.28
338.736	3.87
339.108	4.02
339.479	3.77
339.851	4.01
340.222	4.01
340.593	4.49
340.964	4.32
341.336	4.3
341.707	4.15
342.078	3.89
342.449	4.3
342.82	4.37
343.191	4.46
343.562	4.29
343.933	4.22
344.303	3.84
344.674	4.32
345.045	4.22
345.416	4.14
345.786	3.65
346.157	4.13
346.527	3.87
346.898	3.58
347.268	4.29
347.639	4.35
348.009	3.97
348.38	4.42
348.75	4.34
349.12	4.47
349.49	4.2
349.861	4.14
350.231	4.34
350.601	4.22
350.971	4.27
351.341	4.36
351.711	4.43
352.081	4.34
352.45	4.02
352.82	4.12
353.19	4.36
353.56	4.14
353.929	3.98
354.299	4.01
354.669	4.69
355.038	4.33
355.408	4.58
355.777	4.22
356.147	4.13
356.516	3.9
356.885	4.17
357.254	4.03
357.624	3.76
357.993	4.28
358.362	4.58
358.731	4.03
359.1	4.13
359.469	3.85
359.838	4.09
360.207	4.26
360.576	4.28
360.945	4.46
361.314	4
361.682	4.05
362.051	4
362.42	4.06
362.788	4.29
363.157	4.16
363.525	4.04
363.894	4.18
364.262	4.34
364.631	4.3
364.999	4.16
365.367	4.18
365.735	4.23
366.104	4.19
366.472	3.83
366.84	3.78
367.208	4.01
367.576	4.48
367.944	4.29
368.312	3.95
368.68	4.07
369.048	4.41
369.416	4.25
369.783	4.57
370.151	4.19
370.519	4.43
370.886	4.33
371.254	4.33
371.621	4.16
371.989	4.32
372.356	4.57
372.724	4.54
373.091	4.51
373.458	4.27
373.826	4.01
374.193	4.31
374.56	4.18
374.927	4.27
375.294	4.61
375.661	4.56
376.028	4.18
376.395	4.57
376.762	4.3
377.129	4.27
377.496	4.06
377.863	4.49
378.229	4.3
378.596	4.16
378.963	4.58
379.329	4.36
379.696	4.41
380.062	4.21
380.429	4.35
380.795	4.72
381.161	4.18
381.528	4.43
381.894	4.44
382.26	4.46
382.626	4.34
382.993	4.47
383.359	4.66
383.725	4.21
384.091	4.18
384.457	4.34
384.823	4.23
385.188	4.3
385.554	4.09
385.92	4.27
386.286	4.26
386.651	4.55
387.017	4.29
387.383	4.44
387.748	4.44
388.114	4.26
388.479	4.21
388.845	4.18
389.21	4.19
389.575	4.47
389.94	4.38
390.306	4.27
390.671	4.26
391.036	4.52
391.401	4.3
391.766	4.51
392.131	4.25
392.496	4.48
392.861	4.24
393.226	4.36
393.591	4.3
393.956	4.18
394.32	4.39
394.685	4.26
395.05	4.62
395.414	4.53
395.779	4.43
396.143	4.38
396.508	4.6
396.872	4.43
397.236	4.26
397.601	4.44
397.965	4.47
398.329	4.2
398.694	4.35
399.058	4.58
399.422	4.55
399.786	4.29
400.15	4.28
400.514	4.27
400.878	4.61
401.242	4.31
401.605	4.72
401.969	4.43
402.333	4.29
402.697	4.54
403.06	4.57
403.424	4.36
403.787	4.51
404.151	4.35
404.514	4.66
404.878	4.38
405.241	4.29
405.604	4.33
405.968	4.46
406.331	4.19
406.694	4.28
407.057	4.35
407.42	4.45
407.783	4.49
408.146	4.57
408.509	4.59
408.872	4.47
409.235	4.41
409.598	4.55
409.961	4.69
410.323	4.46
410.686	4.68
411.049	4.33
411.411	4.42
411.774	4.53
412.136	4.27
412.499	4.43
412.861	4.43
413.223	4.31
413.586	4.62
413.948	4.57
414.31	4.5
414.672	4.43
415.035	4.5
415.397	4.44
415.759	4.41
416.121	4.58
416.483	4.35
416.845	4.53
417.206	4.49
417.568	4.45
417.93	4.47
418.292	4.26
418.653	4.5
419.015	4.51
419.377	4.39
419.738	4.5
420.1	4.51
420.461	4.51
420.822	4.35
421.184	4.41
421.545	4.47
421.906	4.45
422.267	4.4
422.629	4.31
422.99	4.42
423.351	4.4
423.712	4.42
424.073	4.45
424.434	4.46
424.795	4.6
425.155	4.35
425.516	4.43
425.877	4.45
426.238	4.46
426.598	4.42
426.959	4.42
427.32	4.51
427.68	4.51
428.041	4.6
428.401	4.29
428.761	4.71
429.122	4.51
429.482	4.65
429.842	4.47
430.202	4.6
430.563	4.78
430.923	4.5
431.283	4.53
431.643	4.52
432.003	4.73
432.363	4.63
432.722	4.72
433.082	4.7
433.442	4.7
433.802	4.65
434.161	4.63
434.521	4.62
434.881	4.7
435.24	4.51
435.6	4.62
435.959	4.63
436.319	4.6
436.678	4.74
437.037	4.6
437.396	4.75
437.756	4.56
438.115	4.67
438.474	4.59
438.833	4.73
439.192	4.73
439.551	4.65
439.91	4.76
440.269	4.63
440.628	4.82
440.987	4.72
441.345	4.64
441.704	4.67
442.063	4.58
442.421	4.64
442.78	4.51
443.138	4.66
443.497	4.55
443.855	4.69
444.214	4.64
444.572	4.78
444.93	4.85
445.288	4.71
445.647	4.76
446.005	4.81
446.363	4.79
446.721	4.7
447.079	4.81
447.437	4.63
447.795	4.72
448.153	4.73
448.51	4.72
448.868	4.65
449.226	4.76
449.584	4.81
449.941	4.77
450.299	4.68
450.656	4.92
451.014	4.92
451.371	4.82
451.729	4.87
452.086	4.9
452.443	4.76
452.801	4.93
453.158	4.78
453.515	4.96
453.872	4.74
454.229	4.86
454.586	4.88
454.943	4.94
455.3	4.88
455.657	4.96
456.014	4.97
456.371	4.91
456.727	5.05
457.084	4.69
457.441	5.06
457.797	4.92
458.154	4.97
458.51	4.97
458.867	4.91
459.223	4.93
459.58	5.03
459.936	4.93
460.292	4.81
460.648	4.94
461.005	4.84
461.361	4.86
461.717	4.8
462.073	4.87
462.429	4.84
462.785	4.85
463.141	4.9
463.496	4.9
463.852	5.11
464.208	5.02
464.564	5.02
464.919	4.92
465.275	4.99
465.631	4.95
465.986	5.11
466.342	5.01
466.697	4.97
467.052	5
467.408	5
467.763	5
468.118	5.14
468.473	4.96
468.829	5.07
469.184	4.95
469.539	5.25
469.894	5.09
470.249	5.17
470.603	4.95
470.958	5.13
471.313	5.22
471.668	5.23
472.023	5.08
472.377	5.23
472.732	5.03
473.086	5.06
473.441	5.2
473.795	5.11
474.15	5.14
474.504	5.31
474.859	5.21
475.213	5.3
475.567	5.21
475.921	5.24
476.275	5.31
476.63	5.23
476.984	5.35
477.338	5.38
477.692	5.02
478.045	5.1
478.399	5.19
478.753	5.17
479.107	5.14
479.461	5.14
479.814	5.02
480.168	5.24
480.521	5.14
480.875	5.41
481.228	5.17
481.582	5.2
481.935	5.12
482.289	5.08
482.642	5.29
482.995	5.13
483.348	5.17
483.701	5.14
484.055	5.1
484.408	5.17
484.761	5.08
485.114	4.94
485.466	4.89
485.819	4.9
486.172	4.91
486.525	5.02
486.878	5.04
487.23	5.04
487.583	5.16
487.936	5.14
488.288	5.18
488.641	5.09
488.993	5.07
489.345	5.04
489.698	5.1
490.05	5.11
490.402	5.13
490.754	5.18
491.107	5.18
491.459	5.22
491.811	5.3
492.163	5.4
492.515	5.29
492.866	5.21
493.218	5.14
493.57	5.15
493.922	5.21
494.274	5.27
494.625	5.33
494.977	5.41
495.328	5.46
495.68	5.48
496.031	5.41
496.383	5.53
496.734	5.48
497.086	5.51
497.437	5.5
497.788	5.5
498.139	5.4
498.49	5.51
498.842	5.38
499.193	5.54
499.544	5.55
499.894	5.39
500.245	5.51
500.596	5.64
500.947	5.54
501.298	5.49
501.648	5.52
501.999	5.61
502.35	5.82
502.7	5.66
503.051	5.72
503.401	5.66
503.752	5.64
504.102	5.69
504.452	5.69
504.803	5.79
505.153	5.68
505.503	5.71
505.853	5.68
506.203	5.82
506.553	5.62
506.903	5.71
507.253	5.71
507.603	5.83
507.953	5.75
508.303	5.66
508.652	5.82
509.002	5.78
509.352	5.78
509.701	5.77
510.051	5.73
510.4	5.75
510.75	5.77
511.099	5.59
511.449	5.83
511.798	5.79
512.147	5.81
512.496	5.73
512.846	5.89
513.195	5.84
513.544	5.88
513.893	5.83
514.242	5.85
514.591	5.89
514.939	5.93
515.288	5.94
515.637	5.96
515.986	5.92
516.334	5.93
516.683	5.93
517.032	6
517.38	6
517.729	6.14
518.077	6.02
518.426	6.1
518.774	6.02
519.122	6.05
519.47	6
519.819	5.95
520.167	5.91
520.515	5.93
520.863	5.97
521.211	5.99
521.559	6.02
521.907	6.07
522.255	6.04
522.602	6.18
522.95	6.03
523.298	6.19
523.645	6.15
523.993	6.21
524.341	6.22
524.688	6.2
525.036	6.31
525.383	6.24
525.73	6.26
526.078	6.15
526.425	6.11
526.772	6.33
527.119	6.16
527.466	6.14
527.814	6.21
528.161	6.27
528.508	6.18
528.854	6.16
529.201	6.27
529.548	6.2
529.895	6.03
530.242	6.02
530.588	6.03
530.935	6.05
531.282	6.12
531.628	6.21
531.975	6.34
532.321	6.27
532.667	6.33
533.014	6.41
533.36	6.41
533.706	6.44
534.052	6.44
534.399	6.42
534.745	6.37
535.091	6.31
535.437	6.33
535.783	6.37
536.129	6.46
536.474	6.54
536.82	6.5
537.166	6.65
537.512	6.63
537.857	6.65
538.203	6.5
538.549	6.66
538.894	6.63
539.239	6.67
539.585	6.68
539.93	6.74
540.276	6.87
540.621	6.87
540.966	6.95
541.311	6.82
541.656	6.89
542.001	6.83
542.346	6.72
542.691	6.64
543.036	6.55
543.381	6.6
543.726	6.65
544.071	6.72
544.415	6.85
544.76	6.83
545.105	6.8
545.449	6.89
545.794	6.96
546.138	7.04
546.483	6.97
546.827	7.03
547.171	7.13
547.516	6.98
547.86	7.05
548.204	7.17
548.548	7.08
548.892	7.1
549.236	7.15
549.58	7.26
549.924	7.21
550.268	7.32
550.612	7.48
550.956	7.5
551.3	7.35
551.643	7.34
551.987	7.55
552.33	7.52
552.674	7.32
553.017	7.66
553.361	7.63
553.704	7.48
554.048	7.64
554.391	7.73
554.734	7.61
555.077	7.63
555.42	7.52
555.764	7.62
556.107	7.68
556.45	7.82
556.793	7.73
557.135	7.73
557.478	7.87
557.821	7.9
558.164	7.81
558.507	7.88
558.849	7.94
559.192	7.82
559.534	8.11
559.877	8.11
560.219	8
560.562	7.88
560.904	8.04
561.246	8
561.589	8.02
561.931	7.96
562.273	8.14
562.615	8.01
562.957	8.04
563.299	8.1
563.641	8
563.983	8.15
564.325	8.19
564.667	8.45
565.008	8.34
565.35	8.36
565.692	8.08
566.033	8.38
566.375	8.39
566.716	8.53
567.058	8.39
567.399	8.51
567.741	8.62
568.082	8.4
568.423	8.41
568.764	8.51
569.105	8.33
569.447	8.48
569.788	8.51
570.129	8.47
570.47	8.69
570.811	8.64
571.151	8.9
571.492	8.64
571.833	8.62
572.174	8.83
572.514	8.88
572.855	8.72
573.195	8.65
573.536	8.87
573.876	8.79
574.217	8.98
574.557	8.84
574.898	9.02
575.238	8.88
575.578	9
575.918	9.05
576.258	9.1
576.598	8.98
576.938	9.07
577.278	9.02
577.618	9.1
577.958	9.07
578.298	9.32
578.638	9.28
578.977	9.37
579.317	9.45
579.657	9.26
579.996	9.34
580.336	9.36
580.675	9.67
581.014	9.33
581.354	9.36
581.693	9.53
582.032	9.63
582.372	9.65
582.711	9.55
583.05	9.54
583.389	9.75
583.728	9.72
584.067	9.99
584.406	9.76
584.745	9.91
585.083	9.8
585.422	9.89
585.761	9.95
586.1	9.67
586.438	10.04
586.777	9.85
587.115	10
587.454	10.07
587.792	10.15
588.13	10.08
588.469	10.01
588.807	10.19
589.145	10.22
589.483	10.41
589.821	10.3
590.159	10.5
590.497	10.37
590.835	10.59
591.173	10.37
591.511	10.14
591.849	10.33
592.187	10.39
592.524	10.51
592.862	10.53
593.2	10.66
593.537	10.57
593.875	10.73
594.212	10.56
594.55	10.71
594.887	10.8
595.224	10.68
595.561	10.7
595.899	10.66
596.236	10.78
596.573	10.84
596.91	10.85
597.247	11.1
597.584	10.91
597.921	11.11
598.258	10.93
598.594	10.97
598.931	10.88
599.268	10.94
599.604	11.11
599.941	11.1
600.277	11.22
600.614	11.33
600.95	11.02
601.287	11.32
601.623	11.66
601.959	11.47
602.296	11.28
602.632	11.33
602.968	11.39
603.304	11.53
603.64	11.67
603.976	11.62
604.312	11.55
604.648	11.56
604.984	11.69
605.319	11.75
605.655	11.65
605.991	11.66
606.326	11.95
606.662	11.7
606.998	11.81
607.333	11.8
607.668	11.77
608.004	11.85
608.339	11.93
608.674	12.25
609.01	12.02
609.345	12.11
609.68	12.06
610.015	12.28
610.35	12.04
610.685	12.37
611.02	12.13
611.355	12.27
611.689	12.13
612.024	12.14
612.359	12.32
612.694	12.17
613.028	12.57
613.363	12.68
613.697	12.86
614.032	12.76
614.366	12.39
614.7	12.75
615.035	12.62
615.369	12.58
615.703	12.99
616.037	12.87
616.371	12.81
616.705	12.76
617.039	12.85
617.373	12.99
617.707	12.91
618.041	12.97
618.375	12.93
618.709	13.15
619.042	13.15
619.376	13.44
619.71	13.41
620.043	13.28
620.377	13.1
620.71	13.17
621.043	13.42
621.377	13.5
621.71	13.07
622.043	13.56
622.376	13.4
622.709	13.62
623.043	13.64
623.376	13.42
623.709	14.03
624.041	13.95
624.374	13.55
624.707	13.99
625.04	13.89
625.373	13.77
625.705	13.92
626.038	13.85
626.37	13.86
626.703	13.61
627.035	14.15
627.368	13.79
627.7	14.19
628.032	14.25
628.365	14.08
628.697	14.43
629.029	13.89
629.361	14.51
629.693	14.13
630.025	14.3
630.357	14.47
630.689	14.39
631.021	14.43
631.353	15.01
631.684	14.39
632.016	14.47
632.348	14.44
632.679	14.45
633.011	14.84
633.342	14.99
633.674	14.82
634.005	14.96
634.336	15.02
634.668	14.87
634.999	14.76
635.33	14.99
635.661	15.31
635.992	15.14
636.323	14.99
636.654	14.98
636.985	15.13
637.316	14.79
637.647	15.51
637.977	15.33
638.308	15.32
638.639	15.09
638.969	15.33
639.3	15.54
639.63	15.7
639.961	15.24
640.291	15.94
640.622	15.54
640.952	15.91
641.282	15.33
641.612	15.44
641.943	15.84
642.273	15.59
642.603	15.96
642.933	15.96
643.263	15.78
643.592	16.3
643.922	16.23
644.252	16.39
644.582	15.96
644.911	16.1
645.241	16.19
645.571	16.14
645.9	16.33
646.23	16.61
646.559	16.51
646.888	16.05
647.218	16.57
647.547	16.6
647.876	16.61
648.205	16.72
648.534	16.33
648.863	16.67
649.192	16.72
649.521	17
649.85	16.91
650.179	16.1
650.508	17.04
650.837	16.8
651.165	16.72
651.494	17.02
651.822	16.75
652.151	16.64
652.479	16.35
652.808	16.88
653.136	17.05
653.465	17.16
653.793	17.22
654.121	17.47
654.449	17.43
654.777	17.99
655.105	17.03
655.433	17.24
655.761	17.45
656.089	17.52
656.417	17.3
656.745	17.62
657.073	17.62
657.4	17.75
657.728	17.72
658.056	17.67
658.383	17.41
658.711	17.35
659.038	17.94
659.365	18.31
659.693	17.96
660.02	18.16
660.347	17.96
660.674	17.84
661.001	18.11
661.329	18.09
661.656	18.1
661.982	18.34
662.309	18.15
662.636	19
662.963	18.75
663.29	18.53
663.616	18.05
663.943	18.38
664.27	18.3
664.596	18.79
664.923	18.49
665.249	18.73
665.576	18.93
665.902	18.8
666.228	18.96
666.554	17.88
666.881	18.68
667.207	18.84
667.533	18.97
667.859	19.08
668.185	19.39
668.511	18.91
668.837	18.89
669.162	18.98
669.488	19.02
669.814	19.38
670.139	19.17
670.465	19.23
670.791	19.19
671.116	19.1
671.442	19.47
671.767	19.72
672.092	19.34
672.418	19.62
672.743	19.33
673.068	19.44
673.393	19.96
673.718	19.34
674.043	19.72
674.368	19.69
674.693	18.53
675.018	19.93
675.343	19.66
675.667	20.14
675.992	20.74
676.317	19.63
676.641	19.86
676.966	20.61
677.29	20.14
677.615	20.25
677.939	20.92
678.264	20.43
678.588	20
678.912	20.37
679.236	20.46
679.56	20.79
679.885	20.03
680.209	20.14
680.532	20.42
680.856	21.43
681.18	20.69
681.504	20.35
681.828	20.6
682.152	21.31
682.475	20.61
682.799	20.38
683.122	20.73
683.446	21.03
683.769	20.84
684.093	21.2
684.416	21.29
684.739	21.2
685.062	20.67
685.386	21.18
685.709	21.17
686.032	21.01
