Data from 20-6_forehead_Reflection__1__132.txt Node

Date: Fri Nov 11 21:08:04 CST 2022
User: ToomeyLab
Spectrometer: FLMS14357
Trigger mode: 0
Integration Time (sec): 1.000000E-2
Scans to average: 100
Electric dark correction enabled: true
Nonlinearity correction enabled: false
Boxcar width: 0
XAxis mode: Wavelengths
Number of Pixels in Spectrum: 2048
>>>>>Begin Spectral Data<<<<<
189.047	-84.98
189.435	-84.98
189.823	-84.98
190.211	-975.68
190.599	-103.99
190.987	58.22
191.375	81.13
191.763	-240.4
192.151	-397.14
192.538	122.98
192.926	124.84
193.314	153.56
193.702	174.78
194.089	-298.58
194.477	81.92
194.864	39.1
195.252	55.57
195.639	86.59
196.027	65.54
196.414	72.49
196.801	127.2
197.189	203.74
197.576	1908.51
197.963	43.82
198.351	-46.11
198.738	-30.16
199.125	44.17
199.512	24.13
199.899	-75.37
200.286	-9.52
200.673	13.17
201.06	32.52
201.447	0.34
201.833	12.29
202.22	-40.38
202.607	9.61
202.994	33.78
203.38	20.86
203.767	44.51
204.154	27.74
204.54	-17.37
204.927	5.31
205.313	-0.9
205.699	-6.92
206.086	17.39
206.472	26
206.858	24.3
207.245	37.68
207.631	9.32
208.017	8.55
208.403	-17.58
208.789	-8.62
209.175	20.29
209.561	41.97
209.947	15.74
210.333	-1.88
210.719	-12.99
211.105	63.27
211.491	4.5
211.876	21.81
212.262	54.24
212.648	4.02
213.034	-12.06
213.419	-19.29
213.805	-34.01
214.19	28.11
214.576	28.13
214.961	-50.38
215.346	-18.66
215.732	-40.33
216.117	46.47
216.502	43.84
216.888	7.38
217.273	-0.96
217.658	-25.18
218.043	3.41
218.428	5.37
218.813	1.54
219.198	-3.47
219.583	-2.59
219.968	14.86
220.353	12.18
220.738	1.56
221.122	-1.51
221.507	-10.3
221.892	4.44
222.276	15.42
222.661	21.49
223.046	-7.62
223.43	-0.06
223.815	12.47
224.199	10.41
224.583	-4.83
224.968	-2.11
225.352	-2.65
225.736	5.7
226.121	2.38
226.505	5.64
226.889	-5.54
227.273	5.33
227.657	-3.08
228.041	1.28
228.425	0.91
228.809	2.98
229.193	7.25
229.577	2.59
229.961	3.34
230.344	2.37
230.728	2.06
231.112	1.41
231.495	1.96
231.879	1.94
232.263	2.23
232.646	1.35
233.03	2.82
233.413	3.67
233.797	2.01
234.18	4.14
234.563	3.19
234.946	3.15
235.33	2.91
235.713	2.83
236.096	2.83
236.479	3.39
236.862	4.06
237.245	1.14
237.628	4.16
238.011	3.82
238.394	2.47
238.777	2.52
239.16	4.75
239.543	2.76
239.925	2.65
240.308	1.43
240.691	2.56
241.073	2.01
241.456	0.74
241.838	3.94
242.221	2.29
242.603	3.49
242.986	2.76
243.368	2.72
243.75	2.82
244.133	3.04
244.515	2.57
244.897	3.38
245.279	2.05
245.661	2.73
246.043	3.03
246.425	3.1
246.807	2.35
247.189	2.58
247.571	3.07
247.953	3.01
248.335	2.74
248.717	2.87
249.098	3.21
249.48	2.71
249.862	2.92
250.243	2.94
250.625	2.9
251.006	3.48
251.388	3.17
251.769	2.8
252.151	3.16
252.532	2.95
252.913	3.6
253.295	2.97
253.676	2.42
254.057	2.73
254.438	2.94
254.819	2.42
255.2	3.46
255.581	2.04
255.962	2.48
256.343	2.78
256.724	3.43
257.105	3.13
257.486	1.85
257.867	3.52
258.247	2.11
258.628	3.08
259.009	2.73
259.389	2.92
259.77	3.89
260.15	2.72
260.531	2.85
260.911	2.95
261.292	2.85
261.672	2.54
262.052	2.55
262.432	2.87
262.813	3.37
263.193	3.03
263.573	2.7
263.953	3.1
264.333	3.03
264.713	2.74
265.093	2.76
265.473	1.8
265.853	2.76
266.233	3.25
266.612	1.8
266.992	2.42
267.372	3.1
267.752	2.53
268.131	2.81
268.511	2.57
268.89	2.64
269.27	2.58
269.649	2.51
270.029	2.85
270.408	2.52
270.787	2.16
271.167	2.17
271.546	2.35
271.925	3.11
272.304	2.59
272.683	2.39
273.062	2.93
273.441	2.67
273.82	2.59
274.199	2.45
274.578	2.22
274.957	2.53
275.336	3.49
275.715	2.92
276.093	2.12
276.472	2.17
276.851	2.68
277.229	2.84
277.608	2.66
277.986	2.88
278.365	2.2
278.743	2.59
279.122	2.94
279.5	2.47
279.878	3.09
280.257	2.93
280.635	2.13
281.013	2.73
281.391	2.57
281.769	2.92
282.147	2.48
282.525	2.17
282.903	2.8
283.281	2.66
283.659	2.91
284.037	2.55
284.415	2.79
284.792	2.52
285.17	2.95
285.548	2.6
285.925	3.11
286.303	2.4
286.68	3.22
287.058	2.54
287.435	2.55
287.813	2.83
288.19	2.65
288.567	2.83
288.945	3.39
289.322	3.04
289.699	2.13
290.076	3.34
290.453	3.07
290.83	2.97
291.207	3.06
291.584	2.98
291.961	3.15
292.338	2.88
292.715	3.08
293.092	3.23
293.469	2.96
293.845	3.3
294.222	2.72
294.599	2.98
294.975	3.2
295.352	3.21
295.728	3.34
296.105	2.99
296.481	3.14
296.858	3.17
297.234	3.12
297.61	3
297.986	3.35
298.363	3.33
298.739	3.26
299.115	3.48
299.491	3.46
299.867	3.43
300.243	3.32
300.619	3.37
300.995	3.77
301.371	4.34
301.746	3.58
302.122	3.98
302.498	3.98
302.874	3.36
303.249	3.52
303.625	3.51
304	3.38
304.376	3.82
304.751	3.34
305.127	3.93
305.502	4.08
305.878	4.55
306.253	4.23
306.628	4.06
307.003	4.02
307.378	3.95
307.754	4.52
308.129	4.31
308.504	4.31
308.879	4.83
309.254	4.58
309.629	4.42
310.003	4.12
310.378	4.5
310.753	4.68
311.128	4.81
311.502	4.57
311.877	4.12
312.252	4.61
312.626	4.36
313.001	4.44
313.375	4.35
313.75	4.39
314.124	4.45
314.498	4.51
314.873	4.59
315.247	5.11
315.621	4.73
315.995	4.93
316.369	4.92
316.743	5.18
317.117	4.87
317.491	4.89
317.865	4.66
318.239	5.28
318.613	5.38
318.987	5.49
319.361	5.15
319.734	5.12
320.108	5.2
320.482	5.5
320.855	5.44
321.229	5.4
321.602	5.66
321.976	5.3
322.349	5.55
322.723	5.81
323.096	5.78
323.469	5.98
323.843	6.18
324.216	5.19
324.589	5.35
324.962	6.07
325.335	5.67
325.708	5.65
326.081	6.18
326.454	5.65
326.827	5.66
327.2	6.4
327.573	6.91
327.945	6.11
328.318	5.99
328.691	6.13
329.063	6.66
329.436	5.72
329.809	5.89
330.181	5.74
330.553	5.78
330.926	6.14
331.298	6.31
331.671	6.35
332.043	6.07
332.415	6.13
332.787	6.98
333.159	6.46
333.532	6.78
333.904	6.55
334.276	6.92
334.648	6.21
335.02	6.52
335.391	6.63
335.763	7.05
336.135	6.36
336.507	6.68
336.879	7.15
337.25	6.5
337.622	7.03
337.993	6.9
338.365	7.52
338.736	7.12
339.108	7.09
339.479	6.84
339.851	7.09
340.222	6.89
340.593	7.12
340.964	6.7
341.336	7.36
341.707	6.99
342.078	6.96
342.449	7.3
342.82	7.48
343.191	7.5
343.562	6.93
343.933	7.54
344.303	6.76
344.674	7.48
345.045	7.07
345.416	7.56
345.786	6.86
346.157	7.22
346.527	7.47
346.898	7.09
347.268	7.52
347.639	7.67
348.009	7.62
348.38	7.89
348.75	7.72
349.12	8.28
349.49	8.1
349.861	7.57
350.231	7.85
350.601	7.63
350.971	7.85
351.341	8.12
351.711	7.76
352.081	8.02
352.45	7.79
352.82	7.41
353.19	8.06
353.56	7.55
353.929	7.76
354.299	7.89
354.669	8.25
355.038	8.17
355.408	8.13
355.777	8.36
356.147	8.09
356.516	8.28
356.885	8.22
357.254	8.16
357.624	7.92
357.993	8.17
358.362	8.3
358.731	7.78
359.1	8.23
359.469	8.24
359.838	8.21
360.207	8.36
360.576	8.29
360.945	8.17
361.314	8.2
361.682	8.37
362.051	8.29
362.42	8.71
362.788	8.52
363.157	8.46
363.525	8.52
363.894	8.47
364.262	8.69
364.631	8.87
364.999	8.71
365.367	8.89
365.735	8.83
366.104	8.69
366.472	8.75
366.84	8.56
367.208	8.86
367.576	9.06
367.944	9.1
368.312	8.65
368.68	8.84
369.048	8.98
369.416	8.9
369.783	8.95
370.151	9
370.519	9.14
370.886	8.74
371.254	9.45
371.621	8.98
371.989	9.14
372.356	9.45
372.724	9.41
373.091	9.27
373.458	9.23
373.826	8.86
374.193	9.07
374.56	9.31
374.927	9.16
375.294	9.63
375.661	9.83
376.028	8.93
376.395	9.44
376.762	9.73
377.129	9.64
377.496	9.36
377.863	9.74
378.229	9.53
378.596	9.54
378.963	9.54
379.329	9.79
379.696	9.5
380.062	9.84
380.429	9.85
380.795	10
381.161	9.85
381.528	9.7
381.894	9.64
382.26	9.97
382.626	9.95
382.993	9.77
383.359	10.19
383.725	9.84
384.091	9.8
384.457	10.08
384.823	9.98
385.188	10.2
385.554	9.99
385.92	9.76
386.286	9.88
386.651	10.02
387.017	10.07
387.383	10.37
387.748	9.71
388.114	9.85
388.479	10.09
388.845	10.11
389.21	10.01
389.575	10.23
389.94	10.28
390.306	10.34
390.671	10.22
391.036	10.1
391.401	10.37
391.766	10.51
392.131	10.18
392.496	10.31
392.861	9.97
393.226	10.12
393.591	10.01
393.956	10.12
394.32	10.19
394.685	10.21
395.05	10.39
395.414	10.05
395.779	10.32
396.143	10.2
396.508	10.6
396.872	10.51
397.236	10.31
397.601	10.46
397.965	10.43
398.329	10.38
398.694	10.65
399.058	10.47
399.422	10.44
399.786	10.28
400.15	10.45
400.514	10.48
400.878	10.42
401.242	10.48
401.605	10.54
401.969	10.52
402.333	10.24
402.697	10.54
403.06	10.75
403.424	10.49
403.787	10.54
404.151	10.57
404.514	10.53
404.878	10.58
405.241	10.57
405.604	10.54
405.968	10.62
406.331	10.32
406.694	10.43
407.057	10.59
407.42	10.64
407.783	10.65
408.146	10.68
408.509	10.83
408.872	10.38
409.235	10.87
409.598	10.69
409.961	10.96
410.323	10.54
410.686	10.72
411.049	10.66
411.411	10.77
411.774	10.6
412.136	10.67
412.499	10.7
412.861	11
413.223	10.56
413.586	10.92
413.948	10.9
414.31	10.87
414.672	10.94
415.035	10.88
415.397	10.82
415.759	10.8
416.121	10.8
416.483	10.6
416.845	10.82
417.206	10.94
417.568	10.67
417.93	10.9
418.292	10.77
418.653	11.02
419.015	10.98
419.377	10.9
419.738	10.95
420.1	10.92
420.461	10.95
420.822	10.96
421.184	10.91
421.545	11.09
421.906	11.13
422.267	10.93
422.629	10.89
422.99	11.14
423.351	11.11
423.712	11.03
424.073	11.19
424.434	11.35
424.795	11.37
425.155	11.27
425.516	11.35
425.877	11.32
426.238	11.35
426.598	11.44
426.959	11.58
427.32	11.57
427.68	11.75
428.041	11.9
428.401	11.68
428.761	12.04
429.122	11.97
429.482	12.16
429.842	12.08
430.202	12.13
430.563	12.28
430.923	12.24
431.283	12.26
431.643	12.31
432.003	12.63
432.363	12.57
432.722	12.66
433.082	12.57
433.442	12.55
433.802	12.68
434.161	12.66
434.521	12.68
434.881	12.64
435.24	12.73
435.6	12.6
435.959	12.83
436.319	12.85
436.678	12.9
437.037	13.01
437.396	12.96
437.756	13.01
438.115	13.14
438.474	13.12
438.833	13.2
439.192	13.34
439.551	13.18
439.91	13.36
440.269	13.23
440.628	13.51
440.987	13.42
441.345	13.41
441.704	13.37
442.063	13.35
442.421	13.51
442.78	13.32
443.138	13.59
443.497	13.51
443.855	13.73
444.214	13.69
444.572	13.91
444.93	13.82
445.288	13.86
445.647	13.91
446.005	13.96
446.363	13.99
446.721	13.85
447.079	13.88
447.437	13.89
447.795	13.91
448.153	13.79
448.51	13.82
448.868	14.02
449.226	13.9
449.584	14.28
449.941	14.2
450.299	14.19
450.656	14.54
451.014	14.36
451.371	14.62
451.729	14.42
452.086	14.58
452.443	14.73
452.801	14.76
453.158	14.76
453.515	14.67
453.872	14.54
454.229	14.69
454.586	14.79
454.943	14.82
455.3	14.91
455.657	15.05
456.014	15.11
456.371	15.12
456.727	15.08
457.084	14.99
457.441	15.22
457.797	15.14
458.154	15.26
458.51	15.16
458.867	15.24
459.223	15.54
459.58	15.56
459.936	15.27
460.292	15.4
460.648	15.4
461.005	15.32
461.361	15.23
461.717	15.25
462.073	15.35
462.429	15.41
462.785	15.46
463.141	15.63
463.496	15.74
463.852	16.03
464.208	15.88
464.564	15.97
464.919	16.02
465.275	15.92
465.631	16.11
465.986	16.37
466.342	16.2
466.697	16.16
467.052	16.26
467.408	16.2
467.763	16.27
468.118	16.26
468.473	16.49
468.829	16.54
469.184	16.43
469.539	16.49
469.894	16.64
470.249	16.74
470.603	16.6
470.958	16.64
471.313	16.77
471.668	16.76
472.023	16.6
472.377	16.8
472.732	16.84
473.086	16.7
473.441	17.01
473.795	16.88
474.15	16.93
474.504	17
474.859	16.93
475.213	17.19
475.567	17.02
475.921	17.18
476.275	17.18
476.63	17.31
476.984	17.41
477.338	17.31
477.692	17.24
478.045	17.19
478.399	17.4
478.753	17.27
479.107	17.31
479.461	17.35
479.814	17.45
480.168	17.37
480.521	17.56
480.875	17.59
481.228	17.5
481.582	17.51
481.935	17.49
482.289	17.6
482.642	17.67
482.995	17.63
483.348	17.55
483.701	17.54
484.055	17.41
484.408	17.39
484.761	17.21
485.114	17.01
485.466	16.96
485.819	17.02
486.172	17.03
486.525	17.13
486.878	17.26
487.23	17.32
487.583	17.54
487.936	17.54
488.288	17.61
488.641	17.41
488.993	17.37
489.345	17.31
489.698	17.43
490.05	17.5
490.402	17.52
490.754	17.7
491.107	17.77
491.459	17.94
491.811	18.13
492.163	18.16
492.515	18.04
492.866	17.93
493.218	17.72
493.57	17.79
493.922	17.81
494.274	18.03
494.625	18.12
494.977	18.34
495.328	18.43
495.68	18.66
496.031	18.76
496.383	18.8
496.734	18.97
497.086	18.8
497.437	18.85
497.788	18.76
498.139	18.84
498.49	18.78
498.842	18.75
499.193	18.92
499.544	19.02
499.894	18.83
500.245	19.07
500.596	19.06
500.947	19.13
501.298	19.3
501.648	19.23
501.999	19.33
502.35	19.43
502.7	19.3
503.051	19.41
503.401	19.5
503.752	19.27
504.102	19.36
504.452	19.5
504.803	19.62
505.153	19.31
505.503	19.65
505.853	19.6
506.203	19.58
506.553	19.43
506.903	19.7
507.253	19.56
507.603	19.82
507.953	19.75
508.303	19.73
508.652	19.84
509.002	19.76
509.352	19.77
509.701	19.79
510.051	19.66
510.4	19.68
510.75	19.65
511.099	19.55
511.449	19.77
511.798	19.7
512.147	19.69
512.496	19.77
512.846	20.05
513.195	19.89
513.544	19.81
513.893	19.87
514.242	19.84
514.591	19.95
514.939	19.9
515.288	20.04
515.637	20.1
515.986	20.2
516.334	20.26
516.683	20.24
517.032	20.3
517.38	20.2
517.729	20.34
518.077	20.17
518.426	20.17
518.774	20.15
519.122	20.28
519.47	20.2
519.819	20.03
520.167	20.05
520.515	19.91
520.863	20.06
521.211	19.94
521.559	20.07
521.907	20.21
522.255	20.15
522.602	20.31
522.95	20.3
523.298	20.52
523.645	20.43
523.993	20.65
524.341	20.61
524.688	20.69
525.036	20.55
525.383	20.66
525.73	20.51
526.078	20.4
526.425	20.42
526.772	20.35
527.119	20.23
527.466	20.3
527.814	20.29
528.161	20.34
528.508	20.3
528.854	20.29
529.201	20.36
529.548	20.1
529.895	19.96
530.242	19.83
530.588	19.85
530.935	19.92
531.282	19.95
531.628	20.01
531.975	20.18
532.321	20.22
532.667	20.38
533.014	20.52
533.36	20.65
533.706	20.61
534.052	20.58
534.399	20.55
534.745	20.43
535.091	20.34
535.437	20.34
535.783	20.46
536.129	20.48
536.474	20.76
536.82	20.69
537.166	20.87
537.512	20.91
537.857	20.87
538.203	20.73
538.549	20.87
538.894	20.93
539.239	20.93
539.585	21.07
539.93	21.09
540.276	21.25
540.621	21.35
540.966	21.43
541.311	21.25
541.656	21.39
542.001	21.19
542.346	21.14
542.691	20.88
543.036	20.63
543.381	20.7
543.726	20.82
544.071	20.86
544.415	21.04
544.76	21.16
545.105	21.2
545.449	21.2
545.794	21.53
546.138	21.47
546.483	21.53
546.827	21.74
547.171	21.74
547.516	21.54
547.86	21.73
548.204	21.59
548.548	21.71
548.892	21.74
549.236	21.75
549.58	21.89
549.924	22.04
550.268	22.19
550.612	22.11
550.956	22.26
551.3	22.45
551.643	22.21
551.987	22.25
552.33	22.48
552.674	22.45
553.017	22.72
553.361	22.71
553.704	22.68
554.048	22.31
554.391	22.4
554.734	22.54
555.077	22.5
555.42	22.51
555.764	22.73
556.107	22.54
556.45	22.78
556.793	22.72
557.135	22.81
557.478	22.91
557.821	22.9
558.164	22.94
558.507	22.91
558.849	23.08
559.192	23.06
559.534	23.11
559.877	23.11
560.219	23.03
560.562	23.12
560.904	23.23
561.246	22.84
561.589	23.19
561.931	23.14
562.273	23.18
562.615	23.09
562.957	23.21
563.299	23.11
563.641	22.93
563.983	23.32
564.325	23.13
564.667	23.44
565.008	23.48
565.35	23.24
565.692	23.11
566.033	23.37
566.375	23.32
566.716	23.39
567.058	23.38
567.399	23.55
567.741	23.33
568.082	23.49
568.423	23.36
568.764	23.45
569.105	23.28
569.447	23.42
569.788	23.53
570.129	23.52
570.47	23.66
570.811	23.7
571.151	23.98
571.492	23.71
571.833	23.75
572.174	23.87
572.514	23.84
572.855	23.8
573.195	23.74
573.536	23.95
573.876	23.75
574.217	23.98
574.557	23.93
574.898	23.88
575.238	24
575.578	24.05
575.918	24.16
576.258	24.14
576.598	24.33
576.938	24.17
577.278	24.12
577.618	24.25
577.958	24.47
578.298	24.26
578.638	24.28
578.977	24.5
579.317	24.58
579.657	24.53
579.996	24.42
580.336	24.61
580.675	24.98
581.014	24.72
581.354	24.85
581.693	24.79
582.032	24.99
582.372	24.66
582.711	24.98
583.05	24.82
583.389	25.05
583.728	24.99
584.067	24.97
584.406	25.11
584.745	25.05
585.083	24.92
585.422	24.9
585.761	25.2
586.1	25.23
586.438	25.47
586.777	25.25
587.115	25.26
587.454	25.33
587.792	25.34
588.13	25.51
588.469	25.4
588.807	25.7
589.145	25.57
589.483	25.66
589.821	25.53
590.159	25.53
590.497	25.78
590.835	25.63
591.173	25.58
591.511	25.65
591.849	25.68
592.187	25.62
592.524	25.58
592.862	25.91
593.2	25.97
593.537	25.76
593.875	26.04
594.212	25.97
594.55	26.02
594.887	26.05
595.224	25.85
595.561	26.19
595.899	25.87
596.236	25.98
596.573	26.06
596.91	26.04
597.247	26.08
597.584	26.01
597.921	26.3
598.258	26.23
598.594	26.13
598.931	26.29
599.268	26.22
599.604	26.16
599.941	26.24
600.277	26.34
600.614	26.52
600.95	26.41
601.287	26.56
601.623	27
601.959	26.74
602.296	26.57
602.632	26.74
602.968	26.97
603.304	26.75
603.64	26.75
603.976	26.77
604.312	26.88
604.648	26.66
604.984	26.97
605.319	27.03
605.655	26.82
605.991	26.73
606.326	26.64
606.662	26.81
606.998	26.99
607.333	26.86
607.668	26.87
608.004	27.08
608.339	27.05
608.674	27
609.01	27.44
609.345	27.28
609.68	27.07
610.015	27.33
610.35	27.2
610.685	27.32
611.02	27.07
611.355	27.16
611.689	27.37
612.024	27.21
612.359	27.31
612.694	27.24
613.028	27.51
613.363	27.68
613.697	27.56
614.032	27.63
614.366	27.57
614.7	27.35
615.035	27.71
615.369	27.57
615.703	27.77
616.037	28.07
616.371	28.08
616.705	28.21
617.039	27.79
617.373	28.14
617.707	27.73
618.041	28.46
618.375	27.99
618.709	28.16
619.042	28.16
619.376	28.07
619.71	28.19
620.043	28.39
620.377	27.91
620.71	28.44
621.043	28.07
621.377	28.32
621.71	27.97
622.043	28.14
622.376	28.4
622.709	28.49
623.043	28.38
623.376	28.43
623.709	28.33
624.041	28.65
624.374	28.34
624.707	28.58
625.04	28.41
625.373	28.77
625.705	28.57
626.038	28.98
626.37	28.51
626.703	28.4
627.035	28.89
627.368	28.42
627.7	28.76
628.032	28.84
628.365	29.05
628.697	28.81
629.029	28.81
629.361	29.03
629.693	28.95
630.025	28.73
630.357	29.17
630.689	29.01
631.021	28.87
631.353	28.84
631.684	28.94
632.016	28.81
632.348	28.94
632.679	29.48
633.011	29.49
633.342	29.26
633.674	29.2
634.005	29.42
634.336	29.47
634.668	29.15
634.999	29.61
635.33	29.7
635.661	29.68
635.992	29.8
636.323	29.48
636.654	29.55
636.985	29.56
637.316	29.07
637.647	29.91
637.977	29.92
638.308	30.02
638.639	29.78
638.969	29.91
639.3	30.17
639.63	30.2
639.961	29.72
640.291	30.44
640.622	30.15
640.952	29.74
641.282	30.04
641.612	30.06
641.943	30.53
642.273	29.61
642.603	30.02
642.933	30.56
643.263	29.81
643.592	30.28
643.922	30.47
644.252	30.36
644.582	30.15
644.911	30.16
645.241	30.42
645.571	30.36
645.9	30.42
646.23	30.57
646.559	30.51
646.888	30.6
647.218	30.25
647.547	30.68
647.876	30.27
648.205	30.36
648.534	30.4
648.863	30.57
649.192	31.02
649.521	30.44
649.85	30.9
650.179	30.55
650.508	30.84
650.837	30.91
651.165	30.7
651.494	30.98
651.822	30.79
652.151	30.96
652.479	30.9
652.808	30.55
653.136	30.74
653.465	31.04
653.793	31.13
654.121	31.2
654.449	31.35
654.777	31.84
655.105	31.09
655.433	31.43
655.761	31.55
656.089	31.32
656.417	31.41
656.745	31.43
657.073	31.78
657.4	31.38
657.728	31.77
658.056	31.5
658.383	31.56
658.711	31.51
659.038	31.85
659.365	31.21
659.693	31.45
660.02	31.83
660.347	31.4
660.674	31.9
661.001	31.9
661.329	31.92
661.656	31.71
661.982	31.44
662.309	31.52
662.636	32.14
662.963	31.37
663.29	32.04
663.616	31.94
663.943	31.73
664.27	31.97
664.596	32.33
664.923	31.46
665.249	32.47
665.576	32.18
665.902	32.25
666.228	31.73
666.554	32.37
666.881	32.36
667.207	32.17
667.533	32.2
667.859	32.33
668.185	32.82
668.511	32.19
668.837	32.84
669.162	32.4
669.488	32.76
669.814	32.12
670.139	32.49
670.465	32.66
670.791	32.16
671.116	32.61
671.442	32.22
671.767	32.74
672.092	32.26
672.418	32.38
672.743	32.29
673.068	32.61
