Data from 0403_forehead_Reflection__0__177.txt Node

Date: Tue Dec 12 19:50:24 CST 2023
User: ToomeyLab
Spectrometer: FLMS14357
Trigger mode: 0
Integration Time (sec): 1.000000E-2
Scans to average: 100
Electric dark correction enabled: true
Nonlinearity correction enabled: false
Boxcar width: 0
XAxis mode: Wavelengths
Number of Pixels in Spectrum: 2048
>>>>>Begin Spectral Data<<<<<
189.047	-86.85
189.435	-86.85
189.823	-86.85
190.211	15.82
190.599	89.58
190.987	461.12
191.375	-38.71
191.763	-291.67
192.151	117.14
192.538	-7.41
192.926	222.41
193.314	-35.56
193.702	165.65
194.089	25.3
194.477	59.39
194.864	31.4
195.252	213.71
195.639	292.93
196.027	1001.57
196.414	47.24
196.801	-165.76
197.189	225.48
197.576	-183.89
197.963	38.35
198.351	-2.14
198.738	82.58
199.125	-21.08
199.512	9.32
199.899	20.83
200.286	14.79
200.673	-6.46
201.06	-43.52
201.447	-35.22
201.833	12.37
202.22	57.5
202.607	-136.08
202.994	13
203.38	40.71
203.767	13.97
204.154	16.18
204.54	44
204.927	9.31
205.313	44.95
205.699	-22.16
206.086	35.38
206.472	30.66
206.858	8.82
207.245	-12.56
207.631	31.46
208.017	-8.64
208.403	-43.83
208.789	34.88
209.175	14.22
209.561	18.07
209.947	-4.23
210.333	25.95
210.719	8.01
211.105	-73.41
211.491	16.72
211.876	33.05
212.262	33.67
212.648	-13.99
213.034	-63.76
213.419	-0.11
213.805	-9.43
214.19	-7.81
214.576	30.5
214.961	-35.75
215.346	13.47
215.732	35.42
216.117	-4.14
216.502	3.95
216.888	-14.73
217.273	0.86
217.658	-34.29
218.043	-16.02
218.428	1.04
218.813	-3.65
219.198	-20.61
219.583	2.32
219.968	44.32
220.353	16.82
220.738	9
221.122	-1.98
221.507	-11.8
221.892	-1.86
222.276	24.33
222.661	18.97
223.046	-17.42
223.43	15.7
223.815	-11.4
224.199	7.63
224.583	-8.2
224.968	14.1
225.352	-9.87
225.736	6.1
226.121	4.03
226.505	9.77
226.889	0.48
227.273	8.5
227.657	14.74
228.041	4.59
228.425	1.88
228.809	1.93
229.193	1.4
229.577	7.46
229.961	3.29
230.344	4.07
230.728	4.68
231.112	3.37
231.495	3.85
231.879	5.47
232.263	3.22
232.646	3.66
233.03	4.33
233.413	3.21
233.797	3.48
234.18	1.65
234.563	2.43
234.946	5.28
235.33	4.37
235.713	5.77
236.096	2.22
236.479	3.57
236.862	5.72
237.245	3.32
237.628	5.36
238.011	2.58
238.394	3.6
238.777	5.42
239.16	4.42
239.543	4.42
239.925	3.24
240.308	3.81
240.691	5.15
241.073	5.58
241.456	3.95
241.838	2.55
242.221	4.99
242.603	4.26
242.986	2.78
243.368	4
243.75	2.95
244.133	3.08
244.515	4.01
244.897	3.77
245.279	3.9
245.661	3.1
246.043	3
246.425	4.07
246.807	2.91
247.189	3.61
247.571	3.95
247.953	3.16
248.335	3.54
248.717	3.24
249.098	3.46
249.48	3.14
249.862	3.15
250.243	3.33
250.625	3.89
251.006	3.85
251.388	3.4
251.769	4.49
252.151	2.47
252.532	5.11
252.913	4.3
253.295	4.33
253.676	3.17
254.057	3.05
254.438	3.7
254.819	3.28
255.2	3.21
255.581	3.24
255.962	2.78
256.343	4
256.724	4.69
257.105	3.82
257.486	1.72
257.867	2.48
258.247	3.51
258.628	3.63
259.009	2.99
259.389	3.18
259.77	2.74
260.15	2.97
260.531	3.71
260.911	3.39
261.292	2.99
261.672	3.07
262.052	3.37
262.432	3.47
262.813	3.31
263.193	3.67
263.573	3.52
263.953	4.54
264.333	4.56
264.713	3.18
265.093	3.59
265.473	3.78
265.853	3.5
266.233	2.83
266.612	2.15
266.992	3.77
267.372	3.23
267.752	4.16
268.131	2.58
268.511	3.02
268.89	2.37
269.27	2.54
269.649	3.23
270.029	3.22
270.408	3.57
270.787	2.82
271.167	3.25
271.546	2.92
271.925	3.52
272.304	3.36
272.683	2.31
273.062	2.7
273.441	3.2
273.82	2.9
274.199	2.9
274.578	2.71
274.957	3.14
275.336	3.23
275.715	3.47
276.093	2.62
276.472	3.63
276.851	3.13
277.229	3.24
277.608	3.15
277.986	2.73
278.365	3.34
278.743	3.89
279.122	3.79
279.5	2.58
279.878	2.25
280.257	2.75
280.635	3.46
281.013	3.62
281.391	3.08
281.769	3.22
282.147	3.04
282.525	2.5
282.903	2.76
283.281	2.49
283.659	3.01
284.037	2.97
284.415	2.65
284.792	3.15
285.17	2.52
285.548	3.26
285.925	3.35
286.303	3.19
286.68	2.9
287.058	3.42
287.435	3.21
287.813	2.66
288.19	3.13
288.567	3.31
288.945	3.15
289.322	2.69
289.699	3.14
290.076	3.32
290.453	3.91
290.83	2.67
291.207	3.37
291.584	3.16
291.961	2.8
292.338	2.89
292.715	2.92
293.092	2.56
293.469	3.16
293.845	2.8
294.222	3.05
294.599	3.14
294.975	2.96
295.352	3.26
295.728	3.03
296.105	2.77
296.481	3.37
296.858	2.99
297.234	3.48
297.61	3.04
297.986	3.31
298.363	3.26
298.739	3.47
299.115	2.85
299.491	3.35
299.867	3.02
300.243	2.79
300.619	2.96
300.995	3.17
301.371	3.02
301.746	3.04
302.122	3.55
302.498	3.4
302.874	3.15
303.249	3.82
303.625	3.56
304	3.37
304.376	3.23
304.751	3.5
305.127	3.53
305.502	3.48
305.878	3.57
306.253	3.88
306.628	3.11
307.003	3.66
307.378	2.88
307.754	3.53
308.129	3.51
308.504	4.05
308.879	3.2
309.254	4.33
309.629	3.7
310.003	3.52
310.378	3.81
310.753	3.83
311.128	4.11
311.502	3.51
311.877	3.34
312.252	3.41
312.626	3.24
313.001	3.43
313.375	3.52
313.75	4.03
314.124	3.82
314.498	4.05
314.873	3.7
315.247	4.2
315.621	3.72
315.995	4.19
316.369	3.99
316.743	3.46
317.117	3.43
317.491	3.69
317.865	3.96
318.239	4.02
318.613	4.5
318.987	4.46
319.361	3.81
319.734	4.33
320.108	4.82
320.482	4.34
320.855	3.53
321.229	4.63
321.602	4.92
321.976	4.44
322.349	4.71
322.723	4.38
323.096	4.18
323.469	4.28
323.843	4.83
324.216	5.24
324.589	4.34
324.962	4.38
325.335	4.92
325.708	4.16
326.081	4.26
326.454	4.12
326.827	5.18
327.2	4.35
327.573	4.42
327.945	4.8
328.318	4.25
328.691	4.02
329.063	5.15
329.436	4.12
329.809	4.65
330.181	4.02
330.553	4.11
330.926	4.54
331.298	4.27
331.671	4.54
332.043	5.1
332.415	5.21
332.787	4.8
333.159	5.06
333.532	4.95
333.904	4.8
334.276	5.17
334.648	4.56
335.02	4.5
335.391	4.57
335.763	4.92
336.135	5.51
336.507	5.3
336.879	4.84
337.25	4.7
337.622	5.06
337.993	4.43
338.365	4.97
338.736	4.94
339.108	4.86
339.479	5.38
339.851	4.87
340.222	4.74
340.593	5.1
340.964	5.36
341.336	5.35
341.707	5.05
342.078	5.27
342.449	4.99
342.82	5.6
343.191	5.31
343.562	5.35
343.933	5.61
344.303	5.3
344.674	5.22
345.045	5.76
345.416	5.17
345.786	5.31
346.157	5.87
346.527	5.86
346.898	5.03
347.268	5.01
347.639	5.65
348.009	5.15
348.38	4.97
348.75	5.87
349.12	5.84
349.49	5.52
349.861	5.97
350.231	5.83
350.601	6.51
350.971	5.66
351.341	5.79
351.711	6.02
352.081	6.35
352.45	5.96
352.82	5.94
353.19	5.77
353.56	5.53
353.929	5.64
354.299	5.84
354.669	5.78
355.038	5.8
355.408	5.95
355.777	6.29
356.147	5.8
356.516	5.71
356.885	5.79
357.254	6.23
357.624	6.06
357.993	6.11
358.362	6.3
358.731	6.52
359.1	6.02
359.469	6.06
359.838	6.25
360.207	6
360.576	6.68
360.945	6.24
361.314	6.31
361.682	6.68
362.051	6.76
362.42	6.58
362.788	6.17
363.157	6.59
363.525	6.63
363.894	6.13
364.262	6.29
364.631	6.19
364.999	6.85
365.367	6.61
365.735	6.58
366.104	6.82
366.472	6.59
366.84	6.33
367.208	6.63
367.576	6.64
367.944	6.94
368.312	6.92
368.68	7.01
369.048	6.88
369.416	6.62
369.783	7.04
370.151	7.15
370.519	6.83
370.886	7.26
371.254	7
371.621	7.17
371.989	6.77
372.356	6.93
372.724	7.29
373.091	6.98
373.458	6.76
373.826	7.19
374.193	7.06
374.56	7.4
374.927	7.56
375.294	7.59
375.661	7.8
376.028	7.64
376.395	7.48
376.762	7.77
377.129	7.37
377.496	7.62
377.863	7.54
378.229	7.68
378.596	7.38
378.963	7.71
379.329	7.19
379.696	7.43
380.062	8.18
380.429	7.88
380.795	7.83
381.161	7.93
381.528	8.04
381.894	7.86
382.26	8.04
382.626	7.94
382.993	7.97
383.359	7.75
383.725	7.97
384.091	8.18
384.457	7.88
384.823	7.93
385.188	8.07
385.554	8.23
385.92	8.16
386.286	8.55
386.651	8.57
387.017	8.56
387.383	8.3
387.748	8.29
388.114	8.69
388.479	8.72
388.845	8.41
389.21	8.38
389.575	8.46
389.94	8.47
390.306	8.82
390.671	8.59
391.036	8.48
391.401	8.65
391.766	8.82
392.131	8.62
392.496	8.55
392.861	8.8
393.226	8.79
393.591	8.93
393.956	8.73
394.32	9.21
394.685	9.08
395.05	8.75
395.414	8.94
395.779	8.81
396.143	9.06
396.508	8.65
396.872	9.07
397.236	8.86
397.601	9.01
397.965	9.26
398.329	9.24
398.694	9.04
399.058	9.03
399.422	9.22
399.786	9.32
400.15	9.23
400.514	9.58
400.878	9.25
401.242	9.29
401.605	9.69
401.969	9.4
402.333	9.47
402.697	9.21
403.06	9.05
403.424	9.5
403.787	9.45
404.151	9.63
404.514	9.35
404.878	9.43
405.241	9.61
405.604	9.5
405.968	9.43
406.331	9.61
406.694	9.76
407.057	9.61
407.42	9.51
407.783	9.41
408.146	9.58
408.509	9.53
408.872	9.66
409.235	9.53
409.598	9.59
409.961	9.47
410.323	9.86
410.686	9.81
411.049	9.8
411.411	9.85
411.774	10.12
412.136	9.64
412.499	9.91
412.861	9.87
413.223	10.14
413.586	9.71
413.948	9.61
414.31	10.29
414.672	10
415.035	10.01
415.397	10.15
415.759	10.03
416.121	9.96
416.483	10.29
416.845	10.17
417.206	10.44
417.568	10.12
417.93	10.36
418.292	10.18
418.653	10.26
419.015	10.29
419.377	10.19
419.738	10.3
420.1	10.3
420.461	10.24
420.822	10.21
421.184	10.29
421.545	10.48
421.906	10.38
422.267	10.25
422.629	10.39
422.99	10.42
423.351	10.41
423.712	10.44
424.073	10.52
424.434	10.72
424.795	10.81
425.155	10.7
425.516	10.76
425.877	10.81
426.238	10.76
426.598	10.89
426.959	11
427.32	11.08
427.68	11.11
428.041	11.26
428.401	11.42
428.761	11.31
429.122	11.6
429.482	11.72
429.842	11.93
430.202	11.89
430.563	11.82
430.923	11.95
431.283	12.01
431.643	12.02
432.003	11.89
432.363	12.1
432.722	12.05
433.082	12.22
433.442	12.02
433.802	12.36
434.161	12.15
434.521	12.25
434.881	12.43
435.24	12.4
435.6	12.54
435.959	12.48
436.319	12.7
436.678	12.71
437.037	12.66
437.396	12.76
437.756	12.8
438.115	12.92
438.474	12.91
438.833	13.2
439.192	13.2
439.551	13.07
439.91	13.05
440.269	13.29
440.628	13.1
440.987	13.18
441.345	13.29
441.704	13.32
442.063	13.25
442.421	13.33
442.78	13.39
443.138	13.34
443.497	13.55
443.855	13.61
444.214	13.68
444.572	13.8
444.93	13.87
445.288	13.89
445.647	14.06
446.005	13.84
446.363	13.82
446.721	13.91
447.079	14.14
447.437	13.84
447.795	13.97
448.153	14.06
448.51	14.1
448.868	14.12
449.226	14.12
449.584	14.29
449.941	14.32
450.299	14.27
450.656	14.43
451.014	14.55
451.371	14.58
451.729	14.87
452.086	14.7
452.443	15.03
452.801	15.29
453.158	14.92
453.515	14.93
453.872	15.04
454.229	15.25
454.586	15.05
454.943	15.04
455.3	15.14
455.657	15.21
456.014	15.57
456.371	15.55
456.727	15.46
457.084	15.58
457.441	15.56
457.797	15.74
458.154	15.83
458.51	15.72
458.867	15.95
459.223	15.77
459.58	15.88
459.936	15.86
460.292	15.9
460.648	15.89
461.005	16.07
461.361	15.92
461.717	15.87
462.073	15.95
462.429	15.97
462.785	16
463.141	16.18
463.496	16.29
463.852	16.46
464.208	16.65
464.564	16.68
464.919	16.87
465.275	16.79
465.631	17.11
465.986	16.82
466.342	16.88
466.697	17.14
467.052	17.1
467.408	17.11
467.763	16.94
468.118	17.12
468.473	17.21
468.829	17.11
469.184	17.19
469.539	17.43
469.894	17.37
470.249	17.49
470.603	17.64
470.958	17.54
471.313	17.79
471.668	17.86
472.023	17.84
472.377	17.64
472.732	17.85
473.086	17.94
473.441	18.02
473.795	18.09
474.15	18.09
474.504	18.06
474.859	17.94
475.213	18.3
475.567	18.25
475.921	18.3
476.275	18.24
476.63	18.47
476.984	18.45
477.338	18.55
477.692	18.39
478.045	18.47
478.399	18.45
478.753	18.62
479.107	18.59
479.461	18.56
479.814	18.69
480.168	18.65
480.521	18.72
480.875	18.78
481.228	19.04
481.582	18.88
481.935	18.92
482.289	18.99
482.642	19.21
482.995	18.95
483.348	18.83
483.701	19.08
484.055	18.87
484.408	18.85
484.761	18.79
485.114	18.38
485.466	18.22
485.819	18.19
486.172	18.2
486.525	18.21
486.878	18.31
487.23	18.6
487.583	18.76
487.936	19.08
488.288	19.04
488.641	18.98
488.993	18.93
489.345	18.81
489.698	18.71
490.05	18.83
490.402	18.95
490.754	19.14
491.107	19.31
491.459	19.55
491.811	19.79
492.163	19.69
492.515	19.85
492.866	19.76
493.218	19.39
493.57	19.51
493.922	19.33
494.274	19.49
494.625	19.64
494.977	20.08
495.328	20.34
495.68	20.38
496.031	20.85
496.383	20.85
496.734	20.82
497.086	21
497.437	20.9
497.788	20.87
498.139	21.01
498.49	21.03
498.842	20.91
499.193	20.97
499.544	21.06
499.894	21.09
500.245	21.04
500.596	21.2
500.947	21.35
501.298	21.24
501.648	21.52
501.999	21.56
502.35	21.68
502.7	21.68
503.051	21.83
503.401	21.74
503.752	21.78
504.102	22.03
504.452	21.97
504.803	21.93
505.153	22.13
505.503	22.18
505.853	22.09
506.203	22.14
506.553	22.02
506.903	21.9
507.253	22.15
507.603	22.27
507.953	22.15
508.303	22.41
508.652	22.32
509.002	22.38
509.352	22.45
509.701	22.36
510.051	22.39
510.4	22.34
510.75	22.33
511.099	22.21
511.449	22.44
511.798	22.47
512.147	22.56
512.496	22.75
512.846	22.52
513.195	22.46
513.544	22.54
513.893	22.77
514.242	22.61
514.591	22.75
514.939	22.91
515.288	22.99
515.637	22.93
515.986	22.98
516.334	23.36
516.683	23.02
517.032	23.28
517.38	23.27
517.729	23.37
518.077	23.33
518.426	23.43
518.774	23.39
519.122	23.35
519.47	23.25
519.819	23.14
520.167	23.03
520.515	22.93
520.863	22.94
521.211	22.89
521.559	23.13
521.907	23.13
522.255	23.39
522.602	23.44
522.95	23.58
523.298	23.62
523.645	23.83
523.993	23.95
524.341	23.93
524.688	24
525.036	24.12
525.383	24.09
525.73	23.76
526.078	24.05
526.425	24.01
526.772	23.83
527.119	23.77
527.466	23.7
527.814	23.57
528.161	23.64
528.508	23.81
528.854	23.68
529.201	23.75
529.548	23.67
529.895	23.49
530.242	23.14
530.588	23.11
530.935	23.08
531.282	23.16
531.628	23.22
531.975	23.39
532.321	23.64
532.667	23.85
533.014	24
533.36	24.16
533.706	24.25
534.052	24.27
534.399	24.28
534.745	24.03
535.091	23.86
535.437	23.92
535.783	23.82
536.129	24.02
536.474	24.15
536.82	24.43
537.166	24.62
537.512	24.85
537.857	24.81
538.203	24.74
538.549	24.63
538.894	24.59
539.239	24.59
539.585	24.66
539.93	25.07
540.276	24.96
540.621	25.25
540.966	25.48
541.311	25.46
541.656	25.37
542.001	25.32
542.346	25.13
542.691	25.1
543.036	24.61
543.381	24.52
543.726	24.67
544.071	24.65
544.415	24.76
544.76	24.91
545.105	25.14
545.449	25.23
545.794	25.33
546.138	25.38
546.483	25.61
546.827	25.79
547.171	25.84
547.516	25.85
547.86	25.75
548.204	25.9
548.548	26
548.892	25.73
549.236	26.12
549.58	26.07
549.924	26.33
550.268	26.29
550.612	26.4
550.956	26.48
551.3	26.74
551.643	26.8
551.987	27.09
552.33	27.04
552.674	26.98
553.017	26.9
553.361	26.97
553.704	27
554.048	27.19
554.391	27
554.734	26.71
555.077	27.1
555.42	27.01
555.764	27.01
556.107	27.24
556.45	27.05
556.793	27.23
557.135	27.31
557.478	27.67
557.821	27.42
558.164	27.7
558.507	27.63
558.849	27.59
559.192	27.67
559.534	27.59
559.877	27.7
560.219	27.93
560.562	27.84
560.904	27.83
561.246	27.89
561.589	28.23
561.931	28.02
562.273	27.98
562.615	28.07
562.957	28.27
563.299	27.9
563.641	28.02
563.983	28.17
564.325	28.11
564.667	28.35
565.008	28.1
565.35	28.19
565.692	28.16
566.033	28.53
566.375	28.33
566.716	27.92
567.058	28.45
567.399	28.42
567.741	28.39
568.082	28.33
568.423	28.2
568.764	28.37
569.105	28.23
569.447	28.47
569.788	28.68
570.129	28.53
570.47	28.78
570.811	28.77
571.151	28.74
571.492	28.75
571.833	28.96
572.174	28.7
572.514	29.12
572.855	29
573.195	28.83
573.536	28.83
573.876	28.72
574.217	28.98
574.557	28.83
574.898	28.9
575.238	29.14
575.578	28.95
575.918	28.97
576.258	29.28
576.598	29
576.938	29.07
577.278	28.94
577.618	29.25
577.958	29.18
578.298	29.22
578.638	29.43
578.977	29.44
579.317	29.86
579.657	29.71
579.996	29.87
580.336	29.84
580.675	29.7
581.014	29.75
581.354	29.89
581.693	30.2
582.032	29.76
582.372	30.2
582.711	30.32
583.05	30.34
583.389	30.36
583.728	30.42
584.067	30.63
584.406	30.36
584.745	30.58
585.083	30.28
585.422	30.62
585.761	30.73
586.1	30.67
586.438	30.69
586.777	30.79
587.115	30.71
587.454	30.9
587.792	30.56
588.13	30.77
588.469	30.67
588.807	30.73
589.145	30.74
589.483	31.21
589.821	30.75
590.159	30.95
590.497	30.89
590.835	30.61
591.173	30.7
591.511	31.31
591.849	30.95
592.187	31.22
592.524	31.04
592.862	31.24
593.2	31.1
593.537	31.09
593.875	31.75
594.212	31.63
594.55	31.59
594.887	31.61
595.224	31.76
595.561	31.86
595.899	31.36
596.236	31.53
596.573	31.59
596.91	31.42
597.247	31.92
597.584	31.66
597.921	31.55
598.258	31.57
598.594	31.64
598.931	31.53
599.268	31.19
599.604	31.5
599.941	31.96
600.277	31.71
600.614	31.78
600.95	31.99
601.287	32.12
601.623	32.26
601.959	32.19
602.296	32.21
602.632	32.25
602.968	32.56
603.304	32.13
603.64	32.39
603.976	32.26
604.312	32.26
604.648	32.26
604.984	32.59
605.319	32.07
605.655	32.13
605.991	32.31
606.326	31.96
606.662	31.99
606.998	31.9
607.333	32.57
607.668	32.31
608.004	32.1
608.339	32.6
608.674	32.9
609.01	32.51
609.345	32.67
609.68	32.92
610.015	32.66
610.35	32.79
610.685	32.75
611.02	32.96
611.355	32.69
611.689	32.65
612.024	32.54
612.359	32.77
612.694	32.69
613.028	33.16
613.363	32.8
613.697	33.42
614.032	32.94
614.366	33.1
614.7	33.26
615.035	33.62
615.369	33.64
615.703	33.01
616.037	33.35
616.371	33.35
616.705	33.25
617.039	33.42
617.373	33.61
617.707	33.41
618.041	33
618.375	33.7
618.709	33.55
619.042	33.78
619.376	33.38
619.71	33.68
620.043	33.6
620.377	33.7
620.71	33.38
621.043	33.95
621.377	33.23
621.71	33.78
622.043	34.16
622.376	34.09
622.709	34.04
623.043	34.03
623.376	34
623.709	34.11
624.041	34.4
624.374	34.09
624.707	34.01
625.04	34.19
625.373	34.15
625.705	34.6
626.038	34.41
626.37	34.4
626.703	34.82
627.035	34.35
627.368	34.78
627.7	34.25
628.032	34.27
628.365	34.5
628.697	34.76
629.029	34.49
629.361	34.46
629.693	34.54
630.025	34.41
630.357	34.45
630.689	34.22
631.021	34.62
631.353	34.72
631.684	34.4
632.016	34.78
632.348	34.77
632.679	34.45
633.011	34.98
633.342	35.15
633.674	35.29
634.005	35.65
634.336	35.56
634.668	35.27
634.999	35.17
635.33	35.02
635.661	35.28
635.992	35.09
636.323	34.78
636.654	35.45
636.985	35.17
637.316	35.12
637.647	35.55
637.977	35.39
638.308	35.38
638.639	35.39
638.969	35.55
639.3	35.54
639.63	35.76
639.961	35.44
640.291	35.21
640.622	35.42
640.952	35.61
641.282	36.04
641.612	35.83
641.943	36.26
642.273	36.14
642.603	36.01
642.933	35.88
643.263	35.7
643.592	36.37
643.922	36.17
644.252	36.01
644.582	36.25
644.911	35.93
645.241	36.2
645.571	36.3
645.9	35.95
646.23	36.32
646.559	36.1
646.888	35.83
647.218	36.28
647.547	36.24
647.876	36.43
648.205	36.56
648.534	36.31
648.863	35.77
649.192	36.77
649.521	36.45
649.85	36.15
650.179	36.62
650.508	36.64
650.837	36.81
651.165	35.96
651.494	36.29
651.822	37.03
652.151	36.45
652.479	36.26
652.808	36.78
653.136	36.52
653.465	36.82
653.793	36.79
654.121	37.22
654.449	37.25
654.777	36.99
655.105	37.31
655.433	37.44
655.761	36.87
656.089	36.82
656.417	37.23
656.745	36.63
657.073	37.47
657.4	36.49
657.728	36.4
658.056	37.39
658.383	37.01
658.711	37.23
659.038	37.39
659.365	37.14
659.693	36.93
660.02	37.99
660.347	37.9
660.674	37.37
661.001	37.47
661.329	37.16
661.656	37.39
661.982	37.1
662.309	37.82
662.636	37.86
662.963	37.46
663.29	37.78
663.616	37.64
663.943	37.46
664.27	37.98
664.596	37.39
664.923	37.68
665.249	37.2
665.576	37.11
665.902	37.37
666.228	38.25
666.554	37.31
666.881	37.83
667.207	37.65
667.533	38.07
667.859	37.53
668.185	38.12
668.511	37.93
668.837	37.61
669.162	38.71
669.488	37.12
669.814	38.69
670.139	38.49
670.465	37.46
670.791	37.85
671.116	38.1
671.442	37.79
671.767	38.68
672.092	38.46
672.418	38.22
672.743	37.78
673.068	38.04
673.393	38.12
673.718	38.94
674.043	38.4
674.368	38.11
674.693	38.38
675.018	38.3
675.343	38.35
