Data from 0403_crown_Reflection__1__173.txt Node

Date: Tue Dec 12 19:49:24 CST 2023
User: ToomeyLab
Spectrometer: FLMS14357
Trigger mode: 0
Integration Time (sec): 1.000000E-2
Scans to average: 100
Electric dark correction enabled: true
Nonlinearity correction enabled: false
Boxcar width: 0
XAxis mode: Wavelengths
Number of Pixels in Spectrum: 2048
>>>>>Begin Spectral Data<<<<<
189.047	-149.86
189.435	-149.86
189.823	-149.86
190.211	31
190.599	-27.67
190.987	166.36
191.375	-14.01
191.763	-35.49
192.151	67.14
192.538	-38.3
192.926	340.26
193.314	120.17
193.702	105.58
194.089	134.68
194.477	51.29
194.864	5.61
195.252	-48.27
195.639	17.44
196.027	168.36
196.414	40.48
196.801	193.15
197.189	12.81
197.576	-54.71
197.963	-8.19
198.351	-1.12
198.738	3.78
199.125	-0.32
199.512	-30.47
199.899	35.58
200.286	18.35
200.673	-34.37
201.06	1.09
201.447	-42.02
201.833	4.1
202.22	-38.62
202.607	-194.22
202.994	25.88
203.38	16.1
203.767	-22.96
204.154	0.88
204.54	16.19
204.927	-47.75
205.313	14.31
205.699	-17.45
206.086	17.06
206.472	28.23
206.858	21.06
207.245	-9.59
207.631	18.74
208.017	1.73
208.403	-25.02
208.789	-12.68
209.175	-49.89
209.561	30.2
209.947	-49.61
210.333	10.44
210.719	-34.85
211.105	-35.47
211.491	23.18
211.876	-12.23
212.262	-14.7
212.648	-32.35
213.034	-58.86
213.419	-40.32
213.805	8.11
214.19	16.67
214.576	18.61
214.961	-32.74
215.346	-13.19
215.732	12.23
216.117	11.81
216.502	0.03
216.888	-3.61
217.273	-34.46
217.658	-77.94
218.043	-30.13
218.428	-3.58
218.813	0.77
219.198	-28.38
219.583	9.03
219.968	20.21
220.353	4.37
220.738	-11.39
221.122	8.29
221.507	-10.28
221.892	-0.28
222.276	7.16
222.661	-7.26
223.046	6.94
223.43	0.16
223.815	-7.66
224.199	14.5
224.583	4.26
224.968	3.05
225.352	0.8
225.736	5.55
226.121	-2.14
226.505	5.94
226.889	4.47
227.273	3
227.657	4.62
228.041	6.6
228.425	5.75
228.809	3.5
229.193	-0.92
229.577	4.33
229.961	4.95
230.344	6.75
230.728	6.82
231.112	6.33
231.495	5.64
231.879	5.34
232.263	3.48
232.646	5.41
233.03	4.79
233.413	5.21
233.797	4.52
234.18	2.5
234.563	5.21
234.946	6.06
235.33	6.95
235.713	4.51
236.096	4.94
236.479	6.4
236.862	4.15
237.245	5.18
237.628	4.04
238.011	6.27
238.394	7.17
238.777	7.15
239.16	6.72
239.543	4.94
239.925	4.21
240.308	2.85
240.691	4.78
241.073	7.02
241.456	6.59
241.838	4.34
242.221	6.43
242.603	7.3
242.986	5.29
243.368	5.18
243.75	5.69
244.133	5.82
244.515	6.2
244.897	5.24
245.279	6.74
245.661	4.27
246.043	5.68
246.425	5.38
246.807	4.13
247.189	5.99
247.571	6.3
247.953	5.79
248.335	5.85
248.717	5.84
249.098	5.31
249.48	5.69
249.862	5.37
250.243	5.07
250.625	5.99
251.006	4.72
251.388	6.02
251.769	5.37
252.151	5.04
252.532	6.34
252.913	6.19
253.295	6.53
253.676	5.53
254.057	5.49
254.438	5.44
254.819	4.88
255.2	4.77
255.581	3.81
255.962	4.86
256.343	5.25
256.724	4.55
257.105	5.08
257.486	4.56
257.867	4.25
258.247	4.98
258.628	4.38
259.009	5.06
259.389	4.94
259.77	4.22
260.15	4.73
260.531	5.31
260.911	4.9
261.292	4.74
261.672	5.06
262.052	5.15
262.432	5.17
262.813	5.47
263.193	4.66
263.573	5.63
263.953	5.7
264.333	5.46
264.713	5.1
265.093	4.67
265.473	6.01
265.853	4.28
266.233	4.29
266.612	4.09
266.992	4.71
267.372	4.92
267.752	5.16
268.131	4.13
268.511	4.2
268.89	3.82
269.27	4.66
269.649	5.04
270.029	4.35
270.408	4.97
270.787	4.76
271.167	5.1
271.546	5.03
271.925	5.9
272.304	5.18
272.683	4.35
273.062	4.67
273.441	4.83
273.82	4.16
274.199	4.87
274.578	4.69
274.957	4.38
275.336	4.76
275.715	4.53
276.093	4.04
276.472	5.07
276.851	4.96
277.229	4.19
277.608	4.6
277.986	4.1
278.365	5.18
278.743	4.82
279.122	5.39
279.5	4.03
279.878	3.66
280.257	4.79
280.635	4.25
281.013	4.04
281.391	4.54
281.769	4.33
282.147	4.57
282.525	3.69
282.903	4.06
283.281	4.16
283.659	4.53
284.037	4.63
284.415	4.18
284.792	4.86
285.17	4.01
285.548	4.77
285.925	4.07
286.303	4.62
286.68	4.68
287.058	4.61
287.435	4.44
287.813	4.12
288.19	4.27
288.567	4.13
288.945	4.57
289.322	3.19
289.699	4.12
290.076	4.7
290.453	4.62
290.83	4.39
291.207	4.13
291.584	4.16
291.961	4.34
292.338	4.59
292.715	4.56
293.092	4.34
293.469	4.51
293.845	5
294.222	4.27
294.599	3.87
294.975	4.31
295.352	5.02
295.728	4.13
296.105	4.24
296.481	4.72
296.858	4.9
297.234	4.68
297.61	4.7
297.986	4.55
298.363	4.17
298.739	4.66
299.115	4.24
299.491	4.31
299.867	4.13
300.243	4.16
300.619	4.78
300.995	4.72
301.371	4.36
301.746	4.61
302.122	4.86
302.498	4.46
302.874	4.39
303.249	4.65
303.625	4.12
304	4.61
304.376	4.23
304.751	4.55
305.127	4.52
305.502	4.75
305.878	3.99
306.253	4.35
306.628	4.39
307.003	4.54
307.378	3.88
307.754	4.99
308.129	3.84
308.504	5.71
308.879	4.28
309.254	4.83
309.629	4.45
310.003	4.49
310.378	4.52
310.753	4.43
311.128	4.89
311.502	4.34
311.877	3.95
312.252	3.74
312.626	4.33
313.001	4
313.375	4.36
313.75	4.42
314.124	4.51
314.498	4.18
314.873	3.76
315.247	4.65
315.621	4.3
315.995	4.73
316.369	4.42
316.743	4.12
317.117	3.75
317.491	3.85
317.865	3.95
318.239	4.25
318.613	4.56
318.987	4.82
319.361	4.21
319.734	3.86
320.108	4.09
320.482	3.71
320.855	3.43
321.229	4.02
321.602	4.42
321.976	4.48
322.349	4.52
322.723	4.35
323.096	4.09
323.469	4.09
323.843	5.2
324.216	4.44
324.589	4.11
324.962	4.37
325.335	4.67
325.708	4.49
326.081	4.37
326.454	4.28
326.827	4.31
327.2	4.56
327.573	3.75
327.945	4.02
328.318	4.74
328.691	3.79
329.063	4.32
329.436	4.03
329.809	4.17
330.181	3.54
330.553	3.97
330.926	4.53
331.298	3.68
331.671	4.37
332.043	4.47
332.415	4.81
332.787	4.24
333.159	4.16
333.532	3.73
333.904	3.99
334.276	4.52
334.648	3.84
335.02	3.79
335.391	4.01
335.763	4.2
336.135	4.46
336.507	4.25
336.879	4.03
337.25	4.4
337.622	4.17
337.993	4.12
338.365	3.89
338.736	4.09
339.108	4.37
339.479	4.4
339.851	3.71
340.222	3.74
340.593	4.15
340.964	4.25
341.336	4.26
341.707	3.72
342.078	3.51
342.449	4.02
342.82	4.49
343.191	4.56
343.562	4.32
343.933	4.28
344.303	4.23
344.674	4.59
345.045	4.04
345.416	4.17
345.786	4.28
346.157	4.14
346.527	4.5
346.898	3.91
347.268	3.8
347.639	4.79
348.009	3.9
348.38	4.01
348.75	4.41
349.12	4.31
349.49	3.7
349.861	4.69
350.231	4.28
350.601	4.58
350.971	4.26
351.341	3.92
351.711	4.18
352.081	4.13
352.45	3.5
352.82	4.24
353.19	4.2
353.56	3.83
353.929	3.96
354.299	4
354.669	3.82
355.038	3.56
355.408	3.63
355.777	4.31
356.147	4.35
356.516	3.77
356.885	3.89
357.254	4.4
357.624	4.27
357.993	4.33
358.362	4.28
358.731	4.29
359.1	3.93
359.469	4.07
359.838	4.01
360.207	4.14
360.576	4.57
360.945	3.98
361.314	4.53
361.682	4.03
362.051	4.43
362.42	4.16
362.788	4.45
363.157	4.41
363.525	4.32
363.894	3.88
364.262	4.24
364.631	4.01
364.999	4.5
365.367	4.49
365.735	4.08
366.104	4.54
366.472	4.2
366.84	4.29
367.208	4.11
367.576	4.19
367.944	4.51
368.312	4.12
368.68	4.48
369.048	4.32
369.416	4.18
369.783	4.52
370.151	4.28
370.519	3.79
370.886	4.36
371.254	4.32
371.621	4.38
371.989	4.23
372.356	4.04
372.724	4.37
373.091	4.29
373.458	4.44
373.826	4.49
374.193	3.88
374.56	4.46
374.927	4.57
375.294	4.21
375.661	4.36
376.028	4.22
376.395	4.53
376.762	4.84
377.129	4.51
377.496	4.34
377.863	4.63
378.229	4.36
378.596	4.29
378.963	4.3
379.329	4.32
379.696	4.14
380.062	4.58
380.429	4.38
380.795	4.36
381.161	4.44
381.528	4.36
381.894	4.69
382.26	4.1
382.626	4.52
382.993	4.46
383.359	4.24
383.725	4.26
384.091	4.31
384.457	4.66
384.823	4.79
385.188	4.44
385.554	4.32
385.92	4.31
386.286	4.45
386.651	4.28
387.017	4.51
387.383	4.55
387.748	4.27
388.114	4.55
388.479	4.64
388.845	4.17
389.21	4.45
389.575	4.38
389.94	4.65
390.306	4.32
390.671	4.4
391.036	4.67
391.401	4.49
391.766	4.58
392.131	4.46
392.496	4.33
392.861	4.35
393.226	4.5
393.591	4.44
393.956	4.36
394.32	4.56
394.685	4.67
395.05	4.55
395.414	4.71
395.779	4.47
396.143	4.68
396.508	4.52
396.872	4.33
397.236	4.63
397.601	4.55
397.965	4.57
398.329	4.76
398.694	4.38
399.058	4.65
399.422	4.29
399.786	4.66
400.15	4.72
400.514	4.87
400.878	4.47
401.242	4.29
401.605	4.49
401.969	4.59
402.333	4.85
402.697	4.38
403.06	4.36
403.424	4.56
403.787	4.36
404.151	4.7
404.514	4.36
404.878	4.4
405.241	4.5
405.604	4.3
405.968	4.58
406.331	4.5
406.694	4.87
407.057	4.63
407.42	4.62
407.783	4.25
408.146	4.64
408.509	4.73
408.872	4.74
409.235	4.52
409.598	4.72
409.961	4.72
410.323	4.77
410.686	4.79
411.049	4.88
411.411	4.76
411.774	4.86
412.136	4.68
412.499	4.74
412.861	4.53
413.223	4.94
413.586	4.39
413.948	4.47
414.31	4.61
414.672	4.76
415.035	4.65
415.397	4.8
415.759	4.66
416.121	4.5
416.483	4.62
416.845	4.67
417.206	4.72
417.568	4.56
417.93	4.78
418.292	4.48
418.653	4.77
419.015	4.56
419.377	4.78
419.738	4.77
420.1	4.71
420.461	4.7
420.822	4.69
421.184	4.68
421.545	4.9
421.906	4.61
422.267	4.71
422.629	4.63
422.99	4.69
423.351	4.65
423.712	4.64
424.073	4.71
424.434	4.65
424.795	4.55
425.155	4.62
425.516	4.6
425.877	4.68
426.238	4.73
426.598	4.7
426.959	4.62
427.32	4.74
427.68	4.74
428.041	4.76
428.401	4.83
428.761	4.65
429.122	4.8
429.482	4.85
429.842	4.72
430.202	4.6
430.563	4.69
430.923	4.84
431.283	4.6
431.643	4.88
432.003	4.59
432.363	5.15
432.722	4.75
433.082	4.85
433.442	4.83
433.802	4.83
434.161	4.87
434.521	4.88
434.881	4.79
435.24	4.86
435.6	4.87
435.959	4.93
436.319	4.86
436.678	4.91
437.037	4.85
437.396	4.72
437.756	4.81
438.115	4.92
438.474	4.75
438.833	5.05
439.192	5.14
439.551	5.06
439.91	4.76
440.269	4.82
440.628	4.77
440.987	4.76
441.345	4.89
441.704	4.86
442.063	4.96
442.421	4.85
442.78	4.79
443.138	4.9
443.497	4.91
443.855	4.88
444.214	4.92
444.572	5.02
444.93	4.97
445.288	4.87
445.647	4.93
446.005	4.92
446.363	4.86
446.721	4.85
447.079	4.85
447.437	4.76
447.795	4.89
448.153	4.84
448.51	4.98
448.868	5.01
449.226	5.01
449.584	4.85
449.941	4.88
450.299	4.95
450.656	4.94
451.014	5.02
451.371	5.06
451.729	5.16
452.086	5
452.443	5.1
452.801	5
453.158	4.82
453.515	5.04
453.872	5.03
454.229	5.11
454.586	4.86
454.943	4.98
455.3	4.92
455.657	5.01
456.014	5.25
456.371	5.21
456.727	5.1
457.084	4.94
457.441	5.1
457.797	5.1
458.154	4.87
458.51	4.94
458.867	5.04
459.223	5.08
459.58	5.04
459.936	4.9
460.292	5.16
460.648	5.11
461.005	5.04
461.361	5.08
461.717	5
462.073	5.05
462.429	5
462.785	4.93
463.141	5.14
463.496	5.12
463.852	5.17
464.208	5.27
464.564	5.09
464.919	5.18
465.275	5.08
465.631	5.13
465.986	5.14
466.342	5.02
466.697	5.06
467.052	5.43
467.408	5.22
467.763	5.2
468.118	5.23
468.473	5.21
468.829	5.24
469.184	5.03
469.539	5.22
469.894	5.08
470.249	5.24
470.603	5.28
470.958	5.05
471.313	5.32
471.668	5.36
472.023	5.22
472.377	5.2
472.732	5.26
473.086	5.39
473.441	5.33
473.795	5.17
474.15	5.13
474.504	5.05
474.859	5.12
475.213	5.18
475.567	5.36
475.921	5.12
476.275	5.16
476.63	5.21
476.984	5.23
477.338	5.28
477.692	5.05
478.045	5.33
478.399	5.33
478.753	5.11
479.107	5.25
479.461	5.21
479.814	5.3
480.168	5.06
480.521	5.05
480.875	5.25
481.228	5.27
481.582	5.27
481.935	5.43
482.289	5.27
482.642	5.29
482.995	5.23
483.348	5.24
483.701	5.37
484.055	5.19
484.408	5.16
484.761	5.14
485.114	5.08
485.466	5.03
485.819	5.03
486.172	4.96
486.525	4.96
486.878	5.06
487.23	5.04
487.583	5.19
487.936	5.18
488.288	5.15
488.641	5.19
488.993	5.14
489.345	5.09
489.698	5.04
490.05	5.1
490.402	5.13
490.754	5.08
491.107	5.17
491.459	5.22
491.811	5.28
492.163	5.31
492.515	5.34
492.866	5.27
493.218	5.14
493.57	5.19
493.922	5.09
494.274	5.19
494.625	5.2
494.977	5.25
495.328	5.29
495.68	5.23
496.031	5.44
496.383	5.34
496.734	5.39
497.086	5.3
497.437	5.37
497.788	5.41
498.139	5.4
498.49	5.52
498.842	5.34
499.193	5.35
499.544	5.25
499.894	5.41
500.245	5.43
500.596	5.45
500.947	5.39
501.298	5.4
501.648	5.49
501.999	5.35
502.35	5.3
502.7	5.53
503.051	5.41
503.401	5.31
503.752	5.5
504.102	5.37
504.452	5.58
504.803	5.47
505.153	5.53
505.503	5.66
505.853	5.57
506.203	5.51
506.553	5.45
506.903	5.43
507.253	5.5
507.603	5.38
507.953	5.44
508.303	5.6
508.652	5.49
509.002	5.57
509.352	5.45
509.701	5.49
510.051	5.4
510.4	5.45
510.75	5.47
511.099	5.36
511.449	5.51
511.798	5.35
512.147	5.52
512.496	5.59
512.846	5.55
513.195	5.4
513.544	5.54
513.893	5.46
514.242	5.42
514.591	5.38
514.939	5.4
515.288	5.45
515.637	5.46
515.986	5.47
516.334	5.62
516.683	5.47
517.032	5.58
517.38	5.38
517.729	5.53
518.077	5.49
518.426	5.6
518.774	5.42
519.122	5.5
519.47	5.51
519.819	5.47
520.167	5.4
520.515	5.42
520.863	5.45
521.211	5.46
521.559	5.5
521.907	5.48
522.255	5.57
522.602	5.47
522.95	5.71
523.298	5.54
523.645	5.61
523.993	5.63
524.341	5.6
524.688	5.61
525.036	5.7
525.383	5.49
525.73	5.6
526.078	5.62
526.425	5.48
526.772	5.57
527.119	5.61
527.466	5.51
527.814	5.44
528.161	5.57
528.508	5.56
528.854	5.57
529.201	5.44
529.548	5.48
529.895	5.38
530.242	5.33
530.588	5.3
530.935	5.33
531.282	5.33
531.628	5.39
531.975	5.43
532.321	5.43
532.667	5.34
533.014	5.51
533.36	5.53
533.706	5.57
534.052	5.53
534.399	5.6
534.745	5.51
535.091	5.48
535.437	5.45
535.783	5.47
536.129	5.56
536.474	5.51
536.82	5.51
537.166	5.57
537.512	5.56
537.857	5.57
538.203	5.59
538.549	5.61
538.894	5.56
539.239	5.56
539.585	5.55
539.93	5.62
540.276	5.68
540.621	5.65
540.966	5.56
541.311	5.6
541.656	5.74
542.001	5.66
542.346	5.52
542.691	5.58
543.036	5.47
543.381	5.39
543.726	5.48
544.071	5.46
544.415	5.48
544.76	5.43
545.105	5.53
545.449	5.55
545.794	5.65
546.138	5.5
546.483	5.59
546.827	5.7
547.171	5.69
547.516	5.66
547.86	5.7
548.204	5.78
548.548	5.62
548.892	5.62
549.236	5.85
549.58	5.7
549.924	5.72
550.268	5.75
550.612	5.68
550.956	5.68
551.3	5.82
551.643	5.82
551.987	5.88
552.33	5.85
552.674	5.81
553.017	5.89
553.361	5.9
553.704	5.75
554.048	5.9
554.391	5.85
554.734	5.71
555.077	5.84
555.42	5.7
555.764	5.89
556.107	5.82
556.45	5.85
556.793	5.64
557.135	5.71
557.478	5.8
557.821	5.67
558.164	6.04
558.507	5.77
558.849	5.82
559.192	5.86
559.534	5.92
559.877	5.82
560.219	5.79
560.562	5.84
560.904	5.89
561.246	5.91
561.589	5.9
561.931	5.63
562.273	5.82
562.615	5.8
562.957	5.82
563.299	5.89
563.641	6.07
563.983	6.08
564.325	5.88
564.667	5.98
565.008	5.76
565.35	5.77
565.692	5.94
566.033	5.84
566.375	5.99
566.716	5.74
567.058	5.88
567.399	5.95
567.741	5.82
568.082	5.68
568.423	5.89
568.764	6.01
569.105	5.81
569.447	6.07
569.788	5.83
570.129	5.77
570.47	5.98
570.811	5.96
571.151	5.96
571.492	6.05
571.833	5.87
572.174	5.94
572.514	5.96
572.855	5.88
573.195	5.82
573.536	5.78
573.876	5.91
574.217	6.03
574.557	5.92
574.898	5.86
575.238	6.07
575.578	5.96
575.918	6.03
576.258	6.05
576.598	5.87
576.938	5.82
577.278	5.86
577.618	6.16
577.958	5.84
578.298	6.11
578.638	5.93
578.977	5.95
579.317	5.93
579.657	6.06
579.996	5.97
580.336	6.05
580.675	5.98
581.014	6.09
581.354	6.05
581.693	5.9
582.032	5.92
582.372	6.02
582.711	6.15
583.05	6.07
583.389	6.22
583.728	6.02
584.067	6.3
584.406	6.13
584.745	6.06
585.083	5.83
585.422	6.02
585.761	6.11
586.1	5.92
586.438	6.17
586.777	6.06
587.115	6.05
587.454	6.12
587.792	5.98
588.13	6.17
588.469	6.03
588.807	6.14
589.145	6
589.483	6.15
589.821	6.51
590.159	5.88
590.497	6.14
590.835	6.24
591.173	6.16
591.511	6.01
591.849	6.21
592.187	5.99
592.524	5.91
592.862	6.06
593.2	6.04
593.537	5.83
593.875	6.16
594.212	6.16
594.55	6.13
594.887	6.4
595.224	6.01
595.561	6.28
595.899	5.87
596.236	6.24
596.573	6.03
596.91	6.24
597.247	6.05
597.584	6.05
597.921	6.08
598.258	6.26
598.594	6.24
598.931	6.02
599.268	5.99
599.604	5.94
599.941	6.09
600.277	6.13
600.614	6.41
600.95	6.3
601.287	6.32
601.623	6.23
601.959	6.2
602.296	6.03
602.632	5.84
602.968	6.33
603.304	6.14
603.64	6.23
603.976	6.12
604.312	6.1
604.648	6.05
604.984	6.21
605.319	6.13
605.655	6
605.991	6.46
606.326	5.89
606.662	6.26
606.998	6.08
607.333	6.13
607.668	6.04
608.004	5.98
608.339	6.2
608.674	6.08
609.01	6.13
609.345	6.25
609.68	6.06
610.015	6.16
610.35	6.22
610.685	6.47
611.02	6.08
611.355	6.33
611.689	6.15
612.024	6.11
612.359	6.28
612.694	6.4
613.028	6.23
613.363	6.21
613.697	6.32
614.032	6.28
614.366	6.53
614.7	6.06
615.035	6.34
615.369	6.41
615.703	6.2
616.037	6.25
616.371	5.99
616.705	6.16
617.039	6.25
617.373	6.15
617.707	5.9
618.041	6.18
618.375	6.09
618.709	6.4
619.042	6.25
619.376	6.13
619.71	6.35
620.043	6.38
620.377	6.33
620.71	6.24
621.043	6.12
621.377	6
621.71	6.44
622.043	6.29
622.376	6.51
622.709	6.6
623.043	6.4
623.376	6.55
623.709	6.64
624.041	6.22
624.374	6.55
624.707	6.29
625.04	6.27
625.373	6.57
625.705	6.42
626.038	6.18
626.37	6.6
626.703	6.4
627.035	6.44
627.368	6.64
627.7	6.51
628.032	6.14
628.365	6.43
628.697	6.43
629.029	6.16
629.361	6.49
629.693	6.39
630.025	5.99
630.357	6.53
630.689	6.14
631.021	6.52
631.353	6.9
631.684	6.21
632.016	6.63
632.348	6.69
632.679	6.29
633.011	6.67
633.342	6.71
633.674	6.55
634.005	6.75
634.336	6.87
634.668	6.26
634.999	6.67
635.33	6.69
635.661	6.77
635.992	6.37
636.323	6.1
636.654	6.57
636.985	6.64
637.316	6.67
637.647	6.66
637.977	6.54
638.308	6.38
638.639	6.49
638.969	6.43
639.3	6.32
639.63	6.7
639.961	6.39
640.291	6.57
640.622	6.28
640.952	6.62
641.282	6.55
641.612	6.78
641.943	6.49
642.273	6.96
642.603	6.7
642.933	6.49
643.263	6.72
643.592	6.59
643.922	6.75
644.252	6.71
644.582	6.46
644.911	6.37
645.241	5.76
645.571	7.17
645.9	6.6
646.23	6.23
646.559	6.93
646.888	6.4
647.218	6.56
647.547	6.55
647.876	6.44
648.205	6.67
648.534	6.67
648.863	6.32
649.192	7.44
649.521	7.19
649.85	6.81
650.179	7.32
650.508	6.68
650.837	6.55
651.165	6.45
651.494	6.66
651.822	6.47
652.151	6.86
652.479	6.98
652.808	6.86
653.136	6.69
653.465	6.84
653.793	6.59
654.121	6.77
654.449	7.15
654.777	7.33
655.105	6.73
655.433	6.73
655.761	6.62
656.089	6.62
656.417	7.19
656.745	6.41
657.073	5.97
657.4	6.68
657.728	6.17
658.056	7.07
658.383	6.3
658.711	6.72
659.038	6.74
659.365	7.6
659.693	6.53
660.02	6.81
660.347	7.22
660.674	6.72
661.001	6.94
661.329	6.74
661.656	6.36
661.982	6.77
662.309	7.07
662.636	6.79
662.963	7.22
663.29	6.94
663.616	7.13
663.943	7.09
664.27	7.31
664.596	7.37
664.923	7.62
665.249	6.63
665.576	7.26
665.902	6.85
666.228	7.04
666.554	7.4
666.881	6.14
667.207	7.22
667.533	7.1
667.859	6.63
668.185	7.25
668.511	6.68
668.837	7.17
669.162	7.61
669.488	7.1
669.814	7.14
670.139	7.44
670.465	6.25
670.791	6.71
671.116	6.55
671.442	7.06
671.767	6.89
672.092	7.23
672.418	7.36
672.743	6.89
673.068	6.55
673.393	6.91
673.718	7.22
674.043	7.25
674.368	6.3
674.693	7.24
675.018	7.46
675.343	7.06
675.667	6.83
675.992	7.03
676.317	6.44
676.641	6.36
676.966	7.06
677.29	6.63
677.615	6.89
677.939	7.07
678.264	7.66
678.588	7.56
678.912	7.88
679.236	6.59
679.56	6.72
679.885	7.67
680.209	7.18
680.532	7.15
680.856	7.11
681.18	6.57
681.504	7.66
681.828	7.31
682.152	7.08
682.475	7.54
682.799	7.45
683.122	6.6
683.446	7.36
683.769	8.02
684.093	7.25
684.416	7.31
684.739	7.72
685.062	7.28
685.386	7.47
685.709	8.23
686.032	7.34
686.355	6.73
686.678	7.36
687.001	7.79
687.324	7.46
687.646	7.88
687.969	6.64
688.292	7.2
688.614	7.38
688.937	7.52
689.26	7.25
689.582	6.33
689.904	6.73
690.227	7.44
690.549	7.45
690.871	7.07
691.194	7.09
691.516	7.86
691.838	7.14
692.16	7.55
692.482	7.62
