Data from 0403_chest_Reflection__1__168.txt Node

Date: Tue Dec 12 19:46:39 CST 2023
User: ToomeyLab
Spectrometer: FLMS14357
Trigger mode: 0
Integration Time (sec): 1.000000E-2
Scans to average: 100
Electric dark correction enabled: true
Nonlinearity correction enabled: false
Boxcar width: 0
XAxis mode: Wavelengths
Number of Pixels in Spectrum: 2048
>>>>>Begin Spectral Data<<<<<
189.047	-10.56
189.435	-10.56
189.823	-10.56
190.211	184.61
190.599	56.12
190.987	151.77
191.375	72.87
191.763	221.91
192.151	150.75
192.538	-30.43
192.926	64.37
193.314	138.2
193.702	132.76
194.089	-82.71
194.477	12.57
194.864	9.39
195.252	-448.04
195.639	-9.45
196.027	209.97
196.414	-63.82
196.801	226.59
197.189	15.19
197.576	123.47
197.963	7.74
198.351	30.25
198.738	4.92
199.125	11.86
199.512	-18.21
199.899	22.04
200.286	35.91
200.673	-15.3
201.06	11.95
201.447	-28.26
201.833	-4.06
202.22	17.26
202.607	-55.74
202.994	6.64
203.38	36.33
203.767	-7.65
204.154	-8.65
204.54	28.68
204.927	14.6
205.313	21.63
205.699	40.28
206.086	5.25
206.472	40.7
206.858	38.13
207.245	2.44
207.631	-0.94
208.017	29.64
208.403	-8.69
208.789	-8.43
209.175	17.96
209.561	71.05
209.947	4.89
210.333	3.45
210.719	7.21
211.105	-45.82
211.491	5.24
211.876	16.64
212.262	23.38
212.648	-19.39
213.034	-66.49
213.419	-4.62
213.805	-19.54
214.19	31.08
214.576	11.22
214.961	17.97
215.346	2.6
215.732	33.99
216.117	12.97
216.502	-16.44
216.888	-19.37
217.273	-24.01
217.658	-17.93
218.043	-13.9
218.428	-10.9
218.813	13.03
219.198	0.22
219.583	-10.47
219.968	16.86
220.353	-14.1
220.738	15.67
221.122	22.21
221.507	-19.78
221.892	19.44
222.276	2.54
222.661	-2.78
223.046	-15.66
223.43	17.24
223.815	11.82
224.199	18.78
224.583	-9.88
224.968	-0.36
225.352	-11.22
225.736	8.86
226.121	11.31
226.505	9.77
226.889	6.34
227.273	3.1
227.657	7.07
228.041	3.74
228.425	0.36
228.809	5.82
229.193	3.4
229.577	5.66
229.961	2.66
230.344	4.27
230.728	4.58
231.112	4.02
231.495	3.98
231.879	4.73
232.263	2.81
232.646	3.96
233.03	4.28
233.413	1.78
233.797	4.04
234.18	0.04
234.563	1.05
234.946	3.07
235.33	4.98
235.713	4.69
236.096	3.58
236.479	3.51
236.862	4.17
237.245	2.36
237.628	1.45
238.011	4.13
238.394	2.83
238.777	3.4
239.16	3.43
239.543	4.05
239.925	4.8
240.308	4.04
240.691	2.57
241.073	4.08
241.456	3.4
241.838	4.2
242.221	3.93
242.603	3.85
242.986	3.63
243.368	4.07
243.75	3.85
244.133	4.3
244.515	4.02
244.897	3.85
245.279	4.82
245.661	3.07
246.043	3.22
246.425	3.26
246.807	2.75
247.189	4.34
247.571	4.14
247.953	3.22
248.335	3.65
248.717	3.3
249.098	3.64
249.48	3.44
249.862	3.16
250.243	3.04
250.625	4.11
251.006	3.74
251.388	3.56
251.769	3.68
252.151	3.84
252.532	4.02
252.913	4.32
253.295	3.67
253.676	3.25
254.057	2.76
254.438	3.89
254.819	2.55
255.2	3.08
255.581	2.95
255.962	3.05
256.343	4.01
256.724	3.09
257.105	3.88
257.486	2.19
257.867	3.39
258.247	2.76
258.628	3.76
259.009	2.38
259.389	3.03
259.77	2.78
260.15	3.58
260.531	3.66
260.911	3.77
261.292	3.05
261.672	3.05
262.052	3.29
262.432	3.31
262.813	3.16
263.193	3.15
263.573	3.77
263.953	3.88
264.333	4.39
264.713	2.79
265.093	2.69
265.473	4.13
265.853	2.66
266.233	3.81
266.612	2.77
266.992	2.94
267.372	3.69
267.752	3.98
268.131	2.85
268.511	2.92
268.89	2.28
269.27	3.13
269.649	3.11
270.029	2.7
270.408	3.6
270.787	2.96
271.167	3.58
271.546	3.88
271.925	3.89
272.304	3.83
272.683	2.42
273.062	2.85
273.441	3.55
273.82	2.77
274.199	2.95
274.578	2.95
274.957	2.72
275.336	3.42
275.715	3
276.093	2.08
276.472	3.39
276.851	3.54
277.229	2.61
277.608	3.27
277.986	2.68
278.365	3.7
278.743	3.49
279.122	3.58
279.5	3.23
279.878	2.08
280.257	3.26
280.635	3.11
281.013	3.23
281.391	3.25
281.769	2.93
282.147	3.43
282.525	2.16
282.903	2.86
283.281	3.18
283.659	3.55
284.037	3.52
284.415	3.08
284.792	2.72
285.17	3.19
285.548	3
285.925	2.99
286.303	3
286.68	3.13
287.058	2.98
287.435	3.05
287.813	2.79
288.19	3.1
288.567	3.36
288.945	2.99
289.322	2.2
289.699	2.63
290.076	3.08
290.453	3.24
290.83	3.03
291.207	2.99
291.584	3.1
291.961	2.96
292.338	3.09
292.715	3.07
293.092	2.94
293.469	2.67
293.845	3.55
294.222	3.3
294.599	3.05
294.975	3.34
295.352	2.59
295.728	3.38
296.105	2.85
296.481	3.28
296.858	2.97
297.234	3.36
297.61	2.61
297.986	3.24
298.363	3.36
298.739	2.7
299.115	2.77
299.491	2.93
299.867	2.82
300.243	2.98
300.619	3.24
300.995	3.3
301.371	3.12
301.746	3.13
302.122	3.42
302.498	3.17
302.874	3.33
303.249	3.75
303.625	2.68
304	3
304.376	2.99
304.751	3.26
305.127	3.05
305.502	2.86
305.878	2.96
306.253	3.47
306.628	2.9
307.003	2.83
307.378	2.07
307.754	2.74
308.129	2.81
308.504	3.92
308.879	2.59
309.254	3.53
309.629	2.71
310.003	2.89
310.378	3.03
310.753	3.38
311.128	3.59
311.502	2.81
311.877	2.92
312.252	2.35
312.626	3.25
313.001	3.12
313.375	2.37
313.75	2.98
314.124	3.22
314.498	3.04
314.873	3.14
315.247	3.31
315.621	2.97
315.995	3.73
316.369	3.38
316.743	2.89
317.117	2.47
317.491	2.55
317.865	3.27
318.239	3.31
318.613	3.3
318.987	3.23
319.361	2.38
319.734	3.03
320.108	3.25
320.482	2.87
320.855	2.99
321.229	3.34
321.602	2.99
321.976	3.1
322.349	2.89
322.723	2.36
323.096	3.09
323.469	2.96
323.843	3.02
324.216	3.33
324.589	2.93
324.962	3.47
325.335	3.52
325.708	2.88
326.081	3.77
326.454	3.42
326.827	3.58
327.2	2.53
327.573	2.86
327.945	3.28
328.318	3.12
328.691	2.17
329.063	3.36
329.436	3.42
329.809	3.18
330.181	2.41
330.553	3.04
330.926	3.4
331.298	3.08
331.671	2.9
332.043	2.78
332.415	3.34
332.787	3.06
333.159	2.6
333.532	3.17
333.904	2.74
334.276	3.17
334.648	2.54
335.02	2.9
335.391	2.7
335.763	2.76
336.135	2.96
336.507	3.13
336.879	2.79
337.25	3.22
337.622	2.97
337.993	2.74
338.365	2.78
338.736	3.31
339.108	2.6
339.479	3.24
339.851	3.27
340.222	2.7
340.593	2.84
340.964	3.12
341.336	3.24
341.707	2.91
342.078	2.53
342.449	3.12
342.82	3.32
343.191	2.94
343.562	3.05
343.933	3.71
344.303	2.97
344.674	2.94
345.045	3.12
345.416	3.67
345.786	2.74
346.157	3.02
346.527	3.7
346.898	2.95
347.268	3.09
347.639	3.25
348.009	2.8
348.38	3.09
348.75	3.22
349.12	2.81
349.49	2.6
349.861	3.34
350.231	3.38
350.601	3.51
350.971	2.91
351.341	2.75
351.711	3.37
352.081	2.96
352.45	3.3
352.82	3.03
353.19	3.28
353.56	2.69
353.929	2.64
354.299	3.07
354.669	2.9
355.038	2.35
355.408	2.47
355.777	3.1
356.147	2.74
356.516	3.41
356.885	3.26
357.254	3.18
357.624	2.84
357.993	2.94
358.362	3.1
358.731	2.99
359.1	2.76
359.469	2.91
359.838	3.13
360.207	2.85
360.576	2.94
360.945	2.71
361.314	3.13
361.682	3.25
362.051	3.05
362.42	3.27
362.788	2.9
363.157	3.48
363.525	3.27
363.894	3.07
364.262	3.03
364.631	2.89
364.999	2.86
365.367	3.14
365.735	2.75
366.104	3.19
366.472	2.56
366.84	3.35
367.208	3.05
367.576	3.09
367.944	3.11
368.312	3.09
368.68	3.07
369.048	3.43
369.416	2.97
369.783	3.08
370.151	3.2
370.519	3.28
370.886	3.22
371.254	2.87
371.621	3.21
371.989	2.69
372.356	3
372.724	2.96
373.091	3.1
373.458	3.22
373.826	3.3
374.193	3
374.56	3.18
374.927	3.05
375.294	3.02
375.661	3.19
376.028	3.2
376.395	3.24
376.762	3.37
377.129	3.32
377.496	3.03
377.863	2.99
378.229	3.04
378.596	3
378.963	3.36
379.329	2.88
379.696	2.99
380.062	3.36
380.429	3.07
380.795	3.3
381.161	3.08
381.528	3.18
381.894	3.5
382.26	2.83
382.626	3.18
382.993	3.26
383.359	3.17
383.725	3
384.091	3.06
384.457	3.24
384.823	3.23
385.188	3.35
385.554	3.32
385.92	3.05
386.286	3.44
386.651	3.12
387.017	3.37
387.383	3.32
387.748	3.34
388.114	3.44
388.479	3.48
388.845	3.13
389.21	3.16
389.575	3.03
389.94	3.24
390.306	3.17
390.671	3.05
391.036	3.17
391.401	3.05
391.766	3.56
392.131	3.21
392.496	2.94
392.861	3.13
393.226	3.52
393.591	3.29
393.956	3.14
394.32	3.39
394.685	3.22
395.05	3.22
395.414	3.3
395.779	2.97
396.143	3.36
396.508	3.02
396.872	3.17
397.236	3.24
397.601	3.25
397.965	2.94
398.329	3.19
398.694	2.97
399.058	3.27
399.422	3.18
399.786	3.25
400.15	3.13
400.514	3.32
400.878	3.26
401.242	3.37
401.605	3.37
401.969	3.23
402.333	3.48
402.697	3.2
403.06	3.18
403.424	3.26
403.787	3.06
404.151	3.63
404.514	3.04
404.878	3.26
405.241	3.3
405.604	3.16
405.968	3.21
406.331	3.3
406.694	3.39
407.057	3.25
407.42	3.16
407.783	2.85
408.146	3.18
408.509	3.12
408.872	3.29
409.235	3.31
409.598	3.04
409.961	3.27
410.323	3.2
410.686	3.22
411.049	3.43
411.411	3.41
411.774	3.25
412.136	3.27
412.499	3.18
412.861	3.43
413.223	3.69
413.586	3.2
413.948	3.03
414.31	3.44
414.672	3.3
415.035	3.27
415.397	3.25
415.759	3.29
416.121	3.38
416.483	3.47
416.845	3.23
417.206	3.49
417.568	3.23
417.93	3.51
418.292	3.25
418.653	3.32
419.015	3.39
419.377	3.03
419.738	3.18
420.1	3.26
420.461	3.2
420.822	3.22
421.184	3.19
421.545	3.26
421.906	3.16
422.267	3.13
422.629	3.13
422.99	3.23
423.351	3.24
423.712	3.1
424.073	3.18
424.434	3.19
424.795	3.33
425.155	3.24
425.516	3.12
425.877	3.22
426.238	3.12
426.598	3.22
426.959	3.12
427.32	3.24
427.68	3.23
428.041	3.27
428.401	3.26
428.761	3.28
429.122	3.44
429.482	3.4
429.842	3.4
430.202	3.24
430.563	3.34
430.923	3.49
431.283	3.3
431.643	3.32
432.003	3.38
432.363	3.48
432.722	3.29
433.082	3.28
433.442	3.43
433.802	3.38
434.161	3.31
434.521	3.47
434.881	3.32
435.24	3.39
435.6	3.4
435.959	3.43
436.319	3.37
436.678	3.4
437.037	3.3
437.396	3.23
437.756	3.23
438.115	3.43
438.474	3.22
438.833	3.43
439.192	3.42
439.551	3.43
439.91	3.24
440.269	3.21
440.628	3.25
440.987	3.32
441.345	3.47
441.704	3.3
442.063	3.44
442.421	3.27
442.78	3.23
443.138	3.29
443.497	3.36
443.855	3.29
444.214	3.29
444.572	3.53
444.93	3.39
445.288	3.24
445.647	3.41
446.005	3.39
446.363	3.3
446.721	3.31
447.079	3.36
447.437	3.23
447.795	3.29
448.153	3.33
448.51	3.4
448.868	3.37
449.226	3.42
449.584	3.34
449.941	3.38
450.299	3.43
450.656	3.33
451.014	3.42
451.371	3.35
451.729	3.53
452.086	3.44
452.443	3.49
452.801	3.36
453.158	3.35
453.515	3.55
453.872	3.5
454.229	3.51
454.586	3.26
454.943	3.21
455.3	3.33
455.657	3.53
456.014	3.52
456.371	3.45
456.727	3.47
457.084	3.52
457.441	3.45
457.797	3.37
458.154	3.34
458.51	3.35
458.867	3.53
459.223	3.49
459.58	3.43
459.936	3.25
460.292	3.34
460.648	3.53
461.005	3.38
461.361	3.38
461.717	3.36
462.073	3.29
462.429	3.38
462.785	3.42
463.141	3.53
463.496	3.35
463.852	3.7
464.208	3.51
464.564	3.45
464.919	3.49
465.275	3.46
465.631	3.58
465.986	3.35
466.342	3.54
466.697	3.58
467.052	3.64
467.408	3.47
467.763	3.55
468.118	3.47
468.473	3.74
468.829	3.63
469.184	3.41
469.539	3.49
469.894	3.72
470.249	3.6
470.603	3.56
470.958	3.46
471.313	3.68
471.668	3.62
472.023	3.55
472.377	3.69
472.732	3.64
473.086	3.63
473.441	3.63
473.795	3.47
474.15	3.57
474.504	3.46
474.859	3.52
475.213	3.53
475.567	3.63
475.921	3.53
476.275	3.54
476.63	3.65
476.984	3.72
477.338	3.47
477.692	3.56
478.045	3.59
478.399	3.48
478.753	3.47
479.107	3.5
479.461	3.61
479.814	3.61
480.168	3.37
480.521	3.51
480.875	3.67
481.228	3.68
481.582	3.52
481.935	3.69
482.289	3.63
482.642	3.67
482.995	3.6
483.348	3.54
483.701	3.75
484.055	3.52
484.408	3.44
484.761	3.49
485.114	3.41
485.466	3.37
485.819	3.3
486.172	3.31
486.525	3.37
486.878	3.38
487.23	3.44
487.583	3.43
487.936	3.6
488.288	3.4
488.641	3.49
488.993	3.42
489.345	3.49
489.698	3.43
490.05	3.42
490.402	3.47
490.754	3.54
491.107	3.53
491.459	3.55
491.811	3.56
492.163	3.51
492.515	3.61
492.866	3.49
493.218	3.41
493.57	3.46
493.922	3.38
494.274	3.57
494.625	3.59
494.977	3.63
495.328	3.76
495.68	3.65
496.031	3.72
496.383	3.66
496.734	3.63
497.086	3.58
497.437	3.72
497.788	3.71
498.139	3.67
498.49	3.79
498.842	3.67
499.193	3.7
499.544	3.63
499.894	3.66
500.245	3.79
500.596	3.76
500.947	3.74
501.298	3.72
501.648	3.89
501.999	3.69
502.35	3.74
502.7	3.74
503.051	3.71
503.401	3.69
503.752	3.94
504.102	3.81
504.452	3.81
504.803	3.76
505.153	3.76
505.503	3.91
505.853	3.79
506.203	3.72
506.553	3.69
506.903	3.79
507.253	3.9
507.603	3.82
507.953	3.7
508.303	3.81
508.652	3.83
509.002	3.89
509.352	3.9
509.701	3.95
510.051	3.88
510.4	3.9
510.75	3.83
511.099	3.82
511.449	3.9
511.798	3.78
512.147	3.86
512.496	3.89
512.846	3.83
513.195	3.81
513.544	3.9
513.893	3.85
514.242	3.81
514.591	3.75
514.939	3.91
515.288	3.79
515.637	3.79
515.986	3.83
516.334	3.89
516.683	3.86
517.032	3.98
517.38	3.88
517.729	3.98
518.077	3.77
518.426	4
518.774	3.96
519.122	3.94
519.47	3.88
519.819	3.9
520.167	3.86
520.515	3.83
520.863	3.87
521.211	3.87
521.559	4
521.907	3.88
522.255	3.91
522.602	4.07
522.95	4.01
523.298	4.01
523.645	4.08
523.993	3.96
524.341	4.01
524.688	4
525.036	4.1
525.383	3.94
525.73	4
526.078	4.09
526.425	4.01
526.772	4.03
527.119	4.03
527.466	4.05
527.814	3.96
528.161	4.04
528.508	4.06
528.854	4.02
529.201	4.08
529.548	3.96
529.895	3.91
530.242	3.9
530.588	3.84
530.935	3.9
531.282	3.97
531.628	3.97
531.975	3.91
532.321	4
532.667	4
533.014	4.04
533.36	3.99
533.706	3.99
534.052	4.15
534.399	4.1
534.745	4.09
535.091	4.02
535.437	4.06
535.783	3.97
536.129	4.09
536.474	4.08
536.82	4.18
537.166	4.19
537.512	4.2
537.857	4.21
538.203	4.29
538.549	4.14
538.894	4.22
539.239	4.18
539.585	4.19
539.93	4.35
540.276	4.25
540.621	4.34
540.966	4.27
541.311	4.25
541.656	4.32
542.001	4.31
542.346	4.25
542.691	4.18
543.036	4.18
543.381	4.09
543.726	4.21
544.071	4.24
544.415	4.18
544.76	4.34
545.105	4.34
545.449	4.31
545.794	4.44
546.138	4.22
546.483	4.39
546.827	4.45
547.171	4.52
547.516	4.5
547.86	4.54
548.204	4.43
548.548	4.34
548.892	4.47
549.236	4.55
549.58	4.48
549.924	4.66
550.268	4.67
550.612	4.44
550.956	4.59
551.3	4.7
551.643	4.76
551.987	4.69
552.33	4.61
552.674	4.83
553.017	4.93
553.361	4.86
553.704	4.7
554.048	4.73
554.391	4.69
554.734	4.77
555.077	4.75
555.42	4.69
555.764	4.94
556.107	4.86
556.45	4.6
556.793	4.67
557.135	4.72
557.478	4.8
557.821	4.75
558.164	4.95
558.507	4.94
558.849	4.84
559.192	4.83
559.534	4.74
559.877	4.9
560.219	4.94
560.562	5.06
560.904	5.01
561.246	5.06
561.589	5.3
561.931	4.87
562.273	4.93
562.615	5.02
562.957	5.04
563.299	5.04
563.641	5.21
563.983	5.18
564.325	5.13
564.667	5.17
565.008	4.88
565.35	5.07
565.692	5.08
566.033	5.09
566.375	5.15
566.716	4.94
567.058	5.17
567.399	5.28
567.741	5.45
568.082	5.27
568.423	5.23
568.764	5.21
569.105	5.27
569.447	5.37
569.788	5.3
570.129	5.27
570.47	5.25
570.811	5.38
571.151	5.5
571.492	5.56
571.833	5.48
572.174	5.49
572.514	5.45
572.855	5.48
573.195	5.32
573.536	5.32
573.876	5.46
574.217	5.53
574.557	5.44
574.898	5.35
575.238	5.6
575.578	5.42
575.918	5.52
576.258	5.65
576.598	5.56
576.938	5.64
577.278	5.59
577.618	5.67
577.958	5.61
578.298	5.7
578.638	5.7
578.977	5.81
579.317	5.85
579.657	5.76
579.996	5.9
580.336	5.72
580.675	5.85
581.014	5.85
581.354	6.14
581.693	5.88
582.032	5.69
582.372	5.73
582.711	5.91
583.05	6.12
583.389	6.14
583.728	6.07
584.067	6.1
584.406	6.15
584.745	6.24
585.083	5.82
585.422	6.12
585.761	6.21
586.1	6.1
586.438	6.36
586.777	6.1
587.115	6.26
587.454	6.42
587.792	6.2
588.13	6.28
588.469	6.37
588.807	6.3
589.145	6.1
589.483	6.25
589.821	6.4
590.159	6.3
590.497	6.41
590.835	6.35
591.173	6.42
591.511	6.34
591.849	6.24
592.187	6.58
592.524	6.36
592.862	6.26
593.2	6.4
593.537	6.41
593.875	6.53
594.212	6.71
594.55	6.61
594.887	6.75
595.224	6.78
595.561	6.75
595.899	6.46
596.236	6.58
596.573	6.81
596.91	6.9
597.247	6.64
597.584	6.75
597.921	6.82
598.258	6.94
598.594	7.02
598.931	6.75
599.268	6.67
599.604	6.57
599.941	6.84
600.277	6.74
600.614	6.93
600.95	6.93
601.287	6.88
601.623	7.09
601.959	7.08
602.296	7.33
602.632	6.92
602.968	7.11
603.304	7.02
603.64	7.27
603.976	7.09
604.312	7.28
604.648	7.22
604.984	7.12
605.319	7.12
605.655	7.13
605.991	7.3
606.326	7.16
606.662	7.27
606.998	6.99
607.333	7.37
607.668	7.36
608.004	7.44
608.339	7.43
608.674	7.33
609.01	7.45
609.345	7.49
609.68	7.52
610.015	7.34
610.35	7.34
610.685	7.59
611.02	7.65
611.355	7.49
611.689	7.7
612.024	7.41
612.359	7.52
612.694	7.58
613.028	7.55
613.363	7.73
613.697	7.75
614.032	7.76
614.366	7.68
614.7	7.58
615.035	7.71
615.369	7.82
615.703	8.24
616.037	8.01
616.371	8.2
616.705	8.13
617.039	7.94
617.373	7.93
617.707	7.91
618.041	7.88
618.375	7.86
618.709	8.03
619.042	8.29
619.376	8.18
619.71	7.94
620.043	8
620.377	8.28
620.71	8.16
621.043	8.08
621.377	7.65
621.71	8.27
622.043	8.34
622.376	8.33
622.709	8.53
623.043	8.48
623.376	8.74
623.709	8.56
624.041	8.59
624.374	8.13
624.707	8.61
625.04	8.5
625.373	9
625.705	8.88
626.038	8.72
626.37	8.59
626.703	8.83
627.035	8.6
627.368	8.95
627.7	8.75
628.032	8.72
628.365	8.74
628.697	8.83
629.029	8.56
629.361	8.62
629.693	9.01
630.025	8.69
630.357	8.77
630.689	8.41
631.021	9.15
631.353	9.1
631.684	8.85
632.016	8.91
632.348	9.09
632.679	8.54
633.011	9.37
633.342	9.17
633.674	9.43
634.005	9.39
634.336	9.11
634.668	9.25
634.999	9.55
635.33	9.52
635.661	9.31
635.992	9.4
636.323	8.8
636.654	9.45
636.985	9.55
637.316	9.5
637.647	9.47
637.977	9.56
638.308	9.68
638.639	9.81
638.969	9.73
639.3	9.19
639.63	9.8
639.961	9.69
640.291	9.56
640.622	9.71
640.952	10.11
641.282	9.58
641.612	9.87
641.943	9.79
642.273	9.91
642.603	10.05
642.933	9.85
643.263	9.53
643.592	10.28
643.922	10.09
644.252	9.89
644.582	9.31
644.911	9.94
645.241	9.99
645.571	10.25
645.9	9.92
646.23	10.28
646.559	10.23
646.888	10.03
647.218	10.39
647.547	10.45
647.876	10.25
648.205	10.23
648.534	10.1
648.863	10.13
649.192	10.51
649.521	10.42
649.85	10.43
650.179	10.83
650.508	10.88
650.837	10.89
651.165	9.96
651.494	10.85
651.822	10.27
652.151	10.48
652.479	11
652.808	10.87
653.136	10.58
653.465	11.07
653.793	10.6
654.121	11.03
654.449	10.67
654.777	11.03
655.105	10.86
655.433	10.99
655.761	10.77
656.089	10.9
656.417	10.98
656.745	11.13
657.073	10.85
657.4	10.89
657.728	10.73
658.056	10.97
658.383	10.57
658.711	11.33
659.038	10.64
659.365	11.45
659.693	10.88
660.02	10.63
660.347	11.27
660.674	10.97
661.001	11.38
661.329	11.33
661.656	11.03
661.982	11.06
662.309	11.57
662.636	11.65
662.963	11.19
663.29	12
663.616	11.6
663.943	11.77
664.27	12.16
664.596	11.98
664.923	12.51
665.249	11.67
665.576	12.08
665.902	12.08
666.228	11.94
666.554	11.88
666.881	11.11
667.207	11.72
667.533	12.27
667.859	11.97
668.185	11.9
668.511	12.27
668.837	12.26
669.162	12.59
669.488	11.73
669.814	12.11
670.139	12.32
670.465	11.52
670.791	12.19
671.116	12.27
671.442	12.15
671.767	12.04
672.092	12.96
672.418	12.89
672.743	12.25
673.068	11.8
673.393	12.21
673.718	12.76
674.043	12.35
674.368	11.98
674.693	12.35
675.018	12
675.343	11.83
675.667	12.66
675.992	13.18
676.317	12.64
676.641	12.48
676.966	13.01
677.29	12.66
677.615	12.69
677.939	13.24
678.264	13.58
678.588	12.78
678.912	13.66
679.236	13.3
679.56	13.14
679.885	13.22
680.209	13.16
680.532	12.95
680.856	12.91
681.18	13
681.504	13.2
681.828	12.84
682.152	12.78
682.475	12.82
682.799	13.34
683.122	13.39
683.446	13.45
683.769	13.9
684.093	13.01
684.416	13.26
684.739	13.65
685.062	13.21
685.386	13.98
685.709	14.1
686.032	12.96
686.355	13.22
686.678	13.71
687.001	13.49
687.324	13.41
687.646	13.6
687.969	14.12
688.292	13.57
688.614	13.6
688.937	13.65
689.26	13.79
689.582	13.41
689.904	13.3
690.227	14.29
