Data from 0403_forehead_Reflection__4__181.txt Node

Date: Tue Dec 12 19:51:05 CST 2023
User: ToomeyLab
Spectrometer: FLMS14357
Trigger mode: 0
Integration Time (sec): 1.000000E-2
Scans to average: 100
Electric dark correction enabled: true
Nonlinearity correction enabled: false
Boxcar width: 0
XAxis mode: Wavelengths
Number of Pixels in Spectrum: 2048
>>>>>Begin Spectral Data<<<<<
189.047	147.11
189.435	147.11
189.823	147.11
190.211	-75.77
190.599	45.44
190.987	363.1
191.375	-40.13
191.763	1567.59
192.151	88.09
192.538	-56.7
192.926	301.43
193.314	-34.05
193.702	17.03
194.089	13.11
194.477	81.28
194.864	-66.82
195.252	-268.32
195.639	-76.4
196.027	314.86
196.414	242.32
196.801	-121.18
197.189	39.19
197.576	61.36
197.963	44.07
198.351	67.01
198.738	51.76
199.125	24.15
199.512	-41.49
199.899	30.36
200.286	4.28
200.673	29.91
201.06	45.91
201.447	-25.14
201.833	1.1
202.22	50.83
202.607	-57.29
202.994	52.06
203.38	14.71
203.767	4.24
204.154	13.99
204.54	26.3
204.927	18.53
205.313	21.08
205.699	-40.68
206.086	33.17
206.472	54.49
206.858	22.55
207.245	15.46
207.631	39.29
208.017	23.54
208.403	3.23
208.789	38.49
209.175	1.04
209.561	48.66
209.947	-3.78
210.333	27.8
210.719	-23.83
211.105	36.13
211.491	31.15
211.876	21.19
212.262	37.66
212.648	-39.29
213.034	3.62
213.419	10.03
213.805	60.2
214.19	59.16
214.576	28.09
214.961	19.62
215.346	-9.44
215.732	61.72
216.117	-10.3
216.502	-1.01
216.888	-1.36
217.273	-4.32
217.658	0.09
218.043	-17.41
218.428	32.99
218.813	13.3
219.198	10.79
219.583	-1.67
219.968	54.86
220.353	7.11
220.738	22.94
221.122	2.26
221.507	-19.12
221.892	13.07
222.276	15.8
222.661	28.11
223.046	3.38
223.43	7.5
223.815	3.71
224.199	6.17
224.583	10.35
224.968	24.4
225.352	2.35
225.736	16.54
226.121	2.7
226.505	4.27
226.889	11.63
227.273	6.41
227.657	9.39
228.041	7.82
228.425	6.1
228.809	2.78
229.193	3.15
229.577	9.4
229.961	5.31
230.344	7.33
230.728	7.99
231.112	7.25
231.495	7.04
231.879	7.24
232.263	6
232.646	7.59
233.03	7.48
233.413	6.68
233.797	7.09
234.18	6.09
234.563	4.76
234.946	8.16
235.33	7.67
235.713	6.77
236.096	6.18
236.479	7.04
236.862	7.51
237.245	6.69
237.628	7.73
238.011	4.94
238.394	6.78
238.777	7.13
239.16	8.97
239.543	5.98
239.925	9.04
240.308	5.33
240.691	8.85
241.073	7.74
241.456	5.93
241.838	5.03
242.221	6.55
242.603	6.77
242.986	4.72
243.368	6.17
243.75	5.84
244.133	5.45
244.515	6.17
244.897	6.13
245.279	7.23
245.661	6.13
246.043	4.84
246.425	6.24
246.807	5.95
247.189	6.27
247.571	6.41
247.953	5.69
248.335	6.17
248.717	5.73
249.098	5.84
249.48	5.72
249.862	5.78
250.243	6.05
250.625	6.31
251.006	6.09
251.388	6.25
251.769	5.9
252.151	5.52
252.532	5.92
252.913	6.88
253.295	7.36
253.676	5.77
254.057	5.29
254.438	5.79
254.819	5.9
255.2	6.15
255.581	5.27
255.962	4.32
256.343	5.59
256.724	5.66
257.105	6.16
257.486	6.26
257.867	5.25
258.247	5.12
258.628	6.04
259.009	5.4
259.389	5.8
259.77	5.48
260.15	5.87
260.531	6.03
260.911	5.95
261.292	5.5
261.672	5.47
262.052	5.41
262.432	5.59
262.813	5.6
263.193	6.46
263.573	5.87
263.953	6.12
264.333	6.25
264.713	5.18
265.093	5.07
265.473	5.81
265.853	4.5
266.233	5.02
266.612	5.32
266.992	5.74
267.372	5.31
267.752	6.01
268.131	4.45
268.511	5.12
268.89	4.68
269.27	5.03
269.649	6.02
270.029	5.2
270.408	5.85
270.787	6.02
271.167	5.42
271.546	5.92
271.925	5.93
272.304	6.04
272.683	4.71
273.062	5
273.441	5.32
273.82	5.11
274.199	5.18
274.578	4.62
274.957	5.54
275.336	4.85
275.715	5
276.093	4.54
276.472	5.59
276.851	5.98
277.229	5.07
277.608	5.68
277.986	4.64
278.365	5.08
278.743	5.11
279.122	5.39
279.5	5.01
279.878	4.77
280.257	5.5
280.635	4.96
281.013	4.99
281.391	5.64
281.769	5.37
282.147	5.53
282.525	4.37
282.903	4.85
283.281	4.96
283.659	5.56
284.037	5.53
284.415	5.23
284.792	5.19
285.17	4.95
285.548	5.82
285.925	5.24
286.303	4.86
286.68	5.44
287.058	5.42
287.435	5.08
287.813	4.75
288.19	5.1
288.567	5.24
288.945	5.3
289.322	4.4
289.699	5.05
290.076	5.27
290.453	5.39
290.83	5.05
291.207	5.73
291.584	5.25
291.961	5.08
292.338	4.76
292.715	5.48
293.092	4.97
293.469	4.99
293.845	5.52
294.222	4.99
294.599	5.67
294.975	5.14
295.352	5.16
295.728	5.01
296.105	5.49
296.481	5.61
296.858	5.07
297.234	5.54
297.61	5.86
297.986	5.7
298.363	5.39
298.739	5.31
299.115	4.81
299.491	5.06
299.867	5.03
300.243	5.49
300.619	5.58
300.995	5.64
301.371	5.71
301.746	5.67
302.122	6.32
302.498	5.85
302.874	5.84
303.249	6.08
303.625	5.49
304	5.59
304.376	5.26
304.751	5.78
305.127	5.43
305.502	5.83
305.878	5.49
306.253	5.37
306.628	5.41
307.003	5.81
307.378	5.71
307.754	5.8
308.129	5.69
308.504	6.28
308.879	5.31
309.254	6.25
309.629	6.66
310.003	6.14
310.378	6.08
310.753	6.25
311.128	6.42
311.502	5.7
311.877	5.39
312.252	5.37
312.626	5.93
313.001	6.22
313.375	6.12
313.75	6.47
314.124	6.62
314.498	6.11
314.873	6.12
315.247	6.78
315.621	5.84
315.995	6.76
316.369	6.84
316.743	5.65
317.117	6.38
317.491	6
317.865	6.88
318.239	6.16
318.613	7.28
318.987	6.68
319.361	6.48
319.734	6.56
320.108	6.89
320.482	6.13
320.855	6.39
321.229	6.26
321.602	6.9
321.976	6.68
322.349	6.71
322.723	6.77
323.096	6.22
323.469	6.67
323.843	7.46
324.216	6.72
324.589	7.3
324.962	6.87
325.335	7.11
325.708	6.62
326.081	7.04
326.454	6.84
326.827	7.32
327.2	7.37
327.573	6.94
327.945	7.13
328.318	7.08
328.691	6.42
329.063	7.5
329.436	7.57
329.809	7.39
330.181	7.16
330.553	7.36
330.926	7.57
331.298	7.04
331.671	8.06
332.043	7.06
332.415	7.94
332.787	7.35
333.159	7.28
333.532	7.44
333.904	7.37
334.276	8.23
334.648	7.2
335.02	7.07
335.391	7.44
335.763	7.16
336.135	7.69
336.507	8.2
336.879	7.37
337.25	7.3
337.622	7.22
337.993	7.69
338.365	7.28
338.736	7.53
339.108	7.74
339.479	8.42
339.851	7.56
340.222	7.21
340.593	8.1
340.964	7.97
341.336	8.04
341.707	7.77
342.078	7.34
342.449	7.7
342.82	7.76
343.191	8.18
343.562	7.92
343.933	8.49
344.303	8.27
344.674	8.38
345.045	8.46
345.416	8.24
345.786	8.34
346.157	8.54
346.527	8.57
346.898	8.01
347.268	8.45
347.639	8.88
348.009	8.39
348.38	8.32
348.75	8.85
349.12	8.49
349.49	8.37
349.861	8.97
350.231	8.43
350.601	9.05
350.971	8.97
351.341	8.6
351.711	9.44
352.081	8.63
352.45	8.29
352.82	8.7
353.19	8.74
353.56	8.87
353.929	8.74
354.299	8.39
354.669	8.44
355.038	8.09
355.408	8.84
355.777	8.95
356.147	8.43
356.516	8.84
356.885	8.84
357.254	9.2
357.624	8.66
357.993	8.97
358.362	9.18
358.731	9.16
359.1	8.71
359.469	9.04
359.838	9.24
360.207	9.11
360.576	9
360.945	9.02
361.314	9.39
361.682	9.47
362.051	9.39
362.42	9.35
362.788	9.19
363.157	9.68
363.525	9.38
363.894	9.3
364.262	9.33
364.631	9.22
364.999	9.43
365.367	9.89
365.735	9.52
366.104	9.65
366.472	9.53
366.84	9.71
367.208	9.31
367.576	9.9
367.944	10.04
368.312	9.56
368.68	9.93
369.048	9.88
369.416	9.94
369.783	9.99
370.151	10.41
370.519	9.75
370.886	10.05
371.254	10.23
371.621	10.12
371.989	10.07
372.356	10.25
372.724	9.96
373.091	10.3
373.458	10.06
373.826	10.36
374.193	10.39
374.56	10.23
374.927	10.31
375.294	10.59
375.661	10.85
376.028	10.61
376.395	10.79
376.762	11.14
377.129	10.64
377.496	10.38
377.863	10.59
378.229	10.67
378.596	10.56
378.963	10.94
379.329	10.5
379.696	10.4
380.062	11.12
380.429	10.71
380.795	10.97
381.161	10.91
381.528	11.01
381.894	11.28
382.26	10.98
382.626	10.99
382.993	11.25
383.359	11.12
383.725	11.18
384.091	10.78
384.457	11.07
384.823	11.12
385.188	11.06
385.554	11.32
385.92	11.02
386.286	11.46
386.651	11.49
387.017	11.44
387.383	11.21
387.748	11.25
388.114	11.45
388.479	11.74
388.845	11.54
389.21	11.58
389.575	11.28
389.94	11.53
390.306	11.98
390.671	11.53
391.036	11.43
391.401	11.74
391.766	11.85
392.131	11.85
392.496	11.75
392.861	11.82
393.226	11.95
393.591	11.67
393.956	11.76
394.32	12.22
394.685	11.82
395.05	11.63
395.414	11.88
395.779	11.83
396.143	12.1
396.508	12.16
396.872	12.18
397.236	12.1
397.601	12.09
397.965	12.04
398.329	12.33
398.694	12.22
399.058	12.43
399.422	12.01
399.786	12.32
400.15	12.31
400.514	12.64
400.878	12.34
401.242	12.16
401.605	12.49
401.969	12.14
402.333	12.6
402.697	12.28
403.06	12.22
403.424	12.62
403.787	12.52
404.151	12.76
404.514	12.43
404.878	12.4
405.241	12.48
405.604	12.52
405.968	12.41
406.331	12.81
406.694	12.57
407.057	12.56
407.42	12.59
407.783	12.4
408.146	12.43
408.509	12.75
408.872	12.77
409.235	12.82
409.598	12.77
409.961	12.72
410.323	12.93
410.686	12.97
411.049	13.13
411.411	13.11
411.774	12.96
412.136	13.28
412.499	13.13
412.861	12.9
413.223	13.27
413.586	12.83
413.948	13
414.31	13.36
414.672	13.14
415.035	13.22
415.397	13.05
415.759	13.11
416.121	13.31
416.483	13.5
416.845	13.3
417.206	13.56
417.568	13.16
417.93	13.24
418.292	13.01
418.653	13.36
419.015	13.43
419.377	13.38
419.738	13.31
420.1	13.27
420.461	13.43
420.822	13.48
421.184	13.45
421.545	13.64
421.906	13.5
422.267	13.58
422.629	13.49
422.99	13.54
423.351	13.51
423.712	13.53
424.073	13.68
424.434	13.84
424.795	13.91
425.155	13.81
425.516	13.82
425.877	13.92
426.238	14.01
426.598	13.94
426.959	14.01
427.32	14.11
427.68	14.25
428.041	14.34
428.401	14.55
428.761	14.56
429.122	14.78
429.482	14.8
429.842	14.73
430.202	14.81
430.563	15.08
430.923	14.92
431.283	14.94
431.643	15.29
432.003	15.22
432.363	15.2
432.722	14.96
433.082	15.45
433.442	15.32
433.802	15.46
434.161	15.26
434.521	15.42
434.881	15.48
435.24	15.54
435.6	15.52
435.959	15.49
436.319	15.58
436.678	15.49
437.037	15.76
437.396	15.58
437.756	15.79
438.115	15.89
438.474	15.89
438.833	15.99
439.192	16.26
439.551	16.02
439.91	16
440.269	16.08
440.628	16.23
440.987	16.05
441.345	16.24
441.704	16.32
442.063	16.21
442.421	16.38
442.78	16.38
443.138	16.26
443.497	16.46
443.855	16.56
444.214	16.45
444.572	16.63
444.93	16.8
445.288	16.82
445.647	16.88
446.005	16.82
446.363	16.95
446.721	16.85
447.079	17.18
447.437	16.86
447.795	16.93
448.153	16.95
448.51	16.97
448.868	16.92
449.226	17.21
449.584	17.18
449.941	17.17
450.299	17.44
450.656	17.41
451.014	17.52
451.371	17.65
451.729	17.79
452.086	17.77
452.443	17.85
452.801	17.77
453.158	17.88
453.515	17.94
453.872	17.86
454.229	18.17
454.586	17.93
454.943	17.99
455.3	18
455.657	18.19
456.014	18.36
456.371	18.25
456.727	18.33
457.084	18.43
457.441	18.48
457.797	18.54
458.154	18.54
458.51	18.35
458.867	18.58
459.223	18.86
459.58	18.61
459.936	18.63
460.292	18.87
460.648	18.86
461.005	18.95
461.361	18.76
461.717	18.76
462.073	18.65
462.429	18.72
462.785	18.87
463.141	19.08
463.496	19.1
463.852	19.38
464.208	19.3
464.564	19.42
464.919	19.33
465.275	19.66
465.631	19.78
465.986	19.69
466.342	19.43
466.697	19.67
467.052	19.81
467.408	19.73
467.763	19.73
468.118	19.91
468.473	19.93
468.829	19.81
469.184	19.9
469.539	20.09
469.894	20.26
470.249	20.12
470.603	20.28
470.958	20.15
471.313	20.39
471.668	20.59
472.023	20.48
472.377	20.38
472.732	20.69
473.086	20.44
473.441	20.57
473.795	20.61
474.15	20.87
474.504	20.54
474.859	20.72
475.213	20.72
475.567	20.77
475.921	21.01
476.275	20.84
476.63	21.02
476.984	21.16
477.338	21.17
477.692	21.24
478.045	21.21
478.399	21.1
478.753	21.21
479.107	21.3
479.461	21.27
479.814	21.44
480.168	21.21
480.521	21.25
480.875	21.52
481.228	21.65
481.582	21.54
481.935	21.55
482.289	21.76
482.642	21.73
482.995	21.68
483.348	21.66
483.701	21.72
484.055	21.44
484.408	21.35
484.761	21.38
485.114	21.1
485.466	20.83
485.819	20.84
486.172	20.79
486.525	20.78
486.878	20.91
487.23	21.15
487.583	21.41
487.936	21.67
488.288	21.61
488.641	21.56
488.993	21.51
489.345	21.46
489.698	21.36
490.05	21.39
490.402	21.5
490.754	21.64
491.107	21.82
491.459	22.05
491.811	22.31
492.163	22.38
492.515	22.5
492.866	22.19
493.218	22.04
493.57	21.9
493.922	21.86
494.274	21.95
494.625	22.1
494.977	22.49
495.328	22.81
495.68	22.91
496.031	23.14
496.383	23.18
496.734	23.43
497.086	23.22
497.437	23.31
497.788	23.45
498.139	23.45
498.49	23.48
498.842	23.3
499.193	23.28
499.544	23.42
499.894	23.47
500.245	23.34
500.596	23.53
500.947	23.52
501.298	23.66
501.648	23.9
501.999	23.74
502.35	23.88
502.7	24
503.051	24.17
503.401	24.23
503.752	24.27
504.102	24.22
504.452	24.28
504.803	24.34
505.153	24.55
505.503	24.34
505.853	24.45
506.203	24.36
506.553	24.25
506.903	24.39
507.253	24.49
507.603	24.65
507.953	24.61
508.303	24.74
508.652	24.61
509.002	24.84
509.352	24.63
509.701	24.85
510.051	24.64
510.4	24.51
510.75	24.69
511.099	24.64
511.449	24.69
511.798	24.79
512.147	24.81
512.496	25
512.846	24.92
513.195	24.85
513.544	24.93
513.893	24.92
514.242	24.88
514.591	24.83
514.939	24.89
515.288	25.05
515.637	25.27
515.986	25.26
516.334	25.57
516.683	25.42
517.032	25.56
517.38	25.56
517.729	25.61
518.077	25.62
518.426	25.66
518.774	25.52
519.122	25.57
519.47	25.58
519.819	25.56
520.167	25.23
520.515	25.28
520.863	25.23
521.211	25.2
521.559	25.42
521.907	25.4
522.255	25.62
522.602	25.91
522.95	25.75
523.298	25.67
523.645	26.03
523.993	26.13
524.341	26.08
524.688	26.17
525.036	26.2
525.383	26.11
525.73	26.15
526.078	26.17
526.425	26.16
526.772	26.13
527.119	26.01
527.466	25.92
527.814	25.78
528.161	25.88
528.508	26.12
528.854	25.88
529.201	25.97
529.548	26.02
529.895	25.75
530.242	25.6
530.588	25.45
530.935	25.46
531.282	25.48
531.628	25.51
531.975	25.69
532.321	25.88
532.667	26.09
533.014	26.29
533.36	26.28
533.706	26.43
534.052	26.52
534.399	26.46
534.745	26.42
535.091	26.15
535.437	26.23
535.783	26.22
536.129	26.28
536.474	26.4
536.82	26.66
537.166	26.82
537.512	27.1
537.857	27.01
538.203	26.9
538.549	27.02
538.894	26.89
539.239	26.87
539.585	26.9
539.93	27.19
540.276	27.36
540.621	27.46
540.966	27.49
541.311	27.55
541.656	27.54
542.001	27.52
542.346	27.29
542.691	27.12
543.036	26.92
543.381	26.72
543.726	26.79
544.071	26.88
544.415	26.94
544.76	27.07
545.105	27.27
545.449	27.28
545.794	27.49
546.138	27.64
546.483	27.96
546.827	27.97
547.171	28
547.516	27.93
547.86	28.04
548.204	28.06
548.548	28.04
548.892	28.04
549.236	28.19
549.58	28.17
549.924	28.33
550.268	28.48
550.612	28.56
550.956	28.43
551.3	28.72
551.643	29.05
551.987	28.72
552.33	29.16
552.674	28.92
553.017	29.13
553.361	29.08
553.704	29.11
554.048	29.19
554.391	29.14
554.734	29.05
555.077	29.09
555.42	29.1
555.764	29.26
556.107	29.13
556.45	29.16
556.793	29.32
557.135	29.26
557.478	29.54
557.821	29.66
558.164	29.49
558.507	29.58
558.849	29.89
559.192	29.83
559.534	30.09
559.877	29.76
560.219	30.04
560.562	29.97
560.904	30.09
561.246	29.95
561.589	30.02
561.931	29.92
562.273	30.02
562.615	30
562.957	30.15
563.299	30.31
563.641	30
563.983	30.32
564.325	30.07
564.667	30.23
565.008	30.17
565.35	30.25
565.692	30.38
566.033	30.34
566.375	30.39
566.716	30.11
567.058	30.64
567.399	30.74
567.741	30.5
568.082	30.34
568.423	30.2
568.764	30.62
569.105	30.41
569.447	30.43
569.788	30.73
570.129	30.53
570.47	30.66
570.811	30.73
571.151	30.69
571.492	31.03
571.833	30.86
572.174	30.73
572.514	31.05
572.855	30.85
573.195	30.97
573.536	30.85
573.876	30.77
574.217	30.78
574.557	30.67
574.898	30.92
575.238	31.18
575.578	31.14
575.918	31.08
576.258	31.17
576.598	30.93
576.938	30.86
577.278	31.29
577.618	31.29
577.958	31.11
578.298	31.33
578.638	31.3
578.977	31.34
579.317	31.62
579.657	31.6
579.996	31.78
580.336	31.64
580.675	31.55
581.014	31.88
581.354	31.9
581.693	32.02
582.032	31.88
582.372	31.83
582.711	32.01
583.05	32.03
583.389	32.16
583.728	32.36
584.067	32.26
584.406	32.21
584.745	32.44
585.083	32.05
585.422	32.48
585.761	32.46
586.1	32.44
586.438	32.58
586.777	32.5
587.115	33.05
587.454	32.53
587.792	32.42
588.13	32.73
588.469	32.41
588.807	32.73
589.145	32.52
589.483	32.72
589.821	32.6
590.159	32.61
590.497	32.77
590.835	32.91
591.173	32.8
591.511	32.76
591.849	32.96
592.187	33.02
592.524	32.91
592.862	33.19
593.2	32.91
593.537	33.04
593.875	33.29
594.212	33.13
594.55	33.41
594.887	33.61
595.224	33.09
595.561	33.39
595.899	33.1
596.236	33.33
596.573	33.38
596.91	33.32
597.247	33.33
597.584	33.39
597.921	33.28
598.258	33.55
598.594	33.36
598.931	33.33
599.268	32.88
599.604	33.25
599.941	33.52
600.277	33.17
600.614	33.58
600.95	33.64
601.287	33.83
601.623	33.97
601.959	33.73
602.296	34.13
602.632	33.52
602.968	34.07
603.304	33.99
603.64	33.95
603.976	33.91
604.312	34.11
604.648	34.05
604.984	33.68
605.319	34.11
605.655	33.84
605.991	33.96
606.326	34
606.662	33.92
606.998	33.7
607.333	34.08
607.668	33.8
608.004	33.79
608.339	33.96
608.674	34.51
609.01	34.29
609.345	34.48
609.68	34.64
610.015	34.26
610.35	34.42
610.685	34.8
611.02	34.57
611.355	34.4
611.689	33.88
612.024	34.27
612.359	34.63
612.694	34.46
613.028	34.67
613.363	34.59
613.697	34.97
614.032	34.87
614.366	35.09
614.7	34.85
615.035	34.81
615.369	34.99
615.703	35.05
616.037	34.96
616.371	34.9
616.705	34.83
617.039	35.13
617.373	35.01
617.707	35.06
618.041	35.24
618.375	34.8
618.709	35.35
619.042	35.28
619.376	35.32
619.71	35.25
620.043	35.15
620.377	35.52
620.71	35.32
621.043	35.1
621.377	35.08
621.71	35.63
622.043	35.8
622.376	35.79
622.709	35.49
623.043	35.63
623.376	35.41
623.709	35.74
624.041	35.81
624.374	35.82
624.707	35.58
625.04	35.82
625.373	35.82
625.705	35.72
626.038	36.32
626.37	35.74
626.703	36.09
627.035	36.09
627.368	36.05
627.7	35.65
628.032	36.09
628.365	36.02
628.697	36.15
629.029	36.13
629.361	35.92
629.693	36.11
630.025	35.77
630.357	35.83
630.689	35.92
631.021	36.12
631.353	36.28
631.684	35.94
632.016	35.93
632.348	36.15
632.679	35.9
633.011	36.17
633.342	36.49
633.674	36.54
634.005	36.69
634.336	36.72
634.668	36.07
634.999	36.68
635.33	36.66
635.661	36.6
635.992	36.58
636.323	36.31
636.654	36.66
636.985	36.92
637.316	37.1
637.647	36.95
637.977	36.9
638.308	36.75
638.639	36.72
638.969	36.64
639.3	37.23
639.63	36.87
639.961	37.42
640.291	36.96
640.622	36.6
640.952	37.18
641.282	37.17
641.612	37.42
641.943	37.09
642.273	37.19
642.603	37.21
642.933	37.66
643.263	36.66
643.592	37.77
643.922	37.55
644.252	37.4
644.582	37.46
644.911	37.35
645.241	37.3
645.571	37.7
645.9	37.56
646.23	36.98
646.559	37.93
646.888	37.02
647.218	37.5
647.547	37.17
647.876	37.44
648.205	37.65
648.534	37.52
648.863	37.49
649.192	37.91
649.521	38.18
649.85	37.61
650.179	37.99
650.508	38.47
650.837	38.2
651.165	37.47
651.494	38.08
651.822	37.77
652.151	37.78
652.479	37.84
652.808	38.14
653.136	37.54
653.465	38.04
653.793	38.04
654.121	37.88
654.449	38.1
654.777	37.94
655.105	38.43
655.433	38.01
655.761	38.47
656.089	37.49
656.417	38.78
656.745	38.01
657.073	37.55
657.4	38.58
657.728	38.07
658.056	38.39
658.383	38.15
658.711	38.06
659.038	38.44
659.365	38.96
659.693	37.77
660.02	38.74
660.347	38.71
660.674	38.87
661.001	38.64
661.329	38.79
661.656	38.67
661.982	38.25
662.309	38.86
662.636	39.33
662.963	38.55
663.29	38.87
663.616	39.25
663.943	39.38
664.27	38.62
664.596	38.48
664.923	39.88
665.249	38.74
665.576	38.79
665.902	38.94
666.228	39.21
666.554	38.94
666.881	38.55
667.207	38.36
667.533	39.08
667.859	39.48
668.185	38.81
668.511	39.49
668.837	38.78
669.162	39.46
669.488	39.38
669.814	39.09
670.139	39.55
670.465	38.63
670.791	39.75
671.116	40.02
671.442	39.04
671.767	39.07
672.092	39.87
