Data from 0403_chest_Reflection__4__171.txt Node

Date: Tue Dec 12 19:47:16 CST 2023
User: ToomeyLab
Spectrometer: FLMS14357
Trigger mode: 0
Integration Time (sec): 1.000000E-2
Scans to average: 100
Electric dark correction enabled: true
Nonlinearity correction enabled: false
Boxcar width: 0
XAxis mode: Wavelengths
Number of Pixels in Spectrum: 2048
>>>>>Begin Spectral Data<<<<<
189.047	-115.66
189.435	-115.66
189.823	-115.66
190.211	-91.42
190.599	85.34
190.987	335.69
191.375	-139.24
191.763	-606.17
192.151	101.92
192.538	12.7
192.926	365.94
193.314	119.91
193.702	115.62
194.089	69.41
194.477	66.41
194.864	13.07
195.252	-207.83
195.639	-202.38
196.027	757.34
196.414	157
196.801	189.17
197.189	-34.86
197.576	247.94
197.963	46.68
198.351	30.2
198.738	4.15
199.125	11.29
199.512	-11.14
199.899	22.68
200.286	11.78
200.673	-33.18
201.06	-5.66
201.447	-66
201.833	-12.1
202.22	23.97
202.607	-118.18
202.994	-18.85
203.38	23.48
203.767	-71.6
204.154	-42.89
204.54	16.94
204.927	-9.5
205.313	26.11
205.699	-49.96
206.086	13.88
206.472	37.24
206.858	12.19
207.245	22.28
207.631	18.8
208.017	12.68
208.403	-19.01
208.789	-10.63
209.175	-76.72
209.561	21.35
209.947	-44.26
210.333	-6.84
210.719	9.12
211.105	41.21
211.491	5.77
211.876	12.9
212.262	-13.39
212.648	-46.26
213.034	-105.75
213.419	14.33
213.805	-0.3
214.19	-8.56
214.576	29.48
214.961	23.59
215.346	-34.86
215.732	14.93
216.117	-4.79
216.502	-33.2
216.888	-24.96
217.273	-9.74
217.658	-50.69
218.043	1.42
218.428	10.47
218.813	-14.78
219.198	-5.5
219.583	5.3
219.968	9.97
220.353	-12.1
220.738	21.59
221.122	18.51
221.507	-32.63
221.892	-6.72
222.276	4.1
222.661	-1.79
223.046	1.63
223.43	-13.07
223.815	-1.98
224.199	-3.27
224.583	-4.75
224.968	-10.5
225.352	-11.47
225.736	8.47
226.121	-12.92
226.505	-2.52
226.889	6.09
227.273	-0.45
227.657	4.41
228.041	5.72
228.425	-2.93
228.809	0.72
229.193	-2.33
229.577	2.01
229.961	0.06
230.344	1.33
230.728	2.52
231.112	1.89
231.495	1.44
231.879	2.7
232.263	1.23
232.646	0.3
233.03	2.7
233.413	0.24
233.797	-0.01
234.18	-1.2
234.563	-1.85
234.946	2.43
235.33	2.26
235.713	2.04
236.096	1.35
236.479	0.55
236.862	2.87
237.245	2.59
237.628	2.82
238.011	1.69
238.394	0.91
238.777	3.92
239.16	2.99
239.543	3.41
239.925	2.79
240.308	2.71
240.691	1.38
241.073	1.61
241.456	1.65
241.838	1.54
242.221	3.14
242.603	3.41
242.986	1.89
243.368	3.46
243.75	2.37
244.133	2.14
244.515	2.44
244.897	2.7
245.279	2.62
245.661	1.43
246.043	1.71
246.425	2.67
246.807	0.39
247.189	2.63
247.571	1.77
247.953	1.96
248.335	2.15
248.717	2.18
249.098	2.32
249.48	2.12
249.862	1.91
250.243	1.94
250.625	2.81
251.006	2.53
251.388	2.95
251.769	2.07
252.151	2.29
252.532	1.35
252.913	1.75
253.295	2.12
253.676	1.64
254.057	2.09
254.438	2.36
254.819	2.6
255.2	0.76
255.581	1.43
255.962	1.39
256.343	2.19
256.724	1.12
257.105	1.28
257.486	1.12
257.867	1.96
258.247	1.73
258.628	1.88
259.009	1.77
259.389	2.95
259.77	2.08
260.15	1.9
260.531	3.1
260.911	2.37
261.292	2.06
261.672	2.28
262.052	2.01
262.432	2.24
262.813	2.01
263.193	2.48
263.573	2.21
263.953	2.44
264.333	3.09
264.713	2.1
265.093	1.69
265.473	1.68
265.853	0.64
266.233	0.56
266.612	1.85
266.992	2.34
267.372	2.81
267.752	2.74
268.131	1.89
268.511	1.74
268.89	1.52
269.27	1.19
269.649	1.85
270.029	1.49
270.408	1.84
270.787	1.78
271.167	2.17
271.546	1.8
271.925	2.85
272.304	2.02
272.683	1.48
273.062	2.23
273.441	2.06
273.82	1.37
274.199	1.4
274.578	1.46
274.957	1.69
275.336	1.9
275.715	2.29
276.093	1.42
276.472	2.04
276.851	2.55
277.229	1.34
277.608	1.9
277.986	1.69
278.365	1.87
278.743	1.87
279.122	2.31
279.5	1.46
279.878	1.29
280.257	1.12
280.635	1.63
281.013	1.42
281.391	2.05
281.769	1.49
282.147	1.63
282.525	1.2
282.903	1.71
283.281	1.36
283.659	1.92
284.037	2.28
284.415	1.5
284.792	2.2
285.17	1.81
285.548	1.86
285.925	1.37
286.303	2.06
286.68	2.01
287.058	2.15
287.435	1.89
287.813	1.73
288.19	2.05
288.567	1.74
288.945	2.1
289.322	1.4
289.699	1.75
290.076	2.42
290.453	2.37
290.83	1.92
291.207	2.68
291.584	1.99
291.961	1.97
292.338	2.09
292.715	2.26
293.092	2.16
293.469	1.84
293.845	1.95
294.222	2.1
294.599	2.49
294.975	1.87
295.352	2.02
295.728	2.41
296.105	2.15
296.481	2.39
296.858	1.82
297.234	2.46
297.61	2.29
297.986	2.69
298.363	2.23
298.739	2.29
299.115	2.22
299.491	2.19
299.867	2.18
300.243	2.41
300.619	2.6
300.995	2.26
301.371	2.57
301.746	2.14
302.122	3.09
302.498	2.66
302.874	2.71
303.249	3.34
303.625	2.82
304	2.74
304.376	3.08
304.751	3.04
305.127	2.69
305.502	2.95
305.878	2.85
306.253	2.97
306.628	2.88
307.003	2.91
307.378	2.76
307.754	2.94
308.129	3.07
308.504	3.89
308.879	2.59
309.254	3.07
309.629	2.98
310.003	3.2
310.378	2.73
310.753	3.14
311.128	3.21
311.502	2.53
311.877	2.51
312.252	2.72
312.626	2.9
313.001	2.84
313.375	2.82
313.75	3
314.124	3.01
314.498	2.93
314.873	2.94
315.247	3.15
315.621	2.72
315.995	3.68
316.369	2.89
316.743	2.96
317.117	2.66
317.491	3.16
317.865	3.09
318.239	3.01
318.613	3.09
318.987	3.36
319.361	3.18
319.734	2.86
320.108	2.94
320.482	3.16
320.855	3.25
321.229	3.57
321.602	3.1
321.976	3.65
322.349	3.06
322.723	3.06
323.096	3.62
323.469	3.51
323.843	4
324.216	4.03
324.589	4.13
324.962	3.54
325.335	3.83
325.708	3.18
326.081	3.9
326.454	3.22
326.827	3.89
327.2	3.13
327.573	3.23
327.945	3.57
328.318	3.67
328.691	2.84
329.063	3.47
329.436	3.63
329.809	3.59
330.181	3.06
330.553	3.51
330.926	3.61
331.298	3.33
331.671	4.02
332.043	3.67
332.415	3.76
332.787	3.23
333.159	3.5
333.532	3.33
333.904	2.96
334.276	4.18
334.648	3.59
335.02	3.44
335.391	2.78
335.763	3.59
336.135	3.77
336.507	3.7
336.879	3.26
337.25	3.75
337.622	3.38
337.993	3.96
338.365	3.18
338.736	3.65
339.108	3.53
339.479	3.6
339.851	3.41
340.222	3.25
340.593	3.82
340.964	3.52
341.336	3.89
341.707	3.26
342.078	3.27
342.449	3.22
342.82	3.98
343.191	3.81
343.562	3.73
343.933	3.9
344.303	3.52
344.674	3.92
345.045	3.42
345.416	4
345.786	3.42
346.157	3.46
346.527	4.04
346.898	3.44
347.268	3.64
347.639	3.96
348.009	3.64
348.38	3.56
348.75	3.99
349.12	3.72
349.49	3.74
349.861	3.9
350.231	4.06
350.601	4.34
350.971	4.01
351.341	4.1
351.711	4
352.081	3.43
352.45	3.6
352.82	4.08
353.19	3.54
353.56	3.52
353.929	3.46
354.299	3.54
354.669	3.67
355.038	3.43
355.408	4.16
355.777	3.71
356.147	3.59
356.516	4.08
356.885	3.38
357.254	3.93
357.624	3.42
357.993	3.91
358.362	3.97
358.731	4.02
359.1	3.69
359.469	3.51
359.838	3.93
360.207	3.79
360.576	3.67
360.945	3.41
361.314	4.07
361.682	3.71
362.051	4.31
362.42	4.01
362.788	3.75
363.157	4.28
363.525	4
363.894	3.84
364.262	3.97
364.631	3.6
364.999	3.85
365.367	4.25
365.735	3.67
366.104	3.8
366.472	3.76
366.84	3.94
367.208	4.28
367.576	4.27
367.944	4.03
368.312	4.08
368.68	3.76
369.048	4.36
369.416	3.85
369.783	4.14
370.151	4.34
370.519	4.08
370.886	4.26
371.254	3.87
371.621	4.13
371.989	3.71
372.356	4.07
372.724	3.78
373.091	4.02
373.458	4.12
373.826	4.15
374.193	3.92
374.56	4.25
374.927	4.32
375.294	4.32
375.661	4.34
376.028	4.33
376.395	4.23
376.762	4.47
377.129	4.54
377.496	4.14
377.863	4.2
378.229	4.36
378.596	3.74
378.963	4.54
379.329	4.01
379.696	3.99
380.062	4.36
380.429	4.25
380.795	4.25
381.161	4.12
381.528	4.14
381.894	4.43
382.26	4.14
382.626	4.12
382.993	4.25
383.359	3.91
383.725	4.36
384.091	4.21
384.457	3.71
384.823	4.19
385.188	4.38
385.554	4.4
385.92	4.08
386.286	4.49
386.651	4.43
387.017	4.32
387.383	4.17
387.748	4.39
388.114	4.37
388.479	4.5
388.845	4.17
389.21	4.07
389.575	4.1
389.94	4.42
390.306	4.61
390.671	4.3
391.036	4.27
391.401	4.2
391.766	4.53
392.131	4.52
392.496	3.99
392.861	4.27
393.226	4.6
393.591	4.36
393.956	4.11
394.32	4.44
394.685	4.69
395.05	4.3
395.414	4.42
395.779	4.23
396.143	4.44
396.508	4.19
396.872	4.38
397.236	4.21
397.601	4.73
397.965	4.47
398.329	4.52
398.694	4.33
399.058	4.51
399.422	4.24
399.786	4.41
400.15	4.25
400.514	4.52
400.878	4.47
401.242	4.22
401.605	4.58
401.969	4.4
402.333	4.65
402.697	4.47
403.06	4.38
403.424	4.46
403.787	4.46
404.151	4.61
404.514	4.24
404.878	4.33
405.241	4.52
405.604	4.29
405.968	4.23
406.331	4.73
406.694	4.92
407.057	4.42
407.42	4.53
407.783	4.56
408.146	4.58
408.509	4.42
408.872	4.69
409.235	4.43
409.598	4.43
409.961	4.41
410.323	4.36
410.686	4.52
411.049	4.77
411.411	4.66
411.774	4.64
412.136	4.43
412.499	4.63
412.861	4.52
413.223	4.66
413.586	4.68
413.948	4.76
414.31	4.57
414.672	4.83
415.035	4.63
415.397	4.55
415.759	4.51
416.121	4.62
416.483	4.55
416.845	4.53
417.206	4.7
417.568	4.54
417.93	4.81
418.292	4.6
418.653	4.89
419.015	4.44
419.377	4.6
419.738	4.73
420.1	4.55
420.461	4.69
420.822	4.7
421.184	4.59
421.545	4.84
421.906	4.57
422.267	4.56
422.629	4.61
422.99	4.6
423.351	4.5
423.712	4.59
424.073	4.58
424.434	4.63
424.795	4.77
425.155	4.76
425.516	4.68
425.877	4.58
426.238	4.59
426.598	4.64
426.959	4.72
427.32	4.68
427.68	4.65
428.041	4.83
428.401	4.83
428.761	4.75
429.122	4.97
429.482	4.97
429.842	4.75
430.202	4.65
430.563	4.91
430.923	4.92
431.283	4.72
431.643	4.94
432.003	4.76
432.363	4.86
432.722	4.7
433.082	4.91
433.442	4.79
433.802	4.89
434.161	4.89
434.521	4.98
434.881	4.88
435.24	4.96
435.6	5.03
435.959	5.06
436.319	4.98
436.678	5.03
437.037	4.99
437.396	4.7
437.756	4.72
438.115	5.09
438.474	4.91
438.833	4.91
439.192	4.99
439.551	4.97
439.91	4.89
440.269	4.98
440.628	5.05
440.987	4.82
441.345	5.18
441.704	4.88
442.063	5.05
442.421	4.98
442.78	4.94
443.138	4.94
443.497	4.94
443.855	4.87
444.214	5.03
444.572	5.17
444.93	5.03
445.288	4.87
445.647	5.06
446.005	4.94
446.363	4.92
446.721	4.89
447.079	5.04
447.437	4.97
447.795	5.06
448.153	4.95
448.51	5.03
448.868	5.14
449.226	5.17
449.584	5.12
449.941	5.03
450.299	5.04
450.656	5.2
451.014	5.13
451.371	5.16
451.729	5.2
452.086	4.9
452.443	5.22
452.801	5.23
453.158	5.21
453.515	5.26
453.872	5.25
454.229	5.22
454.586	5.15
454.943	5.26
455.3	5.11
455.657	5.18
456.014	5.43
456.371	5.29
456.727	5.36
457.084	5.13
457.441	5.19
457.797	5.05
458.154	5.25
458.51	5.13
458.867	5.5
459.223	5.45
459.58	5.29
459.936	5.2
460.292	5.41
460.648	5.31
461.005	5.26
461.361	5.21
461.717	5.21
462.073	5.31
462.429	5.22
462.785	5.23
463.141	5.38
463.496	5.32
463.852	5.46
464.208	5.5
464.564	5.38
464.919	5.52
465.275	5.27
465.631	5.6
465.986	5.38
466.342	5.38
466.697	5.49
467.052	5.56
467.408	5.41
467.763	5.54
468.118	5.53
468.473	5.58
468.829	5.55
469.184	5.3
469.539	5.55
469.894	5.54
470.249	5.59
470.603	5.69
470.958	5.39
471.313	5.57
471.668	5.59
472.023	5.46
472.377	5.4
472.732	5.73
473.086	5.52
473.441	5.59
473.795	5.57
474.15	5.56
474.504	5.56
474.859	5.44
475.213	5.51
475.567	5.73
475.921	5.66
476.275	5.56
476.63	5.72
476.984	5.65
477.338	5.53
477.692	5.6
478.045	5.81
478.399	5.49
478.753	5.52
479.107	5.6
479.461	5.69
479.814	5.72
480.168	5.57
480.521	5.66
480.875	5.69
481.228	5.79
481.582	5.7
481.935	5.71
482.289	5.77
482.642	5.89
482.995	5.6
483.348	5.68
483.701	5.84
484.055	5.58
484.408	5.55
484.761	5.6
485.114	5.48
485.466	5.4
485.819	5.29
486.172	5.36
486.525	5.46
486.878	5.49
487.23	5.48
487.583	5.54
487.936	5.68
488.288	5.62
488.641	5.55
488.993	5.51
489.345	5.53
489.698	5.44
490.05	5.56
490.402	5.54
490.754	5.6
491.107	5.71
491.459	5.8
491.811	5.79
492.163	5.76
492.515	5.78
492.866	5.69
493.218	5.64
493.57	5.59
493.922	5.59
494.274	5.8
494.625	5.78
494.977	5.85
495.328	5.96
495.68	5.72
496.031	5.99
496.383	5.98
496.734	6.04
497.086	5.85
497.437	6.03
497.788	6.01
498.139	5.87
498.49	5.96
498.842	5.85
499.193	5.98
499.544	6.02
499.894	5.96
500.245	6.03
500.596	6
500.947	5.98
501.298	6.04
501.648	6.14
501.999	6.05
502.35	5.99
502.7	6.04
503.051	6.02
503.401	6.18
503.752	6.26
504.102	6.2
504.452	6.18
504.803	6.37
505.153	6.23
505.503	6.16
505.853	6.37
506.203	6.29
506.553	6.19
506.903	6.17
507.253	6.2
507.603	6.3
507.953	6.19
508.303	6.3
508.652	6.22
509.002	6.29
509.352	6.32
509.701	6.27
510.051	6.34
510.4	6.25
510.75	6.19
511.099	6.15
511.449	6.26
511.798	6.21
512.147	6.24
512.496	6.31
512.846	6.28
513.195	6.27
513.544	6.33
513.893	6.35
514.242	6.26
514.591	6.36
514.939	6.37
515.288	6.43
515.637	6.29
515.986	6.42
516.334	6.51
516.683	6.37
517.032	6.37
517.38	6.44
517.729	6.47
518.077	6.4
518.426	6.55
518.774	6.45
519.122	6.43
519.47	6.41
519.819	6.39
520.167	6.39
520.515	6.28
520.863	6.35
521.211	6.3
521.559	6.46
521.907	6.42
522.255	6.43
522.602	6.54
522.95	6.59
523.298	6.65
523.645	6.72
523.993	6.66
524.341	6.77
524.688	6.6
525.036	6.61
525.383	6.65
525.73	6.53
526.078	6.46
526.425	6.65
526.772	6.6
527.119	6.63
527.466	6.57
527.814	6.43
528.161	6.6
528.508	6.55
528.854	6.54
529.201	6.62
529.548	6.52
529.895	6.4
530.242	6.33
530.588	6.33
530.935	6.39
531.282	6.46
531.628	6.49
531.975	6.54
532.321	6.56
532.667	6.55
533.014	6.64
533.36	6.6
533.706	6.75
534.052	6.73
534.399	6.78
534.745	6.65
535.091	6.6
535.437	6.58
535.783	6.55
536.129	6.78
536.474	6.75
536.82	6.8
537.166	6.93
537.512	6.79
537.857	6.91
538.203	6.9
538.549	6.79
538.894	6.81
539.239	6.87
539.585	6.95
539.93	6.89
540.276	7.02
540.621	7.02
540.966	7.02
541.311	7.1
541.656	7.09
542.001	7.04
542.346	7.06
542.691	6.93
543.036	6.74
543.381	6.71
543.726	6.82
544.071	6.84
544.415	6.87
544.76	6.98
545.105	6.94
545.449	6.98
545.794	7.14
546.138	7.07
546.483	7.23
546.827	7.23
547.171	7.26
547.516	7.2
547.86	7.33
548.204	7.27
548.548	7.21
548.892	7.2
549.236	7.3
549.58	7.39
549.924	7.31
550.268	7.34
550.612	7.41
550.956	7.52
551.3	7.43
551.643	7.49
551.987	7.54
552.33	7.55
552.674	7.54
553.017	7.8
553.361	7.57
553.704	7.55
554.048	7.54
554.391	7.57
554.734	7.47
555.077	7.69
555.42	7.63
555.764	7.72
556.107	7.66
556.45	7.58
556.793	7.71
557.135	7.69
557.478	7.74
557.821	7.78
558.164	7.9
558.507	7.77
558.849	7.81
559.192	7.79
559.534	7.7
559.877	7.92
560.219	7.75
560.562	7.89
560.904	8.02
561.246	7.97
561.589	7.95
561.931	7.91
562.273	7.77
562.615	7.89
562.957	8.01
563.299	7.89
563.641	8.02
563.983	8
564.325	8
564.667	7.94
565.008	7.85
565.35	7.88
565.692	8.1
566.033	8.15
566.375	8.14
566.716	7.78
567.058	8.26
567.399	8.11
567.741	8.14
568.082	8.12
568.423	8.15
568.764	8.34
569.105	8.17
569.447	8.32
569.788	8.27
570.129	8.19
570.47	8.25
570.811	8.31
571.151	8.31
571.492	8.21
571.833	8.37
572.174	8.25
572.514	8.23
572.855	8.39
573.195	8.32
573.536	8.17
573.876	8.31
574.217	8.41
574.557	8.32
574.898	8.31
575.238	8.42
575.578	8.4
575.918	8.41
576.258	8.35
576.598	8.41
576.938	8.56
577.278	8.53
577.618	8.76
577.958	8.44
578.298	8.64
578.638	8.55
578.977	8.52
579.317	8.62
579.657	8.57
579.996	8.79
580.336	8.68
580.675	8.57
581.014	8.71
581.354	8.81
581.693	8.74
582.032	8.64
582.372	8.93
582.711	8.85
583.05	8.99
583.389	8.75
583.728	8.91
584.067	8.95
584.406	9.24
584.745	9.24
585.083	8.86
585.422	9.27
585.761	9.39
586.1	8.87
586.438	9.17
586.777	9.12
587.115	9.22
587.454	9.23
587.792	8.89
588.13	9.59
588.469	9.04
588.807	9.25
589.145	9.1
589.483	9.23
589.821	9.4
590.159	9.02
590.497	9.2
590.835	9.19
591.173	9.26
591.511	9.26
591.849	9.39
592.187	9.38
592.524	8.96
592.862	9.34
593.2	9.27
593.537	9.27
593.875	9.81
594.212	9.48
594.55	9.41
594.887	9.84
595.224	9.49
595.561	9.7
595.899	9.48
596.236	9.5
596.573	9.57
596.91	9.45
597.247	9.54
597.584	9.55
597.921	9.52
598.258	9.73
598.594	9.56
598.931	9.52
599.268	9.4
599.604	9.38
599.941	9.62
600.277	9.58
600.614	9.84
600.95	9.8
601.287	9.99
601.623	9.68
601.959	9.85
602.296	10.07
602.632	9.56
602.968	10.05
603.304	9.66
603.64	9.88
603.976	10
604.312	9.9
604.648	9.98
604.984	10.03
605.319	9.77
605.655	9.89
605.991	10.03
606.326	9.92
606.662	10.02
606.998	9.82
607.333	10.01
607.668	10.04
608.004	10.27
608.339	10.23
608.674	9.92
609.01	10.29
609.345	10.06
609.68	10.25
610.015	10.14
610.35	10.27
610.685	10.39
611.02	10.38
611.355	10.18
611.689	10.14
612.024	10.08
612.359	10.45
612.694	10.13
613.028	10.45
613.363	10.43
613.697	10.53
614.032	10.65
614.366	10.47
614.7	10.38
615.035	10.58
615.369	10.55
615.703	10.51
616.037	10.32
616.371	10.31
616.705	10.77
617.039	10.61
617.373	10.72
617.707	10.25
618.041	10.62
618.375	10.54
618.709	10.78
619.042	10.83
619.376	10.93
619.71	10.58
620.043	10.72
620.377	10.7
620.71	10.53
621.043	10.62
621.377	10.59
621.71	10.91
622.043	10.76
622.376	10.87
622.709	11.42
623.043	10.73
623.376	10.97
623.709	11.04
624.041	11.08
624.374	10.89
624.707	11.08
625.04	11.04
625.373	11.4
625.705	11.38
626.038	10.86
626.37	11.41
626.703	11.33
627.035	10.93
627.368	10.87
627.7	11.16
628.032	11.37
628.365	11.34
628.697	11.11
629.029	11.07
629.361	11.27
629.693	11.23
630.025	10.85
630.357	11.61
630.689	11.13
631.021	11.46
631.353	11.48
631.684	11.49
632.016	11.37
632.348	11.56
632.679	11.15
633.011	11.65
633.342	11.58
633.674	11.51
634.005	11.81
634.336	11.64
634.668	11.67
634.999	11.87
635.33	11.34
635.661	11.77
635.992	11.75
636.323	11.55
636.654	11.82
636.985	11.66
637.316	11.5
637.647	11.71
637.977	11.82
638.308	11.88
638.639	12
638.969	11.77
639.3	11.73
639.63	12.27
639.961	11.85
640.291	11.76
640.622	12.03
640.952	12.22
641.282	11.98
641.612	12.16
641.943	12
642.273	12.21
642.603	12.68
642.933	11.95
643.263	11.64
643.592	12.39
643.922	12.36
644.252	12.04
644.582	11.74
644.911	12.23
645.241	12
645.571	12.79
645.9	12.33
646.23	12.35
646.559	12.68
646.888	11.94
647.218	12.29
647.547	12.49
647.876	12.59
648.205	12.77
648.534	12.79
648.863	12.42
649.192	12.54
649.521	12.7
649.85	12.35
650.179	12.64
650.508	13.01
650.837	12.62
651.165	12.32
651.494	12.84
651.822	12.76
652.151	12.97
652.479	12.79
652.808	12.64
653.136	12.63
653.465	12.72
653.793	12.35
654.121	12.47
654.449	12.91
654.777	12.95
655.105	12.85
655.433	13.14
655.761	12.51
656.089	13.08
656.417	13.14
656.745	12.84
657.073	12.35
657.4	12.94
657.728	12.3
658.056	13.02
658.383	12.94
658.711	12.37
659.038	12.73
659.365	13.31
659.693	12.92
660.02	13
660.347	13.36
660.674	13.36
661.001	13.03
661.329	13.45
661.656	12.7
661.982	12.74
662.309	13.32
662.636	13.2
662.963	13.56
663.29	13.86
663.616	12.98
663.943	13.3
664.27	13.37
664.596	13.59
664.923	13.61
665.249	12.82
665.576	13.7
665.902	13.67
666.228	13.94
666.554	13.12
666.881	13.02
667.207	13.6
667.533	13.68
667.859	12.85
668.185	13.46
668.511	13.47
668.837	13.54
669.162	14.08
669.488	13.61
669.814	13.94
670.139	13.09
670.465	12.98
670.791	13.68
671.116	13.59
671.442	13.91
671.767	13.26
672.092	13.8
672.418	13.71
672.743	14.09
673.068	13.13
673.393	13.89
673.718	13.96
674.043	13.74
674.368	13.36
674.693	13.89
675.018	13.59
675.343	13.89
675.667	13.95
675.992	13.96
676.317	13.29
676.641	13.75
676.966	13.69
677.29	13.72
677.615	13.26
677.939	14.19
678.264	14.2
678.588	14.17
678.912	14.5
679.236	13.9
679.56	14.94
679.885	13.92
680.209	14.09
680.532	14.16
680.856	14.19
681.18	13.78
681.504	14.72
681.828	14.42
682.152	13.94
682.475	14.37
682.799	14.61
683.122	14.23
683.446	14.16
683.769	15.21
684.093	14.2
684.416	14.38
684.739	14.4
685.062	14.86
685.386	14.81
685.709	14.72
686.032	14.11
686.355	14.73
