Data from 0403_chest_Reflection__0__167.txt Node

Date: Tue Dec 12 19:46:28 CST 2023
User: ToomeyLab
Spectrometer: FLMS14357
Trigger mode: 0
Integration Time (sec): 1.000000E-2
Scans to average: 100
Electric dark correction enabled: true
Nonlinearity correction enabled: false
Boxcar width: 0
XAxis mode: Wavelengths
Number of Pixels in Spectrum: 2048
>>>>>Begin Spectral Data<<<<<
189.047	6.64
189.435	6.64
189.823	6.64
190.211	-136.49
190.599	-38.55
190.987	139.31
191.375	148.52
191.763	394.75
192.151	137.79
192.538	77.28
192.926	334.67
193.314	-6.6
193.702	92.47
194.089	-17.71
194.477	17.32
194.864	84.77
195.252	-497.81
195.639	-204.7
196.027	-22.2
196.414	184.83
196.801	40.61
197.189	-0.81
197.576	168
197.963	47.69
198.351	19.93
198.738	18.49
199.125	-66.05
199.512	-28.52
199.899	-5.4
200.286	-19.86
200.673	-21.13
201.06	-7.89
201.447	-86.83
201.833	-45.94
202.22	-14.88
202.607	-147.51
202.994	-5.68
203.38	23.72
203.767	1.78
204.154	-15.32
204.54	16.57
204.927	-40.39
205.313	22.85
205.699	-4.36
206.086	-40.92
206.472	46.13
206.858	31.82
207.245	-4.87
207.631	18.62
208.017	-15.59
208.403	-44.88
208.789	-24.17
209.175	-28.04
209.561	15.1
209.947	-16.71
210.333	8.71
210.719	-15.77
211.105	-13.18
211.491	-0.74
211.876	4.05
212.262	-12.02
212.648	-44.03
213.034	-46.99
213.419	9.62
213.805	-24.12
214.19	21.23
214.576	14.37
214.961	13.72
215.346	-20.62
215.732	9.37
216.117	-10.53
216.502	-29.76
216.888	-14.12
217.273	-36.61
217.658	-69.38
218.043	-25.7
218.428	-3.49
218.813	10.99
219.198	-30.6
219.583	-1.8
219.968	14.34
220.353	10.25
220.738	-26.02
221.122	-21.57
221.507	-45.51
221.892	-22.19
222.276	9.07
222.661	-5.94
223.046	-13.68
223.43	-2.59
223.815	-17.52
224.199	9.5
224.583	-10.99
224.968	4.41
225.352	-6.79
225.736	-3.57
226.121	2.84
226.505	-0.23
226.889	2.76
227.273	-4.44
227.657	6.08
228.041	6.71
228.425	-2.13
228.809	1.69
229.193	-3.01
229.577	4.52
229.961	3.29
230.344	4.49
230.728	6.16
231.112	4.9
231.495	4.34
231.879	6.09
232.263	4.87
232.646	4.44
233.03	4.83
233.413	2.09
233.797	2.96
234.18	2.91
234.563	3.05
234.946	3.17
235.33	7.59
235.713	5.59
236.096	2.39
236.479	4.73
236.862	3.8
237.245	4.13
237.628	3.08
238.011	4.44
238.394	4.92
238.777	4.1
239.16	3.27
239.543	2.36
239.925	3.77
240.308	3.99
240.691	5.25
241.073	4.29
241.456	4.61
241.838	4.32
242.221	5.44
242.603	5.3
242.986	5.35
243.368	5.07
243.75	4.68
244.133	5.43
244.515	5.26
244.897	5
245.279	5.88
245.661	4.28
246.043	3.69
246.425	6.16
246.807	4.54
247.189	5.48
247.571	5.3
247.953	4.7
248.335	5.7
248.717	5.19
249.098	5.47
249.48	5.09
249.862	5.38
250.243	5.45
250.625	5.96
251.006	5.46
251.388	5.17
251.769	5.04
252.151	4.72
252.532	5.31
252.913	6
253.295	5.83
253.676	5.2
254.057	4.78
254.438	5.35
254.819	5.19
255.2	4.9
255.581	4.5
255.962	4.8
256.343	5.72
256.724	5.29
257.105	5.03
257.486	3.59
257.867	3.72
258.247	4.47
258.628	4.62
259.009	4.52
259.389	5.56
259.77	4.81
260.15	4.84
260.531	5.83
260.911	5.19
261.292	4.76
261.672	4.98
262.052	5.07
262.432	5.03
262.813	5.23
263.193	4.72
263.573	5.21
263.953	5.34
264.333	5.65
264.713	4.09
265.093	4.52
265.473	5.45
265.853	3.96
266.233	4.54
266.612	3.69
266.992	4.87
267.372	5.53
267.752	5.32
268.131	4.4
268.511	4.53
268.89	4.13
269.27	3.48
269.649	4.5
270.029	4.55
270.408	4.4
270.787	4.82
271.167	4.86
271.546	4.67
271.925	5.29
272.304	5.03
272.683	4.32
273.062	4.8
273.441	5.02
273.82	4.03
274.199	4.25
274.578	4.5
274.957	4.51
275.336	4.31
275.715	4.8
276.093	4.41
276.472	4.96
276.851	4.77
277.229	4.35
277.608	4.27
277.986	4.12
278.365	4.08
278.743	4.07
279.122	4.94
279.5	4.19
279.878	3.42
280.257	3.86
280.635	3.27
281.013	4.08
281.391	3.9
281.769	4.33
282.147	4.63
282.525	4.04
282.903	4
283.281	3.73
283.659	4.16
284.037	4.2
284.415	4.4
284.792	4.36
285.17	4.38
285.548	4.54
285.925	4.21
286.303	3.96
286.68	4.52
287.058	4.46
287.435	4.02
287.813	4.52
288.19	4.59
288.567	4.63
288.945	4.81
289.322	4.53
289.699	5.04
290.076	4.6
290.453	5.03
290.83	4.62
291.207	5.15
291.584	4.95
291.961	4.74
292.338	5.25
292.715	5.31
293.092	4.87
293.469	4.31
293.845	5.08
294.222	4.94
294.599	5.65
294.975	5.55
295.352	5.75
295.728	5.81
296.105	5.29
296.481	5.36
296.858	5.38
297.234	5.94
297.61	5.66
297.986	5.64
298.363	5.88
298.739	5.78
299.115	5.58
299.491	5.88
299.867	5.71
300.243	5.71
300.619	5.7
300.995	5.73
301.371	5.89
301.746	6.06
302.122	6.09
302.498	6.05
302.874	6.62
303.249	6.89
303.625	6.09
304	5.98
304.376	5.83
304.751	6.63
305.127	6.33
305.502	6.32
305.878	6
306.253	6.38
306.628	5.93
307.003	6.28
307.378	6.65
307.754	6.66
308.129	6.53
308.504	7.21
308.879	6.46
309.254	6.86
309.629	6.1
310.003	7.21
310.378	7.08
310.753	6.93
311.128	6.9
311.502	6.38
311.877	6.5
312.252	6.48
312.626	6.46
313.001	6.77
313.375	6.95
313.75	7.07
314.124	7.26
314.498	6.44
314.873	6.82
315.247	7.3
315.621	6.85
315.995	6.84
316.369	7.09
316.743	6.74
317.117	6.46
317.491	7.04
317.865	7.24
318.239	6.95
318.613	7.12
318.987	7.66
319.361	6.3
319.734	7.26
320.108	7.03
320.482	7.57
320.855	6.67
321.229	6.99
321.602	7.73
321.976	7.88
322.349	8.03
322.723	6.33
323.096	7.39
323.469	7
323.843	7.7
324.216	7.69
324.589	7.51
324.962	7.89
325.335	8.39
325.708	7.69
326.081	7.8
326.454	7.68
326.827	7.8
327.2	7.16
327.573	7.4
327.945	7.97
328.318	7.53
328.691	7.26
329.063	7.17
329.436	7.71
329.809	7.88
330.181	7.1
330.553	7.67
330.926	7.78
331.298	7.79
331.671	7.61
332.043	7.96
332.415	7.78
332.787	7.07
333.159	7.28
333.532	7.33
333.904	6.93
334.276	8.41
334.648	7.53
335.02	7.47
335.391	7.21
335.763	7.53
336.135	8.05
336.507	7.81
336.879	7.19
337.25	7.37
337.622	7.92
337.993	7.46
338.365	7.74
338.736	8.11
339.108	7.69
339.479	8.29
339.851	7.46
340.222	7.64
340.593	7.91
340.964	7.81
341.336	8.3
341.707	7.8
342.078	7.73
342.449	7.35
342.82	8.47
343.191	7.77
343.562	7.87
343.933	8.33
344.303	7.81
344.674	7.85
345.045	7.9
345.416	8
345.786	7.87
346.157	7.95
346.527	8.35
346.898	7.86
347.268	7.71
347.639	8.34
348.009	7.89
348.38	7.71
348.75	7.99
349.12	8.12
349.49	8.02
349.861	8.47
350.231	8.13
350.601	8.51
350.971	7.75
351.341	8.43
351.711	7.96
352.081	8.03
352.45	7.88
352.82	8.2
353.19	8.1
353.56	7.81
353.929	7.78
354.299	7.95
354.669	7.9
355.038	7.3
355.408	7.97
355.777	8.37
356.147	8.15
356.516	8.02
356.885	8.01
357.254	8.14
357.624	8.03
357.993	8.01
358.362	7.93
358.731	7.88
359.1	7.87
359.469	8.09
359.838	8.16
360.207	8.13
360.576	8.29
360.945	7.71
361.314	8.43
361.682	8.38
362.051	8.04
362.42	8.63
362.788	8.05
363.157	8.53
363.525	8.36
363.894	8.02
364.262	8.28
364.631	8.02
364.999	8.05
365.367	8.13
365.735	8.23
366.104	8.34
366.472	7.99
366.84	8.59
367.208	8.33
367.576	8.35
367.944	8.81
368.312	8.42
368.68	8.41
369.048	8.39
369.416	8.27
369.783	8.68
370.151	8.37
370.519	8.06
370.886	8.18
371.254	8
371.621	8.54
371.989	8.34
372.356	8.42
372.724	8.35
373.091	8.67
373.458	8.05
373.826	8.65
374.193	8.17
374.56	8.36
374.927	8.38
375.294	8.66
375.661	9.02
376.028	8.53
376.395	8.52
376.762	8.53
377.129	8.55
377.496	8.59
377.863	8.74
378.229	8.44
378.596	8.17
378.963	8.64
379.329	8.62
379.696	8.54
380.062	8.8
380.429	8.45
380.795	8.95
381.161	8.57
381.528	8.87
381.894	8.9
382.26	8.38
382.626	8.69
382.993	8.57
383.359	8.39
383.725	8.31
384.091	8.42
384.457	8.38
384.823	8.53
385.188	8.56
385.554	8.98
385.92	8.66
386.286	8.94
386.651	8.64
387.017	8.8
387.383	8.63
387.748	8.6
388.114	8.62
388.479	9
388.845	8.76
389.21	8.63
389.575	8.58
389.94	8.65
390.306	8.6
390.671	8.51
391.036	8.86
391.401	8.66
391.766	8.73
392.131	8.9
392.496	8.84
392.861	8.63
393.226	8.82
393.591	8.69
393.956	8.7
394.32	8.68
394.685	8.89
395.05	8.78
395.414	8.75
395.779	8.81
396.143	8.88
396.508	8.78
396.872	9.01
397.236	8.71
397.601	8.8
397.965	8.79
398.329	8.91
398.694	8.54
399.058	8.92
399.422	8.62
399.786	8.9
400.15	8.72
400.514	8.93
400.878	8.78
401.242	8.66
401.605	8.88
401.969	8.84
402.333	8.9
402.697	8.96
403.06	8.87
403.424	9.21
403.787	8.62
404.151	9.3
404.514	8.66
404.878	9.08
405.241	9.17
405.604	8.86
405.968	8.7
406.331	9.14
406.694	9.06
407.057	8.77
407.42	8.86
407.783	8.99
408.146	9.16
408.509	8.91
408.872	9.04
409.235	9.24
409.598	9.04
409.961	8.92
410.323	9.25
410.686	9.03
411.049	9.16
411.411	9.19
411.774	8.91
412.136	8.98
412.499	9.25
412.861	8.95
413.223	9.29
413.586	8.95
413.948	8.95
414.31	9.12
414.672	9.27
415.035	9.02
415.397	9.09
415.759	9.07
416.121	9.05
416.483	8.87
416.845	8.94
417.206	9.51
417.568	9.07
417.93	9.16
418.292	9
418.653	9.38
419.015	9.01
419.377	9.19
419.738	9.12
420.1	9.15
420.461	9.17
420.822	9.16
421.184	9
421.545	9.35
421.906	9.09
422.267	8.99
422.629	9.16
422.99	9.22
423.351	9.12
423.712	9.12
424.073	9.07
424.434	9.31
424.795	9.26
425.155	9.08
425.516	9.04
425.877	9.18
426.238	9.11
426.598	9.04
426.959	9.08
427.32	9.31
427.68	9.29
428.041	9.32
428.401	9.2
428.761	9.34
429.122	9.44
429.482	9.56
429.842	9.37
430.202	9.37
430.563	9.28
430.923	9.57
431.283	9.49
431.643	9.49
432.003	9.4
432.363	9.54
432.722	9.35
433.082	9.32
433.442	9.47
433.802	9.42
434.161	9.41
434.521	9.62
434.881	9.62
435.24	9.56
435.6	9.6
435.959	9.52
436.319	9.58
436.678	9.47
437.037	9.47
437.396	9.48
437.756	9.56
438.115	9.6
438.474	9.58
438.833	9.65
439.192	9.8
439.551	9.73
439.91	9.52
440.269	9.51
440.628	9.49
440.987	9.45
441.345	9.68
441.704	9.44
442.063	9.59
442.421	9.6
442.78	9.66
443.138	9.51
443.497	9.54
443.855	9.57
444.214	9.75
444.572	9.64
444.93	9.78
445.288	9.46
445.647	9.83
446.005	9.6
446.363	9.57
446.721	9.67
447.079	9.7
447.437	9.58
447.795	9.72
448.153	9.67
448.51	9.66
448.868	9.64
449.226	9.76
449.584	9.55
449.941	9.77
450.299	9.7
450.656	9.69
451.014	9.8
451.371	9.79
451.729	9.94
452.086	9.72
452.443	10.04
452.801	9.76
453.158	9.75
453.515	9.87
453.872	9.87
454.229	9.81
454.586	9.75
454.943	9.72
455.3	9.74
455.657	9.93
456.014	10.12
456.371	9.99
456.727	10.14
457.084	9.98
457.441	10.09
457.797	10.09
458.154	10.07
458.51	9.89
458.867	9.99
459.223	10.07
459.58	10
459.936	9.77
460.292	9.88
460.648	10
461.005	9.94
461.361	9.98
461.717	10.03
462.073	9.91
462.429	9.92
462.785	9.89
463.141	10.1
463.496	9.96
463.852	10.15
464.208	10.12
464.564	10.26
464.919	10.25
465.275	10.27
465.631	10.33
465.986	10.15
466.342	10.05
466.697	10.25
467.052	10.31
467.408	10.39
467.763	10.38
468.118	10.29
468.473	10.15
468.829	10.34
469.184	9.98
469.539	10.2
469.894	10.34
470.249	10.36
470.603	10.29
470.958	10.3
471.313	10.43
471.668	10.4
472.023	10.57
472.377	10.2
472.732	10.37
473.086	10.22
473.441	10.41
473.795	10.56
474.15	10.44
474.504	10.25
474.859	10.21
475.213	10.24
475.567	10.42
475.921	10.3
476.275	10.26
476.63	10.44
476.984	10.48
477.338	10.21
477.692	10.14
478.045	10.39
478.399	10.3
478.753	10.44
479.107	10.36
479.461	10.42
479.814	10.6
480.168	10.3
480.521	10.3
480.875	10.5
481.228	10.42
481.582	10.49
481.935	10.49
482.289	10.51
482.642	10.57
482.995	10.41
483.348	10.43
483.701	10.59
484.055	10.29
484.408	10.34
484.761	10.31
485.114	10.23
485.466	10.14
485.819	10.07
486.172	9.96
486.525	9.91
486.878	10.02
487.23	10.13
487.583	10.34
487.936	10.39
488.288	10.32
488.641	10.44
488.993	10.3
489.345	10.32
489.698	10.22
490.05	10.27
490.402	10.29
490.754	10.28
491.107	10.33
491.459	10.44
491.811	10.57
492.163	10.47
492.515	10.57
492.866	10.53
493.218	10.47
493.57	10.37
493.922	10.3
494.274	10.31
494.625	10.51
494.977	10.64
495.328	10.68
495.68	10.57
496.031	10.93
496.383	10.85
496.734	10.87
497.086	10.79
497.437	10.74
497.788	10.76
498.139	10.81
498.49	10.96
498.842	10.81
499.193	10.74
499.544	10.88
499.894	10.83
500.245	10.86
500.596	10.78
500.947	10.89
501.298	10.96
501.648	10.98
501.999	10.85
502.35	10.86
502.7	11.05
503.051	11.01
503.401	10.99
503.752	11.18
504.102	11.14
504.452	10.98
504.803	11.03
505.153	11.07
505.503	11
505.853	11.31
506.203	11.02
506.553	11.04
506.903	11.17
507.253	11.13
507.603	11.13
507.953	11
508.303	11.19
508.652	11.17
509.002	11.25
509.352	10.97
509.701	11.21
510.051	11.22
510.4	11.13
510.75	11.11
511.099	11.05
511.449	11.25
511.798	11.17
512.147	11.12
512.496	11.33
512.846	11.25
513.195	11.24
513.544	11.22
513.893	11.13
514.242	11.21
514.591	11.11
514.939	11.25
515.288	11.29
515.637	11.29
515.986	11.27
516.334	11.28
516.683	11.26
517.032	11.28
517.38	11.34
517.729	11.61
518.077	11.46
518.426	11.59
518.774	11.43
519.122	11.34
519.47	11.41
519.819	11.38
520.167	11.35
520.515	11.2
520.863	11.28
521.211	11.22
521.559	11.33
521.907	11.38
522.255	11.39
522.602	11.51
522.95	11.52
523.298	11.41
523.645	11.53
523.993	11.68
524.341	11.61
524.688	11.52
525.036	11.59
525.383	11.78
525.73	11.56
526.078	11.43
526.425	11.63
526.772	11.57
527.119	11.56
527.466	11.65
527.814	11.54
528.161	11.61
528.508	11.62
528.854	11.53
529.201	11.52
529.548	11.63
529.895	11.46
530.242	11.43
530.588	11.35
530.935	11.33
531.282	11.3
531.628	11.32
531.975	11.43
532.321	11.61
532.667	11.62
533.014	11.81
533.36	11.62
533.706	11.74
534.052	11.77
534.399	11.86
534.745	11.81
535.091	11.64
535.437	11.71
535.783	11.72
536.129	11.75
536.474	11.76
536.82	11.88
537.166	12
537.512	12.03
537.857	11.99
538.203	11.97
538.549	11.93
538.894	11.99
539.239	12
539.585	11.94
539.93	11.96
540.276	11.93
540.621	12.04
540.966	12.07
541.311	12.26
541.656	12.28
542.001	12.11
542.346	12.18
542.691	12.19
543.036	12.02
543.381	11.92
543.726	11.95
544.071	11.95
544.415	11.92
544.76	12
545.105	12.14
545.449	12.27
545.794	12.33
546.138	12.21
546.483	12.3
546.827	12.38
547.171	12.46
547.516	12.54
547.86	12.49
548.204	12.44
548.548	12.39
548.892	12.46
549.236	12.47
549.58	12.51
549.924	12.51
550.268	12.72
550.612	12.38
550.956	12.67
551.3	12.77
551.643	12.77
551.987	12.98
552.33	12.87
552.674	12.8
553.017	12.89
553.361	12.86
553.704	12.95
554.048	12.82
554.391	12.88
554.734	12.84
555.077	12.93
555.42	12.97
555.764	12.97
556.107	12.96
556.45	12.78
556.793	12.9
557.135	12.96
557.478	13.05
557.821	12.85
558.164	13.13
558.507	13.19
558.849	13.21
559.192	12.92
559.534	13.33
559.877	12.97
560.219	13.02
560.562	13.15
560.904	13.26
561.246	13.32
561.589	13.29
561.931	13
562.273	13.08
562.615	13.25
562.957	13.28
563.299	13.39
563.641	13.44
563.983	13.36
564.325	13.43
564.667	13.47
565.008	13.18
565.35	13.11
565.692	13.4
566.033	13.53
566.375	13.6
566.716	13.18
567.058	13.47
567.399	13.65
567.741	13.74
568.082	13.43
568.423	13.58
568.764	13.52
569.105	13.57
569.447	13.55
569.788	13.4
570.129	13.46
570.47	13.59
570.811	13.69
571.151	13.65
571.492	13.78
571.833	13.87
572.174	13.67
572.514	13.78
572.855	13.53
573.195	13.66
573.536	13.8
573.876	13.84
574.217	13.84
574.557	13.8
574.898	13.8
575.238	13.97
575.578	13.88
575.918	13.96
576.258	13.96
576.598	13.96
576.938	13.96
577.278	14.1
577.618	14.05
577.958	13.93
578.298	14.09
578.638	14.12
578.977	14.1
579.317	14.24
579.657	14.33
579.996	14.4
580.336	14.11
580.675	14.18
581.014	14.49
581.354	14.31
581.693	14.13
582.032	14.24
582.372	14.4
582.711	14.51
583.05	14.42
583.389	14.75
583.728	14.78
584.067	14.6
584.406	14.66
584.745	14.9
585.083	14.27
585.422	14.58
585.761	14.83
586.1	14.65
586.438	14.71
586.777	15.01
587.115	15.03
587.454	14.63
587.792	14.59
588.13	14.84
588.469	14.66
588.807	14.6
589.145	14.72
589.483	14.85
589.821	15.12
590.159	14.88
590.497	14.98
590.835	14.82
591.173	14.94
591.511	14.85
591.849	15.1
592.187	15.08
592.524	14.8
592.862	14.94
593.2	14.79
593.537	14.91
593.875	15.46
594.212	15.1
594.55	15.35
594.887	15.58
595.224	15.24
595.561	15.61
595.899	15.21
596.236	15.36
596.573	15.17
596.91	15.62
597.247	15.44
597.584	15.29
597.921	15.41
598.258	15.35
598.594	15.49
598.931	15.43
599.268	15.21
599.604	15.19
599.941	15.35
600.277	15.25
600.614	15.62
600.95	15.47
601.287	15.44
601.623	15.85
601.959	15.54
602.296	15.56
602.632	15.65
602.968	15.8
603.304	15.64
603.64	15.73
603.976	15.53
604.312	15.68
604.648	15.86
604.984	15.79
605.319	16.07
605.655	15.8
605.991	15.88
606.326	15.9
606.662	15.96
606.998	15.82
607.333	15.93
607.668	15.87
608.004	15.8
608.339	15.8
608.674	15.95
609.01	16.15
609.345	16.49
609.68	15.99
610.015	16.08
610.35	15.97
610.685	16.29
611.02	16.28
611.355	16.2
611.689	15.98
612.024	16.02
612.359	16.39
612.694	16.19
613.028	16.48
613.363	16.3
613.697	16.58
614.032	16.27
614.366	16.61
614.7	16.23
615.035	16.51
615.369	16.46
615.703	16.53
616.037	16.47
616.371	16.26
616.705	16.58
617.039	16.72
617.373	16.57
617.707	16.77
618.041	16.46
618.375	15.97
618.709	16.7
619.042	16.53
619.376	16.35
619.71	16.51
620.043	16.91
620.377	16.61
620.71	16.46
621.043	16.38
621.377	16.5
621.71	16.85
622.043	17.11
622.376	17.06
622.709	17.04
623.043	16.78
623.376	17.01
623.709	16.98
624.041	16.89
624.374	17.1
624.707	17.04
625.04	16.83
625.373	17.38
625.705	17.01
626.038	17.07
626.37	17.6
626.703	17.47
627.035	16.79
627.368	17.66
627.7	17.3
628.032	17.28
628.365	17.65
628.697	17.58
629.029	17.13
629.361	17.25
629.693	17.3
630.025	17.05
630.357	17.58
630.689	17.02
631.021	17.71
631.353	17.55
631.684	17.34
632.016	17.4
632.348	17.73
632.679	17.33
633.011	17.98
633.342	17.91
633.674	17.93
634.005	17.96
634.336	17.92
634.668	17.99
634.999	18.22
635.33	18
635.661	17.79
635.992	18.12
636.323	17.72
636.654	17.94
636.985	18.03
637.316	17.95
637.647	18.02
637.977	18.12
638.308	18.41
638.639	18.11
638.969	17.74
639.3	17.95
639.63	17.92
639.961	18.18
640.291	17.91
640.622	18.24
640.952	18.31
641.282	18.41
641.612	18.47
641.943	18.52
642.273	18.72
642.603	18.57
642.933	18.6
643.263	18.01
643.592	18.44
643.922	18.21
644.252	18.45
644.582	18.05
644.911	17.77
645.241	18.15
645.571	18.23
645.9	18
646.23	18.47
646.559	18.67
646.888	18.28
647.218	18.84
647.547	18.39
647.876	18.34
648.205	18.61
648.534	18.5
648.863	18.34
649.192	19.58
649.521	18.78
649.85	18.8
650.179	18.96
650.508	19.01
650.837	18.52
651.165	18.55
651.494	18.7
651.822	18.97
652.151	19.46
652.479	19.35
652.808	19.45
653.136	19.1
653.465	19.07
653.793	18.96
654.121	19.41
654.449	19.35
654.777	19.33
655.105	19.44
655.433	19.39
655.761	19.25
656.089	19.07
656.417	19.62
656.745	18.95
657.073	18.77
657.4	19.41
657.728	18.97
658.056	19.61
658.383	19.31
658.711	19.07
659.038	19.45
659.365	19.72
659.693	19.29
660.02	19.42
660.347	19.71
660.674	19.56
661.001	19.81
661.329	19.79
661.656	19.55
661.982	19.73
662.309	19.98
662.636	20.14
662.963	19.84
663.29	20.14
663.616	19.7
663.943	19.9
664.27	19.75
664.596	20.06
664.923	20.52
665.249	19.25
665.576	20.05
665.902	19.61
666.228	20.11
666.554	19.84
666.881	18.76
667.207	19.65
667.533	20.26
667.859	19.68
668.185	20.18
668.511	20.4
668.837	20.13
669.162	20.63
669.488	19.76
669.814	20.06
670.139	20.35
670.465	19.17
670.791	20.61
671.116	20.25
671.442	20.68
671.767	20.25
672.092	21.08
672.418	20.44
672.743	20.72
673.068	20.01
673.393	20.45
673.718	20.55
674.043	20.64
674.368	19.03
674.693	20.22
675.018	19.9
675.343	20.22
675.667	20.36
675.992	20.57
676.317	20.27
676.641	20.62
676.966	20.46
677.29	20.27
677.615	20.56
677.939	20.51
