Data from 0403_chest_Reflection__3__170.txt Node

Date: Tue Dec 12 19:47:02 CST 2023
User: ToomeyLab
Spectrometer: FLMS14357
Trigger mode: 0
Integration Time (sec): 1.000000E-2
Scans to average: 100
Electric dark correction enabled: true
Nonlinearity correction enabled: false
Boxcar width: 0
XAxis mode: Wavelengths
Number of Pixels in Spectrum: 2048
>>>>>Begin Spectral Data<<<<<
189.047	174.72
189.435	174.72
189.823	174.72
190.211	188.81
190.599	65.4
190.987	258.14
191.375	-23.46
191.763	1080.56
192.151	131.48
192.538	-19.19
192.926	344.62
193.314	58.63
193.702	73.1
194.089	1.82
194.477	86.24
194.864	35.87
195.252	-203.11
195.639	23.49
196.027	702.62
196.414	138.76
196.801	967.68
197.189	146.9
197.576	78.14
197.963	21.78
198.351	6.62
198.738	24.13
199.125	-14.78
199.512	-15.22
199.899	-17.55
200.286	-9.01
200.673	-3.76
201.06	-7.16
201.447	-47.38
201.833	-38.21
202.22	-14.06
202.607	-139.85
202.994	3.14
203.38	-11.68
203.767	-4.68
204.154	3.57
204.54	4.23
204.927	23.28
205.313	7.72
205.699	-12.2
206.086	15.75
206.472	24.16
206.858	19.61
207.245	-12.54
207.631	12.64
208.017	-5.88
208.403	-39.46
208.789	24.98
209.175	-6.88
209.561	20.81
209.947	-37.39
210.333	11.59
210.719	-16.55
211.105	-67.86
211.491	17.39
211.876	-7.51
212.262	-0.17
212.648	13.15
213.034	-63.35
213.419	-10.54
213.805	-13.19
214.19	29.87
214.576	-8.54
214.961	12.32
215.346	-25.79
215.732	21.59
216.117	20.99
216.502	-17.92
216.888	-8.96
217.273	-15.03
217.658	-23.79
218.043	-5.1
218.428	-3.27
218.813	-30.13
219.198	-19.12
219.583	-3.93
219.968	23.54
220.353	-20.08
220.738	2.51
221.122	-9.83
221.507	-19.97
221.892	-11.53
222.276	-4.38
222.661	0.2
223.046	-5.21
223.43	-2.88
223.815	2.97
224.199	-0.71
224.583	-7.39
224.968	-1.87
225.352	-10.75
225.736	-11.08
226.121	-8.5
226.505	-6.76
226.889	-14.19
227.273	-3.68
227.657	-1.38
228.041	0.75
228.425	-1.05
228.809	2.67
229.193	-3.71
229.577	0.36
229.961	-0.01
230.344	1.47
230.728	2.48
231.112	2.03
231.495	1.33
231.879	2.59
232.263	-0.69
232.646	1.7
233.03	0.87
233.413	0.03
233.797	1.92
234.18	-3.45
234.563	-1.63
234.946	0.39
235.33	3.94
235.713	2.05
236.096	0.86
236.479	1.56
236.862	1.6
237.245	3.28
237.628	3.13
238.011	1.26
238.394	-0.62
238.777	3.01
239.16	2.97
239.543	3.42
239.925	-0.14
240.308	-0.54
240.691	0.05
241.073	2.06
241.456	1.67
241.838	0.45
242.221	1.84
242.603	3.11
242.986	1.45
243.368	1.93
243.75	1.19
244.133	1.92
244.515	1.96
244.897	2.26
245.279	2.45
245.661	1.56
246.043	1.38
246.425	1.96
246.807	0.39
247.189	2.26
247.571	1.52
247.953	1.9
248.335	2.27
248.717	2.42
249.098	2.06
249.48	1.89
249.862	1.74
250.243	2.16
250.625	2.63
251.006	1.69
251.388	1.72
251.769	1.85
252.151	1.37
252.532	1.83
252.913	2.63
253.295	3.75
253.676	1.96
254.057	1.6
254.438	2.42
254.819	2
255.2	1.08
255.581	1.51
255.962	2.49
256.343	1.41
256.724	1.33
257.105	2.28
257.486	0.97
257.867	0.86
258.247	1.5
258.628	2.02
259.009	1.16
259.389	2.05
259.77	1.45
260.15	1.4
260.531	2.25
260.911	2.47
261.292	1.81
261.672	1.8
262.052	1.97
262.432	2.33
262.813	1.73
263.193	1.47
263.573	1.39
263.953	3.01
264.333	3.22
264.713	2.46
265.093	2.39
265.473	1.89
265.853	1.03
266.233	1.88
266.612	0.54
266.992	1.27
267.372	2.49
267.752	2.24
268.131	1.24
268.511	1.59
268.89	0.74
269.27	1.33
269.649	2.17
270.029	2.12
270.408	2.31
270.787	1.51
271.167	1.62
271.546	1.98
271.925	2.19
272.304	2.07
272.683	1.09
273.062	1.28
273.441	1.97
273.82	1.8
274.199	2.04
274.578	1.58
274.957	1.49
275.336	1.78
275.715	1.47
276.093	1.15
276.472	1.77
276.851	2.07
277.229	1.31
277.608	1.76
277.986	1.46
278.365	1.95
278.743	1.71
279.122	2.58
279.5	0.74
279.878	1.38
280.257	1.46
280.635	1.46
281.013	1.83
281.391	2.28
281.769	1.02
282.147	1.86
282.525	1.83
282.903	1.44
283.281	1.71
283.659	1.56
284.037	2.51
284.415	1.93
284.792	2.2
285.17	1.26
285.548	1.96
285.925	1.31
286.303	1.54
286.68	1.87
287.058	1.77
287.435	1.73
287.813	1.35
288.19	1.68
288.567	2.1
288.945	2.03
289.322	0.95
289.699	1.74
290.076	1.7
290.453	1.72
290.83	1.65
291.207	2.43
291.584	2.06
291.961	2.12
292.338	1.71
292.715	1.78
293.092	1.7
293.469	2.08
293.845	2.26
294.222	1.6
294.599	2.14
294.975	1.89
295.352	1.74
295.728	2.28
296.105	2.1
296.481	2.45
296.858	2.07
297.234	2.71
297.61	2.11
297.986	2.62
298.363	2.11
298.739	2.23
299.115	1.79
299.491	1.92
299.867	2.06
300.243	2.27
300.619	1.97
300.995	2.84
301.371	2.52
301.746	1.95
302.122	2.74
302.498	2.27
302.874	2.23
303.249	3.21
303.625	1.89
304	2.7
304.376	2.45
304.751	2.77
305.127	2.12
305.502	2.59
305.878	1.9
306.253	2.36
306.628	2.24
307.003	1.81
307.378	2.22
307.754	2.51
308.129	2.15
308.504	3.06
308.879	1.54
309.254	2.7
309.629	1.95
310.003	2.66
310.378	2.67
310.753	2.6
311.128	3.16
311.502	2.28
311.877	2.07
312.252	1.77
312.626	2.2
313.001	2.45
313.375	2.18
313.75	2.29
314.124	2.56
314.498	2.53
314.873	2.62
315.247	2.37
315.621	2.6
315.995	3.11
316.369	2.65
316.743	1.96
317.117	2.43
317.491	2.31
317.865	3.43
318.239	1.92
318.613	2.7
318.987	2.86
319.361	2.45
319.734	2.07
320.108	2.66
320.482	2.59
320.855	2.12
321.229	2.39
321.602	2.59
321.976	2.85
322.349	2.84
322.723	1.97
323.096	1.86
323.469	2.47
323.843	3.42
324.216	3.06
324.589	2.47
324.962	3.01
325.335	3.38
325.708	2.41
326.081	2.87
326.454	2.58
326.827	3.2
327.2	2.33
327.573	2.07
327.945	2.83
328.318	2.99
328.691	2.1
329.063	2.52
329.436	2.67
329.809	2.25
330.181	2.1
330.553	2.77
330.926	3.09
331.298	2.34
331.671	2.38
332.043	2.21
332.415	2.96
332.787	2.74
333.159	2.63
333.532	2.73
333.904	2.59
334.276	3.55
334.648	2.18
335.02	1.92
335.391	2.04
335.763	2.45
336.135	2.63
336.507	2.76
336.879	2.49
337.25	2.68
337.622	2.54
337.993	2.46
338.365	2.36
338.736	2.84
339.108	2.44
339.479	2.66
339.851	1.68
340.222	1.92
340.593	2.77
340.964	2.98
341.336	2.68
341.707	2.33
342.078	2.3
342.449	2.47
342.82	3.02
343.191	2.48
343.562	2.73
343.933	2.68
344.303	2.6
344.674	2.37
345.045	2.83
345.416	2.43
345.786	2.42
346.157	2.72
346.527	3.19
346.898	2.6
347.268	2.74
347.639	2.76
348.009	2.56
348.38	2.59
348.75	3.08
349.12	2.74
349.49	2.8
349.861	2.71
350.231	3
350.601	3.08
350.971	2.71
351.341	2.48
351.711	3.15
352.081	2.6
352.45	2.74
352.82	3.14
353.19	2.63
353.56	2.97
353.929	2.54
354.299	2.47
354.669	2.75
355.038	2.3
355.408	2.29
355.777	3.1
356.147	2.72
356.516	2.77
356.885	2.44
357.254	2.7
357.624	2.48
357.993	2.81
358.362	3
358.731	2.54
359.1	2.37
359.469	2.51
359.838	3.16
360.207	2.81
360.576	2.78
360.945	2.62
361.314	2.9
361.682	2.74
362.051	2.84
362.42	3.26
362.788	2.67
363.157	2.97
363.525	2.78
363.894	2.67
364.262	2.76
364.631	2.68
364.999	2.87
365.367	3.22
365.735	2.6
366.104	2.59
366.472	2.65
366.84	2.84
367.208	2.61
367.576	2.63
367.944	2.98
368.312	2.82
368.68	2.84
369.048	2.83
369.416	2.68
369.783	2.94
370.151	2.9
370.519	2.27
370.886	2.97
371.254	2.55
371.621	2.79
371.989	2.93
372.356	2.69
372.724	2.9
373.091	2.83
373.458	2.78
373.826	2.88
374.193	2.65
374.56	3.18
374.927	3.03
375.294	2.78
375.661	3.5
376.028	2.96
376.395	3.11
376.762	3.25
377.129	2.96
377.496	2.92
377.863	2.78
378.229	2.77
378.596	2.56
378.963	3.09
379.329	2.83
379.696	2.69
380.062	3.18
380.429	3.13
380.795	2.74
381.161	2.93
381.528	2.44
381.894	3.24
382.26	3.01
382.626	2.86
382.993	2.98
383.359	2.47
383.725	2.86
384.091	2.8
384.457	2.67
384.823	3.1
385.188	2.93
385.554	2.9
385.92	3.13
386.286	3.24
386.651	3.13
387.017	3.25
387.383	2.95
387.748	2.8
388.114	2.66
388.479	3.08
388.845	2.99
389.21	3.07
389.575	2.71
389.94	3
390.306	2.87
390.671	3.17
391.036	3.52
391.401	3.06
391.766	3.35
392.131	3.23
392.496	3.1
392.861	2.92
393.226	3.09
393.591	2.96
393.956	3.12
394.32	3.17
394.685	3.02
395.05	2.88
395.414	3.05
395.779	3.11
396.143	3
396.508	2.87
396.872	3.03
397.236	3.19
397.601	2.97
397.965	3.16
398.329	2.97
398.694	2.84
399.058	3.19
399.422	3.12
399.786	3
400.15	2.81
400.514	3.27
400.878	3.1
401.242	3.03
401.605	3.18
401.969	3.05
402.333	3.11
402.697	3.13
403.06	2.96
403.424	3.34
403.787	2.77
404.151	3.21
404.514	2.99
404.878	2.98
405.241	3.33
405.604	2.92
405.968	2.89
406.331	3.38
406.694	3.12
407.057	2.99
407.42	3.14
407.783	3.03
408.146	3.13
408.509	3.14
408.872	3.14
409.235	3.12
409.598	3.05
409.961	2.98
410.323	3.02
410.686	3.33
411.049	3.25
411.411	3.28
411.774	3.24
412.136	3.16
412.499	3.17
412.861	3.04
413.223	3.36
413.586	3.13
413.948	2.98
414.31	3.26
414.672	3.46
415.035	3.1
415.397	2.97
415.759	3.17
416.121	3.12
416.483	3.25
416.845	3.06
417.206	3.34
417.568	3.08
417.93	3.26
418.292	2.95
418.653	3.28
419.015	3.24
419.377	3.13
419.738	3.2
420.1	2.96
420.461	3.1
420.822	3.18
421.184	3.26
421.545	3.29
421.906	3.02
422.267	3.08
422.629	3.17
422.99	3.19
423.351	3.18
423.712	3.11
424.073	3.11
424.434	3.22
424.795	3.28
425.155	3.04
425.516	3.11
425.877	3.1
426.238	3.15
426.598	3.09
426.959	3.17
427.32	3.15
427.68	3.18
428.041	3.32
428.401	3.3
428.761	3.06
429.122	3.23
429.482	3.52
429.842	3.39
430.202	3.38
430.563	3.24
430.923	3.23
431.283	3.27
431.643	3.36
432.003	3.27
432.363	3.24
432.722	3.37
433.082	3.31
433.442	3.36
433.802	3.29
434.161	3.39
434.521	3.37
434.881	3.34
435.24	3.2
435.6	3.39
435.959	3.28
436.319	3.24
436.678	3.44
437.037	3.31
437.396	3.18
437.756	3.33
438.115	3.38
438.474	3.36
438.833	3.44
439.192	3.33
439.551	3.37
439.91	3.3
440.269	3.35
440.628	3.15
440.987	3.23
441.345	3.41
441.704	3.43
442.063	3.45
442.421	3.41
442.78	3.28
443.138	3.35
443.497	3.29
443.855	3.28
444.214	3.34
444.572	3.31
444.93	3.4
445.288	3.16
445.647	3.29
446.005	3.37
446.363	3.17
446.721	3.24
447.079	3.4
447.437	3.26
447.795	3.32
448.153	3.31
448.51	3.41
448.868	3.39
449.226	3.44
449.584	3.31
449.941	3.32
450.299	3.58
450.656	3.4
451.014	3.31
451.371	3.47
451.729	3.47
452.086	3.4
452.443	3.63
452.801	3.46
453.158	3.43
453.515	3.45
453.872	3.33
454.229	3.45
454.586	3.37
454.943	3.27
455.3	3.33
455.657	3.47
456.014	3.5
456.371	3.56
456.727	3.56
457.084	3.31
457.441	3.45
457.797	3.45
458.154	3.47
458.51	3.33
458.867	3.39
459.223	3.68
459.58	3.69
459.936	3.33
460.292	3.42
460.648	3.55
461.005	3.43
461.361	3.38
461.717	3.53
462.073	3.45
462.429	3.47
462.785	3.44
463.141	3.54
463.496	3.33
463.852	3.82
464.208	3.55
464.564	3.61
464.919	3.82
465.275	3.47
465.631	3.84
465.986	3.67
466.342	3.43
466.697	3.59
467.052	3.74
467.408	3.55
467.763	3.58
468.118	3.52
468.473	3.67
468.829	3.71
469.184	3.33
469.539	3.6
469.894	3.71
470.249	3.63
470.603	3.79
470.958	3.51
471.313	3.77
471.668	3.82
472.023	3.62
472.377	3.51
472.732	3.62
473.086	3.55
473.441	3.69
473.795	3.81
474.15	3.72
474.504	3.58
474.859	3.71
475.213	3.59
475.567	3.64
475.921	3.63
476.275	3.52
476.63	3.48
476.984	3.65
477.338	3.61
477.692	3.68
478.045	3.85
478.399	3.61
478.753	3.62
479.107	3.58
479.461	3.68
479.814	3.76
480.168	3.43
480.521	3.74
480.875	3.74
481.228	3.84
481.582	3.67
481.935	3.79
482.289	3.76
482.642	3.81
482.995	3.74
483.348	3.63
483.701	3.81
484.055	3.74
484.408	3.74
484.761	3.71
485.114	3.57
485.466	3.49
485.819	3.48
486.172	3.48
486.525	3.52
486.878	3.56
487.23	3.58
487.583	3.54
487.936	3.64
488.288	3.67
488.641	3.67
488.993	3.58
489.345	3.62
489.698	3.58
490.05	3.64
490.402	3.68
490.754	3.67
491.107	3.67
491.459	3.71
491.811	3.71
492.163	3.76
492.515	3.8
492.866	3.73
493.218	3.64
493.57	3.66
493.922	3.58
494.274	3.7
494.625	3.74
494.977	3.89
495.328	3.91
495.68	3.69
496.031	3.9
496.383	3.73
496.734	3.93
497.086	3.77
497.437	3.91
497.788	3.92
498.139	3.88
498.49	3.9
498.842	3.85
499.193	3.84
499.544	3.93
499.894	3.78
500.245	4
500.596	3.98
500.947	3.84
501.298	3.94
501.648	4.01
501.999	3.94
502.35	3.92
502.7	4.01
503.051	4
503.401	3.88
503.752	4.09
504.102	3.95
504.452	4.02
504.803	3.99
505.153	4.09
505.503	4.06
505.853	4.23
506.203	4.04
506.553	3.95
506.903	4.06
507.253	4.01
507.603	3.97
507.953	3.98
508.303	4.06
508.652	4
509.002	4.18
509.352	4.09
509.701	4.2
510.051	4.13
510.4	4.07
510.75	3.95
511.099	4.08
511.449	4.16
511.798	4.04
512.147	4.15
512.496	4.26
512.846	4.14
513.195	4.01
513.544	4.16
513.893	4.14
514.242	4.04
514.591	4.15
514.939	4.09
515.288	4.12
515.637	4.09
515.986	4.21
516.334	4.2
516.683	4.16
517.032	4.34
517.38	4.13
517.729	4.37
518.077	4.21
518.426	4.16
518.774	4.26
519.122	4.23
519.47	4.19
519.819	4.14
520.167	4.16
520.515	4.09
520.863	4.24
521.211	4.26
521.559	4.26
521.907	4.18
522.255	4.27
522.602	4.42
522.95	4.26
523.298	4.35
523.645	4.38
523.993	4.38
524.341	4.31
524.688	4.33
525.036	4.46
525.383	4.25
525.73	4.38
526.078	4.42
526.425	4.27
526.772	4.36
527.119	4.34
527.466	4.32
527.814	4.24
528.161	4.35
528.508	4.41
528.854	4.34
529.201	4.3
529.548	4.42
529.895	4.24
530.242	4.18
530.588	4.22
530.935	4.32
531.282	4.31
531.628	4.33
531.975	4.36
532.321	4.38
532.667	4.34
533.014	4.41
533.36	4.46
533.706	4.33
534.052	4.39
534.399	4.51
534.745	4.49
535.091	4.4
535.437	4.41
535.783	4.45
536.129	4.5
536.474	4.48
536.82	4.57
537.166	4.66
537.512	4.6
537.857	4.61
538.203	4.58
538.549	4.61
538.894	4.54
539.239	4.63
539.585	4.63
539.93	4.76
540.276	4.65
540.621	4.67
540.966	4.67
541.311	4.77
541.656	4.67
542.001	4.74
542.346	4.71
542.691	4.73
543.036	4.54
543.381	4.55
543.726	4.59
544.071	4.68
544.415	4.64
544.76	4.7
545.105	4.73
545.449	4.73
545.794	4.83
546.138	4.6
546.483	4.86
546.827	4.91
547.171	4.88
547.516	4.97
547.86	4.94
548.204	4.94
548.548	4.96
548.892	4.94
549.236	4.97
549.58	4.93
549.924	5.03
550.268	5.1
550.612	4.85
550.956	5.03
551.3	5.15
551.643	5.06
551.987	5.01
552.33	5.13
552.674	5.3
553.017	5.19
553.361	5.42
553.704	5.08
554.048	5.23
554.391	5.1
554.734	5.1
555.077	5.28
555.42	5.14
555.764	5.38
556.107	5.42
556.45	5.2
556.793	5.05
557.135	5.22
557.478	5.4
557.821	5.37
558.164	5.45
558.507	5.4
558.849	5.39
559.192	5.46
559.534	5.41
559.877	5.46
560.219	5.44
560.562	5.45
560.904	5.52
561.246	5.45
561.589	5.45
561.931	5.42
562.273	5.36
562.615	5.51
562.957	5.53
563.299	5.5
563.641	5.58
563.983	5.7
564.325	5.71
564.667	5.72
565.008	5.47
565.35	5.64
565.692	5.5
566.033	5.78
566.375	5.68
566.716	5.6
567.058	5.79
567.399	5.87
567.741	5.87
568.082	5.75
568.423	5.7
568.764	5.9
569.105	5.67
569.447	5.89
569.788	5.75
570.129	5.75
570.47	5.93
570.811	5.73
571.151	5.93
571.492	5.96
571.833	5.95
572.174	5.93
572.514	5.98
572.855	5.89
573.195	5.91
573.536	5.91
573.876	5.85
574.217	5.94
574.557	5.95
574.898	5.88
575.238	6.02
575.578	5.84
575.918	6.05
576.258	6.16
576.598	6.03
576.938	6.07
577.278	6.21
577.618	6.19
577.958	6.07
578.298	6.29
578.638	6.22
578.977	6.15
579.317	6.28
579.657	6.25
579.996	6.2
580.336	6.43
580.675	6.06
581.014	6.37
581.354	6.38
581.693	6.19
582.032	6.08
582.372	6.5
582.711	6.31
583.05	6.62
583.389	6.57
583.728	6.53
584.067	6.46
584.406	6.64
584.745	6.44
585.083	6.28
585.422	6.88
585.761	6.8
586.1	6.72
586.438	6.59
586.777	6.57
587.115	6.78
587.454	6.74
587.792	6.53
588.13	6.67
588.469	6.58
588.807	6.62
589.145	6.8
589.483	6.7
589.821	6.99
590.159	6.94
590.497	6.8
590.835	6.85
591.173	6.88
591.511	6.79
591.849	6.84
592.187	6.62
592.524	6.99
592.862	6.94
593.2	6.84
593.537	6.83
593.875	7.2
594.212	7.12
594.55	7.03
594.887	7.26
595.224	7.19
595.561	7.28
595.899	7.01
596.236	7.16
596.573	6.98
596.91	7.24
597.247	7.15
597.584	7.11
597.921	7.26
598.258	7.27
598.594	7.24
598.931	7.07
599.268	7.06
599.604	7.22
599.941	7.15
600.277	7.21
600.614	7.57
600.95	7.62
601.287	7.16
601.623	7.49
601.959	7.51
602.296	7.65
602.632	7.38
602.968	7.45
603.304	7.4
603.64	7.5
603.976	7.49
604.312	7.57
604.648	7.55
604.984	7.63
605.319	7.47
605.655	7.55
605.991	7.64
606.326	7.21
606.662	7.63
606.998	7.53
607.333	7.59
607.668	7.56
608.004	7.9
608.339	7.78
608.674	7.93
609.01	7.62
609.345	7.95
609.68	7.93
610.015	7.57
610.35	8.02
610.685	7.97
611.02	7.87
611.355	7.74
611.689	7.73
612.024	7.83
612.359	7.89
612.694	7.98
613.028	7.9
613.363	7.81
613.697	8.3
614.032	8.19
614.366	8.16
614.7	8.01
615.035	8.32
615.369	8.43
615.703	8.06
616.037	8.14
616.371	8.04
616.705	8.35
617.039	8.18
617.373	8.3
617.707	8.01
618.041	8.32
618.375	8.13
618.709	8.21
619.042	8.26
619.376	8.46
619.71	8.36
620.043	8.54
620.377	8.4
620.71	8.22
621.043	8.35
621.377	7.91
621.71	8.73
622.043	8.93
622.376	8.7
622.709	8.66
623.043	8.35
623.376	9.01
623.709	8.83
624.041	8.71
624.374	8.15
624.707	8.46
625.04	8.6
625.373	8.96
625.705	8.69
626.038	8.93
626.37	9.16
626.703	8.81
627.035	8.81
627.368	8.84
627.7	8.68
628.032	8.67
628.365	9.08
628.697	8.64
629.029	9.07
629.361	8.64
629.693	8.97
630.025	8.53
630.357	8.97
630.689	8.82
631.021	9.24
631.353	9.14
631.684	8.81
632.016	9.26
632.348	9.17
632.679	9.06
633.011	9.57
633.342	9.4
633.674	9.5
634.005	9.34
634.336	9.53
634.668	9.28
634.999	9.58
635.33	9.32
635.661	9.09
635.992	9.21
636.323	9.07
636.654	9.73
636.985	9.36
637.316	9.68
637.647	9.05
637.977	9.59
638.308	9.28
638.639	9.64
638.969	9.55
639.3	9.48
639.63	9.61
639.961	9.46
640.291	9.12
640.622	9.79
640.952	9.66
641.282	9.53
641.612	9.85
641.943	9.99
642.273	9.66
642.603	10.13
642.933	9.66
643.263	9.78
643.592	10.12
643.922	9.74
644.252	9.84
644.582	9.24
644.911	9.77
645.241	9.92
645.571	10.38
645.9	9.46
646.23	9.83
646.559	10.38
646.888	10.07
647.218	10.01
647.547	9.9
647.876	10.29
648.205	10.15
648.534	10.77
648.863	10.53
649.192	10.33
649.521	9.72
649.85	9.85
650.179	10.27
650.508	10.5
650.837	10.38
651.165	10.01
651.494	10.53
651.822	9.97
652.151	10.41
652.479	10.59
652.808	10.4
653.136	10.61
653.465	10.09
653.793	10.74
654.121	10.8
654.449	10.4
654.777	10.51
655.105	10.81
655.433	10.75
655.761	10.64
656.089	10.74
656.417	10.71
656.745	10.67
657.073	10.33
657.4	10.59
657.728	10.01
658.056	10.66
658.383	10.29
658.711	10.42
659.038	10.66
659.365	10.79
659.693	11.16
660.02	10.77
660.347	10.68
660.674	11.1
661.001	10.67
661.329	11
661.656	10.77
661.982	10.6
662.309	11.19
662.636	11.18
662.963	10.79
663.29	11.51
663.616	11.19
663.943	11.21
664.27	11.34
664.596	11.07
664.923	11.81
665.249	10.6
665.576	11.06
665.902	11.75
666.228	11.41
666.554	11.42
666.881	10.69
667.207	10.93
667.533	11.52
667.859	11.08
668.185	11.28
668.511	11.62
668.837	11.58
669.162	11.9
669.488	11.4
669.814	11.79
670.139	11.19
670.465	10.85
670.791	11.27
671.116	11.43
671.442	11.09
671.767	11.6
672.092	12.45
672.418	11.93
672.743	11.84
673.068	11.21
673.393	11.72
673.718	11.69
674.043	11.94
674.368	11.12
674.693	11.23
675.018	11.36
675.343	11.72
675.667	11.61
675.992	11.74
676.317	11.56
676.641	11.54
676.966	11.59
677.29	11.51
677.615	11.54
677.939	11.59
678.264	12.22
678.588	11.55
678.912	11.94
679.236	11.22
679.56	12.02
679.885	12.05
680.209	12.65
680.532	12.14
680.856	11.61
681.18	12.1
681.504	12.27
681.828	12.25
682.152	12.32
682.475	12.5
682.799	12.1
683.122	12.25
683.446	12.56
683.769	12.9
684.093	12.18
684.416	12
684.739	11.91
685.062	12.64
685.386	12.82
685.709	13.03
686.032	12.57
686.355	12.54
686.678	12.86
687.001	12.42
687.324	12.28
687.646	12.82
687.969	12.41
688.292	12.55
688.614	12.72
