Data from 0403_crown_Reflection__0__172.txt Node

Date: Tue Dec 12 19:49:15 CST 2023
User: ToomeyLab
Spectrometer: FLMS14357
Trigger mode: 0
Integration Time (sec): 1.000000E-2
Scans to average: 100
Electric dark correction enabled: true
Nonlinearity correction enabled: false
Boxcar width: 0
XAxis mode: Wavelengths
Number of Pixels in Spectrum: 2048
>>>>>Begin Spectral Data<<<<<
189.047	100.36
189.435	100.36
189.823	100.36
190.211	156.82
190.599	47.99
190.987	238.46
191.375	138.59
191.763	214.51
192.151	105.85
192.538	9.74
192.926	170.64
193.314	160.82
193.702	9.22
194.089	90.53
194.477	-24.92
194.864	91.64
195.252	205.41
195.639	69.6
196.027	496.68
196.414	-19.1
196.801	207.48
197.189	191.57
197.576	174.1
197.963	19.42
198.351	21.29
198.738	21.73
199.125	-27.27
199.512	-57.74
199.899	32.38
200.286	-2.73
200.673	-43.62
201.06	-2.01
201.447	-16.3
201.833	-33.07
202.22	22.35
202.607	-104.05
202.994	34.32
203.38	34.25
203.767	-61.81
204.154	27.47
204.54	19.89
204.927	-23.48
205.313	26.82
205.699	0.75
206.086	-9.08
206.472	30.17
206.858	2.31
207.245	-24.81
207.631	23.41
208.017	19.87
208.403	-9.65
208.789	-8.56
209.175	-38.04
209.561	9.57
209.947	3.29
210.333	-1.92
210.719	7.38
211.105	-68.25
211.491	9.95
211.876	15.35
212.262	-13.7
212.648	-23.98
213.034	-56.25
213.419	5.17
213.805	16.93
214.19	34.28
214.576	28.97
214.961	43.1
215.346	-30.06
215.732	34.15
216.117	-5.17
216.502	-34.85
216.888	-18.01
217.273	-50.54
217.658	-56.12
218.043	-19.85
218.428	-8.69
218.813	-2.2
219.198	-51.16
219.583	-9.31
219.968	1.37
220.353	-38.7
220.738	-17.07
221.122	0.69
221.507	-33.25
221.892	-2.12
222.276	2.12
222.661	6.29
223.046	1.96
223.43	1.77
223.815	-11.9
224.199	-1.5
224.583	3.13
224.968	7.79
225.352	1.56
225.736	2.74
226.121	-0.28
226.505	-7.8
226.889	-11.08
227.273	-0.1
227.657	6.76
228.041	6.5
228.425	2.12
228.809	2.88
229.193	0.1
229.577	4.7
229.961	0.88
230.344	3.71
230.728	4.49
231.112	5.02
231.495	4.75
231.879	4.52
232.263	2.94
232.646	1.4
233.03	2.81
233.413	4.37
233.797	4.69
234.18	1.07
234.563	0.63
234.946	2.17
235.33	4.62
235.713	3.76
236.096	1.63
236.479	2.56
236.862	2.58
237.245	4.61
237.628	2.36
238.011	2.78
238.394	2.8
238.777	3.99
239.16	3.36
239.543	4.48
239.925	4.02
240.308	2.57
240.691	3.95
241.073	4.35
241.456	3.67
241.838	3.1
242.221	4.31
242.603	3.32
242.986	3.01
243.368	3.88
243.75	3.13
244.133	3.27
244.515	4.11
244.897	3.76
245.279	4.28
245.661	2.97
246.043	1.94
246.425	4.25
246.807	3.75
247.189	2.93
247.571	3.43
247.953	3.01
248.335	4.15
248.717	3.63
249.098	3.49
249.48	3.44
249.862	3.12
250.243	3.26
250.625	3.87
251.006	3.83
251.388	3.51
251.769	3.33
252.151	2.07
252.532	3.82
252.913	3.52
253.295	3.93
253.676	2.51
254.057	2.7
254.438	3.75
254.819	2.27
255.2	2.53
255.581	3.48
255.962	2.39
256.343	3.1
256.724	2.49
257.105	4.94
257.486	2.62
257.867	2.75
258.247	2.8
258.628	4.41
259.009	2.79
259.389	3.38
259.77	1.43
260.15	3.24
260.531	3.61
260.911	3.58
261.292	2.74
261.672	3.2
262.052	3.07
262.432	3.19
262.813	3.02
263.193	2.97
263.573	3.15
263.953	3.9
264.333	4.04
264.713	3.34
265.093	3.32
265.473	3.84
265.853	3.48
266.233	2.59
266.612	3.03
266.992	2.72
267.372	3.77
267.752	3.95
268.131	3.01
268.511	2.56
268.89	2.55
269.27	1.99
269.649	2.5
270.029	2.71
270.408	3.35
270.787	2.62
271.167	2.49
271.546	2.73
271.925	3.24
272.304	3.41
272.683	2.12
273.062	2.71
273.441	3.36
273.82	2.68
274.199	2.66
274.578	2.69
274.957	2.86
275.336	2.99
275.715	3.78
276.093	1.22
276.472	2.66
276.851	3.14
277.229	2.13
277.608	2.39
277.986	2.46
278.365	3.2
278.743	3
279.122	3.31
279.5	3.01
279.878	2.03
280.257	1.86
280.635	2.76
281.013	2.75
281.391	3.68
281.769	2.66
282.147	3.13
282.525	2.52
282.903	2.24
283.281	2.92
283.659	2.62
284.037	3.38
284.415	3.07
284.792	2.82
285.17	2.58
285.548	2.46
285.925	2.78
286.303	2.61
286.68	2.78
287.058	2.98
287.435	2.51
287.813	2.5
288.19	2.75
288.567	2.76
288.945	2.76
289.322	2.1
289.699	2.99
290.076	2.38
290.453	2.83
290.83	2.39
291.207	3.2
291.584	2.33
291.961	3.07
292.338	2.67
292.715	2.46
293.092	2.62
293.469	2.34
293.845	3.32
294.222	2.41
294.599	3.18
294.975	2.28
295.352	2.79
295.728	2.83
296.105	2.79
296.481	3.18
296.858	2.87
297.234	3.2
297.61	3.06
297.986	2.74
298.363	2.95
298.739	2.38
299.115	2.34
299.491	2.5
299.867	2.85
300.243	2.52
300.619	2.36
300.995	2.69
301.371	2.92
301.746	2.77
302.122	3.07
302.498	2.73
302.874	2.78
303.249	3.09
303.625	1.96
304	2.93
304.376	2.29
304.751	2.74
305.127	2.08
305.502	2.7
305.878	2.37
306.253	2.5
306.628	2.7
307.003	2.74
307.378	2.66
307.754	2.37
308.129	2.24
308.504	3.68
308.879	2.11
309.254	3.15
309.629	2.47
310.003	2.68
310.378	2.82
310.753	3.15
311.128	2.79
311.502	2.25
311.877	2.38
312.252	1.83
312.626	2.32
313.001	2.47
313.375	2.29
313.75	2.6
314.124	2.69
314.498	2.81
314.873	2.53
315.247	3.08
315.621	2.27
315.995	2.44
316.369	2.47
316.743	2.2
317.117	2.54
317.491	2.84
317.865	2.72
318.239	2.56
318.613	3.16
318.987	2.54
319.361	2.08
319.734	2.76
320.108	2.88
320.482	2.33
320.855	2.2
321.229	2.31
321.602	2.9
321.976	2.69
322.349	2.7
322.723	2.46
323.096	2.66
323.469	2.24
323.843	2.67
324.216	2.71
324.589	2.63
324.962	2.56
325.335	3.28
325.708	2.5
326.081	2.89
326.454	2.31
326.827	3.01
327.2	2.51
327.573	2.27
327.945	2.62
328.318	2.73
328.691	2.17
329.063	2.95
329.436	2.52
329.809	2.47
330.181	2
330.553	1.74
330.926	2.8
331.298	2.38
331.671	2.69
332.043	2.35
332.415	2.21
332.787	2.01
333.159	2.27
333.532	3.01
333.904	2.13
334.276	2.91
334.648	2.5
335.02	2.51
335.391	2.14
335.763	2.39
336.135	3.07
336.507	2.84
336.879	2.32
337.25	1.88
337.622	1.94
337.993	1.9
338.365	2.19
338.736	2.6
339.108	2.4
339.479	2.63
339.851	1.9
340.222	1.62
340.593	2.42
340.964	2.38
341.336	2.54
341.707	2.26
342.078	2.23
342.449	2.36
342.82	2.84
343.191	3.07
343.562	2.41
343.933	2.6
344.303	2.74
344.674	2.87
345.045	2.14
345.416	2.49
345.786	2.3
346.157	2.23
346.527	2.73
346.898	2.01
347.268	2.12
347.639	2.68
348.009	2.52
348.38	2.59
348.75	3.05
349.12	2.41
349.49	2.15
349.861	2.52
350.231	2.64
350.601	2.83
350.971	2.77
351.341	2.47
351.711	2.59
352.081	2.94
352.45	2.57
352.82	2.31
353.19	2.41
353.56	2.65
353.929	2.56
354.299	2.13
354.669	2.29
355.038	1.77
355.408	2.4
355.777	3.03
356.147	2.31
356.516	2.71
356.885	2.4
357.254	2.61
357.624	2.48
357.993	2.87
358.362	2.57
358.731	2.33
359.1	2.47
359.469	2.55
359.838	2.29
360.207	2.46
360.576	2.95
360.945	2.4
361.314	2.77
361.682	2.47
362.051	2.89
362.42	2.87
362.788	2.49
363.157	2.91
363.525	2.91
363.894	2.47
364.262	2.62
364.631	2.33
364.999	2.55
365.367	2.79
365.735	2.61
366.104	2.71
366.472	2.09
366.84	2.57
367.208	2.24
367.576	2.43
367.944	2.93
368.312	2.75
368.68	2.73
369.048	2.85
369.416	2.55
369.783	2.73
370.151	2.67
370.519	2.43
370.886	2.98
371.254	2.4
371.621	2.96
371.989	2.44
372.356	2.46
372.724	2.58
373.091	2.35
373.458	2.69
373.826	2.64
374.193	2.37
374.56	2.84
374.927	2.81
375.294	2.42
375.661	2.98
376.028	2.81
376.395	2.96
376.762	3.18
377.129	2.58
377.496	2.66
377.863	2.56
378.229	2.71
378.596	2.5
378.963	3.12
379.329	2.42
379.696	2.34
380.062	2.81
380.429	2.63
380.795	3.06
381.161	2.92
381.528	2.46
381.894	2.75
382.26	2.41
382.626	2.94
382.993	2.74
383.359	2.53
383.725	2.61
384.091	2.31
384.457	2.39
384.823	2.52
385.188	2.78
385.554	2.94
385.92	2.54
386.286	2.89
386.651	3.04
387.017	3.16
387.383	2.81
387.748	2.68
388.114	2.99
388.479	2.76
388.845	2.86
389.21	2.79
389.575	2.72
389.94	2.87
390.306	2.69
390.671	2.89
391.036	2.83
391.401	2.58
391.766	2.77
392.131	2.8
392.496	2.71
392.861	2.88
393.226	2.95
393.591	2.65
393.956	2.59
394.32	3.06
394.685	2.79
395.05	2.59
395.414	2.91
395.779	2.67
396.143	2.88
396.508	2.5
396.872	2.72
397.236	2.82
397.601	2.85
397.965	2.77
398.329	2.95
398.694	2.84
399.058	2.82
399.422	2.86
399.786	2.71
400.15	2.41
400.514	3.03
400.878	2.88
401.242	2.92
401.605	2.84
401.969	2.76
402.333	3.02
402.697	2.79
403.06	2.5
403.424	2.72
403.787	2.57
404.151	2.98
404.514	2.61
404.878	2.82
405.241	2.81
405.604	2.7
405.968	2.72
406.331	3
406.694	2.81
407.057	2.75
407.42	2.61
407.783	2.78
408.146	2.86
408.509	2.75
408.872	2.92
409.235	2.89
409.598	2.69
409.961	2.73
410.323	2.8
410.686	2.96
411.049	3.05
411.411	3.19
411.774	2.95
412.136	3.05
412.499	2.81
412.861	2.94
413.223	3.18
413.586	2.78
413.948	2.7
414.31	3.18
414.672	2.82
415.035	2.97
415.397	2.85
415.759	2.89
416.121	2.87
416.483	2.85
416.845	2.92
417.206	2.87
417.568	2.69
417.93	2.8
418.292	2.83
418.653	2.92
419.015	2.84
419.377	2.92
419.738	2.82
420.1	2.73
420.461	2.84
420.822	2.98
421.184	2.73
421.545	2.89
421.906	2.85
422.267	2.74
422.629	2.87
422.99	2.9
423.351	2.81
423.712	2.84
424.073	2.76
424.434	2.77
424.795	2.87
425.155	2.72
425.516	2.68
425.877	2.79
426.238	2.89
426.598	2.84
426.959	2.8
427.32	2.84
427.68	2.86
428.041	2.81
428.401	2.86
428.761	2.86
429.122	2.96
429.482	3.01
429.842	2.94
430.202	2.78
430.563	2.87
430.923	2.88
431.283	2.96
431.643	2.85
432.003	3.01
432.363	2.77
432.722	2.66
433.082	2.93
433.442	3
433.802	2.88
434.161	2.81
434.521	3.06
434.881	2.93
435.24	2.94
435.6	2.9
435.959	2.99
436.319	2.94
436.678	3.02
437.037	2.87
437.396	2.87
437.756	2.94
438.115	3.13
438.474	2.9
438.833	2.96
439.192	3.24
439.551	2.99
439.91	2.82
440.269	2.85
440.628	2.98
440.987	2.74
441.345	2.91
441.704	2.87
442.063	2.93
442.421	3.01
442.78	2.95
443.138	2.92
443.497	3.06
443.855	2.98
444.214	3.01
444.572	3.06
444.93	2.98
445.288	2.81
445.647	2.96
446.005	2.94
446.363	2.77
446.721	2.77
447.079	2.95
447.437	2.87
447.795	2.9
448.153	2.84
448.51	2.98
448.868	2.97
449.226	3.02
449.584	2.89
449.941	2.96
450.299	2.91
450.656	2.91
451.014	3.01
451.371	2.98
451.729	3.14
452.086	2.95
452.443	3.17
452.801	3.06
453.158	2.86
453.515	2.92
453.872	2.98
454.229	3.04
454.586	2.91
454.943	2.91
455.3	3.01
455.657	3.02
456.014	3.02
456.371	3.09
456.727	3
457.084	3
457.441	3.1
457.797	2.84
458.154	2.98
458.51	2.93
458.867	3.13
459.223	2.95
459.58	2.86
459.936	2.88
460.292	3.22
460.648	3.12
461.005	2.97
461.361	3.03
461.717	3.05
462.073	2.93
462.429	3.01
462.785	3.05
463.141	2.87
463.496	3.03
463.852	3.15
464.208	3.14
464.564	3.07
464.919	3.33
465.275	3.1
465.631	3.25
465.986	3.17
466.342	2.93
466.697	3.19
467.052	3.35
467.408	3
467.763	3.05
468.118	3.05
468.473	3.01
468.829	2.97
469.184	3.01
469.539	3.17
469.894	3.25
470.249	3.06
470.603	3.11
470.958	3.03
471.313	3.28
471.668	3.22
472.023	3.02
472.377	2.97
472.732	3.06
473.086	3.04
473.441	3.17
473.795	3.16
474.15	3.11
474.504	3
474.859	3.08
475.213	2.88
475.567	3.1
475.921	3.13
476.275	2.94
476.63	3
476.984	3.08
477.338	2.95
477.692	2.98
478.045	3.08
478.399	2.94
478.753	3.04
479.107	3.17
479.461	3.08
479.814	3.06
480.168	2.89
480.521	2.89
480.875	3.13
481.228	3.25
481.582	3.13
481.935	3.25
482.289	3.06
482.642	3.13
482.995	3.04
483.348	3.04
483.701	3.2
484.055	3.02
484.408	3.05
484.761	3.01
485.114	2.93
485.466	2.86
485.819	2.84
486.172	2.85
486.525	2.94
486.878	2.93
487.23	2.92
487.583	2.92
487.936	3.02
488.288	2.94
488.641	2.95
488.993	2.92
489.345	2.95
489.698	2.88
490.05	2.86
490.402	2.99
490.754	2.97
491.107	2.98
491.459	2.99
491.811	3.05
492.163	2.99
492.515	3.03
492.866	2.97
493.218	2.95
493.57	2.91
493.922	2.89
494.274	3
494.625	3.09
494.977	3.11
495.328	3.1
495.68	2.98
496.031	3.23
496.383	3.11
496.734	3.15
497.086	3.08
497.437	3.14
497.788	3.07
498.139	3.04
498.49	3.07
498.842	3.08
499.193	3.08
499.544	3.07
499.894	3.04
500.245	3.05
500.596	3.12
500.947	3.13
501.298	3.13
501.648	3.19
501.999	3.1
502.35	3.16
502.7	3.16
503.051	3.07
503.401	3.12
503.752	3.31
504.102	3.07
504.452	3.1
504.803	3.11
505.153	3.13
505.503	3.2
505.853	3.18
506.203	3.21
506.553	3.03
506.903	3.16
507.253	3.11
507.603	3.23
507.953	3.08
508.303	3.08
508.652	3.08
509.002	3.16
509.352	3.08
509.701	3.14
510.051	3.09
510.4	3.06
510.75	3.05
511.099	2.98
511.449	3.11
511.798	3.07
512.147	3.08
512.496	3.25
512.846	3.13
513.195	2.95
513.544	3.17
513.893	3.12
514.242	3.02
514.591	3.1
514.939	3.14
515.288	3.07
515.637	3.11
515.986	3.15
516.334	3.11
516.683	3.14
517.032	3.16
517.38	3.09
517.729	3.05
518.077	3.07
518.426	3.18
518.774	3.15
519.122	3.13
519.47	3.05
519.819	3
520.167	3.01
520.515	2.96
520.863	3.05
521.211	3.04
521.559	3.11
521.907	3.1
522.255	3.19
522.602	3.2
522.95	3.07
523.298	3.06
523.645	3.19
523.993	3.33
524.341	3.07
524.688	2.98
525.036	3.17
525.383	3.14
525.73	3.01
526.078	3.01
526.425	2.98
526.772	2.95
527.119	3.04
527.466	3.08
527.814	3.01
528.161	3.05
528.508	3.07
528.854	3.04
529.201	3.01
529.548	3.11
529.895	2.95
530.242	2.91
530.588	2.9
530.935	2.99
531.282	3.04
531.628	3.02
531.975	3.05
532.321	3.02
532.667	3.03
533.014	3.02
533.36	3.01
533.706	3.03
534.052	3.01
534.399	3.07
534.745	3.03
535.091	2.93
535.437	3.03
535.783	2.94
536.129	3.11
536.474	3.08
536.82	2.97
537.166	3.04
537.512	3.05
537.857	3.17
538.203	3.05
538.549	3.04
538.894	3.07
539.239	3.02
539.585	3.15
539.93	3.16
540.276	3.09
540.621	3.14
540.966	3.05
541.311	3.02
541.656	3.12
542.001	2.99
542.346	3.06
542.691	3
543.036	2.93
543.381	2.91
543.726	2.99
544.071	2.95
544.415	3
544.76	3
545.105	3.01
545.449	3.08
545.794	3.18
546.138	2.9
546.483	3.08
546.827	3.1
547.171	3.22
547.516	3.11
547.86	3.13
548.204	3.12
548.548	3.15
548.892	3.09
549.236	3.01
549.58	3.12
549.924	3.07
550.268	3.23
550.612	3.01
550.956	3.18
551.3	3.24
551.643	3.14
551.987	3.38
552.33	3.15
552.674	3.19
553.017	3.29
553.361	3.34
553.704	3.11
554.048	3.3
554.391	3.13
554.734	3.21
555.077	3.15
555.42	3.04
555.764	3.23
556.107	3.07
556.45	3.05
556.793	3.1
557.135	3.02
557.478	2.93
557.821	3.04
558.164	3.18
558.507	3.21
558.849	3.1
559.192	3.21
559.534	3.21
559.877	3.12
560.219	3.29
560.562	3.17
560.904	3.21
561.246	3.19
561.589	3.07
561.931	3.21
562.273	3.13
562.615	3.24
562.957	3.11
563.299	3.33
563.641	3.16
563.983	3.12
564.325	3.15
564.667	3.1
565.008	3.03
565.35	3.11
565.692	3.21
566.033	3.34
566.375	2.92
566.716	2.97
567.058	3.34
567.399	3.14
567.741	3.16
568.082	3.09
568.423	3.23
568.764	3.07
569.105	3.13
569.447	3.22
569.788	3.16
570.129	3.05
570.47	3.22
570.811	3.18
571.151	3.27
571.492	3.07
571.833	3.11
572.174	3.19
572.514	3.08
572.855	3.13
573.195	3.08
573.536	3.03
573.876	3.1
574.217	3.1
574.557	2.98
574.898	3.15
575.238	3.25
575.578	3.08
575.918	3.25
576.258	3.15
576.598	3.01
576.938	3.17
577.278	3.15
577.618	3.26
577.958	3.05
578.298	3.37
578.638	3.15
578.977	3.17
579.317	3.27
579.657	3.12
579.996	3.22
580.336	3.21
580.675	3.1
581.014	3.02
581.354	3.12
581.693	3.05
582.032	2.94
582.372	3.26
582.711	3.11
583.05	3.28
583.389	3.15
583.728	3.19
584.067	3.21
584.406	3.35
584.745	3.43
585.083	2.99
585.422	3.21
585.761	3.15
586.1	3.22
586.438	3.34
586.777	3.12
587.115	3.17
587.454	3.25
587.792	2.91
588.13	3.49
588.469	3.12
588.807	2.82
589.145	2.93
589.483	3.03
589.821	3.08
590.159	3.12
590.497	3.08
590.835	3.02
591.173	3.22
591.511	3.33
591.849	3.11
592.187	3.23
592.524	3.06
592.862	3.1
593.2	3
593.537	3.09
593.875	3.4
594.212	3.16
594.55	3.3
594.887	3.51
595.224	3.36
595.561	3.27
595.899	2.92
596.236	3.09
596.573	3.24
596.91	3.33
597.247	3
597.584	3.26
597.921	3.2
598.258	3.26
598.594	3.33
598.931	3.25
599.268	3.02
599.604	3.18
599.941	3.1
600.277	2.95
600.614	3.23
600.95	3.25
601.287	3.19
601.623	3.14
601.959	3.23
602.296	3.3
602.632	3.1
602.968	3.43
603.304	2.99
603.64	3.09
603.976	3.02
604.312	3.19
604.648	3.16
604.984	3.15
605.319	3.1
605.655	3.17
605.991	3.18
606.326	3.02
606.662	3.22
606.998	3.17
607.333	3.1
607.668	3.02
608.004	3.24
608.339	3.23
608.674	3.24
609.01	2.89
609.345	3.45
609.68	3.43
610.015	3.04
610.35	3.24
610.685	3.11
611.02	3.19
611.355	2.95
611.689	3.07
612.024	3
612.359	3.08
612.694	3.1
613.028	3.08
613.363	3.14
613.697	3.14
614.032	3.03
614.366	3.26
614.7	3.41
615.035	3.14
615.369	3.27
615.703	3.05
616.037	3.17
616.371	3.14
616.705	2.99
617.039	3.3
617.373	3.29
617.707	2.91
618.041	3.43
618.375	3.04
618.709	3.15
619.042	3.26
619.376	2.72
619.71	3.28
620.043	2.94
620.377	3.18
620.71	3.12
621.043	2.84
621.377	2.7
621.71	3.21
622.043	3.07
622.376	3.51
622.709	3.19
623.043	3.12
623.376	3.35
623.709	3.08
624.041	3.28
624.374	3.12
624.707	3.3
625.04	3.11
625.373	3.48
625.705	3.38
626.038	3.13
626.37	3.32
626.703	3.43
627.035	2.94
627.368	3.43
627.7	3.2
628.032	3.09
628.365	3.24
628.697	3.3
629.029	3.12
629.361	3.17
629.693	3.04
630.025	2.98
630.357	2.95
630.689	3.04
631.021	3.18
631.353	3.39
631.684	3.09
632.016	3.2
632.348	3.44
632.679	3
633.011	3.47
633.342	2.97
633.674	3.3
634.005	3.44
634.336	3.11
634.668	3.51
634.999	3.24
635.33	3.34
635.661	3.06
635.992	3.02
636.323	2.84
636.654	3.14
636.985	3
637.316	3.21
637.647	3.04
637.977	3.16
638.308	3.45
638.639	3.13
638.969	2.97
639.3	2.97
639.63	3.42
639.961	2.9
640.291	2.71
640.622	3.02
640.952	3.45
641.282	2.73
641.612	3.18
641.943	3.11
642.273	3.44
642.603	3.32
642.933	3.24
643.263	2.78
643.592	3.22
643.922	3.46
644.252	3.35
644.582	2.76
644.911	3.02
645.241	2.93
645.571	3.53
645.9	3.11
646.23	3.13
646.559	2.86
646.888	3.21
647.218	3.38
647.547	3.25
647.876	3.28
648.205	3.17
648.534	3.42
648.863	3.52
649.192	3.7
649.521	3.4
649.85	2.85
650.179	3.33
650.508	3.83
650.837	3.42
651.165	2.78
651.494	3.13
651.822	3.16
652.151	3.27
652.479	3.22
652.808	3.28
653.136	3.32
653.465	3.23
653.793	3.2
654.121	3.54
654.449	3.65
654.777	3.68
655.105	3.47
655.433	3.38
655.761	3.25
656.089	3.07
656.417	3.48
656.745	3
657.073	2.79
657.4	3.27
657.728	2.96
658.056	3.86
658.383	2.95
658.711	3.08
659.038	3.37
659.365	3.08
659.693	2.88
660.02	3.62
660.347	3.32
660.674	3.43
661.001	3.45
661.329	3.39
661.656	3.39
661.982	3.27
662.309	3.68
662.636	3.47
662.963	3.46
663.29	3.83
663.616	3.26
663.943	3.72
664.27	4.19
664.596	3.64
664.923	3.65
665.249	3.11
665.576	2.94
665.902	3.1
666.228	3.1
666.554	2.97
666.881	2.84
667.207	3.42
667.533	3.91
667.859	3.3
668.185	3.13
668.511	3.74
668.837	3.05
669.162	3.68
669.488	2.87
669.814	3.94
670.139	3.23
670.465	2.86
670.791	3.13
671.116	3.03
671.442	3.28
671.767	3.1
672.092	3.92
672.418	3.39
672.743	3.16
673.068	2.79
673.393	3.33
673.718	3.59
674.043	3.5
674.368	2.5
674.693	3.03
675.018	2.58
675.343	3.39
675.667	3.82
675.992	2.98
676.317	3.05
676.641	3.46
676.966	3.17
677.29	2.8
677.615	2.56
677.939	3.17
678.264	3.34
678.588	3.81
678.912	3.4
679.236	2.97
679.56	3.47
679.885	3.33
680.209	3.59
680.532	3.28
680.856	3.29
681.18	3.53
681.504	3.04
681.828	3.55
682.152	3.02
682.475	3.56
682.799	3.47
683.122	3.57
683.446	3.47
683.769	4.09
684.093	3.04
684.416	3.35
684.739	3.36
685.062	3.41
685.386	3.32
685.709	3.9
686.032	3.31
686.355	3.38
686.678	4.11
687.001	2.97
687.324	2.99
687.646	3.58
687.969	2.84
688.292	3.45
688.614	3.54
688.937	2.83
689.26	3.61
689.582	2.81
689.904	2.93
690.227	3.06
690.549	3.33
690.871	3.27
691.194	2.7
691.516	3.06
691.838	2.85
692.16	3.47
692.482	3.2
692.804	2.96
