Data from 0403_forehead_Reflection__2__179.txt Node

Date: Tue Dec 12 19:50:47 CST 2023
User: ToomeyLab
Spectrometer: FLMS14357
Trigger mode: 0
Integration Time (sec): 1.000000E-2
Scans to average: 100
Electric dark correction enabled: true
Nonlinearity correction enabled: false
Boxcar width: 0
XAxis mode: Wavelengths
Number of Pixels in Spectrum: 2048
>>>>>Begin Spectral Data<<<<<
189.047	45.42
189.435	45.42
189.823	45.42
190.211	63.12
190.599	14.98
190.987	535.98
191.375	0
191.763	-1027.16
192.151	140.7
192.538	-107.71
192.926	294.28
193.314	65.16
193.702	162.38
194.089	83.15
194.477	39.36
194.864	-7.15
195.252	-645.16
195.639	-10.37
196.027	293.71
196.414	-17.69
196.801	68.79
197.189	11.43
197.576	92.64
197.963	23.36
198.351	39.99
198.738	50.96
199.125	32.24
199.512	19.42
199.899	30.55
200.286	7.78
200.673	-2.84
201.06	-0
201.447	-57.7
201.833	9.74
202.22	36.32
202.607	-90.04
202.994	-14.08
203.38	23.2
203.767	-37.74
204.154	42
204.54	13.28
204.927	-35.91
205.313	43.6
205.699	30.34
206.086	2.46
206.472	19.53
206.858	21.29
207.245	23.85
207.631	31.55
208.017	48.12
208.403	0.52
208.789	14.09
209.175	-16.46
209.561	-5.7
209.947	9.9
210.333	13.06
210.719	4.23
211.105	10.08
211.491	8.69
211.876	1.91
212.262	15.97
212.648	-24.79
213.034	-78.79
213.419	-23.73
213.805	39.77
214.19	20.92
214.576	39.44
214.961	27.88
215.346	-2.22
215.732	17.4
216.117	33.49
216.502	-14.27
216.888	-19.68
217.273	0.85
217.658	50.34
218.043	16.13
218.428	-7.31
218.813	9.58
219.198	-1.58
219.583	-0.09
219.968	21.2
220.353	12.56
220.738	2.89
221.122	2.83
221.507	13.63
221.892	-3.72
222.276	6.25
222.661	-8.35
223.046	-0.4
223.43	7.87
223.815	16.18
224.199	9.58
224.583	-0.22
224.968	13.89
225.352	-11.55
225.736	8.19
226.121	6.82
226.505	6.86
226.889	3.03
227.273	3.02
227.657	12.11
228.041	8.03
228.425	1.19
228.809	7.27
229.193	5.95
229.577	8.91
229.961	5.69
230.344	6.48
230.728	7.51
231.112	6.65
231.495	7.17
231.879	7.07
232.263	7.32
232.646	7.11
233.03	6.46
233.413	3.86
233.797	5.62
234.18	2.21
234.563	4.66
234.946	6.04
235.33	6.24
235.713	7.41
236.096	6.1
236.479	7.62
236.862	6.59
237.245	6.08
237.628	5.14
238.011	6.29
238.394	5.69
238.777	6.92
239.16	6.68
239.543	7.71
239.925	7.57
240.308	4.61
240.691	6.48
241.073	8.32
241.456	7.2
241.838	4.93
242.221	7.76
242.603	6.7
242.986	5
243.368	6.75
243.75	6.31
244.133	6.05
244.515	6.47
244.897	6.54
245.279	6.46
245.661	6.14
246.043	6.06
246.425	7.27
246.807	6.33
247.189	6.58
247.571	5.9
247.953	5.7
248.335	6.06
248.717	5.96
249.098	5.91
249.48	5.82
249.862	5.88
250.243	5.71
250.625	6.27
251.006	6.1
251.388	6.18
251.769	5.49
252.151	6.16
252.532	5.94
252.913	6.47
253.295	7.09
253.676	5.81
254.057	5.79
254.438	6.03
254.819	5.9
255.2	5.04
255.581	5.54
255.962	4.32
256.343	4.76
256.724	6.52
257.105	6.34
257.486	5.64
257.867	5.44
258.247	5.82
258.628	6.45
259.009	5.77
259.389	5.74
259.77	5.25
260.15	5.88
260.531	6.52
260.911	6.14
261.292	5.74
261.672	5.26
262.052	5.4
262.432	5.56
262.813	5.67
263.193	5.13
263.573	5.24
263.953	6.5
264.333	6.64
264.713	5.52
265.093	5.64
265.473	6.47
265.853	4.38
266.233	5.13
266.612	5.57
266.992	5.31
267.372	5.36
267.752	5.76
268.131	4.06
268.511	5.19
268.89	4.58
269.27	5.25
269.649	5.4
270.029	5.69
270.408	5.51
270.787	5.23
271.167	5.51
271.546	5.16
271.925	5.85
272.304	5.38
272.683	4.64
273.062	5.76
273.441	5.19
273.82	4.96
274.199	5.22
274.578	4.97
274.957	4.91
275.336	5.58
275.715	5.17
276.093	5.09
276.472	5.63
276.851	5.34
277.229	4.97
277.608	5.42
277.986	4.32
278.365	4.94
278.743	5.09
279.122	5.25
279.5	5.44
279.878	4.41
280.257	5.7
280.635	4.9
281.013	5.58
281.391	5.04
281.769	4.82
282.147	5.6
282.525	4.61
282.903	4.98
283.281	4.93
283.659	4.77
284.037	4.97
284.415	4.96
284.792	5.49
285.17	4.55
285.548	5.23
285.925	4.56
286.303	4.96
286.68	4.92
287.058	5.4
287.435	5.25
287.813	4.67
288.19	4.8
288.567	5.37
288.945	5.24
289.322	4.88
289.699	4.63
290.076	5.47
290.453	5.02
290.83	5.13
291.207	5.32
291.584	4.9
291.961	5.19
292.338	5.37
292.715	4.79
293.092	5.16
293.469	4.92
293.845	5.42
294.222	5.12
294.599	4.9
294.975	4.47
295.352	4.56
295.728	5.54
296.105	5.18
296.481	5.2
296.858	5.53
297.234	5.47
297.61	5.18
297.986	5.33
298.363	5.86
298.739	5.04
299.115	4.68
299.491	5.2
299.867	4.91
300.243	5.15
300.619	5.02
300.995	5.04
301.371	5.41
301.746	5.33
302.122	5.78
302.498	5.48
302.874	5.42
303.249	6.2
303.625	5.14
304	5.31
304.376	5.58
304.751	6.11
305.127	4.84
305.502	6.16
305.878	5.49
306.253	5.04
306.628	5.22
307.003	5.17
307.378	4.75
307.754	5.47
308.129	5.24
308.504	6.59
308.879	5.65
309.254	6.04
309.629	5.23
310.003	5.69
310.378	5.81
310.753	5.99
311.128	6.29
311.502	5.13
311.877	5.29
312.252	5.27
312.626	5.98
313.001	5.72
313.375	5.14
313.75	6.12
314.124	6.08
314.498	5.58
314.873	6.19
315.247	6.13
315.621	5.84
315.995	6.41
316.369	5.92
316.743	5.77
317.117	5.49
317.491	5.88
317.865	6.4
318.239	5.85
318.613	6.33
318.987	6.77
319.361	5.65
319.734	5.89
320.108	6.19
320.482	6.47
320.855	6.35
321.229	6.3
321.602	6.82
321.976	6.74
322.349	6.23
322.723	6.66
323.096	6.18
323.469	6.59
323.843	7.29
324.216	6.48
324.589	6.52
324.962	6.83
325.335	6.82
325.708	6.65
326.081	6.53
326.454	6.75
326.827	6.58
327.2	6.53
327.573	6.19
327.945	6.42
328.318	6.91
328.691	6.1
329.063	7.02
329.436	6.5
329.809	7.01
330.181	6.37
330.553	6.72
330.926	6.9
331.298	6.2
331.671	6.77
332.043	6.79
332.415	7.42
332.787	6.55
333.159	6.7
333.532	6.84
333.904	6.61
334.276	7.5
334.648	6.95
335.02	6.74
335.391	7.14
335.763	6.8
336.135	6.92
336.507	7.59
336.879	6.84
337.25	6.82
337.622	6.67
337.993	6.75
338.365	7.03
338.736	6.87
339.108	6.95
339.479	7.15
339.851	6.95
340.222	6.51
340.593	7.1
340.964	6.9
341.336	7.31
341.707	6.9
342.078	6.48
342.449	6.87
342.82	8.04
343.191	7.5
343.562	7.78
343.933	7.5
344.303	7.4
344.674	7.38
345.045	7.89
345.416	7.58
345.786	7.01
346.157	7.42
346.527	7.74
346.898	7.58
347.268	7.12
347.639	7.77
348.009	7.02
348.38	7.3
348.75	7.8
349.12	8.15
349.49	7.4
349.861	8.2
350.231	7.85
350.601	8.32
350.971	7.36
351.341	7.62
351.711	8.11
352.081	7.95
352.45	7.91
352.82	7.83
353.19	7.51
353.56	7.7
353.929	7.68
354.299	7.4
354.669	7.7
355.038	7.66
355.408	7.81
355.777	8.34
356.147	7.86
356.516	7.87
356.885	8.16
357.254	7.64
357.624	7.53
357.993	7.97
358.362	8.21
358.731	7.99
359.1	7.93
359.469	7.98
359.838	8.01
360.207	7.96
360.576	8.25
360.945	8.21
361.314	8.29
361.682	8.45
362.051	8.4
362.42	8.27
362.788	8.11
363.157	8.79
363.525	8.26
363.894	8.17
364.262	8.21
364.631	8.14
364.999	8.71
365.367	8.41
365.735	8.11
366.104	8.54
366.472	8.31
366.84	8.41
367.208	8.79
367.576	8.44
367.944	8.82
368.312	8.82
368.68	8.74
369.048	8.84
369.416	8.79
369.783	9.05
370.151	8.95
370.519	9.09
370.886	8.8
371.254	8.58
371.621	9.33
371.989	8.78
372.356	8.71
372.724	8.47
373.091	9.03
373.458	9.15
373.826	9.33
374.193	8.73
374.56	9.46
374.927	9.44
375.294	9.22
375.661	9.57
376.028	9.32
376.395	9.65
376.762	9.85
377.129	9.08
377.496	9.43
377.863	9.5
378.229	9.48
378.596	9.55
378.963	9.61
379.329	9.44
379.696	9.47
380.062	9.92
380.429	9.48
380.795	9.76
381.161	9.71
381.528	9.72
381.894	10.03
382.26	9.55
382.626	9.71
382.993	9.96
383.359	9.98
383.725	9.76
384.091	10.04
384.457	9.74
384.823	10.15
385.188	9.93
385.554	9.93
385.92	9.86
386.286	10.23
386.651	10
387.017	10.22
387.383	9.95
387.748	10.32
388.114	10.31
388.479	10.31
388.845	10.33
389.21	10.36
389.575	10.04
389.94	10.44
390.306	10.6
390.671	10.54
391.036	10.43
391.401	10.33
391.766	10.54
392.131	10.65
392.496	10.6
392.861	10.59
393.226	10.46
393.591	10.34
393.956	10.61
394.32	10.66
394.685	10.55
395.05	10.77
395.414	10.5
395.779	10.3
396.143	10.71
396.508	10.65
396.872	10.84
397.236	10.5
397.601	10.69
397.965	10.63
398.329	11.19
398.694	10.87
399.058	11.2
399.422	10.93
399.786	10.77
400.15	11.04
400.514	11.22
400.878	10.94
401.242	11.01
401.605	11.16
401.969	11.26
402.333	11.2
402.697	11.07
403.06	11.12
403.424	11.28
403.787	10.89
404.151	11.12
404.514	11.04
404.878	10.78
405.241	11.39
405.604	10.97
405.968	10.88
406.331	11.28
406.694	11.35
407.057	10.95
407.42	11.18
407.783	11.15
408.146	11.11
408.509	11.14
408.872	11.35
409.235	11.14
409.598	11.33
409.961	11.34
410.323	11.33
410.686	11.55
411.049	11.51
411.411	11.31
411.774	11.47
412.136	11.59
412.499	11.41
412.861	11.32
413.223	11.5
413.586	11.42
413.948	11.54
414.31	11.75
414.672	11.69
415.035	11.26
415.397	11.63
415.759	11.41
416.121	11.53
416.483	11.49
416.845	11.86
417.206	12.01
417.568	11.51
417.93	11.93
418.292	11.8
418.653	11.95
419.015	11.96
419.377	11.69
419.738	11.82
420.1	11.81
420.461	11.79
420.822	11.67
421.184	11.88
421.545	11.98
421.906	11.98
422.267	11.99
422.629	11.8
422.99	12.01
423.351	11.98
423.712	12.13
424.073	12.09
424.434	12.16
424.795	12.23
425.155	12.21
425.516	12.3
425.877	12.24
426.238	12.39
426.598	12.5
426.959	12.48
427.32	12.62
427.68	12.61
428.041	12.69
428.401	12.95
428.761	13.07
429.122	13.11
429.482	13.29
429.842	13.33
430.202	13.31
430.563	13.55
430.923	13.41
431.283	13.54
431.643	13.65
432.003	13.7
432.363	13.7
432.722	13.5
433.082	13.74
433.442	13.83
433.802	13.9
434.161	13.96
434.521	13.95
434.881	13.99
435.24	13.99
435.6	14.04
435.959	14.28
436.319	14.08
436.678	14.17
437.037	14.38
437.396	14.22
437.756	14.52
438.115	14.6
438.474	14.51
438.833	14.74
439.192	14.87
439.551	14.66
439.91	14.7
440.269	14.69
440.628	14.68
440.987	14.74
441.345	14.9
441.704	14.86
442.063	15.05
442.421	14.95
442.78	15.11
443.138	15.04
443.497	15.39
443.855	15.21
444.214	15.24
444.572	15.49
444.93	15.51
445.288	15.32
445.647	15.6
446.005	15.59
446.363	15.47
446.721	15.6
447.079	15.7
447.437	15.46
447.795	15.69
448.153	15.73
448.51	15.8
448.868	15.75
449.226	15.95
449.584	15.9
449.941	16.1
450.299	16.13
450.656	16.26
451.014	16.35
451.371	16.4
451.729	16.59
452.086	16.67
452.443	16.54
452.801	16.79
453.158	16.8
453.515	17.02
453.872	17.03
454.229	16.99
454.586	16.63
454.943	16.89
455.3	16.88
455.657	17.05
456.014	17.23
456.371	17.43
456.727	17.28
457.084	17.34
457.441	17.38
457.797	17.37
458.154	17.55
458.51	17.62
458.867	17.53
459.223	17.84
459.58	17.62
459.936	17.51
460.292	17.79
460.648	17.84
461.005	17.72
461.361	17.6
461.717	17.66
462.073	17.76
462.429	17.82
462.785	18
463.141	18.01
463.496	18.2
463.852	18.39
464.208	18.41
464.564	18.64
464.919	18.57
465.275	18.66
465.631	18.69
465.986	18.43
466.342	18.66
466.697	18.75
467.052	18.89
467.408	18.98
467.763	19
468.118	19.14
468.473	19.07
468.829	19.17
469.184	18.99
469.539	19.56
469.894	19.44
470.249	19.46
470.603	19.3
470.958	19.43
471.313	19.74
471.668	19.95
472.023	19.66
472.377	19.71
472.732	19.87
473.086	19.85
473.441	19.95
473.795	20.04
474.15	20.15
474.504	19.89
474.859	20.05
475.213	19.95
475.567	20.18
475.921	20.23
476.275	20.47
476.63	20.31
476.984	20.61
477.338	20.43
477.692	20.53
478.045	20.43
478.399	20.46
478.753	20.72
479.107	20.6
479.461	20.77
479.814	20.83
480.168	20.45
480.521	20.77
480.875	20.97
481.228	20.95
481.582	20.79
481.935	20.96
482.289	21.21
482.642	21.12
482.995	21.21
483.348	21.06
483.701	21.32
484.055	21.03
484.408	20.9
484.761	20.9
485.114	20.48
485.466	20.22
485.819	20.25
486.172	20.3
486.525	20.44
486.878	20.5
487.23	20.85
487.583	20.9
487.936	21.25
488.288	21.23
488.641	21.16
488.993	21.01
489.345	20.94
489.698	20.91
490.05	21.09
490.402	21.22
490.754	21.31
491.107	21.63
491.459	21.82
491.811	21.95
492.163	22.04
492.515	22.06
492.866	21.83
493.218	21.72
493.57	21.65
493.922	21.7
494.274	21.82
494.625	22.01
494.977	22.4
495.328	22.69
495.68	22.71
496.031	23.01
496.383	23.07
496.734	23.01
497.086	23.15
497.437	23.12
497.788	23.24
498.139	23.24
498.49	23.39
498.842	23.16
499.193	23.3
499.544	23.38
499.894	23.29
500.245	23.47
500.596	23.57
500.947	23.61
501.298	23.69
501.648	23.91
501.999	23.98
502.35	24.01
502.7	23.96
503.051	24.2
503.401	24.12
503.752	24.44
504.102	24.07
504.452	24.33
504.803	24.5
505.153	24.36
505.503	24.51
505.853	24.49
506.203	24.54
506.553	24.71
506.903	24.55
507.253	24.65
507.603	24.97
507.953	24.7
508.303	25.06
508.652	24.87
509.002	25.03
509.352	24.94
509.701	25.09
510.051	24.95
510.4	24.98
510.75	25.04
511.099	24.85
511.449	24.9
511.798	25.1
512.147	25.08
512.496	25.21
512.846	25.17
513.195	25.33
513.544	25.24
513.893	25.28
514.242	25.34
514.591	25.37
514.939	25.49
515.288	25.5
515.637	25.7
515.986	25.76
516.334	25.86
516.683	25.68
517.032	25.87
517.38	25.86
517.729	26.05
518.077	25.94
518.426	26.04
518.774	26.12
519.122	25.99
519.47	25.92
519.819	25.84
520.167	25.79
520.515	25.68
520.863	25.77
521.211	25.68
521.559	25.95
521.907	25.94
522.255	26.1
522.602	26.33
522.95	26.42
523.298	26.46
523.645	26.6
523.993	26.73
524.341	26.85
524.688	26.75
525.036	26.73
525.383	26.67
525.73	26.66
526.078	26.78
526.425	26.8
526.772	26.64
527.119	26.63
527.466	26.44
527.814	26.29
528.161	26.6
528.508	26.53
528.854	26.47
529.201	26.5
529.548	26.64
529.895	26.16
530.242	25.95
530.588	25.93
530.935	26.05
531.282	26.15
531.628	26.29
531.975	26.48
532.321	26.64
532.667	26.86
533.014	27.07
533.36	27.14
533.706	27.21
534.052	27.19
534.399	27.06
534.745	27.04
535.091	26.75
535.437	26.79
535.783	26.86
536.129	27.08
536.474	27.31
536.82	27.41
537.166	27.81
537.512	27.85
537.857	27.73
538.203	27.76
538.549	27.65
538.894	27.68
539.239	27.76
539.585	27.92
539.93	28.34
540.276	28.37
540.621	28.41
540.966	28.36
541.311	28.44
541.656	28.6
542.001	28.55
542.346	28.33
542.691	27.99
543.036	27.72
543.381	27.71
543.726	27.76
544.071	28.06
544.415	28.1
544.76	28.14
545.105	28.24
545.449	28.42
545.794	28.69
546.138	28.72
546.483	29.03
546.827	28.87
547.171	29.17
547.516	29.08
547.86	29.27
548.204	29.3
548.548	29.21
548.892	29.13
549.236	29.28
549.58	29.49
549.924	29.54
550.268	29.88
550.612	29.84
550.956	29.9
551.3	30.11
551.643	30.2
551.987	30.45
552.33	30.47
552.674	30.37
553.017	30.57
553.361	30.52
553.704	30.27
554.048	30.66
554.391	30.49
554.734	30.31
555.077	30.57
555.42	30.38
555.764	30.76
556.107	30.81
556.45	30.75
556.793	30.85
557.135	30.86
557.478	31.18
557.821	31.25
558.164	31.2
558.507	31.18
558.849	31.19
559.192	31.26
559.534	31.47
559.877	31.53
560.219	31.37
560.562	31.78
560.904	31.62
561.246	31.66
561.589	31.55
561.931	31.57
562.273	31.83
562.615	31.62
562.957	31.95
563.299	31.9
563.641	31.93
563.983	31.97
564.325	31.99
564.667	31.9
565.008	32.06
565.35	32.01
565.692	32.26
566.033	32.1
566.375	32.27
566.716	32.12
567.058	32.37
567.399	32.23
567.741	32.2
568.082	32.13
568.423	32.02
568.764	32.12
569.105	32.16
569.447	32.42
569.788	32.31
570.129	32.38
570.47	32.6
570.811	32.55
571.151	32.9
571.492	32.78
571.833	32.91
572.174	32.82
572.514	32.91
572.855	32.97
573.195	32.86
573.536	32.9
573.876	32.88
574.217	32.93
574.557	32.85
574.898	32.88
575.238	33.27
575.578	33.23
575.918	33.15
576.258	33.36
576.598	33.18
576.938	33.25
577.278	33.27
577.618	33.45
577.958	33.36
578.298	33.51
578.638	33.66
578.977	33.65
579.317	33.66
579.657	33.77
579.996	33.98
580.336	34.05
580.675	34.14
581.014	34.04
581.354	34.24
581.693	34.45
582.032	34.33
582.372	34.18
582.711	34.63
583.05	34.77
583.389	34.6
583.728	34.52
584.067	34.83
584.406	34.94
584.745	35.03
585.083	34.82
585.422	35.21
585.761	35.02
586.1	34.99
586.438	35.29
586.777	35.22
587.115	35.31
587.454	35.48
587.792	35.09
588.13	35.42
588.469	35.47
588.807	35.35
589.145	35.38
589.483	35.24
589.821	35.46
590.159	35.23
590.497	35.67
590.835	35.54
591.173	35.78
591.511	35.74
591.849	35.9
592.187	35.95
592.524	35.71
592.862	35.79
593.2	35.77
593.537	35.94
593.875	36.19
594.212	36.32
594.55	36.5
594.887	36.46
595.224	36.26
595.561	36.31
595.899	36.23
596.236	36.2
596.573	36.45
596.91	36.28
597.247	36.74
597.584	36.49
597.921	36.4
598.258	36.07
598.594	36.27
598.931	36.33
599.268	36.08
599.604	36.24
599.941	36.73
600.277	36.36
600.614	36.79
600.95	36.75
601.287	36.97
601.623	37.32
601.959	36.97
602.296	37.3
602.632	36.81
602.968	37.49
603.304	37.18
603.64	37.2
603.976	37.31
604.312	37.39
604.648	37.45
604.984	37.31
605.319	37.42
605.655	37.21
605.991	37.34
606.326	37.39
606.662	37
606.998	37.05
607.333	37.34
607.668	37.57
608.004	37.25
608.339	37.5
608.674	37.71
609.01	37.68
609.345	37.81
609.68	38
610.015	37.91
610.35	37.95
610.685	38.02
611.02	38.03
611.355	38.2
611.689	37.68
612.024	37.81
612.359	38.18
612.694	38.16
613.028	38.25
613.363	38.42
613.697	38.57
614.032	38.56
614.366	38.69
614.7	38.42
615.035	38.96
615.369	39.07
615.703	38.62
616.037	38.67
616.371	38.82
616.705	38.89
617.039	39.11
617.373	38.99
617.707	38.96
618.041	38.91
618.375	39.22
618.709	39.47
619.042	39.09
619.376	39.15
619.71	39.22
620.043	39.13
620.377	39.16
620.71	39.49
621.043	39.43
621.377	39.16
621.71	39.55
622.043	39.46
622.376	39.52
622.709	40.09
623.043	39.67
623.376	39.47
623.709	39.64
624.041	40.11
624.374	39.8
624.707	40.2
625.04	40.13
625.373	39.96
625.705	39.76
626.038	40.22
626.37	40.62
626.703	40.42
627.035	39.99
627.368	40.27
627.7	39.89
628.032	40.23
628.365	40.39
628.697	40.25
629.029	40.04
629.361	40.14
629.693	40.51
630.025	40
630.357	40.65
630.689	40.37
631.021	40.86
631.353	40.78
631.684	40.6
632.016	40.82
632.348	40.85
632.679	40.46
633.011	40.92
633.342	41.26
633.674	41.43
634.005	41.16
634.336	40.84
634.668	40.62
634.999	41.43
635.33	40.94
635.661	41.19
635.992	41.24
636.323	41.07
636.654	41.31
636.985	41.23
637.316	41.3
637.647	41.93
637.977	41.77
638.308	41.52
638.639	42.42
638.969	41.89
639.3	41.79
639.63	41.9
639.961	41.66
640.291	41.81
640.622	41.77
640.952	41.98
641.282	41.83
641.612	42.24
641.943	42.85
642.273	41.92
642.603	42.36
642.933	42.04
643.263	41.96
643.592	42.56
643.922	42.82
644.252	42.55
644.582	42.73
644.911	41.91
645.241	42.36
645.571	42.62
645.9	42.29
646.23	42.87
646.559	42.5
646.888	42.34
647.218	42.76
647.547	42.56
647.876	42.4
648.205	43.15
648.534	43.04
648.863	43.05
649.192	42.98
649.521	43.23
649.85	43.39
650.179	43.52
650.508	43.29
650.837	43.13
651.165	43.16
651.494	43.31
651.822	43.23
652.151	43.53
652.479	43.03
652.808	43.67
653.136	43.26
653.465	42.95
653.793	43.89
654.121	43.57
654.449	43.32
654.777	44
655.105	43.96
655.433	43.49
655.761	43.58
656.089	43.72
656.417	44.5
656.745	43.63
657.073	43.99
657.4	43.98
657.728	43.88
658.056	44.07
658.383	44.05
658.711	44.08
659.038	44.41
659.365	44.08
659.693	43.9
660.02	44.5
660.347	44.56
660.674	44.26
661.001	43.81
661.329	44.66
661.656	43.6
661.982	44.34
662.309	44.37
662.636	44.17
662.963	44.55
663.29	44.26
663.616	44.34
663.943	44.55
664.27	44.85
664.596	44.43
664.923	45.4
665.249	44.7
665.576	44.27
665.902	44.87
666.228	45.1
666.554	44.44
666.881	45.17
667.207	44.47
667.533	45
667.859	45.37
668.185	45.38
668.511	45.76
668.837	45.38
669.162	46.05
669.488	45.09
669.814	45.76
670.139	45.8
670.465	45.01
670.791	45.38
671.116	44.96
671.442	45.65
671.767	45.5
672.092	45.47
672.418	45.81
672.743	45.13
673.068	45.35
673.393	45.8
673.718	45.97
