Data from 0403_crown_Reflection__3__175.txt Node

Date: Tue Dec 12 19:49:42 CST 2023
User: ToomeyLab
Spectrometer: FLMS14357
Trigger mode: 0
Integration Time (sec): 1.000000E-2
Scans to average: 100
Electric dark correction enabled: true
Nonlinearity correction enabled: false
Boxcar width: 0
XAxis mode: Wavelengths
Number of Pixels in Spectrum: 2048
>>>>>Begin Spectral Data<<<<<
189.047	-1.65
189.435	-1.65
189.823	-1.65
190.211	-2.57
190.599	38.65
190.987	347.59
191.375	169.5
191.763	502.47
192.151	32.53
192.538	-14.88
192.926	204.09
193.314	161.84
193.702	96.92
194.089	-3.46
194.477	-66.41
194.864	-24.62
195.252	19.82
195.639	38.23
196.027	842.66
196.414	130.96
196.801	488.54
197.189	82.86
197.576	-28.9
197.963	1.65
198.351	-6.7
198.738	34.82
199.125	3.7
199.512	-1.14
199.899	33.02
200.286	34.39
200.673	-20.16
201.06	7.77
201.447	-48.68
201.833	-19.59
202.22	-12.21
202.607	-97.92
202.994	3.42
203.38	2.26
203.767	10.47
204.154	-8.34
204.54	12.13
204.927	-1.08
205.313	28.24
205.699	-24.14
206.086	-24.19
206.472	12.05
206.858	-42.16
207.245	-15.36
207.631	14.54
208.017	1.61
208.403	-1.7
208.789	-8.15
209.175	-31.93
209.561	-0.8
209.947	-1.9
210.333	9.71
210.719	25.41
211.105	-19.14
211.491	13.94
211.876	20.26
212.262	2.04
212.648	-25.19
213.034	-62.36
213.419	-29.04
213.805	9.07
214.19	20.03
214.576	8.88
214.961	-0.75
215.346	-19.11
215.732	20.27
216.117	-1.42
216.502	-42.92
216.888	-40.05
217.273	-30.82
217.658	-34.58
218.043	-22
218.428	-4.71
218.813	12.52
219.198	-33.63
219.583	4.66
219.968	1.44
220.353	-5.48
220.738	-13.16
221.122	3.27
221.507	-28.94
221.892	-12.42
222.276	-13.9
222.661	-17.31
223.046	1.94
223.43	4.85
223.815	3.07
224.199	-1.01
224.583	-0.34
224.968	-4.07
225.352	-5.44
225.736	2.32
226.121	-3.78
226.505	-1.71
226.889	-5.24
227.273	0.48
227.657	5.11
228.041	3.33
228.425	0.16
228.809	3.85
229.193	2.58
229.577	5.66
229.961	1.52
230.344	5.86
230.728	4.87
231.112	4.63
231.495	4.92
231.879	5.06
232.263	4.93
232.646	2.97
233.03	3.49
233.413	4.56
233.797	5.29
234.18	-1.27
234.563	2.6
234.946	4.41
235.33	7.18
235.713	4.37
236.096	4.07
236.479	5.25
236.862	2.97
237.245	1.05
237.628	2.91
238.011	3.6
238.394	2.8
238.777	3.7
239.16	3.69
239.543	3.38
239.925	4.18
240.308	4.04
240.691	4.1
241.073	4.99
241.456	3.98
241.838	3.55
242.221	3.92
242.603	4.02
242.986	4.06
243.368	4.29
243.75	3.77
244.133	4.38
244.515	5.4
244.897	4.12
245.279	4.65
245.661	4.03
246.043	3.86
246.425	5.16
246.807	2.43
247.189	3.73
247.571	3.99
247.953	3.72
248.335	4.26
248.717	4.08
249.098	4.42
249.48	4.06
249.862	4.17
250.243	3.96
250.625	4.65
251.006	4.11
251.388	4.24
251.769	3.3
252.151	2.88
252.532	4.72
252.913	4.69
253.295	4.57
253.676	3.78
254.057	3.88
254.438	4
254.819	3.68
255.2	4.08
255.581	3.86
255.962	3.21
256.343	4.57
256.724	3.62
257.105	4.46
257.486	3.29
257.867	2.63
258.247	2.29
258.628	4.7
259.009	3.36
259.389	3.52
259.77	3.07
260.15	3.59
260.531	4.03
260.911	3.8
261.292	3.71
261.672	3.77
262.052	3.81
262.432	4.09
262.813	3.48
263.193	3.6
263.573	4.09
263.953	4.43
264.333	4.98
264.713	3.54
265.093	3.46
265.473	3.28
265.853	3.51
266.233	2.49
266.612	2.39
266.992	3.4
267.372	4.59
267.752	3.88
268.131	3.07
268.511	3.14
268.89	2.76
269.27	2.52
269.649	3.33
270.029	2.9
270.408	3.5
270.787	3.45
271.167	4.06
271.546	3.44
271.925	3.83
272.304	3.89
272.683	2.8
273.062	3.88
273.441	4.04
273.82	2.8
274.199	3.47
274.578	3.75
274.957	3.23
275.336	3.31
275.715	3.28
276.093	2.33
276.472	3.76
276.851	3.81
277.229	2.9
277.608	3.68
277.986	2.71
278.365	3.64
278.743	3.61
279.122	3.71
279.5	2.89
279.878	2.83
280.257	2.52
280.635	2.88
281.013	2.93
281.391	3.84
281.769	3.23
282.147	3.7
282.525	2.67
282.903	2.86
283.281	3.25
283.659	3.04
284.037	3.81
284.415	3.12
284.792	3.64
285.17	2.91
285.548	3.53
285.925	2.89
286.303	3.23
286.68	3.32
287.058	3.46
287.435	3.7
287.813	3
288.19	3.28
288.567	3.28
288.945	3.56
289.322	2.22
289.699	3.13
290.076	2.98
290.453	3.24
290.83	3.44
291.207	3.89
291.584	3.36
291.961	3.08
292.338	3.43
292.715	3.56
293.092	3.23
293.469	3.44
293.845	3.52
294.222	3.03
294.599	3.65
294.975	2.68
295.352	3.12
295.728	3.38
296.105	3.25
296.481	3.44
296.858	3.66
297.234	3.55
297.61	2.9
297.986	3.19
298.363	3.32
298.739	3.39
299.115	2.99
299.491	3.02
299.867	3.2
300.243	3.12
300.619	3.25
300.995	3.31
301.371	3.52
301.746	3.21
302.122	3.76
302.498	3.45
302.874	3.29
303.249	3.8
303.625	2.51
304	3.4
304.376	2.93
304.751	3.81
305.127	3.24
305.502	3.15
305.878	2.96
306.253	2.99
306.628	2.79
307.003	3.38
307.378	2.91
307.754	2.8
308.129	2.85
308.504	4.46
308.879	2.67
309.254	3.63
309.629	2.72
310.003	3.43
310.378	3.1
310.753	3.21
311.128	3.38
311.502	2.79
311.877	2.85
312.252	2.69
312.626	2.89
313.001	3
313.375	2.95
313.75	3.24
314.124	3.5
314.498	2.57
314.873	2.85
315.247	3.51
315.621	2.84
315.995	3.16
316.369	2.91
316.743	2.34
317.117	2.65
317.491	3
317.865	2.71
318.239	3.03
318.613	3.1
318.987	3.01
319.361	2.63
319.734	3.1
320.108	3.2
320.482	2.89
320.855	3.04
321.229	3.72
321.602	2.64
321.976	3.43
322.349	3.67
322.723	2.58
323.096	2.92
323.469	2.85
323.843	3.53
324.216	3.86
324.589	3.11
324.962	3.29
325.335	3.43
325.708	3.22
326.081	3.24
326.454	3.07
326.827	3.31
327.2	3.19
327.573	2.35
327.945	3.23
328.318	3.17
328.691	2.55
329.063	3.02
329.436	3.74
329.809	2.89
330.181	2.67
330.553	2.94
330.926	2.8
331.298	2.63
331.671	3.47
332.043	3.13
332.415	3.3
332.787	3.11
333.159	2.92
333.532	2.56
333.904	2.88
334.276	3.37
334.648	2.63
335.02	2.36
335.391	3.04
335.763	2.93
336.135	3.16
336.507	3.78
336.879	2.4
337.25	3.13
337.622	3.33
337.993	2.96
338.365	2.67
338.736	3.26
339.108	2.73
339.479	3.29
339.851	2.36
340.222	2.18
340.593	3.06
340.964	2.84
341.336	3.02
341.707	2.7
342.078	2.79
342.449	2.92
342.82	2.91
343.191	3.1
343.562	3.28
343.933	3.55
344.303	3.23
344.674	2.73
345.045	3.21
345.416	3.26
345.786	2.91
346.157	2.78
346.527	3.67
346.898	3.13
347.268	3.22
347.639	2.93
348.009	3.21
348.38	3.05
348.75	3.62
349.12	3.24
349.49	3.07
349.861	3.13
350.231	2.97
350.601	3.31
350.971	3.56
351.341	3.28
351.711	3.33
352.081	3.47
352.45	3.37
352.82	3.2
353.19	2.76
353.56	2.99
353.929	3.31
354.299	2.81
354.669	2.77
355.038	2.9
355.408	2.72
355.777	3.31
356.147	3.13
356.516	3.48
356.885	3.12
357.254	3.13
357.624	3.02
357.993	2.9
358.362	3.3
358.731	3.29
359.1	2.74
359.469	2.8
359.838	2.82
360.207	3.1
360.576	3.19
360.945	2.78
361.314	3.13
361.682	3.41
362.051	3.23
362.42	3.32
362.788	3.22
363.157	3.44
363.525	3.28
363.894	2.97
364.262	3.16
364.631	2.94
364.999	3.4
365.367	3.71
365.735	3.09
366.104	3.39
366.472	2.67
366.84	2.99
367.208	3.18
367.576	3.19
367.944	3.2
368.312	3.42
368.68	3.02
369.048	3.34
369.416	3.34
369.783	3.15
370.151	3.04
370.519	3.27
370.886	3.45
371.254	3.12
371.621	3.47
371.989	2.7
372.356	3.03
372.724	3.14
373.091	3.16
373.458	3.27
373.826	3.51
374.193	3.02
374.56	3.36
374.927	3.55
375.294	3.38
375.661	3.34
376.028	3.47
376.395	3.37
376.762	3.86
377.129	3.78
377.496	3.26
377.863	2.79
378.229	3.15
378.596	2.97
378.963	3.09
379.329	3.1
379.696	3.05
380.062	3.51
380.429	3.49
380.795	3.01
381.161	3.46
381.528	3.44
381.894	3.58
382.26	3.09
382.626	3.31
382.993	3.41
383.359	2.93
383.725	3.45
384.091	3.19
384.457	3.12
384.823	3.08
385.188	3.31
385.554	3.33
385.92	3.28
386.286	3.66
386.651	3.36
387.017	3.62
387.383	3.28
387.748	3.52
388.114	3.35
388.479	3.33
388.845	3.5
389.21	3.32
389.575	3.08
389.94	3.39
390.306	3.53
390.671	3.5
391.036	3.41
391.401	3.23
391.766	3.53
392.131	3.31
392.496	3.26
392.861	3.19
393.226	3.42
393.591	3.41
393.956	3.33
394.32	3.38
394.685	3.39
395.05	3.44
395.414	3.32
395.779	3.39
396.143	3.75
396.508	3.34
396.872	3.5
397.236	3.5
397.601	3.53
397.965	3.53
398.329	3.73
398.694	3.46
399.058	3.59
399.422	3.58
399.786	3.56
400.15	3.42
400.514	3.74
400.878	3.65
401.242	3.43
401.605	3.87
401.969	3.35
402.333	3.53
402.697	3.54
403.06	3.35
403.424	3.57
403.787	3.41
404.151	3.74
404.514	3.26
404.878	3.32
405.241	3.3
405.604	3.32
405.968	3.4
406.331	3.64
406.694	3.66
407.057	3.38
407.42	3.53
407.783	3.35
408.146	3.6
408.509	3.68
408.872	3.46
409.235	3.57
409.598	3.51
409.961	3.78
410.323	3.7
410.686	3.5
411.049	3.74
411.411	3.68
411.774	3.74
412.136	3.85
412.499	3.52
412.861	3.57
413.223	3.73
413.586	3.68
413.948	3.45
414.31	3.79
414.672	3.7
415.035	3.77
415.397	3.51
415.759	3.54
416.121	3.43
416.483	3.52
416.845	3.53
417.206	3.75
417.568	3.4
417.93	3.54
418.292	3.5
418.653	3.46
419.015	3.57
419.377	3.58
419.738	3.41
420.1	3.59
420.461	3.65
420.822	3.65
421.184	3.54
421.545	3.71
421.906	3.52
422.267	3.58
422.629	3.56
422.99	3.6
423.351	3.53
423.712	3.63
424.073	3.64
424.434	3.55
424.795	3.66
425.155	3.56
425.516	3.51
425.877	3.56
426.238	3.55
426.598	3.59
426.959	3.53
427.32	3.65
427.68	3.6
428.041	3.7
428.401	3.59
428.761	3.67
429.122	3.9
429.482	3.79
429.842	3.63
430.202	3.69
430.563	3.77
430.923	3.81
431.283	3.39
431.643	3.69
432.003	3.76
432.363	3.89
432.722	3.65
433.082	3.8
433.442	3.76
433.802	3.63
434.161	3.7
434.521	3.73
434.881	3.67
435.24	3.69
435.6	3.81
435.959	3.8
436.319	3.89
436.678	3.75
437.037	3.7
437.396	3.58
437.756	3.59
438.115	3.67
438.474	3.71
438.833	3.68
439.192	3.76
439.551	3.8
439.91	3.71
440.269	3.78
440.628	3.67
440.987	3.52
441.345	3.84
441.704	3.61
442.063	3.67
442.421	3.71
442.78	3.74
443.138	3.61
443.497	3.67
443.855	3.74
444.214	3.66
444.572	3.76
444.93	3.72
445.288	3.5
445.647	3.87
446.005	3.72
446.363	3.69
446.721	3.65
447.079	3.63
447.437	3.56
447.795	3.74
448.153	3.73
448.51	3.72
448.868	3.73
449.226	3.76
449.584	3.72
449.941	3.75
450.299	3.88
450.656	3.72
451.014	3.78
451.371	3.94
451.729	3.86
452.086	3.75
452.443	4
452.801	3.71
453.158	3.85
453.515	3.76
453.872	3.72
454.229	3.99
454.586	3.69
454.943	3.69
455.3	3.67
455.657	3.87
456.014	3.85
456.371	4.05
456.727	4
457.084	3.78
457.441	4
457.797	3.82
458.154	3.78
458.51	3.82
458.867	3.84
459.223	3.97
459.58	3.75
459.936	3.68
460.292	3.89
460.648	3.85
461.005	3.81
461.361	3.81
461.717	3.83
462.073	3.78
462.429	3.88
462.785	3.75
463.141	3.87
463.496	3.76
463.852	4.02
464.208	3.84
464.564	4.01
464.919	4.06
465.275	3.88
465.631	4.02
465.986	3.9
466.342	3.9
466.697	3.89
467.052	4.14
467.408	3.94
467.763	3.93
468.118	3.79
468.473	4.1
468.829	3.9
469.184	3.77
469.539	3.89
469.894	3.91
470.249	4
470.603	3.95
470.958	3.85
471.313	4.07
471.668	4.01
472.023	3.86
472.377	3.97
472.732	3.9
473.086	4.02
473.441	4.12
473.795	4
474.15	3.89
474.504	3.85
474.859	3.87
475.213	3.83
475.567	4.04
475.921	3.89
476.275	3.72
476.63	3.84
476.984	3.92
477.338	3.95
477.692	3.89
478.045	3.93
478.399	4.02
478.753	3.93
479.107	3.94
479.461	3.98
479.814	3.95
480.168	3.76
480.521	3.92
480.875	3.95
481.228	3.88
481.582	3.83
481.935	4.04
482.289	4.02
482.642	4.07
482.995	3.9
483.348	3.9
483.701	4.04
484.055	3.94
484.408	3.87
484.761	3.87
485.114	3.75
485.466	3.75
485.819	3.71
486.172	3.75
486.525	3.79
486.878	3.8
487.23	3.79
487.583	3.77
487.936	3.9
488.288	3.83
488.641	3.87
488.993	3.82
489.345	3.82
489.698	3.77
490.05	3.84
490.402	3.84
490.754	3.86
491.107	3.9
491.459	3.93
491.811	4.01
492.163	3.95
492.515	4.02
492.866	3.89
493.218	3.79
493.57	3.84
493.922	3.79
494.274	3.89
494.625	3.95
494.977	4.07
495.328	4.05
495.68	3.92
496.031	4.08
496.383	3.97
496.734	4.1
497.086	3.96
497.437	3.95
497.788	3.96
498.139	3.93
498.49	4.06
498.842	3.92
499.193	4.03
499.544	4.04
499.894	4
500.245	3.96
500.596	4.07
500.947	4.04
501.298	4.03
501.648	4.17
501.999	3.99
502.35	4.15
502.7	3.97
503.051	4.04
503.401	4.13
503.752	4.18
504.102	3.98
504.452	4.09
504.803	4.13
505.153	4.11
505.503	4.18
505.853	4.23
506.203	4.14
506.553	4.08
506.903	4.14
507.253	4.05
507.603	4.18
507.953	4.03
508.303	4.22
508.652	4.2
509.002	4.12
509.352	4.12
509.701	4.14
510.051	4.06
510.4	4.11
510.75	3.94
511.099	4.09
511.449	4.14
511.798	3.98
512.147	4.02
512.496	4.21
512.846	4.16
513.195	3.98
513.544	4.14
513.893	4.18
514.242	4.01
514.591	4.09
514.939	4.06
515.288	4.13
515.637	4.07
515.986	4.12
516.334	4.29
516.683	4.07
517.032	4.12
517.38	4.03
517.729	4.13
518.077	4.03
518.426	4.11
518.774	4.18
519.122	4.19
519.47	4.03
519.819	4.07
520.167	3.94
520.515	3.97
520.863	4.05
521.211	3.99
521.559	4.09
521.907	4.06
522.255	4.14
522.602	4.12
522.95	4.15
523.298	4.19
523.645	4.28
523.993	4.15
524.341	4.11
524.688	3.99
525.036	4.27
525.383	4.04
525.73	4.1
526.078	4.11
526.425	4.09
526.772	4.13
527.119	4.07
527.466	4.13
527.814	3.98
528.161	4.17
528.508	4.1
528.854	4
529.201	4.03
529.548	3.99
529.895	3.97
530.242	3.87
530.588	3.88
530.935	3.93
531.282	3.95
531.628	4.02
531.975	3.97
532.321	4.04
532.667	3.9
533.014	4.01
533.36	4.05
533.706	4.06
534.052	4.07
534.399	4.13
534.745	4.1
535.091	3.91
535.437	4.06
535.783	3.97
536.129	4.06
536.474	4.02
536.82	4.05
537.166	4.11
537.512	4.15
537.857	4.13
538.203	4.14
538.549	4.06
538.894	4.12
539.239	4.14
539.585	4.02
539.93	4.13
540.276	4.13
540.621	4.09
540.966	4.01
541.311	4.12
541.656	4.21
542.001	4.18
542.346	4.14
542.691	4.04
543.036	3.96
543.381	3.96
543.726	3.97
544.071	4.04
544.415	4
544.76	4.01
545.105	4.04
545.449	4.12
545.794	4.16
546.138	4.01
546.483	4.06
546.827	4.17
547.171	4.15
547.516	4.08
547.86	4.11
548.204	4.24
548.548	4.1
548.892	4.14
549.236	4.11
549.58	4.12
549.924	4.1
550.268	4.26
550.612	4.16
550.956	4.12
551.3	4.25
551.643	4.23
551.987	4.26
552.33	4.39
552.674	4.31
553.017	4.33
553.361	4.38
553.704	4.05
554.048	4.18
554.391	4.13
554.734	4.12
555.077	4.24
555.42	4.09
555.764	4.29
556.107	4.27
556.45	4.22
556.793	4.24
557.135	4.34
557.478	4.2
557.821	4.22
558.164	4.12
558.507	4.37
558.849	4.27
559.192	4.23
559.534	4.43
559.877	4.19
560.219	4.3
560.562	4.18
560.904	4.45
561.246	4.26
561.589	4.26
561.931	4.17
562.273	4.15
562.615	4.1
562.957	4.38
563.299	4.23
563.641	4.32
563.983	4.26
564.325	4.24
564.667	4.4
565.008	4.24
565.35	4.1
565.692	4.22
566.033	4.24
566.375	4.27
566.716	4.06
567.058	4.41
567.399	4.25
567.741	4.23
568.082	4.15
568.423	4.14
568.764	4.33
569.105	4.17
569.447	4.28
569.788	4.19
570.129	4.32
570.47	4.39
570.811	4.38
571.151	4.38
571.492	4.33
571.833	4.29
572.174	4.26
572.514	4.13
572.855	4.27
573.195	4.2
573.536	4.05
573.876	4.29
574.217	4.31
574.557	4.27
574.898	4.28
575.238	4.37
575.578	4.12
575.918	4.24
576.258	4.36
576.598	4.18
576.938	4.37
577.278	4.16
577.618	4.33
577.958	4.29
578.298	4.46
578.638	4.35
578.977	4.33
579.317	4.38
579.657	4.25
579.996	4.39
580.336	4.38
580.675	4.13
581.014	4.37
581.354	4.12
581.693	4.22
582.032	4.16
582.372	4.46
582.711	4.33
583.05	4.5
583.389	4.53
583.728	4.31
584.067	4.38
584.406	4.48
584.745	4.55
585.083	4.1
585.422	4.49
585.761	4.5
586.1	4.28
586.438	4.77
586.777	4.42
587.115	4.17
587.454	4.28
587.792	4.14
588.13	4.4
588.469	4.33
588.807	4.26
589.145	3.96
589.483	4.19
589.821	4.52
590.159	4.29
590.497	4.45
590.835	4.46
591.173	4.15
591.511	4.31
591.849	4.26
592.187	4.51
592.524	4.04
592.862	4.47
593.2	4.31
593.537	4.14
593.875	4.46
594.212	4.4
594.55	4.26
594.887	4.74
595.224	4.28
595.561	4.4
595.899	4.33
596.236	4.42
596.573	4.19
596.91	4.49
597.247	4.26
597.584	4.44
597.921	4.25
598.258	4.42
598.594	4.44
598.931	4.38
599.268	4.23
599.604	4.09
599.941	4.36
600.277	4.27
600.614	4.33
600.95	4.36
601.287	4.34
601.623	4.35
601.959	4.29
602.296	4.46
602.632	4.25
602.968	4.19
603.304	4.17
603.64	4.39
603.976	3.98
604.312	4.45
604.648	4.49
604.984	4.2
605.319	4.2
605.655	4.18
605.991	4.31
606.326	4.21
606.662	4.31
606.998	4.28
607.333	4.54
607.668	4.39
608.004	4.37
608.339	4.54
608.674	4.28
609.01	4.21
609.345	4.54
609.68	4.45
610.015	4.09
610.35	4.54
610.685	4.25
611.02	4.49
611.355	4.36
611.689	4.12
612.024	4.37
612.359	4.46
612.694	4.38
613.028	4.45
613.363	4.46
613.697	4.28
614.032	4.53
614.366	4.39
614.7	4.04
615.035	4.38
615.369	4.09
615.703	4.32
616.037	4.17
616.371	4.29
616.705	4.14
617.039	4.22
617.373	4.11
617.707	4.23
618.041	4.5
618.375	4.09
618.709	4.35
619.042	4.5
619.376	4.32
619.71	4.36
620.043	4.62
620.377	4.41
620.71	4.24
621.043	4.46
621.377	4.27
621.71	4.37
622.043	4.58
622.376	4.48
622.709	4.6
623.043	4.36
623.376	4.83
623.709	4.24
624.041	4.67
624.374	4.47
624.707	4.2
625.04	4.16
625.373	4.53
625.705	4.29
626.038	4.17
626.37	4.56
626.703	4.42
627.035	3.95
627.368	4.61
627.7	4.21
628.032	4.07
628.365	4.14
628.697	4.37
629.029	4.14
629.361	4.33
629.693	4.45
630.025	4.24
630.357	4.63
630.689	3.96
631.021	4.53
631.353	4.64
631.684	4.38
632.016	4.24
632.348	4.63
632.679	4.32
633.011	5.04
633.342	4.71
633.674	4.52
634.005	4.63
634.336	4.71
634.668	4.52
634.999	4.48
635.33	4.46
635.661	4.68
635.992	4.63
636.323	4.52
636.654	4.45
636.985	4.45
637.316	4.28
637.647	4.44
637.977	4.62
638.308	4.67
638.639	4.53
638.969	4.45
639.3	4.45
639.63	4.65
639.961	4.77
640.291	4.14
640.622	4.52
640.952	4.64
641.282	4.55
641.612	4.36
641.943	4.17
642.273	4.57
642.603	4.86
642.933	4.56
643.263	4.02
643.592	4.7
643.922	4.34
644.252	4.76
644.582	4.54
644.911	4.19
645.241	4.16
645.571	4.86
645.9	4.7
646.23	3.97
646.559	4.86
646.888	4.57
647.218	4.65
647.547	4.23
647.876	4.8
648.205	4.25
648.534	4.46
648.863	4.48
649.192	4.78
649.521	4.72
649.85	4.38
650.179	4.72
650.508	5.08
650.837	4.44
651.165	4.44
651.494	4.44
651.822	4.51
652.151	4.57
652.479	4.55
652.808	4.73
653.136	4.85
653.465	4.53
653.793	4.52
654.121	4.51
654.449	4.67
654.777	4.67
655.105	4.74
655.433	5.06
655.761	4.37
656.089	4.18
656.417	4.7
656.745	4.8
657.073	4.13
657.4	4.73
657.728	4.3
658.056	4.76
658.383	4.21
658.711	4.42
659.038	4.23
659.365	4.51
659.693	4.45
660.02	4.4
660.347	4.65
660.674	4.25
661.001	4.63
661.329	4.73
661.656	4.61
661.982	4.35
662.309	4.82
662.636	4.57
662.963	4.41
663.29	5.31
663.616	4.4
663.943	4.75
664.27	5.22
664.596	4.79
664.923	5.74
665.249	4.39
665.576	4.37
665.902	4.42
666.228	4.68
666.554	4.25
666.881	4.2
667.207	4.49
667.533	4.44
667.859	4.63
668.185	4.64
668.511	4.93
668.837	4.58
669.162	5.6
669.488	4.53
669.814	4.57
670.139	4.03
670.465	3.72
670.791	4.43
671.116	4.27
671.442	4.74
671.767	4.77
672.092	5.27
672.418	4.33
672.743	5.19
673.068	4.49
673.393	4.13
673.718	4.72
674.043	5
674.368	3.91
674.693	4.1
675.018	4.31
675.343	4.54
675.667	4.78
675.992	5
676.317	4.4
676.641	4.03
676.966	4.87
677.29	4.51
677.615	4.57
677.939	4.58
678.264	5.17
678.588	4.86
678.912	4.7
679.236	4.58
679.56	4.79
679.885	4.76
680.209	4.71
680.532	4.83
680.856	4.28
681.18	4.42
681.504	4.74
681.828	5.01
682.152	4.61
682.475	5.32
682.799	4.8
683.122	5.26
683.446	4.58
683.769	5.43
684.093	4.22
684.416	4.64
684.739	5.15
685.062	4.8
685.386	4.97
685.709	5.04
686.032	4.06
686.355	4.41
686.678	5.09
687.001	4.92
687.324	5.21
687.646	5.29
687.969	4.34
688.292	4.72
688.614	4.17
688.937	4.25
689.26	5.04
689.582	4.63
689.904	4.84
690.227	4.34
690.549	4.78
690.871	4.32
691.194	4.86
691.516	5.2
691.838	4.14
692.16	4.82
692.482	4.52
692.804	5.1
