Data from 0403_chest_Reflection__2__169.txt Node

Date: Tue Dec 12 19:46:52 CST 2023
User: ToomeyLab
Spectrometer: FLMS14357
Trigger mode: 0
Integration Time (sec): 1.000000E-2
Scans to average: 100
Electric dark correction enabled: true
Nonlinearity correction enabled: false
Boxcar width: 0
XAxis mode: Wavelengths
Number of Pixels in Spectrum: 2048
>>>>>Begin Spectral Data<<<<<
189.047	8.82
189.435	8.82
189.823	8.82
190.211	63.81
190.599	62.47
190.987	298.02
191.375	252.48
191.763	-9.88
192.151	9.6
192.538	43.87
192.926	240.87
193.314	126.09
193.702	78.93
194.089	199.28
194.477	63.1
194.864	13.76
195.252	224.88
195.639	-143.41
196.027	363.64
196.414	332.19
196.801	247.13
197.189	48.76
197.576	234.11
197.963	57.67
198.351	48.87
198.738	38.83
199.125	-20.22
199.512	17.24
199.899	30.55
200.286	-5.38
200.673	-3
201.06	-47.39
201.447	-56.69
201.833	-42.6
202.22	1.83
202.607	-152.38
202.994	0.14
203.38	40.4
203.767	-28.11
204.154	4.26
204.54	35.55
204.927	-35.91
205.313	26.99
205.699	14.59
206.086	7.53
206.472	14.02
206.858	5.39
207.245	3.98
207.631	-17.25
208.017	-22.55
208.403	-40.19
208.789	25.92
209.175	-8.23
209.561	-26.85
209.947	0.64
210.333	8.05
210.719	4.46
211.105	-49.67
211.491	16.81
211.876	15.96
212.262	28.56
212.648	-54.68
213.034	1.95
213.419	13.41
213.805	26.29
214.19	29.75
214.576	22.23
214.961	-6.3
215.346	14.7
215.732	28.39
216.117	-6.39
216.502	-54.77
216.888	-7.27
217.273	-18.15
217.658	-26.99
218.043	12.35
218.428	31.39
218.813	-3.23
219.198	-33.13
219.583	-6.18
219.968	-2.83
220.353	-35.08
220.738	14.14
221.122	-18.96
221.507	-42.19
221.892	-1.94
222.276	-5.07
222.661	-5.63
223.046	-6.64
223.43	5.63
223.815	-4.98
224.199	5.47
224.583	-2.35
224.968	16.49
225.352	-0.79
225.736	5.47
226.121	-2.18
226.505	-1.68
226.889	-14.88
227.273	1.34
227.657	3.84
228.041	1.28
228.425	-1.86
228.809	-2.98
229.193	-1.5
229.577	1.28
229.961	0.02
230.344	1.14
230.728	1.88
231.112	1.46
231.495	2
231.879	1.86
232.263	0.76
232.646	-0.3
233.03	0.97
233.413	-1.44
233.797	-1.55
234.18	0.85
234.563	-1.59
234.946	2.51
235.33	2.66
235.713	0.78
236.096	-0.1
236.479	1.34
236.862	1.62
237.245	2.45
237.628	2.17
238.011	0.32
238.394	1.57
238.777	2.71
239.16	0.09
239.543	2.3
239.925	2.62
240.308	0.25
240.691	2.15
241.073	1.28
241.456	1.51
241.838	0.58
242.221	1.53
242.603	1.92
242.986	-0.05
243.368	2.06
243.75	1.03
244.133	1.55
244.515	1.58
244.897	1.35
245.279	2.04
245.661	0.52
246.043	1.04
246.425	3.11
246.807	1.16
247.189	2.18
247.571	2.15
247.953	1.32
248.335	1.73
248.717	1.75
249.098	1.72
249.48	1.64
249.862	1.54
250.243	1.63
250.625	2.38
251.006	2.17
251.388	1.83
251.769	1.89
252.151	0.94
252.532	1.58
252.913	2.73
253.295	1.87
253.676	1.04
254.057	1.43
254.438	2.08
254.819	1.47
255.2	1.04
255.581	2.6
255.962	1.16
256.343	2.61
256.724	1.47
257.105	2.42
257.486	0.61
257.867	2.2
258.247	1.42
258.628	1.4
259.009	1.14
259.389	0.7
259.77	1
260.15	1.15
260.531	2.02
260.911	1.94
261.292	1.26
261.672	1.52
262.052	1.54
262.432	1.95
262.813	1.69
263.193	1.64
263.573	1.56
263.953	2.57
264.333	2.85
264.713	1.98
265.093	1.06
265.473	0.32
265.853	0.76
266.233	1
266.612	1.08
266.992	1.18
267.372	1.88
267.752	1.96
268.131	0.86
268.511	1.39
268.89	0.7
269.27	0.45
269.649	1.17
270.029	0.92
270.408	1.79
270.787	1.06
271.167	1.74
271.546	1.65
271.925	1.56
272.304	1.62
272.683	0.85
273.062	1.07
273.441	1.66
273.82	1.12
274.199	1.71
274.578	1.37
274.957	1.54
275.336	1.51
275.715	2.11
276.093	0.3
276.472	1.1
276.851	1.7
277.229	0.7
277.608	1.35
277.986	1.14
278.365	1.67
278.743	1.71
279.122	1.87
279.5	0.69
279.878	0.39
280.257	1.41
280.635	0.6
281.013	1.24
281.391	1.4
281.769	1.12
282.147	1.56
282.525	1.01
282.903	0.96
283.281	0.88
283.659	1.69
284.037	2.09
284.415	1.56
284.792	1.52
285.17	1.01
285.548	1.07
285.925	1.25
286.303	1.36
286.68	1.53
287.058	1.57
287.435	1.55
287.813	1.34
288.19	1.62
288.567	1.47
288.945	1.43
289.322	0.66
289.699	1.77
290.076	1.19
290.453	2.05
290.83	1.57
291.207	1.91
291.584	1.83
291.961	1.6
292.338	1.74
292.715	1.58
293.092	1.51
293.469	1.73
293.845	2.28
294.222	1.48
294.599	1.89
294.975	1.99
295.352	2.05
295.728	2.15
296.105	1.79
296.481	2.1
296.858	1.77
297.234	1.8
297.61	1.84
297.986	2.09
298.363	2.16
298.739	2.11
299.115	1.59
299.491	1.61
299.867	1.67
300.243	1.81
300.619	2.06
300.995	2.43
301.371	1.93
301.746	1.59
302.122	2.53
302.498	2.38
302.874	1.82
303.249	1.89
303.625	1.37
304	2.23
304.376	2.02
304.751	2.7
305.127	1.97
305.502	2.43
305.878	2.08
306.253	1.75
306.628	2.15
307.003	1.74
307.378	1.97
307.754	1.55
308.129	1.78
308.504	3.02
308.879	1.86
309.254	2.2
309.629	1.79
310.003	2.26
310.378	2.09
310.753	2.64
311.128	2.57
311.502	1.74
311.877	1.59
312.252	1.91
312.626	1.98
313.001	2.05
313.375	1.94
313.75	2.03
314.124	2.51
314.498	2.35
314.873	1.87
315.247	2.25
315.621	2.24
315.995	2.91
316.369	2.51
316.743	2.09
317.117	1.53
317.491	1.67
317.865	2.21
318.239	2.3
318.613	2.26
318.987	2.15
319.361	1.61
319.734	2.62
320.108	2.72
320.482	2.02
320.855	2.07
321.229	1.81
321.602	2.71
321.976	2.13
322.349	3.37
322.723	2.19
323.096	2.6
323.469	1.92
323.843	3.08
324.216	2.23
324.589	2.53
324.962	2.81
325.335	3.11
325.708	2.66
326.081	2.84
326.454	2.07
326.827	3.46
327.2	2.3
327.573	1.81
327.945	2.44
328.318	2.45
328.691	1.94
329.063	2.79
329.436	2.52
329.809	2.19
330.181	1.97
330.553	2.59
330.926	2.18
331.298	2.42
331.671	2.71
332.043	3.01
332.415	2.22
332.787	2.41
333.159	2.64
333.532	2.42
333.904	2.19
334.276	3.14
334.648	2.09
335.02	2.18
335.391	2.27
335.763	2.28
336.135	2.61
336.507	3.11
336.879	2.23
337.25	2.63
337.622	2.27
337.993	2.29
338.365	2.2
338.736	2.36
339.108	2.4
339.479	2.75
339.851	2.64
340.222	1.97
340.593	2.6
340.964	2.38
341.336	3.11
341.707	2.06
342.078	2.08
342.449	2.37
342.82	2.75
343.191	2.51
343.562	2.31
343.933	3.02
344.303	2.75
344.674	2.78
345.045	2.62
345.416	2.54
345.786	2.32
346.157	2.72
346.527	2.72
346.898	2.21
347.268	2.17
347.639	2.78
348.009	2.29
348.38	2.33
348.75	2.92
349.12	2.63
349.49	2.18
349.861	3.01
350.231	2.14
350.601	3.03
350.971	3.04
351.341	2.75
351.711	2.63
352.081	2.7
352.45	2.15
352.82	2.91
353.19	2.21
353.56	2.58
353.929	2.35
354.299	2.51
354.669	2.67
355.038	1.81
355.408	2.51
355.777	2.83
356.147	2.48
356.516	2.74
356.885	2.53
357.254	2.67
357.624	2.3
357.993	2.8
358.362	2.59
358.731	2.77
359.1	2.38
359.469	2.53
359.838	2.57
360.207	2.39
360.576	2.57
360.945	2.3
361.314	2.97
361.682	2.61
362.051	2.77
362.42	2.57
362.788	2.56
363.157	2.98
363.525	2.74
363.894	2.59
364.262	2.46
364.631	2.34
364.999	2.77
365.367	2.93
365.735	2.45
366.104	2.86
366.472	2.48
366.84	2.51
367.208	2.78
367.576	2.54
367.944	2.66
368.312	2.81
368.68	2.66
369.048	2.6
369.416	2.66
369.783	2.78
370.151	2.72
370.519	2.62
370.886	3.02
371.254	2.49
371.621	3.09
371.989	2.34
372.356	2.57
372.724	2.74
373.091	2.47
373.458	2.31
373.826	2.69
374.193	2.45
374.56	3.08
374.927	2.64
375.294	2.7
375.661	3.02
376.028	3.33
376.395	3.31
376.762	3.2
377.129	2.96
377.496	2.83
377.863	2.62
378.229	2.37
378.596	2.51
378.963	2.89
379.329	2.55
379.696	2.56
380.062	2.89
380.429	2.81
380.795	2.87
381.161	2.76
381.528	2.88
381.894	3.11
382.26	2.38
382.626	2.95
382.993	2.75
383.359	2.57
383.725	2.74
384.091	2.87
384.457	2.68
384.823	2.8
385.188	2.93
385.554	2.81
385.92	2.81
386.286	3
386.651	2.94
387.017	3.06
387.383	2.66
387.748	3.05
388.114	2.87
388.479	3.05
388.845	2.89
389.21	2.91
389.575	2.52
389.94	2.88
390.306	3.22
390.671	2.51
391.036	2.9
391.401	3
391.766	3
392.131	3.04
392.496	2.7
392.861	2.81
393.226	2.88
393.591	2.91
393.956	2.7
394.32	3.08
394.685	2.91
395.05	2.64
395.414	2.79
395.779	2.81
396.143	2.92
396.508	2.72
396.872	3.06
397.236	3
397.601	2.9
397.965	2.96
398.329	3.04
398.694	2.72
399.058	3.07
399.422	3.23
399.786	3.02
400.15	2.99
400.514	3.41
400.878	2.97
401.242	2.99
401.605	3.13
401.969	3.1
402.333	3.13
402.697	3.27
403.06	2.89
403.424	3.17
403.787	2.66
404.151	3.2
404.514	2.88
404.878	2.99
405.241	3.05
405.604	2.94
405.968	2.97
406.331	3.05
406.694	3.26
407.057	2.87
407.42	2.89
407.783	3.04
408.146	2.91
408.509	3.09
408.872	3.12
409.235	2.9
409.598	3.14
409.961	2.89
410.323	3.08
410.686	3.03
411.049	3.12
411.411	3.04
411.774	3.06
412.136	3.07
412.499	3.17
412.861	3.18
413.223	3.42
413.586	3.07
413.948	3.21
414.31	3.37
414.672	3.09
415.035	2.83
415.397	3.25
415.759	3.08
416.121	3.07
416.483	3.21
416.845	2.93
417.206	3.23
417.568	3.14
417.93	3.06
418.292	3.05
418.653	3.4
419.015	3.15
419.377	3.17
419.738	3.06
420.1	3.03
420.461	3.1
420.822	3.15
421.184	3.07
421.545	3.25
421.906	3.2
422.267	3.04
422.629	3.15
422.99	3.16
423.351	3.03
423.712	3.08
424.073	3.14
424.434	3.08
424.795	3.14
425.155	3.16
425.516	2.96
425.877	3.09
426.238	3.03
426.598	3.1
426.959	3.1
427.32	3.13
427.68	3.11
428.041	3.31
428.401	3.14
428.761	3.13
429.122	3.25
429.482	3.28
429.842	3.34
430.202	3.05
430.563	3.15
430.923	3.48
431.283	3.26
431.643	3.26
432.003	3.16
432.363	3.28
432.722	3.12
433.082	3.31
433.442	3.34
433.802	3.35
434.161	3.16
434.521	3.21
434.881	3.25
435.24	3.32
435.6	3.39
435.959	3.36
436.319	3.35
436.678	3.23
437.037	3.43
437.396	3.27
437.756	3.27
438.115	3.3
438.474	3.11
438.833	3.43
439.192	3.44
439.551	3.16
439.91	3.13
440.269	3.41
440.628	3.25
440.987	3.24
441.345	3.39
441.704	3.32
442.063	3.29
442.421	3.4
442.78	3.32
443.138	3.26
443.497	3.31
443.855	3.35
444.214	3.35
444.572	3.45
444.93	3.45
445.288	3.4
445.647	3.22
446.005	3.34
446.363	3.11
446.721	3.35
447.079	3.29
447.437	3.19
447.795	3.37
448.153	3.22
448.51	3.37
448.868	3.38
449.226	3.45
449.584	3.33
449.941	3.34
450.299	3.36
450.656	3.36
451.014	3.36
451.371	3.4
451.729	3.59
452.086	3.45
452.443	3.54
452.801	3.51
453.158	3.48
453.515	3.57
453.872	3.51
454.229	3.49
454.586	3.42
454.943	3.45
455.3	3.36
455.657	3.39
456.014	3.72
456.371	3.51
456.727	3.59
457.084	3.62
457.441	3.33
457.797	3.58
458.154	3.5
458.51	3.42
458.867	3.67
459.223	3.47
459.58	3.54
459.936	3.37
460.292	3.45
460.648	3.53
461.005	3.39
461.361	3.44
461.717	3.5
462.073	3.35
462.429	3.41
462.785	3.57
463.141	3.53
463.496	3.49
463.852	3.62
464.208	3.6
464.564	3.64
464.919	3.7
465.275	3.7
465.631	3.85
465.986	3.45
466.342	3.52
466.697	3.89
467.052	3.7
467.408	3.65
467.763	3.55
468.118	3.55
468.473	3.66
468.829	3.58
469.184	3.54
469.539	3.67
469.894	3.72
470.249	3.71
470.603	3.66
470.958	3.71
471.313	3.84
471.668	3.86
472.023	3.65
472.377	3.51
472.732	3.57
473.086	3.65
473.441	3.85
473.795	3.71
474.15	3.86
474.504	3.49
474.859	3.79
475.213	3.68
475.567	3.73
475.921	3.7
476.275	3.82
476.63	3.73
476.984	3.84
477.338	3.8
477.692	3.76
478.045	3.74
478.399	3.84
478.753	3.82
479.107	3.61
479.461	3.86
479.814	3.92
480.168	3.69
480.521	3.66
480.875	3.75
481.228	3.83
481.582	3.74
481.935	3.82
482.289	3.82
482.642	3.84
482.995	3.8
483.348	3.73
483.701	3.94
484.055	3.77
484.408	3.72
484.761	3.78
485.114	3.61
485.466	3.55
485.819	3.55
486.172	3.56
486.525	3.63
486.878	3.71
487.23	3.68
487.583	3.66
487.936	3.76
488.288	3.7
488.641	3.71
488.993	3.69
489.345	3.72
489.698	3.66
490.05	3.72
490.402	3.75
490.754	3.74
491.107	3.85
491.459	3.86
491.811	3.92
492.163	3.76
492.515	3.89
492.866	3.84
493.218	3.73
493.57	3.76
493.922	3.73
494.274	3.89
494.625	3.97
494.977	4.05
495.328	4.05
495.68	3.89
496.031	4.13
496.383	4.01
496.734	4.05
497.086	4.06
497.437	4.12
497.788	3.99
498.139	4.06
498.49	4.11
498.842	3.99
499.193	4.05
499.544	4.16
499.894	4.02
500.245	4.08
500.596	4.22
500.947	4.09
501.298	4.13
501.648	4.26
501.999	4.08
502.35	4.19
502.7	4.1
503.051	4.3
503.401	4.09
503.752	4.32
504.102	4.22
504.452	4.22
504.803	4.23
505.153	4.26
505.503	4.3
505.853	4.39
506.203	4.33
506.553	4.16
506.903	4.27
507.253	4.13
507.603	4.28
507.953	4.2
508.303	4.28
508.652	4.25
509.002	4.34
509.352	4.33
509.701	4.3
510.051	4.35
510.4	4.35
510.75	4.21
511.099	4.21
511.449	4.35
511.798	4.31
512.147	4.34
512.496	4.46
512.846	4.34
513.195	4.28
513.544	4.36
513.893	4.44
514.242	4.24
514.591	4.39
514.939	4.44
515.288	4.35
515.637	4.33
515.986	4.46
516.334	4.44
516.683	4.46
517.032	4.54
517.38	4.48
517.729	4.4
518.077	4.39
518.426	4.54
518.774	4.49
519.122	4.45
519.47	4.41
519.819	4.48
520.167	4.47
520.515	4.38
520.863	4.47
521.211	4.35
521.559	4.46
521.907	4.53
522.255	4.49
522.602	4.67
522.95	4.63
523.298	4.59
523.645	4.65
523.993	4.74
524.341	4.61
524.688	4.55
525.036	4.75
525.383	4.55
525.73	4.66
526.078	4.6
526.425	4.66
526.772	4.62
527.119	4.72
527.466	4.57
527.814	4.55
528.161	4.68
528.508	4.64
528.854	4.65
529.201	4.69
529.548	4.66
529.895	4.62
530.242	4.46
530.588	4.46
530.935	4.56
531.282	4.66
531.628	4.67
531.975	4.68
532.321	4.7
532.667	4.73
533.014	4.73
533.36	4.78
533.706	4.81
534.052	4.74
534.399	4.85
534.745	4.85
535.091	4.67
535.437	4.82
535.783	4.74
536.129	4.92
536.474	4.81
536.82	4.9
537.166	5.08
537.512	4.99
537.857	4.91
538.203	4.99
538.549	4.88
538.894	5.09
539.239	5
539.585	4.94
539.93	5.08
540.276	5.14
540.621	5.19
540.966	5.09
541.311	5.14
541.656	5.1
542.001	5.2
542.346	5.05
542.691	5.1
543.036	4.88
543.381	4.94
543.726	5.02
544.071	5.01
544.415	5.04
544.76	5.16
545.105	5.07
545.449	5.12
545.794	5.32
546.138	5.18
546.483	5.3
546.827	5.44
547.171	5.39
547.516	5.36
547.86	5.42
548.204	5.46
548.548	5.35
548.892	5.28
549.236	5.35
549.58	5.51
549.924	5.46
550.268	5.62
550.612	5.38
550.956	5.48
551.3	5.68
551.643	5.79
551.987	5.67
552.33	5.64
552.674	5.62
553.017	5.77
553.361	5.81
553.704	5.58
554.048	5.75
554.391	5.69
554.734	5.7
555.077	5.92
555.42	5.67
555.764	5.81
556.107	5.89
556.45	5.77
556.793	5.82
557.135	5.76
557.478	5.77
557.821	5.72
558.164	6.06
558.507	6.02
558.849	6.03
559.192	5.95
559.534	6.07
559.877	5.89
560.219	6.03
560.562	6.03
560.904	5.99
561.246	6.16
561.589	6.12
561.931	6.07
562.273	5.85
562.615	6.05
562.957	6.19
563.299	6.31
563.641	6.41
563.983	6.1
564.325	6.33
564.667	6.22
565.008	6.05
565.35	6.12
565.692	6.27
566.033	6.26
566.375	6.38
566.716	6.21
567.058	6.44
567.399	6.52
567.741	6.38
568.082	6.38
568.423	6.38
568.764	6.42
569.105	6.42
569.447	6.33
569.788	6.29
570.129	6.23
570.47	6.65
570.811	6.61
571.151	6.73
571.492	6.63
571.833	6.65
572.174	6.54
572.514	6.68
572.855	6.65
573.195	6.62
573.536	6.6
573.876	6.69
574.217	6.76
574.557	6.63
574.898	6.77
575.238	6.91
575.578	6.6
575.918	6.72
576.258	6.81
576.598	6.9
576.938	6.76
577.278	6.93
577.618	6.9
577.958	6.77
578.298	7.07
578.638	7
578.977	7.07
579.317	7.03
579.657	7.22
579.996	7.03
580.336	7.08
580.675	7.21
581.014	7.09
581.354	7.15
581.693	7.18
582.032	7.15
582.372	7.37
582.711	7.37
583.05	7.38
583.389	7.42
583.728	7.24
584.067	7.6
584.406	7.59
584.745	7.42
585.083	7.28
585.422	7.35
585.761	7.65
586.1	7.54
586.438	7.77
586.777	7.34
587.115	7.51
587.454	7.66
587.792	7.41
588.13	7.71
588.469	7.7
588.807	7.46
589.145	7.63
589.483	7.66
589.821	7.78
590.159	7.6
590.497	7.7
590.835	7.96
591.173	7.76
591.511	7.95
591.849	7.77
592.187	7.86
592.524	7.8
592.862	7.99
593.2	7.81
593.537	7.96
593.875	8.03
594.212	7.98
594.55	8.13
594.887	8.27
595.224	8.13
595.561	8.27
595.899	7.81
596.236	8.07
596.573	8.09
596.91	8.24
597.247	8
597.584	8.11
597.921	8.27
598.258	8.3
598.594	8.25
598.931	8.4
599.268	8.05
599.604	8.11
599.941	8.24
600.277	8.36
600.614	8.54
600.95	8.32
601.287	8.27
601.623	8.73
601.959	8.51
602.296	8.82
602.632	8.4
602.968	8.26
603.304	8.5
603.64	8.63
603.976	8.49
604.312	8.51
604.648	8.45
604.984	8.49
605.319	8.65
605.655	8.61
605.991	8.7
606.326	8.51
606.662	8.73
606.998	8.72
607.333	8.77
607.668	8.8
608.004	8.96
608.339	8.96
608.674	8.99
609.01	8.94
609.345	9.15
609.68	9.09
610.015	8.74
610.35	8.99
610.685	8.95
611.02	8.79
611.355	8.88
611.689	8.94
612.024	8.89
612.359	9.28
612.694	9.27
613.028	9.43
613.363	9.12
613.697	9.38
614.032	9.14
614.366	9.33
614.7	9.21
615.035	9.4
615.369	9.42
615.703	9.25
616.037	9.32
616.371	9.45
616.705	9.15
617.039	9.4
617.373	9.66
617.707	9.36
618.041	9.59
618.375	9.49
618.709	9.53
619.042	9.79
619.376	9.53
619.71	9.64
620.043	9.7
620.377	9.68
620.71	9.65
621.043	9.64
621.377	9.48
621.71	9.81
622.043	10.16
622.376	10.07
622.709	10.17
623.043	9.59
623.376	10.12
623.709	9.97
624.041	10.15
624.374	10.33
624.707	10.17
625.04	10.08
625.373	10.53
625.705	10.17
626.038	10.43
626.37	9.97
626.703	10.51
627.035	10.19
627.368	10.36
627.7	10.19
628.032	10.17
628.365	10.06
628.697	10.32
629.029	10.33
629.361	10.3
629.693	10.18
630.025	10.18
630.357	10.47
630.689	10.16
631.021	10.6
631.353	10.9
631.684	10.8
632.016	10.62
632.348	10.2
632.679	10.28
633.011	11.15
633.342	10.91
633.674	10.77
634.005	10.89
634.336	10.88
634.668	10.54
634.999	11.21
635.33	10.89
635.661	10.7
635.992	10.73
636.323	10.7
636.654	10.98
636.985	10.8
637.316	10.98
637.647	10.95
637.977	11.25
638.308	10.95
638.639	10.69
638.969	10.94
639.3	11.05
639.63	10.99
639.961	11.05
640.291	10.93
640.622	11.54
640.952	11.43
641.282	11.15
641.612	11.38
641.943	11.33
642.273	11.37
642.603	11.38
642.933	11.24
643.263	11.3
643.592	11.6
643.922	11.43
644.252	11.63
644.582	11.03
644.911	11.74
645.241	11.53
645.571	11.93
645.9	11.45
646.23	11.34
646.559	11.64
646.888	11.86
647.218	11.89
647.547	12.08
647.876	11.74
648.205	11.78
648.534	11.89
648.863	12.4
649.192	11.97
649.521	12.17
649.85	11.66
650.179	11.91
650.508	11.87
650.837	12.06
651.165	11.49
651.494	11.54
651.822	12.03
652.151	12.29
652.479	11.93
652.808	12.06
653.136	12.15
653.465	11.92
653.793	12.49
654.121	12.47
654.449	12.37
654.777	12.16
655.105	12.33
655.433	12.7
655.761	12.24
656.089	12.63
656.417	12.49
656.745	12.32
657.073	12.12
657.4	12.4
657.728	12.07
658.056	12.8
658.383	11.98
658.711	12.57
659.038	11.92
659.365	12.21
659.693	12.36
660.02	12.28
660.347	12.69
660.674	12.48
661.001	12.32
661.329	12.65
661.656	12.43
661.982	12.6
662.309	13.03
662.636	13.48
662.963	12.9
663.29	13.16
663.616	12.77
663.943	13.55
664.27	13.34
664.596	12.85
664.923	13.59
665.249	12.93
665.576	13.34
665.902	13.02
666.228	13.89
666.554	13.38
666.881	12.44
667.207	12.62
667.533	13.41
667.859	13.81
668.185	13.16
668.511	13.36
668.837	13.58
669.162	13.86
669.488	13.46
669.814	13.46
670.139	13.58
670.465	12.73
670.791	13.77
671.116	13.1
671.442	13.72
671.767	13.17
672.092	14.33
672.418	13.19
672.743	13.97
673.068	13.45
673.393	13.54
673.718	14.1
674.043	13.43
674.368	13.16
674.693	13.13
675.018	13.25
675.343	13.51
675.667	13.63
675.992	13.44
676.317	13.57
676.641	13.77
676.966	14.06
677.29	13.94
677.615	14.21
677.939	13.88
678.264	14.38
678.588	14.63
678.912	14.39
679.236	14.05
679.56	13.95
679.885	14.91
680.209	14.64
680.532	14.8
680.856	14.02
681.18	14.09
681.504	14.32
681.828	14.13
682.152	14.47
682.475	14.44
682.799	14.37
683.122	14.03
683.446	14.09
683.769	15.11
684.093	14.07
684.416	14.57
684.739	14.49
685.062	14.74
685.386	14.64
685.709	15.02
686.032	13.87
686.355	13.73
686.678	15.32
687.001	14.98
687.324	14.25
687.646	14.46
