Data from 0403_forehead_Reflection__3__180.txt Node

Date: Tue Dec 12 19:50:56 CST 2023
User: ToomeyLab
Spectrometer: FLMS14357
Trigger mode: 0
Integration Time (sec): 1.000000E-2
Scans to average: 100
Electric dark correction enabled: true
Nonlinearity correction enabled: false
Boxcar width: 0
XAxis mode: Wavelengths
Number of Pixels in Spectrum: 2048
>>>>>Begin Spectral Data<<<<<
189.047	166.48
189.435	166.48
189.823	166.48
190.211	72.38
190.599	139.12
190.987	300.85
191.375	-300.24
191.763	-481.48
192.151	194.72
192.538	20.2
192.926	414.71
193.314	32.28
193.702	12.54
194.089	-36.08
194.477	4.58
194.864	146.63
195.252	-152.07
195.639	-12.53
196.027	337.06
196.414	124.32
196.801	347.77
197.189	-12.57
197.576	3.23
197.963	16.19
198.351	42.21
198.738	41.79
199.125	-6.88
199.512	-18.72
199.899	13.86
200.286	-5.52
200.673	-28.48
201.06	14.48
201.447	-23.12
201.833	-2.54
202.22	73.02
202.607	-37.92
202.994	4.53
203.38	49.91
203.767	-1.08
204.154	8.73
204.54	26.06
204.927	-7.13
205.313	18.75
205.699	-81.25
206.086	22.68
206.472	29.71
206.858	33.32
207.245	13.79
207.631	23.51
208.017	35.73
208.403	12.61
208.789	6.04
209.175	-39.36
209.561	34.16
209.947	6.62
210.333	19.09
210.719	32.07
211.105	-27.95
211.491	24.89
211.876	52.43
212.262	18.23
212.648	-20.49
213.034	-42.03
213.419	15.49
213.805	31.48
214.19	42.8
214.576	7.33
214.961	61.52
215.346	-15.38
215.732	44.62
216.117	21.83
216.502	1.16
216.888	-7.62
217.273	-3.9
217.658	-6.27
218.043	12.52
218.428	30.82
218.813	4.58
219.198	-14.04
219.583	20.91
219.968	17.92
220.353	-14.93
220.738	7.67
221.122	24.98
221.507	-29.32
221.892	13.44
222.276	9.32
222.661	-15.39
223.046	0.99
223.43	12.28
223.815	6.4
224.199	5.66
224.583	14.96
224.968	6.43
225.352	11.34
225.736	13.78
226.121	2.43
226.505	4.01
226.889	5.84
227.273	4.51
227.657	15.08
228.041	11.89
228.425	6.58
228.809	6.94
229.193	-0.14
229.577	8.34
229.961	5.73
230.344	5.34
230.728	6.84
231.112	5.66
231.495	5.79
231.879	6.47
232.263	4.99
232.646	5.22
233.03	5.58
233.413	6.18
233.797	4.84
234.18	5.35
234.563	4.06
234.946	6.06
235.33	6.45
235.713	7.42
236.096	5.17
236.479	4.59
236.862	4.78
237.245	4.79
237.628	5.23
238.011	5.49
238.394	5.87
238.777	6.82
239.16	3.41
239.543	5.58
239.925	4.58
240.308	5.97
240.691	6.1
241.073	6.91
241.456	3.45
241.838	5.44
242.221	5.81
242.603	4.91
242.986	4.66
243.368	5.35
243.75	5.03
244.133	5.03
244.515	5.62
244.897	4.99
245.279	6.09
245.661	4.15
246.043	4.55
246.425	5.73
246.807	4.54
247.189	5.76
247.571	5.42
247.953	4.4
248.335	5.3
248.717	4.96
249.098	5.13
249.48	4.68
249.862	4.79
250.243	4.51
250.625	5.42
251.006	5.03
251.388	5.31
251.769	5.55
252.151	4.84
252.532	5.57
252.913	5.58
253.295	5.78
253.676	4.19
254.057	4.83
254.438	5.13
254.819	5.28
255.2	4.68
255.581	5.34
255.962	3.82
256.343	5.3
256.724	5.42
257.105	5.21
257.486	3.45
257.867	4.49
258.247	4.46
258.628	4.2
259.009	3.81
259.389	4.96
259.77	4.58
260.15	4.62
260.531	5.17
260.911	5.07
261.292	4.5
261.672	4.5
262.052	4.57
262.432	4.85
262.813	4.78
263.193	5.02
263.573	4.76
263.953	5.92
264.333	5.58
264.713	4.81
265.093	4.91
265.473	5.37
265.853	4.43
266.233	4.3
266.612	5.06
266.992	4.15
267.372	4.66
267.752	5.5
268.131	4.09
268.511	4.7
268.89	3.8
269.27	4.07
269.649	3.84
270.029	4.66
270.408	4.89
270.787	4.22
271.167	4.9
271.546	3.99
271.925	5.25
272.304	5.06
272.683	3.7
273.062	4.66
273.441	4.8
273.82	4.07
274.199	4.29
274.578	4.5
274.957	4.56
275.336	4.73
275.715	4.98
276.093	3.42
276.472	4.93
276.851	4.94
277.229	4.58
277.608	4.73
277.986	3.42
278.365	4.6
278.743	4.36
279.122	4.37
279.5	3.97
279.878	3.47
280.257	4.24
280.635	4.64
281.013	4.66
281.391	4.51
281.769	4.1
282.147	4.48
282.525	3.43
282.903	4.02
283.281	4.35
283.659	4.49
284.037	4.66
284.415	4.39
284.792	4.72
285.17	3.98
285.548	4.63
285.925	4.06
286.303	4.06
286.68	4.26
287.058	4.71
287.435	4.58
287.813	4.13
288.19	4.09
288.567	4.29
288.945	4.31
289.322	3.97
289.699	4.36
290.076	4.79
290.453	4.65
290.83	4.2
291.207	4.81
291.584	4.55
291.961	4.26
292.338	4.56
292.715	4.48
293.092	4
293.469	4.58
293.845	4.59
294.222	3.96
294.599	4.8
294.975	4.32
295.352	4.65
295.728	4.77
296.105	4.27
296.481	4.67
296.858	4
297.234	4.88
297.61	4.61
297.986	4.35
298.363	4.85
298.739	4.21
299.115	4.37
299.491	4.22
299.867	4.48
300.243	4.37
300.619	4.33
300.995	4.33
301.371	4.74
301.746	4.32
302.122	5.32
302.498	4.04
302.874	4.78
303.249	5.2
303.625	4.61
304	5.09
304.376	4.33
304.751	5.05
305.127	4.85
305.502	4.71
305.878	4.37
306.253	4.45
306.628	4.84
307.003	4.7
307.378	4.58
307.754	4.58
308.129	4.83
308.504	5.81
308.879	4.21
309.254	4.74
309.629	4.79
310.003	5.61
310.378	5.24
310.753	5.07
311.128	5.31
311.502	4.65
311.877	4.52
312.252	4.41
312.626	4.52
313.001	4.79
313.375	4.43
313.75	5.17
314.124	5.4
314.498	5.06
314.873	4.31
315.247	5.6
315.621	4.9
315.995	5.81
316.369	5.38
316.743	4.66
317.117	4.22
317.491	4.86
317.865	5.2
318.239	4.7
318.613	5.34
318.987	5.43
319.361	5.42
319.734	4.3
320.108	5.51
320.482	5.11
320.855	4.98
321.229	5.32
321.602	5.67
321.976	5.95
322.349	5.87
322.723	5.51
323.096	5.31
323.469	5.55
323.843	5.8
324.216	6
324.589	5.8
324.962	5.65
325.335	5.92
325.708	5.78
326.081	5.43
326.454	5.47
326.827	5.66
327.2	5.76
327.573	5.03
327.945	5.7
328.318	6.06
328.691	5.14
329.063	5.59
329.436	5.73
329.809	6.44
330.181	5.29
330.553	5.55
330.926	6.5
331.298	5.54
331.671	5.51
332.043	5.69
332.415	5.91
332.787	5.87
333.159	5.94
333.532	5.64
333.904	5.81
334.276	6.38
334.648	6
335.02	5.86
335.391	5.57
335.763	5.9
336.135	6.36
336.507	6.22
336.879	6.16
337.25	5.98
337.622	5.88
337.993	5.63
338.365	5.98
338.736	6.51
339.108	6.24
339.479	6.44
339.851	5.9
340.222	5.95
340.593	6.03
340.964	6.4
341.336	5.91
341.707	6.51
342.078	5.85
342.449	6.64
342.82	6.1
343.191	6.47
343.562	6.16
343.933	6.32
344.303	6.84
344.674	6.84
345.045	6.47
345.416	6.79
345.786	6.72
346.157	6.74
346.527	6.86
346.898	6.46
347.268	6.61
347.639	6.74
348.009	6.74
348.38	6.77
348.75	7.21
349.12	7.02
349.49	7.03
349.861	7.41
350.231	6.56
350.601	7.31
350.971	7.02
351.341	7.16
351.711	7.11
352.081	6.98
352.45	6.96
352.82	7.07
353.19	6.49
353.56	6.85
353.929	7.05
354.299	7.11
354.669	6.41
355.038	6.51
355.408	7.15
355.777	7.63
356.147	7.19
356.516	7.31
356.885	7.22
357.254	7.28
357.624	6.84
357.993	7
358.362	7.47
358.731	7.57
359.1	7.13
359.469	6.88
359.838	7.26
360.207	7.55
360.576	7.28
360.945	7.17
361.314	7.57
361.682	7.68
362.051	7.47
362.42	7.52
362.788	7.25
363.157	7.85
363.525	7.52
363.894	7.29
364.262	7.51
364.631	7.42
364.999	7.5
365.367	7.81
365.735	7.76
366.104	7.84
366.472	7.54
366.84	7.97
367.208	7.75
367.576	7.85
367.944	8.13
368.312	7.84
368.68	7.72
369.048	8.13
369.416	7.88
369.783	8.33
370.151	8.14
370.519	8.16
370.886	8.38
371.254	8.25
371.621	8.22
371.989	7.88
372.356	8.37
372.724	8.18
373.091	8
373.458	7.84
373.826	8.26
374.193	8.31
374.56	8.45
374.927	8.63
375.294	8.46
375.661	8.47
376.028	8.62
376.395	8.83
376.762	8.95
377.129	8.77
377.496	8.63
377.863	8.89
378.229	8.44
378.596	8.39
378.963	8.98
379.329	8.32
379.696	8.81
380.062	9.03
380.429	8.88
380.795	8.78
381.161	8.81
381.528	9.4
381.894	9.12
382.26	8.92
382.626	9.08
382.993	9.1
383.359	8.85
383.725	9.03
384.091	9.25
384.457	9.08
384.823	9.43
385.188	9.25
385.554	9.29
385.92	8.8
386.286	9.34
386.651	9.34
387.017	9.8
387.383	9.3
387.748	9.16
388.114	9.51
388.479	9.65
388.845	9.49
389.21	9.51
389.575	9.22
389.94	9.27
390.306	9.48
390.671	9.42
391.036	9.52
391.401	9.75
391.766	9.46
392.131	9.96
392.496	9.69
392.861	9.67
393.226	10
393.591	9.98
393.956	9.61
394.32	9.82
394.685	9.88
395.05	9.77
395.414	9.91
395.779	9.82
396.143	9.9
396.508	9.84
396.872	9.78
397.236	9.69
397.601	9.85
397.965	9.82
398.329	10.26
398.694	10
399.058	10.2
399.422	10.08
399.786	10.23
400.15	9.91
400.514	10.36
400.878	10.02
401.242	10.05
401.605	10.57
401.969	10.13
402.333	10.51
402.697	10.14
403.06	9.97
403.424	10.16
403.787	10.45
404.151	10.47
404.514	10.03
404.878	10.28
405.241	10.33
405.604	10.17
405.968	10.14
406.331	10.24
406.694	10.57
407.057	10.22
407.42	10.3
407.783	10.72
408.146	10.49
408.509	10.4
408.872	10.55
409.235	10.52
409.598	10.44
409.961	10.75
410.323	10.72
410.686	10.51
411.049	10.46
411.411	10.55
411.774	10.66
412.136	10.56
412.499	10.64
412.861	10.77
413.223	10.92
413.586	10.62
413.948	10.65
414.31	10.85
414.672	10.9
415.035	10.97
415.397	10.73
415.759	10.96
416.121	10.8
416.483	10.84
416.845	10.76
417.206	11.04
417.568	10.83
417.93	11.13
418.292	11.1
418.653	11.04
419.015	10.98
419.377	10.91
419.738	10.96
420.1	10.96
420.461	10.95
420.822	10.96
421.184	11.05
421.545	11.16
421.906	11.13
422.267	11.14
422.629	11.25
422.99	11.05
423.351	11.17
423.712	11.24
424.073	11.46
424.434	11.4
424.795	11.57
425.155	11.43
425.516	11.36
425.877	11.47
426.238	11.48
426.598	11.56
426.959	11.66
427.32	11.84
427.68	11.77
428.041	12.03
428.401	12.21
428.761	12.24
429.122	12.26
429.482	12.36
429.842	12.5
430.202	12.55
430.563	12.59
430.923	12.52
431.283	12.66
431.643	13
432.003	12.62
432.363	12.92
432.722	12.99
433.082	13.07
433.442	13.07
433.802	13.17
434.161	13.06
434.521	13.03
434.881	13.13
435.24	13.12
435.6	13.29
435.959	13.22
436.319	13.26
436.678	13.48
437.037	13.49
437.396	13.47
437.756	13.56
438.115	13.82
438.474	13.62
438.833	13.84
439.192	13.96
439.551	13.82
439.91	13.66
440.269	13.88
440.628	13.91
440.987	13.84
441.345	14.04
441.704	13.78
442.063	14.04
442.421	14.05
442.78	13.99
443.138	14.08
443.497	14.32
443.855	14.38
444.214	14.43
444.572	14.56
444.93	14.37
445.288	14.41
445.647	14.88
446.005	14.57
446.363	14.65
446.721	14.66
447.079	14.72
447.437	14.59
447.795	14.8
448.153	14.73
448.51	14.76
448.868	14.79
449.226	15
449.584	14.94
449.941	15.07
450.299	15.02
450.656	15.32
451.014	15.3
451.371	15.44
451.729	15.62
452.086	15.61
452.443	15.79
452.801	15.81
453.158	15.63
453.515	15.69
453.872	15.74
454.229	15.74
454.586	15.72
454.943	15.92
455.3	15.93
455.657	15.97
456.014	16.16
456.371	16.3
456.727	16.24
457.084	16.25
457.441	16.58
457.797	16.42
458.154	16.51
458.51	16.31
458.867	16.6
459.223	16.72
459.58	16.65
459.936	16.7
460.292	16.55
460.648	16.56
461.005	16.72
461.361	16.71
461.717	16.62
462.073	16.5
462.429	16.73
462.785	16.78
463.141	17.04
463.496	17.03
463.852	17.25
464.208	17.31
464.564	17.46
464.919	17.52
465.275	17.38
465.631	17.67
465.986	17.67
466.342	17.62
466.697	17.62
467.052	17.98
467.408	17.79
467.763	17.79
468.118	17.89
468.473	18.1
468.829	17.87
469.184	18.01
469.539	18.11
469.894	18.28
470.249	18.26
470.603	18.46
470.958	18.31
471.313	18.56
471.668	18.73
472.023	18.52
472.377	18.55
472.732	18.74
473.086	18.53
473.441	18.74
473.795	18.84
474.15	19.09
474.504	18.81
474.859	18.86
475.213	18.82
475.567	19.18
475.921	19.05
476.275	19.25
476.63	19.22
476.984	19.15
477.338	19.23
477.692	19.38
478.045	19.42
478.399	19.24
478.753	19.34
479.107	19.58
479.461	19.57
479.814	19.57
480.168	19.52
480.521	19.45
480.875	19.71
481.228	19.73
481.582	19.89
481.935	19.95
482.289	19.8
482.642	19.96
482.995	19.76
483.348	19.81
483.701	19.92
484.055	19.84
484.408	19.69
484.761	19.52
485.114	19.15
485.466	18.98
485.819	18.88
486.172	19.01
486.525	19.16
486.878	19.34
487.23	19.57
487.583	19.69
487.936	19.99
488.288	19.88
488.641	19.8
488.993	19.67
489.345	19.66
489.698	19.63
490.05	19.78
490.402	19.94
490.754	20.03
491.107	20.3
491.459	20.47
491.811	20.6
492.163	20.67
492.515	20.79
492.866	20.58
493.218	20.35
493.57	20.21
493.922	20.27
494.274	20.6
494.625	20.78
494.977	21.09
495.328	21.29
495.68	21.26
496.031	21.84
496.383	21.71
496.734	21.96
497.086	21.91
497.437	21.91
497.788	21.95
498.139	21.89
498.49	21.96
498.842	21.75
499.193	21.89
499.544	21.99
499.894	21.95
500.245	22.14
500.596	22.25
500.947	22.28
501.298	22.23
501.648	22.55
501.999	22.51
502.35	22.6
502.7	22.64
503.051	22.76
503.401	22.79
503.752	22.8
504.102	22.85
504.452	22.82
504.803	22.98
505.153	23.04
505.503	23
505.853	23.1
506.203	22.9
506.553	23.21
506.903	23.22
507.253	23.16
507.603	23.35
507.953	23.32
508.303	23.48
508.652	23.56
509.002	23.55
509.352	23.51
509.701	23.55
510.051	23.65
510.4	23.3
510.75	23.47
511.099	23.42
511.449	23.38
511.798	23.54
512.147	23.55
512.496	23.73
512.846	23.63
513.195	23.53
513.544	23.64
513.893	23.79
514.242	23.74
514.591	23.67
514.939	24
515.288	23.89
515.637	24.1
515.986	24.12
516.334	24.36
516.683	24.17
517.032	24.53
517.38	24.35
517.729	24.42
518.077	24.46
518.426	24.42
518.774	24.38
519.122	24.32
519.47	24.39
519.819	24.24
520.167	24.11
520.515	23.97
520.863	23.91
521.211	24.11
521.559	24.2
521.907	24.29
522.255	24.42
522.602	24.68
522.95	24.75
523.298	24.74
523.645	24.87
523.993	25.06
524.341	25.19
524.688	25.16
525.036	25.25
525.383	25.2
525.73	24.98
526.078	25.17
526.425	25.07
526.772	24.98
527.119	24.9
527.466	24.81
527.814	24.7
528.161	24.93
528.508	24.87
528.854	24.85
529.201	24.79
529.548	24.74
529.895	24.49
530.242	24.22
530.588	24.11
530.935	24.27
531.282	24.44
531.628	24.56
531.975	24.72
532.321	24.9
532.667	25.02
533.014	25.25
533.36	25.26
533.706	25.46
534.052	25.52
534.399	25.52
534.745	25.28
535.091	24.92
535.437	25.05
535.783	25.12
536.129	25.42
536.474	25.44
536.82	25.73
537.166	25.87
537.512	26.21
537.857	26.09
538.203	25.99
538.549	25.8
538.894	25.93
539.239	26.05
539.585	26.11
539.93	26.39
540.276	26.45
540.621	26.57
540.966	26.51
541.311	26.76
541.656	26.69
542.001	26.67
542.346	26.44
542.691	26.19
543.036	25.84
543.381	25.76
543.726	25.92
544.071	26.16
544.415	26.17
544.76	26.25
545.105	26.43
545.449	26.52
545.794	26.83
546.138	26.81
546.483	27.09
546.827	27.08
547.171	27.19
547.516	27.21
547.86	27.46
548.204	27.21
548.548	27.31
548.892	27.2
549.236	27.46
549.58	27.49
549.924	27.62
550.268	27.85
550.612	27.86
550.956	27.88
551.3	28.19
551.643	28.48
551.987	28.5
552.33	28.44
552.674	28.56
553.017	28.66
553.361	28.82
553.704	28.55
554.048	28.67
554.391	28.5
554.734	28.44
555.077	28.8
555.42	28.55
555.764	28.69
556.107	28.9
556.45	28.71
556.793	28.75
557.135	28.68
557.478	29.12
557.821	29.09
558.164	29.17
558.507	29.5
558.849	29.57
559.192	29.16
559.534	29.56
559.877	29.42
560.219	29.52
560.562	29.61
560.904	29.74
561.246	29.74
561.589	29.58
561.931	29.76
562.273	29.87
562.615	29.94
562.957	29.77
563.299	29.87
563.641	29.79
563.983	29.87
564.325	29.97
564.667	30
565.008	29.99
565.35	29.91
565.692	30.06
566.033	30.16
566.375	30.13
566.716	29.94
567.058	30.31
567.399	30.19
567.741	30
568.082	30.02
568.423	30.04
568.764	30.06
569.105	29.99
569.447	30.21
569.788	30.13
570.129	30.31
570.47	30.57
570.811	30.6
571.151	30.63
571.492	30.61
571.833	30.86
572.174	30.66
572.514	30.6
572.855	30.76
573.195	30.71
573.536	30.64
573.876	30.61
574.217	30.53
574.557	30.68
574.898	30.76
575.238	30.96
575.578	31.03
575.918	30.8
576.258	31.16
576.598	30.89
576.938	30.98
577.278	31.12
577.618	31.22
577.958	31.05
578.298	31.45
578.638	31.6
578.977	31.47
579.317	31.76
579.657	31.73
579.996	31.85
580.336	31.74
580.675	31.75
581.014	32.14
581.354	32.05
581.693	32.17
582.032	32.21
582.372	32.35
582.711	32.2
583.05	32.6
583.389	32.38
583.728	32.48
584.067	32.84
584.406	32.59
584.745	32.71
585.083	32.45
585.422	32.71
585.761	33.04
586.1	32.85
586.438	32.99
586.777	32.75
587.115	32.97
587.454	32.94
587.792	32.64
588.13	32.94
588.469	32.72
588.807	32.99
589.145	33.01
589.483	33.35
589.821	33.59
590.159	33.26
590.497	32.94
590.835	33.37
591.173	33.17
591.511	33.39
591.849	33.26
592.187	33.35
592.524	33.52
592.862	33.35
593.2	33.21
593.537	33.68
593.875	33.72
594.212	33.59
594.55	33.65
594.887	33.74
595.224	33.55
595.561	33.78
595.899	33.76
596.236	33.62
596.573	33.77
596.91	33.72
597.247	34.2
597.584	33.78
597.921	33.69
598.258	33.91
598.594	33.86
598.931	33.66
599.268	33.36
599.604	33.91
599.941	34.09
600.277	33.89
600.614	34.14
600.95	34.44
601.287	34.37
601.623	34.59
601.959	34.8
602.296	34.74
602.632	34.32
602.968	34.87
603.304	34.85
603.64	34.69
603.976	34.39
604.312	34.92
604.648	34.79
604.984	34.63
605.319	34.71
605.655	34.45
605.991	34.8
606.326	34.65
606.662	34.36
606.998	34.53
607.333	34.85
607.668	34.73
608.004	34.96
608.339	34.83
608.674	35.46
609.01	35.16
609.345	35.36
609.68	35.48
610.015	35.21
610.35	35.51
610.685	35.96
611.02	35.46
611.355	35.33
611.689	35.02
612.024	35.12
612.359	35.46
612.694	35.44
613.028	35.81
613.363	35.74
613.697	35.82
614.032	35.99
614.366	35.92
614.7	35.92
615.035	36.19
615.369	36.51
615.703	36.19
616.037	36.27
616.371	36.11
616.705	36.55
617.039	36.31
617.373	35.91
617.707	36.67
618.041	36.14
618.375	36.3
618.709	36.34
619.042	36.26
619.376	36.46
619.71	36.64
620.043	36.29
620.377	36.36
620.71	36.43
621.043	36.38
621.377	36.49
621.71	36.76
622.043	37
622.376	37.12
622.709	37.03
623.043	37.05
623.376	36.81
623.709	37.13
624.041	37.18
624.374	37.38
624.707	37.11
625.04	37.39
625.373	37.07
625.705	37.34
626.038	36.83
626.37	37.5
626.703	37.61
627.035	36.74
627.368	37.57
627.7	37.31
628.032	37.09
628.365	37.48
628.697	37.65
629.029	37.37
629.361	37.51
629.693	37.38
630.025	37.56
630.357	37.55
630.689	37.34
631.021	37.94
631.353	37.95
631.684	37.43
632.016	37.9
632.348	37.94
632.679	37.7
633.011	37.99
633.342	38.21
633.674	38.29
634.005	38.55
634.336	38.08
634.668	38.01
634.999	38.3
635.33	38.21
635.661	38.26
635.992	38.67
636.323	37.7
636.654	38.54
636.985	38.52
637.316	38.48
637.647	38.16
637.977	38.4
638.308	38.81
638.639	38.84
638.969	38.64
639.3	38.75
639.63	39.21
639.961	39.11
640.291	39.32
640.622	38.73
640.952	38.92
641.282	39.36
641.612	39.24
641.943	39.47
642.273	38.63
642.603	39.47
642.933	39.56
643.263	39.13
643.592	39.31
643.922	39.29
644.252	39.58
644.582	39.2
644.911	39.48
645.241	39.5
645.571	39.44
645.9	39.74
646.23	39.86
646.559	40.26
646.888	39.49
647.218	39.62
647.547	40.02
647.876	39.28
648.205	39.91
648.534	39.48
648.863	39.72
649.192	39.79
649.521	40.2
649.85	40.13
650.179	39.93
650.508	40.12
650.837	40.29
651.165	40.21
651.494	39.87
651.822	40.58
652.151	40.68
652.479	40.04
652.808	40.02
653.136	40.07
653.465	40.14
653.793	40.52
654.121	40.46
654.449	40.19
654.777	40.7
655.105	40.97
655.433	41.25
655.761	40.58
656.089	40.64
656.417	41.56
656.745	40.54
657.073	40.15
657.4	40.52
657.728	40.66
658.056	40.77
658.383	40.18
658.711	40.82
659.038	41.13
659.365	40.95
659.693	40.47
660.02	40.65
660.347	41.88
660.674	41.04
661.001	40.83
661.329	40.93
661.656	40.67
661.982	41.02
662.309	41.42
662.636	41.23
662.963	41.48
663.29	41.8
663.616	41.75
663.943	41.71
664.27	41.59
664.596	41.31
664.923	41.98
665.249	40.72
665.576	41.46
665.902	41.77
666.228	42.24
666.554	41.86
666.881	41.37
667.207	40.89
667.533	42.08
667.859	40.99
668.185	41.55
668.511	42.19
668.837	41.71
669.162	41.94
669.488	41.52
669.814	42.7
670.139	41.53
670.465	41.49
670.791	42.01
671.116	41.96
671.442	41.74
671.767	42.19
672.092	42.69
672.418	42.09
672.743	42.29
673.068	42.15
673.393	41.96
673.718	42.96
