Data from 0403_forehead_Reflection__1__178.txt Node

Date: Tue Dec 12 19:50:34 CST 2023
User: ToomeyLab
Spectrometer: FLMS14357
Trigger mode: 0
Integration Time (sec): 1.000000E-2
Scans to average: 100
Electric dark correction enabled: true
Nonlinearity correction enabled: false
Boxcar width: 0
XAxis mode: Wavelengths
Number of Pixels in Spectrum: 2048
>>>>>Begin Spectral Data<<<<<
189.047	32.19
189.435	32.19
189.823	32.19
190.211	17.15
190.599	59.92
190.987	397.73
191.375	-66.19
191.763	350.62
192.151	171.43
192.538	-5.21
192.926	318.26
193.314	149.62
193.702	30.42
194.089	98.45
194.477	0.68
194.864	30.26
195.252	-374.19
195.639	53.56
196.027	581.82
196.414	193.61
196.801	382.17
197.189	122.67
197.576	85.46
197.963	6.6
198.351	7.02
198.738	39.7
199.125	-24.92
199.512	-13.87
199.899	-3.24
200.286	15.17
200.673	5.52
201.06	19.13
201.447	-46.1
201.833	-18.32
202.22	-3.4
202.607	-83.46
202.994	-21.52
203.38	-16.08
203.767	12.58
204.154	10.93
204.54	23.44
204.927	-8.18
205.313	41.16
205.699	-10.5
206.086	-17.85
206.472	46.48
206.858	-10.65
207.245	7.57
207.631	20.93
208.017	-5.24
208.403	-27.49
208.789	17.92
209.175	37.4
209.561	-0.71
209.947	-2.96
210.333	11.66
210.719	20.01
211.105	-22.08
211.491	16.44
211.876	10.12
212.262	-11.54
212.648	-24.94
213.034	-47
213.419	-13.76
213.805	-0.94
214.19	20.82
214.576	17.21
214.961	0
215.346	-13.83
215.732	35.72
216.117	15.3
216.502	-31.8
216.888	-17.97
217.273	-21.14
217.658	-54.15
218.043	-16.13
218.428	12.55
218.813	-6.78
219.198	-39.55
219.583	6.87
219.968	13.42
220.353	-40.59
220.738	0.56
221.122	-1.68
221.507	-12.52
221.892	-6.18
222.276	7.6
222.661	-6.13
223.046	-6.7
223.43	-3.49
223.815	-1.66
224.199	12.25
224.583	5.19
224.968	10.05
225.352	-0.56
225.736	8
226.121	-13.49
226.505	6.2
226.889	-0.03
227.273	-1.48
227.657	6.81
228.041	2.03
228.425	1.5
228.809	2.78
229.193	-0.87
229.577	2.23
229.961	0.07
230.344	1.86
230.728	3.03
231.112	1.78
231.495	2.5
231.879	3.06
232.263	0.44
232.646	0.24
233.03	1.2
233.413	0.46
233.797	2.19
234.18	0.11
234.563	-0.12
234.946	2.15
235.33	4.75
235.713	1.79
236.096	0.48
236.479	2.14
236.862	2.49
237.245	1.65
237.628	2.47
238.011	2.83
238.394	2.76
238.777	3.46
239.16	2.66
239.543	-0.11
239.925	3.37
240.308	1.03
240.691	2.36
241.073	1.97
241.456	1.33
241.838	1.64
242.221	2.46
242.603	2.13
242.986	1.87
243.368	2.74
243.75	1.32
244.133	2.21
244.515	2.48
244.897	2.51
245.279	2.79
245.661	1
246.043	1.33
246.425	1.81
246.807	1.5
247.189	2.52
247.571	2.5
247.953	2.54
248.335	1.84
248.717	2.16
249.098	2.08
249.48	2
249.862	1.66
250.243	1.77
250.625	2.93
251.006	2.1
251.388	1.84
251.769	1.92
252.151	1.58
252.532	2.53
252.913	1.89
253.295	3.25
253.676	1.52
254.057	1.65
254.438	1.95
254.819	2.31
255.2	1.39
255.581	1.73
255.962	1.36
256.343	2.43
256.724	0.53
257.105	2.85
257.486	1.72
257.867	1.5
258.247	1.31
258.628	1.8
259.009	1.95
259.389	2.24
259.77	1.78
260.15	2.04
260.531	2.46
260.911	2.34
261.292	1.52
261.672	1.83
262.052	2.01
262.432	1.82
262.813	2.27
263.193	2.02
263.573	2.04
263.953	3.6
264.333	3.36
264.713	1.81
265.093	2.04
265.473	2.35
265.853	1.07
266.233	1.41
266.612	1.43
266.992	1.9
267.372	2.61
267.752	2.31
268.131	0.9
268.511	1.12
268.89	1.28
269.27	1.46
269.649	2.4
270.029	1.78
270.408	2.43
270.787	1.52
271.167	1.77
271.546	2.29
271.925	2.21
272.304	2.85
272.683	1.75
273.062	1.62
273.441	1.64
273.82	1.32
274.199	1.56
274.578	2.03
274.957	1.85
275.336	2.08
275.715	2.11
276.093	1.01
276.472	1.84
276.851	1.58
277.229	1.77
277.608	1.83
277.986	1.65
278.365	1.6
278.743	1.83
279.122	2.07
279.5	1.16
279.878	1.2
280.257	1.26
280.635	1.96
281.013	2.1
281.391	2.53
281.769	2.25
282.147	1.76
282.525	1.6
282.903	1.59
283.281	2.14
283.659	2.09
284.037	1.66
284.415	1.93
284.792	1.56
285.17	1.88
285.548	1.95
285.925	1.67
286.303	1.7
286.68	1.99
287.058	2.04
287.435	1.85
287.813	1.61
288.19	2.03
288.567	1.97
288.945	2.09
289.322	1.48
289.699	2.26
290.076	1.54
290.453	2.46
290.83	1.61
291.207	2.32
291.584	2.34
291.961	2.15
292.338	2.07
292.715	1.75
293.092	1.69
293.469	2.16
293.845	2.57
294.222	2.07
294.599	1.54
294.975	2.41
295.352	2.19
295.728	2.08
296.105	1.78
296.481	2.21
296.858	1.94
297.234	2.46
297.61	2.27
297.986	2.18
298.363	2.29
298.739	2.16
299.115	1.99
299.491	2.28
299.867	1.78
300.243	2.01
300.619	2.08
300.995	2.51
301.371	2.52
301.746	1.94
302.122	2.97
302.498	2.3
302.874	2.44
303.249	3.13
303.625	2.14
304	2.69
304.376	2.25
304.751	2.62
305.127	2.46
305.502	2.8
305.878	2.28
306.253	2.4
306.628	2.61
307.003	1.88
307.378	2.49
307.754	3.11
308.129	2.01
308.504	3.2
308.879	2.11
309.254	2.69
309.629	1.84
310.003	3.06
310.378	3.4
310.753	3.09
311.128	3.5
311.502	2.29
311.877	2.46
312.252	2.43
312.626	2.8
313.001	2.57
313.375	2.3
313.75	2.88
314.124	2.95
314.498	2.65
314.873	2.71
315.247	3.42
315.621	2.79
315.995	3.17
316.369	2.91
316.743	2.43
317.117	2.63
317.491	2.59
317.865	3.39
318.239	2.9
318.613	3.59
318.987	2.84
319.361	2.78
319.734	3.02
320.108	3.48
320.482	3
320.855	2.96
321.229	2.95
321.602	3.23
321.976	3.29
322.349	4.21
322.723	2.72
323.096	3.45
323.469	3.05
323.843	4.19
324.216	3.7
324.589	3.56
324.962	3.77
325.335	3.64
325.708	3.9
326.081	3.48
326.454	3.53
326.827	3.91
327.2	3.22
327.573	3.55
327.945	3.7
328.318	4.29
328.691	2.73
329.063	3.61
329.436	3.86
329.809	4.02
330.181	2.62
330.553	3.29
330.926	3.95
331.298	3.72
331.671	3.7
332.043	3.36
332.415	3.57
332.787	3.48
333.159	3.38
333.532	3.66
333.904	3.97
334.276	4.07
334.648	3.69
335.02	3.71
335.391	3.79
335.763	3.79
336.135	3.9
336.507	4.39
336.879	3.53
337.25	4.1
337.622	3.97
337.993	4.14
338.365	3.64
338.736	4.08
339.108	4.13
339.479	4.27
339.851	3.88
340.222	3.48
340.593	3.9
340.964	4.31
341.336	3.99
341.707	3.94
342.078	3.57
342.449	4.45
342.82	4.37
343.191	3.61
343.562	4.28
343.933	4.8
344.303	4.63
344.674	4.68
345.045	4.34
345.416	4.29
345.786	3.76
346.157	4.44
346.527	4.69
346.898	4.45
347.268	4.26
347.639	4.41
348.009	4.18
348.38	4.07
348.75	4.38
349.12	5.04
349.49	4.38
349.861	4.72
350.231	4.03
350.601	4.93
350.971	4.3
351.341	4.55
351.711	4.59
352.081	4.66
352.45	4.32
352.82	4.43
353.19	4.39
353.56	4.23
353.929	4.6
354.299	4.4
354.669	4.5
355.038	4.29
355.408	4.44
355.777	5.04
356.147	4.35
356.516	4.85
356.885	4.8
357.254	4.6
357.624	4.63
357.993	4.35
358.362	4.66
358.731	4.96
359.1	4.67
359.469	4.81
359.838	5.24
360.207	4.83
360.576	4.94
360.945	4.69
361.314	5.04
361.682	4.66
362.051	5.19
362.42	5.09
362.788	4.69
363.157	5.39
363.525	5.15
363.894	4.93
364.262	4.83
364.631	4.77
364.999	5.2
365.367	5.22
365.735	4.68
366.104	4.83
366.472	4.95
366.84	5.21
367.208	5.38
367.576	5.17
367.944	5.02
368.312	4.77
368.68	4.85
369.048	5.21
369.416	4.93
369.783	5.26
370.151	5.3
370.519	5.69
370.886	5.73
371.254	5.3
371.621	5.59
371.989	5.15
372.356	5.27
372.724	5.17
373.091	5.5
373.458	5.42
373.826	5.55
374.193	5.24
374.56	5.37
374.927	5.87
375.294	5.55
375.661	5.82
376.028	5.68
376.395	5.72
376.762	6.1
377.129	5.64
377.496	5.58
377.863	5.77
378.229	5.66
378.596	5.2
378.963	5.88
379.329	5.48
379.696	5.79
380.062	6.13
380.429	5.73
380.795	5.81
381.161	6.06
381.528	5.85
381.894	5.88
382.26	5.76
382.626	5.97
382.993	6.08
383.359	5.46
383.725	6.01
384.091	6.08
384.457	5.87
384.823	6
385.188	5.93
385.554	6.36
385.92	6.16
386.286	6.31
386.651	6.16
387.017	6.37
387.383	6.13
387.748	6.38
388.114	6.32
388.479	6.39
388.845	5.97
389.21	6.21
389.575	6.11
389.94	6.25
390.306	6.38
390.671	6.33
391.036	6.2
391.401	6.34
391.766	6.46
392.131	6.2
392.496	6.36
392.861	6.21
393.226	6.74
393.591	6.32
393.956	6.31
394.32	6.52
394.685	6.51
395.05	6.22
395.414	6.6
395.779	6.47
396.143	6.6
396.508	6.35
396.872	6.52
397.236	6.43
397.601	6.54
397.965	6.57
398.329	6.59
398.694	6.57
399.058	6.94
399.422	6.67
399.786	6.61
400.15	6.58
400.514	6.68
400.878	6.63
401.242	6.81
401.605	6.8
401.969	6.85
402.333	6.96
402.697	6.77
403.06	6.56
403.424	7.06
403.787	6.58
404.151	6.78
404.514	6.48
404.878	6.88
405.241	6.83
405.604	6.62
405.968	6.55
406.331	6.84
406.694	6.83
407.057	6.67
407.42	6.75
407.783	6.72
408.146	6.92
408.509	6.83
408.872	6.95
409.235	7.06
409.598	6.96
409.961	7.03
410.323	7.11
410.686	7.09
411.049	7.04
411.411	7.08
411.774	7.13
412.136	6.94
412.499	7.02
412.861	7
413.223	7.25
413.586	6.91
413.948	7.22
414.31	7.28
414.672	7.31
415.035	7.26
415.397	7.3
415.759	7.13
416.121	7.16
416.483	7.2
416.845	7.13
417.206	7.46
417.568	7.26
417.93	7.29
418.292	7.22
418.653	7.37
419.015	7.45
419.377	7.3
419.738	7.19
420.1	7.18
420.461	7.39
420.822	7.39
421.184	7.26
421.545	7.54
421.906	7.46
422.267	7.29
422.629	7.31
422.99	7.38
423.351	7.36
423.712	7.39
424.073	7.44
424.434	7.54
424.795	7.58
425.155	7.48
425.516	7.45
425.877	7.61
426.238	7.55
426.598	7.66
426.959	7.69
427.32	7.76
427.68	7.73
428.041	7.8
428.401	7.91
428.761	7.93
429.122	8.12
429.482	8.25
429.842	8.09
430.202	8.1
430.563	8.1
430.923	8.26
431.283	8.18
431.643	8.29
432.003	8.42
432.363	8.51
432.722	8.31
433.082	8.18
433.442	8.26
433.802	8.64
434.161	8.51
434.521	8.55
434.881	8.51
435.24	8.47
435.6	8.5
435.959	8.53
436.319	8.47
436.678	8.7
437.037	8.67
437.396	8.65
437.756	8.69
438.115	8.78
438.474	8.66
438.833	8.9
439.192	9
439.551	8.93
439.91	8.78
440.269	8.89
440.628	8.84
440.987	8.69
441.345	9
441.704	8.87
442.063	8.96
442.421	8.99
442.78	8.96
443.138	9.05
443.497	9.08
443.855	9.03
444.214	9.26
444.572	9.36
444.93	9.16
445.288	9.18
445.647	9.38
446.005	9.19
446.363	9.2
446.721	9.36
447.079	9.32
447.437	9.24
447.795	9.39
448.153	9.23
448.51	9.38
448.868	9.41
449.226	9.45
449.584	9.46
449.941	9.63
450.299	9.72
450.656	9.67
451.014	9.85
451.371	9.82
451.729	9.93
452.086	9.83
452.443	10.04
452.801	9.92
453.158	10.01
453.515	10
453.872	10
454.229	10.01
454.586	9.88
454.943	10.04
455.3	10.02
455.657	9.98
456.014	10.33
456.371	10.39
456.727	10.29
457.084	10.24
457.441	10.22
457.797	10.18
458.154	10.22
458.51	10.18
458.867	10.36
459.223	10.46
459.58	10.46
459.936	10.41
460.292	10.43
460.648	10.41
461.005	10.39
461.361	10.27
461.717	10.29
462.073	10.39
462.429	10.55
462.785	10.57
463.141	10.59
463.496	10.72
463.852	10.87
464.208	10.82
464.564	10.76
464.919	11.08
465.275	11.06
465.631	11.26
465.986	10.92
466.342	10.73
466.697	11.06
467.052	11.37
467.408	11
467.763	11.21
468.118	11.28
468.473	11.23
468.829	11.19
469.184	11.11
469.539	11.23
469.894	11.35
470.249	11.28
470.603	11.38
470.958	11.25
471.313	11.62
471.668	11.48
472.023	11.56
472.377	11.32
472.732	11.69
473.086	11.56
473.441	11.56
473.795	11.71
474.15	11.7
474.504	11.61
474.859	11.61
475.213	11.76
475.567	11.91
475.921	11.83
476.275	11.76
476.63	11.99
476.984	11.84
477.338	11.7
477.692	11.78
478.045	11.99
478.399	11.91
478.753	12.05
479.107	12.03
479.461	12.08
479.814	11.95
480.168	11.95
480.521	11.99
480.875	12.26
481.228	12.07
481.582	12.12
481.935	12.29
482.289	12.34
482.642	12.33
482.995	12.25
483.348	12.13
483.701	12.29
484.055	12.24
484.408	12.05
484.761	11.91
485.114	11.71
485.466	11.54
485.819	11.46
486.172	11.53
486.525	11.71
486.878	11.81
487.23	11.9
487.583	12
487.936	12.2
488.288	12.14
488.641	12.11
488.993	12
489.345	12.02
489.698	11.91
490.05	11.96
490.402	12.12
490.754	12.21
491.107	12.34
491.459	12.6
491.811	12.67
492.163	12.74
492.515	12.84
492.866	12.52
493.218	12.29
493.57	12.28
493.922	12.42
494.274	12.58
494.625	12.68
494.977	12.87
495.328	12.92
495.68	12.95
496.031	13.3
496.383	13.17
496.734	13.38
497.086	13.2
497.437	13.39
497.788	13.36
498.139	13.4
498.49	13.3
498.842	13.19
499.193	13.31
499.544	13.34
499.894	13.45
500.245	13.44
500.596	13.48
500.947	13.47
501.298	13.55
501.648	13.7
501.999	13.7
502.35	13.85
502.7	13.72
503.051	13.72
503.401	13.77
503.752	13.92
504.102	13.98
504.452	13.97
504.803	14.01
505.153	14.09
505.503	14.16
505.853	14.14
506.203	13.97
506.553	14.1
506.903	14.19
507.253	14.22
507.603	14.18
507.953	14.12
508.303	14.12
508.652	14.16
509.002	14.27
509.352	14.15
509.701	14.27
510.051	14.1
510.4	14.09
510.75	14.29
511.099	14.2
511.449	14.41
511.798	14.28
512.147	14.31
512.496	14.48
512.846	14.34
513.195	14.32
513.544	14.46
513.893	14.45
514.242	14.47
514.591	14.4
514.939	14.51
515.288	14.43
515.637	14.69
515.986	14.64
516.334	14.78
516.683	14.74
517.032	14.89
517.38	14.85
517.729	15.02
518.077	14.72
518.426	14.85
518.774	14.8
519.122	14.8
519.47	14.7
519.819	14.66
520.167	14.61
520.515	14.44
520.863	14.6
521.211	14.74
521.559	14.7
521.907	14.71
522.255	14.93
522.602	15.01
522.95	15.11
523.298	14.97
523.645	15.23
523.993	15.33
524.341	15.26
524.688	15.26
525.036	15.25
525.383	15.2
525.73	15.08
526.078	15.12
526.425	15.25
526.772	15.18
527.119	15.1
527.466	14.97
527.814	14.96
528.161	15.03
528.508	15.04
528.854	15.11
529.201	15.14
529.548	15.01
529.895	14.77
530.242	14.57
530.588	14.5
530.935	14.6
531.282	14.72
531.628	14.86
531.975	14.97
532.321	15
532.667	15.07
533.014	15.39
533.36	15.34
533.706	15.38
534.052	15.33
534.399	15.4
534.745	15.34
535.091	15.04
535.437	15.13
535.783	15.13
536.129	15.38
536.474	15.39
536.82	15.54
537.166	15.73
537.512	15.76
537.857	15.76
538.203	15.67
538.549	15.63
538.894	15.8
539.239	15.8
539.585	15.77
539.93	16.01
540.276	16.11
540.621	16.11
540.966	16.22
541.311	16.21
541.656	16.22
542.001	16.19
542.346	15.9
542.691	15.88
543.036	15.53
543.381	15.54
543.726	15.64
544.071	15.7
544.415	15.86
544.76	15.83
545.105	15.98
545.449	16.1
545.794	16.15
546.138	16.16
546.483	16.44
546.827	16.44
547.171	16.48
547.516	16.45
547.86	16.6
548.204	16.44
548.548	16.47
548.892	16.56
549.236	16.64
549.58	16.76
549.924	16.82
550.268	16.93
550.612	16.96
550.956	16.96
551.3	17.13
551.643	17.24
551.987	17.22
552.33	17.13
552.674	17.36
553.017	17.32
553.361	17.34
553.704	17.18
554.048	17.33
554.391	17.21
554.734	17.05
555.077	17.46
555.42	17.26
555.764	17.67
556.107	17.46
556.45	17.39
556.793	17.46
557.135	17.42
557.478	17.7
557.821	17.58
558.164	17.56
558.507	17.66
558.849	17.65
559.192	17.84
559.534	17.72
559.877	17.8
560.219	17.7
560.562	17.89
560.904	18.11
561.246	17.8
561.589	17.87
561.931	17.98
562.273	17.81
562.615	17.95
562.957	18.03
563.299	18.08
563.641	17.96
563.983	17.96
564.325	18.12
564.667	18.09
565.008	17.86
565.35	18.19
565.692	18.14
566.033	18.33
566.375	18.24
566.716	18.12
567.058	18.25
567.399	18.28
567.741	18.29
568.082	18.09
568.423	18.18
568.764	18.25
569.105	18.2
569.447	18.17
569.788	18.21
570.129	18.16
570.47	18.47
570.811	18.42
571.151	18.44
571.492	18.42
571.833	18.72
572.174	18.4
572.514	18.4
572.855	18.5
573.195	18.59
573.536	18.45
573.876	18.59
574.217	18.55
574.557	18.52
574.898	18.56
575.238	18.78
575.578	18.49
575.918	18.77
576.258	18.87
576.598	18.79
576.938	18.71
577.278	18.73
577.618	19.02
577.958	18.86
578.298	19.07
578.638	18.86
578.977	18.81
579.317	19.03
579.657	18.94
579.996	19.3
580.336	19.21
580.675	19.23
581.014	19.21
581.354	19.17
581.693	19.45
582.032	19.5
582.372	19.46
582.711	19.42
583.05	19.67
583.389	19.8
583.728	19.57
584.067	19.72
584.406	19.97
584.745	19.84
585.083	19.64
585.422	19.81
585.761	19.93
586.1	19.83
586.438	19.98
586.777	19.92
587.115	20
587.454	19.88
587.792	19.7
588.13	19.95
588.469	19.88
588.807	20.01
589.145	19.8
589.483	19.81
589.821	20.1
590.159	19.87
590.497	19.99
590.835	20.01
591.173	20.06
591.511	20.11
591.849	19.74
592.187	20.47
592.524	20.13
592.862	20.08
593.2	20.01
593.537	19.74
593.875	20.33
594.212	20.16
594.55	20.29
594.887	20.42
595.224	20.2
595.561	20.84
595.899	20.19
596.236	20.43
596.573	20.35
596.91	20.54
597.247	20.51
597.584	20.45
597.921	20.33
598.258	20.18
598.594	20.33
598.931	20.3
599.268	20.06
599.604	20.14
599.941	20.27
600.277	20.33
600.614	20.54
600.95	20.43
601.287	20.7
601.623	21.04
601.959	20.75
602.296	21.05
602.632	20.51
602.968	20.92
603.304	20.77
603.64	20.76
603.976	20.73
604.312	20.74
604.648	20.74
604.984	20.78
605.319	20.54
605.655	20.72
605.991	20.66
606.326	20.61
606.662	20.7
606.998	20.67
607.333	21.02
607.668	20.72
608.004	20.93
608.339	20.99
608.674	21.11
609.01	20.94
609.345	21.46
609.68	21.39
610.015	21.21
610.35	20.98
610.685	21.44
611.02	21.32
611.355	21.01
611.689	21.15
612.024	21.01
612.359	21.08
612.694	21.13
613.028	21.46
613.363	21.35
613.697	21.28
614.032	21.37
614.366	21.8
614.7	21.53
615.035	21.79
615.369	21.59
615.703	21.67
616.037	21.52
616.371	21.79
616.705	21.95
617.039	21.75
617.373	21.69
617.707	21.57
618.041	21.63
618.375	21.96
618.709	21.86
619.042	21.97
619.376	21.81
619.71	21.58
620.043	21.8
620.377	21.8
620.71	21.61
621.043	21.71
621.377	21.31
621.71	21.9
622.043	22.17
622.376	22.36
622.709	22.38
623.043	22.48
623.376	22.12
623.709	22.33
624.041	22.2
624.374	22.25
624.707	22.34
625.04	22.02
625.373	22.31
625.705	22.52
626.038	22.52
626.37	22.65
626.703	22.39
627.035	22.03
627.368	22.65
627.7	22.39
628.032	22.21
628.365	22.11
628.697	22.47
629.029	22.33
629.361	22.22
629.693	22.44
630.025	21.97
630.357	22.56
630.689	22.37
631.021	23.06
631.353	22.6
631.684	22.08
632.016	22.62
632.348	22.62
632.679	22.54
633.011	22.61
633.342	22.82
633.674	22.55
634.005	23.07
634.336	22.85
634.668	22.84
634.999	22.97
635.33	22.63
635.661	22.95
635.992	22.66
636.323	22.49
636.654	22.62
636.985	22.87
637.316	23.09
637.647	23.17
637.977	23.07
638.308	23.06
638.639	23.29
638.969	23.39
639.3	23.1
639.63	23.12
639.961	23.19
640.291	22.9
640.622	23.14
640.952	23.57
641.282	23.16
641.612	23.13
641.943	23.52
642.273	23.42
642.603	23.5
642.933	23.54
643.263	22.94
643.592	23.29
643.922	23.55
644.252	23.05
644.582	23.05
644.911	23.55
645.241	23.36
645.571	23.5
645.9	24.11
646.23	23.64
646.559	23.96
646.888	23.26
647.218	23.92
647.547	23.62
647.876	23.18
648.205	23.89
648.534	23.55
648.863	23.84
649.192	23.93
649.521	24.26
649.85	23.53
650.179	24.01
650.508	24.22
650.837	23.99
651.165	23.4
651.494	23.73
651.822	23.68
652.151	24.09
652.479	23.97
652.808	23.85
653.136	23.99
653.465	24.04
653.793	23.7
654.121	23.62
654.449	24.01
654.777	24.56
655.105	24.23
655.433	24.48
655.761	24.42
656.089	24.06
656.417	23.91
656.745	23.9
657.073	23.84
657.4	24.39
657.728	23.68
658.056	24.21
658.383	23.91
658.711	24.67
659.038	24.16
659.365	24.05
659.693	23.86
660.02	24.44
660.347	24.64
660.674	23.86
661.001	24.07
661.329	24.34
661.656	24
661.982	24.07
662.309	24.18
662.636	24.57
662.963	24.36
663.29	24.8
663.616	24.81
663.943	25.12
664.27	24.87
664.596	24.83
664.923	25.32
665.249	24.52
665.576	24.58
665.902	24.71
666.228	25.02
666.554	24.28
666.881	24.11
667.207	24.99
667.533	24.95
667.859	24.39
668.185	24.25
668.511	24.77
668.837	25.14
669.162	25.34
669.488	24.64
669.814	25.16
670.139	24.89
670.465	24.44
670.791	24.8
671.116	24.48
671.442	24.82
671.767	25.61
672.092	25.6
672.418	25.12
672.743	25.01
673.068	24.84
673.393	25.24
673.718	24.82
674.043	25.29
674.368	24.77
674.693	25.06
675.018	25.19
675.343	24.89
675.667	25.11
675.992	25.52
676.317	25.09
676.641	24.91
676.966	25.4
677.29	24.92
677.615	25.7
