Data from 2019-2_chest_Reflection__2__409.txt Node

Date: Thu Dec 15 20:09:46 CST 2022
User: ToomeyLab
Spectrometer: FLMS14357
Trigger mode: 0
Integration Time (sec): 1.000000E-2
Scans to average: 100
Electric dark correction enabled: true
Nonlinearity correction enabled: false
Boxcar width: 0
XAxis mode: Wavelengths
Number of Pixels in Spectrum: 2048
>>>>>Begin Spectral Data<<<<<
189.047	-201.62
189.435	-201.62
189.823	-201.62
190.211	-4.92
190.599	76.1
190.987	-130.34
191.375	-9700
191.763	86.59
192.151	96.04
192.538	174.02
192.926	94.47
193.314	-468.1
193.702	71.64
194.089	-134.17
194.477	79.71
194.864	225.29
195.252	-19.39
195.639	120.6
196.027	-43.59
196.414	114.65
196.801	461.65
197.189	41.53
197.576	-362.17
197.963	614.68
198.351	-54.1
198.738	-17.32
199.125	-19.89
199.512	9.94
199.899	-40.53
200.286	-24.41
200.673	6.86
201.06	-13.27
201.447	-33.74
201.833	-54.22
202.22	4.28
202.607	-6.3
202.994	-40.21
203.38	29.46
203.767	-26.15
204.154	-14.96
204.54	13.17
204.927	13.54
205.313	17.63
205.699	14.63
206.086	12.15
206.472	12.87
206.858	-2.47
207.245	-18.78
207.631	-13.57
208.017	31.81
208.403	-52.56
208.789	-28.08
209.175	-102.63
209.561	-245.54
209.947	-5.24
210.333	-59.46
210.719	49.28
211.105	28.29
211.491	-37.08
211.876	-106.64
212.262	-25.47
212.648	21.73
213.034	-15.33
213.419	-31.57
213.805	-54.5
214.19	-73.71
214.576	-34.86
214.961	-24.35
215.346	-15.36
215.732	-7.87
216.117	-40.19
216.502	-12.4
216.888	-1.33
217.273	14.81
217.658	-37.88
218.043	-54.14
218.428	-41.38
218.813	-11.97
219.198	-59.77
219.583	-28.42
219.968	-35.94
220.353	-32.85
220.738	-18.35
221.122	-52.53
221.507	-14.05
221.892	-46.65
222.276	-43
222.661	-27.77
223.046	-32.95
223.43	3.83
223.815	-10.17
224.199	-7.86
224.583	-4.39
224.968	-5.64
225.352	-15.74
225.736	8.35
226.121	-12.47
226.505	-11.44
226.889	-6.85
227.273	-3.71
227.657	4.96
228.041	4.01
228.425	0.24
228.809	2.36
229.193	2.56
229.577	5.13
229.961	4.92
230.344	5.41
230.728	6.23
231.112	4.66
231.495	3.81
231.879	4.19
232.263	5.11
232.646	3.77
233.03	6.37
233.413	5.47
233.797	2.23
234.18	4.84
234.563	5.39
234.946	2.45
235.33	4.43
235.713	4.19
236.096	5.9
236.479	6.6
236.862	3.47
237.245	5.22
237.628	6.15
238.011	5.08
238.394	4.34
238.777	4.63
239.16	6.69
239.543	6.27
239.925	4.97
240.308	4.37
240.691	4.46
241.073	3.97
241.456	5.59
241.838	4.54
242.221	4.6
242.603	4.9
242.986	4.33
243.368	4.9
243.75	5.53
244.133	5.86
244.515	5.19
244.897	4.5
245.279	4.36
245.661	4.28
246.043	6.38
246.425	6.33
246.807	4.82
247.189	4.68
247.571	4.89
247.953	5.54
248.335	5.24
248.717	5.54
249.098	5.24
249.48	4.92
249.862	4.93
250.243	5.3
250.625	4.68
251.006	5.69
251.388	4.61
251.769	3.58
252.151	5.2
252.532	4.31
252.913	4.78
253.295	4.62
253.676	4.83
254.057	4.55
254.438	4.98
254.819	4.55
255.2	4.76
255.581	5.94
255.962	4.4
256.343	4.52
256.724	4.52
257.105	2.63
257.486	4.03
257.867	4.08
258.247	5.25
258.628	4.45
259.009	3.68
259.389	4.24
259.77	3.92
260.15	5.29
260.531	4.59
260.911	4.75
261.292	4.82
261.672	4.74
262.052	4.86
262.432	4.7
262.813	4.46
263.193	4.73
263.573	4.59
263.953	4.45
264.333	4.75
264.713	5.05
265.093	3.95
265.473	5.58
265.853	4.43
266.233	4.64
266.612	3.87
266.992	4.14
267.372	4.62
267.752	5.32
268.131	4.71
268.511	4.17
268.89	5.11
269.27	4.06
269.649	4.46
270.029	3.98
270.408	4.25
270.787	4.21
271.167	4.39
271.546	5.24
271.925	4.72
272.304	4.2
272.683	4.28
273.062	4.49
273.441	3.99
273.82	4.26
274.199	4.76
274.578	4.58
274.957	4.33
275.336	4.4
275.715	4.41
276.093	3.72
276.472	3.64
276.851	3.72
277.229	3.84
277.608	3.85
277.986	4.82
278.365	4.67
278.743	4.32
279.122	3.91
279.5	3.99
279.878	3.4
280.257	4.12
280.635	4.49
281.013	3.89
281.391	4.02
281.769	4.7
282.147	4.23
282.525	3.88
282.903	3.94
283.281	4.74
283.659	4.18
284.037	4.29
284.415	3.86
284.792	4.7
285.17	3.62
285.548	4.16
285.925	3.77
286.303	4.54
286.68	4.05
287.058	4.44
287.435	4.22
287.813	4.26
288.19	3.86
288.567	4.02
288.945	3.79
289.322	4.18
289.699	4.36
290.076	3.71
290.453	3.5
290.83	4.19
291.207	3.89
291.584	4.04
291.961	4.24
292.338	3.99
292.715	3.87
293.092	4.56
293.469	3.43
293.845	3.84
294.222	4.63
294.599	3.74
294.975	3.16
295.352	3.83
295.728	4.64
296.105	4.33
296.481	4.09
296.858	4.14
297.234	3.95
297.61	4.17
297.986	4.34
298.363	4.27
298.739	4.43
299.115	4.08
299.491	4.43
299.867	4.02
300.243	4.23
300.619	3.92
300.995	4.03
301.371	4.53
301.746	4.68
302.122	3.64
302.498	3.78
302.874	4.07
303.249	3.97
303.625	3.59
304	4.54
304.376	4.19
304.751	4.2
305.127	3.83
305.502	4.01
305.878	4.09
306.253	3.93
306.628	4.02
307.003	3.42
307.378	3.78
307.754	3.78
308.129	3.55
308.504	3.86
308.879	4.05
309.254	4.74
309.629	4.4
310.003	3.78
310.378	4.5
310.753	4.24
311.128	3.93
311.502	4.07
311.877	4.21
312.252	3.92
312.626	3.94
313.001	4.04
313.375	4.14
313.75	4.17
314.124	4.16
314.498	4.29
314.873	4.07
315.247	3.57
315.621	3.8
315.995	3.77
316.369	3.67
316.743	3.48
317.117	3.39
317.491	4.12
317.865	3.55
318.239	4.14
318.613	4.12
318.987	3.66
319.361	3.78
319.734	3.74
320.108	3.95
320.482	4.3
320.855	4.07
321.229	3.76
321.602	3.9
321.976	3.63
322.349	4.94
322.723	3.42
323.096	3.89
323.469	4.02
323.843	3.55
324.216	3.97
324.589	4.64
324.962	3.99
325.335	4.05
325.708	4.06
326.081	4.06
326.454	4.05
326.827	3.64
327.2	3.62
327.573	4.09
327.945	3.29
328.318	4.12
328.691	4.21
329.063	3.83
329.436	3.59
329.809	3.96
330.181	4.46
330.553	3.91
330.926	4.41
331.298	3.54
331.671	4.11
332.043	3.9
332.415	4.64
332.787	4.28
333.159	3.84
333.532	4.02
333.904	4.23
334.276	4.31
334.648	3.94
335.02	3.82
335.391	3.78
335.763	3.88
336.135	4.03
336.507	3.79
336.879	4.03
337.25	4.13
337.622	4.49
337.993	4.2
338.365	3.45
338.736	4.27
339.108	4.02
339.479	4.11
339.851	4.35
340.222	4.11
340.593	4.3
340.964	3.97
341.336	4.1
341.707	3.74
342.078	3.64
342.449	3.94
342.82	4.26
343.191	4.18
343.562	3.89
343.933	4.22
344.303	4.35
344.674	4.09
345.045	4.11
345.416	4.3
345.786	4.09
346.157	4.02
346.527	3.88
346.898	3.55
347.268	3.77
347.639	3.68
348.009	4.13
348.38	3.84
348.75	4.07
349.12	4.21
349.49	3.98
349.861	3.59
350.231	3.8
350.601	4.23
350.971	4.09
351.341	4.2
351.711	4.02
352.081	3.97
352.45	3.58
352.82	3.67
353.19	3.87
353.56	3.76
353.929	4.04
354.299	4.05
354.669	4.3
355.038	4.25
355.408	4.09
355.777	4.31
356.147	4.07
356.516	4.02
356.885	4.13
357.254	4.11
357.624	3.58
357.993	3.92
358.362	4.16
358.731	4.65
359.1	4.08
359.469	4.34
359.838	4.3
360.207	3.99
360.576	4.34
360.945	4.3
361.314	3.82
361.682	3.72
362.051	4.06
362.42	4.08
362.788	4.35
363.157	4.14
363.525	4.09
363.894	4.13
364.262	4.17
364.631	4.37
364.999	4.13
365.367	4.34
365.735	3.88
366.104	3.86
366.472	4.11
366.84	3.99
367.208	4.41
367.576	3.87
367.944	4.21
368.312	3.73
368.68	4.3
369.048	4.02
369.416	4.13
369.783	3.96
370.151	4.33
370.519	4.56
370.886	4.43
371.254	4.31
371.621	4.26
371.989	4.13
372.356	4.19
372.724	4.28
373.091	4.38
373.458	3.97
373.826	4.43
374.193	4.24
374.56	4.42
374.927	3.83
375.294	4.5
375.661	4.06
376.028	4.26
376.395	4.31
376.762	3.98
377.129	3.79
377.496	4.14
377.863	4.36
378.229	4.43
378.596	4.1
378.963	4.46
379.329	4.14
379.696	3.97
380.062	4.3
380.429	4.06
380.795	4.24
381.161	4.01
381.528	3.88
381.894	4.25
382.26	4.36
382.626	4.16
382.993	4.51
383.359	4.17
383.725	4.09
384.091	4.25
384.457	3.94
384.823	4.44
385.188	4.31
385.554	4.05
385.92	4.17
386.286	4.28
386.651	4.35
387.017	4.62
387.383	4.08
387.748	4.47
388.114	4.28
388.479	4.24
388.845	4.24
389.21	4.51
389.575	4.74
389.94	4.41
390.306	4.3
390.671	4.5
391.036	4.28
391.401	4.27
391.766	4.09
392.131	4.37
392.496	4.47
392.861	4.26
393.226	4.25
393.591	4.42
393.956	4.29
394.32	4.33
394.685	4.35
395.05	4.41
395.414	4.35
395.779	4.52
396.143	4.35
396.508	4.09
396.872	4.29
397.236	4.51
397.601	4.4
397.965	4.34
398.329	4.4
398.694	4.1
399.058	4.15
399.422	4.27
399.786	4.29
400.15	4.54
400.514	4.37
400.878	4.56
401.242	4.36
401.605	4.45
401.969	4.29
402.333	4.39
402.697	4.43
403.06	4.39
403.424	4.52
403.787	4.38
404.151	4.51
404.514	4.54
404.878	4.31
405.241	4.27
405.604	4.64
405.968	4.35
406.331	4.53
406.694	4.47
407.057	4.24
407.42	4.34
407.783	4.5
408.146	4.28
408.509	4.37
408.872	4.5
409.235	4.51
409.598	4.47
409.961	4.48
410.323	4.45
410.686	4.51
411.049	4.62
411.411	4.45
411.774	4.46
412.136	4.44
412.499	4.59
412.861	4.1
413.223	4.38
413.586	4.54
413.948	4.68
414.31	4.48
414.672	4.29
415.035	4.6
415.397	4.39
415.759	4.2
416.121	4.37
416.483	4.23
416.845	4.43
417.206	4.42
417.568	4.38
417.93	4.48
418.292	4.39
418.653	4.35
419.015	4.48
419.377	4.46
419.738	4.48
420.1	4.34
420.461	4.3
420.822	4.46
421.184	4.43
421.545	4.47
421.906	4.42
422.267	4.34
422.629	4.36
422.99	4.26
423.351	4.38
423.712	4.56
424.073	4.42
424.434	4.59
424.795	4.32
425.155	4.3
425.516	4.38
425.877	4.47
426.238	4.55
426.598	4.52
426.959	4.44
427.32	4.37
427.68	4.54
428.041	4.58
428.401	4.43
428.761	4.51
429.122	4.4
429.482	4.56
429.842	4.37
430.202	4.66
430.563	4.34
430.923	4.44
431.283	4.72
431.643	4.64
432.003	4.63
432.363	4.42
432.722	4.51
433.082	4.29
433.442	4.54
433.802	4.47
434.161	4.55
434.521	4.53
434.881	4.45
435.24	4.45
435.6	4.54
435.959	4.49
436.319	4.54
436.678	4.58
437.037	4.64
437.396	4.67
437.756	4.52
438.115	4.42
438.474	4.51
438.833	4.64
439.192	4.55
439.551	4.57
439.91	4.63
440.269	4.54
440.628	4.53
440.987	4.6
441.345	4.54
441.704	4.55
442.063	4.49
442.421	4.55
442.78	4.57
443.138	4.64
443.497	4.45
443.855	4.6
444.214	4.47
444.572	4.68
444.93	4.54
445.288	4.61
445.647	4.52
446.005	4.65
446.363	4.59
446.721	4.49
447.079	4.46
447.437	4.53
447.795	4.61
448.153	4.62
448.51	4.65
448.868	4.46
449.226	4.49
449.584	4.5
449.941	4.57
450.299	4.59
450.656	4.55
451.014	4.62
451.371	4.71
451.729	4.71
452.086	4.6
452.443	4.61
452.801	4.65
453.158	4.8
453.515	4.56
453.872	4.58
454.229	4.46
454.586	4.63
454.943	4.78
455.3	4.72
455.657	4.71
456.014	4.68
456.371	4.65
456.727	4.73
457.084	4.83
457.441	4.62
457.797	4.64
458.154	4.76
458.51	4.66
458.867	4.63
459.223	4.61
459.58	4.72
459.936	4.65
460.292	4.73
460.648	4.6
461.005	4.57
461.361	4.64
461.717	4.57
462.073	4.64
462.429	4.82
462.785	4.69
463.141	4.64
463.496	4.65
463.852	4.75
464.208	4.71
464.564	4.77
464.919	4.62
465.275	4.98
465.631	4.92
465.986	4.84
466.342	4.68
466.697	4.78
467.052	5.04
467.408	4.81
467.763	4.81
468.118	4.54
468.473	4.82
468.829	4.66
469.184	4.87
469.539	4.71
469.894	4.82
470.249	4.64
470.603	4.83
470.958	4.87
471.313	4.91
471.668	4.9
472.023	4.83
472.377	4.75
472.732	4.93
473.086	4.8
473.441	4.75
473.795	4.98
474.15	4.81
474.504	4.76
474.859	4.75
475.213	4.9
475.567	4.79
475.921	4.89
476.275	4.99
476.63	4.77
476.984	4.65
477.338	4.95
477.692	4.81
478.045	4.82
478.399	4.85
478.753	4.75
479.107	4.88
479.461	4.78
479.814	4.78
480.168	4.79
480.521	4.87
480.875	4.75
481.228	4.7
481.582	4.8
481.935	4.79
482.289	4.83
482.642	4.93
482.995	4.8
483.348	4.72
483.701	4.9
484.055	4.78
484.408	4.7
484.761	4.67
485.114	4.63
485.466	4.61
485.819	4.59
486.172	4.66
486.525	4.66
486.878	4.73
487.23	4.76
487.583	4.72
487.936	4.74
488.288	4.79
488.641	4.69
488.993	4.69
489.345	4.63
489.698	4.73
490.05	4.69
490.402	4.72
490.754	4.76
491.107	4.74
491.459	4.86
491.811	4.86
492.163	4.85
492.515	4.8
492.866	4.73
493.218	4.66
493.57	4.79
493.922	4.74
494.274	4.88
494.625	4.98
494.977	4.89
495.328	4.92
495.68	4.86
496.031	5.06
496.383	4.88
496.734	4.91
497.086	5.12
497.437	5.2
497.788	5
498.139	4.97
498.49	4.99
498.842	5.04
499.193	4.9
499.544	4.96
499.894	4.92
500.245	5.06
500.596	5.06
500.947	4.95
501.298	4.97
501.648	5.13
501.999	4.97
502.35	4.95
502.7	5.16
503.051	5.08
503.401	5.2
503.752	5
504.102	5.04
504.452	5.01
504.803	5.01
505.153	5.18
505.503	5.08
505.853	5.19
506.203	5.16
506.553	5.03
506.903	5.23
507.253	5.01
507.603	5.12
507.953	5.01
508.303	5.13
508.652	4.96
509.002	5.12
509.352	5.07
509.701	5.07
510.051	5.26
510.4	5.18
510.75	5.09
511.099	4.95
511.449	5.17
511.798	4.94
512.147	5.05
512.496	5.21
512.846	5.03
513.195	5.2
513.544	5.26
513.893	5.22
514.242	5.16
514.591	5.25
514.939	5.25
515.288	5.2
515.637	5.15
515.986	5.27
516.334	5.28
516.683	5.13
517.032	5.18
517.38	5.24
517.729	5.22
518.077	5.29
518.426	5.37
518.774	5.26
519.122	5.22
519.47	5.17
519.819	5.2
520.167	5.22
520.515	5.27
520.863	5.26
521.211	5.19
521.559	5.27
521.907	5.34
522.255	5.27
522.602	5.37
522.95	5.28
523.298	5.35
523.645	5.36
523.993	5.37
524.341	5.39
524.688	5.35
525.036	5.44
525.383	5.46
525.73	5.38
526.078	5.49
526.425	5.33
526.772	5.39
527.119	5.37
527.466	5.48
527.814	5.39
528.161	5.42
528.508	5.44
528.854	5.33
529.201	5.37
529.548	5.36
529.895	5.26
530.242	5.28
530.588	5.28
530.935	5.31
531.282	5.23
531.628	5.35
531.975	5.32
532.321	5.45
532.667	5.48
533.014	5.57
533.36	5.51
533.706	5.51
534.052	5.55
534.399	5.5
534.745	5.45
535.091	5.48
535.437	5.52
535.783	5.47
536.129	5.45
536.474	5.58
536.82	5.67
537.166	5.59
537.512	5.55
537.857	5.65
538.203	5.57
538.549	5.59
538.894	5.61
539.239	5.72
539.585	5.79
539.93	5.8
540.276	5.83
540.621	5.86
540.966	5.86
541.311	5.82
541.656	5.83
542.001	5.71
542.346	5.74
542.691	5.7
543.036	5.7
543.381	5.74
543.726	5.75
544.071	5.82
544.415	5.78
544.76	5.8
545.105	5.82
545.449	5.96
545.794	5.95
546.138	5.9
546.483	6.05
546.827	6.01
547.171	6.02
547.516	6.07
547.86	5.97
548.204	6.05
548.548	6.03
548.892	6.03
549.236	6.06
549.58	6.17
549.924	6.27
550.268	6.31
550.612	6.26
550.956	6.29
551.3	6.23
551.643	6.29
551.987	6.35
552.33	6.29
552.674	6.22
553.017	6.31
553.361	6.32
553.704	6.46
554.048	6.29
554.391	6.38
554.734	6.33
555.077	6.32
555.42	6.4
555.764	6.3
556.107	6.54
556.45	6.38
556.793	6.74
557.135	6.6
557.478	6.57
557.821	6.7
558.164	6.56
558.507	6.62
558.849	6.66
559.192	6.48
559.534	6.5
559.877	6.51
560.219	6.59
560.562	6.7
560.904	6.75
561.246	6.47
561.589	6.9
561.931	6.7
562.273	6.69
562.615	6.61
562.957	6.75
563.299	6.78
563.641	6.8
563.983	6.63
564.325	6.87
564.667	6.91
565.008	6.91
565.35	6.81
565.692	6.92
566.033	7.04
566.375	6.89
566.716	6.87
567.058	6.94
567.399	7.05
567.741	7.08
568.082	7.09
568.423	6.96
568.764	6.9
569.105	7.02
569.447	7.11
569.788	7
570.129	7.04
570.47	7.21
570.811	7.13
571.151	7.18
571.492	7.24
571.833	7.25
572.174	7.4
572.514	7.13
572.855	7.45
573.195	7.15
573.536	7.37
573.876	7.32
574.217	7.19
574.557	7.41
574.898	7.31
575.238	7.55
575.578	7.4
575.918	7.43
576.258	7.77
576.598	7.45
576.938	7.39
577.278	7.53
577.618	7.51
577.958	7.64
578.298	7.73
578.638	7.56
578.977	7.65
579.317	7.88
579.657	7.63
579.996	7.86
580.336	7.89
580.675	7.81
581.014	7.83
581.354	7.66
581.693	8.02
582.032	8.12
582.372	8
582.711	7.93
583.05	8.06
583.389	8.31
583.728	8.27
584.067	7.91
584.406	8.38
584.745	7.96
585.083	8.07
585.422	8.01
585.761	8.25
586.1	8.55
586.438	8.31
586.777	8.35
587.115	8.44
587.454	8.31
587.792	8.38
588.13	8.27
588.469	8.3
588.807	8.33
589.145	8.5
589.483	8.42
589.821	8.44
590.159	8.54
590.497	8.68
590.835	8.8
591.173	8.66
591.511	8.85
591.849	8.63
592.187	8.82
592.524	8.86
592.862	8.74
593.2	8.75
593.537	8.86
593.875	8.86
594.212	9.03
594.55	9.04
594.887	8.97
595.224	9.16
595.561	9.02
595.899	9.14
596.236	9.14
596.573	8.93
596.91	9.07
597.247	9.16
597.584	9.29
597.921	9.3
598.258	9.33
598.594	9.22
598.931	9.02
599.268	9.07
599.604	9.3
599.941	9.33
600.277	9.12
600.614	9.36
600.95	9.19
601.287	9.05
601.623	9.1
601.959	9.54
602.296	9.36
602.632	9.38
602.968	9.43
603.304	9.8
603.64	9.64
603.976	9.59
604.312	9.76
604.648	9.83
604.984	9.8
605.319	9.59
605.655	9.85
605.991	9.66
606.326	9.71
606.662	9.9
606.998	10.06
607.333	9.85
607.668	9.76
608.004	9.93
608.339	9.88
608.674	10.21
609.01	10.26
609.345	10.12
609.68	10.34
610.015	10.18
610.35	10.43
610.685	10.08
611.02	10.13
611.355	10.19
611.689	10.32
612.024	10.29
612.359	10.45
612.694	10.56
613.028	10.49
613.363	10.23
613.697	10.44
614.032	10.68
614.366	10.35
614.7	10.67
615.035	10.84
615.369	10.75
615.703	10.7
616.037	10.83
616.371	10.8
616.705	10.77
617.039	10.8
617.373	10.74
617.707	10.96
618.041	10.79
618.375	10.48
618.709	10.96
619.042	10.9
619.376	10.87
619.71	11.22
620.043	11.43
620.377	11.16
620.71	11.21
621.043	11.23
621.377	11.24
621.71	11.6
622.043	11.57
622.376	11.8
622.709	11.76
623.043	11.41
623.376	11.55
623.709	11.41
624.041	11.54
624.374	11.55
624.707	11.65
625.04	11.35
625.373	11.92
625.705	12.02
626.038	12.05
626.37	11.66
626.703	12.22
627.035	12.01
627.368	12.3
627.7	11.77
628.032	11.86
628.365	12.04
628.697	12.23
629.029	12.1
629.361	12.13
629.693	12.31
630.025	12.25
630.357	12.2
630.689	12.35
631.021	12.2
631.353	12.24
631.684	12.12
632.016	12.21
632.348	12.29
632.679	12.58
633.011	12.78
633.342	12.62
633.674	12.6
634.005	12.41
634.336	12.85
634.668	12.76
634.999	12.6
635.33	12.86
635.661	12.71
635.992	12.82
636.323	12.98
636.654	12.89
636.985	12.99
637.316	12.77
637.647	13.08
637.977	12.87
638.308	13.14
638.639	12.93
638.969	12.94
639.3	13.16
639.63	13.16
639.961	13.21
640.291	12.96
640.622	13.22
640.952	13.35
641.282	13.29
641.612	13.42
641.943	13.34
642.273	13.59
642.603	13.8
642.933	14.18
643.263	13.56
643.592	13.7
643.922	13.93
644.252	13.75
644.582	14.17
644.911	13.67
645.241	13.55
645.571	13.88
645.9	14.07
646.23	14.24
646.559	13.78
646.888	14.38
647.218	14.34
647.547	14.05
647.876	13.79
648.205	13.73
648.534	14.24
648.863	14.06
649.192	14.29
649.521	13.82
649.85	14.23
650.179	14.5
650.508	14.12
650.837	14.67
651.165	14.16
651.494	14.58
651.822	14.85
652.151	14.33
652.479	14.76
652.808	14.93
653.136	14.59
653.465	14.55
653.793	14.59
654.121	14.89
654.449	14.54
654.777	14.28
655.105	14.57
655.433	15.31
655.761	15.21
656.089	15.61
656.417	15.02
656.745	15.39
657.073	15.02
657.4	15.19
657.728	14.57
658.056	15.48
658.383	15.55
658.711	15.61
659.038	15.56
659.365	16.01
659.693	15.15
660.02	15.63
660.347	15.81
660.674	15.37
661.001	15.4
661.329	15.54
661.656	15.57
661.982	15.4
662.309	15.63
662.636	15.77
662.963	15.82
663.29	15.65
663.616	15.64
663.943	15.94
664.27	16.6
664.596	15.86
664.923	16.83
665.249	15.98
665.576	16.27
665.902	16.16
666.228	16.62
666.554	16.77
666.881	16.27
667.207	16.23
667.533	16.72
667.859	16.23
668.185	16.37
668.511	16.72
668.837	16.52
669.162	16.37
669.488	16.58
669.814	16.99
670.139	16.45
670.465	16.9
670.791	16.96
671.116	16.33
671.442	16.54
671.767	16.89
672.092	16.55
672.418	17.12
672.743	16.47
673.068	17.14
673.393	17.02
673.718	16.48
674.043	16.9
674.368	16.99
674.693	17.23
675.018	17.61
675.343	17.68
675.667	17.24
675.992	17.37
676.317	16.36
676.641	17.43
676.966	17.98
677.29	16.42
677.615	17.25
677.939	17.6
678.264	17.49
678.588	17.55
678.912	17.77
679.236	17.2
679.56	17.03
679.885	17.23
680.209	17.53
680.532	18.22
680.856	18
681.18	18.37
681.504	18.27
681.828	17.9
682.152	17.95
682.475	17.86
682.799	17.88
683.122	18.24
683.446	17.24
683.769	18.39
684.093	18.21
684.416	18.18
684.739	18.15
685.062	18.38
685.386	18.88
685.709	18.71
