Data from 2019-2_forehead_Reflection__4__421.txt Node

Date: Thu Dec 15 20:13:10 CST 2022
User: ToomeyLab
Spectrometer: FLMS14357
Trigger mode: 0
Integration Time (sec): 1.000000E-2
Scans to average: 100
Electric dark correction enabled: true
Nonlinearity correction enabled: false
Boxcar width: 0
XAxis mode: Wavelengths
Number of Pixels in Spectrum: 2048
>>>>>Begin Spectral Data<<<<<
189.047	-606.35
189.435	-606.35
189.823	-606.35
190.211	-65.1
190.599	33.09
190.987	-60.26
191.375	1311.43
191.763	32.04
192.151	62.47
192.538	-28.11
192.926	190.34
193.314	247.45
193.702	82.12
194.089	-63.11
194.477	9.01
194.864	132.45
195.252	101.22
195.639	36.61
196.027	201.74
196.414	133.54
196.801	2311.21
197.189	47.63
197.576	473.66
197.963	-225.24
198.351	70.07
198.738	7.99
199.125	18.12
199.512	60.03
199.899	-28.66
200.286	19.24
200.673	32.13
201.06	12.49
201.447	56.45
201.833	31.56
202.22	58.01
202.607	0.54
202.994	39.35
203.38	51.52
203.767	10.93
204.154	82.45
204.54	83.62
204.927	32
205.313	62.16
205.699	49.76
206.086	37.99
206.472	41.8
206.858	2.41
207.245	-4.64
207.631	25.13
208.017	71
208.403	-15.02
208.789	20.49
209.175	-2.29
209.561	-158.25
209.947	58.84
210.333	-17.19
210.719	70.4
211.105	52.11
211.491	30.59
211.876	49.59
212.262	55.86
212.648	6.58
213.034	-8.38
213.419	18.6
213.805	-14.5
214.19	29.2
214.576	24.38
214.961	50.13
215.346	4.14
215.732	-8.66
216.117	18.07
216.502	8.04
216.888	7.71
217.273	-25.71
217.658	-36.9
218.043	19.03
218.428	22.89
218.813	55.41
219.198	-6.76
219.583	3.16
219.968	8.53
220.353	-3.37
220.738	18.02
221.122	25.14
221.507	19.44
221.892	13.08
222.276	-52.02
222.661	19.28
223.046	-0.96
223.43	17.13
223.815	12.47
224.199	14.43
224.583	6.13
224.968	15.47
225.352	1.64
225.736	19.49
226.121	11.66
226.505	0.26
226.889	10.56
227.273	-1.24
227.657	12.01
228.041	5.7
228.425	1.07
228.809	6.48
229.193	9.15
229.577	5.87
229.961	6.29
230.344	7.62
230.728	7.24
231.112	6.78
231.495	5.83
231.879	7.83
232.263	5.98
232.646	5.89
233.03	6.59
233.413	7.8
233.797	7.46
234.18	7.41
234.563	8.06
234.946	4.5
235.33	6.11
235.713	7.52
236.096	8.84
236.479	8.33
236.862	6.98
237.245	5.5
237.628	7.02
238.011	6.25
238.394	5.18
238.777	9.88
239.16	9.16
239.543	8.98
239.925	5.34
240.308	7.18
240.691	6.85
241.073	5.5
241.456	6.27
241.838	6.43
242.221	5.94
242.603	5.96
242.986	6.42
243.368	6.86
243.75	6.78
244.133	6.99
244.515	6.16
244.897	5.93
245.279	5.99
245.661	7.29
246.043	6.52
246.425	7.26
246.807	5.99
247.189	5.91
247.571	6.57
247.953	6.01
248.335	6.24
248.717	6.21
249.098	6.26
249.48	6.1
249.862	6.36
250.243	6.32
250.625	6.8
251.006	7.42
251.388	6.51
251.769	6.28
252.151	7.01
252.532	6.48
252.913	6.35
253.295	6.19
253.676	6.28
254.057	6.12
254.438	6.15
254.819	5.23
255.2	7.01
255.581	7.89
255.962	7.67
256.343	6.82
256.724	5.75
257.105	6.45
257.486	5.8
257.867	5.66
258.247	6.26
258.628	6.43
259.009	5.93
259.389	5.48
259.77	6.21
260.15	6.83
260.531	6.22
260.911	5.92
261.292	6.2
261.672	5.76
262.052	6.13
262.432	5.73
262.813	5.9
263.193	6.4
263.573	5.87
263.953	6.23
264.333	6.54
264.713	6.48
265.093	5.61
265.473	7.22
265.853	6.75
266.233	6.58
266.612	6.52
266.992	6.19
267.372	6.28
267.752	6.69
268.131	5.84
268.511	6.02
268.89	7.02
269.27	5.38
269.649	5.97
270.029	6.23
270.408	5.55
270.787	6.04
271.167	5.57
271.546	6.57
271.925	5.74
272.304	5.78
272.683	5.93
273.062	5.91
273.441	5.31
273.82	5.93
274.199	5.97
274.578	5.86
274.957	5.99
275.336	5.98
275.715	6.74
276.093	5.36
276.472	5.81
276.851	6.13
277.229	5.57
277.608	5.89
277.986	6.39
278.365	6.7
278.743	6.61
279.122	5.68
279.5	6.12
279.878	5.69
280.257	6.01
280.635	5.99
281.013	5.64
281.391	5.71
281.769	6.25
282.147	5.66
282.525	5.83
282.903	5.79
283.281	6.35
283.659	5.91
284.037	6.1
284.415	6.21
284.792	6.14
285.17	5.95
285.548	6.17
285.925	5.79
286.303	6.79
286.68	6.38
287.058	6.09
287.435	5.77
287.813	6.17
288.19	5.86
288.567	6.32
288.945	5.98
289.322	6.16
289.699	6.39
290.076	6.47
290.453	6.1
290.83	6.45
291.207	6.52
291.584	6.36
291.961	6.36
292.338	5.88
292.715	5.99
293.092	6.74
293.469	6.36
293.845	6.74
294.222	7.05
294.599	6.45
294.975	5.64
295.352	6.7
295.728	7.11
296.105	6.78
296.481	6.75
296.858	7.21
297.234	6.75
297.61	7.18
297.986	7.36
298.363	6.94
298.739	6.66
299.115	6.85
299.491	7.41
299.867	6.78
300.243	7.15
300.619	6.77
300.995	7.31
301.371	7.44
301.746	7.54
302.122	6.76
302.498	7.26
302.874	7.65
303.249	7.29
303.625	7.59
304	8
304.376	8.08
304.751	7.91
305.127	7.52
305.502	8.36
305.878	8.1
306.253	7.69
306.628	8.05
307.003	8.37
307.378	7.99
307.754	8.14
308.129	8.61
308.504	8.59
308.879	8.39
309.254	8.93
309.629	9.36
310.003	8.31
310.378	8.79
310.753	8.94
311.128	8.81
311.502	8.93
311.877	9.11
312.252	9
312.626	8.99
313.001	9.26
313.375	9.76
313.75	9.16
314.124	9.34
314.498	9.81
314.873	9.7
315.247	9.84
315.621	10.13
315.995	9.85
316.369	9.54
316.743	9.7
317.117	10.11
317.491	10.14
317.865	10.22
318.239	11.02
318.613	10.11
318.987	10.32
319.361	10.36
319.734	10.64
320.108	10.43
320.482	11.18
320.855	10.35
321.229	10.74
321.602	11.15
321.976	10.52
322.349	12.21
322.723	11.2
323.096	11.02
323.469	11.26
323.843	11.77
324.216	11.3
324.589	11.92
324.962	11.39
325.335	12.15
325.708	11.44
326.081	11.91
326.454	11.89
326.827	11.75
327.2	11.68
327.573	12.45
327.945	11.76
328.318	12.31
328.691	12.32
329.063	11.79
329.436	11.88
329.809	12.95
330.181	13.46
330.553	12.7
330.926	13.02
331.298	12.6
331.671	13.39
332.043	13
332.415	13.18
332.787	13.36
333.159	12.74
333.532	13.32
333.904	13.55
334.276	13.41
334.648	13.7
335.02	13.32
335.391	13.62
335.763	12.93
336.135	13.97
336.507	13.7
336.879	13.7
337.25	13.92
337.622	13.94
337.993	13.94
338.365	13.73
338.736	13.84
339.108	14.28
339.479	14.29
339.851	14.78
340.222	14.56
340.593	14.35
340.964	14.56
341.336	14.45
341.707	14.86
342.078	14.7
342.449	15.05
342.82	14.71
343.191	14.79
343.562	14.85
343.933	14.78
344.303	15.17
344.674	14.75
345.045	14.93
345.416	15.65
345.786	15.68
346.157	15.13
346.527	15.68
346.898	15.04
347.268	15.92
347.639	15.65
348.009	15.76
348.38	15.74
348.75	16.01
349.12	16.04
349.49	16.08
349.861	16.3
350.231	15.88
350.601	16.05
350.971	16.27
351.341	16.35
351.711	16.19
352.081	16.32
352.45	16.27
352.82	16.41
353.19	16.69
353.56	16.56
353.929	16.69
354.299	16.87
354.669	16.94
355.038	17.57
355.408	16.85
355.777	17.12
356.147	17.38
356.516	17.15
356.885	17.08
357.254	16.95
357.624	16.9
357.993	17.38
358.362	17.38
358.731	17.62
359.1	17.54
359.469	17.98
359.838	17.68
360.207	17.89
360.576	18.05
360.945	17.95
361.314	17.88
361.682	17.55
362.051	18.06
362.42	17.97
362.788	18.05
363.157	18.04
363.525	18.28
363.894	18.17
364.262	18.29
364.631	18.64
364.999	18.75
365.367	18.41
365.735	18.36
366.104	18.55
366.472	18.86
366.84	18.66
367.208	18.99
367.576	19.14
367.944	19.16
368.312	19.21
368.68	19.32
369.048	18.96
369.416	19.01
369.783	19.41
370.151	19.68
370.519	20.16
370.886	19.4
371.254	19.91
371.621	19.87
371.989	19.76
372.356	19.75
372.724	20.13
373.091	19.82
373.458	20.21
373.826	20.54
374.193	20.16
374.56	20.55
374.927	20.45
375.294	20.58
375.661	20.44
376.028	20.33
376.395	20.78
376.762	20.89
377.129	20.83
377.496	20.89
377.863	20.95
378.229	21.07
378.596	21.29
378.963	20.93
379.329	21.33
379.696	21.1
380.062	21.27
380.429	21.07
380.795	21.63
381.161	21.23
381.528	21.25
381.894	21.4
382.26	21.75
382.626	21.63
382.993	22.02
383.359	21.92
383.725	21.92
384.091	22.45
384.457	22.12
384.823	21.97
385.188	22.18
385.554	22.34
385.92	22.44
386.286	22.53
386.651	22.77
387.017	22.9
387.383	22.81
387.748	22.78
388.114	22.75
388.479	22.64
388.845	23.17
389.21	23.36
389.575	23.33
389.94	23.07
390.306	23.09
390.671	23.1
391.036	23.49
391.401	23.16
391.766	23.59
392.131	23.69
392.496	23.63
392.861	23.56
393.226	23.64
393.591	23.88
393.956	23.81
394.32	23.88
394.685	23.81
395.05	24.01
395.414	24.2
395.779	24.34
396.143	24.08
396.508	24.06
396.872	24.39
397.236	24.64
397.601	24.26
397.965	24.46
398.329	24.61
398.694	24.7
399.058	24.63
399.422	24.87
399.786	24.73
400.15	24.65
400.514	25.06
400.878	25.05
401.242	25.29
401.605	25.18
401.969	24.99
402.333	25.3
402.697	25.48
403.06	25.3
403.424	25.68
403.787	25.43
404.151	25.47
404.514	25.64
404.878	25.37
405.241	25.65
405.604	25.81
405.968	26.03
406.331	26.03
406.694	26.09
407.057	25.69
407.42	26.05
407.783	26
408.146	26.41
408.509	26.48
408.872	26.33
409.235	26.52
409.598	26.59
409.961	26.47
410.323	26.45
410.686	26.88
411.049	26.57
411.411	26.72
411.774	26.65
412.136	26.86
412.499	26.92
412.861	26.76
413.223	27.07
413.586	27.35
413.948	27.13
414.31	27.24
414.672	27.32
415.035	27.64
415.397	27.47
415.759	27.18
416.121	27.66
416.483	27.6
416.845	27.67
417.206	27.67
417.568	27.69
417.93	27.85
418.292	27.49
418.653	27.62
419.015	27.73
419.377	27.88
419.738	27.84
420.1	27.81
420.461	27.94
420.822	27.83
421.184	27.7
421.545	27.97
421.906	28.01
422.267	27.83
422.629	27.93
422.99	27.93
423.351	27.96
423.712	28.15
424.073	28.25
424.434	28.42
424.795	28.37
425.155	28.19
425.516	28.43
425.877	28.35
426.238	28.49
426.598	28.57
426.959	28.73
427.32	28.83
427.68	29.05
428.041	29.31
428.401	29.04
428.761	29.31
429.122	29.3
429.482	29.51
429.842	29.75
430.202	29.72
430.563	29.79
430.923	29.87
431.283	30.03
431.643	30.16
432.003	29.89
432.363	30.12
432.722	30.02
433.082	30.02
433.442	30.39
433.802	30.33
434.161	30.44
434.521	30.32
434.881	30.21
435.24	30.35
435.6	30.41
435.959	30.57
436.319	30.73
436.678	30.83
437.037	30.61
437.396	30.98
437.756	30.83
438.115	30.67
438.474	30.96
438.833	31.16
439.192	31.04
439.551	31.11
439.91	31.09
440.269	31.12
440.628	31.22
440.987	31.26
441.345	30.92
441.704	31.2
442.063	31.17
442.421	31.24
442.78	31.45
443.138	31.42
443.497	31.56
443.855	31.73
444.214	31.7
444.572	32.05
444.93	31.95
445.288	31.93
445.647	31.89
446.005	32.07
446.363	32.01
446.721	32.02
447.079	31.94
447.437	31.93
447.795	32.09
448.153	31.91
448.51	32
448.868	32.05
449.226	32.2
449.584	32.34
449.941	32.6
450.299	32.64
450.656	32.65
451.014	32.82
451.371	32.79
451.729	33.04
452.086	32.88
452.443	33.3
452.801	33.4
453.158	33.51
453.515	33.3
453.872	33.28
454.229	33.15
454.586	33.26
454.943	33.68
455.3	33.66
455.657	33.66
456.014	33.71
456.371	33.89
456.727	34.05
457.084	33.86
457.441	34
457.797	34.12
458.154	34.11
458.51	34.35
458.867	34.2
459.223	34.07
459.58	34.19
459.936	34.3
460.292	34.23
460.648	34.03
461.005	34.14
461.361	33.9
461.717	34.08
462.073	34.09
462.429	34.41
462.785	34.52
463.141	34.47
463.496	34.81
463.852	34.77
464.208	34.87
464.564	34.9
464.919	34.97
465.275	35.08
465.631	35.38
465.986	35.05
466.342	35.18
466.697	35.49
467.052	35.62
467.408	35.34
467.763	35.48
468.118	35.49
468.473	35.57
468.829	35.57
469.184	35.66
469.539	35.73
469.894	35.9
470.249	35.89
470.603	36.01
470.958	35.72
471.313	36.08
471.668	36.37
472.023	36.26
472.377	36.15
472.732	36.31
473.086	36.22
473.441	36.24
473.795	36.39
474.15	36.64
474.504	36.62
474.859	36.36
475.213	36.6
475.567	36.47
475.921	36.76
476.275	36.66
476.63	37.03
476.984	36.91
477.338	36.95
477.692	36.75
478.045	36.99
478.399	36.72
478.753	36.96
479.107	37.17
479.461	36.98
479.814	36.86
480.168	37.11
480.521	37.33
480.875	37.1
481.228	37.39
481.582	37.47
481.935	37.58
482.289	37.43
482.642	37.46
482.995	37.36
483.348	37.19
483.701	37.17
484.055	37.16
484.408	37.09
484.761	36.63
485.114	36.69
485.466	36.87
485.819	36.84
486.172	36.76
486.525	36.77
486.878	36.77
487.23	36.89
487.583	37.31
487.936	37.38
488.288	37.4
488.641	37.31
488.993	37.26
489.345	37.27
489.698	37.23
490.05	37.27
490.402	37.36
490.754	37.68
491.107	37.79
491.459	38.09
491.811	38.12
492.163	38.24
492.515	38.02
492.866	38
493.218	38.05
493.57	38.01
493.922	37.96
494.274	38.17
494.625	38.38
494.977	38.5
495.328	38.82
495.68	39.06
496.031	39.13
496.383	39.44
496.734	39.25
497.086	39.48
497.437	39.6
497.788	39.5
498.139	39.44
498.49	39.43
498.842	39.49
499.193	39.53
499.544	39.68
499.894	39.53
500.245	39.56
500.596	39.85
500.947	39.85
501.298	39.89
501.648	40.11
501.999	40.12
502.35	40.28
502.7	40.23
503.051	40.19
503.401	40.36
503.752	40.36
504.102	40.42
504.452	40.35
504.803	40.5
505.153	40.58
505.503	40.55
505.853	40.72
506.203	40.91
506.553	40.74
506.903	40.91
507.253	40.81
507.603	40.97
507.953	40.92
508.303	41.04
508.652	40.95
509.002	41.09
509.352	41.03
509.701	41.01
510.051	41.2
510.4	41.06
510.75	41
511.099	40.96
511.449	41.16
511.798	41.14
512.147	41.01
512.496	41.34
512.846	41.17
513.195	41.37
513.544	41.37
513.893	41.44
514.242	41.46
514.591	41.6
514.939	41.64
515.288	41.5
515.637	41.76
515.986	41.79
516.334	41.94
516.683	42.05
517.032	41.95
517.38	42.16
517.729	42.22
518.077	42.07
518.426	42.06
518.774	42.15
519.122	41.98
519.47	41.77
519.819	41.81
520.167	41.69
520.515	41.94
520.863	41.78
521.211	41.97
521.559	42.04
521.907	42.42
522.255	42.2
522.602	42.33
522.95	42.64
523.298	42.67
523.645	42.69
523.993	42.72
524.341	42.83
524.688	42.77
525.036	42.85
525.383	43.04
525.73	43.13
526.078	42.92
526.425	42.71
526.772	42.74
527.119	42.61
527.466	42.83
527.814	42.68
528.161	42.83
528.508	42.71
528.854	42.78
529.201	42.84
529.548	42.58
529.895	42.39
530.242	42.7
530.588	42.67
530.935	42.56
531.282	42.32
531.628	42.43
531.975	42.47
532.321	42.82
532.667	43.14
533.014	43.32
533.36	43.35
533.706	43.3
534.052	43.4
534.399	43.13
534.745	43.13
535.091	43.12
535.437	43.1
535.783	43.2
536.129	43.23
536.474	43.61
536.82	43.58
537.166	43.55
537.512	43.75
537.857	43.9
538.203	43.78
538.549	43.92
538.894	44.01
539.239	43.84
539.585	44.03
539.93	44.38
540.276	44.31
540.621	44.6
540.966	44.68
541.311	44.68
541.656	44.54
542.001	44.46
542.346	44.23
542.691	44.16
543.036	44
543.381	44.08
543.726	44.15
544.071	44.02
544.415	44.21
544.76	44.25
545.105	44.55
545.449	44.74
545.794	44.65
546.138	44.58
546.483	45.02
546.827	45.07
547.171	45.02
547.516	45.23
547.86	45.22
548.204	45.16
548.548	45.15
548.892	45.24
549.236	45.42
549.58	45.62
549.924	45.47
550.268	45.53
550.612	45.92
550.956	46.11
551.3	46.05
551.643	46
551.987	46.15
552.33	46.36
552.674	46.29
553.017	46.37
553.361	46.47
553.704	46.42
554.048	46.31
554.391	46.27
554.734	46.35
555.077	46.45
555.42	46.35
555.764	46.26
556.107	46.84
556.45	46.86
556.793	47.05
557.135	46.91
557.478	46.99
557.821	47.02
558.164	46.9
558.507	47.05
558.849	47.04
559.192	47.17
559.534	47.13
559.877	47.01
560.219	47.19
560.562	47.03
560.904	47.41
561.246	47
561.589	47.66
561.931	47.41
562.273	47.24
562.615	47.42
562.957	47.5
563.299	47.37
563.641	47.41
563.983	47.4
564.325	47.66
564.667	47.9
565.008	47.47
565.35	47.9
565.692	47.54
566.033	47.74
566.375	48.04
566.716	47.98
567.058	47.79
567.399	47.67
567.741	47.45
568.082	47.86
568.423	47.57
568.764	47.82
569.105	47.84
569.447	47.86
569.788	47.96
570.129	47.96
570.47	47.73
570.811	48.21
571.151	48.15
571.492	48.06
571.833	48.17
572.174	48.45
572.514	48.18
572.855	48.49
573.195	48.34
573.536	48.47
573.876	48.53
574.217	48.21
574.557	48.31
574.898	48.14
575.238	48.44
575.578	48.53
575.918	48.5
576.258	48.51
576.598	48.4
576.938	48.7
577.278	48.67
577.618	48.76
577.958	48.52
578.298	48.64
578.638	48.79
578.977	48.84
579.317	49.18
579.657	49.16
579.996	49.33
580.336	49.3
580.675	49.39
581.014	49.03
581.354	49.39
581.693	49.3
582.032	49.77
582.372	49.65
582.711	49.55
583.05	49.71
583.389	49.63
583.728	49.83
584.067	49.74
584.406	50.1
584.745	50.04
585.083	49.54
585.422	49.87
585.761	49.77
586.1	49.81
586.438	49.7
586.777	49.9
587.115	49.63
587.454	50.03
587.792	49.98
588.13	50.08
588.469	49.86
588.807	50.18
589.145	50.16
589.483	50.32
589.821	50.17
590.159	50.33
590.497	50.23
590.835	50.46
591.173	50.01
591.511	50.69
591.849	50.24
592.187	50.31
592.524	50.71
592.862	50.35
593.2	50.56
593.537	50.46
593.875	50.32
594.212	50.73
594.55	50.87
594.887	50.63
595.224	50.88
595.561	50.68
595.899	50.76
596.236	50.65
596.573	50.6
596.91	50.64
597.247	51.01
597.584	50.91
597.921	50.82
598.258	50.94
598.594	50.63
598.931	50.49
599.268	50.51
599.604	50.89
599.941	50.86
600.277	50.72
600.614	50.71
600.95	51.19
601.287	50.98
601.623	51.03
601.959	51.22
602.296	51.42
602.632	51.45
602.968	51.71
603.304	51.32
603.64	51.32
603.976	51.29
604.312	51.43
604.648	51.5
604.984	51.75
605.319	51.18
605.655	51.5
605.991	51.62
606.326	51.39
606.662	51.42
606.998	51.14
607.333	51.12
607.668	51.23
608.004	51.41
608.339	51.46
608.674	51.86
609.01	51.92
609.345	51.76
609.68	51.97
610.015	51.9
610.35	52.24
610.685	51.67
611.02	51.77
611.355	52.15
611.689	51.72
612.024	51.68
612.359	52.02
612.694	52.06
613.028	52.06
613.363	51.87
613.697	52.57
614.032	52.19
614.366	52.52
614.7	52.67
615.035	52.46
615.369	52.68
615.703	52.65
616.037	52.97
616.371	52.79
616.705	53.33
617.039	52.83
617.373	52.78
617.707	52.86
618.041	52.83
618.375	52.75
618.709	53.22
619.042	52.44
619.376	52.65
619.71	52.5
620.043	53.12
620.377	52.77
620.71	52.67
621.043	53.3
621.377	53.43
621.71	53.18
622.043	53.55
622.376	53.16
622.709	53.63
623.043	53.45
623.376	53.13
623.709	53.33
624.041	53.22
624.374	53.17
624.707	53.52
625.04	53.4
625.373	53.79
625.705	53.55
626.038	53.74
626.37	52.67
626.703	53.6
627.035	53.74
627.368	53.91
627.7	53.7
628.032	53.95
628.365	53.89
628.697	53.94
629.029	53.45
629.361	54.07
629.693	53.63
630.025	53.58
630.357	54.09
630.689	54.06
631.021	54
631.353	53.65
631.684	53.61
632.016	53.5
632.348	53.8
632.679	54.34
633.011	54.76
633.342	53.89
633.674	54.39
634.005	54.22
634.336	54.07
634.668	54.03
634.999	54.2
635.33	54.79
635.661	54.16
635.992	54.24
636.323	54.49
636.654	54.4
636.985	54.02
637.316	54.73
637.647	54.91
637.977	54.13
638.308	54.37
638.639	54.66
638.969	54.77
639.3	54.21
639.63	55.31
639.961	54.54
640.291	54.73
640.622	54.65
640.952	55.15
641.282	54.78
641.612	55.16
641.943	54.88
642.273	54.57
642.603	55.25
642.933	55.12
643.263	55.01
643.592	55.14
643.922	55.2
644.252	54.86
644.582	55.25
644.911	55.03
645.241	55.37
645.571	55.41
645.9	55.6
646.23	55.65
646.559	55.23
646.888	55.1
647.218	55.68
647.547	55.18
647.876	55.08
648.205	54.83
648.534	55.48
648.863	55.37
649.192	55.75
649.521	55.9
649.85	55.77
650.179	55.31
650.508	55.8
650.837	55.49
651.165	55.69
651.494	56.25
651.822	56.09
652.151	55.85
652.479	56.14
652.808	56.19
653.136	55.5
653.465	55.97
653.793	56.18
654.121	55.86
654.449	55.98
654.777	56.13
655.105	55.82
655.433	56.11
655.761	55.54
656.089	56.64
656.417	56.98
656.745	56.28
657.073	56.25
657.4	56.05
657.728	55.86
658.056	56.54
658.383	56.09
658.711	56.32
659.038	56.3
659.365	56.49
659.693	56.14
660.02	56.28
660.347	55.58
660.674	56.11
661.001	56.42
661.329	56.69
661.656	56.4
661.982	56.51
662.309	56.35
662.636	56.2
662.963	56.25
663.29	56.7
663.616	56.31
663.943	56.3
664.27	56.12
664.596	56.74
664.923	56.96
665.249	56.58
665.576	56.98
665.902	57.04
666.228	56.93
666.554	56.84
666.881	56.79
667.207	57.18
667.533	56.52
667.859	57.15
668.185	56.51
668.511	56.8
668.837	56.99
