Data from 2019-2_crown_Reflection__0__412.txt Node

Date: Thu Dec 15 20:11:01 CST 2022
User: ToomeyLab
Spectrometer: FLMS14357
Trigger mode: 0
Integration Time (sec): 1.000000E-2
Scans to average: 100
Electric dark correction enabled: true
Nonlinearity correction enabled: false
Boxcar width: 0
XAxis mode: Wavelengths
Number of Pixels in Spectrum: 2048
>>>>>Begin Spectral Data<<<<<
189.047	-173.47
189.435	-173.47
189.823	-173.47
190.211	-48.62
190.599	-3.47
190.987	21.19
191.375	-6357.14
191.763	84.54
192.151	86.82
192.538	150.9
192.926	273.61
193.314	372.42
193.702	-176.8
194.089	680.19
194.477	42.64
194.864	232.4
195.252	3.5
195.639	93.84
196.027	68.47
196.414	115.43
196.801	230.97
197.189	27.7
197.576	404.44
197.963	861.56
198.351	-6.54
198.738	-87.7
199.125	-60.79
199.512	10.05
199.899	-169.37
200.286	-63.73
200.673	26.41
201.06	4.85
201.447	-10.3
201.833	-7.12
202.22	3.78
202.607	-46.11
202.994	-20.11
203.38	19.63
203.767	-39.86
204.154	-16.22
204.54	-56.75
204.927	2.02
205.313	21.65
205.699	20.41
206.086	2.92
206.472	20.89
206.858	31.82
207.245	-12.75
207.631	32.8
208.017	45.2
208.403	-74.62
208.789	8.63
209.175	-135.58
209.561	-140
209.947	-19.04
210.333	-9.62
210.719	14.54
211.105	4.87
211.491	7.19
211.876	-18.1
212.262	-30.88
212.648	-32.68
213.034	-16.83
213.419	-25.8
213.805	-33.69
214.19	-64.42
214.576	-41.49
214.961	-5.81
215.346	-59.42
215.732	-26.57
216.117	-34.97
216.502	-0.73
216.888	-27.54
217.273	-18.47
217.658	-18.1
218.043	-16.04
218.428	-61.5
218.813	-25.45
219.198	-55.97
219.583	-24.8
219.968	-48.57
220.353	-39.2
220.738	-10.19
221.122	-20.83
221.507	-15.84
221.892	-31.21
222.276	-44.52
222.661	-24.57
223.046	-35.21
223.43	4.72
223.815	-2.53
224.199	-16.9
224.583	-17.32
224.968	-4.5
225.352	-14.84
225.736	-3.61
226.121	-8.56
226.505	-14.22
226.889	-3.81
227.273	-7.82
227.657	-3.29
228.041	-4.55
228.425	-5.1
228.809	-0.24
229.193	2.05
229.577	-0.84
229.961	0.26
230.344	1.22
230.728	1.75
231.112	0.92
231.495	-0.59
231.879	-0.19
232.263	1.98
232.646	-0.65
233.03	2.08
233.413	2.28
233.797	-3.16
234.18	-1.32
234.563	-0.62
234.946	0.07
235.33	-0.11
235.713	0.47
236.096	-0.31
236.479	1.77
236.862	-0.61
237.245	-0.25
237.628	1.29
238.011	1.29
238.394	-1.4
238.777	-0.06
239.16	1
239.543	0.65
239.925	1
240.308	-2.24
240.691	-1.85
241.073	0.38
241.456	0.3
241.838	0.48
242.221	0.64
242.603	1.84
242.986	0.66
243.368	1.23
243.75	1.15
244.133	1.85
244.515	0.85
244.897	1.15
245.279	0.27
245.661	0.24
246.043	1.43
246.425	0.74
246.807	0.74
247.189	0.84
247.571	0.76
247.953	1.33
248.335	1.13
248.717	1.3
249.098	1.22
249.48	1.12
249.862	1.03
250.243	1.1
250.625	0.99
251.006	2.02
251.388	0.82
251.769	1.02
252.151	1.62
252.532	0.47
252.913	0.36
253.295	0.86
253.676	1.39
254.057	1.25
254.438	0.94
254.819	0.9
255.2	1.14
255.581	1.13
255.962	1.14
256.343	0.81
256.724	1
257.105	-0.02
257.486	-0.29
257.867	0.53
258.247	0.62
258.628	0.91
259.009	0.8
259.389	0.03
259.77	0.38
260.15	1.98
260.531	1.26
260.911	1.25
261.292	1.3
261.672	1.22
262.052	1.28
262.432	0.99
262.813	1.08
263.193	0.89
263.573	1.15
263.953	0.19
264.333	0.96
264.713	1.14
265.093	0.66
265.473	1.98
265.853	1.08
266.233	-0.1
266.612	0.3
266.992	0.76
267.372	1.03
267.752	1.53
268.131	1.16
268.511	1.08
268.89	1.15
269.27	0.47
269.649	0.35
270.029	0.32
270.408	1.39
270.787	1.1
271.167	1.07
271.546	1.75
271.925	1
272.304	0.84
272.683	0.29
273.062	0.85
273.441	0.79
273.82	1.67
274.199	0.87
274.578	0.91
274.957	0.75
275.336	2.04
275.715	1.58
276.093	0.69
276.472	0.12
276.851	1.03
277.229	0.99
277.608	0.41
277.986	1.15
278.365	1.52
278.743	0.99
279.122	0.37
279.5	0.71
279.878	0.78
280.257	1.37
280.635	0.55
281.013	0.56
281.391	0.77
281.769	1.47
282.147	1.21
282.525	0.29
282.903	0.36
283.281	1.44
283.659	1.33
284.037	0.82
284.415	0.85
284.792	0.59
285.17	0.64
285.548	0.94
285.925	0.82
286.303	1.3
286.68	1.15
287.058	1.21
287.435	0.86
287.813	1.09
288.19	0.92
288.567	1.02
288.945	0.86
289.322	1.08
289.699	0.81
290.076	0.93
290.453	0.81
290.83	1.28
291.207	0.83
291.584	1.21
291.961	1.13
292.338	0.97
292.715	0.61
293.092	1.49
293.469	0.93
293.845	0.5
294.222	1.41
294.599	0.37
294.975	0.49
295.352	0.76
295.728	1.02
296.105	0.68
296.481	1.11
296.858	0.68
297.234	0.6
297.61	1.17
297.986	1.21
298.363	1.32
298.739	1.17
299.115	1.44
299.491	1.3
299.867	0.83
300.243	0.69
300.619	0.79
300.995	1.17
301.371	1.41
301.746	1.22
302.122	0.6
302.498	1.11
302.874	0.89
303.249	0.92
303.625	0.49
304	1.16
304.376	1.25
304.751	0.86
305.127	0.85
305.502	0.91
305.878	1.32
306.253	0.55
306.628	1
307.003	0.75
307.378	0.79
307.754	1.06
308.129	1.05
308.504	0.72
308.879	0.6
309.254	1.25
309.629	1.01
310.003	1.13
310.378	1.28
310.753	1.05
311.128	0.76
311.502	0.98
311.877	0.71
312.252	1
312.626	1.53
313.001	1.03
313.375	1.33
313.75	1.42
314.124	1.28
314.498	1.59
314.873	0.64
315.247	1.24
315.621	0.72
315.995	0.76
316.369	0.57
316.743	0.71
317.117	0.72
317.491	0.98
317.865	0.32
318.239	1.54
318.613	0.89
318.987	1.07
319.361	1.26
319.734	0.96
320.108	0.81
320.482	0.92
320.855	0.74
321.229	1.25
321.602	1.09
321.976	0.84
322.349	1.55
322.723	0.72
323.096	0.27
323.469	0.83
323.843	0.95
324.216	1.25
324.589	0.73
324.962	0.61
325.335	0.76
325.708	1.16
326.081	1.33
326.454	0.96
326.827	1.11
327.2	0.63
327.573	1.25
327.945	0.64
328.318	1.16
328.691	1.17
329.063	0.63
329.436	0.96
329.809	1.54
330.181	2.04
330.553	1
330.926	1.11
331.298	1.05
331.671	1.18
332.043	0.87
332.415	1.07
332.787	1.06
333.159	1.07
333.532	1.24
333.904	1.05
334.276	0.95
334.648	0.99
335.02	0.69
335.391	0.85
335.763	1.12
336.135	0.99
336.507	0.7
336.879	0.92
337.25	1.41
337.622	1.16
337.993	0.99
338.365	1.18
338.736	1.26
339.108	0.73
339.479	1.21
339.851	1.33
340.222	0.98
340.593	1.44
340.964	0.98
341.336	0.75
341.707	0.76
342.078	0.87
342.449	1.37
342.82	1.28
343.191	1.27
343.562	1.46
343.933	1.03
344.303	1.39
344.674	1.14
345.045	0.87
345.416	1.25
345.786	0.75
346.157	1.25
346.527	0.89
346.898	0.83
347.268	0.98
347.639	1.02
348.009	1.18
348.38	1.02
348.75	1.05
349.12	0.86
349.49	1.06
349.861	1.32
350.231	1.23
350.601	1.6
350.971	0.86
351.341	1.32
351.711	1.06
352.081	1.29
352.45	1.06
352.82	0.98
353.19	1.03
353.56	1.2
353.929	1.04
354.299	1.13
354.669	1.31
355.038	1.63
355.408	1.35
355.777	1.05
356.147	1.38
356.516	1.02
356.885	1.54
357.254	1.09
357.624	0.72
357.993	1.37
358.362	1.41
358.731	1.31
359.1	1.19
359.469	1.6
359.838	1.43
360.207	1.31
360.576	1.12
360.945	1.19
361.314	1.42
361.682	0.94
362.051	1.42
362.42	1.26
362.788	1.36
363.157	1.18
363.525	1.38
363.894	1.05
364.262	1.15
364.631	1.62
364.999	1.33
365.367	1.2
365.735	1.22
366.104	1.13
366.472	1.11
366.84	1.53
367.208	1.53
367.576	1.19
367.944	1.07
368.312	1.41
368.68	1.35
369.048	1.17
369.416	1.16
369.783	1.01
370.151	1.29
370.519	1.69
370.886	1.12
371.254	1.45
371.621	1.25
371.989	1.66
372.356	1.41
372.724	1.28
373.091	1.05
373.458	0.98
373.826	1.42
374.193	1.38
374.56	1.48
374.927	0.96
375.294	1.59
375.661	1.33
376.028	0.88
376.395	1.56
376.762	1.04
377.129	0.99
377.496	1.16
377.863	1.43
378.229	1.52
378.596	1.49
378.963	1.38
379.329	1.38
379.696	1.23
380.062	1.27
380.429	0.97
380.795	1.49
381.161	0.79
381.528	0.6
381.894	1.48
382.26	1.5
382.626	1.39
382.993	1.65
383.359	1.37
383.725	1.33
384.091	1.44
384.457	1.14
384.823	1.27
385.188	1.33
385.554	1.54
385.92	1.17
386.286	1.35
386.651	1.02
387.017	1.74
387.383	1.2
387.748	1.36
388.114	1.6
388.479	1.36
388.845	1.19
389.21	1.68
389.575	1.5
389.94	1.56
390.306	1.5
390.671	1.69
391.036	1.2
391.401	1.51
391.766	1.26
392.131	1.6
392.496	1.3
392.861	1.49
393.226	1.17
393.591	1.5
393.956	1.38
394.32	1.68
394.685	1.29
395.05	1.45
395.414	1.25
395.779	1.69
396.143	1.24
396.508	1.32
396.872	1.26
397.236	1.78
397.601	1.58
397.965	1.11
398.329	1.24
398.694	1.11
399.058	1.34
399.422	1.28
399.786	1.44
400.15	1.03
400.514	1.47
400.878	1.33
401.242	1.68
401.605	1.5
401.969	1.33
402.333	1.26
402.697	1.55
403.06	1.37
403.424	1.3
403.787	1.25
404.151	1.46
404.514	1.57
404.878	1.21
405.241	1.45
405.604	1.42
405.968	1.35
406.331	1.44
406.694	1.44
407.057	1.5
407.42	1.51
407.783	1.75
408.146	1.6
408.509	1.5
408.872	1.49
409.235	1.39
409.598	1.4
409.961	1.34
410.323	1.19
410.686	1.34
411.049	1.36
411.411	1.42
411.774	1.33
412.136	1.22
412.499	1.55
412.861	1.28
413.223	1.49
413.586	1.47
413.948	1.63
414.31	1.44
414.672	1.4
415.035	1.49
415.397	1.4
415.759	1.27
416.121	1.57
416.483	1.25
416.845	1.61
417.206	1.39
417.568	1.33
417.93	1.46
418.292	1.3
418.653	1.25
419.015	1.41
419.377	1.47
419.738	1.54
420.1	1.49
420.461	1.3
420.822	1.48
421.184	1.53
421.545	1.45
421.906	1.46
422.267	1.44
422.629	1.4
422.99	1.41
423.351	1.39
423.712	1.56
424.073	1.53
424.434	1.53
424.795	1.45
425.155	1.41
425.516	1.36
425.877	1.55
426.238	1.5
426.598	1.48
426.959	1.6
427.32	1.46
427.68	1.37
428.041	1.58
428.401	1.39
428.761	1.56
429.122	1.58
429.482	1.4
429.842	1.52
430.202	1.53
430.563	1.48
430.923	1.41
431.283	1.61
431.643	1.6
432.003	1.51
432.363	1.57
432.722	1.43
433.082	1.51
433.442	1.51
433.802	1.38
434.161	1.48
434.521	1.44
434.881	1.46
435.24	1.47
435.6	1.59
435.959	1.49
436.319	1.47
436.678	1.59
437.037	1.55
437.396	1.64
437.756	1.4
438.115	1.43
438.474	1.57
438.833	1.59
439.192	1.42
439.551	1.45
439.91	1.53
440.269	1.48
440.628	1.43
440.987	1.48
441.345	1.58
441.704	1.41
442.063	1.54
442.421	1.44
442.78	1.52
443.138	1.45
443.497	1.49
443.855	1.55
444.214	1.33
444.572	1.6
444.93	1.46
445.288	1.48
445.647	1.39
446.005	1.43
446.363	1.4
446.721	1.43
447.079	1.46
447.437	1.52
447.795	1.57
448.153	1.47
448.51	1.57
448.868	1.53
449.226	1.59
449.584	1.48
449.941	1.52
450.299	1.44
450.656	1.46
451.014	1.48
451.371	1.63
451.729	1.57
452.086	1.54
452.443	1.66
452.801	1.54
453.158	1.76
453.515	1.48
453.872	1.49
454.229	1.39
454.586	1.45
454.943	1.62
455.3	1.57
455.657	1.35
456.014	1.51
456.371	1.62
456.727	1.72
457.084	1.62
457.441	1.49
457.797	1.43
458.154	1.58
458.51	1.48
458.867	1.54
459.223	1.55
459.58	1.5
459.936	1.5
460.292	1.45
460.648	1.39
461.005	1.4
461.361	1.48
461.717	1.52
462.073	1.6
462.429	1.62
462.785	1.58
463.141	1.56
463.496	1.52
463.852	1.64
464.208	1.5
464.564	1.46
464.919	1.57
465.275	1.54
465.631	1.7
465.986	1.68
466.342	1.51
466.697	1.56
467.052	1.62
467.408	1.58
467.763	1.55
468.118	1.49
468.473	1.56
468.829	1.41
469.184	1.56
469.539	1.39
469.894	1.51
470.249	1.51
470.603	1.6
470.958	1.54
471.313	1.58
471.668	1.61
472.023	1.63
472.377	1.49
472.732	1.51
473.086	1.58
473.441	1.56
473.795	1.65
474.15	1.57
474.504	1.49
474.859	1.37
475.213	1.61
475.567	1.39
475.921	1.65
476.275	1.66
476.63	1.7
476.984	1.37
477.338	1.69
477.692	1.55
478.045	1.67
478.399	1.55
478.753	1.49
479.107	1.72
479.461	1.6
479.814	1.6
480.168	1.58
480.521	1.67
480.875	1.61
481.228	1.66
481.582	1.58
481.935	1.68
482.289	1.57
482.642	1.68
482.995	1.61
483.348	1.55
483.701	1.6
484.055	1.58
484.408	1.58
484.761	1.52
485.114	1.47
485.466	1.5
485.819	1.48
486.172	1.52
486.525	1.53
486.878	1.58
487.23	1.56
487.583	1.6
487.936	1.46
488.288	1.54
488.641	1.58
488.993	1.49
489.345	1.49
489.698	1.5
490.05	1.52
490.402	1.54
490.754	1.57
491.107	1.48
491.459	1.58
491.811	1.59
492.163	1.69
492.515	1.58
492.866	1.5
493.218	1.52
493.57	1.61
493.922	1.54
494.274	1.64
494.625	1.73
494.977	1.67
495.328	1.63
495.68	1.6
496.031	1.64
496.383	1.58
496.734	1.56
497.086	1.69
497.437	1.71
497.788	1.71
498.139	1.58
498.49	1.67
498.842	1.65
499.193	1.67
499.544	1.7
499.894	1.55
500.245	1.7
500.596	1.72
500.947	1.52
501.298	1.58
501.648	1.61
501.999	1.68
502.35	1.6
502.7	1.69
503.051	1.69
503.401	1.69
503.752	1.53
504.102	1.52
504.452	1.58
504.803	1.54
505.153	1.68
505.503	1.55
505.853	1.73
506.203	1.69
506.553	1.61
506.903	1.78
507.253	1.76
507.603	1.63
507.953	1.62
508.303	1.7
508.652	1.5
509.002	1.67
509.352	1.71
509.701	1.51
510.051	1.66
510.4	1.72
510.75	1.54
511.099	1.51
511.449	1.67
511.798	1.65
512.147	1.63
512.496	1.69
512.846	1.55
513.195	1.62
513.544	1.76
513.893	1.62
514.242	1.61
514.591	1.63
514.939	1.54
515.288	1.72
515.637	1.57
515.986	1.54
516.334	1.71
516.683	1.6
517.032	1.67
517.38	1.6
517.729	1.67
518.077	1.6
518.426	1.77
518.774	1.6
519.122	1.71
519.47	1.56
519.819	1.66
520.167	1.59
520.515	1.64
520.863	1.58
521.211	1.64
521.559	1.59
521.907	1.71
522.255	1.56
522.602	1.64
522.95	1.67
523.298	1.55
523.645	1.64
523.993	1.62
524.341	1.67
524.688	1.64
525.036	1.61
525.383	1.56
525.73	1.65
526.078	1.69
526.425	1.67
526.772	1.69
527.119	1.54
527.466	1.74
527.814	1.64
528.161	1.64
528.508	1.68
528.854	1.64
529.201	1.63
529.548	1.58
529.895	1.54
530.242	1.56
530.588	1.56
530.935	1.57
531.282	1.61
531.628	1.62
531.975	1.61
532.321	1.62
532.667	1.6
533.014	1.75
533.36	1.7
533.706	1.68
534.052	1.71
534.399	1.61
534.745	1.58
535.091	1.6
535.437	1.61
535.783	1.57
536.129	1.61
536.474	1.68
536.82	1.63
537.166	1.53
537.512	1.64
537.857	1.67
538.203	1.57
538.549	1.56
538.894	1.57
539.239	1.68
539.585	1.83
539.93	1.77
540.276	1.67
540.621	1.76
540.966	1.63
541.311	1.73
541.656	1.57
542.001	1.57
542.346	1.6
542.691	1.58
543.036	1.62
543.381	1.59
543.726	1.67
544.071	1.63
544.415	1.68
544.76	1.59
545.105	1.61
545.449	1.61
545.794	1.6
546.138	1.58
546.483	1.77
546.827	1.68
547.171	1.74
547.516	1.73
547.86	1.64
548.204	1.74
548.548	1.67
548.892	1.61
549.236	1.71
549.58	1.69
549.924	1.73
550.268	1.77
550.612	1.81
550.956	1.69
551.3	1.82
551.643	1.83
551.987	1.76
552.33	1.95
552.674	1.78
553.017	1.75
553.361	1.75
553.704	1.68
554.048	1.67
554.391	1.7
554.734	1.65
555.077	1.63
555.42	1.54
555.764	1.61
556.107	1.76
556.45	1.76
556.793	1.81
557.135	1.68
557.478	1.7
557.821	1.7
558.164	1.7
558.507	1.63
558.849	1.7
559.192	1.79
559.534	1.69
559.877	1.61
560.219	1.69
560.562	1.65
560.904	1.85
561.246	1.67
561.589	2.01
561.931	1.76
562.273	1.78
562.615	1.66
562.957	1.64
563.299	1.8
563.641	1.71
563.983	1.49
564.325	1.67
564.667	1.7
565.008	1.57
565.35	1.57
565.692	1.63
566.033	1.66
566.375	1.74
566.716	1.58
567.058	1.77
567.399	1.81
567.741	1.8
568.082	1.81
568.423	1.72
568.764	1.66
569.105	1.79
569.447	1.65
569.788	1.78
570.129	1.64
570.47	1.74
570.811	1.6
571.151	1.68
571.492	1.76
571.833	1.62
572.174	1.89
572.514	1.69
572.855	1.78
573.195	1.7
573.536	1.76
573.876	1.7
574.217	1.62
574.557	1.79
574.898	1.61
575.238	1.76
575.578	1.72
575.918	1.87
576.258	1.92
576.598	1.74
576.938	1.69
577.278	1.64
577.618	1.73
577.958	1.76
578.298	1.78
578.638	1.76
578.977	1.95
579.317	1.78
579.657	1.76
579.996	1.79
580.336	1.77
580.675	1.6
581.014	1.76
581.354	1.63
581.693	1.8
582.032	1.98
582.372	1.83
582.711	1.83
583.05	1.66
583.389	1.53
583.728	1.91
584.067	1.6
584.406	1.9
584.745	1.52
585.083	1.65
585.422	1.87
585.761	1.89
586.1	1.69
586.438	1.69
586.777	1.62
587.115	1.91
587.454	1.56
587.792	1.66
588.13	1.65
588.469	1.57
588.807	1.82
589.145	2.03
589.483	1.43
589.821	1.76
590.159	1.83
590.497	1.77
590.835	1.96
591.173	1.82
591.511	2.03
591.849	1.89
592.187	1.73
592.524	1.75
592.862	1.74
593.2	1.79
593.537	1.64
593.875	1.61
594.212	1.92
594.55	1.79
594.887	1.77
595.224	1.84
595.561	1.61
595.899	1.76
596.236	1.61
596.573	1.77
596.91	1.78
597.247	1.93
597.584	1.76
597.921	1.68
598.258	1.9
598.594	1.58
598.931	1.66
599.268	1.51
599.604	1.9
599.941	1.8
600.277	1.84
600.614	1.53
600.95	1.84
601.287	1.51
601.623	1.68
601.959	2.02
602.296	1.95
602.632	1.69
602.968	1.53
603.304	1.72
603.64	1.91
603.976	1.61
604.312	1.53
604.648	1.67
604.984	1.79
605.319	1.75
605.655	1.84
605.991	1.73
606.326	1.68
606.662	1.57
606.998	1.94
607.333	1.92
607.668	1.79
608.004	1.66
608.339	1.55
608.674	1.86
609.01	2.13
609.345	1.65
609.68	1.55
610.015	1.87
610.35	2.07
610.685	1.54
611.02	1.68
611.355	1.68
611.689	1.59
612.024	1.75
612.359	1.99
612.694	1.87
613.028	1.65
613.363	1.65
613.697	1.66
614.032	1.76
614.366	1.86
614.7	1.97
615.035	1.74
615.369	1.87
615.703	1.55
616.037	1.63
616.371	1.55
616.705	1.71
617.039	1.82
617.373	1.79
617.707	1.88
618.041	1.46
618.375	1.15
618.709	1.8
619.042	1.83
619.376	1.88
619.71	1.46
620.043	2.11
620.377	1.9
620.71	1.88
621.043	1.6
621.377	1.66
621.71	2.46
622.043	2
622.376	2.02
622.709	2.37
623.043	1.88
623.376	1.76
623.709	2.14
624.041	1.57
624.374	1.79
624.707	1.79
625.04	1.66
625.373	1.96
625.705	1.81
626.038	1.92
626.37	1.48
626.703	1.83
627.035	1.74
627.368	2.24
627.7	1.9
628.032	1.69
628.365	1.93
628.697	2
629.029	1.76
629.361	1.93
629.693	1.58
630.025	2.03
630.357	1.97
630.689	1.67
631.021	1.93
631.353	1.54
631.684	1.71
632.016	1.62
632.348	1.7
632.679	1.9
633.011	1.9
633.342	1.89
633.674	1.48
634.005	1.99
634.336	1.79
634.668	1.59
634.999	1.61
635.33	1.96
635.661	1.71
635.992	2.03
636.323	1.93
636.654	1.83
636.985	1.71
637.316	1.7
637.647	2.09
637.977	1.74
638.308	1.81
638.639	1.54
638.969	1.64
639.3	1.82
639.63	1.81
639.961	2
640.291	1.62
640.622	2.03
640.952	2.01
641.282	1.36
641.612	1.63
641.943	1.76
642.273	1.78
642.603	2.29
642.933	1.99
643.263	1.85
643.592	2.05
643.922	2.21
644.252	2.11
644.582	2.33
644.911	1.79
645.241	1.46
645.571	2.07
645.9	1.84
646.23	1.88
646.559	1.5
646.888	2.02
647.218	1.66
647.547	1.55
647.876	1.68
648.205	1.61
648.534	2.01
648.863	1.98
649.192	2.06
649.521	1.92
649.85	1.79
650.179	2.16
650.508	1.86
650.837	2.35
651.165	1.86
651.494	2.01
651.822	2.08
652.151	1.75
652.479	2.18
652.808	1.8
653.136	1.23
653.465	1.78
653.793	1.77
654.121	1.85
654.449	1.67
654.777	1.47
655.105	1.54
655.433	2.22
655.761	1.78
656.089	2.12
656.417	2.36
656.745	2.33
657.073	1.72
657.4	1.67
657.728	1.41
658.056	1.37
658.383	2.14
658.711	1.76
659.038	2.23
659.365	1.99
659.693	1.98
660.02	1.56
660.347	1.63
660.674	1.66
661.001	1.65
661.329	1.71
661.656	1.55
661.982	1.44
662.309	1.7
662.636	1.55
662.963	1.83
663.29	2.21
663.616	1.99
663.943	1.33
664.27	1.76
664.596	1.23
664.923	1.97
665.249	1.64
665.576	1.59
665.902	1.24
666.228	1.85
666.554	2.44
666.881	1.27
667.207	1.76
667.533	1.87
667.859	1.38
668.185	1.9
668.511	1.95
668.837	2.17
669.162	1.87
669.488	1.48
669.814	1.59
670.139	1.32
670.465	2.02
670.791	1.5
671.116	2.18
671.442	0.92
671.767	1.49
672.092	1.48
672.418	2.24
672.743	1.71
673.068	1.78
673.393	2.14
673.718	0.95
674.043	1.65
674.368	1.83
674.693	1.68
675.018	1.97
675.343	2.47
675.667	1.58
675.992	1.58
676.317	1.22
676.641	1.73
676.966	1.73
677.29	1.63
677.615	1.44
677.939	1.79
678.264	1.54
678.588	2.06
678.912	1.74
679.236	1.95
679.56	1.51
679.885	1.49
680.209	1.64
680.532	2.18
680.856	1.79
681.18	2.51
681.504	1.65
681.828	1.25
682.152	1.39
682.475	1.72
682.799	1.35
683.122	1.93
683.446	1.16
683.769	1.31
684.093	1.95
684.416	1.91
684.739	1.66
685.062	2.06
685.386	1.59
685.709	2.08
686.032	1.69
686.355	1.67
686.678	2.18
687.001	1.68
687.324	1.68
687.646	1.91
687.969	1.63
688.292	1.91
688.614	2.2
688.937	1.98
689.26	2.27
689.582	1.73
689.904	1.75
690.227	1.68
690.549	2.15
690.871	1.69
691.194	1.42
