Data from 2019-2_crown_Reflection__4__416.txt Node

Date: Thu Dec 15 20:11:39 CST 2022
User: ToomeyLab
Spectrometer: FLMS14357
Trigger mode: 0
Integration Time (sec): 1.000000E-2
Scans to average: 100
Electric dark correction enabled: true
Nonlinearity correction enabled: false
Boxcar width: 0
XAxis mode: Wavelengths
Number of Pixels in Spectrum: 2048
>>>>>Begin Spectral Data<<<<<
189.047	-462.14
189.435	-462.14
189.823	-462.14
190.211	25.23
190.599	69.02
190.987	-146.5
191.375	-408.57
191.763	157.26
192.151	287.28
192.538	184.28
192.926	216.19
193.314	-638.04
193.702	106.58
194.089	-434.76
194.477	34.34
194.864	94.49
195.252	110.81
195.639	160.9
196.027	0.43
196.414	212.8
196.801	580.83
197.189	53.59
197.576	-583.31
197.963	165.68
198.351	-27.72
198.738	-41.35
199.125	-150.27
199.512	12.21
199.899	-115.57
200.286	23.3
200.673	14.43
201.06	-67.56
201.447	31.14
201.833	-19.63
202.22	-1.71
202.607	-42.56
202.994	-30.1
203.38	-5.36
203.767	-47.91
204.154	20.52
204.54	-39.08
204.927	-37.8
205.313	23.1
205.699	12.28
206.086	9.93
206.472	-2.47
206.858	-6.4
207.245	0.33
207.631	-1.07
208.017	17.52
208.403	-39.11
208.789	-12.39
209.175	-58.2
209.561	-159.34
209.947	-71.48
210.333	-47.23
210.719	-9.95
211.105	15.11
211.491	-30.71
211.876	-17.88
212.262	-6.19
212.648	5.09
213.034	-5.83
213.419	11.28
213.805	-50.71
214.19	-71.52
214.576	-48.83
214.961	-15.46
215.346	-18.02
215.732	-20.49
216.117	24.12
216.502	-3.86
216.888	3.83
217.273	-43.4
217.658	-6.84
218.043	-50.67
218.428	-85.12
218.813	-12.22
219.198	-35.61
219.583	-24.43
219.968	-33.35
220.353	-41.68
220.738	-12.53
221.122	-30.91
221.507	6.35
221.892	-47.09
222.276	-36.36
222.661	-12.06
223.046	-16.8
223.43	1.55
223.815	-14.05
224.199	-9.95
224.583	-9.06
224.968	-4.33
225.352	-13.6
225.736	0.13
226.121	3.81
226.505	-3.72
226.889	0.38
227.273	-2.44
227.657	4.01
228.041	3.9
228.425	-5.23
228.809	1.64
229.193	5.76
229.577	5.13
229.961	2.8
230.344	5.09
230.728	5.37
231.112	4.42
231.495	2.86
231.879	5.49
232.263	5.32
232.646	3.1
233.03	5.28
233.413	5.68
233.797	3.78
234.18	4.19
234.563	2.57
234.946	2.62
235.33	4.38
235.713	4.52
236.096	5.97
236.479	5.51
236.862	3.05
237.245	3.46
237.628	4.7
238.011	5.06
238.394	4.49
238.777	5.08
239.16	3.02
239.543	6.04
239.925	3.78
240.308	3.28
240.691	3.81
241.073	3.39
241.456	3.7
241.838	3.96
242.221	5.12
242.603	5
242.986	4.93
243.368	4.61
243.75	4.93
244.133	5.51
244.515	4.86
244.897	4.45
245.279	3.8
245.661	4.31
246.043	4.56
246.425	4.99
246.807	4.79
247.189	3.62
247.571	4.43
247.953	4.76
248.335	4.95
248.717	4.89
249.098	4.78
249.48	4.4
249.862	4.31
250.243	4.59
250.625	4.56
251.006	5.05
251.388	4.04
251.769	2.9
252.151	3.69
252.532	4.53
252.913	4.87
253.295	4.34
253.676	4.39
254.057	4.07
254.438	4.32
254.819	4.28
255.2	3.88
255.581	6.48
255.962	3.57
256.343	3.3
256.724	4.11
257.105	3.24
257.486	3.15
257.867	3.25
258.247	4.86
258.628	5.03
259.009	3.97
259.389	3.93
259.77	4.03
260.15	4.53
260.531	4.14
260.911	4.43
261.292	4.38
261.672	4.47
262.052	4.43
262.432	3.98
262.813	4.15
263.193	4.3
263.573	3.69
263.953	3.62
264.333	3.56
264.713	4.54
265.093	4.37
265.473	4.72
265.853	4.29
266.233	3.82
266.612	3.86
266.992	3.96
267.372	3.99
267.752	4.02
268.131	3.72
268.511	4.07
268.89	4.84
269.27	3.73
269.649	3.73
270.029	3.91
270.408	3.75
270.787	4.05
271.167	4.19
271.546	4.98
271.925	4.11
272.304	3.61
272.683	3.48
273.062	3.89
273.441	3.46
273.82	3.92
274.199	3.83
274.578	4.37
274.957	3.63
275.336	4.35
275.715	3.58
276.093	3.82
276.472	3.37
276.851	3.96
277.229	4.24
277.608	3.4
277.986	4.52
278.365	4.57
278.743	3.9
279.122	3.82
279.5	3.91
279.878	2.83
280.257	3.69
280.635	4.27
281.013	2.88
281.391	3.5
281.769	4.24
282.147	3.98
282.525	3.17
282.903	3.27
283.281	3.84
283.659	4.1
284.037	3.7
284.415	3.51
284.792	4.04
285.17	3.11
285.548	3.83
285.925	3.17
286.303	4.02
286.68	3.8
287.058	3.79
287.435	3.63
287.813	3.48
288.19	3.75
288.567	3.51
288.945	3.13
289.322	3.82
289.699	3.72
290.076	3.15
290.453	3.51
290.83	3.96
291.207	3.47
291.584	3.98
291.961	3.76
292.338	3.31
292.715	3.4
293.092	3.77
293.469	3.5
293.845	3.9
294.222	3.97
294.599	2.88
294.975	3.05
295.352	3.62
295.728	3.3
296.105	3.21
296.481	3.22
296.858	3.24
297.234	2.72
297.61	3.15
297.986	3.96
298.363	3.43
298.739	3.63
299.115	3.27
299.491	3.82
299.867	3.36
300.243	3.49
300.619	3.28
300.995	3.86
301.371	3.59
301.746	3.92
302.122	2.9
302.498	3.32
302.874	3.25
303.249	3.24
303.625	3.04
304	3.81
304.376	3.65
304.751	3.15
305.127	3.33
305.502	3.54
305.878	3.55
306.253	3.06
306.628	3.32
307.003	2.99
307.378	2.81
307.754	3.3
308.129	3.38
308.504	3.44
308.879	3.33
309.254	3.43
309.629	3.61
310.003	3.13
310.378	3.39
310.753	3.07
311.128	2.93
311.502	3.29
311.877	3.17
312.252	3.13
312.626	3.35
313.001	3.17
313.375	3.37
313.75	3.07
314.124	3.46
314.498	3.03
314.873	3.1
315.247	2.95
315.621	2.88
315.995	3.23
316.369	2.8
316.743	2.66
317.117	2.87
317.491	2.98
317.865	3.04
318.239	3.99
318.613	3.24
318.987	2.54
319.361	3.21
319.734	3.16
320.108	3.02
320.482	3.01
320.855	2.79
321.229	3.06
321.602	2.76
321.976	2.56
322.349	3.98
322.723	3.02
323.096	3.36
323.469	2.9
323.843	1.9
324.216	3.31
324.589	3.47
324.962	3.06
325.335	2.69
325.708	2.86
326.081	3.23
326.454	3.78
326.827	2.99
327.2	2.39
327.573	3.34
327.945	2.91
328.318	3.11
328.691	2.9
329.063	2.18
329.436	2.55
329.809	3.18
330.181	3.96
330.553	3.29
330.926	3.26
331.298	3.26
331.671	3.05
332.043	2.85
332.415	3.34
332.787	3.07
333.159	2.89
333.532	3.21
333.904	2.98
334.276	2.89
334.648	3.32
335.02	3.17
335.391	3.05
335.763	2.91
336.135	3.29
336.507	3.15
336.879	2.99
337.25	3.53
337.622	3.17
337.993	3.03
338.365	3.11
338.736	3.17
339.108	3.33
339.479	2.95
339.851	3.12
340.222	3.54
340.593	2.59
340.964	3.26
341.336	2.89
341.707	3.16
342.078	2.76
342.449	3.21
342.82	3.47
343.191	2.92
343.562	3.26
343.933	3.41
344.303	3.16
344.674	3.39
345.045	3.17
345.416	3.58
345.786	3.38
346.157	3.27
346.527	2.85
346.898	2.95
347.268	3.48
347.639	3.27
348.009	3.25
348.38	2.97
348.75	3.44
349.12	2.91
349.49	3.16
349.861	3.5
350.231	3.13
350.601	3.39
350.971	3.14
351.341	3.33
351.711	3.15
352.081	3.13
352.45	3.07
352.82	2.8
353.19	3.03
353.56	3.14
353.929	2.99
354.299	3.51
354.669	3.15
355.038	3.39
355.408	3.36
355.777	3.35
356.147	3.26
356.516	2.81
356.885	3.08
357.254	3.36
357.624	2.8
357.993	3.3
358.362	3.21
358.731	3.4
359.1	3.36
359.469	3.3
359.838	3.41
360.207	3.28
360.576	3.43
360.945	3.4
361.314	3.29
361.682	3.07
362.051	3.3
362.42	3.32
362.788	3.38
363.157	3.31
363.525	3.21
363.894	3.07
364.262	3.26
364.631	3.49
364.999	3.34
365.367	3.18
365.735	3.27
366.104	3.49
366.472	3.32
366.84	3.2
367.208	3.54
367.576	3.03
367.944	3.35
368.312	3.41
368.68	3.58
369.048	3.43
369.416	3.19
369.783	3.26
370.151	3.77
370.519	3.57
370.886	3.13
371.254	3.28
371.621	3.77
371.989	3.78
372.356	3.49
372.724	3.64
373.091	3
373.458	3.33
373.826	3.47
374.193	3.58
374.56	3.43
374.927	3.21
375.294	3.63
375.661	3.23
376.028	3.14
376.395	3.57
376.762	3.31
377.129	3.41
377.496	3.48
377.863	3.66
378.229	3.63
378.596	3.73
378.963	3.62
379.329	3.61
379.696	3.37
380.062	3.5
380.429	3.25
380.795	3.71
381.161	3.53
381.528	3.15
381.894	3.08
382.26	3.76
382.626	3.63
382.993	3.65
383.359	3.41
383.725	3.51
384.091	3.23
384.457	3.33
384.823	3.52
385.188	3.54
385.554	3.73
385.92	3.59
386.286	3.53
386.651	3.34
387.017	3.76
387.383	3.57
387.748	3.61
388.114	3.56
388.479	3.64
388.845	3.24
389.21	3.64
389.575	3.82
389.94	3.75
390.306	3.66
390.671	3.59
391.036	3.68
391.401	3.69
391.766	3.7
392.131	3.91
392.496	3.66
392.861	3.69
393.226	3.54
393.591	3.73
393.956	3.56
394.32	3.77
394.685	3.8
395.05	3.58
395.414	3.51
395.779	3.72
396.143	3.52
396.508	3.47
396.872	3.47
397.236	3.71
397.601	3.76
397.965	3.67
398.329	3.75
398.694	3.47
399.058	3.68
399.422	3.55
399.786	3.59
400.15	3.75
400.514	3.77
400.878	3.72
401.242	3.78
401.605	3.58
401.969	3.34
402.333	3.49
402.697	3.76
403.06	3.67
403.424	3.86
403.787	3.68
404.151	3.69
404.514	3.57
404.878	3.57
405.241	3.9
405.604	3.63
405.968	3.83
406.331	3.82
406.694	3.6
407.057	3.72
407.42	3.61
407.783	3.75
408.146	3.64
408.509	3.76
408.872	3.75
409.235	3.57
409.598	3.85
409.961	3.95
410.323	3.75
410.686	3.76
411.049	3.61
411.411	3.67
411.774	3.78
412.136	3.8
412.499	3.76
412.861	3.37
413.223	3.52
413.586	3.8
413.948	3.74
414.31	3.94
414.672	3.72
415.035	3.85
415.397	3.59
415.759	3.39
416.121	3.82
416.483	3.82
416.845	3.72
417.206	4
417.568	3.72
417.93	3.71
418.292	3.76
418.653	3.55
419.015	3.68
419.377	3.7
419.738	3.76
420.1	3.7
420.461	3.59
420.822	3.77
421.184	3.77
421.545	3.85
421.906	3.76
422.267	3.69
422.629	3.64
422.99	3.72
423.351	3.67
423.712	3.74
424.073	3.85
424.434	3.86
424.795	3.6
425.155	3.66
425.516	3.69
425.877	3.71
426.238	3.75
426.598	3.74
426.959	3.76
427.32	3.8
427.68	3.76
428.041	3.63
428.401	3.65
428.761	3.72
429.122	3.78
429.482	3.9
429.842	3.84
430.202	4.07
430.563	3.83
430.923	3.77
431.283	3.88
431.643	4
432.003	3.86
432.363	3.94
432.722	3.79
433.082	3.72
433.442	3.87
433.802	3.82
434.161	3.93
434.521	3.76
434.881	3.82
435.24	3.75
435.6	3.82
435.959	3.85
436.319	3.88
436.678	3.91
437.037	3.83
437.396	3.79
437.756	3.85
438.115	3.77
438.474	3.82
438.833	3.77
439.192	3.75
439.551	3.89
439.91	3.94
440.269	3.93
440.628	3.86
440.987	3.93
441.345	3.81
441.704	3.89
442.063	3.79
442.421	3.84
442.78	3.86
443.138	3.85
443.497	3.77
443.855	3.87
444.214	3.74
444.572	3.91
444.93	3.82
445.288	3.83
445.647	3.7
446.005	3.86
446.363	3.95
446.721	3.84
447.079	3.77
447.437	3.85
447.795	3.87
448.153	3.77
448.51	3.83
448.868	3.71
449.226	3.91
449.584	3.79
449.941	3.87
450.299	3.93
450.656	3.83
451.014	3.89
451.371	4
451.729	4.05
452.086	3.88
452.443	4.02
452.801	3.96
453.158	4.03
453.515	3.76
453.872	3.87
454.229	3.78
454.586	3.81
454.943	4.04
455.3	3.96
455.657	3.79
456.014	4.01
456.371	3.92
456.727	4.01
457.084	4.06
457.441	4.07
457.797	4.06
458.154	4
458.51	3.83
458.867	4.03
459.223	3.82
459.58	3.9
459.936	3.85
460.292	3.9
460.648	3.82
461.005	3.85
461.361	3.84
461.717	3.8
462.073	3.95
462.429	4
462.785	4
463.141	3.82
463.496	3.83
463.852	4.04
464.208	3.91
464.564	3.86
464.919	3.98
465.275	3.91
465.631	4.12
465.986	4.09
466.342	3.97
466.697	4
467.052	4.01
467.408	4.1
467.763	3.97
468.118	3.83
468.473	3.93
468.829	3.91
469.184	3.92
469.539	4.01
469.894	4.01
470.249	4.05
470.603	4.1
470.958	4
471.313	3.93
471.668	4.01
472.023	3.88
472.377	4.02
472.732	3.99
473.086	4.03
473.441	4.03
473.795	4.17
474.15	4.09
474.504	4.07
474.859	3.87
475.213	4.19
475.567	3.91
475.921	4.01
476.275	3.99
476.63	4.07
476.984	3.84
477.338	3.93
477.692	3.99
478.045	4.02
478.399	4.06
478.753	4
479.107	3.96
479.461	3.94
479.814	4.05
480.168	3.97
480.521	4.1
480.875	3.96
481.228	3.99
481.582	4.02
481.935	4.17
482.289	3.99
482.642	4.02
482.995	4.01
483.348	3.83
483.701	4.1
484.055	3.96
484.408	3.88
484.761	3.79
485.114	3.69
485.466	3.69
485.819	3.71
486.172	3.77
486.525	3.83
486.878	3.86
487.23	3.89
487.583	3.89
487.936	3.85
488.288	3.86
488.641	3.78
488.993	3.73
489.345	3.77
489.698	3.8
490.05	3.79
490.402	3.82
490.754	3.88
491.107	3.92
491.459	3.96
491.811	3.96
492.163	3.94
492.515	3.86
492.866	3.79
493.218	3.78
493.57	3.89
493.922	3.87
494.274	3.97
494.625	4.04
494.977	4.04
495.328	3.99
495.68	3.94
496.031	3.99
496.383	4.06
496.734	3.92
497.086	4
497.437	4.08
497.788	4.14
498.139	3.96
498.49	4.06
498.842	4.01
499.193	3.88
499.544	4
499.894	4.03
500.245	4.04
500.596	4.11
500.947	4.03
501.298	4.04
501.648	4.1
501.999	4.09
502.35	3.94
502.7	4.17
503.051	4.11
503.401	3.98
503.752	4.07
504.102	4.01
504.452	3.8
504.803	3.93
505.153	4
505.503	3.99
505.853	3.99
506.203	4.11
506.553	4.02
506.903	4.1
507.253	4.04
507.603	4.04
507.953	3.94
508.303	4.04
508.652	3.88
509.002	4.12
509.352	3.99
509.701	3.99
510.051	4.11
510.4	4.02
510.75	4.05
511.099	3.9
511.449	3.96
511.798	3.96
512.147	4
512.496	4
512.846	3.98
513.195	4.03
513.544	4.04
513.893	4.09
514.242	3.99
514.591	4.03
514.939	4.12
515.288	4.04
515.637	4.05
515.986	3.98
516.334	4.11
516.683	4.14
517.032	4.03
517.38	4.09
517.729	4.05
518.077	4.06
518.426	4.03
518.774	4.04
519.122	4
519.47	3.97
519.819	3.99
520.167	3.89
520.515	4.07
520.863	4.02
521.211	4.01
521.559	3.97
521.907	4.01
522.255	3.95
522.602	4.02
522.95	4.11
523.298	4.03
523.645	4.13
523.993	4.12
524.341	3.96
524.688	3.99
525.036	4.05
525.383	4.1
525.73	3.92
526.078	4.06
526.425	3.97
526.772	3.98
527.119	3.97
527.466	4.06
527.814	3.97
528.161	4.06
528.508	4.11
528.854	4.01
529.201	3.91
529.548	3.91
529.895	3.83
530.242	3.79
530.588	3.81
530.935	3.86
531.282	3.9
531.628	3.93
531.975	3.95
532.321	3.98
532.667	4.03
533.014	4.16
533.36	3.97
533.706	4.03
534.052	4.05
534.399	3.96
534.745	3.88
535.091	3.86
535.437	3.87
535.783	3.93
536.129	3.95
536.474	4.04
536.82	4.11
537.166	3.94
537.512	4.02
537.857	3.93
538.203	4.03
538.549	3.95
538.894	3.94
539.239	4.07
539.585	4.03
539.93	4.2
540.276	4
540.621	4.12
540.966	4.01
541.311	3.93
541.656	3.87
542.001	3.97
542.346	3.96
542.691	3.87
543.036	3.87
543.381	3.88
543.726	3.99
544.071	3.9
544.415	3.99
544.76	3.96
545.105	3.99
545.449	3.99
545.794	4.03
546.138	3.95
546.483	4.04
546.827	3.94
547.171	4.1
547.516	4.04
547.86	3.99
548.204	4.09
548.548	3.98
548.892	4.05
549.236	4.03
549.58	4.14
549.924	4.1
550.268	4.11
550.612	4.1
550.956	4.18
551.3	4.21
551.643	4.1
551.987	4.22
552.33	4.45
552.674	4.2
553.017	4.17
553.361	4.2
553.704	4.1
554.048	4.07
554.391	4.13
554.734	4.13
555.077	4.06
555.42	4.08
555.764	3.97
556.107	4.33
556.45	4.2
556.793	4.27
557.135	4.15
557.478	4.14
557.821	4.32
558.164	4.06
558.507	4.07
558.849	4.38
559.192	4.15
559.534	4.03
559.877	4.07
560.219	4.13
560.562	3.92
560.904	4.2
561.246	4.11
561.589	4.31
561.931	4.2
562.273	4
562.615	4.04
562.957	4.05
563.299	4.01
563.641	4.24
563.983	4.19
564.325	4.2
564.667	4.09
565.008	3.85
565.35	4.06
565.692	4.14
566.033	4.02
566.375	4.03
566.716	3.97
567.058	4.2
567.399	4.07
567.741	4.18
568.082	4.06
568.423	4.03
568.764	4
569.105	4.1
569.447	4.07
569.788	3.94
570.129	4.01
570.47	4.17
570.811	4.03
571.151	4.14
571.492	4.09
571.833	4.06
572.174	4.09
572.514	4.18
572.855	4.17
573.195	4.05
573.536	4.07
573.876	4.05
574.217	4.05
574.557	4.03
574.898	3.93
575.238	4
575.578	4.23
575.918	4.06
576.258	4.23
576.598	4.11
576.938	3.9
577.278	4.15
577.618	4.19
577.958	4.21
578.298	4.15
578.638	4.06
578.977	4.17
579.317	4.08
579.657	4.12
579.996	4.18
580.336	4.03
580.675	4.11
581.014	4.1
581.354	4.03
581.693	4.28
582.032	4.34
582.372	4.16
582.711	4.1
583.05	4.18
583.389	4.26
583.728	4.26
584.067	4.14
584.406	4.29
584.745	4.02
585.083	4.19
585.422	4.24
585.761	4.01
586.1	4.43
586.438	4.05
586.777	4.19
587.115	4.04
587.454	3.87
587.792	4.28
588.13	3.87
588.469	3.91
588.807	4.35
589.145	4.09
589.483	3.73
589.821	4.03
590.159	4.11
590.497	4.23
590.835	4.16
591.173	3.96
591.511	4.25
591.849	4.28
592.187	3.85
592.524	4.18
592.862	4.29
593.2	4
593.537	3.98
593.875	3.91
594.212	4.05
594.55	4.26
594.887	4.07
595.224	4.17
595.561	4.08
595.899	4.11
596.236	4.16
596.573	3.91
596.91	3.89
597.247	4.04
597.584	4.07
597.921	3.99
598.258	4.21
598.594	3.96
598.931	3.74
599.268	4.05
599.604	4.17
599.941	4.17
600.277	4.06
600.614	4.12
600.95	3.83
601.287	3.85
601.623	3.9
601.959	4.21
602.296	4.1
602.632	4.14
602.968	4.3
603.304	4.08
603.64	3.99
603.976	4.09
604.312	4.17
604.648	4.26
604.984	4.07
605.319	4.09
605.655	4.09
605.991	3.93
606.326	4.06
606.662	3.95
606.998	4.13
607.333	4.17
607.668	3.95
608.004	4.1
608.339	3.93
608.674	4.05
609.01	4.5
609.345	4.24
609.68	3.96
610.015	4.27
610.35	4.17
610.685	3.81
611.02	4.04
611.355	3.79
611.689	4.03
612.024	4.05
612.359	4.12
612.694	4.19
613.028	3.86
613.363	4.24
613.697	4.26
614.032	4.01
614.366	3.83
614.7	4.05
615.035	4.09
615.369	4.31
615.703	4.05
616.037	4.22
616.371	3.98
616.705	4.11
617.039	4.32
617.373	4.22
617.707	4.02
618.041	3.85
618.375	3.08
618.709	4.4
619.042	3.83
619.376	4.05
619.71	4.04
620.043	4.26
620.377	3.99
620.71	3.65
621.043	4.19
621.377	4.26
621.71	4.41
622.043	3.94
622.376	3.93
622.709	4.43
623.043	3.88
623.376	3.92
623.709	4.28
624.041	4
624.374	4.23
624.707	4.05
625.04	3.93
625.373	4.38
625.705	4.09
626.038	3.98
626.37	3.98
626.703	4.06
627.035	4.05
627.368	4.36
627.7	3.75
628.032	4.1
628.365	4.24
628.697	4.08
629.029	4.06
629.361	4.39
629.693	4.22
630.025	4.24
630.357	4.16
630.689	4.23
631.021	4.31
631.353	4.19
631.684	4
632.016	3.75
632.348	3.9
632.679	4.07
633.011	3.9
633.342	3.96
633.674	3.79
634.005	4.14
634.336	4.2
634.668	3.7
634.999	3.97
635.33	3.94
635.661	4.17
635.992	4.07
636.323	4.03
636.654	4.15
636.985	4.04
637.316	3.98
637.647	3.95
637.977	3.72
638.308	4.25
638.639	4.04
638.969	4.06
639.3	4.13
639.63	4.24
639.961	4.09
640.291	3.81
640.622	4.26
640.952	4.28
641.282	4.01
641.612	3.92
641.943	3.53
642.273	3.85
642.603	4.2
642.933	4.04
643.263	4.18
643.592	4.19
643.922	4.73
644.252	3.98
644.582	4.39
644.911	3.88
645.241	4.3
645.571	4.2
645.9	4.21
646.23	4.29
646.559	3.94
646.888	4.36
647.218	3.82
647.547	3.85
647.876	4.07
648.205	3.99
648.534	4.14
648.863	4.01
649.192	4.08
649.521	3.73
649.85	4.03
650.179	4.09
650.508	3.84
650.837	3.9
651.165	3.72
651.494	3.75
651.822	4.14
652.151	3.74
652.479	4.13
652.808	4.25
653.136	3.76
653.465	3.72
653.793	4.21
654.121	3.65
654.449	3.56
654.777	3.52
655.105	3.37
655.433	3.99
655.761	3.96
656.089	3.84
656.417	4.18
656.745	3.99
657.073	3.84
657.4	3.88
657.728	3.31
658.056	3.79
658.383	3.73
658.711	4.67
659.038	4.87
659.365	4.14
659.693	4.08
660.02	3.76
660.347	3.93
660.674	4.01
661.001	4.1
661.329	3.81
661.656	3.43
661.982	3.59
662.309	4.05
662.636	4.11
662.963	3.89
663.29	4.14
663.616	3.84
663.943	3.96
664.27	3.65
664.596	3.39
664.923	4.28
665.249	4.32
665.576	3.96
665.902	3.44
666.228	4.25
666.554	4.81
666.881	3.83
667.207	4.02
667.533	3.84
667.859	3.82
668.185	3.94
668.511	4.23
668.837	3.89
669.162	4.47
669.488	3.49
669.814	3.53
670.139	3.85
670.465	4.14
670.791	3.46
671.116	3.99
671.442	3.61
671.767	3.86
672.092	3.57
672.418	4.46
672.743	3.87
673.068	3.94
673.393	3.92
673.718	2.75
674.043	3.89
674.368	3.85
674.693	4.14
675.018	4.5
675.343	4.22
675.667	4.35
675.992	3.53
676.317	2.84
676.641	4.13
676.966	3.91
677.29	3.15
677.615	3.72
677.939	3.84
678.264	3.25
678.588	3.79
678.912	3.85
679.236	3.12
679.56	3.29
679.885	4.18
680.209	4.14
680.532	4.08
680.856	4.31
681.18	4.41
681.504	3.88
681.828	3.5
682.152	3.65
682.475	4.22
682.799	3.24
683.122	3.8
683.446	3.35
683.769	3.88
684.093	4.55
684.416	3.1
684.739	4.22
685.062	4.63
685.386	4.21
685.709	4.42
686.032	4.41
686.355	3.56
686.678	4.92
687.001	4.37
687.324	3.7
687.646	4.16
687.969	4.15
688.292	3.49
688.614	4.09
688.937	3.92
689.26	4.47
689.582	4.18
689.904	4.58
690.227	4.64
690.549	4.35
690.871	3.82
691.194	3.47
691.516	3.86
691.838	3.8
692.16	3.67
