Data from 2019-2_forehead_Reflection__1__418.txt Node

Date: Thu Dec 15 20:12:36 CST 2022
User: ToomeyLab
Spectrometer: FLMS14357
Trigger mode: 0
Integration Time (sec): 1.000000E-2
Scans to average: 100
Electric dark correction enabled: true
Nonlinearity correction enabled: false
Boxcar width: 0
XAxis mode: Wavelengths
Number of Pixels in Spectrum: 2048
>>>>>Begin Spectral Data<<<<<
189.047	-52.93
189.435	-52.93
189.823	-52.93
190.211	17.75
190.599	21.16
190.987	-95.55
191.375	-4322.86
191.763	120
192.151	72.24
192.538	-64.68
192.926	242.77
193.314	55.56
193.702	23.77
194.089	-486.41
194.477	38.48
194.864	297.7
195.252	26.95
195.639	122.49
196.027	209.29
196.414	-188.21
196.801	846.9
197.189	85.94
197.576	-96.63
197.963	463.67
198.351	29.09
198.738	-24.71
199.125	31.71
199.512	58.85
199.899	-30.56
200.286	15.15
200.673	65.78
201.06	35.86
201.447	-5.14
201.833	25.2
202.22	-4.91
202.607	-34.98
202.994	25.98
203.38	11.41
203.767	37.65
204.154	34.07
204.54	6.58
204.927	-6.47
205.313	53.63
205.699	47.7
206.086	14.98
206.472	10.66
206.858	-1.87
207.245	25.01
207.631	-13.36
208.017	48.94
208.403	-22.12
208.789	21.5
209.175	63.86
209.561	-109.01
209.947	26.62
210.333	21.99
210.719	53.92
211.105	41.68
211.491	-4.19
211.876	-28.44
212.262	63.28
212.648	20.99
213.034	17.65
213.419	12.04
213.805	-38.67
214.19	-50.72
214.576	22.17
214.961	46.7
215.346	-42.97
215.732	-17.73
216.117	36.47
216.502	-4.8
216.888	25.69
217.273	49.54
217.658	29.93
218.043	-24.83
218.428	19.57
218.813	38.09
219.198	-49.54
219.583	-1.49
219.968	51.39
220.353	-1.34
220.738	-6.48
221.122	24.25
221.507	19.88
221.892	-13.93
222.276	-53.39
222.661	-12.79
223.046	-14.86
223.43	22.97
223.815	14.07
224.199	8.91
224.583	-4.59
224.968	-2.01
225.352	4.44
225.736	23.77
226.121	-0.45
226.505	4.41
226.889	6.19
227.273	0.66
227.657	5.02
228.041	7.47
228.425	2.27
228.809	6.98
229.193	8.66
229.577	5.72
229.961	6.25
230.344	6.72
230.728	6.4
231.112	6.73
231.495	3.56
231.879	8.01
232.263	6.91
232.646	5.41
233.03	7.79
233.413	5.91
233.797	6.48
234.18	7.45
234.563	8.06
234.946	3.85
235.33	5.12
235.713	5.25
236.096	5.81
236.479	7.88
236.862	4.35
237.245	6.7
237.628	5.23
238.011	5.25
238.394	6.1
238.777	5.42
239.16	6.5
239.543	6.64
239.925	4.28
240.308	5.3
240.691	4.81
241.073	4.89
241.456	6.69
241.838	5.67
242.221	5.71
242.603	5.57
242.986	5.82
243.368	5.77
243.75	5.74
244.133	6.32
244.515	5.47
244.897	5.45
245.279	5.29
245.661	6.43
246.043	6.15
246.425	6.05
246.807	4.84
247.189	5.03
247.571	5.58
247.953	5.18
248.335	5.49
248.717	5.58
249.098	5.73
249.48	5.07
249.862	6.05
250.243	5.7
250.625	5.68
251.006	6.81
251.388	5.71
251.769	4.17
252.151	6.28
252.532	5.02
252.913	5.93
253.295	5.92
253.676	5.46
254.057	5.38
254.438	5.61
254.819	5.24
255.2	6.26
255.581	6.25
255.962	6.6
256.343	6.78
256.724	6.23
257.105	5.66
257.486	4.17
257.867	5.38
258.247	5.4
258.628	5.84
259.009	4.97
259.389	3.92
259.77	5.14
260.15	6.09
260.531	5.7
260.911	5.28
261.292	5.36
261.672	5.34
262.052	5.41
262.432	4.92
262.813	5.4
263.193	5.33
263.573	5.49
263.953	5.37
264.333	6.14
264.713	5.52
265.093	5.08
265.473	6.04
265.853	6.3
266.233	6.02
266.612	5.41
266.992	5.54
267.372	6.05
267.752	5.75
268.131	5.05
268.511	5.31
268.89	6.09
269.27	4.58
269.649	4.96
270.029	5.07
270.408	5.19
270.787	5.41
271.167	5.48
271.546	6.23
271.925	5.8
272.304	5.02
272.683	5.11
273.062	5.38
273.441	5.05
273.82	5.35
274.199	5.4
274.578	5.69
274.957	5.14
275.336	5.39
275.715	5.68
276.093	5.4
276.472	5.02
276.851	5.88
277.229	5.09
277.608	4.95
277.986	5.43
278.365	5.26
278.743	5.17
279.122	5.28
279.5	5.39
279.878	5.29
280.257	5.49
280.635	5.84
281.013	4.81
281.391	5.46
281.769	6.15
282.147	5.76
282.525	5.58
282.903	5.29
283.281	5.59
283.659	5.64
284.037	5.29
284.415	5.41
284.792	5.83
285.17	5.37
285.548	5.28
285.925	5.12
286.303	6.1
286.68	5.78
287.058	5.5
287.435	5.23
287.813	5.5
288.19	5.3
288.567	5.67
288.945	5.38
289.322	5.46
289.699	5.74
290.076	5.43
290.453	4.97
290.83	5.58
291.207	5.67
291.584	5.74
291.961	5.62
292.338	5.78
292.715	5.4
293.092	5.88
293.469	5.49
293.845	6.18
294.222	6.72
294.599	5.37
294.975	5.34
295.352	6.13
295.728	5.92
296.105	5.87
296.481	6.04
296.858	6.11
297.234	5.91
297.61	6.33
297.986	6.57
298.363	6.46
298.739	6.41
299.115	6.35
299.491	6.66
299.867	6.26
300.243	6.32
300.619	6.5
300.995	6.94
301.371	7.08
301.746	6.69
302.122	6.05
302.498	6.71
302.874	6.93
303.249	6.83
303.625	6.8
304	7.42
304.376	7.46
304.751	7.3
305.127	7.25
305.502	7.25
305.878	7.97
306.253	7.25
306.628	7.47
307.003	7.4
307.378	7.63
307.754	7.69
308.129	7.47
308.504	8.36
308.879	7.81
309.254	7.59
309.629	8.08
310.003	8.37
310.378	8.63
310.753	8.26
311.128	8.14
311.502	8.09
311.877	8.38
312.252	8.51
312.626	8.99
313.001	8.57
313.375	8.67
313.75	9.15
314.124	9.31
314.498	9.31
314.873	8.96
315.247	8.97
315.621	9.01
315.995	8.79
316.369	9.46
316.743	8.85
317.117	8.98
317.491	9.31
317.865	9.02
318.239	9.62
318.613	9.43
318.987	9.64
319.361	9.24
319.734	10.3
320.108	9.57
320.482	10.34
320.855	10.27
321.229	9.78
321.602	10.01
321.976	9.12
322.349	10.61
322.723	10.64
323.096	10.52
323.469	10.23
323.843	10.4
324.216	10.47
324.589	10.56
324.962	10.68
325.335	10.09
325.708	11.2
326.081	11.07
326.454	10.99
326.827	11.3
327.2	10.7
327.573	11.71
327.945	11.12
328.318	11.53
328.691	11.41
329.063	11.7
329.436	11.97
329.809	11.82
330.181	11.99
330.553	11.99
330.926	12.15
331.298	11.66
331.671	12.04
332.043	11.94
332.415	12.54
332.787	12.27
333.159	12.15
333.532	12.45
333.904	12.46
334.276	12.59
334.648	12.34
335.02	12.59
335.391	12.38
335.763	12.7
336.135	12.58
336.507	12.7
336.879	12.82
337.25	13.13
337.622	13.09
337.993	13.09
338.365	12.79
338.736	12.81
339.108	13.51
339.479	13.08
339.851	13.57
340.222	13.24
340.593	13.16
340.964	13.46
341.336	13.68
341.707	14.02
342.078	14.05
342.449	13.9
342.82	14.17
343.191	13.45
343.562	13.95
343.933	13.77
344.303	14.18
344.674	14.17
345.045	14.34
345.416	14.65
345.786	14.05
346.157	14.64
346.527	14.41
346.898	14.04
347.268	14.63
347.639	14.69
348.009	14.7
348.38	14.9
348.75	14.76
349.12	15.05
349.49	15.09
349.861	15.23
350.231	14.65
350.601	15.1
350.971	15.31
351.341	15.44
351.711	15.48
352.081	15.28
352.45	15.46
352.82	14.81
353.19	15.77
353.56	15.62
353.929	15.73
354.299	16.11
354.669	16.03
355.038	16.28
355.408	15.81
355.777	16.11
356.147	15.91
356.516	16.21
356.885	16.22
357.254	16.04
357.624	15.96
357.993	16.48
358.362	16.6
358.731	16.87
359.1	16.64
359.469	16.65
359.838	16.83
360.207	16.65
360.576	17.23
360.945	17.12
361.314	16.89
361.682	16.92
362.051	16.93
362.42	17.19
362.788	17.17
363.157	16.93
363.525	17.33
363.894	17.33
364.262	17.62
364.631	17.44
364.999	17.35
365.367	17.55
365.735	17.67
366.104	17.86
366.472	18.05
366.84	18.25
367.208	18.29
367.576	18.32
367.944	17.92
368.312	17.9
368.68	18.78
369.048	18.29
369.416	18.47
369.783	18.24
370.151	18.99
370.519	19.05
370.886	18.3
371.254	18.84
371.621	19.14
371.989	18.9
372.356	19.02
372.724	18.9
373.091	19.05
373.458	19.04
373.826	19.39
374.193	19.29
374.56	19.49
374.927	19.3
375.294	19.72
375.661	19.58
376.028	19.38
376.395	20.16
376.762	19.3
377.129	19.75
377.496	19.51
377.863	20.2
378.229	19.88
378.596	20.27
378.963	20.06
379.329	20.41
379.696	20.07
380.062	20.34
380.429	20.35
380.795	20.5
381.161	20.25
381.528	19.98
381.894	20.44
382.26	20.96
382.626	20.8
382.993	21.14
383.359	20.87
383.725	21.05
384.091	20.94
384.457	21.17
384.823	21.3
385.188	21.32
385.554	21.54
385.92	21.23
386.286	21.46
386.651	21.44
387.017	21.61
387.383	21.64
387.748	21.67
388.114	21.69
388.479	21.81
388.845	22.08
389.21	22.24
389.575	22.27
389.94	22.32
390.306	22.15
390.671	22.26
391.036	22.29
391.401	22.31
391.766	22.53
392.131	22.62
392.496	22.41
392.861	22.53
393.226	22.77
393.591	22.67
393.956	22.78
394.32	22.9
394.685	23.16
395.05	23.1
395.414	23.11
395.779	23.07
396.143	22.91
396.508	23.06
396.872	23.04
397.236	23.33
397.601	23.34
397.965	23.22
398.329	23.49
398.694	23.47
399.058	23.67
399.422	23.77
399.786	23.46
400.15	23.76
400.514	23.93
400.878	23.94
401.242	24.15
401.605	24.06
401.969	24.19
402.333	24.4
402.697	24.36
403.06	24.45
403.424	24.32
403.787	24.67
404.151	24.47
404.514	24.78
404.878	24.43
405.241	24.46
405.604	24.38
405.968	24.65
406.331	24.81
406.694	24.79
407.057	24.68
407.42	24.74
407.783	25.03
408.146	24.98
408.509	25.14
408.872	25.33
409.235	25.41
409.598	25.16
409.961	25.52
410.323	25.45
410.686	25.41
411.049	25.63
411.411	25.76
411.774	25.75
412.136	25.8
412.499	25.6
412.861	25.56
413.223	25.86
413.586	25.9
413.948	25.98
414.31	26.15
414.672	26.11
415.035	26.25
415.397	26.32
415.759	26.24
416.121	26.65
416.483	26.6
416.845	26.7
417.206	26.6
417.568	26.45
417.93	26.68
418.292	26.48
418.653	26.37
419.015	26.55
419.377	26.65
419.738	26.77
420.1	26.56
420.461	26.78
420.822	26.75
421.184	26.79
421.545	26.89
421.906	26.67
422.267	26.78
422.629	26.78
422.99	26.87
423.351	26.76
423.712	26.95
424.073	27.03
424.434	27.27
424.795	27.22
425.155	27.1
425.516	27.2
425.877	27.1
426.238	27.32
426.598	27.49
426.959	27.62
427.32	27.59
427.68	27.78
428.041	27.87
428.401	27.99
428.761	28.29
429.122	28.23
429.482	28.36
429.842	28.68
430.202	28.59
430.563	28.45
430.923	28.67
431.283	28.85
431.643	28.74
432.003	28.91
432.363	28.81
432.722	29.22
433.082	28.76
433.442	28.99
433.802	28.98
434.161	29.05
434.521	29.03
434.881	29.09
435.24	29.04
435.6	29.23
435.959	29.49
436.319	29.28
436.678	29.49
437.037	29.53
437.396	29.65
437.756	29.6
438.115	29.68
438.474	29.82
438.833	29.89
439.192	29.94
439.551	29.87
439.91	29.87
440.269	29.99
440.628	29.95
440.987	30
441.345	29.95
441.704	30.02
442.063	29.89
442.421	30.01
442.78	30.08
443.138	30.3
443.497	30.32
443.855	30.43
444.214	30.55
444.572	30.72
444.93	30.65
445.288	30.56
445.647	30.59
446.005	30.88
446.363	30.85
446.721	30.73
447.079	30.68
447.437	30.77
447.795	30.8
448.153	30.58
448.51	30.66
448.868	30.65
449.226	30.95
449.584	31.15
449.941	31.41
450.299	31.33
450.656	31.59
451.014	31.68
451.371	31.67
451.729	31.68
452.086	31.89
452.443	32.15
452.801	31.92
453.158	32.07
453.515	31.96
453.872	31.99
454.229	31.98
454.586	32.17
454.943	32.4
455.3	32.35
455.657	32.33
456.014	32.37
456.371	32.62
456.727	32.82
457.084	32.47
457.441	32.72
457.797	32.82
458.154	32.93
458.51	32.78
458.867	33.2
459.223	32.99
459.58	32.97
459.936	33.03
460.292	32.85
460.648	32.83
461.005	32.82
461.361	32.63
461.717	32.65
462.073	32.91
462.429	33.23
462.785	33.16
463.141	33.37
463.496	33.54
463.852	33.65
464.208	33.74
464.564	33.59
464.919	33.82
465.275	33.9
465.631	34.1
465.986	34.06
466.342	34.02
466.697	34.26
467.052	34.22
467.408	34.23
467.763	34.38
468.118	34.35
468.473	34.16
468.829	34.59
469.184	34.41
469.539	34.42
469.894	34.47
470.249	34.73
470.603	34.77
470.958	34.86
471.313	34.93
471.668	35.17
472.023	34.83
472.377	34.92
472.732	35.01
473.086	35.22
473.441	35.04
473.795	35.38
474.15	35.41
474.504	35.44
474.859	35.36
475.213	35.46
475.567	35.37
475.921	35.47
476.275	35.54
476.63	35.78
476.984	35.71
477.338	35.93
477.692	35.84
478.045	35.73
478.399	35.89
478.753	35.89
479.107	36
479.461	35.83
479.814	35.91
480.168	36.18
480.521	36.12
480.875	36.09
481.228	36.24
481.582	36.37
481.935	36.43
482.289	36.28
482.642	36.27
482.995	36.32
483.348	36.11
483.701	36.06
484.055	36.08
484.408	35.82
484.761	35.54
485.114	35.32
485.466	35.51
485.819	35.57
486.172	35.6
486.525	35.64
486.878	35.8
487.23	35.9
487.583	36.2
487.936	36.2
488.288	36.18
488.641	36.07
488.993	35.89
489.345	36.05
489.698	36.18
490.05	36.05
490.402	36.15
490.754	36.51
491.107	36.74
491.459	37
491.811	36.95
492.163	37.06
492.515	36.98
492.866	36.68
493.218	36.79
493.57	36.96
493.922	36.9
494.274	37.02
494.625	37.32
494.977	37.68
495.328	37.89
495.68	37.89
496.031	38.2
496.383	38.28
496.734	38.22
497.086	38.58
497.437	38.35
497.788	38.51
498.139	38.49
498.49	38.27
498.842	38.44
499.193	38.33
499.544	38.5
499.894	38.44
500.245	38.64
500.596	38.74
500.947	38.78
501.298	38.83
501.648	39.1
501.999	38.99
502.35	38.97
502.7	39.26
503.051	39.31
503.401	39.46
503.752	39.3
504.102	39.49
504.452	39.46
504.803	39.48
505.153	39.63
505.503	39.37
505.853	39.57
506.203	39.57
506.553	39.72
506.903	39.89
507.253	39.84
507.603	40.09
507.953	40.04
508.303	40.04
508.652	39.88
509.002	39.98
509.352	39.98
509.701	39.94
510.051	40.15
510.4	40.08
510.75	39.9
511.099	39.99
511.449	40.25
511.798	40.17
512.147	40.22
512.496	40.61
512.846	40.22
513.195	40.27
513.544	40.22
513.893	40.34
514.242	40.44
514.591	40.52
514.939	40.71
515.288	40.63
515.637	40.81
515.986	40.94
516.334	41.09
516.683	40.89
517.032	41.08
517.38	41.16
517.729	41.19
518.077	41.29
518.426	41.01
518.774	41.13
519.122	40.84
519.47	40.8
519.819	40.76
520.167	40.71
520.515	40.91
520.863	40.94
521.211	40.9
521.559	40.99
521.907	41.29
522.255	41.42
522.602	41.47
522.95	41.7
523.298	41.85
523.645	41.99
523.993	41.83
524.341	41.76
524.688	41.94
525.036	41.97
525.383	42
525.73	42.17
526.078	42.11
526.425	41.7
526.772	41.9
527.119	41.76
527.466	41.71
527.814	41.73
528.161	41.73
528.508	41.84
528.854	41.91
529.201	41.86
529.548	41.67
529.895	41.4
530.242	41.62
530.588	41.57
530.935	41.57
531.282	41.44
531.628	41.71
531.975	41.77
532.321	41.98
532.667	42.27
533.014	42.55
533.36	42.62
533.706	42.25
534.052	42.49
534.399	42.18
534.745	42.14
535.091	42.25
535.437	42.22
535.783	42.2
536.129	42.47
536.474	42.86
536.82	42.78
537.166	42.96
537.512	43.04
537.857	43.03
538.203	42.94
538.549	42.92
538.894	43.14
539.239	43.09
539.585	43.33
539.93	43.62
540.276	43.58
540.621	43.74
540.966	43.67
541.311	43.74
541.656	43.71
542.001	43.54
542.346	43.41
542.691	43.06
543.036	43.06
543.381	43.01
543.726	43.15
544.071	43.29
544.415	43.39
544.76	43.57
545.105	43.65
545.449	43.95
545.794	43.8
546.138	43.89
546.483	44.17
546.827	44.22
547.171	44.43
547.516	44.49
547.86	44.51
548.204	44.33
548.548	44.22
548.892	44.58
549.236	44.62
549.58	44.94
549.924	44.99
550.268	45.06
550.612	45.28
550.956	45.16
551.3	45.42
551.643	45.22
551.987	45.54
552.33	45.7
552.674	45.56
553.017	45.7
553.361	45.67
553.704	45.65
554.048	45.71
554.391	45.7
554.734	45.61
555.077	45.7
555.42	45.65
555.764	45.66
556.107	46.03
556.45	46.15
556.793	46.37
557.135	46.5
557.478	46.42
557.821	46.27
558.164	46.27
558.507	46.59
558.849	46.32
559.192	46.37
559.534	46.55
559.877	46.55
560.219	46.72
560.562	46.58
560.904	46.9
561.246	46.57
561.589	46.79
561.931	46.96
562.273	46.55
562.615	46.78
562.957	46.76
563.299	46.67
563.641	46.93
563.983	47
564.325	46.93
564.667	47.06
565.008	47.22
565.35	47.02
565.692	47.18
566.033	47.17
566.375	47.19
566.716	47.12
567.058	47.14
567.399	47.07
567.741	47.2
568.082	47
568.423	47.12
568.764	46.99
569.105	47.1
569.447	47.19
569.788	47.36
570.129	47.49
570.47	47.69
570.811	47.61
571.151	47.65
571.492	47.78
571.833	47.7
572.174	48.05
572.514	47.79
572.855	47.7
573.195	47.79
573.536	47.73
573.876	47.79
574.217	47.8
574.557	48.05
574.898	47.83
575.238	48.05
575.578	48.03
575.918	47.85
576.258	48.31
576.598	47.96
576.938	48.02
577.278	48.28
577.618	48.15
577.958	48.03
578.298	48.43
578.638	48.33
578.977	48.49
579.317	48.71
579.657	48.89
579.996	48.69
580.336	49.01
580.675	48.76
581.014	49.13
581.354	48.9
581.693	49.19
582.032	49.44
582.372	49.18
582.711	49.2
583.05	49.57
583.389	49.2
583.728	49.72
584.067	48.98
584.406	49.73
584.745	49.39
585.083	49.3
585.422	49.7
585.761	49.32
586.1	49.52
586.438	49.69
586.777	49.6
587.115	49.88
587.454	49.88
587.792	49.72
588.13	49.87
588.469	49.76
588.807	49.98
589.145	49.77
589.483	50.11
589.821	50.07
590.159	49.53
590.497	49.82
590.835	50.3
591.173	49.88
591.511	49.91
591.849	49.9
592.187	50.24
592.524	50.25
592.862	50.17
593.2	50.2
593.537	50.29
593.875	50.17
594.212	50.65
594.55	50.49
594.887	50.63
595.224	50.54
595.561	50.4
595.899	50.74
596.236	50.64
596.573	50.38
596.91	50.83
597.247	50.43
597.584	50.56
597.921	50.47
598.258	50.69
598.594	50.14
598.931	50.37
599.268	50.48
599.604	50.53
599.941	50.43
600.277	50.64
600.614	50.7
600.95	50.89
601.287	50.74
601.623	50.88
601.959	51.41
602.296	50.85
602.632	51.3
602.968	51.53
603.304	51.46
603.64	50.94
603.976	51.23
604.312	51.09
604.648	51.18
604.984	51.19
605.319	51.36
605.655	51.31
605.991	51.25
606.326	51.12
606.662	51
606.998	51
607.333	51.05
607.668	51.21
608.004	51.19
608.339	51.41
608.674	51.91
609.01	52.11
609.345	51.78
609.68	51.54
610.015	51.88
610.35	52.07
610.685	51.39
611.02	51.71
611.355	51.63
611.689	51.59
612.024	51.55
612.359	51.83
612.694	51.83
613.028	52.03
613.363	51.87
613.697	52.04
614.032	52.04
614.366	52.36
614.7	52.39
615.035	52.16
615.369	52.59
615.703	52.64
616.037	52.93
616.371	52.9
616.705	52.97
617.039	52.84
617.373	53.13
617.707	52.75
618.041	52.71
618.375	52.73
618.709	52.61
619.042	52.67
619.376	52.98
619.71	52.95
620.043	53.39
620.377	52.8
620.71	52.53
621.043	53.47
621.377	52.85
621.71	53.1
622.043	53.8
622.376	53.24
622.709	53.82
623.043	53.07
623.376	53.45
623.709	53.34
624.041	53.65
624.374	53.38
624.707	53.49
625.04	53.37
625.373	53.79
625.705	53.4
626.038	53.48
626.37	53.3
626.703	53.91
627.035	53.97
627.368	53.89
627.7	53.75
628.032	53.78
628.365	53.59
628.697	53.87
629.029	53.52
629.361	53.8
629.693	53.57
630.025	53.54
630.357	53.71
630.689	54.09
631.021	54.23
631.353	53.98
631.684	54.15
632.016	53.74
632.348	53.64
632.679	54.48
633.011	54.54
633.342	54.21
633.674	54.09
634.005	54.13
634.336	54.23
634.668	53.79
634.999	54.62
635.33	54.49
635.661	54.17
635.992	53.93
636.323	54.63
636.654	54.2
636.985	54.54
637.316	54.53
637.647	54.67
637.977	54.24
638.308	54.6
638.639	54.57
638.969	54.5
639.3	54.51
639.63	54.31
639.961	54.39
640.291	54.75
640.622	54.88
640.952	55.66
641.282	54.34
641.612	55.37
641.943	54.93
642.273	54.45
642.603	55.01
642.933	55.73
643.263	55.18
643.592	55.53
643.922	55.2
644.252	55.22
644.582	55.11
644.911	55.04
645.241	55.31
645.571	55.46
645.9	55.48
646.23	55.33
646.559	55.3
646.888	55.64
647.218	55.58
647.547	55.21
647.876	55.69
648.205	55.4
648.534	55.91
648.863	55.62
649.192	55.93
649.521	55.86
649.85	55.41
650.179	55.69
650.508	55.94
650.837	55.23
651.165	56.01
651.494	55.39
651.822	55.95
652.151	55.87
652.479	56.48
652.808	55.78
653.136	55.7
653.465	55.74
653.793	56.23
654.121	56.44
654.449	55.97
654.777	55.32
655.105	55.57
655.433	56.47
655.761	56.04
656.089	56.81
656.417	57.3
656.745	56.17
657.073	56.01
657.4	56.18
657.728	55.94
658.056	56.25
658.383	56.47
658.711	56.59
659.038	56.81
659.365	56.62
659.693	56.73
660.02	56.04
660.347	56.27
660.674	56.47
661.001	56.35
661.329	56.5
661.656	56.64
661.982	56.84
662.309	56.29
662.636	56.91
662.963	56.86
663.29	57.52
663.616	56.78
663.943	57.1
664.27	56.5
664.596	57.01
664.923	57.18
665.249	57.53
665.576	57.32
665.902	56.44
666.228	56.66
666.554	57.51
666.881	56.99
667.207	56.79
667.533	57.53
667.859	57.79
668.185	57.04
668.511	57.6
668.837	57.3
669.162	57.47
