Data from 2019-2_forehead_Reflection__3__420.txt Node

Date: Thu Dec 15 20:12:59 CST 2022
User: ToomeyLab
Spectrometer: FLMS14357
Trigger mode: 0
Integration Time (sec): 1.000000E-2
Scans to average: 100
Electric dark correction enabled: true
Nonlinearity correction enabled: false
Boxcar width: 0
XAxis mode: Wavelengths
Number of Pixels in Spectrum: 2048
>>>>>Begin Spectral Data<<<<<
189.047	-241.84
189.435	-241.84
189.823	-241.84
190.211	-4.37
190.599	43.2
190.987	18.96
191.375	1171.43
191.763	73.25
192.151	-52.97
192.538	331.79
192.926	257.87
193.314	-99.61
193.702	114.67
194.089	645.05
194.477	91.53
194.864	212.62
195.252	101.93
195.639	92.15
196.027	72.78
196.414	-2.35
196.801	168.14
197.189	59.07
197.576	-202.45
197.963	374.45
198.351	33.28
198.738	11.9
199.125	-43.31
199.512	60.64
199.899	67.18
200.286	-8.77
200.673	31.1
201.06	20.97
201.447	41.11
201.833	37.96
202.22	15.97
202.607	-9.52
202.994	2.95
203.38	29.99
203.767	6.46
204.154	34.6
204.54	8.47
204.927	0.43
205.313	44.55
205.699	49.76
206.086	50
206.472	24.88
206.858	22.97
207.245	47.66
207.631	13.2
208.017	51.42
208.403	-66.02
208.789	41.23
209.175	-22.54
209.561	-56.3
209.947	70.5
210.333	8.14
210.719	70.11
211.105	36.69
211.491	27.55
211.876	-5.52
212.262	61.85
212.648	17.83
213.034	-15.43
213.419	13.36
213.805	-8.37
214.19	13.39
214.576	-24.99
214.961	21.86
215.346	-17.29
215.732	24.02
216.117	63.9
216.502	7.31
216.888	21.83
217.273	3.98
217.658	-4.51
218.043	-3.45
218.428	-44.7
218.813	27.9
219.198	11.67
219.583	30.45
219.968	24.27
220.353	5.44
220.738	6.48
221.122	-10.13
221.507	-10.39
221.892	-5.08
222.276	-27.38
222.661	-9.83
223.046	15.7
223.43	11.8
223.815	8.11
224.199	6.83
224.583	5.07
224.968	-1.79
225.352	1.78
225.736	18.43
226.121	-2.08
226.505	-6.83
226.889	5.42
227.273	-2.98
227.657	8.62
228.041	8.6
228.425	3.59
228.809	7.18
229.193	6.28
229.577	6.06
229.961	4.74
230.344	5.29
230.728	6.82
231.112	5.9
231.495	5.06
231.879	5.94
232.263	7.64
232.646	4.88
233.03	6.75
233.413	4.58
233.797	4.47
234.18	7.59
234.563	7.68
234.946	5.26
235.33	2.36
235.713	6.58
236.096	5.45
236.479	6.03
236.862	4.89
237.245	3.97
237.628	4.97
238.011	5.28
238.394	5.22
238.777	5.85
239.16	6.8
239.543	5.58
239.925	6.63
240.308	5.37
240.691	4.89
241.073	4.79
241.456	5.07
241.838	4.7
242.221	6.01
242.603	5.86
242.986	5.41
243.368	5.71
243.75	4.99
244.133	5.35
244.515	5.37
244.897	5.18
245.279	4.74
245.661	5.63
246.043	5.75
246.425	5.97
246.807	5.79
247.189	4.85
247.571	4.71
247.953	5.32
248.335	5.24
248.717	5.5
249.098	4.98
249.48	5.05
249.862	5.33
250.243	5.39
250.625	4.89
251.006	6.4
251.388	5.61
251.769	3.67
252.151	5.66
252.532	5.03
252.913	5.37
253.295	5.55
253.676	5.58
254.057	4.82
254.438	5.34
254.819	5.3
255.2	6.47
255.581	7.09
255.962	5.93
256.343	6.63
256.724	4.77
257.105	5.85
257.486	4.98
257.867	5.13
258.247	5.92
258.628	5.43
259.009	5.17
259.389	4.78
259.77	5.2
260.15	5.64
260.531	5.4
260.911	5.15
261.292	5.23
261.672	5.04
262.052	4.97
262.432	4.51
262.813	4.92
263.193	5.18
263.573	5.3
263.953	4.96
264.333	5.58
264.713	5.32
265.093	4.79
265.473	5.51
265.853	6.3
266.233	5.55
266.612	4.39
266.992	5.05
267.372	5.35
267.752	5.35
268.131	5.52
268.511	4.92
268.89	5.68
269.27	4.81
269.649	5.04
270.029	5.11
270.408	5.23
270.787	5.51
271.167	5.49
271.546	6.19
271.925	5.32
272.304	4.8
272.683	4.75
273.062	4.86
273.441	4.68
273.82	5.08
274.199	5.21
274.578	4.71
274.957	4.61
275.336	5.52
275.715	5.15
276.093	4.33
276.472	4.62
276.851	4.94
277.229	5.03
277.608	4.1
277.986	5.37
278.365	4.93
278.743	5.16
279.122	4.96
279.5	4.62
279.878	4.51
280.257	4.8
280.635	5.18
281.013	4.75
281.391	4.92
281.769	5.66
282.147	5.25
282.525	4.58
282.903	4.57
283.281	5.29
283.659	5.35
284.037	5.12
284.415	4.98
284.792	5.34
285.17	5.41
285.548	5.2
285.925	5.26
286.303	5.3
286.68	5.12
287.058	5.25
287.435	5.06
287.813	4.98
288.19	5.19
288.567	5.6
288.945	5.2
289.322	5.22
289.699	5.25
290.076	4.93
290.453	5.29
290.83	5.41
291.207	5.35
291.584	5.83
291.961	5.76
292.338	5.25
292.715	5.08
293.092	5.81
293.469	4.93
293.845	5.04
294.222	6.27
294.599	5.25
294.975	5.41
295.352	5.66
295.728	5.45
296.105	6.01
296.481	6.09
296.858	6.11
297.234	5.54
297.61	5.68
297.986	6.22
298.363	6.09
298.739	6.36
299.115	5.86
299.491	6.17
299.867	6.14
300.243	6.05
300.619	6.07
300.995	6.44
301.371	6.69
301.746	6.62
302.122	5.96
302.498	6.68
302.874	7.11
303.249	6.67
303.625	6.57
304	7.46
304.376	7.35
304.751	7.4
305.127	6.48
305.502	6.89
305.878	7.01
306.253	7.01
306.628	6.92
307.003	7.24
307.378	7.08
307.754	7.69
308.129	7.06
308.504	7.59
308.879	7.81
309.254	8.24
309.629	7.81
310.003	7.79
310.378	7.75
310.753	7.94
311.128	7.46
311.502	8.2
311.877	8.23
312.252	8.16
312.626	8.31
313.001	8.53
313.375	8.71
313.75	8.41
314.124	8.32
314.498	8.76
314.873	8.4
315.247	8.35
315.621	8.82
315.995	8.96
316.369	8.56
316.743	8.44
317.117	8.44
317.491	9.17
317.865	9.26
318.239	9.87
318.613	9.12
318.987	9.05
319.361	9.6
319.734	9.7
320.108	9.07
320.482	9.81
320.855	9.62
321.229	9.96
321.602	10.23
321.976	9.66
322.349	10.88
322.723	9.9
323.096	9.95
323.469	9.36
323.843	9.77
324.216	10.01
324.589	10.74
324.962	10.66
325.335	10.5
325.708	10.8
326.081	10.73
326.454	10.99
326.827	10.5
327.2	10.53
327.573	11.21
327.945	10.66
328.318	10.7
328.691	10.79
329.063	11
329.436	10.89
329.809	11.62
330.181	11.69
330.553	11.73
330.926	11.87
331.298	11.22
331.671	12.02
332.043	11.62
332.415	11.58
332.787	12.18
333.159	11.88
333.532	12.26
333.904	11.73
334.276	12.16
334.648	11.68
335.02	11.8
335.391	11.75
335.763	12.28
336.135	11.94
336.507	12.06
336.879	12.56
337.25	12.33
337.622	11.96
337.993	12.69
338.365	12.84
338.736	12.33
339.108	12.64
339.479	12.81
339.851	13.16
340.222	13.3
340.593	12.9
340.964	13.38
341.336	13.01
341.707	12.92
342.078	12.84
342.449	13.27
342.82	13.38
343.191	13.22
343.562	13.47
343.933	13.17
344.303	13.76
344.674	13.63
345.045	13.53
345.416	13.87
345.786	13.53
346.157	13.88
346.527	13.73
346.898	13.4
347.268	14.38
347.639	13.71
348.009	14.22
348.38	13.66
348.75	14.27
349.12	14.46
349.49	14.27
349.861	14.15
350.231	14.24
350.601	14.27
350.971	14.35
351.341	14.71
351.711	14.72
352.081	14.62
352.45	14.39
352.82	14.48
353.19	14.87
353.56	14.52
353.929	14.83
354.299	15.17
354.669	15.14
355.038	15.22
355.408	14.78
355.777	14.99
356.147	15.31
356.516	15.32
356.885	15.55
357.254	15.41
357.624	15.05
357.993	15.48
358.362	15.57
358.731	15.7
359.1	15.82
359.469	15.99
359.838	15.67
360.207	15.57
360.576	16.03
360.945	16.25
361.314	15.42
361.682	15.55
362.051	15.93
362.42	15.99
362.788	16.16
363.157	16.19
363.525	16.3
363.894	16.16
364.262	15.89
364.631	16.53
364.999	16.27
365.367	16.44
365.735	16.35
366.104	16.47
366.472	16.71
366.84	16.81
367.208	17.24
367.576	16.76
367.944	16.79
368.312	16.49
368.68	17.4
369.048	16.92
369.416	17.15
369.783	16.89
370.151	17.45
370.519	17.56
370.886	17.45
371.254	17.59
371.621	17.59
371.989	17.56
372.356	17.95
372.724	17.46
373.091	17.42
373.458	17.89
373.826	17.9
374.193	17.63
374.56	18.09
374.927	18.27
375.294	18.04
375.661	18.31
376.028	18.24
376.395	18.42
376.762	17.91
377.129	18.31
377.496	18.25
377.863	18.42
378.229	18.37
378.596	18.66
378.963	18.51
379.329	18.77
379.696	18.65
380.062	18.6
380.429	18.51
380.795	19.01
381.161	18.61
381.528	18.74
381.894	18.91
382.26	19.04
382.626	19.06
382.993	19.12
383.359	19.64
383.725	19.28
384.091	19.47
384.457	19.27
384.823	19.72
385.188	19.65
385.554	19.79
385.92	19.6
386.286	19.74
386.651	19.72
387.017	19.92
387.383	19.82
387.748	19.81
388.114	19.92
388.479	20.17
388.845	20.14
389.21	20.47
389.575	20.39
389.94	20.16
390.306	20.13
390.671	20.15
391.036	20.59
391.401	20.56
391.766	20.39
392.131	20.68
392.496	20.47
392.861	20.52
393.226	20.52
393.591	20.96
393.956	20.78
394.32	20.95
394.685	20.99
395.05	21.03
395.414	21.15
395.779	21.37
396.143	21.1
396.508	21.16
396.872	21.06
397.236	21.38
397.601	21.4
397.965	21.19
398.329	21.31
398.694	21.62
399.058	21.51
399.422	21.66
399.786	21.73
400.15	21.72
400.514	21.67
400.878	21.76
401.242	22.13
401.605	22.19
401.969	21.9
402.333	21.86
402.697	22.24
403.06	22.33
403.424	22
403.787	22.26
404.151	22.04
404.514	22.44
404.878	22.2
405.241	22.2
405.604	22.2
405.968	22.57
406.331	22.55
406.694	22.68
407.057	22.62
407.42	22.62
407.783	22.66
408.146	22.86
408.509	22.81
408.872	22.81
409.235	23.08
409.598	22.92
409.961	23.25
410.323	23.38
410.686	23.14
411.049	22.91
411.411	23.27
411.774	23.12
412.136	23.3
412.499	23.27
412.861	23.17
413.223	23.4
413.586	23.58
413.948	23.84
414.31	23.82
414.672	23.51
415.035	23.74
415.397	23.74
415.759	23.64
416.121	23.84
416.483	23.81
416.845	24.11
417.206	23.91
417.568	24.06
417.93	23.89
418.292	23.83
418.653	23.93
419.015	23.98
419.377	24.07
419.738	24.06
420.1	23.97
420.461	23.94
420.822	24.07
421.184	24.12
421.545	24.1
421.906	24.13
422.267	24.08
422.629	24.14
422.99	24.14
423.351	24.18
423.712	24.45
424.073	24.41
424.434	24.52
424.795	24.51
425.155	24.49
425.516	24.37
425.877	24.58
426.238	24.63
426.598	24.68
426.959	24.82
427.32	25.03
427.68	25.14
428.041	25.33
428.401	25.19
428.761	25.43
429.122	25.53
429.482	25.62
429.842	25.66
430.202	25.55
430.563	25.64
430.923	25.68
431.283	25.93
431.643	25.97
432.003	25.98
432.363	25.98
432.722	26.01
433.082	26.05
433.442	26.04
433.802	26.01
434.161	26.04
434.521	26
434.881	26.03
435.24	26.07
435.6	26.23
435.959	26.4
436.319	26.13
436.678	26.48
437.037	26.41
437.396	26.73
437.756	26.67
438.115	26.66
438.474	26.76
438.833	26.61
439.192	26.61
439.551	26.68
439.91	26.62
440.269	26.77
440.628	26.71
440.987	26.81
441.345	26.77
441.704	26.92
442.063	26.76
442.421	26.78
442.78	26.98
443.138	26.96
443.497	27
443.855	27.27
444.214	27.2
444.572	27.51
444.93	27.4
445.288	27.23
445.647	27.45
446.005	27.42
446.363	27.44
446.721	27.59
447.079	27.44
447.437	27.48
447.795	27.59
448.153	27.38
448.51	27.54
448.868	27.45
449.226	27.57
449.584	27.74
449.941	27.93
450.299	27.98
450.656	28.14
451.014	28.23
451.371	28.19
451.729	28.55
452.086	28.69
452.443	28.65
452.801	28.66
453.158	28.7
453.515	28.46
453.872	28.7
454.229	28.63
454.586	28.71
454.943	28.71
455.3	28.76
455.657	28.85
456.014	29.12
456.371	29.12
456.727	29.32
457.084	29.14
457.441	29.16
457.797	29.28
458.154	29.43
458.51	29.54
458.867	29.22
459.223	29.47
459.58	29.44
459.936	29.53
460.292	29.2
460.648	29.46
461.005	29.28
461.361	29.1
461.717	29.13
462.073	29.25
462.429	29.57
462.785	29.65
463.141	29.76
463.496	29.79
463.852	29.98
464.208	30.02
464.564	30.13
464.919	30.3
465.275	30.39
465.631	30.43
465.986	30.42
466.342	30.53
466.697	30.42
467.052	30.65
467.408	30.48
467.763	30.4
468.118	30.63
468.473	30.63
468.829	30.28
469.184	30.85
469.539	30.62
469.894	30.72
470.249	30.65
470.603	30.77
470.958	30.98
471.313	31
471.668	31.05
472.023	31.14
472.377	31.16
472.732	31.31
473.086	31.33
473.441	31.26
473.795	31.71
474.15	31.31
474.504	31.51
474.859	31.37
475.213	31.61
475.567	31.47
475.921	31.76
476.275	31.58
476.63	31.85
476.984	31.97
477.338	31.96
477.692	31.8
478.045	31.77
478.399	31.81
478.753	31.92
479.107	31.82
479.461	31.78
479.814	31.96
480.168	31.93
480.521	32.15
480.875	32.07
481.228	32.21
481.582	32.11
481.935	32.36
482.289	32.23
482.642	32.21
482.995	32.3
483.348	32.04
483.701	32.04
484.055	31.85
484.408	31.82
484.761	31.54
485.114	31.34
485.466	31.51
485.819	31.54
486.172	31.45
486.525	31.62
486.878	31.75
487.23	31.97
487.583	31.97
487.936	32.07
488.288	32.11
488.641	32.02
488.993	31.83
489.345	31.97
489.698	32.05
490.05	31.94
490.402	32.19
490.754	32.48
491.107	32.48
491.459	32.76
491.811	32.91
492.163	33
492.515	32.73
492.866	32.59
493.218	32.62
493.57	32.65
493.922	32.7
494.274	32.85
494.625	33.14
494.977	33.27
495.328	33.57
495.68	33.75
496.031	33.79
496.383	33.89
496.734	33.98
497.086	33.96
497.437	34.09
497.788	34.09
498.139	33.88
498.49	33.95
498.842	33.88
499.193	34.01
499.544	34.09
499.894	34.04
500.245	34.13
500.596	34.37
500.947	34.32
501.298	34.41
501.648	34.58
501.999	34.6
502.35	34.65
502.7	34.77
503.051	34.82
503.401	34.84
503.752	34.75
504.102	34.96
504.452	34.98
504.803	34.97
505.153	35.05
505.503	34.81
505.853	35.19
506.203	35.28
506.553	35.16
506.903	35.23
507.253	35.31
507.603	35.54
507.953	35.54
508.303	35.46
508.652	35.3
509.002	35.62
509.352	35.42
509.701	35.38
510.051	35.73
510.4	35.51
510.75	35.39
511.099	35.46
511.449	35.42
511.798	35.42
512.147	35.62
512.496	35.88
512.846	35.67
513.195	35.81
513.544	35.81
513.893	35.93
514.242	35.82
514.591	36.08
514.939	36.08
515.288	36.09
515.637	36.27
515.986	36.48
516.334	36.43
516.683	36.42
517.032	36.4
517.38	36.52
517.729	36.5
518.077	36.53
518.426	36.6
518.774	36.5
519.122	36.42
519.47	36.14
519.819	36.04
520.167	36.06
520.515	36.22
520.863	36.28
521.211	36.27
521.559	36.54
521.907	36.8
522.255	36.76
522.602	36.97
522.95	37.13
523.298	37.05
523.645	37.04
523.993	37.21
524.341	37.21
524.688	37.23
525.036	37.33
525.383	37.1
525.73	37.43
526.078	37.3
526.425	37.11
526.772	37.02
527.119	36.96
527.466	37.06
527.814	36.93
528.161	37.08
528.508	37.21
528.854	37.12
529.201	37.1
529.548	36.87
529.895	36.65
530.242	36.71
530.588	36.73
530.935	36.83
531.282	36.87
531.628	36.98
531.975	37.11
532.321	37.47
532.667	37.73
533.014	37.7
533.36	37.82
533.706	37.73
534.052	37.77
534.399	37.48
534.745	37.37
535.091	37.45
535.437	37.44
535.783	37.61
536.129	37.79
536.474	37.88
536.82	38.03
537.166	38.12
537.512	38.33
537.857	38.11
538.203	38.01
538.549	38.23
538.894	38.3
539.239	38.27
539.585	38.52
539.93	38.72
540.276	38.71
540.621	38.89
540.966	39.08
541.311	38.74
541.656	38.86
542.001	38.84
542.346	38.53
542.691	38.31
543.036	38.21
543.381	38.3
543.726	38.52
544.071	38.44
544.415	38.76
544.76	38.82
545.105	38.84
545.449	39.08
545.794	38.96
546.138	38.99
546.483	39.18
546.827	39.4
547.171	39.46
547.516	39.52
547.86	39.51
548.204	39.41
548.548	39.55
548.892	39.59
549.236	39.9
549.58	40.05
549.924	40.01
550.268	40.14
550.612	40.45
550.956	40.31
551.3	40.54
551.643	40.68
551.987	40.6
552.33	40.86
552.674	40.57
553.017	40.75
553.361	40.81
553.704	40.63
554.048	40.57
554.391	40.77
554.734	40.57
555.077	40.75
555.42	40.79
555.764	40.79
556.107	41.33
556.45	41.27
556.793	41.3
557.135	41.26
557.478	41.28
557.821	41.38
558.164	41.26
558.507	41.12
558.849	41.39
559.192	41.26
559.534	41.42
559.877	41.4
560.219	41.45
560.562	41.59
560.904	41.51
561.246	41.46
561.589	41.88
561.931	41.61
562.273	41.73
562.615	41.52
562.957	41.76
563.299	41.69
563.641	41.92
563.983	41.89
564.325	41.77
564.667	41.88
565.008	41.64
565.35	41.94
565.692	42.04
566.033	42.24
566.375	42.07
566.716	42.01
567.058	42.18
567.399	41.94
567.741	42.08
568.082	41.85
568.423	41.9
568.764	42.29
569.105	42.18
569.447	42.03
569.788	42.33
570.129	42.43
570.47	42.48
570.811	42.43
571.151	42.51
571.492	42.38
571.833	42.49
572.174	42.74
572.514	42.69
572.855	43.04
573.195	42.77
573.536	42.48
573.876	42.48
574.217	42.81
574.557	42.75
574.898	42.69
575.238	42.73
575.578	43.01
575.918	42.85
576.258	43
576.598	42.96
576.938	42.97
577.278	43.06
577.618	43.01
577.958	43.2
578.298	43.33
578.638	43.27
578.977	43.58
579.317	43.46
579.657	43.42
579.996	43.54
580.336	43.65
580.675	43.73
581.014	43.73
581.354	43.77
581.693	44.1
582.032	44.18
582.372	44.13
582.711	44.33
583.05	44.17
583.389	44.12
583.728	44.33
584.067	44.34
584.406	44.62
584.745	44.35
585.083	44.28
585.422	44.73
585.761	44.43
586.1	44.33
586.438	44.37
586.777	44.5
587.115	44.42
587.454	44.85
587.792	44.6
588.13	44.49
588.469	44.71
588.807	44.63
589.145	44.49
589.483	44.64
589.821	44.85
590.159	44.55
590.497	45.12
590.835	45.15
591.173	44.93
591.511	45.06
591.849	45
592.187	44.91
592.524	44.95
592.862	45.03
593.2	45.69
593.537	45.2
593.875	45.07
594.212	45.42
594.55	45.44
594.887	45.33
595.224	45.8
595.561	45.42
595.899	45.4
596.236	45.45
596.573	45.34
596.91	45.57
597.247	45.55
597.584	45.25
597.921	45.68
598.258	45.4
598.594	45.18
598.931	45.54
599.268	45.35
599.604	45.43
599.941	45.44
600.277	45.84
600.614	45.64
600.95	46.01
601.287	45.76
601.623	45.55
601.959	46.28
602.296	45.91
602.632	46.12
602.968	46.14
603.304	46.2
603.64	46.28
603.976	46.24
604.312	46.21
604.648	46.29
604.984	46.38
605.319	46.11
605.655	46.04
605.991	46.15
606.326	45.71
606.662	46.09
606.998	46.2
607.333	45.81
607.668	46.37
608.004	46.34
608.339	46.32
608.674	46.87
609.01	46.69
609.345	46.8
609.68	46.74
610.015	46.84
610.35	47.07
610.685	46.18
611.02	46.35
611.355	46.76
611.689	46.68
612.024	46.52
612.359	46.89
612.694	46.82
613.028	46.6
613.363	47.02
613.697	47.2
614.032	47.12
614.366	47.18
614.7	47.74
615.035	46.85
615.369	47.38
615.703	47.37
616.037	47.6
616.371	47.66
616.705	47.71
617.039	47.76
617.373	47.82
617.707	47.61
618.041	47.45
618.375	47.76
618.709	48
619.042	47.72
619.376	47.93
619.71	47.4
620.043	48.07
620.377	47.45
620.71	47.75
621.043	48.06
621.377	47.97
621.71	48.07
622.043	48.19
622.376	48.09
622.709	48.57
623.043	48.37
623.376	48.14
623.709	48.07
624.041	48.12
624.374	48.17
624.707	48.51
625.04	48.5
625.373	48.52
625.705	48.5
626.038	48.19
626.37	48.19
626.703	48.73
627.035	48.72
627.368	49.02
627.7	48.44
628.032	48.5
628.365	48.46
628.697	48.61
629.029	48.4
629.361	48.42
629.693	48.8
630.025	48.32
630.357	48.72
630.689	48.84
631.021	48.43
631.353	48.91
631.684	48.69
632.016	48.73
632.348	48.86
632.679	49.02
633.011	49.37
633.342	49.35
633.674	48.93
634.005	49.41
634.336	48.89
634.668	49.36
634.999	49.43
635.33	49.21
635.661	49.12
635.992	49.05
636.323	49.01
636.654	48.97
636.985	48.7
637.316	49.11
637.647	49.85
637.977	49.23
638.308	49.2
638.639	49.63
638.969	49.64
639.3	49.99
639.63	49.05
639.961	49.69
640.291	49.45
640.622	50.14
640.952	49.57
641.282	49.5
641.612	49.74
641.943	49.55
642.273	49.56
642.603	50.01
642.933	49.64
643.263	50.24
643.592	50.61
643.922	50.05
644.252	49.87
644.582	50.26
644.911	50.02
645.241	49.94
645.571	50.59
645.9	50.12
646.23	50.52
646.559	49.89
646.888	50.07
647.218	50.31
647.547	49.78
647.876	50.32
648.205	50.18
648.534	50.17
648.863	50.78
649.192	50.57
649.521	50.34
649.85	50.48
650.179	50.32
650.508	50.28
650.837	50.84
651.165	51.31
651.494	50.43
651.822	50.79
652.151	50.88
652.479	50.8
652.808	51.12
653.136	50.65
653.465	50.43
653.793	50.86
654.121	51.13
654.449	50.88
654.777	50.4
655.105	50.74
655.433	50.93
655.761	51.16
656.089	51.71
656.417	51.98
656.745	51.37
657.073	51.09
657.4	51.32
657.728	51.1
658.056	50.98
658.383	51.68
658.711	51.56
659.038	51.35
659.365	51.62
659.693	51.4
660.02	51.25
660.347	50.92
660.674	51.13
661.001	51.11
661.329	51.73
661.656	51.37
661.982	51.59
662.309	50.8
662.636	51.03
662.963	51.67
663.29	51.65
663.616	51.77
663.943	51.67
664.27	51.51
664.596	51.95
664.923	51.67
665.249	52
665.576	52.03
665.902	51.81
666.228	51.79
666.554	51.97
666.881	51.94
667.207	51.78
667.533	52.11
667.859	52.31
668.185	52.2
668.511	51.86
668.837	51.64
669.162	53.11
669.488	51.59
