Data from 2019-2_chest_Reflection__1__408.txt Node

Date: Thu Dec 15 20:09:31 CST 2022
User: ToomeyLab
Spectrometer: FLMS14357
Trigger mode: 0
Integration Time (sec): 1.000000E-2
Scans to average: 100
Electric dark correction enabled: true
Nonlinearity correction enabled: false
Boxcar width: 0
XAxis mode: Wavelengths
Number of Pixels in Spectrum: 2048
>>>>>Begin Spectral Data<<<<<
189.047	33.87
189.435	33.87
189.823	33.87
190.211	62.88
190.599	85.72
190.987	-216.32
191.375	-10651.43
191.763	30.05
192.151	3.1
192.538	-37.16
192.926	128.44
193.314	-746.67
193.702	-100.12
194.089	118.06
194.477	34.83
194.864	448.67
195.252	11.81
195.639	15.44
196.027	138.2
196.414	140.41
196.801	-113.27
197.189	68.77
197.576	-739.97
197.963	391.97
198.351	1.9
198.738	-9.08
199.125	-132.56
199.512	18.87
199.899	-59.19
200.286	-27.27
200.673	31.25
201.06	-1.55
201.447	-19.09
201.833	-10.4
202.22	-32.09
202.607	5.68
202.994	-25.1
203.38	-4.33
203.767	-49.55
204.154	24.69
204.54	20.15
204.927	-20.99
205.313	16.63
205.699	-14.95
206.086	25.82
206.472	-4.93
206.858	-9.86
207.245	-4.33
207.631	12.39
208.017	13.66
208.403	-90.11
208.789	-14.89
209.175	-90.31
209.561	-196.96
209.947	-39.7
210.333	-26.25
210.719	35.64
211.105	23.81
211.491	-45.97
211.876	31.14
212.262	0.2
212.648	11.64
213.034	-14.73
213.419	12.23
213.805	-68.63
214.19	-143.58
214.576	-33.2
214.961	5.09
215.346	-119.51
215.732	-30.87
216.117	-31.13
216.502	-26.34
216.888	-6.77
217.273	-8.7
217.658	-9.11
218.043	-27.19
218.428	-76.28
218.813	-33.34
219.198	-40.13
219.583	-48.06
219.968	-7.74
220.353	-36.28
220.738	-28.86
221.122	-43.1
221.507	-16.53
221.892	-54.08
222.276	-69.15
222.661	-17.45
223.046	-27.76
223.43	-0.62
223.815	-16.68
224.199	-13.4
224.583	-4.22
224.968	-14.75
225.352	-18.58
225.736	-5.27
226.121	-9.95
226.505	-12.26
226.889	-1.6
227.273	-8.32
227.657	3.99
228.041	-3.83
228.425	-4.19
228.809	-4.22
229.193	0.54
229.577	0.62
229.961	-0.09
230.344	1.63
230.728	2.41
231.112	1.97
231.495	-1.2
231.879	-0.23
232.263	2.82
232.646	0.86
233.03	2.26
233.413	1.29
233.797	1.39
234.18	1.65
234.563	1.16
234.946	0.95
235.33	-0.62
235.713	0.87
236.096	2.23
236.479	2.01
236.862	-2.29
237.245	-0.51
237.628	2.02
238.011	-0.06
238.394	2.23
238.777	0.82
239.16	2.14
239.543	1.9
239.925	1.72
240.308	-0.68
240.691	0.78
241.073	0.93
241.456	1.13
241.838	0.77
242.221	0.98
242.603	1.97
242.986	2.49
243.368	2.07
243.75	2.23
244.133	2.51
244.515	2.33
244.897	2.2
245.279	1.45
245.661	1.17
246.043	0.46
246.425	1.95
246.807	1.68
247.189	1.39
247.571	1.73
247.953	1.97
248.335	2.3
248.717	2.54
249.098	2.4
249.48	1.96
249.862	2.34
250.243	2.12
250.625	2.33
251.006	2.22
251.388	2.49
251.769	1.9
252.151	1.96
252.532	0.68
252.913	1.99
253.295	2.21
253.676	2.37
254.057	2.28
254.438	2.28
254.819	2.23
255.2	2.15
255.581	2.56
255.962	2.44
256.343	2.11
256.724	1.88
257.105	2.11
257.486	0.88
257.867	1.5
258.247	2.32
258.628	1.73
259.009	1.66
259.389	1.64
259.77	1.81
260.15	2.64
260.531	2.09
260.911	2.15
261.292	2.56
261.672	2.25
262.052	2.34
262.432	2.17
262.813	1.9
263.193	2.39
263.573	1.51
263.953	1.03
264.333	2.87
264.713	2.06
265.093	1.24
265.473	2.32
265.853	2.29
266.233	1.78
266.612	0.74
266.992	1.65
267.372	2.67
267.752	2.17
268.131	1.79
268.511	2.48
268.89	2.81
269.27	1.09
269.649	1.68
270.029	1.57
270.408	1.93
270.787	1.55
271.167	1.76
271.546	2.73
271.925	1.89
272.304	1.82
272.683	1.25
273.062	2.15
273.441	1.66
273.82	1.94
274.199	2.01
274.578	2.29
274.957	2.01
275.336	2.11
275.715	2.56
276.093	1.15
276.472	1.34
276.851	1.99
277.229	2.01
277.608	1.11
277.986	1.56
278.365	2.36
278.743	2.3
279.122	1.89
279.5	1.84
279.878	1.59
280.257	1.57
280.635	1.7
281.013	1.41
281.391	1.72
281.769	2.23
282.147	1.94
282.525	1.78
282.903	1.61
283.281	2.1
283.659	2.49
284.037	2.09
284.415	1.87
284.792	1.77
285.17	2.26
285.548	2.33
285.925	1.6
286.303	2.19
286.68	2.35
287.058	2.28
287.435	2.13
287.813	2.08
288.19	1.84
288.567	2.21
288.945	2.19
289.322	1.76
289.699	2.37
290.076	2.06
290.453	2.08
290.83	2.26
291.207	2.01
291.584	2.69
291.961	2.23
292.338	1.71
292.715	2.24
293.092	2.15
293.469	1.86
293.845	2.3
294.222	2.92
294.599	1.6
294.975	1.87
295.352	2.68
295.728	2.54
296.105	2.52
296.481	2.52
296.858	2.44
297.234	2.23
297.61	2.88
297.986	3.07
298.363	3.21
298.739	2.86
299.115	2.78
299.491	3.18
299.867	2.23
300.243	2.8
300.619	2.38
300.995	2.79
301.371	2.72
301.746	2.96
302.122	2.53
302.498	2.95
302.874	3
303.249	2.87
303.625	2.63
304	3.01
304.376	3.15
304.751	2.93
305.127	2.74
305.502	3.21
305.878	2.82
306.253	2.71
306.628	3.02
307.003	2.66
307.378	3.14
307.754	3.19
308.129	2.52
308.504	2.64
308.879	3.24
309.254	3.48
309.629	3.11
310.003	3.25
310.378	3.27
310.753	3.09
311.128	2.74
311.502	3.09
311.877	3.01
312.252	3.59
312.626	3.37
313.001	3.45
313.375	3.6
313.75	3.49
314.124	3.7
314.498	3.43
314.873	3.2
315.247	3.19
315.621	3.3
315.995	2.98
316.369	2.82
316.743	3.26
317.117	3.19
317.491	3.63
317.865	3.58
318.239	3.29
318.613	3.21
318.987	3.15
319.361	2.84
319.734	3.13
320.108	3.27
320.482	3.83
320.855	3.37
321.229	3.35
321.602	3.42
321.976	2.79
322.349	3.6
322.723	3.42
323.096	2.97
323.469	3.33
323.843	3.19
324.216	3.39
324.589	3.48
324.962	3.26
325.335	3.52
325.708	3.76
326.081	3.57
326.454	4.05
326.827	3.59
327.2	3.41
327.573	4.2
327.945	3.52
328.318	3.07
328.691	3.44
329.063	3.29
329.436	3.17
329.809	3.81
330.181	4.47
330.553	4.08
330.926	3.84
331.298	3.37
331.671	3.53
332.043	3.49
332.415	3.8
332.787	4.31
333.159	3.08
333.532	3.83
333.904	4.11
334.276	3.38
334.648	3.74
335.02	3.87
335.391	3.58
335.763	3.72
336.135	4.05
336.507	3.78
336.879	3.61
337.25	3.83
337.622	3.96
337.993	4.23
338.365	3.83
338.736	3.95
339.108	3.95
339.479	4.07
339.851	4.24
340.222	3.72
340.593	3.91
340.964	3.78
341.336	3.98
341.707	3.42
342.078	3.82
342.449	3.79
342.82	4.1
343.191	3.62
343.562	3.88
343.933	4.06
344.303	3.61
344.674	4.02
345.045	3.8
345.416	4.18
345.786	3.77
346.157	3.83
346.527	3.76
346.898	3.48
347.268	4.03
347.639	3.33
348.009	4.14
348.38	4.12
348.75	4.14
349.12	3.95
349.49	3.86
349.861	4.21
350.231	3.74
350.601	4.2
350.971	3.64
351.341	3.89
351.711	4.26
352.081	3.74
352.45	3.98
352.82	3.66
353.19	3.58
353.56	3.99
353.929	3.82
354.299	3.95
354.669	3.99
355.038	4.14
355.408	3.99
355.777	3.83
356.147	3.95
356.516	3.66
356.885	3.89
357.254	3.61
357.624	3.6
357.993	4.27
358.362	4.05
358.731	4.44
359.1	3.96
359.469	4.24
359.838	4.26
360.207	4.01
360.576	4.35
360.945	4.09
361.314	3.85
361.682	3.84
362.051	3.78
362.42	3.8
362.788	3.91
363.157	4.01
363.525	4.16
363.894	3.82
364.262	4.04
364.631	3.95
364.999	4.22
365.367	4.1
365.735	3.63
366.104	3.75
366.472	3.84
366.84	4.16
367.208	4.15
367.576	3.96
367.944	3.94
368.312	4.04
368.68	4.29
369.048	4.15
369.416	3.89
369.783	4.02
370.151	4.36
370.519	4.54
370.886	3.84
371.254	4.19
371.621	4.55
371.989	4.13
372.356	4.2
372.724	3.93
373.091	3.85
373.458	4.17
373.826	3.92
374.193	3.68
374.56	3.99
374.927	4.12
375.294	4.25
375.661	4.22
376.028	4.17
376.395	4.18
376.762	4.03
377.129	3.84
377.496	4.25
377.863	4.26
378.229	4.49
378.596	4.38
378.963	4.24
379.329	4.3
379.696	4.1
380.062	4.07
380.429	3.87
380.795	4.5
381.161	3.99
381.528	4.07
381.894	4.14
382.26	4.11
382.626	4.14
382.993	4.6
383.359	3.98
383.725	4.13
384.091	4.34
384.457	4.08
384.823	4.26
385.188	4.3
385.554	4.4
385.92	4.21
386.286	4.28
386.651	4.13
387.017	4.2
387.383	4.24
387.748	4.29
388.114	4.19
388.479	4.22
388.845	4.05
389.21	4.44
389.575	4.51
389.94	4.22
390.306	4.12
390.671	4.34
391.036	4.26
391.401	4.57
391.766	4.12
392.131	4.42
392.496	4.19
392.861	4.26
393.226	4.21
393.591	4.35
393.956	4.47
394.32	4.51
394.685	4.37
395.05	4.49
395.414	4.47
395.779	4.53
396.143	4.18
396.508	4.27
396.872	4.12
397.236	4.56
397.601	4.37
397.965	4.22
398.329	4.53
398.694	4.04
399.058	4.38
399.422	4.5
399.786	4.32
400.15	4.38
400.514	4.35
400.878	4.34
401.242	4.33
401.605	4.46
401.969	4.45
402.333	4.37
402.697	4.48
403.06	4.32
403.424	4.56
403.787	4.43
404.151	4.55
404.514	4.52
404.878	4.45
405.241	4.37
405.604	4.4
405.968	4.28
406.331	4.46
406.694	4.58
407.057	4.49
407.42	4.3
407.783	4.49
408.146	4.42
408.509	4.49
408.872	4.64
409.235	4.58
409.598	4.42
409.961	4.53
410.323	4.38
410.686	4.34
411.049	4.4
411.411	4.42
411.774	4.46
412.136	4.58
412.499	4.62
412.861	4.39
413.223	4.31
413.586	4.84
413.948	4.6
414.31	4.66
414.672	4.69
415.035	4.72
415.397	4.59
415.759	4.48
416.121	4.67
416.483	4.68
416.845	4.35
417.206	4.47
417.568	4.62
417.93	4.48
418.292	4.32
418.653	4.4
419.015	4.46
419.377	4.46
419.738	4.48
420.1	4.45
420.461	4.51
420.822	4.69
421.184	4.55
421.545	4.54
421.906	4.53
422.267	4.48
422.629	4.51
422.99	4.42
423.351	4.52
423.712	4.65
424.073	4.65
424.434	4.7
424.795	4.46
425.155	4.48
425.516	4.54
425.877	4.56
426.238	4.53
426.598	4.54
426.959	4.65
427.32	4.64
427.68	4.64
428.041	4.6
428.401	4.53
428.761	4.74
429.122	4.77
429.482	4.63
429.842	4.62
430.202	4.68
430.563	4.64
430.923	4.63
431.283	4.87
431.643	4.79
432.003	4.74
432.363	4.69
432.722	4.72
433.082	4.86
433.442	4.81
433.802	4.79
434.161	4.74
434.521	4.78
434.881	4.67
435.24	4.64
435.6	4.82
435.959	4.87
436.319	4.78
436.678	4.83
437.037	4.65
437.396	4.77
437.756	4.72
438.115	4.62
438.474	4.77
438.833	4.66
439.192	4.73
439.551	4.74
439.91	4.74
440.269	4.77
440.628	4.56
440.987	4.77
441.345	4.75
441.704	4.79
442.063	4.69
442.421	4.8
442.78	4.78
443.138	4.78
443.497	4.85
443.855	4.85
444.214	4.71
444.572	4.88
444.93	4.76
445.288	4.81
445.647	4.69
446.005	4.9
446.363	4.77
446.721	4.8
447.079	4.74
447.437	4.85
447.795	4.8
448.153	4.84
448.51	4.81
448.868	4.77
449.226	4.86
449.584	4.85
449.941	4.99
450.299	4.85
450.656	4.94
451.014	4.93
451.371	5.05
451.729	5.01
452.086	5.1
452.443	5.05
452.801	4.95
453.158	5.12
453.515	4.86
453.872	4.95
454.229	4.81
454.586	4.84
454.943	4.99
455.3	4.91
455.657	4.83
456.014	5.11
456.371	5.05
456.727	5.13
457.084	5.21
457.441	5.09
457.797	5.17
458.154	5.14
458.51	5.04
458.867	5.03
459.223	4.91
459.58	5.04
459.936	4.93
460.292	4.86
460.648	4.87
461.005	4.93
461.361	4.93
461.717	4.89
462.073	5.02
462.429	5.14
462.785	5.26
463.141	5
463.496	5.26
463.852	5.31
464.208	5.06
464.564	4.92
464.919	5.07
465.275	5.08
465.631	5.22
465.986	5.19
466.342	5.08
466.697	5.05
467.052	5.22
467.408	5.3
467.763	5.34
468.118	4.98
468.473	5.15
468.829	5.14
469.184	5.36
469.539	5.11
469.894	5.19
470.249	5.18
470.603	5.31
470.958	5.35
471.313	5.34
471.668	5.18
472.023	5.15
472.377	5.37
472.732	5.29
473.086	5.25
473.441	5.26
473.795	5.43
474.15	5.33
474.504	5.29
474.859	5.14
475.213	5.43
475.567	5.19
475.921	5.27
476.275	5.27
476.63	5.43
476.984	5.25
477.338	5.29
477.692	5.33
478.045	5.34
478.399	5.23
478.753	5.18
479.107	5.46
479.461	5.29
479.814	5.34
480.168	5.37
480.521	5.45
480.875	5.36
481.228	5.46
481.582	5.43
481.935	5.47
482.289	5.32
482.642	5.46
482.995	5.37
483.348	5.33
483.701	5.38
484.055	5.32
484.408	5.25
484.761	5.18
485.114	5.07
485.466	5.01
485.819	5.08
486.172	5.21
486.525	5.2
486.878	5.34
487.23	5.31
487.583	5.38
487.936	5.33
488.288	5.21
488.641	5.24
488.993	5.17
489.345	5.21
489.698	5.23
490.05	5.21
490.402	5.33
490.754	5.36
491.107	5.42
491.459	5.47
491.811	5.44
492.163	5.45
492.515	5.33
492.866	5.27
493.218	5.29
493.57	5.32
493.922	5.42
494.274	5.56
494.625	5.67
494.977	5.57
495.328	5.56
495.68	5.62
496.031	5.66
496.383	5.56
496.734	5.54
497.086	5.76
497.437	5.72
497.788	5.63
498.139	5.64
498.49	5.67
498.842	5.67
499.193	5.54
499.544	5.57
499.894	5.83
500.245	5.82
500.596	5.73
500.947	5.69
501.298	5.67
501.648	5.74
501.999	5.94
502.35	5.74
502.7	5.94
503.051	5.76
503.401	5.84
503.752	5.66
504.102	5.87
504.452	5.66
504.803	5.82
505.153	5.92
505.503	5.83
505.853	5.91
506.203	5.86
506.553	6
506.903	5.81
507.253	5.88
507.603	5.94
507.953	5.93
508.303	5.94
508.652	5.79
509.002	5.95
509.352	5.91
509.701	5.81
510.051	5.94
510.4	5.97
510.75	5.84
511.099	5.79
511.449	5.98
511.798	5.81
512.147	5.92
512.496	6.03
512.846	6
513.195	5.93
513.544	6.07
513.893	6.06
514.242	5.97
514.591	5.97
514.939	6.04
515.288	6.02
515.637	5.98
515.986	6.07
516.334	6.21
516.683	6.09
517.032	6.05
517.38	6.07
517.729	6.14
518.077	6.07
518.426	6.19
518.774	6.02
519.122	6.07
519.47	5.96
519.819	6
520.167	6.04
520.515	6.1
520.863	6.01
521.211	6.06
521.559	6.2
521.907	6.18
522.255	6.27
522.602	6.34
522.95	6.21
523.298	6.21
523.645	6.31
523.993	6.27
524.341	6.28
524.688	6.26
525.036	6.3
525.383	6.34
525.73	6.37
526.078	6.43
526.425	6.3
526.772	6.29
527.119	6.23
527.466	6.33
527.814	6.24
528.161	6.32
528.508	6.35
528.854	6.27
529.201	6.22
529.548	6.19
529.895	6.08
530.242	6.07
530.588	6.1
530.935	6.22
531.282	6.28
531.628	6.34
531.975	6.39
532.321	6.45
532.667	6.41
533.014	6.56
533.36	6.52
533.706	6.56
534.052	6.48
534.399	6.41
534.745	6.3
535.091	6.36
535.437	6.4
535.783	6.51
536.129	6.52
536.474	6.62
536.82	6.71
537.166	6.58
537.512	6.57
537.857	6.59
538.203	6.55
538.549	6.57
538.894	6.64
539.239	6.7
539.585	6.74
539.93	6.81
540.276	6.73
540.621	6.79
540.966	6.88
541.311	6.75
541.656	6.77
542.001	6.75
542.346	6.68
542.691	6.47
543.036	6.53
543.381	6.56
543.726	6.73
544.071	6.77
544.415	6.75
544.76	6.8
545.105	6.75
545.449	6.96
545.794	6.85
546.138	6.86
546.483	7.01
546.827	6.97
547.171	6.95
547.516	6.9
547.86	6.97
548.204	6.99
548.548	6.96
548.892	7.05
549.236	7.1
549.58	7.14
549.924	7.23
550.268	7.19
550.612	7.31
550.956	7.4
551.3	7.56
551.643	7.24
551.987	7.44
552.33	7.45
552.674	7.27
553.017	7.46
553.361	7.37
553.704	7.39
554.048	7.26
554.391	7.52
554.734	7.21
555.077	7.42
555.42	7.36
555.764	7.36
556.107	7.61
556.45	7.53
556.793	7.58
557.135	7.57
557.478	7.6
557.821	7.47
558.164	7.68
558.507	7.61
558.849	7.64
559.192	7.49
559.534	7.52
559.877	7.63
560.219	7.69
560.562	7.67
560.904	7.84
561.246	7.52
561.589	7.79
561.931	7.73
562.273	7.69
562.615	7.71
562.957	7.74
563.299	7.76
563.641	8
563.983	7.73
564.325	7.78
564.667	7.74
565.008	7.84
565.35	7.78
565.692	7.84
566.033	7.86
566.375	7.98
566.716	7.59
567.058	7.68
567.399	7.98
567.741	7.84
568.082	7.96
568.423	7.78
568.764	7.96
569.105	7.9
569.447	8.01
569.788	7.94
570.129	8.19
570.47	8.09
570.811	7.93
571.151	8
571.492	8.19
571.833	8.09
572.174	8.09
572.514	8.27
572.855	8.23
573.195	8.01
573.536	8.16
573.876	7.95
574.217	8.15
574.557	8.14
574.898	8.2
575.238	8.27
575.578	8.45
575.918	8.26
576.258	8.51
576.598	8.34
576.938	8.22
577.278	8.18
577.618	8.39
577.958	8.44
578.298	8.43
578.638	8.48
578.977	8.39
579.317	8.45
579.657	8.53
579.996	8.64
580.336	8.63
580.675	8.54
581.014	8.67
581.354	8.52
581.693	8.76
582.032	9.06
582.372	8.72
582.711	8.53
583.05	8.74
583.389	8.67
583.728	8.97
584.067	8.59
584.406	8.98
584.745	8.82
585.083	8.73
585.422	8.97
585.761	8.84
586.1	9.13
586.438	8.56
586.777	8.76
587.115	9.1
587.454	8.84
587.792	8.8
588.13	8.78
588.469	8.73
588.807	9.08
589.145	9.16
589.483	8.92
589.821	9.04
590.159	8.91
590.497	9.13
590.835	9.33
591.173	9.16
591.511	9.09
591.849	9.24
592.187	8.96
592.524	9.13
592.862	9.02
593.2	9.22
593.537	9.3
593.875	9.1
594.212	9.19
594.55	9.21
594.887	9.19
595.224	9.55
595.561	9.39
595.899	9.59
596.236	9.45
596.573	9.29
596.91	9.3
597.247	9.8
597.584	9.55
597.921	9.45
598.258	9.41
598.594	9.13
598.931	9.21
599.268	9.42
599.604	9.57
599.941	9.65
600.277	9.41
600.614	9.57
600.95	9.39
601.287	9.24
601.623	9.35
601.959	9.88
602.296	9.8
602.632	9.6
602.968	9.74
603.304	9.7
603.64	9.65
603.976	9.6
604.312	9.52
604.648	9.66
604.984	9.81
605.319	9.54
605.655	9.66
605.991	9.6
606.326	9.78
606.662	9.7
606.998	9.84
607.333	9.64
607.668	9.79
608.004	9.82
608.339	10.02
608.674	10.06
609.01	10.16
609.345	9.96
609.68	9.92
610.015	10.13
610.35	10.13
610.685	9.77
611.02	9.99
611.355	9.92
611.689	10.14
612.024	10.09
612.359	10.17
612.694	10.28
613.028	9.91
613.363	10.22
613.697	10.26
614.032	10.03
614.366	10.18
614.7	10.48
615.035	10.4
615.369	10.3
615.703	10.58
616.037	10.17
616.371	10.55
616.705	10.49
617.039	10.24
617.373	10.73
617.707	10.53
618.041	10.51
618.375	10
618.709	10.58
619.042	10.12
619.376	10.37
619.71	10.27
620.043	10.79
620.377	10.38
620.71	10.36
621.043	10.82
621.377	10.63
621.71	10.93
622.043	10.5
622.376	10.64
622.709	10.96
623.043	10.6
623.376	10.6
623.709	10.86
624.041	10.71
624.374	11.28
624.707	10.68
625.04	10.8
625.373	10.98
625.705	10.99
626.038	11.14
626.37	10.79
626.703	11.08
627.035	11.21
627.368	11.24
627.7	10.61
628.032	10.82
628.365	10.9
628.697	11.05
629.029	10.99
629.361	11.35
629.693	10.98
630.025	10.9
630.357	11.38
630.689	11.36
631.021	11.33
631.353	11.02
631.684	11.01
632.016	10.74
632.348	11.1
632.679	11.12
633.011	11.16
633.342	10.94
633.674	10.81
634.005	11.32
634.336	11.46
634.668	11.22
634.999	11.07
635.33	11.37
635.661	11.26
635.992	11.19
636.323	11.06
636.654	11.65
636.985	11.3
637.316	11.21
637.647	11.48
637.977	11.3
638.308	11.45
638.639	11.53
638.969	11.2
639.3	11.21
639.63	11.3
639.961	11.6
640.291	11.3
640.622	11.58
640.952	11.83
641.282	11.27
641.612	11.6
641.943	11.16
642.273	11.55
642.603	12.04
642.933	12.11
643.263	11.73
643.592	12.06
643.922	11.96
644.252	11.42
644.582	11.92
644.911	11.7
645.241	11.57
645.571	11.85
645.9	11.81
646.23	12.52
646.559	11.66
646.888	12.25
647.218	12.15
647.547	11.56
647.876	12.2
648.205	11.77
648.534	12.12
648.863	11.73
649.192	11.89
649.521	11.55
649.85	12.08
650.179	11.99
650.508	11.94
650.837	11.77
651.165	12.18
651.494	12.08
651.822	12.3
652.151	12.28
652.479	12.55
652.808	12.14
653.136	11.8
653.465	11.87
653.793	12.55
654.121	11.76
654.449	12.11
654.777	12.01
655.105	11.7
655.433	12.38
655.761	12.02
656.089	12.25
656.417	12.73
656.745	12.56
657.073	12.14
657.4	12.55
657.728	11.97
658.056	12.2
658.383	12.14
658.711	12.55
659.038	12.46
659.365	12.57
659.693	11.88
660.02	12.26
660.347	12.28
660.674	11.89
661.001	12.56
661.329	12.44
661.656	12.32
661.982	12.17
662.309	12.88
662.636	12.37
662.963	12.71
663.29	12.54
663.616	12.28
663.943	13.03
664.27	12.85
664.596	12.53
664.923	13.17
665.249	13.22
665.576	12.1
665.902	12.21
666.228	12.76
666.554	12.85
666.881	12.53
667.207	12.79
667.533	12.84
667.859	12.56
668.185	12.52
668.511	13.17
668.837	12.7
669.162	12.56
669.488	12.19
669.814	13.11
670.139	12.29
670.465	13.17
670.791	12.59
671.116	12.44
671.442	12.38
671.767	13.04
672.092	13.46
672.418	13.1
672.743	12.47
673.068	12.85
673.393	12.89
673.718	12.67
674.043	13
674.368	12.56
674.693	13.13
675.018	13.93
675.343	13.43
675.667	12.98
675.992	12.88
676.317	12.37
676.641	12.93
676.966	12.98
677.29	12.31
677.615	12.48
677.939	13.66
678.264	13.16
678.588	13.75
678.912	13.55
679.236	13.65
679.56	13.03
679.885	12.57
680.209	13.21
680.532	13.73
680.856	13.06
681.18	14.21
681.504	13.17
681.828	12.79
682.152	13.17
682.475	13.03
682.799	13.3
683.122	13.4
683.446	12.66
683.769	13.47
684.093	13.02
684.416	13.33
684.739	13.52
685.062	13.99
685.386	13.28
685.709	13.62
