Data from 2019-2_crown_Reflection__3__415.txt Node

Date: Thu Dec 15 20:11:30 CST 2022
User: ToomeyLab
Spectrometer: FLMS14357
Trigger mode: 0
Integration Time (sec): 1.000000E-2
Scans to average: 100
Electric dark correction enabled: true
Nonlinearity correction enabled: false
Boxcar width: 0
XAxis mode: Wavelengths
Number of Pixels in Spectrum: 2048
>>>>>Begin Spectral Data<<<<<
189.047	64.76
189.435	64.76
189.823	64.76
190.211	38.12
190.599	9.89
190.987	-450.45
191.375	-5371.43
191.763	4.37
192.151	18.92
192.538	190.81
192.926	56.96
193.314	-298.04
193.702	92
194.089	-464.47
194.477	-62.72
194.864	49.27
195.252	36.66
195.639	10.84
196.027	86.02
196.414	12.97
196.801	-158.11
197.189	19.59
197.576	-37.98
197.963	157.97
198.351	-4.97
198.738	-46.29
199.125	-88
199.512	16.87
199.899	-126.69
200.286	-91.1
200.673	35.38
201.06	53.82
201.447	20.73
201.833	12.41
202.22	11.36
202.607	-48.31
202.994	-45.9
203.38	1.72
203.767	25.36
204.154	1.32
204.54	25.67
204.927	-3.92
205.313	22.07
205.699	4.35
206.086	8.43
206.472	10.12
206.858	-3.68
207.245	-27.85
207.631	-17.6
208.017	24.79
208.403	-28.68
208.789	-3.55
209.175	-32.52
209.561	-244.94
209.947	-114.21
210.333	-52.73
210.719	-0.38
211.105	41.36
211.491	8.32
211.876	-111.92
212.262	-29.39
212.648	-55.37
213.034	-9.35
213.419	-16.87
213.805	-61.2
214.19	-141.74
214.576	8.51
214.961	-9.14
215.346	-65.57
215.732	-20.23
216.117	-14.25
216.502	-77.76
216.888	-0.73
217.273	-10.19
217.658	10.49
218.043	-59.13
218.428	-32.05
218.813	3.83
219.198	-54.49
219.583	-46.96
219.968	-15.05
220.353	-42.79
220.738	-13.01
221.122	-15.5
221.507	-10.81
221.892	-56.64
222.276	-59.42
222.661	-28.68
223.046	-23.23
223.43	15.05
223.815	-9.11
224.199	3.43
224.583	-5.26
224.968	-10.04
225.352	-15.21
225.736	9.66
226.121	-4.36
226.505	-13.68
226.889	1.26
227.273	-5.39
227.657	6
228.041	-2.3
228.425	-0.52
228.809	-0.2
229.193	0.82
229.577	1.75
229.961	2.55
230.344	4.22
230.728	4.59
231.112	4.25
231.495	2.47
231.879	5.18
232.263	4.14
232.646	3.92
233.03	5.31
233.413	2.26
233.797	0.69
234.18	4.97
234.563	5.31
234.946	1.8
235.33	2.64
235.713	4.15
236.096	3.92
236.479	2.93
236.862	3.12
237.245	2.54
237.628	2.83
238.011	3.54
238.394	1.57
238.777	2.1
239.16	4.4
239.543	3.51
239.925	3.71
240.308	2.48
240.691	3.49
241.073	1.72
241.456	3.03
241.838	4.24
242.221	2.59
242.603	3.83
242.986	3.62
243.368	3.82
243.75	3.91
244.133	3.83
244.515	3.9
244.897	3.69
245.279	2.95
245.661	3.06
246.043	2.98
246.425	4.29
246.807	2.9
247.189	2.58
247.571	3.18
247.953	3.14
248.335	3.61
248.717	3.69
249.098	3.68
249.48	3.55
249.862	3.62
250.243	3.6
250.625	3.72
251.006	3.65
251.388	3.08
251.769	2.96
252.151	4.01
252.532	2.15
252.913	3.63
253.295	2.73
253.676	3.52
254.057	3.55
254.438	3.23
254.819	3.47
255.2	3.44
255.581	4.04
255.962	4.57
256.343	4.12
256.724	4.34
257.105	3.81
257.486	1.74
257.867	3.32
258.247	2.65
258.628	3.26
259.009	2.59
259.389	2.02
259.77	2.8
260.15	3.8
260.531	3.57
260.911	3.42
261.292	3.5
261.672	3.5
262.052	3.62
262.432	3.32
262.813	3.37
263.193	3.14
263.573	2.74
263.953	3.03
264.333	2.87
264.713	3.72
265.093	2.89
265.473	3.95
265.853	2.46
266.233	3.18
266.612	3.03
266.992	3
267.372	3.37
267.752	3.64
268.131	3.06
268.511	3.31
268.89	3.88
269.27	2.61
269.649	2.62
270.029	2.81
270.408	3.41
270.787	3.17
271.167	3.5
271.546	3.9
271.925	3.32
272.304	3.4
272.683	3.27
273.062	2.97
273.441	2.86
273.82	3.43
274.199	3.05
274.578	3.58
274.957	3.26
275.336	3.52
275.715	2.98
276.093	2.87
276.472	2.58
276.851	3.08
277.229	2.86
277.608	3.03
277.986	3.13
278.365	3.57
278.743	3.53
279.122	2.81
279.5	3.19
279.878	2.67
280.257	3.14
280.635	2.74
281.013	2.92
281.391	3.17
281.769	3.33
282.147	2.45
282.525	2.47
282.903	3.14
283.281	2.89
283.659	3.43
284.037	2.94
284.415	2.89
284.792	3.3
285.17	3.18
285.548	2.86
285.925	2.8
286.303	3.37
286.68	3.39
287.058	3.07
287.435	2.7
287.813	3.17
288.19	3.01
288.567	3.21
288.945	2.66
289.322	3.18
289.699	2.95
290.076	3.11
290.453	2.59
290.83	3.29
291.207	2.65
291.584	3.41
291.961	2.78
292.338	2.83
292.715	3.01
293.092	3.3
293.469	3.1
293.845	3.27
294.222	3.5
294.599	2.81
294.975	1.86
295.352	3.02
295.728	3.09
296.105	2.94
296.481	2.97
296.858	3.18
297.234	2.72
297.61	3.03
297.986	3.42
298.363	3.04
298.739	3.22
299.115	3.07
299.491	3.16
299.867	2.88
300.243	2.55
300.619	2.89
300.995	2.87
301.371	3.2
301.746	3.22
302.122	2.79
302.498	2.89
302.874	2.9
303.249	2.9
303.625	2.62
304	3.19
304.376	3.17
304.751	2.89
305.127	2.37
305.502	2.66
305.878	3.04
306.253	2.64
306.628	2.94
307.003	2.54
307.378	2.74
307.754	3.05
308.129	2.35
308.504	3.33
308.879	3.06
309.254	3.48
309.629	3.08
310.003	3.23
310.378	2.94
310.753	2.99
311.128	2.66
311.502	2.95
311.877	2.87
312.252	3.37
312.626	3.12
313.001	2.96
313.375	2.95
313.75	3.42
314.124	2.88
314.498	3.07
314.873	2.2
315.247	2.73
315.621	2.49
315.995	2.84
316.369	2.46
316.743	2.53
317.117	2.78
317.491	3.25
317.865	3.01
318.239	3.38
318.613	3.26
318.987	2.44
319.361	2.9
319.734	2.91
320.108	2.19
320.482	3.23
320.855	2.87
321.229	2.97
321.602	3.4
321.976	2.66
322.349	3.53
322.723	2.59
323.096	2.99
323.469	2.68
323.843	2.28
324.216	2.68
324.589	2.95
324.962	2.47
325.335	2.62
325.708	2.86
326.081	2.84
326.454	2.92
326.827	2.5
327.2	2.29
327.573	2.95
327.945	2.42
328.318	2.55
328.691	3.11
329.063	2.71
329.436	2.61
329.809	3.4
330.181	3.14
330.553	3.34
330.926	3.56
331.298	2.29
331.671	2.73
332.043	2.81
332.415	2.94
332.787	2.78
333.159	2.77
333.532	2.74
333.904	2.84
334.276	3.19
334.648	2.69
335.02	2.66
335.391	2.2
335.763	3.02
336.135	3.01
336.507	2.8
336.879	2.87
337.25	2.79
337.622	3.07
337.993	2.9
338.365	2.78
338.736	3.04
339.108	2.59
339.479	2.49
339.851	2.79
340.222	3.15
340.593	2.39
340.964	3.14
341.336	2.65
341.707	2.59
342.078	2.74
342.449	3.08
342.82	2.83
343.191	2.89
343.562	3.1
343.933	2.62
344.303	2.73
344.674	2.81
345.045	2.9
345.416	3.17
345.786	2.42
346.157	3.17
346.527	3.06
346.898	2.47
347.268	3.24
347.639	2.88
348.009	2.85
348.38	2.62
348.75	3.1
349.12	2.93
349.49	2.9
349.861	2.64
350.231	3.22
350.601	2.94
350.971	2.74
351.341	2.83
351.711	2.47
352.081	2.5
352.45	2.66
352.82	2.23
353.19	2.79
353.56	2.67
353.929	2.72
354.299	2.87
354.669	2.88
355.038	3.41
355.408	2.84
355.777	2.68
356.147	3
356.516	2.74
356.885	2.79
357.254	2.67
357.624	2.07
357.993	2.59
358.362	2.8
358.731	2.99
359.1	2.95
359.469	3.15
359.838	2.71
360.207	2.8
360.576	3.11
360.945	3.23
361.314	2.92
361.682	2.73
362.051	2.96
362.42	2.86
362.788	3
363.157	2.93
363.525	2.86
363.894	2.74
364.262	2.88
364.631	3.03
364.999	2.62
365.367	2.42
365.735	2.49
366.104	2.78
366.472	2.87
366.84	2.87
367.208	3.02
367.576	2.89
367.944	2.84
368.312	3
368.68	3.35
369.048	2.86
369.416	2.58
369.783	2.73
370.151	3.33
370.519	3.31
370.886	2.85
371.254	3.05
371.621	3.14
371.989	2.89
372.356	2.82
372.724	2.77
373.091	2.79
373.458	2.49
373.826	3.12
374.193	3
374.56	3.22
374.927	2.74
375.294	2.94
375.661	3.05
376.028	2.79
376.395	2.95
376.762	2.62
377.129	2.68
377.496	2.96
377.863	3.13
378.229	2.93
378.596	3.11
378.963	3.07
379.329	3.1
379.696	2.73
380.062	3.05
380.429	2.71
380.795	3.23
381.161	2.63
381.528	2.63
381.894	2.66
382.26	3.03
382.626	3.12
382.993	3.49
383.359	3.05
383.725	2.66
384.091	3.02
384.457	2.96
384.823	2.97
385.188	2.93
385.554	3.1
385.92	3.03
386.286	2.89
386.651	3.01
387.017	3.06
387.383	3.01
387.748	3.08
388.114	3.11
388.479	2.87
388.845	2.88
389.21	3.17
389.575	3.22
389.94	3.19
390.306	3.15
390.671	3.01
391.036	2.92
391.401	3.09
391.766	2.91
392.131	3.05
392.496	3.24
392.861	2.94
393.226	2.92
393.591	3.04
393.956	3.31
394.32	3.11
394.685	3.02
395.05	3.06
395.414	3.19
395.779	3.2
396.143	3
396.508	2.88
396.872	3.12
397.236	3.2
397.601	2.95
397.965	3.1
398.329	3.13
398.694	2.93
399.058	3.13
399.422	2.99
399.786	2.97
400.15	2.98
400.514	3.08
400.878	2.99
401.242	3.27
401.605	3.15
401.969	2.99
402.333	3.16
402.697	3.18
403.06	3.05
403.424	3.34
403.787	3.15
404.151	3.23
404.514	3.05
404.878	2.86
405.241	2.97
405.604	3
405.968	3.1
406.331	3.23
406.694	3.27
407.057	3.02
407.42	3
407.783	3.27
408.146	2.96
408.509	3.32
408.872	3.17
409.235	3.24
409.598	2.97
409.961	3.02
410.323	3.2
410.686	3.04
411.049	3.1
411.411	2.91
411.774	3
412.136	3.22
412.499	3.27
412.861	3.02
413.223	3.21
413.586	3.14
413.948	3.21
414.31	3.18
414.672	3.11
415.035	3.43
415.397	3.13
415.759	3.07
416.121	3.27
416.483	3.17
416.845	3.2
417.206	3.2
417.568	3.06
417.93	3.3
418.292	3.02
418.653	3.03
419.015	3.29
419.377	3.14
419.738	3.17
420.1	3.1
420.461	3.03
420.822	3.25
421.184	3.21
421.545	3.25
421.906	3.18
422.267	3.12
422.629	3.16
422.99	3.11
423.351	3.09
423.712	3.14
424.073	3.27
424.434	3.27
424.795	3.13
425.155	3.05
425.516	3.18
425.877	3.23
426.238	3.19
426.598	3.19
426.959	3.21
427.32	3.2
427.68	3.11
428.041	3.27
428.401	3.17
428.761	3.18
429.122	3.33
429.482	3.21
429.842	3.26
430.202	3.38
430.563	3.12
430.923	3.39
431.283	3.34
431.643	3.25
432.003	3.14
432.363	3.39
432.722	3.19
433.082	3.26
433.442	3.3
433.802	3.22
434.161	3.28
434.521	3.34
434.881	3.27
435.24	3.31
435.6	3.31
435.959	3.37
436.319	3.23
436.678	3.36
437.037	3.22
437.396	3.15
437.756	3.28
438.115	3.25
438.474	3.27
438.833	3.38
439.192	3.25
439.551	3.2
439.91	3.24
440.269	3.31
440.628	3.18
440.987	3.36
441.345	3.26
441.704	3.31
442.063	3.28
442.421	3.31
442.78	3.33
443.138	3.36
443.497	3.26
443.855	3.41
444.214	3.19
444.572	3.42
444.93	3.15
445.288	3.25
445.647	3.18
446.005	3.29
446.363	3.32
446.721	3.33
447.079	3.19
447.437	3.26
447.795	3.41
448.153	3.25
448.51	3.34
448.868	3.25
449.226	3.29
449.584	3.3
449.941	3.31
450.299	3.29
450.656	3.47
451.014	3.41
451.371	3.46
451.729	3.38
452.086	3.41
452.443	3.5
452.801	3.45
453.158	3.48
453.515	3.25
453.872	3.31
454.229	3.3
454.586	3.26
454.943	3.34
455.3	3.45
455.657	3.42
456.014	3.39
456.371	3.38
456.727	3.51
457.084	3.42
457.441	3.46
457.797	3.42
458.154	3.38
458.51	3.16
458.867	3.44
459.223	3.39
459.58	3.4
459.936	3.46
460.292	3.32
460.648	3.34
461.005	3.32
461.361	3.37
461.717	3.24
462.073	3.44
462.429	3.51
462.785	3.58
463.141	3.37
463.496	3.42
463.852	3.53
464.208	3.45
464.564	3.37
464.919	3.39
465.275	3.55
465.631	3.61
465.986	3.51
466.342	3.39
466.697	3.39
467.052	3.61
467.408	3.51
467.763	3.42
468.118	3.46
468.473	3.46
468.829	3.37
469.184	3.51
469.539	3.28
469.894	3.64
470.249	3.63
470.603	3.5
470.958	3.53
471.313	3.62
471.668	3.58
472.023	3.37
472.377	3.35
472.732	3.59
473.086	3.37
473.441	3.4
473.795	3.71
474.15	3.43
474.504	3.58
474.859	3.18
475.213	3.46
475.567	3.54
475.921	3.5
476.275	3.6
476.63	3.49
476.984	3.26
477.338	3.61
477.692	3.44
478.045	3.58
478.399	3.62
478.753	3.48
479.107	3.52
479.461	3.42
479.814	3.59
480.168	3.52
480.521	3.55
480.875	3.57
481.228	3.49
481.582	3.48
481.935	3.73
482.289	3.46
482.642	3.64
482.995	3.52
483.348	3.46
483.701	3.53
484.055	3.43
484.408	3.48
484.761	3.36
485.114	3.29
485.466	3.24
485.819	3.24
486.172	3.37
486.525	3.42
486.878	3.49
487.23	3.49
487.583	3.55
487.936	3.48
488.288	3.43
488.641	3.39
488.993	3.31
489.345	3.41
489.698	3.39
490.05	3.37
490.402	3.43
490.754	3.44
491.107	3.44
491.459	3.56
491.811	3.54
492.163	3.51
492.515	3.41
492.866	3.36
493.218	3.37
493.57	3.44
493.922	3.46
494.274	3.6
494.625	3.64
494.977	3.56
495.328	3.63
495.68	3.64
496.031	3.55
496.383	3.57
496.734	3.5
497.086	3.63
497.437	3.67
497.788	3.66
498.139	3.64
498.49	3.59
498.842	3.74
499.193	3.55
499.544	3.55
499.894	3.58
500.245	3.65
500.596	3.65
500.947	3.65
501.298	3.62
501.648	3.67
501.999	3.67
502.35	3.59
502.7	3.82
503.051	3.65
503.401	3.69
503.752	3.5
504.102	3.62
504.452	3.58
504.803	3.57
505.153	3.75
505.503	3.65
505.853	3.72
506.203	3.73
506.553	3.68
506.903	3.71
507.253	3.58
507.603	3.66
507.953	3.67
508.303	3.84
508.652	3.51
509.002	3.72
509.352	3.75
509.701	3.64
510.051	3.75
510.4	3.6
510.75	3.54
511.099	3.54
511.449	3.66
511.798	3.68
512.147	3.6
512.496	3.67
512.846	3.64
513.195	3.63
513.544	3.73
513.893	3.59
514.242	3.63
514.591	3.59
514.939	3.7
515.288	3.75
515.637	3.63
515.986	3.67
516.334	3.81
516.683	3.67
517.032	3.62
517.38	3.67
517.729	3.66
518.077	3.77
518.426	3.72
518.774	3.65
519.122	3.69
519.47	3.64
519.819	3.59
520.167	3.56
520.515	3.76
520.863	3.67
521.211	3.63
521.559	3.6
521.907	3.72
522.255	3.65
522.602	3.73
522.95	3.79
523.298	3.75
523.645	3.75
523.993	3.74
524.341	3.63
524.688	3.67
525.036	3.7
525.383	3.67
525.73	3.59
526.078	3.79
526.425	3.69
526.772	3.71
527.119	3.67
527.466	3.73
527.814	3.66
528.161	3.75
528.508	3.74
528.854	3.73
529.201	3.63
529.548	3.6
529.895	3.54
530.242	3.5
530.588	3.51
530.935	3.61
531.282	3.61
531.628	3.66
531.975	3.67
532.321	3.67
532.667	3.8
533.014	3.79
533.36	3.8
533.706	3.78
534.052	3.76
534.399	3.67
534.745	3.62
535.091	3.56
535.437	3.61
535.783	3.71
536.129	3.76
536.474	3.81
536.82	3.8
537.166	3.63
537.512	3.79
537.857	3.71
538.203	3.7
538.549	3.63
538.894	3.75
539.239	3.82
539.585	3.87
539.93	3.81
540.276	3.72
540.621	3.85
540.966	3.79
541.311	3.85
541.656	3.68
542.001	3.67
542.346	3.71
542.691	3.64
543.036	3.65
543.381	3.61
543.726	3.76
544.071	3.77
544.415	3.77
544.76	3.71
545.105	3.72
545.449	3.75
545.794	3.77
546.138	3.72
546.483	3.81
546.827	3.78
547.171	3.86
547.516	3.87
547.86	3.82
548.204	3.77
548.548	3.71
548.892	3.79
549.236	3.83
549.58	3.8
549.924	3.97
550.268	3.95
550.612	3.86
550.956	4.04
551.3	4.14
551.643	3.87
551.987	3.96
552.33	3.97
552.674	4.02
553.017	4.02
553.361	3.95
553.704	4.03
554.048	3.93
554.391	4.01
554.734	3.72
555.077	3.99
555.42	3.89
555.764	3.92
556.107	4.05
556.45	4.02
556.793	4.23
557.135	4.08
557.478	3.95
557.821	4
558.164	4.12
558.507	3.92
558.849	4
559.192	3.93
559.534	3.93
559.877	3.87
560.219	3.95
560.562	3.89
560.904	4.13
561.246	3.93
561.589	4.18
561.931	4.07
562.273	3.86
562.615	3.92
562.957	3.85
563.299	3.92
563.641	4.08
563.983	3.95
564.325	3.93
564.667	4
565.008	3.88
565.35	3.8
565.692	3.92
566.033	3.95
566.375	3.95
566.716	3.79
567.058	3.94
567.399	3.87
567.741	3.92
568.082	4
568.423	3.9
568.764	4.05
569.105	3.92
569.447	3.99
569.788	3.96
570.129	4.05
570.47	3.89
570.811	3.88
571.151	3.98
571.492	4.15
571.833	4.05
572.174	4.22
572.514	4.04
572.855	3.97
573.195	3.91
573.536	4.12
573.876	3.87
574.217	3.85
574.557	3.88
574.898	3.93
575.238	4.12
575.578	4.1
575.918	4.12
576.258	4.03
576.598	3.99
576.938	3.89
577.278	3.98
577.618	3.99
577.958	4.16
578.298	4.19
578.638	3.95
578.977	4
579.317	4.03
579.657	3.98
579.996	4.16
580.336	4.16
580.675	3.99
581.014	4
581.354	3.88
581.693	4.11
582.032	4.24
582.372	4.09
582.711	3.86
583.05	4.02
583.389	4.12
583.728	4.18
584.067	3.97
584.406	4.01
584.745	4.07
585.083	4.21
585.422	4.02
585.761	4.04
586.1	3.97
586.438	3.85
586.777	4.11
587.115	4.27
587.454	3.99
587.792	4.09
588.13	4.04
588.469	3.97
588.807	4.17
589.145	4.24
589.483	4.02
589.821	3.89
590.159	4.14
590.497	4.08
590.835	4.16
591.173	4.18
591.511	4.18
591.849	4.37
592.187	4.02
592.524	4.17
592.862	3.99
593.2	4.19
593.537	4.1
593.875	4.12
594.212	4.32
594.55	4.28
594.887	4.18
595.224	4.31
595.561	4.15
595.899	4.2
596.236	4
596.573	3.91
596.91	4.14
597.247	4.09
597.584	4.06
597.921	4.03
598.258	4.35
598.594	4.07
598.931	4.05
599.268	4.05
599.604	4.25
599.941	4.03
600.277	4.27
600.614	4.22
600.95	4.13
601.287	4.02
601.623	4.01
601.959	4.45
602.296	3.96
602.632	4.09
602.968	3.98
603.304	4.12
603.64	4.05
603.976	4.04
604.312	4.03
604.648	4.36
604.984	4.37
605.319	4.1
605.655	4.12
605.991	4.01
606.326	4
606.662	3.9
606.998	4.27
607.333	3.89
607.668	4.11
608.004	4.15
608.339	3.85
608.674	4.18
609.01	4.55
609.345	4.26
609.68	3.93
610.015	3.97
610.35	3.94
610.685	3.8
611.02	4.04
611.355	4.09
611.689	4.07
612.024	4.29
612.359	4.13
612.694	4.27
613.028	4.2
613.363	4.14
613.697	4.29
614.032	4.13
614.366	4.17
614.7	4.19
615.035	4.05
615.369	4.23
615.703	4.1
616.037	3.94
616.371	4.03
616.705	4.26
617.039	4.16
617.373	4.41
617.707	4.41
618.041	4
618.375	3.76
618.709	4.3
619.042	4.18
619.376	4.12
619.71	4.05
620.043	4.35
620.377	4.14
620.71	4.52
621.043	4.3
621.377	4.07
621.71	4.49
622.043	4.14
622.376	4.3
622.709	4.78
623.043	4.18
623.376	4.06
623.709	4.54
624.041	3.89
624.374	4.25
624.707	4.34
625.04	4.02
625.373	4.17
625.705	4.34
626.038	4.53
626.37	4.19
626.703	4.38
627.035	4.39
627.368	4.36
627.7	4.2
628.032	3.93
628.365	4.33
628.697	4.34
629.029	4.17
629.361	4.45
629.693	4.2
630.025	4.31
630.357	4.28
630.689	4.22
631.021	4.2
631.353	4.32
631.684	4.26
632.016	3.77
632.348	4.12
632.679	4.6
633.011	4.26
633.342	4.4
633.674	4.07
634.005	4.33
634.336	4.24
634.668	4.09
634.999	4.08
635.33	4.39
635.661	4.1
635.992	4.24
636.323	4.31
636.654	4.16
636.985	4.2
637.316	4.3
637.647	4.47
637.977	4.1
638.308	4.59
638.639	4.33
638.969	4.17
639.3	4.24
639.63	4.36
639.961	4.16
640.291	3.99
640.622	4.57
640.952	4.56
641.282	3.84
641.612	3.86
641.943	4.03
642.273	4.17
642.603	4.15
642.933	4.7
643.263	4.56
643.592	4.79
643.922	4.66
644.252	4.23
644.582	4.81
644.911	4.39
645.241	3.62
645.571	4.56
645.9	4.22
646.23	4.81
646.559	4.27
646.888	4.59
647.218	3.95
647.547	4.43
647.876	4.04
648.205	3.73
648.534	4.17
648.863	4.03
649.192	4.26
649.521	4.09
649.85	4.17
650.179	4.51
650.508	4.18
650.837	4.64
651.165	4.64
651.494	4.64
651.822	4.69
652.151	4.25
652.479	4.35
652.808	4.47
653.136	3.95
653.465	4.41
653.793	4.52
654.121	4.1
654.449	4.11
654.777	4.16
655.105	4.3
655.433	3.95
655.761	4.51
656.089	4.78
656.417	4.74
656.745	4.42
657.073	4.01
657.4	4.42
657.728	3.95
658.056	4.64
658.383	4.62
658.711	4.54
659.038	4.59
659.365	4.75
659.693	4.34
660.02	4.43
660.347	4.27
660.674	4.34
661.001	4.23
661.329	3.95
661.656	4.48
661.982	4.27
662.309	4.43
662.636	4.57
662.963	4.18
663.29	4.32
663.616	4.13
663.943	4.66
664.27	4.13
664.596	4.42
664.923	4.36
665.249	4.69
665.576	4.43
665.902	4.23
666.228	4.42
666.554	4.45
666.881	3.72
667.207	3.94
667.533	4.56
667.859	4.34
668.185	4.03
668.511	4.67
668.837	4.56
669.162	4.48
669.488	3.92
669.814	4.52
670.139	3.37
670.465	4.55
670.791	3.79
671.116	4.12
671.442	3.74
671.767	4.13
672.092	4
672.418	4.65
672.743	3.63
673.068	3.8
673.393	4.32
673.718	3.86
674.043	4.14
674.368	4.42
674.693	4.37
675.018	4.66
675.343	5.13
675.667	4.47
675.992	4.95
676.317	3.74
676.641	4.59
676.966	4.66
677.29	3.99
677.615	4.23
677.939	4.86
678.264	4.31
678.588	5.34
678.912	5.03
679.236	3.92
679.56	4.39
679.885	4.17
680.209	4.45
680.532	4.42
680.856	4.49
681.18	5.11
681.504	4.53
681.828	4.24
682.152	4.48
682.475	4.38
682.799	4.38
683.122	4.4
683.446	3.96
683.769	5.02
684.093	4.63
684.416	4.11
684.739	4.38
685.062	4.87
685.386	4.37
685.709	4.95
686.032	4.73
686.355	4.7
686.678	4.46
687.001	4.73
687.324	5.37
687.646	4.5
687.969	4.13
688.292	4.61
688.614	4.55
688.937	4.55
689.26	5.09
689.582	4.71
689.904	5.12
690.227	3.98
690.549	4.43
690.871	4.48
691.194	4.41
691.516	4.11
691.838	4.73
692.16	4.17
