Data from 2019-2_crown_Reflection__2__414.txt Node

Date: Thu Dec 15 20:11:20 CST 2022
User: ToomeyLab
Spectrometer: FLMS14357
Trigger mode: 0
Integration Time (sec): 1.000000E-2
Scans to average: 100
Electric dark correction enabled: true
Nonlinearity correction enabled: false
Boxcar width: 0
XAxis mode: Wavelengths
Number of Pixels in Spectrum: 2048
>>>>>Begin Spectral Data<<<<<
189.047	-200.12
189.435	-200.12
189.823	-200.12
190.211	99.81
190.599	67.27
190.987	-293.57
191.375	-2122.86
191.763	79.17
192.151	85.34
192.538	-41.36
192.926	96.1
193.314	-584.71
193.702	-17.92
194.089	-479.81
194.477	27.4
194.864	49.22
195.252	115.16
195.639	164.32
196.027	119.49
196.414	40.64
196.801	375.52
197.189	53.46
197.576	-35.68
197.963	-162.94
198.351	-8.79
198.738	-63.48
199.125	-63.56
199.512	13.72
199.899	-63.57
200.286	-30.19
200.673	10.11
201.06	-69.38
201.447	10.19
201.833	-36.65
202.22	-17.2
202.607	-43.29
202.994	3.53
203.38	-8.61
203.767	-42.37
204.154	9.08
204.54	24.08
204.927	-4.85
205.313	29.16
205.699	-3.31
206.086	4.78
206.472	20.93
206.858	-9.11
207.245	-21.37
207.631	-4.62
208.017	39.39
208.403	-118.41
208.789	-8.84
209.175	-54.65
209.561	-307.86
209.947	-18.41
210.333	-19.81
210.719	-5.29
211.105	-7.62
211.491	-27.42
211.876	-94.58
212.262	-67.67
212.648	8.69
213.034	-5.15
213.419	-39.74
213.805	-114.82
214.19	-56.69
214.576	-60.57
214.961	-14.14
215.346	-73.93
215.732	-21.94
216.117	14.59
216.502	-21.98
216.888	-12.37
217.273	-30.47
217.658	-39.16
218.043	-48.76
218.428	-39.37
218.813	14.32
219.198	-61.18
219.583	-59.05
219.968	15.91
220.353	-25.66
220.738	-11.44
221.122	-1.68
221.507	-37.43
221.892	-65.62
222.276	-46.09
222.661	-1.69
223.046	-37.5
223.43	12.6
223.815	-10.6
224.199	-12.96
224.583	-9.39
224.968	-3.07
225.352	-16.5
225.736	0.41
226.121	-5.66
226.505	-9.89
226.889	-1.23
227.273	-10.08
227.657	-2.29
228.041	2.84
228.425	-0.88
228.809	0.86
229.193	2.77
229.577	1.64
229.961	3.48
230.344	3.91
230.728	4.06
231.112	2.9
231.495	2.64
231.879	3.4
232.263	3.97
232.646	2.42
233.03	2.93
233.413	2.11
233.797	1.25
234.18	0.18
234.563	1.77
234.946	2.2
235.33	2.22
235.713	3.47
236.096	4.14
236.479	3.83
236.862	1.21
237.245	2.29
237.628	1.71
238.011	4.08
238.394	0.25
238.777	4.31
239.16	4.46
239.543	1.95
239.925	-0.05
240.308	2.63
240.691	2.75
241.073	-0.19
241.456	2.74
241.838	1.88
242.221	3.76
242.603	3.64
242.986	2.99
243.368	3.09
243.75	3.7
244.133	3.58
244.515	3.56
244.897	3.64
245.279	3.48
245.661	3.46
246.043	3.49
246.425	3.49
246.807	3.72
247.189	3.17
247.571	3.16
247.953	3.11
248.335	3.29
248.717	3.57
249.098	3.52
249.48	3.28
249.862	3.32
250.243	3.12
250.625	3.51
251.006	3.58
251.388	2.47
251.769	2.6
252.151	2.4
252.532	2.46
252.913	3.2
253.295	3.64
253.676	3.38
254.057	3.48
254.438	2.56
254.819	3.57
255.2	2.56
255.581	2.98
255.962	3.51
256.343	2.6
256.724	1.88
257.105	2.07
257.486	1.31
257.867	1.89
258.247	1.96
258.628	2.64
259.009	2.58
259.389	2.2
259.77	3.19
260.15	3.5
260.531	3.41
260.911	2.99
261.292	3.37
261.672	3.27
262.052	3.05
262.432	2.62
262.813	3.4
263.193	2.93
263.573	3.55
263.953	2.48
264.333	2.83
264.713	2.17
265.093	2.21
265.473	3.74
265.853	3.69
266.233	2.05
266.612	2.3
266.992	2.53
267.372	3.16
267.752	3.33
268.131	3.02
268.511	2.83
268.89	3.06
269.27	2.61
269.649	3.17
270.029	2.78
270.408	2.85
270.787	2.85
271.167	2.89
271.546	3.64
271.925	2.89
272.304	2.95
272.683	2.86
273.062	2.87
273.441	2.48
273.82	3.1
274.199	2.39
274.578	3.09
274.957	2.76
275.336	3.09
275.715	2.66
276.093	2.76
276.472	2.41
276.851	2.69
277.229	2.36
277.608	1.94
277.986	2.9
278.365	2.69
278.743	2.55
279.122	2.28
279.5	2.45
279.878	2.26
280.257	2.21
280.635	2.9
281.013	1.79
281.391	2.72
281.769	3.2
282.147	3.05
282.525	2.2
282.903	2.37
283.281	2.83
283.659	3.08
284.037	2.57
284.415	2.36
284.792	2.84
285.17	2.51
285.548	2.31
285.925	1.76
286.303	2.82
286.68	2.52
287.058	2.92
287.435	2.81
287.813	2.43
288.19	2.65
288.567	2.62
288.945	2.26
289.322	3.22
289.699	3.06
290.076	2.52
290.453	2.21
290.83	2.94
291.207	2.36
291.584	3.06
291.961	2.37
292.338	2.46
292.715	2.37
293.092	3.27
293.469	2.63
293.845	2.62
294.222	2.81
294.599	1.99
294.975	2.15
295.352	2.46
295.728	2.81
296.105	2.49
296.481	2.56
296.858	2.32
297.234	2.09
297.61	2.62
297.986	3.21
298.363	2.7
298.739	2.98
299.115	2.47
299.491	3.17
299.867	2.57
300.243	2.95
300.619	2.34
300.995	2.53
301.371	3.02
301.746	2.79
302.122	2.13
302.498	2.44
302.874	3.11
303.249	2.52
303.625	2.1
304	2.68
304.376	2.82
304.751	2.66
305.127	2.55
305.502	2.68
305.878	2.4
306.253	2.46
306.628	2.48
307.003	2.42
307.378	2.15
307.754	2.13
308.129	2.42
308.504	2.56
308.879	2.6
309.254	2.51
309.629	2.64
310.003	2.25
310.378	2.33
310.753	2.79
311.128	2.6
311.502	2.66
311.877	2.64
312.252	2.5
312.626	2.81
313.001	2.13
313.375	2.65
313.75	2.74
314.124	2.56
314.498	2.9
314.873	1.99
315.247	2.99
315.621	2.74
315.995	2.77
316.369	2.09
316.743	2.68
317.117	2.56
317.491	2.28
317.865	1.48
318.239	2.71
318.613	2.26
318.987	1.5
319.361	2.32
319.734	2.29
320.108	2.27
320.482	2.56
320.855	2.23
321.229	2.01
321.602	2.55
321.976	2.79
322.349	2.81
322.723	2.35
323.096	2.57
323.469	2.52
323.843	2.03
324.216	2.25
324.589	2.42
324.962	2.05
325.335	2.22
325.708	2.82
326.081	2.88
326.454	2.67
326.827	2.17
327.2	2.15
327.573	2.86
327.945	1.99
328.318	2.23
328.691	2.39
329.063	2.29
329.436	2.09
329.809	3.12
330.181	3.16
330.553	2.46
330.926	3.01
331.298	2.37
331.671	2.44
332.043	2.31
332.415	2.67
332.787	2.5
333.159	1.92
333.532	1.97
333.904	2.83
334.276	2.79
334.648	2.52
335.02	2.36
335.391	1.97
335.763	2.45
336.135	2.39
336.507	2.34
336.879	2.55
337.25	2.82
337.622	2.73
337.993	2.7
338.365	2.41
338.736	2.73
339.108	2.92
339.479	2.6
339.851	2.75
340.222	3.13
340.593	2.62
340.964	2.26
341.336	2.38
341.707	2.48
342.078	1.82
342.449	2.57
342.82	2.33
343.191	2.62
343.562	2.73
343.933	2.26
344.303	2.49
344.674	2.53
345.045	2.48
345.416	2.77
345.786	2.52
346.157	2.51
346.527	2.43
346.898	2.51
347.268	2.52
347.639	2.25
348.009	2.67
348.38	2.34
348.75	2.54
349.12	2.62
349.49	2.59
349.861	2.84
350.231	2.08
350.601	2.2
350.971	2.33
351.341	2.66
351.711	2.84
352.081	1.79
352.45	2.08
352.82	2.46
353.19	2.11
353.56	2.61
353.929	2.76
354.299	2.52
354.669	2.71
355.038	2.82
355.408	2.59
355.777	2.7
356.147	2.74
356.516	2.21
356.885	2.38
357.254	2.67
357.624	2.19
357.993	2.62
358.362	2.55
358.731	2.85
359.1	2.52
359.469	2.55
359.838	2.54
360.207	2.51
360.576	2.84
360.945	2.66
361.314	2.78
361.682	2.2
362.051	2.51
362.42	2.64
362.788	2.9
363.157	2.57
363.525	2.6
363.894	2.6
364.262	2.74
364.631	3
364.999	2.61
365.367	2.51
365.735	2.62
366.104	2.57
366.472	2.53
366.84	2.38
367.208	2.85
367.576	2.42
367.944	2.71
368.312	2.38
368.68	2.9
369.048	2.83
369.416	2.5
369.783	2.53
370.151	3.06
370.519	3.16
370.886	2.46
371.254	2.78
371.621	3.01
371.989	2.91
372.356	2.69
372.724	2.66
373.091	2.65
373.458	2.59
373.826	2.75
374.193	2.79
374.56	2.82
374.927	2.47
375.294	2.89
375.661	3.13
376.028	3.05
376.395	2.97
376.762	2.6
377.129	2.91
377.496	2.77
377.863	2.96
378.229	2.96
378.596	2.92
378.963	2.76
379.329	2.89
379.696	2.73
380.062	2.54
380.429	2.64
380.795	3.13
381.161	2.62
381.528	2.31
381.894	2.48
382.26	2.73
382.626	2.69
382.993	3.14
383.359	2.64
383.725	2.65
384.091	2.92
384.457	2.47
384.823	2.61
385.188	2.89
385.554	3.05
385.92	2.78
386.286	2.93
386.651	2.66
387.017	2.87
387.383	2.84
387.748	3.08
388.114	2.93
388.479	3.02
388.845	2.68
389.21	3.05
389.575	3.15
389.94	3
390.306	2.98
390.671	2.83
391.036	2.81
391.401	3.15
391.766	2.95
392.131	3.2
392.496	2.81
392.861	2.85
393.226	2.85
393.591	3.05
393.956	2.89
394.32	3.19
394.685	2.93
395.05	2.89
395.414	2.91
395.779	3.03
396.143	2.69
396.508	2.97
396.872	2.79
397.236	3.17
397.601	3.1
397.965	2.83
398.329	3.1
398.694	2.91
399.058	2.89
399.422	3.01
399.786	2.96
400.15	2.78
400.514	2.96
400.878	3.02
401.242	2.95
401.605	3.11
401.969	2.89
402.333	2.69
402.697	3.34
403.06	2.84
403.424	3
403.787	2.93
404.151	3
404.514	3.04
404.878	2.91
405.241	3.11
405.604	2.8
405.968	2.96
406.331	3.13
406.694	3.01
407.057	2.82
407.42	2.81
407.783	3.09
408.146	3.05
408.509	3.19
408.872	3.16
409.235	3.04
409.598	3.05
409.961	3.11
410.323	2.81
410.686	3.08
411.049	3
411.411	2.98
411.774	3.05
412.136	3.11
412.499	3.33
412.861	2.75
413.223	2.77
413.586	3.19
413.948	3.21
414.31	3.19
414.672	2.94
415.035	3.2
415.397	3.06
415.759	2.79
416.121	3.23
416.483	3.24
416.845	3.16
417.206	2.93
417.568	2.88
417.93	2.98
418.292	3.11
418.653	3.02
419.015	3.08
419.377	3
419.738	3.17
420.1	3.19
420.461	2.97
420.822	3.25
421.184	3.05
421.545	3.12
421.906	3.13
422.267	3.1
422.629	3.03
422.99	3.07
423.351	3.01
423.712	3.16
424.073	3.16
424.434	3.25
424.795	3.06
425.155	3
425.516	3
425.877	3.1
426.238	3.1
426.598	3.12
426.959	3.15
427.32	2.99
427.68	3.17
428.041	3.23
428.401	3.13
428.761	3.25
429.122	3.22
429.482	3.14
429.842	3.24
430.202	3.19
430.563	3.16
430.923	3.19
431.283	3.24
431.643	3.34
432.003	3.32
432.363	3.29
432.722	3.04
433.082	3.12
433.442	3.29
433.802	3.17
434.161	3.16
434.521	3.31
434.881	3.22
435.24	3.11
435.6	3.23
435.959	3.33
436.319	3.22
436.678	3.23
437.037	3.19
437.396	3.25
437.756	3.15
438.115	3.21
438.474	3.19
438.833	3.27
439.192	3.14
439.551	3.1
439.91	3.21
440.269	3.24
440.628	3.15
440.987	3.26
441.345	3.2
441.704	3.2
442.063	3.24
442.421	3.27
442.78	3.3
443.138	3.31
443.497	3.26
443.855	3.37
444.214	3.19
444.572	3.33
444.93	3.27
445.288	3.18
445.647	3.14
446.005	3.18
446.363	3.22
446.721	3.23
447.079	3.15
447.437	3.23
447.795	3.27
448.153	3.17
448.51	3.3
448.868	3.18
449.226	3.27
449.584	3.21
449.941	3.25
450.299	3.23
450.656	3.22
451.014	3.32
451.371	3.28
451.729	3.31
452.086	3.29
452.443	3.4
452.801	3.28
453.158	3.43
453.515	3.27
453.872	3.29
454.229	3.17
454.586	3.12
454.943	3.37
455.3	3.23
455.657	3.28
456.014	3.3
456.371	3.28
456.727	3.47
457.084	3.5
457.441	3.41
457.797	3.24
458.154	3.32
458.51	3.3
458.867	3.26
459.223	3.26
459.58	3.36
459.936	3.29
460.292	3.23
460.648	3.17
461.005	3.3
461.361	3.32
461.717	3.29
462.073	3.36
462.429	3.42
462.785	3.47
463.141	3.24
463.496	3.41
463.852	3.52
464.208	3.28
464.564	3.18
464.919	3.48
465.275	3.5
465.631	3.55
465.986	3.6
466.342	3.21
466.697	3.37
467.052	3.55
467.408	3.58
467.763	3.37
468.118	3.38
468.473	3.43
468.829	3.33
469.184	3.45
469.539	3.38
469.894	3.5
470.249	3.5
470.603	3.49
470.958	3.53
471.313	3.41
471.668	3.39
472.023	3.38
472.377	3.26
472.732	3.52
473.086	3.42
473.441	3.36
473.795	3.55
474.15	3.38
474.504	3.5
474.859	3.31
475.213	3.48
475.567	3.46
475.921	3.49
476.275	3.57
476.63	3.46
476.984	3.44
477.338	3.5
477.692	3.6
478.045	3.46
478.399	3.33
478.753	3.3
479.107	3.57
479.461	3.4
479.814	3.36
480.168	3.37
480.521	3.58
480.875	3.45
481.228	3.46
481.582	3.42
481.935	3.52
482.289	3.5
482.642	3.49
482.995	3.41
483.348	3.34
483.701	3.46
484.055	3.43
484.408	3.37
484.761	3.32
485.114	3.21
485.466	3.2
485.819	3.24
486.172	3.33
486.525	3.35
486.878	3.4
487.23	3.39
487.583	3.46
487.936	3.38
488.288	3.38
488.641	3.32
488.993	3.29
489.345	3.29
489.698	3.34
490.05	3.33
490.402	3.4
490.754	3.41
491.107	3.36
491.459	3.53
491.811	3.43
492.163	3.48
492.515	3.29
492.866	3.29
493.218	3.36
493.57	3.4
493.922	3.43
494.274	3.52
494.625	3.63
494.977	3.52
495.328	3.6
495.68	3.43
496.031	3.52
496.383	3.49
496.734	3.48
497.086	3.58
497.437	3.53
497.788	3.63
498.139	3.55
498.49	3.55
498.842	3.52
499.193	3.46
499.544	3.54
499.894	3.55
500.245	3.63
500.596	3.5
500.947	3.52
501.298	3.57
501.648	3.46
501.999	3.6
502.35	3.48
502.7	3.76
503.051	3.49
503.401	3.56
503.752	3.5
504.102	3.49
504.452	3.43
504.803	3.45
505.153	3.58
505.503	3.58
505.853	3.57
506.203	3.54
506.553	3.54
506.903	3.54
507.253	3.5
507.603	3.67
507.953	3.52
508.303	3.69
508.652	3.5
509.002	3.65
509.352	3.63
509.701	3.5
510.051	3.65
510.4	3.61
510.75	3.46
511.099	3.45
511.449	3.64
511.798	3.56
512.147	3.49
512.496	3.58
512.846	3.51
513.195	3.58
513.544	3.56
513.893	3.56
514.242	3.5
514.591	3.51
514.939	3.66
515.288	3.65
515.637	3.61
515.986	3.62
516.334	3.73
516.683	3.6
517.032	3.55
517.38	3.49
517.729	3.48
518.077	3.56
518.426	3.63
518.774	3.51
519.122	3.52
519.47	3.58
519.819	3.56
520.167	3.48
520.515	3.56
520.863	3.59
521.211	3.54
521.559	3.59
521.907	3.67
522.255	3.6
522.602	3.65
522.95	3.7
523.298	3.54
523.645	3.56
523.993	3.66
524.341	3.54
524.688	3.6
525.036	3.58
525.383	3.63
525.73	3.6
526.078	3.71
526.425	3.61
526.772	3.48
527.119	3.56
527.466	3.59
527.814	3.58
528.161	3.61
528.508	3.73
528.854	3.57
529.201	3.55
529.548	3.53
529.895	3.43
530.242	3.38
530.588	3.46
530.935	3.49
531.282	3.55
531.628	3.6
531.975	3.51
532.321	3.64
532.667	3.62
533.014	3.69
533.36	3.56
533.706	3.62
534.052	3.58
534.399	3.6
534.745	3.5
535.091	3.49
535.437	3.57
535.783	3.59
536.129	3.63
536.474	3.68
536.82	3.72
537.166	3.6
537.512	3.62
537.857	3.66
538.203	3.59
538.549	3.55
538.894	3.62
539.239	3.65
539.585	3.72
539.93	3.78
540.276	3.67
540.621	3.82
540.966	3.65
541.311	3.59
541.656	3.62
542.001	3.56
542.346	3.55
542.691	3.49
543.036	3.5
543.381	3.56
543.726	3.67
544.071	3.59
544.415	3.65
544.76	3.66
545.105	3.59
545.449	3.64
545.794	3.7
546.138	3.63
546.483	3.76
546.827	3.67
547.171	3.75
547.516	3.76
547.86	3.67
548.204	3.66
548.548	3.63
548.892	3.73
549.236	3.69
549.58	3.92
549.924	3.83
550.268	3.92
550.612	3.82
550.956	3.78
551.3	3.84
551.643	3.83
551.987	3.86
552.33	3.8
552.674	3.75
553.017	4
553.361	3.79
553.704	3.71
554.048	3.65
554.391	3.76
554.734	3.65
555.077	3.59
555.42	3.74
555.764	3.86
556.107	3.85
556.45	3.8
556.793	3.73
557.135	3.84
557.478	3.84
557.821	3.72
558.164	3.65
558.507	3.77
558.849	4.09
559.192	3.73
559.534	3.77
559.877	3.86
560.219	3.71
560.562	3.69
560.904	3.99
561.246	3.72
561.589	3.83
561.931	3.83
562.273	3.68
562.615	3.74
562.957	3.76
563.299	3.96
563.641	3.96
563.983	3.64
564.325	3.69
564.667	3.89
565.008	3.62
565.35	3.71
565.692	3.64
566.033	3.73
566.375	3.9
566.716	3.64
567.058	3.71
567.399	3.62
567.741	3.63
568.082	3.75
568.423	3.67
568.764	3.71
569.105	3.73
569.447	3.73
569.788	3.81
570.129	3.7
570.47	3.83
570.811	3.76
571.151	3.77
571.492	3.81
571.833	3.68
572.174	3.73
572.514	3.77
572.855	3.85
573.195	3.61
573.536	3.74
573.876	3.67
574.217	3.85
574.557	3.86
574.898	3.74
575.238	3.83
575.578	3.84
575.918	3.85
576.258	4.06
576.598	3.74
576.938	3.75
577.278	3.75
577.618	3.75
577.958	3.71
578.298	3.94
578.638	3.86
578.977	3.88
579.317	3.83
579.657	3.75
579.996	4.09
580.336	4
580.675	3.81
581.014	3.92
581.354	3.76
581.693	3.8
582.032	3.93
582.372	3.71
582.711	3.86
583.05	3.86
583.389	3.76
583.728	4.05
584.067	3.8
584.406	3.92
584.745	3.77
585.083	3.95
585.422	3.99
585.761	4.06
586.1	3.9
586.438	3.79
586.777	3.83
587.115	3.97
587.454	3.66
587.792	3.78
588.13	3.76
588.469	3.8
588.807	4.01
589.145	3.99
589.483	3.58
589.821	4.01
590.159	3.86
590.497	4
590.835	3.84
591.173	3.95
591.511	4.01
591.849	3.82
592.187	3.78
592.524	4.14
592.862	3.68
593.2	3.93
593.537	3.79
593.875	3.99
594.212	4.08
594.55	3.88
594.887	4.03
595.224	3.99
595.561	3.84
595.899	3.85
596.236	3.94
596.573	3.7
596.91	3.88
597.247	3.92
597.584	3.97
597.921	3.82
598.258	4.13
598.594	3.69
598.931	3.73
599.268	3.75
599.604	3.94
599.941	3.9
600.277	3.91
600.614	3.98
600.95	3.81
601.287	3.39
601.623	3.58
601.959	4.12
602.296	3.87
602.632	3.91
602.968	3.74
603.304	4.07
603.64	3.68
603.976	3.64
604.312	3.75
604.648	3.68
604.984	3.86
605.319	3.93
605.655	3.88
605.991	3.78
606.326	4.03
606.662	3.73
606.998	3.91
607.333	3.7
607.668	3.67
608.004	3.79
608.339	3.81
608.674	3.81
609.01	4.13
609.345	3.97
609.68	3.56
610.015	3.78
610.35	3.98
610.685	3.32
611.02	3.8
611.355	4.01
611.689	3.91
612.024	3.93
612.359	4.12
612.694	3.96
613.028	3.78
613.363	4.01
613.697	3.91
614.032	3.89
614.366	3.82
614.7	3.85
615.035	3.71
615.369	3.87
615.703	4.18
616.037	3.85
616.371	3.74
616.705	3.78
617.039	3.97
617.373	3.86
617.707	3.75
618.041	3.47
618.375	3.36
618.709	3.84
619.042	3.9
619.376	3.87
619.71	3.84
620.043	4.23
620.377	3.88
620.71	3.82
621.043	4.08
621.377	4.11
621.71	4.38
622.043	3.81
622.376	4.11
622.709	4.41
623.043	3.77
623.376	3.96
623.709	4.31
624.041	3.66
624.374	3.95
624.707	4.12
625.04	3.82
625.373	3.96
625.705	4.15
626.038	4.3
626.37	3.82
626.703	4
627.035	3.81
627.368	4.21
627.7	3.88
628.032	3.76
628.365	4.2
628.697	3.95
629.029	3.91
629.361	4.14
629.693	3.71
630.025	3.85
630.357	4.05
630.689	4.07
631.021	4.04
631.353	3.82
631.684	3.72
632.016	3.56
632.348	3.92
632.679	4.11
633.011	3.71
633.342	3.88
633.674	3.82
634.005	3.9
634.336	4.18
634.668	3.85
634.999	3.77
635.33	4
635.661	4.06
635.992	3.87
636.323	3.92
636.654	3.84
636.985	3.87
637.316	3.99
637.647	3.96
637.977	3.74
638.308	4.12
638.639	3.91
638.969	3.74
639.3	4.14
639.63	4.1
639.961	4.17
640.291	3.58
640.622	3.8
640.952	4.4
641.282	3.84
641.612	4.04
641.943	3.56
642.273	4.06
642.603	3.86
642.933	4.42
643.263	4.13
643.592	4.49
643.922	4.28
644.252	4.05
644.582	4.24
644.911	4.01
645.241	3.92
645.571	3.41
645.9	3.88
646.23	4.05
646.559	3.19
646.888	3.83
647.218	3.91
647.547	3.71
647.876	3.45
648.205	3.6
648.534	4
648.863	3.72
649.192	3.94
649.521	4.17
649.85	3.98
650.179	4.42
650.508	3.9
650.837	3.87
651.165	3.66
651.494	4.18
651.822	3.99
652.151	3.86
652.479	4.04
652.808	3.89
653.136	3.66
653.465	3.79
653.793	4.2
654.121	3.97
654.449	3.53
654.777	3.88
655.105	3.67
655.433	4.11
655.761	3.9
656.089	3.98
656.417	4.48
656.745	4.5
657.073	3.73
657.4	4.23
657.728	3.38
658.056	3.83
658.383	3.91
658.711	4.13
659.038	4.44
659.365	4.07
659.693	4.1
660.02	3.66
660.347	3.91
660.674	3.79
661.001	3.74
661.329	3.87
661.656	3.45
661.982	3.95
662.309	3.86
662.636	3.95
662.963	4.14
663.29	3.91
663.616	3.83
663.943	3.62
664.27	4.02
664.596	3.74
664.923	4.08
665.249	4.19
665.576	3.78
665.902	3.91
666.228	4.36
666.554	3.82
666.881	3.3
667.207	3.78
667.533	3.47
667.859	3.84
668.185	3.55
668.511	4.46
668.837	4.02
669.162	4.01
669.488	3.4
669.814	4.38
670.139	3.29
670.465	4.2
670.791	3.46
671.116	4.03
671.442	2.81
671.767	4.2
672.092	3.27
672.418	4.39
672.743	4.11
673.068	3.86
673.393	4.22
673.718	3.43
674.043	3.72
674.368	4.12
674.693	4.18
675.018	3.95
675.343	4.09
675.667	3.69
675.992	4.3
676.317	3.35
676.641	4.09
676.966	3.97
677.29	3.4
677.615	3.4
677.939	4.1
678.264	4.11
678.588	4.19
678.912	4.33
679.236	3.77
679.56	3.36
679.885	3.63
680.209	4.31
680.532	4.64
680.856	4
681.18	4.41
681.504	4.12
681.828	3.36
682.152	4
682.475	4.39
682.799	3.65
683.122	4.23
683.446	3.1
683.769	3.87
684.093	4.37
684.416	3.88
684.739	3.87
685.062	4.38
685.386	3.97
685.709	3.93
686.032	4.02
686.355	4.01
686.678	3.91
687.001	4.31
687.324	3.82
687.646	3.89
687.969	4.24
688.292	4.06
688.614	4.46
688.937	3.98
689.26	4.53
689.582	3.84
689.904	4.28
690.227	4.5
690.549	4.42
690.871	3.79
691.194	3.01
691.516	4.22
691.838	4.23
