Data from 2019-2_forehead_Reflection__2__419.txt Node

Date: Thu Dec 15 20:12:48 CST 2022
User: ToomeyLab
Spectrometer: FLMS14357
Trigger mode: 0
Integration Time (sec): 1.000000E-2
Scans to average: 100
Electric dark correction enabled: true
Nonlinearity correction enabled: false
Boxcar width: 0
XAxis mode: Wavelengths
Number of Pixels in Spectrum: 2048
>>>>>Begin Spectral Data<<<<<
189.047	-133.25
189.435	-133.25
189.823	-133.25
190.211	19.78
190.599	1.12
190.987	-122.84
191.375	5217.14
191.763	89.5
192.151	134.08
192.538	6.29
192.926	238.64
193.314	-251.24
193.702	103.94
194.089	71.84
194.477	11.64
194.864	323.59
195.252	-3.52
195.639	86.36
196.027	41.95
196.414	-31.41
196.801	741.59
197.189	38.95
197.576	85.45
197.963	410.77
198.351	40.58
198.738	-10.07
199.125	-51.2
199.512	27.44
199.899	9.83
200.286	-6.23
200.673	63.72
201.06	11.73
201.447	33.54
201.833	45.46
202.22	-3.9
202.607	-0.35
202.994	75.1
203.38	-2.82
203.767	12.95
204.154	17.88
204.54	52.89
204.927	14.76
205.313	43.27
205.699	18.07
206.086	42.18
206.472	28.9
206.858	9.15
207.245	19.01
207.631	44.4
208.017	49.74
208.403	-16.1
208.789	3.6
209.175	13.66
209.561	-50.1
209.947	13.73
210.333	-30.62
210.719	46.17
211.105	42.13
211.491	5.48
211.876	38.25
212.262	10.54
212.648	22.34
213.034	-34.68
213.419	63.44
213.805	-3.54
214.19	27.66
214.576	8
214.961	5.99
215.346	-15.74
215.732	8.88
216.117	33.56
216.502	-1.65
216.888	14.44
217.273	-0.73
217.658	-24.36
218.043	1.73
218.428	-29.56
218.813	1.47
219.198	-13.08
219.583	9.73
219.968	-9.13
220.353	-15.75
220.738	-6.31
221.122	7.61
221.507	20.33
221.892	2.6
222.276	-14.42
222.661	-8.77
223.046	-9.36
223.43	34.63
223.815	2.87
224.199	13.35
224.583	-1.24
224.968	7.9
225.352	0.29
225.736	12.45
226.121	0.06
226.505	-7.52
226.889	8.45
227.273	6.37
227.657	6.19
228.041	2.73
228.425	-4.03
228.809	2.85
229.193	4.42
229.577	3.1
229.961	3.32
230.344	4.39
230.728	4.27
231.112	4.66
231.495	3.13
231.879	4.32
232.263	5.52
232.646	2.17
233.03	6.26
233.413	4.66
233.797	1.44
234.18	3.14
234.563	3.73
234.946	2.55
235.33	2.67
235.713	3.6
236.096	5.06
236.479	4.34
236.862	4.62
237.245	2.16
237.628	4.54
238.011	2.94
238.394	2.55
238.777	4.5
239.16	4.44
239.543	4.91
239.925	2.37
240.308	2.7
240.691	3.2
241.073	2.9
241.456	3.25
241.838	3.81
242.221	4.11
242.603	4.13
242.986	4.27
243.368	3.9
243.75	3.93
244.133	4.22
244.515	3.72
244.897	3.9
245.279	3.43
245.661	4.08
246.043	3.58
246.425	4.56
246.807	4.41
247.189	3.86
247.571	3.36
247.953	3.78
248.335	3.92
248.717	4.02
249.098	3.68
249.48	3.63
249.862	3.98
250.243	3.93
250.625	4.06
251.006	4.16
251.388	3.59
251.769	3.47
252.151	4.44
252.532	4.07
252.913	4.12
253.295	3.91
253.676	4.06
254.057	4.02
254.438	4.08
254.819	3.6
255.2	4.03
255.581	4.9
255.962	4.43
256.343	4.79
256.724	3.73
257.105	4.28
257.486	3.09
257.867	3.61
258.247	4.27
258.628	4.77
259.009	3.22
259.389	3.82
259.77	3.36
260.15	4.83
260.531	4.12
260.911	3.69
261.292	3.92
261.672	3.69
262.052	4.06
262.432	3.57
262.813	4.07
263.193	3.33
263.573	4.18
263.953	3.28
264.333	4.24
264.713	4.13
265.093	4.07
265.473	4.9
265.853	4.03
266.233	4.01
266.612	3.19
266.992	3.85
267.372	4.54
267.752	4.13
268.131	3.68
268.511	4.32
268.89	4.57
269.27	3.35
269.649	3.49
270.029	4.72
270.408	3.97
270.787	4.72
271.167	3.75
271.546	5.08
271.925	3.56
272.304	3.78
272.683	3.9
273.062	3.8
273.441	3.42
273.82	4.28
274.199	3.67
274.578	4.11
274.957	3.3
275.336	3.73
275.715	3.79
276.093	3.42
276.472	3.29
276.851	4.09
277.229	4.25
277.608	3.69
277.986	4.06
278.365	4.21
278.743	4
279.122	3.7
279.5	3.95
279.878	4.04
280.257	3.81
280.635	3.22
281.013	4.2
281.391	3.82
281.769	4.46
282.147	3.69
282.525	4.06
282.903	3.76
283.281	4.56
283.659	3.74
284.037	3.98
284.415	3.49
284.792	4.36
285.17	3.95
285.548	3.87
285.925	4.04
286.303	4.47
286.68	3.73
287.058	3.78
287.435	3.75
287.813	3.96
288.19	3.59
288.567	3.91
288.945	3.8
289.322	4.38
289.699	4.03
290.076	4.02
290.453	3.81
290.83	4.28
291.207	4.26
291.584	4.52
291.961	4.28
292.338	3.96
292.715	3.86
293.092	4.25
293.469	4.58
293.845	4.24
294.222	4.9
294.599	4.25
294.975	4.31
295.352	4.79
295.728	5.01
296.105	4.72
296.481	5.27
296.858	4.47
297.234	4.38
297.61	4.39
297.986	5.15
298.363	4.88
298.739	5.11
299.115	4.89
299.491	5.4
299.867	4.72
300.243	4.99
300.619	4.71
300.995	5.09
301.371	5.33
301.746	5.87
302.122	5.22
302.498	5.31
302.874	5.22
303.249	5.4
303.625	5.06
304	5.47
304.376	6.5
304.751	5.8
305.127	5.56
305.502	5.93
305.878	6.11
306.253	5.77
306.628	6.23
307.003	5.82
307.378	5.69
307.754	6.13
308.129	6.16
308.504	6.24
308.879	5.85
309.254	7.01
309.629	6.4
310.003	6.37
310.378	6.8
310.753	6.54
311.128	6.3
311.502	6.96
311.877	6.58
312.252	6.63
312.626	7.26
313.001	7.01
313.375	7.36
313.75	7.07
314.124	7.11
314.498	7.68
314.873	7.04
315.247	6.83
315.621	7.17
315.995	7.08
316.369	7.12
316.743	7.62
317.117	7.24
317.491	8.09
317.865	7.38
318.239	8.06
318.613	8.15
318.987	7.61
319.361	7.6
319.734	7.56
320.108	8.13
320.482	8.65
320.855	8.72
321.229	7.85
321.602	8.73
321.976	8.34
322.349	9.56
322.723	8.64
323.096	8.31
323.469	8.43
323.843	8.8
324.216	8.9
324.589	8.93
324.962	8.5
325.335	8.78
325.708	9.17
326.081	8.69
326.454	9.12
326.827	9.33
327.2	8.73
327.573	9.49
327.945	9.1
328.318	9.13
328.691	9.56
329.063	9.35
329.436	9.34
329.809	9.99
330.181	9.81
330.553	9.64
330.926	10.06
331.298	9.81
331.671	10.04
332.043	10.12
332.415	9.87
332.787	10.19
333.159	10.21
333.532	10.6
333.904	10.12
334.276	10.57
334.648	9.99
335.02	10.64
335.391	10.15
335.763	10.45
336.135	10.42
336.507	10.73
336.879	10.79
337.25	10.89
337.622	11.07
337.993	10.57
338.365	10.29
338.736	10.86
339.108	11.28
339.479	10.74
339.851	11.38
340.222	11.41
340.593	11.08
340.964	11.38
341.336	11.04
341.707	11.71
342.078	11.13
342.449	11.59
342.82	11.74
343.191	11.47
343.562	11.49
343.933	11.71
344.303	12.04
344.674	11.37
345.045	11.72
345.416	12.05
345.786	12.09
346.157	11.88
346.527	11.97
346.898	11.9
347.268	12.23
347.639	11.84
348.009	12.24
348.38	12.59
348.75	12.22
349.12	12.45
349.49	12.48
349.861	12.58
350.231	12.14
350.601	12.52
350.971	12.45
351.341	12.84
351.711	12.68
352.081	12.76
352.45	12.57
352.82	12.46
353.19	13
353.56	12.89
353.929	12.96
354.299	13.31
354.669	13.56
355.038	13.57
355.408	12.93
355.777	13.84
356.147	13.7
356.516	13.44
356.885	13.7
357.254	13.23
357.624	13.36
357.993	13.86
358.362	13.58
358.731	14.07
359.1	13.92
359.469	13.78
359.838	13.89
360.207	13.72
360.576	14.22
360.945	13.92
361.314	14.27
361.682	13.93
362.051	14.17
362.42	14.17
362.788	14.19
363.157	14.23
363.525	14.44
363.894	14.27
364.262	14.49
364.631	14.73
364.999	14.66
365.367	14.6
365.735	14.35
366.104	14.77
366.472	14.6
366.84	14.95
367.208	15.21
367.576	15.04
367.944	15.12
368.312	14.92
368.68	15.41
369.048	15.19
369.416	15.34
369.783	15.42
370.151	15.53
370.519	15.62
370.886	15.59
371.254	15.7
371.621	16.16
371.989	16.07
372.356	15.86
372.724	15.98
373.091	15.54
373.458	15.9
373.826	16.09
374.193	15.9
374.56	16.44
374.927	16.27
375.294	16.2
375.661	16.3
376.028	16.6
376.395	16.68
376.762	16.31
377.129	16.38
377.496	16.6
377.863	16.81
378.229	16.71
378.596	16.79
378.963	17.04
379.329	16.94
379.696	16.77
380.062	17
380.429	17.05
380.795	17.28
381.161	16.97
381.528	17.13
381.894	17.18
382.26	17.37
382.626	17.39
382.993	17.67
383.359	17.61
383.725	17.21
384.091	17.8
384.457	17.66
384.823	17.99
385.188	17.81
385.554	17.62
385.92	17.7
386.286	17.69
386.651	17.95
387.017	18.32
387.383	17.96
387.748	18.09
388.114	18.23
388.479	18.27
388.845	18.11
389.21	18.89
389.575	18.73
389.94	18.66
390.306	18.66
390.671	18.66
391.036	18.97
391.401	18.99
391.766	18.82
392.131	18.97
392.496	18.9
392.861	18.63
393.226	18.76
393.591	19.14
393.956	19.33
394.32	19.46
394.685	19.43
395.05	19.42
395.414	19.42
395.779	19.68
396.143	19.31
396.508	19.39
396.872	19.46
397.236	20.03
397.601	19.9
397.965	19.82
398.329	19.99
398.694	19.71
399.058	20.19
399.422	20.13
399.786	19.88
400.15	20.02
400.514	19.93
400.878	20.2
401.242	20.23
401.605	20.27
401.969	20.1
402.333	20.28
402.697	20.81
403.06	20.61
403.424	20.58
403.787	20.61
404.151	20.33
404.514	20.59
404.878	20.55
405.241	20.79
405.604	20.69
405.968	20.91
406.331	20.76
406.694	20.98
407.057	20.85
407.42	21.2
407.783	21.13
408.146	21.17
408.509	21.28
408.872	21.29
409.235	21.81
409.598	21.42
409.961	21.64
410.323	21.44
410.686	21.84
411.049	21.46
411.411	21.56
411.774	21.64
412.136	21.82
412.499	22.17
412.861	21.8
413.223	21.87
413.586	22.08
413.948	21.86
414.31	22.16
414.672	22.29
415.035	22.44
415.397	22.41
415.759	22.16
416.121	22.55
416.483	22.49
416.845	22.44
417.206	22.4
417.568	22.37
417.93	22.4
418.292	22.52
418.653	22.45
419.015	22.55
419.377	22.29
419.738	22.55
420.1	22.48
420.461	22.5
420.822	22.54
421.184	22.54
421.545	22.61
421.906	22.71
422.267	22.63
422.629	22.56
422.99	22.71
423.351	22.76
423.712	22.95
424.073	22.91
424.434	23.13
424.795	22.98
425.155	23.04
425.516	23.13
425.877	23.07
426.238	23.19
426.598	23.38
426.959	23.46
427.32	23.41
427.68	23.56
428.041	23.83
428.401	23.89
428.761	23.94
429.122	24
429.482	24.27
429.842	24.18
430.202	24.18
430.563	24.41
430.923	24.31
431.283	24.67
431.643	24.59
432.003	24.44
432.363	24.58
432.722	24.8
433.082	24.78
433.442	24.85
433.802	24.77
434.161	24.78
434.521	24.7
434.881	24.82
435.24	24.83
435.6	25.05
435.959	24.91
436.319	25.1
436.678	25.15
437.037	25.2
437.396	25.36
437.756	25.23
438.115	25.35
438.474	25.41
438.833	25.52
439.192	25.53
439.551	25.63
439.91	25.42
440.269	25.36
440.628	25.66
440.987	25.65
441.345	25.54
441.704	25.69
442.063	25.63
442.421	25.78
442.78	25.82
443.138	25.95
443.497	25.91
443.855	26.06
444.214	26.05
444.572	26.47
444.93	26.45
445.288	26.2
445.647	26.2
446.005	26.45
446.363	26.29
446.721	26.52
447.079	26.39
447.437	26.25
447.795	26.37
448.153	26.25
448.51	26.3
448.868	26.36
449.226	26.41
449.584	26.77
449.941	27.09
450.299	26.85
450.656	27.08
451.014	27.14
451.371	27.15
451.729	27.48
452.086	27.32
452.443	27.43
452.801	27.62
453.158	27.62
453.515	27.6
453.872	27.6
454.229	27.46
454.586	27.59
454.943	27.9
455.3	27.96
455.657	27.81
456.014	28.11
456.371	28.1
456.727	28.39
457.084	28.13
457.441	28.37
457.797	28.38
458.154	28.46
458.51	28.35
458.867	28.36
459.223	28.43
459.58	28.69
459.936	28.48
460.292	28.33
460.648	28.36
461.005	28.31
461.361	28.22
461.717	28.16
462.073	28.42
462.429	28.7
462.785	28.76
463.141	28.81
463.496	28.93
463.852	29.06
464.208	29.16
464.564	29.29
464.919	29.37
465.275	29.56
465.631	29.73
465.986	29.57
466.342	29.24
466.697	29.57
467.052	29.69
467.408	29.61
467.763	30.01
468.118	29.86
468.473	29.85
468.829	29.88
469.184	29.95
469.539	29.79
469.894	29.96
470.249	30.03
470.603	30.27
470.958	30.27
471.313	30.14
471.668	30.52
472.023	30.45
472.377	30.29
472.732	30.56
473.086	30.57
473.441	30.73
473.795	30.75
474.15	30.62
474.504	30.91
474.859	30.59
475.213	30.85
475.567	30.8
475.921	30.77
476.275	30.8
476.63	30.96
476.984	31.1
477.338	31.14
477.692	30.99
478.045	30.93
478.399	31.07
478.753	31.14
479.107	31.05
479.461	31.27
479.814	31.32
480.168	31.19
480.521	31.46
480.875	31.28
481.228	31.42
481.582	31.59
481.935	31.64
482.289	31.36
482.642	31.66
482.995	31.54
483.348	31.31
483.701	31.35
484.055	31.11
484.408	31.07
484.761	30.79
485.114	30.72
485.466	30.65
485.819	30.77
486.172	30.76
486.525	30.95
486.878	31.01
487.23	31.19
487.583	31.4
487.936	31.47
488.288	31.39
488.641	31.35
488.993	31.2
489.345	31.29
489.698	31.31
490.05	31.35
490.402	31.53
490.754	31.72
491.107	31.98
491.459	32.2
491.811	32.2
492.163	32.24
492.515	32.11
492.866	31.89
493.218	31.95
493.57	31.99
493.922	32.11
494.274	32.23
494.625	32.52
494.977	32.88
495.328	33.01
495.68	33.06
496.031	33.25
496.383	33.34
496.734	33.29
497.086	33.5
497.437	33.7
497.788	33.58
498.139	33.67
498.49	33.67
498.842	33.56
499.193	33.39
499.544	33.69
499.894	33.68
500.245	33.8
500.596	33.66
500.947	33.81
501.298	33.99
501.648	34.1
501.999	34.3
502.35	34.17
502.7	34.41
503.051	34.28
503.401	34.61
503.752	34.27
504.102	34.56
504.452	34.62
504.803	34.6
505.153	34.81
505.503	34.73
505.853	34.57
506.203	34.7
506.553	34.87
506.903	34.84
507.253	34.88
507.603	35.15
507.953	35.31
508.303	35.23
508.652	34.97
509.002	35.28
509.352	35.17
509.701	35.2
510.051	35.3
510.4	35.13
510.75	35.07
511.099	34.95
511.449	35.23
511.798	35.07
512.147	35.26
512.496	35.53
512.846	35.33
513.195	35.59
513.544	35.54
513.893	35.47
514.242	35.61
514.591	35.56
514.939	35.7
515.288	35.88
515.637	36.03
515.986	35.99
516.334	36.09
516.683	36.04
517.032	36.05
517.38	36.22
517.729	36.23
518.077	36.29
518.426	36.26
518.774	36.29
519.122	36.27
519.47	35.93
519.819	35.88
520.167	35.76
520.515	35.88
520.863	35.85
521.211	36.01
521.559	36.25
521.907	36.42
522.255	36.52
522.602	36.65
522.95	36.77
523.298	36.85
523.645	37.08
523.993	36.96
524.341	37.07
524.688	36.95
525.036	37.09
525.383	36.99
525.73	37.1
526.078	37.26
526.425	36.94
526.772	36.81
527.119	36.74
527.466	36.72
527.814	36.63
528.161	36.82
528.508	37.07
528.854	36.87
529.201	36.74
529.548	36.57
529.895	36.4
530.242	36.57
530.588	36.48
530.935	36.65
531.282	36.53
531.628	36.78
531.975	36.94
532.321	37.22
532.667	37.4
533.014	37.54
533.36	37.55
533.706	37.41
534.052	37.53
534.399	37.26
534.745	37.28
535.091	37.27
535.437	37.37
535.783	37.49
536.129	37.6
536.474	37.95
536.82	38.02
537.166	37.97
537.512	37.99
537.857	38.01
538.203	38.04
538.549	38.15
538.894	38.13
539.239	38.25
539.585	38.54
539.93	38.73
540.276	38.74
540.621	38.99
540.966	38.87
541.311	38.91
541.656	38.79
542.001	38.72
542.346	38.55
542.691	38.18
543.036	38.27
543.381	38.33
543.726	38.44
544.071	38.6
544.415	38.56
544.76	38.76
545.105	38.74
545.449	39.12
545.794	39.37
546.138	39.02
546.483	39.38
546.827	39.54
547.171	39.56
547.516	39.66
547.86	39.79
548.204	39.38
548.548	39.65
548.892	39.54
549.236	39.89
549.58	39.87
549.924	39.98
550.268	40.22
550.612	40.52
550.956	40.73
551.3	40.7
551.643	40.43
551.987	40.55
552.33	41.02
552.674	40.89
553.017	40.83
553.361	40.93
553.704	40.93
554.048	40.78
554.391	40.77
554.734	40.86
555.077	40.87
555.42	40.86
555.764	40.87
556.107	41.19
556.45	41.37
556.793	41.5
557.135	41.29
557.478	41.6
557.821	41.67
558.164	41.29
558.507	41.5
558.849	41.68
559.192	41.44
559.534	41.74
559.877	41.61
560.219	41.46
560.562	41.93
560.904	42.01
561.246	41.69
561.589	42.04
561.931	41.98
562.273	41.83
562.615	42.07
562.957	41.93
563.299	42.08
563.641	42.14
563.983	42.23
564.325	42.19
564.667	42.33
565.008	42.16
565.35	42.2
565.692	42.25
566.033	42.51
566.375	42.29
566.716	42.25
567.058	42.71
567.399	42.33
567.741	42.43
568.082	42.28
568.423	42.39
568.764	42.39
569.105	42.69
569.447	42.59
569.788	42.53
570.129	42.81
570.47	42.81
570.811	42.87
571.151	43.05
571.492	42.99
571.833	42.95
572.174	43.13
572.514	43.12
572.855	43.26
573.195	43.21
573.536	43.16
573.876	43.02
574.217	43.19
574.557	43.27
574.898	43.09
575.238	43.37
575.578	43.56
575.918	43.2
576.258	43.54
576.598	43.37
576.938	43.41
577.278	43.5
577.618	43.55
577.958	43.43
578.298	43.77
578.638	43.81
578.977	43.91
579.317	44.1
579.657	44.28
579.996	44.45
580.336	44.22
580.675	44.17
581.014	44.3
581.354	44.2
581.693	44.22
582.032	44.84
582.372	44.48
582.711	44.63
583.05	44.92
583.389	45
583.728	44.77
584.067	44.52
584.406	45.17
584.745	45.18
585.083	45.03
585.422	45.02
585.761	44.68
586.1	44.87
586.438	45.2
586.777	44.97
587.115	45.15
587.454	45.51
587.792	45.17
588.13	45.32
588.469	45.22
588.807	45.45
589.145	45.39
589.483	45.42
589.821	45.4
590.159	45.2
590.497	45.28
590.835	45.55
591.173	45.29
591.511	45.69
591.849	45.64
592.187	45.61
592.524	45.36
592.862	45.51
593.2	45.79
593.537	45.71
593.875	45.8
594.212	45.92
594.55	45.93
594.887	45.68
595.224	46.04
595.561	45.99
595.899	45.74
596.236	45.81
596.573	45.99
596.91	46.03
597.247	46.38
597.584	45.78
597.921	45.85
598.258	46.3
598.594	45.85
598.931	45.91
599.268	45.88
599.604	46.01
599.941	46.23
600.277	46.05
600.614	46.28
600.95	46.45
601.287	46.12
601.623	46.11
601.959	46.67
602.296	46.9
602.632	46.93
602.968	46.72
603.304	46.91
603.64	46.63
603.976	46.49
604.312	46.44
604.648	46.73
604.984	46.88
605.319	46.91
605.655	46.59
605.991	46.87
606.326	46.67
606.662	46.43
606.998	46.79
607.333	46.55
607.668	46.67
608.004	47.09
608.339	47.04
608.674	47.3
609.01	47.41
609.345	47.22
609.68	47.07
610.015	47.11
610.35	47.56
610.685	47.05
611.02	47.14
611.355	47.37
611.689	47.61
612.024	47.33
612.359	47.41
612.694	47.65
613.028	47.45
613.363	47.39
613.697	47.74
614.032	47.58
614.366	47.9
614.7	48.16
615.035	47.77
615.369	48.44
615.703	48.13
616.037	48.24
616.371	48.06
616.705	48.48
617.039	48.06
617.373	48.96
617.707	48.86
618.041	48.26
618.375	48.24
618.709	48.41
619.042	48.03
619.376	48.37
619.71	48.66
620.043	49.14
620.377	48.51
620.71	48.53
621.043	49
621.377	48.87
621.71	48.9
622.043	49.32
622.376	48.77
622.709	49.17
623.043	48.78
623.376	49
623.709	48.96
624.041	49.12
624.374	49.05
624.707	49.16
625.04	49.14
625.373	49.41
625.705	49.1
626.038	49.55
626.37	48.83
626.703	49.41
627.035	49.53
627.368	50.02
627.7	49.28
628.032	49.31
628.365	49.28
628.697	49.5
629.029	48.89
629.361	49.53
629.693	49.4
630.025	49.68
630.357	49.12
630.689	49.39
631.021	49.77
631.353	49.42
631.684	49.39
632.016	49.36
632.348	49.54
632.679	50.1
633.011	50.36
633.342	49.93
633.674	50.28
634.005	49.9
634.336	49.86
634.668	49.95
634.999	49.92
635.33	50.41
635.661	49.83
635.992	50.15
636.323	50.39
636.654	49.95
636.985	50.08
637.316	50.06
637.647	50.66
637.977	50.21
638.308	50.13
638.639	50.18
638.969	50.23
639.3	50.05
639.63	50.61
639.961	50.68
640.291	50.35
640.622	51.04
640.952	50.84
641.282	50.48
641.612	50.35
641.943	50.99
642.273	50.74
642.603	51.35
642.933	51.26
643.263	50.75
643.592	51.44
643.922	51.49
644.252	50.7
644.582	51.23
644.911	50.93
645.241	50.83
645.571	51.36
645.9	51.06
646.23	50.84
646.559	51.14
646.888	51.58
647.218	51.42
647.547	50.92
647.876	51.48
648.205	50.82
648.534	51.34
648.863	51.3
649.192	51.9
649.521	51.02
649.85	51.4
650.179	51.67
650.508	51.52
650.837	51.63
651.165	51.57
651.494	51.24
651.822	51.49
652.151	52.18
652.479	52.01
652.808	51.56
653.136	51.96
653.465	51.41
653.793	51.6
654.121	52.15
654.449	52.07
654.777	52.27
655.105	51.38
655.433	52.51
655.761	52.02
656.089	52.34
656.417	52.77
656.745	52.32
657.073	52.2
657.4	51.83
657.728	52.18
658.056	52.26
658.383	52.07
658.711	52.34
659.038	52.26
659.365	52.82
659.693	52.24
660.02	52.09
660.347	52.14
660.674	52.08
661.001	52.11
661.329	52.53
661.656	52.22
661.982	52.86
662.309	52.52
662.636	52.78
662.963	52.44
663.29	52.49
663.616	52.88
663.943	52.24
664.27	53.09
664.596	52.58
664.923	52.78
665.249	52.91
665.576	53.27
665.902	52.8
666.228	52.59
666.554	53.44
666.881	53.6
667.207	53.05
667.533	53.22
667.859	53.61
668.185	53.05
668.511	53.87
668.837	53.05
669.162	54.11
669.488	53.21
669.814	53.59
670.139	53.48
