Data from 2019-2_chest_Reflection__0__407.txt Node

Date: Thu Dec 15 20:09:15 CST 2022
User: ToomeyLab
Spectrometer: FLMS14357
Trigger mode: 0
Integration Time (sec): 1.000000E-2
Scans to average: 100
Electric dark correction enabled: true
Nonlinearity correction enabled: false
Boxcar width: 0
XAxis mode: Wavelengths
Number of Pixels in Spectrum: 2048
>>>>>Begin Spectral Data<<<<<
189.047	-326.28
189.435	-326.28
189.823	-326.28
190.211	38.66
190.599	105.41
190.987	26.05
191.375	4628.57
191.763	97.93
192.151	85.77
192.538	59.02
192.926	221.86
193.314	-425.1
193.702	-72.33
194.089	-514.95
194.477	151.25
194.864	180.87
195.252	46.12
195.639	142.74
196.027	-55.1
196.414	117.83
196.801	421.24
197.189	45.64
197.576	648.7
197.963	223.44
198.351	35.27
198.738	-6.85
199.125	-49.95
199.512	40.73
199.899	-52.21
200.286	6.91
200.673	43.95
201.06	-32.52
201.447	30
201.833	26.12
202.22	-7.57
202.607	-16.44
202.994	43.84
203.38	37.43
203.767	95.74
204.154	-2.12
204.54	13.62
204.927	34.64
205.313	12.07
205.699	9.82
206.086	40.71
206.472	35.74
206.858	-1.29
207.245	-31.93
207.631	-21.49
208.017	30.31
208.403	5.9
208.789	14.57
209.175	-52.99
209.561	-208.55
209.947	-30.5
210.333	-20.85
210.719	57.32
211.105	5.25
211.491	21.95
211.876	-122.32
212.262	-21.97
212.648	41.42
213.034	7.03
213.419	22.69
213.805	12.06
214.19	-29.46
214.576	-25.22
214.961	17.43
215.346	-58.82
215.732	-11.12
216.117	-71.57
216.502	21.12
216.888	-3.08
217.273	-15.53
217.658	-12.62
218.043	-42.72
218.428	-32.77
218.813	35.37
219.198	-30.48
219.583	-1.2
219.968	-7.15
220.353	4.78
220.738	-2.57
221.122	-5.31
221.507	-22.31
221.892	-23.83
222.276	-30.25
222.661	-16.92
223.046	-6.13
223.43	15.29
223.815	12.99
224.199	-0.15
224.583	-3.44
224.968	-4.47
225.352	-1.51
225.736	9.86
226.121	-3.16
226.505	5.08
226.889	6.08
227.273	-0.85
227.657	7.51
228.041	0.98
228.425	-0.71
228.809	-0.5
229.193	5.2
229.577	4.01
229.961	3.44
230.344	5.3
230.728	5.73
231.112	5.41
231.495	2.6
231.879	5.23
232.263	4.7
232.646	5.21
233.03	6.59
233.413	6.33
233.797	3.42
234.18	2.77
234.563	5.9
234.946	3.78
235.33	4.95
235.713	5.53
236.096	6.29
236.479	4.83
236.862	4
237.245	3.84
237.628	4.45
238.011	4.3
238.394	3.26
238.777	5.48
239.16	7.47
239.543	6
239.925	4.44
240.308	3.61
240.691	3.3
241.073	3.33
241.456	4.23
241.838	4.84
242.221	5.79
242.603	5.48
242.986	4.87
243.368	5.52
243.75	5.06
244.133	5.15
244.515	4.8
244.897	4.87
245.279	4.78
245.661	5.07
246.043	5.33
246.425	4.62
246.807	4.98
247.189	4.78
247.571	4.32
247.953	4.47
248.335	4.86
248.717	4.88
249.098	4.88
249.48	4.75
249.862	5.12
250.243	5.26
250.625	4.94
251.006	5.36
251.388	5.26
251.769	4.2
252.151	5.44
252.532	4.29
252.913	4.88
253.295	4.67
253.676	4.68
254.057	4.48
254.438	4.63
254.819	4.49
255.2	5.02
255.581	5.97
255.962	4.4
256.343	4.68
256.724	5.83
257.105	3.84
257.486	4.4
257.867	3.76
258.247	4.24
258.628	4.91
259.009	4.42
259.389	3.93
259.77	4.32
260.15	5.2
260.531	4.52
260.911	4.47
261.292	4.64
261.672	4.55
262.052	4.4
262.432	3.81
262.813	4.45
263.193	4.85
263.573	4.57
263.953	4.1
264.333	4.36
264.713	4.92
265.093	4.22
265.473	5.58
265.853	5.39
266.233	4.01
266.612	4.34
266.992	3.93
267.372	5.01
267.752	4.47
268.131	3.89
268.511	3.95
268.89	4.88
269.27	3.89
269.649	3.94
270.029	4.08
270.408	3.71
270.787	4.35
271.167	4.38
271.546	5.24
271.925	4
272.304	4.63
272.683	4.04
273.062	4.22
273.441	4.05
273.82	3.86
274.199	4.4
274.578	4.34
274.957	4.05
275.336	4.34
275.715	4.83
276.093	3.75
276.472	4.29
276.851	4.16
277.229	4.53
277.608	4.05
277.986	4.62
278.365	4.76
278.743	4
279.122	4.1
279.5	4.2
279.878	3.55
280.257	3.55
280.635	3.9
281.013	4.02
281.391	3.97
281.769	4.47
282.147	3.93
282.525	3.39
282.903	3.83
283.281	4.22
283.659	4.37
284.037	4.23
284.415	3.87
284.792	4.12
285.17	3.69
285.548	3.64
285.925	4.15
286.303	4.77
286.68	3.91
287.058	4.03
287.435	4.16
287.813	4.14
288.19	3.54
288.567	3.98
288.945	4.07
289.322	4.68
289.699	4.23
290.076	4.04
290.453	4.05
290.83	4.54
291.207	4.22
291.584	4.37
291.961	4.37
292.338	4.21
292.715	4.05
293.092	4.77
293.469	3.76
293.845	4.47
294.222	4.51
294.599	3.65
294.975	3.76
295.352	4.62
295.728	3.89
296.105	4.63
296.481	4.41
296.858	4.11
297.234	4.17
297.61	4.21
297.986	4.77
298.363	4.39
298.739	4.41
299.115	4.46
299.491	4.62
299.867	4.2
300.243	4.35
300.619	4.15
300.995	4.4
301.371	4.51
301.746	4.46
302.122	3.79
302.498	4.39
302.874	4.24
303.249	4.38
303.625	4.13
304	4.26
304.376	4.64
304.751	4.5
305.127	4.4
305.502	4.66
305.878	5.16
306.253	4.25
306.628	4.56
307.003	4.35
307.378	4.06
307.754	4.28
308.129	4.24
308.504	4.67
308.879	4.63
309.254	4.63
309.629	4.83
310.003	4.17
310.378	4.99
310.753	4.5
311.128	4.23
311.502	4.32
311.877	4.07
312.252	4.55
312.626	4.89
313.001	4.41
313.375	4.49
313.75	4.88
314.124	4.5
314.498	4.52
314.873	4.04
315.247	4.59
315.621	4.44
315.995	4.36
316.369	4.26
316.743	4.22
317.117	4.52
317.491	4.65
317.865	4.12
318.239	4.32
318.613	4.19
318.987	4.59
319.361	4.7
319.734	4.81
320.108	4.07
320.482	4.76
320.855	4.64
321.229	4.67
321.602	4.82
321.976	4.19
322.349	5.58
322.723	4.3
323.096	5.06
323.469	4.96
323.843	4.27
324.216	4.44
324.589	4.76
324.962	4.3
325.335	4.23
325.708	4.43
326.081	4.45
326.454	4.54
326.827	4.22
327.2	4.25
327.573	5.12
327.945	4.19
328.318	4.37
328.691	5.07
329.063	4.26
329.436	4.02
329.809	4.87
330.181	5.4
330.553	4.98
330.926	4.65
331.298	4.43
331.671	4.6
332.043	4.2
332.415	5.06
332.787	4.36
333.159	3.96
333.532	4.42
333.904	5.22
334.276	4.58
334.648	4.75
335.02	4.32
335.391	4.86
335.763	4.64
336.135	4.77
336.507	4.61
336.879	4.27
337.25	4.84
337.622	4.78
337.993	4.62
338.365	4.6
338.736	4.8
339.108	4.79
339.479	4.65
339.851	4.88
340.222	4.93
340.593	4.41
340.964	4.72
341.336	4.65
341.707	4.21
342.078	4.97
342.449	4.78
342.82	4.8
343.191	4.69
343.562	4.92
343.933	4.25
344.303	4.94
344.674	4.86
345.045	4.64
345.416	4.75
345.786	4.8
346.157	4.9
346.527	4.74
346.898	4.33
347.268	4.71
347.639	4.49
348.009	4.83
348.38	4.29
348.75	4.8
349.12	4.48
349.49	5
349.861	5.15
350.231	4.63
350.601	4.66
350.971	4.33
351.341	4.66
351.711	4.94
352.081	4.57
352.45	4.57
352.82	4.43
353.19	4.48
353.56	4.51
353.929	4.4
354.299	4.95
354.669	4.61
355.038	4.99
355.408	4.72
355.777	4.45
356.147	4.86
356.516	4.76
356.885	4.57
357.254	4.32
357.624	4.27
357.993	4.65
358.362	4.93
358.731	4.94
359.1	4.77
359.469	5.01
359.838	4.65
360.207	4.8
360.576	4.58
360.945	4.99
361.314	4.76
361.682	4.43
362.051	4.73
362.42	4.96
362.788	4.72
363.157	4.75
363.525	4.82
363.894	4.58
364.262	4.64
364.631	5.01
364.999	4.75
365.367	4.73
365.735	4.63
366.104	4.68
366.472	4.93
366.84	5.03
367.208	5.21
367.576	4.9
367.944	4.88
368.312	4.67
368.68	5.05
369.048	4.87
369.416	4.58
369.783	4.56
370.151	5.14
370.519	4.91
370.886	5
371.254	5.36
371.621	4.92
371.989	5.04
372.356	4.82
372.724	4.53
373.091	4.73
373.458	4.82
373.826	5.22
374.193	5.06
374.56	4.9
374.927	4.7
375.294	5.26
375.661	5.35
376.028	5.15
376.395	4.88
376.762	4.97
377.129	4.78
377.496	5.01
377.863	4.9
378.229	4.97
378.596	4.99
378.963	4.89
379.329	5.15
379.696	4.69
380.062	4.78
380.429	4.72
380.795	5.19
381.161	4.67
381.528	4.7
381.894	4.86
382.26	4.79
382.626	4.93
382.993	5.25
383.359	4.91
383.725	4.91
384.091	5.06
384.457	4.8
384.823	4.77
385.188	4.98
385.554	5.15
385.92	4.9
386.286	4.9
386.651	4.91
387.017	5.22
387.383	4.95
387.748	5.27
388.114	5.33
388.479	5.01
388.845	5.18
389.21	5.18
389.575	5.05
389.94	5.08
390.306	5.16
390.671	5.07
391.036	5.02
391.401	4.98
391.766	5.3
392.131	5.29
392.496	5.15
392.861	5.05
393.226	4.96
393.591	5.17
393.956	5.12
394.32	5.2
394.685	5.11
395.05	5.31
395.414	5.03
395.779	5.28
396.143	4.82
396.508	5.02
396.872	4.98
397.236	5.14
397.601	5.33
397.965	4.93
398.329	5.21
398.694	4.9
399.058	5.05
399.422	5.25
399.786	5.01
400.15	5.24
400.514	5.22
400.878	5.15
401.242	5.12
401.605	5.22
401.969	5.15
402.333	5.15
402.697	5.38
403.06	5.11
403.424	5.28
403.787	5.15
404.151	5.23
404.514	5.19
404.878	5.16
405.241	5.22
405.604	5.23
405.968	5.19
406.331	5.1
406.694	5.18
407.057	5.08
407.42	5.27
407.783	5.22
408.146	5.22
408.509	5.26
408.872	5.44
409.235	5.23
409.598	5.14
409.961	5.55
410.323	5.25
410.686	5.39
411.049	5.57
411.411	5.52
411.774	5.26
412.136	5.33
412.499	5.3
412.861	5.01
413.223	5.31
413.586	5.28
413.948	5.36
414.31	5.38
414.672	5.11
415.035	5.32
415.397	5.28
415.759	4.88
416.121	5.58
416.483	5.32
416.845	5.31
417.206	5.37
417.568	5.2
417.93	5.42
418.292	5.2
418.653	5.15
419.015	5.31
419.377	5.2
419.738	5.41
420.1	5.24
420.461	5.15
420.822	5.3
421.184	5.33
421.545	5.39
421.906	5.22
422.267	5.17
422.629	5.21
422.99	5.13
423.351	5.22
423.712	5.25
424.073	5.34
424.434	5.53
424.795	5.16
425.155	5.17
425.516	5.17
425.877	5.23
426.238	5.27
426.598	5.39
426.959	5.28
427.32	5.29
427.68	5.34
428.041	5.42
428.401	5.28
428.761	5.37
429.122	5.4
429.482	5.37
429.842	5.43
430.202	5.53
430.563	5.4
430.923	5.49
431.283	5.54
431.643	5.73
432.003	5.58
432.363	5.53
432.722	5.41
433.082	5.39
433.442	5.62
433.802	5.45
434.161	5.51
434.521	5.54
434.881	5.49
435.24	5.45
435.6	5.5
435.959	5.57
436.319	5.58
436.678	5.53
437.037	5.49
437.396	5.44
437.756	5.44
438.115	5.59
438.474	5.47
438.833	5.56
439.192	5.55
439.551	5.51
439.91	5.57
440.269	5.43
440.628	5.57
440.987	5.59
441.345	5.65
441.704	5.49
442.063	5.45
442.421	5.59
442.78	5.63
443.138	5.55
443.497	5.52
443.855	5.61
444.214	5.44
444.572	5.76
444.93	5.68
445.288	5.57
445.647	5.47
446.005	5.66
446.363	5.63
446.721	5.64
447.079	5.48
447.437	5.6
447.795	5.68
448.153	5.61
448.51	5.59
448.868	5.58
449.226	5.67
449.584	5.59
449.941	5.59
450.299	5.65
450.656	5.7
451.014	5.56
451.371	5.76
451.729	5.8
452.086	5.81
452.443	5.66
452.801	5.73
453.158	5.94
453.515	5.75
453.872	5.83
454.229	5.62
454.586	5.66
454.943	5.86
455.3	5.84
455.657	5.77
456.014	5.83
456.371	5.8
456.727	5.89
457.084	5.95
457.441	5.97
457.797	5.82
458.154	5.84
458.51	5.74
458.867	5.78
459.223	5.64
459.58	5.81
459.936	5.85
460.292	5.82
460.648	5.66
461.005	5.75
461.361	5.75
461.717	5.74
462.073	5.87
462.429	5.85
462.785	5.82
463.141	5.78
463.496	5.83
463.852	6.02
464.208	5.95
464.564	5.87
464.919	5.94
465.275	5.78
465.631	6.1
465.986	6.04
466.342	5.84
466.697	5.95
467.052	6.13
467.408	6.12
467.763	6
468.118	5.87
468.473	6.18
468.829	6.03
469.184	6.03
469.539	6.03
469.894	6.09
470.249	6.08
470.603	6.07
470.958	6.02
471.313	6.12
471.668	6
472.023	6.14
472.377	5.84
472.732	6.35
473.086	6.13
473.441	6.02
473.795	6.19
474.15	6.13
474.504	6.08
474.859	5.86
475.213	6.16
475.567	5.94
475.921	6.18
476.275	6.09
476.63	6.19
476.984	5.91
477.338	6.26
477.692	6.15
478.045	6.25
478.399	6.22
478.753	6.07
479.107	6.17
479.461	6.22
479.814	6.26
480.168	6.25
480.521	6.36
480.875	6.11
481.228	6.35
481.582	6.19
481.935	6.35
482.289	6.25
482.642	6.29
482.995	6.24
483.348	6.07
483.701	6.13
484.055	6.13
484.408	6.15
484.761	5.99
485.114	5.9
485.466	5.91
485.819	5.88
486.172	5.94
486.525	5.99
486.878	6
487.23	6.08
487.583	6.11
487.936	6.14
488.288	6.13
488.641	6.09
488.993	6
489.345	6
489.698	6.06
490.05	6.03
490.402	6.06
490.754	6.16
491.107	6.15
491.459	6.25
491.811	6.24
492.163	6.26
492.515	6.2
492.866	6.11
493.218	6.21
493.57	6.14
493.922	6.2
494.274	6.34
494.625	6.33
494.977	6.46
495.328	6.39
495.68	6.31
496.031	6.45
496.383	6.37
496.734	6.54
497.086	6.53
497.437	6.6
497.788	6.64
498.139	6.45
498.49	6.59
498.842	6.57
499.193	6.43
499.544	6.53
499.894	6.48
500.245	6.64
500.596	6.64
500.947	6.59
501.298	6.57
501.648	6.58
501.999	6.75
502.35	6.63
502.7	6.77
503.051	6.69
503.401	6.74
503.752	6.63
504.102	6.55
504.452	6.55
504.803	6.64
505.153	6.87
505.503	6.66
505.853	6.88
506.203	6.82
506.553	6.65
506.903	6.93
507.253	6.85
507.603	6.98
507.953	6.91
508.303	6.91
508.652	6.88
509.002	6.88
509.352	6.84
509.701	6.76
510.051	6.86
510.4	6.83
510.75	6.82
511.099	6.74
511.449	6.97
511.798	6.85
512.147	6.94
512.496	6.91
512.846	7.02
513.195	7.01
513.544	7.1
513.893	6.97
514.242	6.98
514.591	6.91
514.939	6.97
515.288	6.98
515.637	7.1
515.986	7.07
516.334	7.13
516.683	7.18
517.032	7.01
517.38	7.07
517.729	7.11
518.077	7.17
518.426	7.11
518.774	7.02
519.122	7.12
519.47	7.09
519.819	7.08
520.167	7.15
520.515	7.06
520.863	7.04
521.211	7.01
521.559	7.15
521.907	7.22
522.255	7.14
522.602	7.18
522.95	7.4
523.298	7.23
523.645	7.39
523.993	7.27
524.341	7.37
524.688	7.33
525.036	7.31
525.383	7.28
525.73	7.38
526.078	7.4
526.425	7.33
526.772	7.38
527.119	7.42
527.466	7.38
527.814	7.39
528.161	7.37
528.508	7.43
528.854	7.26
529.201	7.33
529.548	7.29
529.895	7.21
530.242	7.17
530.588	7.24
530.935	7.26
531.282	7.28
531.628	7.35
531.975	7.38
532.321	7.45
532.667	7.55
533.014	7.54
533.36	7.56
533.706	7.59
534.052	7.61
534.399	7.55
534.745	7.45
535.091	7.52
535.437	7.59
535.783	7.6
536.129	7.6
536.474	7.76
536.82	7.74
537.166	7.66
537.512	7.79
537.857	7.77
538.203	7.79
538.549	7.82
538.894	7.8
539.239	7.94
539.585	7.99
539.93	8.04
540.276	7.95
540.621	8.15
540.966	8.02
541.311	8.06
541.656	7.88
542.001	7.96
542.346	7.94
542.691	7.85
543.036	7.84
543.381	7.91
543.726	8
544.071	7.95
544.415	7.95
544.76	8.1
545.105	7.99
545.449	8.2
545.794	8.15
546.138	8.14
546.483	8.35
546.827	8.25
547.171	8.34
547.516	8.39
547.86	8.4
548.204	8.37
548.548	8.3
548.892	8.38
549.236	8.47
549.58	8.46
549.924	8.56
550.268	8.56
550.612	8.58
550.956	8.66
551.3	8.76
551.643	8.85
551.987	8.84
552.33	8.98
552.674	8.75
553.017	8.78
553.361	8.78
553.704	8.95
554.048	8.82
554.391	8.84
554.734	8.76
555.077	8.94
555.42	8.79
555.764	8.81
556.107	9.04
556.45	8.99
556.793	9.18
557.135	9.15
557.478	9.14
557.821	9.16
558.164	9.19
558.507	9.1
558.849	9.23
559.192	9.18
559.534	9.26
559.877	9.17
560.219	9.29
560.562	9.26
560.904	9.3
561.246	9.36
561.589	9.64
561.931	9.51
562.273	9.25
562.615	9.4
562.957	9.27
563.299	9.4
563.641	9.47
563.983	9.42
564.325	9.64
564.667	9.49
565.008	9.51
565.35	9.45
565.692	9.58
566.033	9.56
566.375	9.74
566.716	9.47
567.058	9.67
567.399	9.52
567.741	9.68
568.082	9.69
568.423	9.64
568.764	9.87
569.105	9.83
569.447	9.74
569.788	9.75
570.129	9.87
570.47	9.9
570.811	9.97
571.151	9.87
571.492	9.94
571.833	10.12
572.174	10.09
572.514	10.15
572.855	10.04
573.195	9.91
573.536	10.17
573.876	10.05
574.217	10.06
574.557	10.08
574.898	10.05
575.238	10.48
575.578	10.44
575.918	10.31
576.258	10.5
576.598	10.32
576.938	10.42
577.278	10.33
577.618	10.34
577.958	10.56
578.298	10.52
578.638	10.43
578.977	10.69
579.317	10.67
579.657	10.51
579.996	10.93
580.336	10.61
580.675	10.63
581.014	10.98
581.354	10.75
581.693	10.98
582.032	11.03
582.372	11
582.711	11.19
583.05	10.82
583.389	11.17
583.728	11.15
584.067	11.04
584.406	11.36
584.745	11.04
585.083	11.04
585.422	11.24
585.761	11.11
586.1	11.46
586.438	11.2
586.777	11.35
587.115	11.37
587.454	11.05
587.792	11.45
588.13	11.39
588.469	11.41
588.807	11.49
589.145	11.63
589.483	11.36
589.821	11.55
590.159	11.56
590.497	11.5
590.835	11.72
591.173	11.61
591.511	11.85
591.849	12.06
592.187	11.45
592.524	11.58
592.862	11.71
593.2	11.85
593.537	12.05
593.875	11.74
594.212	11.91
594.55	12.02
594.887	11.99
595.224	12.02
595.561	12.21
595.899	12.19
596.236	12.05
596.573	12.06
596.91	12.03
597.247	12.3
597.584	12.12
597.921	12.33
598.258	12.48
598.594	12.22
598.931	12.08
599.268	11.98
599.604	12.39
599.941	12.32
600.277	12.16
600.614	12.28
600.95	12.68
601.287	12.21
601.623	12.29
601.959	12.79
602.296	12.82
602.632	12.66
602.968	12.85
603.304	12.85
603.64	12.61
603.976	12.69
604.312	12.79
604.648	12.82
604.984	12.9
605.319	13.08
605.655	12.99
605.991	12.82
606.326	12.81
606.662	12.67
606.998	13.08
607.333	12.77
607.668	13.08
608.004	12.91
608.339	13.22
608.674	13.26
609.01	13.71
609.345	13.03
609.68	13.09
610.015	13.31
610.35	13.45
610.685	13.15
611.02	13.45
611.355	13.43
611.689	13.3
612.024	13.44
612.359	13.47
612.694	13.51
613.028	13.58
613.363	13.58
613.697	13.83
614.032	13.68
614.366	13.58
614.7	13.85
615.035	13.82
615.369	14.14
615.703	14.14
616.037	13.89
616.371	13.89
616.705	13.79
617.039	13.9
617.373	14.29
617.707	14.14
618.041	13.94
618.375	13.82
618.709	14.22
619.042	14.09
619.376	13.93
619.71	14.11
620.043	14.46
620.377	14.38
620.71	14.3
621.043	14.49
621.377	14.33
621.71	14.73
622.043	14.56
622.376	14.52
622.709	14.96
623.043	14.3
623.376	14.66
623.709	14.63
624.041	14.41
624.374	14.81
624.707	14.54
625.04	14.77
625.373	15.15
625.705	15.12
626.038	15
626.37	14.8
626.703	14.91
627.035	14.97
627.368	15.01
627.7	14.84
628.032	15.09
628.365	15.22
628.697	15.24
629.029	15.01
629.361	15.38
629.693	15.13
630.025	15.02
630.357	14.97
630.689	15.17
631.021	15.34
631.353	15.18
631.684	15.18
632.016	14.84
632.348	15.17
632.679	15.94
633.011	15.72
633.342	15.35
633.674	15.41
634.005	15.54
634.336	15.7
634.668	15.57
634.999	15.63
635.33	15.87
635.661	15.72
635.992	15.66
636.323	15.66
636.654	15.72
636.985	15.76
637.316	15.95
637.647	16.01
637.977	15.48
638.308	16.11
638.639	16.01
638.969	16
639.3	16.06
639.63	15.83
639.961	16.16
640.291	16.06
640.622	16.42
640.952	16.06
641.282	15.64
641.612	16.34
641.943	16.07
642.273	16.09
642.603	16.75
642.933	16.88
643.263	16.43
643.592	16.34
643.922	16.45
644.252	16.26
644.582	16.54
644.911	16.9
645.241	16.37
645.571	16.88
645.9	16.89
646.23	17.3
646.559	16.29
646.888	16.8
647.218	17.16
647.547	16.71
647.876	16.97
648.205	16.7
648.534	16.91
648.863	16.92
649.192	17.02
649.521	17.46
649.85	17.33
650.179	17.18
650.508	17.07
650.837	17.23
651.165	17.07
651.494	17.05
651.822	16.84
652.151	17.12
652.479	17.28
652.808	17.76
653.136	16.69
653.465	17.12
653.793	17.61
654.121	17.3
654.449	17.24
654.777	17.05
655.105	17.25
655.433	17.98
655.761	17.83
656.089	17.55
656.417	17.89
656.745	17.8
657.073	17.26
657.4	17.53
657.728	17.25
658.056	17.5
658.383	17.49
658.711	17.91
659.038	17.92
659.365	18.3
659.693	17.76
660.02	17.73
660.347	17.93
660.674	17.82
661.001	17.81
661.329	18.29
661.656	17.81
661.982	17.94
662.309	17.72
662.636	17.64
662.963	18.34
663.29	18.02
663.616	18.11
663.943	18.35
664.27	18.19
664.596	18.49
664.923	17.99
665.249	18.56
665.576	18.56
665.902	17.88
666.228	19.11
666.554	19.12
666.881	18.51
667.207	18.52
667.533	18.67
667.859	18.69
668.185	18.14
668.511	19.28
668.837	18.97
669.162	18.73
669.488	18.03
669.814	18.58
670.139	18.12
670.465	18.84
670.791	18.54
671.116	19.1
671.442	18.19
671.767	19.03
672.092	18.48
672.418	19.21
672.743	18.78
673.068	18.76
673.393	19.11
673.718	17.77
674.043	18.54
674.368	18.58
674.693	19.35
675.018	20.06
675.343	19.82
675.667	18.98
675.992	19.22
676.317	18.73
676.641	19.71
676.966	19.79
677.29	18.46
677.615	19.16
677.939	19.88
678.264	19.67
678.588	19.26
678.912	19.71
679.236	19.39
679.56	18.96
679.885	19.52
680.209	19.63
680.532	20.3
680.856	19.66
681.18	19.6
681.504	19.64
681.828	19.22
682.152	19.55
682.475	19.12
682.799	19.62
683.122	19.93
683.446	19.34
683.769	20.14
684.093	20.09
