Data from 427_forehead_Reflection__1__150.txt Node

Date: Fri Dec 15 17:58:24 CST 2023
User: ToomeyLab
Spectrometer: FLMS14357
Trigger mode: 0
Integration Time (sec): 1.000000E-2
Scans to average: 100
Electric dark correction enabled: true
Nonlinearity correction enabled: false
Boxcar width: 0
XAxis mode: Wavelengths
Number of Pixels in Spectrum: 2048
>>>>>Begin Spectral Data<<<<<
189.047	-82.77
189.435	-82.77
189.823	-82.77
190.211	258.03
190.599	-98.76
190.987	71.51
191.375	-634.87
191.763	1734.24
192.151	559.72
192.538	119.91
192.926	146.06
193.314	88.27
193.702	-174.06
194.089	-847.69
194.477	-1840.44
194.864	227.94
195.252	120.26
195.639	106.29
196.027	101.1
196.414	524.02
196.801	-43.06
197.189	175.94
197.576	253.45
197.963	-178.76
198.351	16.66
198.738	10.32
199.125	15.59
199.512	19.05
199.899	16.08
200.286	35.2
200.673	51.31
201.06	8.19
201.447	53.68
201.833	7.74
202.22	55.96
202.607	45.93
202.994	18.55
203.38	14.6
203.767	75.89
204.154	80.1
204.54	65.71
204.927	-34.11
205.313	-29.39
205.699	20.78
206.086	34.54
206.472	14.06
206.858	131.34
207.245	-35.7
207.631	39.23
208.017	10.97
208.403	26.55
208.789	29.02
209.175	25.16
209.561	15.77
209.947	-0.06
210.333	-38.13
210.719	28.92
211.105	34.91
211.491	-12.96
211.876	10.22
212.262	37.36
212.648	22.15
213.034	38.8
213.419	-11.18
213.805	26.87
214.19	-43.05
214.576	-0.96
214.961	-0.3
215.346	-9.53
215.732	14.38
216.117	20.99
216.502	-22.24
216.888	15.9
217.273	39.5
217.658	-2.3
218.043	36.93
218.428	-5.14
218.813	16.02
219.198	13.78
219.583	7.09
219.968	20.54
220.353	0.95
220.738	0.87
221.122	3.8
221.507	-12.85
221.892	11.11
222.276	-12.02
222.661	16.92
223.046	25.34
223.43	12.76
223.815	10.92
224.199	-5.95
224.583	6.95
224.968	4.76
225.352	9.97
225.736	13.37
226.121	-12.11
226.505	10.6
226.889	6.69
227.273	3.34
227.657	13.75
228.041	6.05
228.425	7.56
228.809	6.7
229.193	4.74
229.577	4.94
229.961	4.93
230.344	5.62
230.728	5.5
231.112	4.71
231.495	5.06
231.879	3.76
232.263	6.49
232.646	4.57
233.03	3.94
233.413	3.28
233.797	5.02
234.18	3.67
234.563	2.95
234.946	3.01
235.33	6.4
235.713	3.88
236.096	4.87
236.479	7.01
236.862	4.05
237.245	6.24
237.628	3.83
238.011	3.6
238.394	6.86
238.777	3.7
239.16	1.68
239.543	5.42
239.925	5.68
240.308	6.52
240.691	4.61
241.073	5.33
241.456	4.74
241.838	3.9
242.221	3.44
242.603	5.04
242.986	5.37
243.368	4.54
243.75	4.83
244.133	4.59
244.515	5.19
244.897	5.02
245.279	5.08
245.661	5.16
246.043	3.99
246.425	3.79
246.807	6.34
247.189	5.49
247.571	4.23
247.953	4.98
248.335	4.7
248.717	4.87
249.098	4.58
249.48	4.75
249.862	4.7
250.243	4.94
250.625	4.57
251.006	4.87
251.388	4.13
251.769	4.92
252.151	5.82
252.532	4.98
252.913	4.8
253.295	5.16
253.676	4.58
254.057	5.04
254.438	4.44
254.819	5.14
255.2	4.64
255.581	4.51
255.962	4.77
256.343	4.6
256.724	3.75
257.105	4.42
257.486	4.55
257.867	5.98
258.247	5.14
258.628	4.92
259.009	4.37
259.389	4.69
259.77	4.32
260.15	3.78
260.531	4
260.911	5
261.292	4.57
261.672	4.88
262.052	4.43
262.432	4.73
262.813	4.67
263.193	4.71
263.573	4.86
263.953	4.41
264.333	4.69
264.713	4.58
265.093	3.35
265.473	4.58
265.853	4.52
266.233	5.06
266.612	2.47
266.992	3.91
267.372	4.68
267.752	3.57
268.131	4.63
268.511	5.63
268.89	5.08
269.27	4.29
269.649	3.83
270.029	3.83
270.408	5.42
270.787	5.2
271.167	5.46
271.546	5.29
271.925	3.93
272.304	4.45
272.683	5.16
273.062	4.3
273.441	4.83
273.82	3.85
274.199	4.64
274.578	4.48
274.957	4.42
275.336	4.63
275.715	3.85
276.093	4.19
276.472	4.99
276.851	4.19
277.229	4.47
277.608	3.61
277.986	4.82
278.365	4.92
278.743	3.94
279.122	4.28
279.5	5.08
279.878	5.06
280.257	4.23
280.635	3.53
281.013	4.65
281.391	4.61
281.769	4.26
282.147	4.77
282.525	4.68
282.903	3.82
283.281	4.41
283.659	4.76
284.037	4.68
284.415	4.76
284.792	4.43
285.17	4.17
285.548	4.1
285.925	4.31
286.303	4.95
286.68	4.1
287.058	4.57
287.435	4.57
287.813	4.12
288.19	4.29
288.567	4.48
288.945	4.74
289.322	4.6
289.699	4.34
290.076	4.46
290.453	4.54
290.83	4.08
291.207	4.03
291.584	4.74
291.961	4.8
292.338	4.58
292.715	5.08
293.092	4.43
293.469	4.39
293.845	5
294.222	4.58
294.599	4.35
294.975	4.76
295.352	4.49
295.728	4.56
296.105	4.47
296.481	5.23
296.858	4.4
297.234	4.41
297.61	4.46
297.986	5.16
298.363	4.91
298.739	4.79
299.115	4.66
299.491	4.66
299.867	4.76
300.243	5.42
300.619	4.99
300.995	5.08
301.371	5.2
301.746	4.61
302.122	5.63
302.498	5.27
302.874	5.29
303.249	5.6
303.625	5.63
304	5.68
304.376	5.52
304.751	4.79
305.127	6.27
305.502	4.79
305.878	4.95
306.253	5.79
306.628	5.91
307.003	5.52
307.378	5.63
307.754	5.09
308.129	5.48
308.504	5.56
308.879	5.54
309.254	6.63
309.629	6.4
310.003	5.57
310.378	6.45
310.753	6.21
311.128	6.28
311.502	6.14
311.877	6.2
312.252	6.27
312.626	5.82
313.001	6.21
313.375	6.59
313.75	5.83
314.124	6.74
314.498	6.57
314.873	6.33
315.247	6.4
315.621	6.66
315.995	5.97
316.369	6.78
316.743	6.83
317.117	7.09
317.491	7.08
317.865	7.33
318.239	6.99
318.613	7.59
318.987	7.48
319.361	6.64
319.734	7.52
320.108	7.58
320.482	7.6
320.855	7.67
321.229	7.93
321.602	7.93
321.976	7.62
322.349	8.25
322.723	7.81
323.096	8.28
323.469	7.48
323.843	7.81
324.216	8.94
324.589	7.78
324.962	8.62
325.335	8.19
325.708	7.65
326.081	8.04
326.454	8.3
326.827	8.29
327.2	8.25
327.573	8.5
327.945	8.06
328.318	8.12
328.691	7.76
329.063	8.97
329.436	7.94
329.809	8.61
330.181	8.24
330.553	8.36
330.926	8.67
331.298	9.15
331.671	8.99
332.043	9.42
332.415	9.26
332.787	9.67
333.159	9.84
333.532	9.71
333.904	9.59
334.276	9.17
334.648	9.63
335.02	8.96
335.391	8.68
335.763	9.26
336.135	9.78
336.507	9.91
336.879	10.12
337.25	9.07
337.622	9.8
337.993	10.19
338.365	10.44
338.736	9.83
339.108	9.58
339.479	9.67
339.851	9.86
340.222	10.2
340.593	10.25
340.964	10.53
341.336	10.57
341.707	10.38
342.078	10.69
342.449	10.47
342.82	10.73
343.191	10.73
343.562	10.24
343.933	10.44
344.303	10.67
344.674	10.51
345.045	11.01
345.416	11.23
345.786	10.84
346.157	10.93
346.527	10.73
346.898	10.49
347.268	11.54
347.639	11.2
348.009	10.92
348.38	11.19
348.75	11.45
349.12	11.5
349.49	11.79
349.861	11.41
350.231	11.89
350.601	11.75
350.971	12.09
351.341	11.61
351.711	11.97
352.081	11.89
352.45	12.18
352.82	11.49
353.19	11.94
353.56	12.18
353.929	12.58
354.299	11.8
354.669	12.05
355.038	12.81
355.408	12.78
355.777	12.66
356.147	12.13
356.516	12.68
356.885	12.98
357.254	12.36
357.624	13.06
357.993	13.09
358.362	12.65
358.731	12.79
359.1	13.07
359.469	12.9
359.838	12.91
360.207	12.67
360.576	13
360.945	13.56
361.314	13.52
361.682	12.79
362.051	13.2
362.42	13.45
362.788	13.46
363.157	13.74
363.525	13.48
363.894	13.32
364.262	13.49
364.631	13.3
364.999	13.79
365.367	13.25
365.735	14.59
366.104	13.96
366.472	13.84
366.84	13.61
367.208	14.15
367.576	14.39
367.944	14.73
368.312	14.03
368.68	13.71
369.048	14.5
369.416	14.46
369.783	14.24
370.151	14.68
370.519	15.05
370.886	15.06
371.254	14.98
371.621	14.95
371.989	15.11
372.356	14.73
372.724	15.11
373.091	14.8
373.458	14.92
373.826	15.43
374.193	15.55
374.56	15.34
374.927	15.48
375.294	16.07
375.661	15.5
376.028	15.46
376.395	15.39
376.762	15.82
377.129	16.09
377.496	16.28
377.863	15.86
378.229	15.49
378.596	16.19
378.963	16.03
379.329	15.97
379.696	16.11
380.062	16.28
380.429	15.95
380.795	16.28
381.161	16.47
381.528	17.04
381.894	16.55
382.26	16.53
382.626	16.95
382.993	16.47
383.359	17.12
383.725	16.79
384.091	16.83
384.457	16.97
384.823	17.04
385.188	17.24
385.554	17.59
385.92	17.28
386.286	17.22
386.651	17.11
387.017	17.45
387.383	17.85
387.748	17.5
388.114	17.8
388.479	17.71
388.845	18.22
389.21	18.14
389.575	18.03
389.94	17.97
390.306	18.18
390.671	18.05
391.036	17.91
391.401	17.76
391.766	18.09
392.131	18.19
392.496	17.94
392.861	18.44
393.226	18.58
393.591	18.52
393.956	18.54
394.32	18.82
394.685	18.44
395.05	18.74
395.414	18.76
395.779	18.76
396.143	18.86
396.508	19.01
396.872	18.95
397.236	19.37
397.601	18.93
397.965	18.95
398.329	19.15
398.694	19.64
399.058	19.47
399.422	19.3
399.786	19.93
400.15	19.65
400.514	19.7
400.878	19.79
401.242	19.79
401.605	19.99
401.969	20.14
402.333	19.97
402.697	19.96
403.06	20.14
403.424	20.23
403.787	20.24
404.151	20.25
404.514	20.39
404.878	20.32
405.241	20.55
405.604	20.43
405.968	20.71
406.331	20.59
406.694	20.67
407.057	20.73
407.42	20.73
407.783	20.54
408.146	20.81
408.509	20.8
408.872	20.78
409.235	21.12
409.598	21.5
409.961	21.14
410.323	21.21
410.686	21.3
411.049	21.12
411.411	21.14
411.774	21.08
412.136	21.56
412.499	21.53
412.861	21.42
413.223	21.5
413.586	21.66
413.948	21.98
414.31	21.9
414.672	21.63
415.035	21.88
415.397	22.15
415.759	21.85
416.121	22
416.483	21.96
416.845	21.95
417.206	22.05
417.568	22.25
417.93	22.33
418.292	22.04
418.653	22.28
419.015	22.44
419.377	22.28
419.738	22.35
420.1	22.54
420.461	22.48
420.822	22.47
421.184	22.52
421.545	22.5
421.906	22.43
422.267	22.53
422.629	22.6
422.99	22.55
423.351	22.63
423.712	22.62
424.073	22.67
424.434	22.69
424.795	22.93
425.155	23.07
425.516	22.97
425.877	22.97
426.238	23.12
426.598	23.05
426.959	23.25
427.32	23.16
427.68	23.34
428.041	23.35
428.401	23.59
428.761	23.83
429.122	24
429.482	23.76
429.842	24.14
430.202	24.24
430.563	24.3
430.923	24.24
431.283	24.39
431.643	24.12
432.003	24.17
432.363	24.27
432.722	24.27
433.082	24.65
433.442	24.42
433.802	24.71
434.161	24.5
434.521	24.88
434.881	24.78
435.24	24.6
435.6	24.79
435.959	24.84
436.319	24.74
436.678	24.84
437.037	24.96
437.396	25.22
437.756	25.18
438.115	25.28
438.474	25.39
438.833	25.3
439.192	25.33
439.551	25.55
439.91	25.63
440.269	25.51
440.628	25.63
440.987	25.63
441.345	25.6
441.704	25.64
442.063	25.39
442.421	25.52
442.78	25.6
443.138	25.61
443.497	25.78
443.855	25.76
444.214	25.62
444.572	26.09
444.93	26.28
445.288	26.44
445.647	26.14
446.005	26.22
446.363	26.43
446.721	26.38
447.079	26.38
447.437	26.23
447.795	26.4
448.153	26.23
448.51	26.44
448.868	26.32
449.226	26.3
449.584	26.5
449.941	26.56
450.299	26.79
450.656	26.8
451.014	26.87
451.371	27.04
451.729	27.07
452.086	27.43
452.443	27.28
452.801	27.38
453.158	27.34
453.515	27.66
453.872	27.69
454.229	27.38
454.586	27.66
454.943	27.67
455.3	27.67
455.657	27.59
456.014	27.84
456.371	27.9
456.727	27.79
457.084	27.92
457.441	28.01
457.797	28.17
458.154	28.29
458.51	28.26
458.867	28.34
459.223	28.38
459.58	28.45
459.936	28.54
460.292	28.38
460.648	28.62
461.005	28.38
461.361	28.43
461.717	28.33
462.073	28.22
462.429	28.13
462.785	28.25
463.141	28.41
463.496	28.54
463.852	28.79
464.208	28.91
464.564	28.97
464.919	29.26
465.275	29.34
465.631	29.37
465.986	29.22
466.342	29.39
466.697	29.26
467.052	29.27
467.408	29.38
467.763	29.65
468.118	29.37
468.473	29.45
468.829	29.58
469.184	29.4
469.539	29.72
469.894	29.61
470.249	29.96
470.603	29.81
470.958	29.9
471.313	29.83
471.668	30.12
472.023	30.1
472.377	30.12
472.732	30.07
473.086	30.13
473.441	30.04
473.795	30.4
474.15	30.3
474.504	30.41
474.859	30.59
475.213	30.54
475.567	30.41
475.921	30.58
476.275	30.82
476.63	30.79
476.984	31.04
477.338	30.89
477.692	31.09
478.045	31.07
478.399	30.9
478.753	30.99
479.107	30.81
479.461	30.9
479.814	31.13
480.168	31.05
480.521	31.04
480.875	31.12
481.228	31.12
481.582	31.3
481.935	31.38
482.289	31.31
482.642	31.32
482.995	31.13
483.348	31.2
483.701	31.27
484.055	31.29
484.408	31.09
484.761	30.91
485.114	30.84
485.466	30.46
485.819	30.37
486.172	30.33
486.525	30.24
486.878	30.15
487.23	30.4
487.583	30.67
487.936	31.09
488.288	31.16
488.641	31.13
488.993	31.06
489.345	30.93
489.698	30.93
490.05	30.83
490.402	30.87
490.754	30.99
491.107	31.05
491.459	31.3
491.811	31.69
492.163	31.82
492.515	31.97
492.866	31.94
493.218	31.73
493.57	31.53
493.922	31.47
494.274	31.58
494.625	31.56
494.977	31.73
495.328	32.21
495.68	32.48
496.031	32.61
496.383	32.74
496.734	33.15
497.086	33.2
497.437	33.06
497.788	33.15
498.139	32.87
498.49	33.02
498.842	32.89
499.193	33.02
499.544	32.93
499.894	33.19
500.245	33.12
500.596	33.07
500.947	33.2
501.298	33.36
501.648	33.33
501.999	33.64
502.35	33.61
502.7	33.35
503.051	33.63
503.401	33.99
503.752	33.95
504.102	33.88
504.452	33.85
504.803	34.01
505.153	34.13
505.503	33.99
505.853	34.06
506.203	34.14
506.553	33.99
506.903	33.93
507.253	34.12
507.603	34.16
507.953	34.48
508.303	34.38
508.652	34.47
509.002	34.56
509.352	34.5
509.701	34.33
510.051	34.26
510.4	34.3
510.75	34.23
511.099	34.22
511.449	34.2
511.798	34.23
512.147	34.53
512.496	34.39
512.846	34.58
513.195	34.63
513.544	34.42
513.893	34.74
514.242	34.71
514.591	34.91
514.939	34.69
515.288	34.66
515.637	35
515.986	34.86
516.334	34.99
516.683	34.83
517.032	35.31
517.38	35.2
517.729	35.08
518.077	35.32
518.426	35.23
518.774	35.34
519.122	35.3
519.47	35.27
519.819	35.05
520.167	35.17
520.515	34.86
520.863	34.9
521.211	34.96
521.559	35.13
521.907	34.95
522.255	35.1
522.602	35.3
522.95	35.49
523.298	35.57
523.645	35.59
523.993	35.77
524.341	35.75
524.688	35.77
525.036	35.8
525.383	35.89
525.73	36.03
526.078	36.07
526.425	35.87
526.772	35.87
527.119	35.84
527.466	35.51
527.814	35.48
528.161	35.6
528.508	35.63
528.854	35.62
529.201	35.58
529.548	35.45
529.895	35.5
530.242	35.18
530.588	35.03
530.935	35.03
531.282	34.97
531.628	34.84
531.975	34.99
532.321	35.34
532.667	35.44
533.014	35.82
533.36	35.84
533.706	36.08
534.052	36.09
534.399	36.06
534.745	36.09
535.091	35.82
535.437	35.81
535.783	35.8
536.129	35.75
536.474	35.83
536.82	36.01
537.166	36.29
537.512	36.63
537.857	36.78
538.203	36.51
538.549	36.57
538.894	36.52
539.239	36.55
539.585	36.56
539.93	36.61
540.276	36.91
540.621	37.12
540.966	37.09
541.311	37.2
541.656	37.32
542.001	37.46
542.346	37.31
542.691	37.14
543.036	36.67
543.381	36.54
543.726	36.44
544.071	36.37
544.415	36.47
544.76	36.58
545.105	36.76
545.449	36.96
545.794	36.92
546.138	37.44
546.483	37.32
546.827	37.46
547.171	37.67
547.516	37.71
547.86	37.45
548.204	37.61
548.548	37.45
548.892	37.58
549.236	37.65
549.58	37.78
549.924	37.7
550.268	37.77
550.612	38.17
550.956	38.18
551.3	38.32
551.643	38.39
551.987	38.4
552.33	38.52
552.674	38.55
553.017	38.47
553.361	38.37
553.704	38.52
554.048	38.72
554.391	38.49
554.734	38.65
555.077	38.71
555.42	38.42
555.764	38.32
556.107	38.64
556.45	38.78
556.793	38.58
557.135	38.8
557.478	39.09
557.821	38.77
558.164	39.13
558.507	39.37
558.849	39.04
559.192	39.29
559.534	39.23
559.877	39.15
560.219	39.39
560.562	39.23
560.904	39.37
561.246	39.37
561.589	39.41
561.931	39.71
562.273	39.49
562.615	39.68
562.957	39.46
563.299	39.58
563.641	39.16
563.983	39.63
564.325	39.42
564.667	39.6
565.008	39.61
565.35	39.74
565.692	39.6
566.033	39.71
566.375	39.76
566.716	39.86
567.058	39.88
567.399	39.64
567.741	39.56
568.082	39.69
568.423	39.74
568.764	39.54
569.105	39.61
569.447	39.73
569.788	39.71
570.129	39.81
570.47	39.85
570.811	39.67
571.151	40.1
571.492	40.13
571.833	40.32
572.174	39.93
572.514	40.17
572.855	40.1
573.195	39.95
573.536	40.21
573.876	40.13
574.217	39.77
574.557	40.01
574.898	39.97
575.238	40.05
575.578	40.02
575.918	40.07
576.258	40.32
576.598	40.28
576.938	40.45
577.278	40.34
577.618	40.47
577.958	40.39
578.298	40.29
578.638	40.51
578.977	40.53
579.317	40.73
579.657	40.79
579.996	40.87
580.336	41.1
580.675	41.01
581.014	41
581.354	40.95
581.693	41.1
582.032	41.32
582.372	40.84
582.711	41.1
583.05	41.27
583.389	41.39
583.728	41.12
584.067	41.26
584.406	41.02
584.745	41.19
585.083	41.42
585.422	41.61
585.761	41.43
586.1	41.72
586.438	41.63
586.777	41.96
587.115	41.58
587.454	41.8
587.792	41.71
588.13	41.5
588.469	41.62
588.807	41.47
589.145	41.59
589.483	41.76
589.821	41.41
590.159	42
590.497	41.67
590.835	41.79
591.173	41.41
591.511	42.19
591.849	41.57
592.187	41.81
592.524	41.92
592.862	41.77
593.2	41.82
593.537	41.85
593.875	41.89
594.212	42.01
594.55	42.16
594.887	42.07
595.224	41.88
595.561	42.16
595.899	42.23
596.236	42.24
596.573	42.3
596.91	41.83
597.247	41.9
597.584	42.32
597.921	42.29
598.258	42.22
598.594	42.16
598.931	42.14
599.268	42.06
599.604	42.03
599.941	42.2
600.277	42.05
600.614	42.18
600.95	42.43
601.287	42.44
601.623	42.35
601.959	42.86
602.296	42.89
602.632	42.78
602.968	42.57
603.304	42.38
603.64	42.61
603.976	42.49
604.312	43.04
604.648	42.64
604.984	42.97
605.319	42.82
605.655	42.4
605.991	42.8
606.326	42.96
606.662	42.65
606.998	42.18
607.333	42.82
607.668	42.44
608.004	42.58
608.339	42.88
608.674	43.06
609.01	42.89
609.345	43.24
609.68	43.08
610.015	43.12
610.35	43.14
610.685	43.21
611.02	43.16
611.355	43.44
611.689	43.17
612.024	43.04
612.359	43.01
612.694	42.94
613.028	42.63
613.363	43.33
613.697	43.08
614.032	43.26
614.366	43.39
614.7	43.43
615.035	43.47
615.369	44.05
615.703	43.61
616.037	43.48
616.371	43.67
616.705	43.69
617.039	43.87
617.373	43.42
617.707	43.61
618.041	43.62
618.375	43.42
618.709	43.54
619.042	43.77
619.376	43.74
619.71	44.03
620.043	43.96
620.377	43.3
620.71	43.38
621.043	43.73
621.377	44.11
621.71	43.95
622.043	44.03
622.376	44.08
622.709	43.63
623.043	44.47
623.376	44.28
623.709	43.96
624.041	44.24
624.374	43.84
624.707	44.17
625.04	44.65
625.373	44.19
625.705	44.48
626.038	44.41
626.37	44.52
626.703	44.04
627.035	44.58
627.368	44.6
627.7	44.32
628.032	44.53
628.365	44.44
628.697	44.64
629.029	44.65
629.361	44.62
629.693	44.22
630.025	44.58
630.357	44.68
630.689	44.79
631.021	44.51
631.353	44.58
631.684	44.46
632.016	44.52
632.348	44.76
632.679	44.17
633.011	44.78
633.342	45.27
633.674	44.49
634.005	45.13
634.336	44.78
634.668	45.39
634.999	44.49
635.33	44.93
635.661	44.51
635.992	45.33
636.323	44.69
636.654	45.02
636.985	45.04
637.316	44.81
637.647	44.68
637.977	44.97
638.308	45.76
638.639	44.71
638.969	45.45
639.3	45.51
639.63	45.1
639.961	45.27
640.291	46.12
640.622	45.34
640.952	44.88
641.282	45.52
641.612	45.69
641.943	45.31
642.273	45.42
642.603	45.43
642.933	45.48
643.263	45.66
643.592	45.15
643.922	45.91
644.252	45.61
644.582	45.5
644.911	45.81
645.241	45.82
645.571	45.38
645.9	45.83
646.23	45.39
646.559	46.01
646.888	45.6
647.218	46.24
647.547	45.53
647.876	46.12
648.205	46.46
648.534	45.68
648.863	45.53
649.192	46.12
649.521	46.4
649.85	45.87
650.179	46.18
650.508	46.46
650.837	45.7
651.165	45.94
651.494	45.75
651.822	46.2
652.151	45.85
652.479	46.14
652.808	45.94
653.136	45.86
653.465	45.08
653.793	45.91
654.121	46.19
654.449	46.66
654.777	46.15
655.105	46.45
655.433	46.06
655.761	46.2
656.089	46.38
656.417	46.19
656.745	45.97
657.073	45.87
657.4	46.82
657.728	46.13
658.056	45.76
658.383	46.05
658.711	46.77
659.038	46.7
659.365	47.19
659.693	46.12
660.02	45.87
660.347	46.68
660.674	46.99
661.001	46.6
661.329	46.12
661.656	46.88
661.982	46.32
662.309	46.8
662.636	46.63
662.963	46.86
663.29	46.69
663.616	46.27
663.943	46.67
664.27	46.71
664.596	47.47
664.923	46.71
665.249	47.25
665.576	47
665.902	46.85
666.228	47.36
666.554	47.2
666.881	46.24
667.207	46.98
667.533	47.03
667.859	47.18
668.185	47.48
668.511	46.66
668.837	47.24
669.162	47.67
669.488	47.38
669.814	47.21
670.139	47.46
