Data from 427_forehead_Reflection__4__153.txt Node

Date: Fri Dec 15 17:58:53 CST 2023
User: ToomeyLab
Spectrometer: FLMS14357
Trigger mode: 0
Integration Time (sec): 1.000000E-2
Scans to average: 100
Electric dark correction enabled: true
Nonlinearity correction enabled: false
Boxcar width: 0
XAxis mode: Wavelengths
Number of Pixels in Spectrum: 2048
>>>>>Begin Spectral Data<<<<<
189.047	50.81
189.435	50.81
189.823	50.81
190.211	203.82
190.599	4.46
190.987	50.14
191.375	65.66
191.763	-937.5
192.151	1124.54
192.538	136.77
192.926	-84.49
193.314	76.59
193.702	32.59
194.089	-1149.54
194.477	1727.21
194.864	171.38
195.252	101.77
195.639	121.75
196.027	49.4
196.414	100.72
196.801	-7.6
197.189	111.21
197.576	27.23
197.963	15.58
198.351	-7.73
198.738	18.78
199.125	132.54
199.512	6.56
199.899	-3.88
200.286	20.12
200.673	46.58
201.06	-15.38
201.447	40
201.833	39.73
202.22	55.64
202.607	44.91
202.994	4.85
203.38	-30.72
203.767	59.26
204.154	97.14
204.54	35.14
204.927	-40.69
205.313	57.81
205.699	24.75
206.086	47.08
206.472	61.71
206.858	41.73
207.245	-4.47
207.631	2.87
208.017	2.59
208.403	2.27
208.789	7.24
209.175	31.13
209.561	-22.02
209.947	18.91
210.333	11.75
210.719	20.48
211.105	10.02
211.491	28.17
211.876	45.3
212.262	57.5
212.648	17.99
213.034	70.11
213.419	-18.47
213.805	-17.79
214.19	-43.36
214.576	32.79
214.961	22.09
215.346	-35.11
215.732	32.92
216.117	23.08
216.502	-52.58
216.888	14.91
217.273	47.21
217.658	7.5
218.043	13.85
218.428	-30.93
218.813	-24.14
219.198	8.16
219.583	-33.07
219.968	16.96
220.353	19.88
220.738	55.57
221.122	30.08
221.507	10.7
221.892	-2.52
222.276	13.9
222.661	13.32
223.046	23.89
223.43	10.67
223.815	13.21
224.199	-6.19
224.583	13.64
224.968	8.25
225.352	17.49
225.736	-0.18
226.121	-15.67
226.505	7.39
226.889	9.59
227.273	-1.69
227.657	8.16
228.041	4.97
228.425	7.83
228.809	6.44
229.193	9.96
229.577	3.62
229.961	6.71
230.344	5.42
230.728	5.9
231.112	5.74
231.495	5.35
231.879	4.89
232.263	5.49
232.646	4.35
233.03	5.4
233.413	6.63
233.797	7.28
234.18	4.26
234.563	6.41
234.946	6.82
235.33	5.17
235.713	4.21
236.096	6.37
236.479	6.18
236.862	6.62
237.245	6.42
237.628	6.32
238.011	6.53
238.394	5.39
238.777	5.9
239.16	2.15
239.543	4.91
239.925	5.33
240.308	6.77
240.691	8.01
241.073	6.62
241.456	4.99
241.838	7.36
242.221	2.89
242.603	5.37
242.986	4.72
243.368	4.47
243.75	5.26
244.133	4.99
244.515	5.44
244.897	5.13
245.279	4.99
245.661	4.77
246.043	3.84
246.425	4.18
246.807	5.94
247.189	6.01
247.571	6.83
247.953	5.11
248.335	5.06
248.717	4.9
249.098	4.74
249.48	4.97
249.862	5.03
250.243	4.49
250.625	4.97
251.006	5.49
251.388	3.71
251.769	5.68
252.151	5.84
252.532	5.62
252.913	5.66
253.295	4.19
253.676	4.56
254.057	4.61
254.438	4.58
254.819	4.62
255.2	4.26
255.581	5.36
255.962	4
256.343	3.82
256.724	5.26
257.105	5.38
257.486	5.07
257.867	6.57
258.247	4.69
258.628	4.07
259.009	3.98
259.389	5.15
259.77	4.78
260.15	4.24
260.531	4.3
260.911	5.45
261.292	4.66
261.672	4.79
262.052	4.63
262.432	5.05
262.813	4.79
263.193	4.75
263.573	4.2
263.953	4.15
264.333	5.55
264.713	5.28
265.093	4.29
265.473	4.87
265.853	3.65
266.233	5.31
266.612	3.98
266.992	4.05
267.372	4.67
267.752	4.82
268.131	4.84
268.511	5.3
268.89	4.88
269.27	3.99
269.649	4.82
270.029	4.71
270.408	5.23
270.787	4.72
271.167	4.79
271.546	5.4
271.925	4.04
272.304	4.95
272.683	5.08
273.062	4.32
273.441	4.65
273.82	4.39
274.199	4.63
274.578	4.59
274.957	4.5
275.336	4.57
275.715	4.98
276.093	4.79
276.472	4.58
276.851	4.23
277.229	4.77
277.608	4.33
277.986	4.65
278.365	4.26
278.743	4.09
279.122	4.46
279.5	4.37
279.878	4.69
280.257	4.77
280.635	4.3
281.013	4.08
281.391	4.74
281.769	5.08
282.147	4.91
282.525	4.96
282.903	4.7
283.281	4.86
283.659	4.62
284.037	4.65
284.415	4.72
284.792	4.8
285.17	4.33
285.548	4.5
285.925	4.81
286.303	4.78
286.68	4.84
287.058	4.63
287.435	4.94
287.813	4.51
288.19	4.38
288.567	4.4
288.945	4.97
289.322	4.86
289.699	4.94
290.076	4.75
290.453	5.05
290.83	4.4
291.207	4.79
291.584	4.74
291.961	5.11
292.338	5
292.715	5.15
293.092	5.07
293.469	4.86
293.845	5.15
294.222	4.91
294.599	4.92
294.975	4.75
295.352	5.04
295.728	4.92
296.105	4.74
296.481	5.44
296.858	5.12
297.234	5.23
297.61	5.35
297.986	5.32
298.363	5.52
298.739	5.53
299.115	4.94
299.491	5.13
299.867	5.08
300.243	5.4
300.619	4.84
300.995	5.26
301.371	5.9
301.746	5.56
302.122	5.93
302.498	6.06
302.874	5.71
303.249	5.23
303.625	5.47
304	6.17
304.376	5.22
304.751	5.45
305.127	6.27
305.502	5.53
305.878	5.14
306.253	5.79
306.628	6.2
307.003	5.68
307.378	5.92
307.754	5.89
308.129	5.55
308.504	6.18
308.879	6.28
309.254	6.74
309.629	6.47
310.003	6.32
310.378	6.7
310.753	6.69
311.128	6.65
311.502	6.64
311.877	6.57
312.252	5.97
312.626	6.72
313.001	6.24
313.375	6.59
313.75	6.16
314.124	7.12
314.498	6.47
314.873	6.73
315.247	6.88
315.621	7.36
315.995	6.08
316.369	7.15
316.743	6.85
317.117	7.31
317.491	7.27
317.865	7.39
318.239	7.65
318.613	7.9
318.987	8.13
319.361	7.28
319.734	7.92
320.108	7.05
320.482	7.62
320.855	7.85
321.229	7.83
321.602	7.88
321.976	7.78
322.349	7.29
322.723	7.43
323.096	9.17
323.469	7.75
323.843	7.83
324.216	8.5
324.589	8
324.962	8.05
325.335	8.2
325.708	8.1
326.081	8.27
326.454	8.04
326.827	7.96
327.2	8.54
327.573	8.86
327.945	8.96
328.318	8.13
328.691	8.29
329.063	8.53
329.436	8.43
329.809	9.15
330.181	8.6
330.553	9.08
330.926	9.6
331.298	9.64
331.671	8.95
332.043	9.64
332.415	9.28
332.787	9.08
333.159	10.04
333.532	9.49
333.904	9.7
334.276	9.99
334.648	10.1
335.02	9.32
335.391	9.24
335.763	9.31
336.135	9.61
336.507	9.79
336.879	10.12
337.25	8.93
337.622	9.84
337.993	10.08
338.365	9.72
338.736	10.26
339.108	10.19
339.479	9.92
339.851	9.86
340.222	9.91
340.593	10.09
340.964	10.68
341.336	10.45
341.707	10.3
342.078	11.35
342.449	11.15
342.82	10.34
343.191	10.71
343.562	11.1
343.933	10.7
344.303	10.91
344.674	11.21
345.045	11
345.416	11.33
345.786	11.19
346.157	11.26
346.527	10.72
346.898	10.54
347.268	11.16
347.639	10.96
348.009	11.71
348.38	11.44
348.75	11.23
349.12	11.42
349.49	11.71
349.861	11.79
350.231	11.79
350.601	11.88
350.971	12.08
351.341	11.83
351.711	11.72
352.081	12.16
352.45	11.65
352.82	12.32
353.19	11.77
353.56	11.76
353.929	12.51
354.299	12.22
354.669	12.34
355.038	12.44
355.408	11.92
355.777	12.66
356.147	12.57
356.516	12.81
356.885	12.62
357.254	13.04
357.624	12.88
357.993	12.76
358.362	12.3
358.731	12.64
359.1	12.65
359.469	12.91
359.838	13.02
360.207	12.76
360.576	12.59
360.945	13.43
361.314	13.28
361.682	13.05
362.051	12.92
362.42	13.34
362.788	12.78
363.157	13.97
363.525	13.57
363.894	13.53
364.262	13.33
364.631	13.45
364.999	13.78
365.367	13.05
365.735	14.31
366.104	13.93
366.472	13.97
366.84	13.77
367.208	14.2
367.576	14.25
367.944	14.63
368.312	14.7
368.68	13.75
369.048	14.42
369.416	14.5
369.783	14.29
370.151	14.5
370.519	15.19
370.886	14.64
371.254	14.93
371.621	14.6
371.989	14.78
372.356	14.61
372.724	15.03
373.091	14.93
373.458	15.12
373.826	15.26
374.193	14.85
374.56	15.21
374.927	15.54
375.294	15.38
375.661	15.27
376.028	15.21
376.395	15.18
376.762	15.82
377.129	15.28
377.496	15.38
377.863	15.76
378.229	15.15
378.596	15.74
378.963	15.8
379.329	15.75
379.696	16.23
380.062	16.01
380.429	16.26
380.795	16.2
381.161	16.09
381.528	16.39
381.894	16.01
382.26	16.4
382.626	16.64
382.993	16.11
383.359	17.03
383.725	16.47
384.091	16.46
384.457	16.94
384.823	16.4
385.188	16.95
385.554	16.98
385.92	16.66
386.286	17.23
386.651	16.92
387.017	16.99
387.383	17.25
387.748	17.25
388.114	17.24
388.479	17.11
388.845	17.73
389.21	17.4
389.575	17.75
389.94	17.46
390.306	17.86
390.671	17.84
391.036	17.42
391.401	17.35
391.766	17.83
392.131	18.08
392.496	18
392.861	17.78
393.226	18.21
393.591	18.18
393.956	17.99
394.32	18.35
394.685	17.9
395.05	18.3
395.414	18.4
395.779	18.22
396.143	18.39
396.508	18.51
396.872	18.59
397.236	18.74
397.601	18.48
397.965	18.86
398.329	19.03
398.694	19.06
399.058	19.09
399.422	18.84
399.786	19.03
400.15	19.07
400.514	19.13
400.878	19.46
401.242	19.17
401.605	19.42
401.969	19.36
402.333	19.64
402.697	19.24
403.06	19.73
403.424	19.48
403.787	19.68
404.151	19.86
404.514	20
404.878	19.86
405.241	19.93
405.604	19.95
405.968	20.19
406.331	19.82
406.694	20.17
407.057	20.1
407.42	20.18
407.783	19.87
408.146	20.39
408.509	20.09
408.872	20.19
409.235	20.28
409.598	20.72
409.961	20.54
410.323	20.67
410.686	20.85
411.049	20.34
411.411	21
411.774	20.82
412.136	20.73
412.499	20.85
412.861	20.98
413.223	20.62
413.586	20.87
413.948	20.92
414.31	21.59
414.672	20.73
415.035	21.06
415.397	21.71
415.759	21.06
416.121	21.52
416.483	21.57
416.845	21.75
417.206	21.47
417.568	21.6
417.93	21.48
418.292	21.54
418.653	21.67
419.015	21.93
419.377	21.75
419.738	21.69
420.1	21.54
420.461	21.6
420.822	21.65
421.184	21.68
421.545	21.85
421.906	21.72
422.267	21.78
422.629	21.9
422.99	21.92
423.351	21.91
423.712	21.79
424.073	21.99
424.434	22.05
424.795	21.99
425.155	22.3
425.516	22.14
425.877	22.08
426.238	22.33
426.598	22.2
426.959	22.44
427.32	22.31
427.68	22.47
428.041	22.69
428.401	22.62
428.761	22.79
429.122	23.06
429.482	23.06
429.842	23.34
430.202	23.5
430.563	23.02
430.923	23.34
431.283	23.64
431.643	23.39
432.003	23.52
432.363	23.72
432.722	23.42
433.082	23.73
433.442	23.71
433.802	23.79
434.161	23.65
434.521	24.07
434.881	23.69
435.24	23.75
435.6	23.65
435.959	23.69
436.319	23.86
436.678	23.92
437.037	24.06
437.396	24.21
437.756	24.37
438.115	24.26
438.474	24.56
438.833	24.22
439.192	24.39
439.551	24.46
439.91	24.55
440.269	24.43
440.628	24.56
440.987	24.67
441.345	24.68
441.704	24.48
442.063	24.63
442.421	24.76
442.78	24.67
443.138	24.32
443.497	24.61
443.855	24.76
444.214	24.97
444.572	25.05
444.93	25.16
445.288	25.17
445.647	25.41
446.005	25.22
446.363	25.47
446.721	25.51
447.079	25.02
447.437	25.25
447.795	25.25
448.153	25.2
448.51	25.29
448.868	25.17
449.226	25.2
449.584	25.37
449.941	25.61
450.299	25.68
450.656	25.6
451.014	25.75
451.371	25.74
451.729	25.82
452.086	26.32
452.443	26.1
452.801	26.33
453.158	26.46
453.515	26.56
453.872	26.38
454.229	26.32
454.586	26.23
454.943	26.35
455.3	26.47
455.657	26.43
456.014	26.7
456.371	26.84
456.727	26.56
457.084	26.75
457.441	26.58
457.797	27.02
458.154	27.28
458.51	27.02
458.867	27.28
459.223	27.13
459.58	26.91
459.936	27.16
460.292	27.5
460.648	27.03
461.005	27.3
461.361	27.17
461.717	26.96
462.073	26.97
462.429	27.01
462.785	27.23
463.141	27.3
463.496	27.42
463.852	27.5
464.208	27.57
464.564	27.73
464.919	27.89
465.275	27.86
465.631	28.17
465.986	28.33
466.342	28.37
466.697	28.06
467.052	28.28
467.408	28.48
467.763	28.37
468.118	28.31
468.473	28.22
468.829	28.31
469.184	28.31
469.539	28.33
469.894	28.45
470.249	28.73
470.603	28.63
470.958	28.84
471.313	28.9
471.668	28.77
472.023	28.98
472.377	29
472.732	28.92
473.086	28.97
473.441	28.89
473.795	29.09
474.15	29.1
474.504	29.26
474.859	29.12
475.213	29.23
475.567	29.22
475.921	29.18
476.275	29.5
476.63	29.65
476.984	29.56
477.338	29.55
477.692	29.6
478.045	29.64
478.399	29.51
478.753	29.71
479.107	29.71
479.461	29.25
479.814	29.7
480.168	29.71
480.521	29.57
480.875	29.76
481.228	29.75
481.582	30.01
481.935	29.97
482.289	30
482.642	30.14
482.995	29.72
483.348	29.99
483.701	29.82
484.055	29.83
484.408	29.72
484.761	29.52
485.114	29.34
485.466	29.11
485.819	28.92
486.172	28.93
486.525	28.83
486.878	28.81
487.23	29.13
487.583	29.36
487.936	29.62
488.288	29.66
488.641	29.73
488.993	29.64
489.345	29.45
489.698	29.5
490.05	29.46
490.402	29.46
490.754	29.53
491.107	29.76
491.459	30.05
491.811	30.16
492.163	30.44
492.515	30.65
492.866	30.47
493.218	30.25
493.57	30.06
493.922	30.02
494.274	30.11
494.625	30.14
494.977	30.53
495.328	30.87
495.68	31.2
496.031	31.34
496.383	31.57
496.734	31.82
497.086	31.6
497.437	31.7
497.788	31.65
498.139	31.51
498.49	31.55
498.842	31.55
499.193	31.59
499.544	31.5
499.894	31.66
500.245	31.65
500.596	31.71
500.947	31.78
501.298	31.77
501.648	31.98
501.999	32.3
502.35	32.11
502.7	31.95
503.051	32.18
503.401	32.43
503.752	32.5
504.102	32.38
504.452	32.29
504.803	32.52
505.153	32.66
505.503	32.41
505.853	32.53
506.203	32.69
506.553	32.59
506.903	32.46
507.253	32.35
507.603	32.69
507.953	32.86
508.303	32.92
508.652	32.78
509.002	32.76
509.352	33.06
509.701	32.64
510.051	32.75
510.4	32.65
510.75	32.84
511.099	32.69
511.449	32.84
511.798	32.74
512.147	32.94
512.496	32.85
512.846	32.99
513.195	33.12
513.544	33.1
513.893	33.26
514.242	33.14
514.591	33.12
514.939	33.2
515.288	33.16
515.637	33.4
515.986	33.44
516.334	33.79
516.683	33.73
517.032	33.71
517.38	33.8
517.729	33.69
518.077	33.58
518.426	34.03
518.774	33.77
519.122	33.81
519.47	33.83
519.819	33.53
520.167	33.62
520.515	33.28
520.863	33.4
521.211	33.47
521.559	33.55
521.907	33.6
522.255	33.59
522.602	33.77
522.95	33.9
523.298	33.97
523.645	34.35
523.993	34.17
524.341	34.48
524.688	34.13
525.036	34.37
525.383	34.42
525.73	34.67
526.078	34.5
526.425	34.27
526.772	34.43
527.119	34.31
527.466	33.96
527.814	34.05
528.161	34.08
528.508	34.02
528.854	34.07
529.201	34.14
529.548	34.11
529.895	33.9
530.242	33.61
530.588	33.48
530.935	33.52
531.282	33.32
531.628	33.25
531.975	33.51
532.321	33.94
532.667	34.09
533.014	34.27
533.36	34.38
533.706	34.7
534.052	34.64
534.399	34.69
534.745	34.54
535.091	34.19
535.437	34.3
535.783	34.33
536.129	34.09
536.474	34.38
536.82	34.66
537.166	34.94
537.512	34.99
537.857	35.13
538.203	35.14
538.549	35.03
538.894	34.99
539.239	35.07
539.585	34.98
539.93	35.15
540.276	35.56
540.621	35.64
540.966	35.64
541.311	35.73
541.656	35.67
542.001	35.76
542.346	35.75
542.691	35.48
543.036	34.94
543.381	34.9
543.726	34.88
544.071	34.82
544.415	34.88
544.76	35.04
545.105	35.13
545.449	35.38
545.794	35.53
546.138	35.77
546.483	35.83
546.827	36.02
547.171	36.19
547.516	36.28
547.86	36
548.204	36.14
548.548	36.15
548.892	36.12
549.236	36.18
549.58	36.03
549.924	36.42
550.268	36.45
550.612	36.72
550.956	36.83
551.3	36.66
551.643	36.96
551.987	37.08
552.33	37.02
552.674	36.9
553.017	37.17
553.361	37.22
553.704	37.18
554.048	37.17
554.391	37.25
554.734	37.06
555.077	37.12
555.42	36.76
555.764	36.93
556.107	37.13
556.45	37.31
556.793	37.31
557.135	37.39
557.478	37.81
557.821	37.5
558.164	37.63
558.507	37.81
558.849	37.73
559.192	37.81
559.534	37.96
559.877	37.96
560.219	38.53
560.562	38.08
560.904	37.82
561.246	38.04
561.589	38
561.931	37.88
562.273	38.1
562.615	38.17
562.957	38.18
563.299	37.79
563.641	38.27
563.983	38.1
564.325	38.2
564.667	38
565.008	38.22
565.35	38.34
565.692	38.34
566.033	38.65
566.375	38.44
566.716	38.69
567.058	38.17
567.399	38.34
567.741	38.48
568.082	38.19
568.423	38.14
568.764	38.04
569.105	38.33
569.447	38.22
569.788	38.4
570.129	38.6
570.47	38.61
570.811	38.53
571.151	38.75
571.492	38.58
571.833	38.53
572.174	38.63
572.514	38.92
572.855	38.81
573.195	38.87
573.536	38.75
573.876	38.6
574.217	38.52
574.557	38.66
574.898	38.73
575.238	38.61
575.578	38.7
575.918	38.77
576.258	38.91
576.598	39.02
576.938	38.93
577.278	38.77
577.618	38.88
577.958	38.74
578.298	38.94
578.638	39.22
578.977	39.01
579.317	39.17
579.657	39.31
579.996	39.29
580.336	39.48
580.675	39.38
581.014	39.52
581.354	39.42
581.693	39.63
582.032	40
582.372	39.58
582.711	39.69
583.05	39.62
583.389	39.82
583.728	39.85
584.067	40.34
584.406	39.66
584.745	39.92
585.083	39.78
585.422	40.06
585.761	39.87
586.1	40.13
586.438	40.04
586.777	40.01
587.115	40.43
587.454	40.27
587.792	39.88
588.13	40.1
588.469	40.18
588.807	40.14
589.145	40.24
589.483	40.22
589.821	40.03
590.159	40.16
590.497	40.27
590.835	40.4
591.173	40.35
591.511	40.46
591.849	40.33
592.187	40.34
592.524	40.49
592.862	40.33
593.2	40.53
593.537	40.49
593.875	40.5
594.212	40.47
594.55	40.57
594.887	40.79
595.224	40.14
595.561	40.66
595.899	40.88
596.236	40.84
596.573	40.76
596.91	40.53
597.247	40.37
597.584	40.82
597.921	40.98
598.258	40.87
598.594	41.14
598.931	40.78
599.268	40.63
599.604	40.68
599.941	40.39
600.277	40.89
600.614	40.93
600.95	40.64
601.287	41.03
601.623	41.37
601.959	40.91
602.296	41.23
602.632	41.12
602.968	41.27
603.304	41.63
603.64	41.07
603.976	41.4
604.312	41.53
604.648	41.49
604.984	42
605.319	41.16
605.655	41.03
605.991	41.4
606.326	41.15
606.662	41.09
606.998	40.86
607.333	41.36
607.668	41.08
608.004	41.15
608.339	41.61
608.674	41.5
609.01	41.53
609.345	41.82
609.68	42.01
610.015	41.78
610.35	41.82
610.685	41.58
611.02	41.64
611.355	41.7
611.689	41.79
612.024	41.52
612.359	41.46
612.694	41.47
613.028	41.54
613.363	41.69
613.697	41.59
614.032	41.95
614.366	41.76
614.7	41.81
615.035	42.15
615.369	42.14
615.703	42.35
616.037	42.23
616.371	42.16
616.705	42.12
617.039	42.17
617.373	42.09
617.707	42.01
618.041	42.78
618.375	42.42
618.709	42.21
619.042	41.96
619.376	42.81
619.71	42.41
620.043	42.47
620.377	42.44
620.71	42.4
621.043	42.21
621.377	42.59
621.71	42.61
622.043	42.49
622.376	42.41
622.709	42.28
623.043	42.85
623.376	43.17
623.709	43.09
624.041	42.78
624.374	42.64
624.707	42.59
625.04	42.76
625.373	42.84
625.705	43.25
626.038	42.78
626.37	42.79
626.703	42.91
627.035	43.09
627.368	43.21
627.7	42.75
628.032	43.16
628.365	43.39
628.697	43
629.029	42.83
629.361	43.09
629.693	42.91
630.025	43.23
630.357	43.41
630.689	43.44
631.021	43.15
631.353	43.35
631.684	43.13
632.016	42.78
632.348	43.71
632.679	42.97
633.011	43.37
633.342	43.7
633.674	43.28
634.005	43.83
634.336	43.17
634.668	44.07
634.999	43.42
635.33	44.05
635.661	43.76
635.992	43.95
636.323	43.18
636.654	43.67
636.985	43.66
637.316	43.69
637.647	43.73
637.977	43.57
638.308	44.18
638.639	43.58
638.969	43.57
639.3	43.93
639.63	43.7
639.961	43.85
640.291	43.99
640.622	44.18
640.952	43.81
641.282	44.28
641.612	44.13
641.943	44.08
642.273	44.05
642.603	44.43
642.933	44.18
643.263	44.28
643.592	44.31
643.922	44.19
644.252	44.53
644.582	44.03
644.911	43.85
645.241	43.88
645.571	44.01
645.9	44.09
646.23	44.77
646.559	44.81
646.888	44.28
647.218	44.41
647.547	44.56
647.876	44.01
648.205	44.49
648.534	44.14
648.863	43.82
649.192	44.53
649.521	44.72
649.85	44.74
650.179	44.45
650.508	44.81
650.837	44.52
651.165	43.84
651.494	44.73
651.822	44.24
652.151	44.67
652.479	44.94
652.808	44.45
653.136	45.11
653.465	44.3
653.793	44.14
654.121	44.61
654.449	44.65
654.777	45.12
655.105	45.73
655.433	44.56
655.761	44.97
656.089	44.57
656.417	45.12
656.745	45.04
657.073	44.68
657.4	45.41
657.728	44.64
658.056	44.64
658.383	44.71
658.711	45.51
659.038	44.94
659.365	45.85
659.693	45.17
660.02	45.29
660.347	45.3
660.674	44.87
661.001	45.11
661.329	44.6
661.656	45.67
661.982	45.36
662.309	45.24
662.636	44.96
662.963	45.98
663.29	45.52
663.616	45.66
663.943	44.29
664.27	45.11
664.596	45.41
664.923	45.73
665.249	45.19
665.576	45.1
665.902	45.71
666.228	45.51
666.554	45.84
666.881	46.12
667.207	45.57
667.533	46.01
667.859	45.75
668.185	45.54
668.511	45.08
668.837	45.78
669.162	45.66
669.488	45.79
669.814	45.85
670.139	46.21
670.465	46.34
