Data from 427_chest_Reflection__1__140.txt Node

Date: Fri Dec 15 17:55:42 CST 2023
User: ToomeyLab
Spectrometer: FLMS14357
Trigger mode: 0
Integration Time (sec): 1.000000E-2
Scans to average: 100
Electric dark correction enabled: true
Nonlinearity correction enabled: false
Boxcar width: 0
XAxis mode: Wavelengths
Number of Pixels in Spectrum: 2048
>>>>>Begin Spectral Data<<<<<
189.047	108.93
189.435	108.93
189.823	108.93
190.211	811.71
190.599	47.44
190.987	75.41
191.375	-209.61
191.763	-100.54
192.151	-1129.17
192.538	160.45
192.926	83.6
193.314	132.33
193.702	-448.05
194.089	-1810.65
194.477	1394.85
194.864	-24.52
195.252	136.8
195.639	70.51
196.027	5.35
196.414	442.34
196.801	227.56
197.189	216.76
197.576	461.01
197.963	-111.76
198.351	-77.4
198.738	-14.24
199.125	194.7
199.512	-25.93
199.899	38
200.286	-29.22
200.673	3.86
201.06	13.03
201.447	-15.24
201.833	-16.12
202.22	26.56
202.607	25.83
202.994	-42.48
203.38	32.44
203.767	38.71
204.154	5.93
204.54	45.31
204.927	-42.46
205.313	5.82
205.699	40.42
206.086	39.19
206.472	7.61
206.858	-25.07
207.245	-99.18
207.631	18.25
208.017	10.1
208.403	-26.75
208.789	24.46
209.175	-5.5
209.561	-13.49
209.947	13.22
210.333	-7.57
210.719	11.39
211.105	-5.67
211.491	-21.16
211.876	11.24
212.262	-2.25
212.648	-5.98
213.034	19.37
213.419	-11.44
213.805	0.08
214.19	-45.56
214.576	-38.52
214.961	-22.17
215.346	-88.81
215.732	-35.81
216.117	15.55
216.502	-96.41
216.888	5.44
217.273	27.05
217.658	-39.8
218.043	5.53
218.428	-38.18
218.813	-49.54
219.198	-35.36
219.583	9.5
219.968	18.84
220.353	-14.39
220.738	7.63
221.122	-18.13
221.507	3.08
221.892	-42.02
222.276	-33.59
222.661	-1.67
223.046	9
223.43	7.4
223.815	2.98
224.199	-20.88
224.583	-0.73
224.968	4.92
225.352	11.28
225.736	-11.27
226.121	5.34
226.505	4.43
226.889	12.23
227.273	1.71
227.657	5.5
228.041	6.95
228.425	-0.12
228.809	2.21
229.193	3.07
229.577	4.66
229.961	4.56
230.344	3.03
230.728	3.26
231.112	4
231.495	2.82
231.879	2.38
232.263	3.99
232.646	4.04
233.03	2.56
233.413	3.05
233.797	3.64
234.18	2.96
234.563	4.05
234.946	2.19
235.33	5.42
235.713	6.02
236.096	3.41
236.479	4.74
236.862	3.95
237.245	4.88
237.628	0.78
238.011	4.84
238.394	5.48
238.777	1.65
239.16	0.11
239.543	1.29
239.925	5.59
240.308	2.84
240.691	3.69
241.073	3.85
241.456	1.88
241.838	2.06
242.221	2.1
242.603	4.04
242.986	4.08
243.368	3.6
243.75	3.57
244.133	3.4
244.515	4.12
244.897	3.83
245.279	3.79
245.661	2.79
246.043	2.64
246.425	1.59
246.807	4.35
247.189	4.37
247.571	4.01
247.953	4.08
248.335	3.5
248.717	3.82
249.098	3.83
249.48	3.53
249.862	3.19
250.243	3.56
250.625	3.55
251.006	3.81
251.388	2.43
251.769	5.03
252.151	4.22
252.532	3.13
252.913	3.99
253.295	2.71
253.676	4.02
254.057	3.71
254.438	4.05
254.819	3.65
255.2	2.48
255.581	3.2
255.962	2.86
256.343	4.16
256.724	2.47
257.105	3.24
257.486	2.96
257.867	4.82
258.247	4.85
258.628	2.94
259.009	3.94
259.389	3.18
259.77	2.54
260.15	3.28
260.531	2.77
260.911	3.84
261.292	3.29
261.672	3.67
262.052	3.28
262.432	3.76
262.813	3.45
263.193	3.22
263.573	3.07
263.953	2.99
264.333	3.76
264.713	3.41
265.093	2.73
265.473	3.62
265.853	2.1
266.233	3.23
266.612	1.27
266.992	1.18
267.372	3.18
267.752	3.15
268.131	2.99
268.511	3.98
268.89	3.75
269.27	2.94
269.649	2.41
270.029	2.81
270.408	4.31
270.787	3.44
271.167	3.84
271.546	3.57
271.925	2.42
272.304	3.42
272.683	4.04
273.062	3.37
273.441	3.31
273.82	2.11
274.199	3.3
274.578	3.26
274.957	3.31
275.336	3.67
275.715	2.74
276.093	2.84
276.472	3.66
276.851	2.6
277.229	2.72
277.608	2.71
277.986	3.13
278.365	3.39
278.743	1.99
279.122	2.9
279.5	3.74
279.878	2.76
280.257	2.69
280.635	3
281.013	3.07
281.391	3.93
281.769	2.89
282.147	3.69
282.525	3.93
282.903	3.05
283.281	3.28
283.659	3.88
284.037	3.48
284.415	3.18
284.792	3.82
285.17	2.35
285.548	2.66
285.925	3.43
286.303	3.76
286.68	3.1
287.058	3.07
287.435	3.14
287.813	3.24
288.19	3.15
288.567	3.43
288.945	3.62
289.322	3.5
289.699	2.87
290.076	3.07
290.453	3.46
290.83	2.93
291.207	2.96
291.584	3.43
291.961	3.74
292.338	3.2
292.715	3.73
293.092	2.94
293.469	3.35
293.845	3.47
294.222	2.46
294.599	3.58
294.975	2.92
295.352	3.37
295.728	3.12
296.105	3
296.481	3.5
296.858	3.21
297.234	2.77
297.61	3.25
297.986	3.71
298.363	3.75
298.739	3.67
299.115	3.5
299.491	3.16
299.867	3.35
300.243	3.35
300.619	3.05
300.995	3.08
301.371	3.72
301.746	3.68
302.122	4.07
302.498	3.74
302.874	2.92
303.249	3.58
303.625	3.54
304	4.13
304.376	3.85
304.751	3.53
305.127	4.08
305.502	3.21
305.878	3.04
306.253	3.4
306.628	3.81
307.003	3.46
307.378	3.55
307.754	3.66
308.129	2.96
308.504	3.46
308.879	3.27
309.254	4.7
309.629	3.65
310.003	3.62
310.378	3.88
310.753	3.62
311.128	3.81
311.502	3.79
311.877	4.11
312.252	3.45
312.626	3.78
313.001	3.29
313.375	4.2
313.75	3.27
314.124	3.65
314.498	3.75
314.873	4.02
315.247	3.79
315.621	3.55
315.995	3.49
316.369	3.45
316.743	3.31
317.117	4.09
317.491	3.38
317.865	4.04
318.239	3.09
318.613	3.85
318.987	3.77
319.361	3.41
319.734	4.32
320.108	4.32
320.482	3.16
320.855	4.1
321.229	3.98
321.602	3.23
321.976	4.22
322.349	3.67
322.723	3.22
323.096	4.48
323.469	3.01
323.843	3.95
324.216	4.21
324.589	3.43
324.962	4.04
325.335	3.68
325.708	3.1
326.081	3.25
326.454	3.98
326.827	3.53
327.2	3.65
327.573	4.19
327.945	4
328.318	3.75
328.691	3.03
329.063	3.36
329.436	3.94
329.809	4.5
330.181	3.92
330.553	3.76
330.926	3.52
331.298	3.68
331.671	2.75
332.043	4.1
332.415	4.12
332.787	4.43
333.159	4.88
333.532	4.23
333.904	3.89
334.276	3.68
334.648	3.83
335.02	3.89
335.391	3.12
335.763	3.65
336.135	3.99
336.507	4.52
336.879	4.03
337.25	4.47
337.622	3.66
337.993	3.77
338.365	3.77
338.736	3.96
339.108	3.65
339.479	3.8
339.851	3.76
340.222	3.29
340.593	3.3
340.964	3.45
341.336	4.61
341.707	3.28
342.078	4.43
342.449	4.33
342.82	4.02
343.191	3.89
343.562	4.05
343.933	4.07
344.303	4.07
344.674	3.83
345.045	3.99
345.416	3.87
345.786	3.73
346.157	4.04
346.527	3.66
346.898	3.62
347.268	4.03
347.639	4.08
348.009	3.99
348.38	3.73
348.75	3.82
349.12	3.93
349.49	4.3
349.861	4.41
350.231	3.81
350.601	4.04
350.971	3.86
351.341	4.21
351.711	4.27
352.081	3.89
352.45	3.7
352.82	4.32
353.19	4.22
353.56	3.71
353.929	4.02
354.299	4
354.669	3.51
355.038	4.76
355.408	4.19
355.777	4.03
356.147	3.85
356.516	4.03
356.885	4.27
357.254	4.2
357.624	4.24
357.993	4.18
358.362	3.75
358.731	3.99
359.1	4.28
359.469	4.41
359.838	4.1
360.207	3.82
360.576	4.14
360.945	4.18
361.314	4.69
361.682	3.96
362.051	3.7
362.42	4.15
362.788	3.66
363.157	4.25
363.525	4.49
363.894	4.06
364.262	3.92
364.631	4.01
364.999	4.36
365.367	3.82
365.735	4.54
366.104	4.36
366.472	4.24
366.84	3.62
367.208	3.94
367.576	4.77
367.944	4.35
368.312	4.03
368.68	4.06
369.048	4.54
369.416	4.16
369.783	4.11
370.151	4.22
370.519	4.34
370.886	4.4
371.254	4.1
371.621	4.04
371.989	4.28
372.356	3.7
372.724	4.37
373.091	3.93
373.458	4.17
373.826	4.37
374.193	3.83
374.56	4.19
374.927	4.07
375.294	4.32
375.661	3.88
376.028	3.75
376.395	3.97
376.762	3.97
377.129	3.92
377.496	4.02
377.863	4.31
378.229	3.75
378.596	4.35
378.963	4.31
379.329	4.14
379.696	4.6
380.062	4.41
380.429	4.31
380.795	4.32
381.161	4.37
381.528	4.56
381.894	4.49
382.26	4.13
382.626	4.06
382.993	3.77
383.359	4.58
383.725	4.25
384.091	4.22
384.457	4.31
384.823	4.51
385.188	4.28
385.554	4.19
385.92	4.39
386.286	4.52
386.651	4.25
387.017	4.57
387.383	4.28
387.748	4.38
388.114	4.5
388.479	4.15
388.845	4.78
389.21	4.46
389.575	4.26
389.94	4.59
390.306	4.58
390.671	4.62
391.036	4.36
391.401	4.44
391.766	4.37
392.131	4.48
392.496	4.63
392.861	4.41
393.226	4.53
393.591	4.52
393.956	4.49
394.32	4.43
394.685	4.12
395.05	4.38
395.414	4.39
395.779	4.16
396.143	4.59
396.508	4.34
396.872	4.76
397.236	4.58
397.601	4.44
397.965	4.69
398.329	4.41
398.694	4.69
399.058	4.63
399.422	4.21
399.786	4.63
400.15	4.66
400.514	4.45
400.878	4.5
401.242	4.71
401.605	4.49
401.969	4.55
402.333	5.06
402.697	4.72
403.06	4.73
403.424	4.68
403.787	4.43
404.151	4.71
404.514	4.67
404.878	4.74
405.241	4.92
405.604	4.59
405.968	4.67
406.331	4.74
406.694	4.66
407.057	4.45
407.42	4.88
407.783	4.28
408.146	4.46
408.509	4.6
408.872	4.33
409.235	4.59
409.598	4.79
409.961	4.6
410.323	4.63
410.686	4.55
411.049	4.48
411.411	4.65
411.774	4.4
412.136	4.71
412.499	4.53
412.861	4.65
413.223	4.63
413.586	4.69
413.948	4.57
414.31	4.67
414.672	4.46
415.035	4.53
415.397	4.85
415.759	4.47
416.121	4.9
416.483	4.28
416.845	4.65
417.206	4.47
417.568	4.81
417.93	4.6
418.292	4.69
418.653	4.75
419.015	4.76
419.377	4.49
419.738	4.6
420.1	4.62
420.461	4.62
420.822	4.75
421.184	4.71
421.545	4.72
421.906	4.61
422.267	4.47
422.629	4.62
422.99	4.62
423.351	4.63
423.712	4.6
424.073	4.68
424.434	4.73
424.795	4.53
425.155	4.66
425.516	4.64
425.877	4.68
426.238	4.58
426.598	4.68
426.959	4.61
427.32	4.55
427.68	4.65
428.041	4.59
428.401	4.75
428.761	4.77
429.122	4.8
429.482	4.85
429.842	5.04
430.202	4.91
430.563	4.93
430.923	4.71
431.283	5.08
431.643	4.56
432.003	4.84
432.363	4.99
432.722	4.87
433.082	4.81
433.442	4.68
433.802	4.65
434.161	4.86
434.521	5.06
434.881	4.81
435.24	4.74
435.6	4.96
435.959	4.77
436.319	4.81
436.678	4.93
437.037	4.8
437.396	4.91
437.756	4.91
438.115	4.82
438.474	5.06
438.833	4.91
439.192	4.89
439.551	5.08
439.91	4.95
440.269	4.88
440.628	4.83
440.987	4.95
441.345	4.96
441.704	4.99
442.063	4.88
442.421	4.91
442.78	4.89
443.138	4.88
443.497	4.88
443.855	4.92
444.214	4.93
444.572	5
444.93	5.04
445.288	5.02
445.647	4.89
446.005	4.96
446.363	4.85
446.721	5.14
447.079	4.83
447.437	5.06
447.795	5.01
448.153	4.78
448.51	4.97
448.868	4.97
449.226	4.9
449.584	4.99
449.941	5.04
450.299	5.05
450.656	5.05
451.014	5.12
451.371	4.88
451.729	5.04
452.086	5.17
452.443	5.1
452.801	5.33
453.158	5.09
453.515	4.99
453.872	5.18
454.229	4.98
454.586	5.06
454.943	5.09
455.3	5.14
455.657	5.21
456.014	5.19
456.371	5.23
456.727	5.16
457.084	5.22
457.441	5.09
457.797	5.18
458.154	5.31
458.51	5.1
458.867	5.3
459.223	5.26
459.58	5.03
459.936	5.32
460.292	5.27
460.648	5.21
461.005	5.13
461.361	5.22
461.717	5.19
462.073	5.07
462.429	5.19
462.785	5.2
463.141	5.23
463.496	5.31
463.852	5.29
464.208	5.41
464.564	5.38
464.919	5.18
465.275	5.39
465.631	5.38
465.986	5.37
466.342	5.18
466.697	5.27
467.052	5.36
467.408	5.4
467.763	5.33
468.118	5.4
468.473	5.19
468.829	5.39
469.184	5.23
469.539	5.35
469.894	5.29
470.249	5.39
470.603	5.57
470.958	5.34
471.313	5.53
471.668	5.31
472.023	5.34
472.377	5.28
472.732	5.39
473.086	5.37
473.441	5.19
473.795	5.49
474.15	5.47
474.504	5.45
474.859	5.37
475.213	5.4
475.567	5.25
475.921	5.25
476.275	5.49
476.63	5.52
476.984	5.59
477.338	5.54
477.692	5.47
478.045	5.5
478.399	5.5
478.753	5.68
479.107	5.64
479.461	5.36
479.814	5.63
480.168	5.49
480.521	5.54
480.875	5.57
481.228	5.58
481.582	5.48
481.935	5.52
482.289	5.61
482.642	5.55
482.995	5.53
483.348	5.4
483.701	5.62
484.055	5.59
484.408	5.61
484.761	5.49
485.114	5.43
485.466	5.34
485.819	5.21
486.172	5.25
486.525	5.25
486.878	5.37
487.23	5.36
487.583	5.47
487.936	5.47
488.288	5.46
488.641	5.53
488.993	5.45
489.345	5.42
489.698	5.41
490.05	5.39
490.402	5.47
490.754	5.47
491.107	5.5
491.459	5.57
491.811	5.69
492.163	5.61
492.515	5.65
492.866	5.69
493.218	5.54
493.57	5.53
493.922	5.49
494.274	5.59
494.625	5.66
494.977	5.76
495.328	5.71
495.68	5.75
496.031	5.88
496.383	5.77
496.734	5.93
497.086	5.92
497.437	5.93
497.788	5.93
498.139	5.81
498.49	5.76
498.842	5.87
499.193	5.81
499.544	5.76
499.894	5.89
500.245	6
500.596	5.8
500.947	5.88
501.298	5.85
501.648	6.02
501.999	6.14
502.35	6.04
502.7	5.93
503.051	5.83
503.401	6.01
503.752	6.09
504.102	6
504.452	6.06
504.803	6.09
505.153	6.13
505.503	6.11
505.853	6
506.203	6.11
506.553	5.97
506.903	6.01
507.253	6.07
507.603	6.05
507.953	6.15
508.303	6.27
508.652	6.02
509.002	6.13
509.352	6.19
509.701	6.18
510.051	6.2
510.4	6.04
510.75	6.12
511.099	6.13
511.449	6.15
511.798	6.09
512.147	6.18
512.496	6.11
512.846	6.34
513.195	6.21
513.544	6.26
513.893	6.35
514.242	6.11
514.591	6.35
514.939	6.29
515.288	6.09
515.637	6.39
515.986	6.3
516.334	6.45
516.683	6.48
517.032	6.33
517.38	6.5
517.729	6.31
518.077	6.29
518.426	6.46
518.774	6.36
519.122	6.46
519.47	6.39
519.819	6.35
520.167	6.34
520.515	6.4
520.863	6.4
521.211	6.44
521.559	6.34
521.907	6.38
522.255	6.32
522.602	6.35
522.95	6.44
523.298	6.6
523.645	6.64
523.993	6.58
524.341	6.63
524.688	6.56
525.036	6.52
525.383	6.64
525.73	6.84
526.078	6.65
526.425	6.46
526.772	6.76
527.119	6.66
527.466	6.65
527.814	6.53
528.161	6.56
528.508	6.75
528.854	6.57
529.201	6.59
529.548	6.6
529.895	6.49
530.242	6.46
530.588	6.42
530.935	6.5
531.282	6.49
531.628	6.5
531.975	6.59
532.321	6.72
532.667	6.72
533.014	6.76
533.36	6.82
533.706	6.73
534.052	6.89
534.399	6.81
534.745	6.78
535.091	6.77
535.437	6.74
535.783	6.77
536.129	6.79
536.474	6.86
536.82	6.89
537.166	6.97
537.512	7
537.857	7.09
538.203	7.06
538.549	6.99
538.894	6.96
539.239	7.02
539.585	7.06
539.93	7.09
540.276	7.15
540.621	7.26
540.966	7.22
541.311	7.17
541.656	7.17
542.001	7.25
542.346	7.36
542.691	7.14
543.036	7.08
543.381	7.02
543.726	7.1
544.071	7.12
544.415	7.21
544.76	7.15
545.105	7.24
545.449	7.32
545.794	7.38
546.138	7.41
546.483	7.53
546.827	7.56
547.171	7.61
547.516	7.75
547.86	7.49
548.204	7.41
548.548	7.49
548.892	7.62
549.236	7.62
549.58	7.58
549.924	7.7
550.268	7.89
550.612	7.8
550.956	7.82
551.3	7.88
551.643	8.12
551.987	7.89
552.33	7.95
552.674	7.75
553.017	8.07
553.361	7.86
553.704	8.1
554.048	8
554.391	8.11
554.734	8.03
555.077	7.94
555.42	7.92
555.764	7.94
556.107	8.03
556.45	7.96
556.793	8.29
557.135	8.43
557.478	8.37
557.821	8.28
558.164	8.13
558.507	8.4
558.849	8.21
559.192	8.33
559.534	8.48
559.877	8.54
560.219	8.46
560.562	8.75
560.904	8.46
561.246	8.54
561.589	8.65
561.931	8.62
562.273	8.55
562.615	8.61
562.957	8.45
563.299	8.48
563.641	8.76
563.983	8.82
564.325	8.62
564.667	8.74
565.008	8.68
565.35	8.8
565.692	8.58
566.033	8.76
566.375	8.88
566.716	9.01
567.058	8.67
567.399	8.83
567.741	8.88
568.082	9.01
568.423	8.96
568.764	8.79
569.105	9.16
569.447	9.12
569.788	8.95
570.129	9.2
570.47	9.31
570.811	9.14
571.151	9.23
571.492	9.23
571.833	9.2
572.174	9.27
572.514	9.3
572.855	9.32
573.195	9.35
573.536	9.41
573.876	9.3
574.217	9.3
574.557	9.43
574.898	9.61
575.238	9.49
575.578	9.46
575.918	9.72
576.258	9.63
576.598	9.69
576.938	9.61
577.278	9.83
577.618	9.66
577.958	9.61
578.298	9.76
578.638	9.61
578.977	9.81
579.317	9.77
579.657	9.81
579.996	10
580.336	9.82
580.675	9.89
581.014	10.21
581.354	10
581.693	10.22
582.032	10.07
582.372	9.88
582.711	10.28
583.05	10
583.389	10.26
583.728	10.01
584.067	10.2
584.406	10.45
584.745	10.48
585.083	10.39
585.422	10.59
585.761	10.49
586.1	10.32
586.438	10.59
586.777	10.52
587.115	10.78
587.454	10.79
587.792	10.85
588.13	10.69
588.469	10.74
588.807	10.83
589.145	10.72
589.483	10.87
589.821	10.94
590.159	10.83
590.497	11.29
590.835	11.45
591.173	10.86
591.511	11.35
591.849	11.06
592.187	11.08
592.524	11.08
592.862	11.21
593.2	11.47
593.537	11.37
593.875	11.03
594.212	11.11
594.55	11.51
594.887	11.65
595.224	11.38
595.561	11.37
595.899	11.5
596.236	11.38
596.573	11.42
596.91	11.34
597.247	11.43
597.584	11.7
597.921	11.48
598.258	11.66
598.594	11.67
598.931	11.63
599.268	11.7
599.604	11.59
599.941	11.9
600.277	12.02
600.614	11.57
600.95	11.72
601.287	11.93
601.623	12.21
601.959	12.04
602.296	12.28
602.632	12.03
602.968	12.38
603.304	12.26
603.64	12.03
603.976	12.16
604.312	12.02
604.648	12.23
604.984	12.38
605.319	12.55
605.655	12.32
605.991	12.29
606.326	12.47
606.662	12.34
606.998	12.09
607.333	12.51
607.668	12.57
608.004	12.77
608.339	12.88
608.674	12.73
609.01	12.64
609.345	12.73
609.68	13.15
610.015	12.87
610.35	12.7
610.685	12.96
611.02	12.8
611.355	13.08
611.689	13.05
612.024	12.79
612.359	12.93
612.694	13
613.028	12.86
613.363	13.13
613.697	13.42
614.032	13.27
614.366	13.27
614.7	13.32
615.035	13.28
615.369	13.42
615.703	13.56
616.037	13.57
616.371	13.12
616.705	13.34
617.039	13.73
617.373	13.71
617.707	13.53
618.041	13.91
618.375	13.47
618.709	13.93
619.042	13.98
619.376	13.87
619.71	14.15
620.043	13.67
620.377	13.88
620.71	14.03
621.043	13.95
621.377	14.49
621.71	14.3
622.043	14.34
622.376	14.05
622.709	13.98
623.043	14.18
623.376	14.46
623.709	14.3
624.041	14.92
624.374	14.86
624.707	14.58
625.04	14.82
625.373	14.3
625.705	14.55
626.038	14.62
626.37	14.67
626.703	15.06
627.035	14.71
627.368	14.73
627.7	14.75
628.032	14.62
628.365	15.2
628.697	15.04
629.029	14.7
629.361	15.12
629.693	15.1
630.025	15.3
630.357	15.41
630.689	15.54
631.021	15.08
631.353	15.52
631.684	14.83
632.016	15.15
632.348	15.55
632.679	15.42
633.011	15.55
633.342	16.09
633.674	15.94
634.005	16.25
634.336	15.66
634.668	16.06
634.999	15.52
635.33	16.03
635.661	16.19
635.992	15.75
636.323	15.71
636.654	16.05
636.985	16.08
637.316	15.99
637.647	15.96
637.977	16.06
638.308	16.13
638.639	15.88
638.969	16.04
639.3	16.02
639.63	15.93
639.961	16.43
640.291	16.19
640.622	16.62
640.952	16.37
641.282	16.74
641.612	17.03
641.943	16.52
642.273	16.47
642.603	16.94
642.933	17.08
643.263	17
643.592	16.57
643.922	16.41
644.252	16.66
644.582	16.97
644.911	16.82
645.241	17.25
645.571	17.25
645.9	16.73
646.23	17.01
646.559	17.09
646.888	17.19
647.218	17.68
647.547	17.71
647.876	17.05
648.205	16.91
648.534	17.36
648.863	16.92
649.192	17.47
649.521	17.43
649.85	17.48
650.179	17.71
650.508	17.36
650.837	17.41
651.165	17.05
651.494	17.82
651.822	17.95
652.151	17.24
652.479	17.79
652.808	17.75
653.136	18.06
653.465	17.46
653.793	17.52
654.121	17.47
654.449	18.51
654.777	18.43
655.105	18.07
655.433	18.07
655.761	18
656.089	18.45
656.417	18.47
656.745	18.38
657.073	17.98
657.4	18.82
657.728	18.15
658.056	18.76
658.383	18.28
658.711	18.32
659.038	18.9
659.365	19.18
659.693	18.67
660.02	18.73
660.347	18.73
660.674	18.97
661.001	18.9
661.329	18.42
661.656	19.05
661.982	18.8
662.309	18.91
662.636	18.38
662.963	19.44
663.29	19.79
663.616	19.28
663.943	18.72
664.27	19.11
664.596	19.32
664.923	19.69
665.249	19.34
665.576	19.03
665.902	20.02
666.228	20.14
666.554	19.66
666.881	19.38
667.207	19.69
667.533	18.92
667.859	19.62
668.185	19.66
668.511	19.57
668.837	19.33
669.162	20.01
669.488	20.02
669.814	20.41
670.139	20.13
670.465	20.34
670.791	20.84
671.116	20.14
671.442	20.37
671.767	19.68
672.092	20.49
672.418	20.54
672.743	20.61
673.068	20.07
673.393	20.35
673.718	20.59
674.043	20.26
674.368	20.26
674.693	21.32
675.018	20.87
675.343	20.47
675.667	20.56
675.992	20.65
676.317	20.23
676.641	20.98
676.966	20.68
677.29	21.57
677.615	21.58
677.939	20.79
678.264	22.02
678.588	21.56
678.912	21.11
679.236	21.6
679.56	20.6
679.885	21.11
680.209	21.95
680.532	21.83
680.856	21.39
681.18	21.13
681.504	21.5
681.828	21.95
682.152	21.09
682.475	21.58
682.799	21.87
683.122	21.8
683.446	21.13
683.769	21.32
684.093	21.66
684.416	22.31
684.739	21.04
