Data from 427_crown_Reflection__1__145.txt Node

Date: Fri Dec 15 17:57:13 CST 2023
User: ToomeyLab
Spectrometer: FLMS14357
Trigger mode: 0
Integration Time (sec): 1.000000E-2
Scans to average: 100
Electric dark correction enabled: true
Nonlinearity correction enabled: false
Boxcar width: 0
XAxis mode: Wavelengths
Number of Pixels in Spectrum: 2048
>>>>>Begin Spectral Data<<<<<
189.047	-6.82
189.435	-6.82
189.823	-6.82
190.211	479.08
190.599	467.32
190.987	71.51
191.375	-255.92
191.763	-2596.2
192.151	-973.61
192.538	200.61
192.926	32.09
193.314	25.78
193.702	-96.6
194.089	-1210.65
194.477	1630.15
194.864	66.19
195.252	145.53
195.639	122.71
196.027	28.01
196.414	289.46
196.801	19.84
197.189	160.43
197.576	120.47
197.963	-264.47
198.351	-113.72
198.738	-27.29
199.125	74.44
199.512	-16.94
199.899	21.19
200.286	-17.29
200.673	-17.99
201.06	-40.45
201.447	-20.89
201.833	-4.72
202.22	19.24
202.607	16.23
202.994	-3.58
203.38	-5.81
203.767	75.09
204.154	30.65
204.54	5.92
204.927	-14.1
205.313	-53.94
205.699	23.02
206.086	18.58
206.472	14.47
206.858	-13.04
207.245	-121.53
207.631	18.57
208.017	-22.43
208.403	-17.71
208.789	-2.06
209.175	3.22
209.561	-6.21
209.947	-25.04
210.333	-59.79
210.719	-21.23
211.105	-12.45
211.491	-46.65
211.876	-16.92
212.262	13.84
212.648	-25.1
213.034	40.83
213.419	-24.65
213.805	-41.84
214.19	-68.12
214.576	-40.15
214.961	-43.29
215.346	-48.91
215.732	-17.32
216.117	-17.27
216.502	-42.97
216.888	17.32
217.273	30.07
217.658	-22.17
218.043	22.47
218.428	-64.59
218.813	-10.46
219.198	-30.74
219.583	-6.47
219.968	21.17
220.353	-34.4
220.738	1.79
221.122	-8.46
221.507	-34.61
221.892	-38.31
222.276	-15.73
222.661	5.13
223.046	0.45
223.43	5.55
223.815	4.69
224.199	-8.23
224.583	4.35
224.968	-0.87
225.352	8.67
225.736	-4.35
226.121	-17.23
226.505	-9.8
226.889	-3.53
227.273	-5.2
227.657	7.91
228.041	0.22
228.425	1.17
228.809	1.62
229.193	3.69
229.577	-0.1
229.961	2.88
230.344	3.36
230.728	3.03
231.112	3.69
231.495	2.78
231.879	2.25
232.263	2.76
232.646	3.69
233.03	4.03
233.413	1.2
233.797	2.7
234.18	2.85
234.563	4.82
234.946	2.62
235.33	3.04
235.713	3.68
236.096	3.62
236.479	1.76
236.862	1.23
237.245	5.71
237.628	3.68
238.011	3.98
238.394	4.06
238.777	2.2
239.16	2.07
239.543	2.38
239.925	1.6
240.308	4.22
240.691	5.8
241.073	4.36
241.456	3.86
241.838	2.67
242.221	2.7
242.603	3.4
242.986	3.27
243.368	2.64
243.75	2.82
244.133	2.36
244.515	2.94
244.897	3.3
245.279	2.22
245.661	2.38
246.043	2.69
246.425	1.56
246.807	3.38
247.189	4.01
247.571	2.08
247.953	3.24
248.335	3.09
248.717	3.27
249.098	3.16
249.48	3.29
249.862	2.87
250.243	3.1
250.625	3.14
251.006	3.53
251.388	1.73
251.769	2.51
252.151	2.91
252.532	1.91
252.913	1.62
253.295	2.06
253.676	3.32
254.057	2.73
254.438	2.79
254.819	2.26
255.2	1.82
255.581	2.35
255.962	1.43
256.343	1.98
256.724	1.61
257.105	3.07
257.486	1.89
257.867	2.34
258.247	1.88
258.628	1.37
259.009	2.06
259.389	2.9
259.77	2.77
260.15	1.78
260.531	2.14
260.911	3.7
261.292	2.64
261.672	3.15
262.052	2.9
262.432	2.87
262.813	2.9
263.193	2.95
263.573	2.02
263.953	3
264.333	2.82
264.713	2.39
265.093	1.92
265.473	1.85
265.853	1.68
266.233	3.32
266.612	0.52
266.992	1.95
267.372	2.53
267.752	2.67
268.131	2.64
268.511	3.39
268.89	3.33
269.27	2.17
269.649	1.96
270.029	2.62
270.408	3.4
270.787	3.05
271.167	3.28
271.546	2.48
271.925	1.83
272.304	2.39
272.683	2.67
273.062	2.29
273.441	3.16
273.82	1.97
274.199	2.59
274.578	3.24
274.957	2.68
275.336	2.83
275.715	2.53
276.093	2.59
276.472	2.28
276.851	2.52
277.229	2.6
277.608	2.11
277.986	3.06
278.365	2.65
278.743	1.99
279.122	2.51
279.5	2.51
279.878	2.74
280.257	2.37
280.635	1.43
281.013	1.95
281.391	2.77
281.769	2.7
282.147	3.02
282.525	3.05
282.903	2.79
283.281	2.21
283.659	2.54
284.037	2.83
284.415	3.36
284.792	2.86
285.17	1.78
285.548	1.74
285.925	2.92
286.303	2.51
286.68	2.66
287.058	2.81
287.435	2.68
287.813	3.13
288.19	2.31
288.567	2.38
288.945	2.79
289.322	2.19
289.699	2.32
290.076	2.73
290.453	2.64
290.83	2.77
291.207	2.28
291.584	2.77
291.961	3.08
292.338	2.74
292.715	3.22
293.092	2.34
293.469	2.84
293.845	3.34
294.222	2.31
294.599	2.69
294.975	2.36
295.352	2.67
295.728	2.26
296.105	2.43
296.481	3.29
296.858	2.56
297.234	2.61
297.61	2.4
297.986	2.9
298.363	2.51
298.739	3.01
299.115	2.73
299.491	2.78
299.867	2.77
300.243	2.85
300.619	2.69
300.995	2.5
301.371	2.37
301.746	2.49
302.122	2.81
302.498	2.73
302.874	2.85
303.249	2.95
303.625	2.66
304	2.72
304.376	2.85
304.751	2.23
305.127	3.1
305.502	2.36
305.878	2.16
306.253	2.74
306.628	3.04
307.003	2.27
307.378	2.99
307.754	3.15
308.129	2.03
308.504	2.75
308.879	1.83
309.254	2.86
309.629	3.04
310.003	2.96
310.378	2.82
310.753	3.39
311.128	2.71
311.502	2.83
311.877	2.8
312.252	2.23
312.626	2.48
313.001	2.66
313.375	3.15
313.75	2.6
314.124	2.54
314.498	2.71
314.873	2.53
315.247	2.1
315.621	2.65
315.995	1.82
316.369	2.52
316.743	2.26
317.117	2.75
317.491	2.33
317.865	2.23
318.239	2.57
318.613	2.83
318.987	3.26
319.361	1.91
319.734	3.26
320.108	3.24
320.482	2.16
320.855	2.85
321.229	2.64
321.602	2.67
321.976	3.33
322.349	2.68
322.723	2.81
323.096	3.66
323.469	2.17
323.843	2.74
324.216	3.14
324.589	2.65
324.962	3.04
325.335	2.24
325.708	2.89
326.081	2.31
326.454	2.63
326.827	2.47
327.2	2.53
327.573	3.03
327.945	3.09
328.318	2.05
328.691	1.92
329.063	2.81
329.436	2.3
329.809	2.81
330.181	2.13
330.553	2.61
330.926	2.73
331.298	3.27
331.671	2.2
332.043	2.88
332.415	2.09
332.787	2.5
333.159	3.42
333.532	3.25
333.904	2.9
334.276	3.23
334.648	2.6
335.02	2.93
335.391	2.72
335.763	2.76
336.135	2.56
336.507	3.33
336.879	2.43
337.25	2.21
337.622	2.19
337.993	2.43
338.365	2.53
338.736	2.87
339.108	2.68
339.479	2.72
339.851	2.07
340.222	2.71
340.593	2.86
340.964	2.38
341.336	3.04
341.707	2.41
342.078	2.86
342.449	3
342.82	2.71
343.191	3.04
343.562	2.73
343.933	3.08
344.303	2.95
344.674	2.25
345.045	2.42
345.416	2.96
345.786	2.31
346.157	2.55
346.527	2.57
346.898	2.33
347.268	3
347.639	2.54
348.009	2.69
348.38	2.12
348.75	2.75
349.12	2.67
349.49	3.27
349.861	2.87
350.231	2.83
350.601	2.73
350.971	2.99
351.341	2.75
351.711	2.53
352.081	2.79
352.45	2.53
352.82	3.28
353.19	2.5
353.56	2.54
353.929	3.05
354.299	2.83
354.669	2.37
355.038	3.32
355.408	2.56
355.777	2.45
356.147	2.69
356.516	2.6
356.885	2.74
357.254	2.39
357.624	3.3
357.993	3.02
358.362	2.25
358.731	2.7
359.1	2.84
359.469	2.84
359.838	2.95
360.207	2.29
360.576	2.81
360.945	2.88
361.314	2.88
361.682	2.4
362.051	2.39
362.42	3.05
362.788	2.78
363.157	2.72
363.525	3.06
363.894	2.83
364.262	2.98
364.631	2.55
364.999	2.72
365.367	2.51
365.735	3.68
366.104	3.11
366.472	2.89
366.84	2.69
367.208	2.82
367.576	2.97
367.944	2.97
368.312	2.29
368.68	2.17
369.048	2.92
369.416	2.78
369.783	2.83
370.151	3.29
370.519	3.38
370.886	2.5
371.254	2.48
371.621	3.34
371.989	2.89
372.356	2.53
372.724	2.66
373.091	2.56
373.458	2.73
373.826	2.72
374.193	2.81
374.56	2.73
374.927	2.61
375.294	2.56
375.661	2.71
376.028	2.92
376.395	2.87
376.762	2.82
377.129	2.64
377.496	2.5
377.863	3.04
378.229	2.56
378.596	3
378.963	2.7
379.329	2.4
379.696	2.84
380.062	2.88
380.429	2.97
380.795	2.62
381.161	2.97
381.528	3.06
381.894	2.84
382.26	2.65
382.626	3.04
382.993	2.52
383.359	3.31
383.725	2.91
384.091	2.57
384.457	3.12
384.823	2.94
385.188	2.92
385.554	2.8
385.92	3.19
386.286	3.15
386.651	3.58
387.017	3.17
387.383	2.77
387.748	2.75
388.114	2.87
388.479	2.71
388.845	3.3
389.21	3.04
389.575	3.2
389.94	2.86
390.306	2.8
390.671	3.05
391.036	2.64
391.401	2.59
391.766	3.12
392.131	2.55
392.496	3.11
392.861	2.84
393.226	2.85
393.591	2.98
393.956	2.73
394.32	2.82
394.685	2.93
395.05	2.58
395.414	2.8
395.779	2.87
396.143	2.91
396.508	3.03
396.872	2.85
397.236	3.14
397.601	2.54
397.965	2.97
398.329	3.06
398.694	3.27
399.058	2.9
399.422	2.78
399.786	3.2
400.15	3.14
400.514	2.91
400.878	3
401.242	3.36
401.605	3.19
401.969	3.25
402.333	3.18
402.697	2.8
403.06	3.25
403.424	3.02
403.787	2.84
404.151	2.97
404.514	3.07
404.878	2.68
405.241	3.19
405.604	2.88
405.968	3.07
406.331	2.86
406.694	3.17
407.057	3.1
407.42	3.07
407.783	2.74
408.146	3.01
408.509	2.91
408.872	2.85
409.235	3.09
409.598	3.18
409.961	2.96
410.323	3.35
410.686	2.71
411.049	2.96
411.411	2.83
411.774	3.11
412.136	2.89
412.499	2.86
412.861	3.1
413.223	2.63
413.586	2.92
413.948	3.24
414.31	2.89
414.672	2.93
415.035	2.97
415.397	3.11
415.759	2.78
416.121	3.34
416.483	2.84
416.845	2.95
417.206	3.02
417.568	2.98
417.93	2.53
418.292	2.91
418.653	3.26
419.015	3.24
419.377	2.81
419.738	3.1
420.1	3
420.461	3.09
420.822	3.14
421.184	2.92
421.545	3.04
421.906	2.99
422.267	2.93
422.629	2.96
422.99	3.05
423.351	2.92
423.712	2.97
424.073	2.97
424.434	3.01
424.795	3.04
425.155	3.06
425.516	2.93
425.877	3.05
426.238	3.04
426.598	3.08
426.959	2.94
427.32	2.97
427.68	3.05
428.041	2.96
428.401	3.01
428.761	3.03
429.122	3.03
429.482	2.94
429.842	3.2
430.202	3.05
430.563	3.06
430.923	3.17
431.283	3.12
431.643	3.15
432.003	3.12
432.363	3.17
432.722	3
433.082	3.07
433.442	2.99
433.802	3.01
434.161	3.21
434.521	3.39
434.881	3.06
435.24	2.92
435.6	3
435.959	3.03
436.319	3.08
436.678	3.06
437.037	3.07
437.396	3.25
437.756	3.15
438.115	2.99
438.474	3.26
438.833	3.05
439.192	3.09
439.551	3.25
439.91	3.1
440.269	3.12
440.628	3.01
440.987	3.21
441.345	2.88
441.704	3.2
442.063	3.19
442.421	3.15
442.78	3.1
443.138	3.06
443.497	3.02
443.855	3.05
444.214	3.03
444.572	3.1
444.93	3.06
445.288	3.2
445.647	3.29
446.005	3.11
446.363	3.12
446.721	3.25
447.079	3.08
447.437	3.11
447.795	3.13
448.153	2.97
448.51	3.07
448.868	3.18
449.226	3.06
449.584	3.16
449.941	3.2
450.299	3.16
450.656	2.98
451.014	3.21
451.371	3.06
451.729	3.06
452.086	3.19
452.443	3.29
452.801	3.12
453.158	3.23
453.515	3.14
453.872	3.33
454.229	3.1
454.586	3.1
454.943	3.08
455.3	3.22
455.657	3.09
456.014	3.11
456.371	3.2
456.727	3.16
457.084	3.32
457.441	3.21
457.797	3.22
458.154	3.44
458.51	3.2
458.867	3.31
459.223	3.44
459.58	3.35
459.936	3.29
460.292	3.21
460.648	3.22
461.005	3.14
461.361	3.27
461.717	3.25
462.073	3.06
462.429	3.19
462.785	3.2
463.141	3.12
463.496	3.19
463.852	3.35
464.208	3.12
464.564	3.32
464.919	3.15
465.275	3.21
465.631	3.4
465.986	3.41
466.342	3.3
466.697	3.07
467.052	3.32
467.408	3.38
467.763	3.22
468.118	3.31
468.473	3.24
468.829	3.34
469.184	3.05
469.539	3.13
469.894	2.99
470.249	3.53
470.603	3.43
470.958	3.18
471.313	3.44
471.668	3.1
472.023	3.26
472.377	3.44
472.732	3.41
473.086	3.23
473.441	3.14
473.795	3.4
474.15	3.24
474.504	3.24
474.859	3.46
475.213	3.11
475.567	3.27
475.921	3.09
476.275	3.31
476.63	3.33
476.984	3.52
477.338	3.36
477.692	2.98
478.045	3.17
478.399	3.19
478.753	3.22
479.107	3.27
479.461	3.35
479.814	3.38
480.168	3.27
480.521	3.22
480.875	3.15
481.228	3.23
481.582	3.12
481.935	3.4
482.289	3.24
482.642	3.18
482.995	3.19
483.348	3.25
483.701	3.25
484.055	3.39
484.408	3.35
484.761	3.27
485.114	3.23
485.466	3.12
485.819	3.14
486.172	3.09
486.525	3.11
486.878	3.2
487.23	3.2
487.583	3.25
487.936	3.33
488.288	3.26
488.641	3.34
488.993	3.18
489.345	3.17
489.698	3.16
490.05	3.12
490.402	3.22
490.754	3.25
491.107	3.23
491.459	3.23
491.811	3.35
492.163	3.29
492.515	3.32
492.866	3.39
493.218	3.23
493.57	3.19
493.922	3.2
494.274	3.3
494.625	3.34
494.977	3.39
495.328	3.44
495.68	3.44
496.031	3.41
496.383	3.38
496.734	3.51
497.086	3.43
497.437	3.38
497.788	3.37
498.139	3.4
498.49	3.52
498.842	3.26
499.193	3.34
499.544	3.37
499.894	3.29
500.245	3.35
500.596	3.37
500.947	3.39
501.298	3.28
501.648	3.33
501.999	3.47
502.35	3.32
502.7	3.39
503.051	3.27
503.401	3.38
503.752	3.43
504.102	3.27
504.452	3.35
504.803	3.4
505.153	3.37
505.503	3.42
505.853	3.39
506.203	3.38
506.553	3.41
506.903	3.41
507.253	3.37
507.603	3.4
507.953	3.6
508.303	3.47
508.652	3.31
509.002	3.46
509.352	3.49
509.701	3.38
510.051	3.41
510.4	3.34
510.75	3.47
511.099	3.45
511.449	3.46
511.798	3.45
512.147	3.39
512.496	3.34
512.846	3.4
513.195	3.41
513.544	3.46
513.893	3.49
514.242	3.43
514.591	3.52
514.939	3.48
515.288	3.55
515.637	3.53
515.986	3.59
516.334	3.46
516.683	3.58
517.032	3.58
517.38	3.54
517.729	3.46
518.077	3.27
518.426	3.52
518.774	3.55
519.122	3.34
519.47	3.38
519.819	3.31
520.167	3.58
520.515	3.49
520.863	3.47
521.211	3.48
521.559	3.57
521.907	3.44
522.255	3.41
522.602	3.5
522.95	3.39
523.298	3.47
523.645	3.53
523.993	3.48
524.341	3.56
524.688	3.46
525.036	3.54
525.383	3.47
525.73	3.57
526.078	3.49
526.425	3.37
526.772	3.56
527.119	3.49
527.466	3.45
527.814	3.55
528.161	3.55
528.508	3.45
528.854	3.43
529.201	3.48
529.548	3.39
529.895	3.42
530.242	3.35
530.588	3.35
530.935	3.36
531.282	3.44
531.628	3.39
531.975	3.5
532.321	3.52
532.667	3.54
533.014	3.52
533.36	3.55
533.706	3.57
534.052	3.54
534.399	3.54
534.745	3.5
535.091	3.46
535.437	3.49
535.783	3.45
536.129	3.56
536.474	3.54
536.82	3.5
537.166	3.58
537.512	3.56
537.857	3.52
538.203	3.52
538.549	3.52
538.894	3.48
539.239	3.52
539.585	3.59
539.93	3.53
540.276	3.67
540.621	3.62
540.966	3.5
541.311	3.54
541.656	3.55
542.001	3.61
542.346	3.66
542.691	3.61
543.036	3.49
543.381	3.34
543.726	3.42
544.071	3.49
544.415	3.62
544.76	3.58
545.105	3.5
545.449	3.63
545.794	3.57
546.138	3.66
546.483	3.65
546.827	3.7
547.171	3.64
547.516	3.69
547.86	3.48
548.204	3.56
548.548	3.6
548.892	3.73
549.236	3.58
549.58	3.61
549.924	3.75
550.268	3.81
550.612	3.81
550.956	3.84
551.3	3.81
551.643	3.77
551.987	3.83
552.33	3.87
552.674	3.81
553.017	3.7
553.361	3.66
553.704	3.79
554.048	3.63
554.391	3.67
554.734	3.64
555.077	3.79
555.42	3.44
555.764	3.65
556.107	3.55
556.45	3.62
556.793	3.6
557.135	3.69
557.478	3.99
557.821	3.76
558.164	3.67
558.507	3.63
558.849	3.7
559.192	3.8
559.534	3.65
559.877	3.96
560.219	3.9
560.562	3.89
560.904	3.55
561.246	3.77
561.589	3.83
561.931	3.82
562.273	3.71
562.615	3.79
562.957	3.8
563.299	3.67
563.641	3.95
563.983	3.93
564.325	3.61
564.667	3.8
565.008	3.84
565.35	3.9
565.692	3.38
566.033	3.74
566.375	3.87
566.716	3.98
567.058	3.81
567.399	3.88
567.741	3.64
568.082	3.76
568.423	3.93
568.764	3.61
569.105	3.81
569.447	3.84
569.788	3.8
570.129	3.96
570.47	3.82
570.811	3.99
571.151	3.97
571.492	3.76
571.833	4.04
572.174	3.75
572.514	3.95
572.855	3.82
573.195	3.79
573.536	3.81
573.876	3.83
574.217	3.9
574.557	3.97
574.898	4.07
575.238	3.84
575.578	3.75
575.918	3.99
576.258	3.86
576.598	3.94
576.938	3.74
577.278	3.85
577.618	3.89
577.958	3.79
578.298	3.97
578.638	3.76
578.977	3.78
579.317	3.81
579.657	3.92
579.996	3.89
580.336	3.96
580.675	3.91
581.014	4.15
581.354	3.84
581.693	3.97
582.032	3.82
582.372	3.79
582.711	4.06
583.05	3.67
583.389	3.8
583.728	3.67
584.067	4.08
584.406	4.09
584.745	3.74
585.083	3.86
585.422	3.67
585.761	3.94
586.1	3.9
586.438	3.88
586.777	4.1
587.115	4.09
587.454	4.01
587.792	3.89
588.13	3.85
588.469	4.03
588.807	3.66
589.145	3.89
589.483	3.95
589.821	3.99
590.159	4.12
590.497	4.05
590.835	4.19
591.173	4.03
591.511	4.28
591.849	4.02
592.187	4.24
592.524	4.29
592.862	3.89
593.2	4.15
593.537	4.11
593.875	3.93
594.212	3.99
594.55	3.98
594.887	4.16
595.224	3.86
595.561	3.89
595.899	3.9
596.236	4.02
596.573	4.21
596.91	3.8
597.247	3.86
597.584	4.26
597.921	3.86
598.258	3.97
598.594	3.97
598.931	3.88
599.268	4.13
599.604	3.97
599.941	3.99
600.277	4.07
600.614	4.01
600.95	3.78
601.287	4.06
601.623	3.87
601.959	3.88
602.296	4.03
602.632	3.95
602.968	4.19
603.304	4.29
603.64	3.92
603.976	4.1
604.312	4.04
604.648	3.99
604.984	4.12
605.319	3.96
605.655	4.1
605.991	3.99
606.326	4.03
606.662	4.02
606.998	3.91
607.333	4.14
607.668	4.23
608.004	4.17
608.339	4.3
608.674	4.18
609.01	4.01
609.345	3.82
609.68	4.18
610.015	3.82
610.35	3.97
610.685	3.88
611.02	4.12
611.355	4.23
611.689	4.05
612.024	4.05
612.359	3.99
612.694	3.93
613.028	4.08
613.363	4.24
613.697	4.28
614.032	4
614.366	4.01
614.7	4.08
615.035	4.43
615.369	3.97
615.703	4.27
616.037	4.43
616.371	3.77
616.705	4.09
617.039	3.92
617.373	3.82
617.707	3.96
618.041	3.88
618.375	4.04
618.709	4.22
619.042	3.82
619.376	4.31
619.71	4.14
620.043	4.31
620.377	3.75
620.71	4.01
621.043	3.72
621.377	4.15
621.71	3.85
622.043	4.23
622.376	3.72
622.709	3.98
623.043	4.08
623.376	4.32
623.709	4.28
624.041	4.36
624.374	4.33
624.707	4.24
625.04	4.5
625.373	3.47
625.705	4.38
626.038	4.17
626.37	4.08
626.703	3.99
627.035	4.53
627.368	4.62
627.7	4.28
628.032	4.17
628.365	4.31
628.697	4.07
629.029	4.02
629.361	4.15
629.693	4.32
630.025	4.1
630.357	4.37
630.689	4.23
631.021	4.11
631.353	4.32
631.684	3.97
632.016	3.9
632.348	4.05
632.679	4.28
633.011	4.1
633.342	4.81
633.674	4.34
634.005	4.64
634.336	4.31
634.668	4.76
634.999	4.44
635.33	4.31
635.661	4.65
635.992	4.39
636.323	4.49
636.654	4.46
636.985	4.13
637.316	4.1
637.647	4.14
637.977	4.52
638.308	4.64
638.639	4.23
638.969	4.07
639.3	4.14
639.63	4.1
639.961	4.28
640.291	4.12
640.622	4.41
640.952	3.89
641.282	4.56
641.612	4.56
641.943	4.25
642.273	4.69
642.603	4.21
642.933	4.71
643.263	4.47
643.592	4.14
643.922	4.26
644.252	4.19
644.582	4.73
644.911	3.98
645.241	4.27
645.571	3.99
645.9	3.97
646.23	3.97
646.559	5.03
646.888	3.59
647.218	4.17
647.547	4.85
647.876	4.15
648.205	4.2
648.534	4.69
648.863	4.08
649.192	4.99
649.521	4.16
649.85	4.13
650.179	4.43
650.508	3.97
650.837	4.36
651.165	4.48
651.494	4.31
651.822	4.12
652.151	4
652.479	4.59
652.808	4.13
653.136	4.35
653.465	3.7
653.793	4.1
654.121	3.87
654.449	4.45
654.777	4.74
655.105	4.34
655.433	4.09
655.761	4.17
656.089	4.76
656.417	4.35
656.745	4.42
657.073	3.88
657.4	4.98
657.728	4.59
658.056	4.6
658.383	4.42
658.711	4.61
659.038	4.55
659.365	4.5
659.693	4.33
660.02	4.27
660.347	4.08
660.674	4.53
661.001	4.72
661.329	3.84
661.656	4.55
661.982	4.94
662.309	4.41
662.636	4.32
662.963	4.62
663.29	4.87
663.616	4.89
663.943	3.81
664.27	4.52
664.596	4.79
664.923	4.74
665.249	4.67
665.576	4.52
665.902	5.17
666.228	4.88
666.554	4.92
666.881	4.06
667.207	5.08
667.533	4.47
667.859	4.96
668.185	4.87
668.511	3.96
668.837	4.11
669.162	4.58
669.488	3.23
669.814	4.98
670.139	5.19
670.465	4.97
670.791	5
671.116	5.32
671.442	4.33
671.767	4.59
672.092	5
672.418	4.35
672.743	4.58
673.068	4.2
673.393	4.11
673.718	4.05
674.043	4.32
674.368	4.34
674.693	4.96
675.018	4.71
675.343	4.31
675.667	3.99
675.992	4.43
676.317	4.7
676.641	4.57
676.966	4.01
677.29	4.34
677.615	4.22
677.939	4.9
678.264	4.36
678.588	4.69
678.912	4.84
679.236	5.39
679.56	4.01
679.885	4.77
680.209	5.62
680.532	4.33
680.856	4.84
681.18	4.83
681.504	4.47
681.828	4.71
682.152	4.79
682.475	5.09
682.799	4.58
683.122	5.19
683.446	4.24
683.769	5.64
684.093	4.12
684.416	5.13
684.739	4.19
685.062	5.04
685.386	5.53
685.709	4.25
686.032	4.7
686.355	5.23
686.678	4.42
687.001	4.93
687.324	5.17
687.646	3.19
687.969	4.33
688.292	4.3
688.614	4.57
688.937	5.28
689.26	4.49
689.582	4.76
689.904	4.29
690.227	4.93
690.549	5.37
690.871	5.32
691.194	4.61
691.516	4.33
691.838	4.87
