Data from 427_chest_Reflection__4__143.txt Node

Date: Fri Dec 15 17:56:19 CST 2023
User: ToomeyLab
Spectrometer: FLMS14357
Trigger mode: 0
Integration Time (sec): 1.000000E-2
Scans to average: 100
Electric dark correction enabled: true
Nonlinearity correction enabled: false
Boxcar width: 0
XAxis mode: Wavelengths
Number of Pixels in Spectrum: 2048
>>>>>Begin Spectral Data<<<<<
189.047	-58.69
189.435	-58.69
189.823	-58.69
190.211	117.76
190.599	157.82
190.987	56.74
191.375	-56.71
191.763	-990.76
192.151	429.17
192.538	212.06
192.926	-1.68
193.314	80.62
193.702	-432.3
194.089	-1022.69
194.477	-1318.38
194.864	149.66
195.252	152.28
195.639	120.15
196.027	-41.32
196.414	530.96
196.801	46.92
197.189	52.23
197.576	284.39
197.963	-143.9
198.351	-45.18
198.738	-41.27
199.125	142.83
199.512	-25.87
199.899	45.65
200.286	20.4
200.673	29.96
201.06	59.73
201.447	1.28
201.833	-4.66
202.22	11.73
202.607	13.39
202.994	-12.06
203.38	12.99
203.767	31.95
204.154	39.65
204.54	70.86
204.927	-5.37
205.313	-4.96
205.699	24.02
206.086	49.17
206.472	15.86
206.858	-75.38
207.245	-99.83
207.631	29.96
208.017	10.16
208.403	26.17
208.789	64.99
209.175	18.97
209.561	13.41
209.947	-6.45
210.333	-5.79
210.719	22.32
211.105	44.74
211.491	38.51
211.876	38.41
212.262	24.86
212.648	25.29
213.034	10.38
213.419	10.72
213.805	8.6
214.19	-9.5
214.576	40.08
214.961	-8.04
215.346	-5.86
215.732	13.04
216.117	-4.38
216.502	11.96
216.888	-3.26
217.273	31.94
217.658	-18.09
218.043	-1.29
218.428	-31.51
218.813	13.71
219.198	-10.73
219.583	7.53
219.968	32.25
220.353	-10.79
220.738	13.32
221.122	8.41
221.507	-43
221.892	-26.01
222.276	-19.8
222.661	2.76
223.046	14.45
223.43	21.57
223.815	14.27
224.199	7.95
224.583	8.52
224.968	-4.53
225.352	10.68
225.736	-2.96
226.121	-7.95
226.505	3.98
226.889	12.38
227.273	6.1
227.657	9.86
228.041	4.4
228.425	1.47
228.809	7.49
229.193	6.09
229.577	0.87
229.961	3.27
230.344	2.06
230.728	3.1
231.112	3.7
231.495	2.25
231.879	3.28
232.263	4.21
232.646	4.74
233.03	3.51
233.413	1.86
233.797	4.82
234.18	3.77
234.563	2.42
234.946	0.79
235.33	3.71
235.713	2.32
236.096	1.82
236.479	6.36
236.862	2.64
237.245	4.67
237.628	3.01
238.011	5.63
238.394	4.89
238.777	3.61
239.16	1.75
239.543	3.57
239.925	3.89
240.308	4.03
240.691	3.52
241.073	3.52
241.456	5.11
241.838	3.85
242.221	3.16
242.603	3.18
242.986	3.31
243.368	2.34
243.75	3.23
244.133	2.99
244.515	3.67
244.897	3.48
245.279	3.83
245.661	2.89
246.043	3.35
246.425	2.43
246.807	5.94
247.189	4.93
247.571	3.74
247.953	3.77
248.335	3.31
248.717	3.79
249.098	3.38
249.48	3.45
249.862	3.58
250.243	3.63
250.625	3.59
251.006	3.22
251.388	2.65
251.769	4.12
252.151	4.39
252.532	3.4
252.913	2.82
253.295	2.81
253.676	3.42
254.057	4.03
254.438	3.03
254.819	2.82
255.2	2.58
255.581	2.63
255.962	3.78
256.343	3.5
256.724	4.22
257.105	3.47
257.486	3.05
257.867	2.74
258.247	2.85
258.628	2.99
259.009	4.21
259.389	3.42
259.77	3.61
260.15	3.2
260.531	2.49
260.911	3.78
261.292	3.29
261.672	3.63
262.052	3.46
262.432	3.67
262.813	3.28
263.193	3.17
263.573	2.82
263.953	3.32
264.333	3.33
264.713	3.87
265.093	2.99
265.473	2.94
265.853	2.72
266.233	3.03
266.612	2.46
266.992	2.26
267.372	3.79
267.752	2.58
268.131	2.96
268.511	3.55
268.89	3.52
269.27	2.93
269.649	2.68
270.029	2.92
270.408	3.55
270.787	3.19
271.167	3.5
271.546	3.19
271.925	2.49
272.304	2.52
272.683	2.91
273.062	2.92
273.441	3.1
273.82	3.34
274.199	3.5
274.578	3.07
274.957	2.94
275.336	2.95
275.715	2.44
276.093	3
276.472	2.76
276.851	2.62
277.229	2.42
277.608	2.73
277.986	3.53
278.365	3.69
278.743	2.91
279.122	3.11
279.5	3.67
279.878	3.32
280.257	3.01
280.635	2.89
281.013	3.01
281.391	3.25
281.769	3.05
282.147	3.27
282.525	3.93
282.903	3.11
283.281	2.77
283.659	3.21
284.037	3.45
284.415	3.35
284.792	3.3
285.17	2.06
285.548	3.18
285.925	3.02
286.303	2.91
286.68	3.18
287.058	3.3
287.435	3.05
287.813	3.33
288.19	3.27
288.567	3.19
288.945	3.58
289.322	3.6
289.699	3.38
290.076	3.06
290.453	2.96
290.83	3.45
291.207	2.88
291.584	4.01
291.961	3.59
292.338	2.97
292.715	3.58
293.092	3.59
293.469	3.84
293.845	3.72
294.222	3.23
294.599	3.46
294.975	3.52
295.352	4.12
295.728	3.25
296.105	3.31
296.481	4.33
296.858	3.87
297.234	3.94
297.61	3.7
297.986	3.77
298.363	4.19
298.739	3.94
299.115	3.7
299.491	4.08
299.867	3.94
300.243	4.16
300.619	3.9
300.995	4.11
301.371	4.45
301.746	3.59
302.122	4.35
302.498	4.62
302.874	4
303.249	4.02
303.625	4.69
304	4.13
304.376	4.61
304.751	4
305.127	5.35
305.502	4.12
305.878	4.06
306.253	4.29
306.628	5.03
307.003	4.95
307.378	5.35
307.754	4.43
308.129	3.65
308.504	4.73
308.879	4.3
309.254	5.81
309.629	5.3
310.003	4.52
310.378	4.99
310.753	4.9
311.128	5.08
311.502	4.38
311.877	4.77
312.252	4.55
312.626	5.24
313.001	5.01
313.375	5.34
313.75	4.26
314.124	5.52
314.498	4.9
314.873	4.39
315.247	4.4
315.621	5.04
315.995	4.39
316.369	5.23
316.743	5
317.117	5.53
317.491	4.94
317.865	5.5
318.239	5.28
318.613	5.93
318.987	5.75
319.361	4.77
319.734	5.82
320.108	5.75
320.482	5.49
320.855	5.5
321.229	5.45
321.602	5.7
321.976	6.06
322.349	5.49
322.723	6.21
323.096	6.62
323.469	5.67
323.843	5.44
324.216	6.24
324.589	5.32
324.962	6.39
325.335	5.71
325.708	5.91
326.081	5.37
326.454	5.96
326.827	5.45
327.2	6.2
327.573	6.06
327.945	5.98
328.318	5.89
328.691	5.44
329.063	5.81
329.436	5.85
329.809	6.04
330.181	5.98
330.553	6.15
330.926	6.62
331.298	6.54
331.671	5.98
332.043	7.02
332.415	6.1
332.787	6.5
333.159	6.73
333.532	6.41
333.904	6.54
334.276	6.09
334.648	6.55
335.02	6.86
335.391	6.24
335.763	6.39
336.135	7.1
336.507	6.99
336.879	6.64
337.25	5.96
337.622	6.39
337.993	5.97
338.365	6.29
338.736	6.79
339.108	6.92
339.479	6.12
339.851	6.19
340.222	6.6
340.593	6.2
340.964	6.38
341.336	7.65
341.707	6.42
342.078	7.35
342.449	6.45
342.82	6.82
343.191	6.65
343.562	6.47
343.933	6.85
344.303	6.74
344.674	6.37
345.045	7.07
345.416	7.19
345.786	6.68
346.157	6.8
346.527	7.08
346.898	6.26
347.268	7.02
347.639	6.63
348.009	6.67
348.38	6.39
348.75	6.74
349.12	6.72
349.49	7.7
349.861	6.86
350.231	6.7
350.601	7.04
350.971	7
351.341	6.97
351.711	6.84
352.081	6.83
352.45	6.47
352.82	7.4
353.19	6.98
353.56	6.94
353.929	6.71
354.299	7.09
354.669	6.58
355.038	7.33
355.408	7.24
355.777	6.84
356.147	6.58
356.516	6.92
356.885	7.29
357.254	6.73
357.624	7.7
357.993	7.14
358.362	6.94
358.731	6.93
359.1	7.85
359.469	7.62
359.838	7.41
360.207	7.1
360.576	6.6
360.945	7.3
361.314	7.81
361.682	6.92
362.051	7.22
362.42	7.28
362.788	6.98
363.157	7.63
363.525	7.39
363.894	7.42
364.262	7.18
364.631	7.25
364.999	7.52
365.367	7.02
365.735	8.24
366.104	7.52
366.472	7.44
366.84	7.07
367.208	7.38
367.576	7.59
367.944	7.69
368.312	7.33
368.68	7.3
369.048	7.51
369.416	7.18
369.783	7.15
370.151	7.65
370.519	7.83
370.886	7.66
371.254	7.37
371.621	7.92
371.989	8.08
372.356	7.37
372.724	7.8
373.091	7.74
373.458	7.49
373.826	7.4
374.193	7.9
374.56	7.71
374.927	8.08
375.294	7.72
375.661	7.72
376.028	7.82
376.395	7.76
376.762	7.79
377.129	7.67
377.496	7.72
377.863	7.97
378.229	7.61
378.596	7.97
378.963	7.89
379.329	7.76
379.696	8.14
380.062	7.71
380.429	7.64
380.795	7.69
381.161	8.01
381.528	7.94
381.894	7.62
382.26	7.61
382.626	8.13
382.993	7.78
383.359	8.55
383.725	8.01
384.091	8.19
384.457	8.3
384.823	7.95
385.188	8.2
385.554	8.08
385.92	8.2
386.286	8.55
386.651	8.49
387.017	8.23
387.383	8.12
387.748	8.21
388.114	8.41
388.479	7.89
388.845	8.29
389.21	8.46
389.575	7.96
389.94	8.33
390.306	8.47
390.671	8.42
391.036	8.23
391.401	7.94
391.766	8.44
392.131	8.18
392.496	8.46
392.861	8.08
393.226	8.5
393.591	8.51
393.956	8.44
394.32	8.5
394.685	7.93
395.05	8.4
395.414	8.32
395.779	8.56
396.143	8.31
396.508	8.46
396.872	8.39
397.236	8.68
397.601	8.2
397.965	8.47
398.329	8.64
398.694	8.64
399.058	8.98
399.422	8.46
399.786	8.66
400.15	8.7
400.514	8.63
400.878	8.55
401.242	8.71
401.605	8.7
401.969	8.54
402.333	8.97
402.697	8.76
403.06	8.89
403.424	8.76
403.787	8.59
404.151	8.76
404.514	8.44
404.878	8.69
405.241	8.79
405.604	8.59
405.968	8.9
406.331	8.72
406.694	8.97
407.057	8.78
407.42	9.08
407.783	8.64
408.146	9.01
408.509	8.79
408.872	8.82
409.235	8.74
409.598	9.13
409.961	8.71
410.323	9.09
410.686	8.86
411.049	9.05
411.411	9.01
411.774	9.12
412.136	9.05
412.499	8.86
412.861	8.82
413.223	9.08
413.586	9.04
413.948	9.2
414.31	9.18
414.672	8.93
415.035	8.86
415.397	9.45
415.759	8.71
416.121	8.85
416.483	8.92
416.845	9.17
417.206	9.3
417.568	9.22
417.93	8.93
418.292	9.16
418.653	9.23
419.015	9.25
419.377	9.23
419.738	9.33
420.1	9.31
420.461	9.29
420.822	9.2
421.184	9.16
421.545	9.27
421.906	9.03
422.267	9.26
422.629	9.16
422.99	9.11
423.351	9.16
423.712	9
424.073	9.05
424.434	9.03
424.795	9.12
425.155	9.34
425.516	9.11
425.877	9.15
426.238	9.17
426.598	9.3
426.959	9.25
427.32	9.12
427.68	9.05
428.041	9.09
428.401	9.39
428.761	9.2
429.122	9.38
429.482	9.23
429.842	9.56
430.202	9.74
430.563	9.54
430.923	9.47
431.283	9.61
431.643	9.48
432.003	9.53
432.363	9.51
432.722	9.47
433.082	9.68
433.442	9.6
433.802	9.6
434.161	9.83
434.521	9.97
434.881	9.74
435.24	9.5
435.6	9.7
435.959	9.58
436.319	9.72
436.678	9.56
437.037	9.66
437.396	9.52
437.756	9.71
438.115	9.61
438.474	9.89
438.833	9.63
439.192	9.9
439.551	9.94
439.91	9.98
440.269	9.79
440.628	9.73
440.987	9.86
441.345	9.77
441.704	9.79
442.063	9.83
442.421	9.82
442.78	9.88
443.138	9.79
443.497	9.87
443.855	9.68
444.214	9.83
444.572	9.94
444.93	9.96
445.288	9.95
445.647	10.17
446.005	10.01
446.363	10.08
446.721	10.18
447.079	9.89
447.437	10.07
447.795	10.04
448.153	9.81
448.51	9.9
448.868	9.98
449.226	9.92
449.584	9.94
449.941	10.04
450.299	10.02
450.656	9.98
451.014	10.02
451.371	10.01
451.729	10.09
452.086	10.29
452.443	10.07
452.801	9.99
453.158	10.24
453.515	10.19
453.872	10.45
454.229	10.35
454.586	10.36
454.943	10.32
455.3	10.21
455.657	10.25
456.014	10.26
456.371	10.4
456.727	10.41
457.084	10.61
457.441	10.27
457.797	10.32
458.154	10.71
458.51	10.49
458.867	10.58
459.223	10.74
459.58	10.43
459.936	10.73
460.292	10.57
460.648	10.52
461.005	10.53
461.361	10.64
461.717	10.51
462.073	10.29
462.429	10.35
462.785	10.35
463.141	10.48
463.496	10.57
463.852	10.64
464.208	10.59
464.564	10.55
464.919	10.59
465.275	10.58
465.631	10.86
465.986	10.76
466.342	10.55
466.697	10.71
467.052	10.94
467.408	10.85
467.763	10.65
468.118	10.75
468.473	10.71
468.829	10.86
469.184	10.59
469.539	10.83
469.894	10.88
470.249	10.89
470.603	10.98
470.958	10.8
471.313	10.9
471.668	11.06
472.023	11.18
472.377	10.96
472.732	10.86
473.086	11.08
473.441	10.86
473.795	11.09
474.15	10.96
474.504	11.14
474.859	11.26
475.213	11.07
475.567	11.21
475.921	11.08
476.275	11.18
476.63	11.04
476.984	11.11
477.338	11.54
477.692	10.91
478.045	11.23
478.399	11.24
478.753	11.24
479.107	11.22
479.461	11.03
479.814	11.16
480.168	11.03
480.521	11.05
480.875	11.24
481.228	11.1
481.582	10.94
481.935	11.37
482.289	11.33
482.642	11.34
482.995	11.29
483.348	11.14
483.701	11.23
484.055	11.32
484.408	11.45
484.761	11.28
485.114	11.23
485.466	11.15
485.819	11.06
486.172	10.86
486.525	10.59
486.878	10.52
487.23	10.66
487.583	10.79
487.936	10.99
488.288	11.06
488.641	11.35
488.993	11.22
489.345	11.15
489.698	11.13
490.05	10.94
490.402	11
490.754	10.99
491.107	11
491.459	11.15
491.811	11.23
492.163	11.36
492.515	11.5
492.866	11.65
493.218	11.56
493.57	11.43
493.922	11.26
494.274	11.19
494.625	11.21
494.977	11.21
495.328	11.51
495.68	11.49
496.031	11.69
496.383	11.6
496.734	11.88
497.086	11.83
497.437	11.86
497.788	11.73
498.139	11.78
498.49	11.88
498.842	11.81
499.193	11.77
499.544	11.75
499.894	11.77
500.245	11.9
500.596	11.87
500.947	11.95
501.298	11.76
501.648	11.98
501.999	11.99
502.35	12.05
502.7	11.98
503.051	11.92
503.401	11.89
503.752	12.17
504.102	12.24
504.452	12.25
504.803	12.01
505.153	12.27
505.503	12.21
505.853	12.27
506.203	12.28
506.553	12.15
506.903	12.26
507.253	12.03
507.603	12.15
507.953	12.54
508.303	12.55
508.652	12.28
509.002	12.41
509.352	12.5
509.701	12.36
510.051	12.45
510.4	12.44
510.75	12.32
511.099	12.37
511.449	12.38
511.798	12.45
512.147	12.47
512.496	12.33
512.846	12.57
513.195	12.41
513.544	12.47
513.893	12.6
514.242	12.41
514.591	12.53
514.939	12.52
515.288	12.48
515.637	12.71
515.986	12.53
516.334	12.63
516.683	12.59
517.032	12.53
517.38	12.88
517.729	12.7
518.077	12.72
518.426	12.88
518.774	12.91
519.122	12.87
519.47	12.85
519.819	12.61
520.167	12.73
520.515	12.86
520.863	12.68
521.211	12.71
521.559	12.79
521.907	12.63
522.255	12.76
522.602	12.73
522.95	12.75
523.298	12.81
523.645	12.94
523.993	12.98
524.341	13.09
524.688	12.93
525.036	13.04
525.383	13.23
525.73	13.34
526.078	13.13
526.425	13.04
526.772	13.17
527.119	13.16
527.466	13.26
527.814	13.14
528.161	13.03
528.508	12.93
528.854	13.02
529.201	13.12
529.548	13.1
529.895	13.07
530.242	13.09
530.588	12.91
530.935	12.77
531.282	12.62
531.628	12.58
531.975	12.62
532.321	12.83
532.667	13.01
533.014	13.07
533.36	13.04
533.706	13.33
534.052	13.24
534.399	13.28
534.745	13.37
535.091	13.46
535.437	13.26
535.783	13.17
536.129	13.1
536.474	13.17
536.82	13.19
537.166	13.51
537.512	13.55
537.857	13.53
538.203	13.7
538.549	13.69
538.894	13.62
539.239	13.58
539.585	13.58
539.93	13.47
540.276	13.72
540.621	13.7
540.966	13.8
541.311	13.76
541.656	13.73
542.001	14.05
542.346	14
542.691	13.99
543.036	13.9
543.381	13.79
543.726	13.55
544.071	13.44
544.415	13.51
544.76	13.47
545.105	13.71
545.449	13.79
545.794	13.85
546.138	13.88
546.483	13.98
546.827	14.05
547.171	14.23
547.516	14.22
547.86	14.13
548.204	14.28
548.548	14.29
548.892	14.29
549.236	14.27
549.58	14.13
549.924	14.34
550.268	14.29
550.612	14.37
550.956	14.62
551.3	14.22
551.643	14.48
551.987	14.7
552.33	14.66
552.674	14.9
553.017	14.73
553.361	14.42
553.704	14.96
554.048	14.87
554.391	14.65
554.734	14.7
555.077	14.81
555.42	14.7
555.764	14.59
556.107	14.6
556.45	14.6
556.793	14.71
557.135	14.91
557.478	15.26
557.821	15.14
558.164	15
558.507	15.2
558.849	14.96
559.192	15.06
559.534	15.11
559.877	15.14
560.219	15.11
560.562	15.33
560.904	15.29
561.246	15.33
561.589	15.39
561.931	15.14
562.273	15.15
562.615	15.39
562.957	15.38
563.299	15.34
563.641	15.34
563.983	15.32
564.325	15.31
564.667	15.23
565.008	15.36
565.35	15.41
565.692	15.18
566.033	15.38
566.375	15.74
566.716	15.79
567.058	15.38
567.399	15.57
567.741	15.63
568.082	15.54
568.423	15.72
568.764	15.56
569.105	15.56
569.447	15.51
569.788	15.48
570.129	15.61
570.47	15.56
570.811	15.9
571.151	15.85
571.492	15.93
571.833	15.84
572.174	15.95
572.514	15.85
572.855	15.72
573.195	16.09
573.536	16.01
573.876	15.91
574.217	16
574.557	16.1
574.898	15.91
575.238	15.81
575.578	16.01
575.918	16.09
576.258	16.04
576.598	16.27
576.938	16.01
577.278	16.12
577.618	16.06
577.958	16.05
578.298	16.22
578.638	16.04
578.977	16.24
579.317	16.24
579.657	16.34
579.996	16.43
580.336	16.25
580.675	16.23
581.014	16.49
581.354	16.37
581.693	16.45
582.032	16.24
582.372	16.32
582.711	16.55
583.05	16.45
583.389	16.7
583.728	16.53
584.067	16.94
584.406	16.68
584.745	16.66
585.083	16.66
585.422	16.77
585.761	16.83
586.1	17.08
586.438	16.92
586.777	16.84
587.115	17.02
587.454	17.02
587.792	17.06
588.13	16.92
588.469	16.8
588.807	16.83
589.145	16.82
589.483	17.03
589.821	17.07
590.159	16.9
590.497	17.33
590.835	17.62
591.173	17.01
591.511	17.08
591.849	17.15
592.187	17.21
592.524	17.16
592.862	17.15
593.2	17.58
593.537	17.15
593.875	17.33
594.212	17.44
594.55	17.3
594.887	17.63
595.224	17.47
595.561	17.38
595.899	17.43
596.236	17.43
596.573	17.66
596.91	16.98
597.247	17.41
597.584	17.76
597.921	17.82
598.258	17.6
598.594	17.64
598.931	17.53
599.268	17.81
599.604	17.52
599.941	17.59
600.277	17.35
600.614	17.41
600.95	17.48
601.287	17.9
601.623	17.48
601.959	17.56
602.296	17.95
602.632	18.24
602.968	18.02
603.304	18.02
603.64	17.85
603.976	18.03
604.312	18.02
604.648	17.84
604.984	18.25
605.319	17.87
605.655	17.95
605.991	18.17
606.326	18.26
606.662	18.05
606.998	17.97
607.333	17.97
607.668	17.97
608.004	17.99
608.339	18.48
608.674	18.25
609.01	18.13
609.345	18.24
609.68	18.45
610.015	18.24
610.35	18.31
610.685	18.32
611.02	18.43
611.355	18.69
611.689	18.37
612.024	18.5
612.359	18.41
612.694	18.4
613.028	18.03
613.363	18.54
613.697	18.86
614.032	18.56
614.366	18.52
614.7	18.31
615.035	18.63
615.369	18.61
615.703	18.7
616.037	18.73
616.371	18.27
616.705	18.63
617.039	18.94
617.373	18.69
617.707	18.91
618.041	19
618.375	19.17
618.709	19.05
619.042	18.54
619.376	18.97
619.71	19.33
620.043	19.05
620.377	18.72
620.71	18.87
621.043	18.88
621.377	19.26
621.71	19.35
622.043	18.9
622.376	18.55
622.709	19.27
623.043	19.38
623.376	19.32
623.709	19.08
624.041	19.3
624.374	19.05
624.707	19.21
625.04	19.37
625.373	19.08
625.705	19.67
626.038	19.11
626.37	19.08
626.703	19.24
627.035	19.25
627.368	19.9
627.7	19.67
628.032	19.84
628.365	19.69
628.697	19.6
629.029	19.16
629.361	19.79
629.693	19.66
630.025	19.33
630.357	19.91
630.689	19.99
631.021	19.77
631.353	19.67
631.684	19.47
632.016	19.15
632.348	20
632.679	19.62
633.011	19.78
633.342	20.56
633.674	20.08
634.005	20.15
634.336	20.16
634.668	20.33
634.999	19.88
635.33	20.18
635.661	20.23
635.992	20.1
636.323	20.2
636.654	20.52
636.985	19.87
637.316	20.1
637.647	20.25
637.977	20.11
638.308	19.98
638.639	19.78
638.969	20.14
639.3	19.87
639.63	20.05
639.961	20.31
640.291	20.1
640.622	20.02
640.952	20.5
641.282	20.57
641.612	20.54
641.943	20.38
642.273	20.37
642.603	20.68
642.933	21.3
643.263	20.57
643.592	20.03
643.922	20.51
644.252	20.18
644.582	20.39
644.911	20.48
645.241	20.54
645.571	19.99
645.9	20.32
646.23	20.28
646.559	20.44
646.888	20.8
647.218	20.6
647.547	20.87
647.876	20.68
648.205	21.04
648.534	20.28
648.863	20.36
649.192	21.07
649.521	20.75
649.85	20.74
650.179	21.22
650.508	20.62
650.837	20.6
651.165	20.41
651.494	21.04
651.822	20.8
652.151	20.11
652.479	20.99
652.808	20.47
653.136	20.94
653.465	20.91
653.793	20.64
654.121	20.67
654.449	21.26
654.777	21.35
655.105	21.22
655.433	20.36
655.761	20.73
656.089	21.2
656.417	20.97
656.745	20.8
657.073	20.88
657.4	21.85
657.728	20.87
658.056	20.79
658.383	21.42
658.711	21.3
659.038	21.28
659.365	21
659.693	21.48
660.02	21.44
660.347	21.72
660.674	21.44
661.001	21.5
661.329	20.93
661.656	21.45
661.982	21.55
662.309	21.63
662.636	21.06
662.963	21.9
663.29	21.53
663.616	21.6
663.943	21.25
664.27	21.86
664.596	21.8
664.923	21.34
665.249	21.76
665.576	21.48
665.902	21.63
666.228	21.79
666.554	22.05
666.881	21.59
667.207	21.88
667.533	21.29
667.859	22.22
668.185	22.5
668.511	21.79
668.837	21.26
669.162	21.88
669.488	21.57
669.814	22.34
670.139	22.49
670.465	22.45
670.791	22.46
671.116	22.74
671.442	21.46
671.767	21.81
672.092	22.48
672.418	21.96
672.743	22.14
673.068	21.96
673.393	22.33
673.718	21.57
674.043	22.77
674.368	22.33
674.693	22.76
675.018	21.83
675.343	22.08
675.667	22.18
675.992	22.57
676.317	22.2
676.641	22.72
676.966	21.97
