Data from 427_chest_Reflection__2__141.txt Node

Date: Fri Dec 15 17:55:55 CST 2023
User: ToomeyLab
Spectrometer: FLMS14357
Trigger mode: 0
Integration Time (sec): 1.000000E-2
Scans to average: 100
Electric dark correction enabled: true
Nonlinearity correction enabled: false
Boxcar width: 0
XAxis mode: Wavelengths
Number of Pixels in Spectrum: 2048
>>>>>Begin Spectral Data<<<<<
189.047	64.24
189.435	64.24
189.823	64.24
190.211	57.5
190.599	7.38
190.987	83.63
191.375	-526.97
191.763	-680.98
192.151	24.54
192.538	192.32
192.926	148.12
193.314	95.94
193.702	-155.27
194.089	1172.69
194.477	-1431.62
194.864	-73.98
195.252	138.44
195.639	138.74
196.027	161.3
196.414	269.83
196.801	177.26
197.189	145.06
197.576	262.36
197.963	47.6
198.351	-59.76
198.738	-12.17
199.125	27.85
199.512	-33.04
199.899	3.33
200.286	9.85
200.673	-2.02
201.06	-7
201.447	-61.29
201.833	-2.65
202.22	16.42
202.607	22.9
202.994	-4.07
203.38	32.1
203.767	5.69
204.154	29.41
204.54	14.03
204.927	-47.23
205.313	-72.25
205.699	8.36
206.086	28.83
206.472	36.49
206.858	77.71
207.245	-16.64
207.631	15.12
208.017	19.94
208.403	38.08
208.789	69.75
209.175	36.83
209.561	3.61
209.947	-55.19
210.333	-43.25
210.719	7.88
211.105	3.17
211.491	-12.65
211.876	18.02
212.262	11.01
212.648	2.26
213.034	24.09
213.419	-19.84
213.805	-4.54
214.19	-47.75
214.576	24.84
214.961	-29.24
215.346	-70.8
215.732	-24.35
216.117	20.81
216.502	-17.64
216.888	-9.31
217.273	26.21
217.658	11.15
218.043	16.29
218.428	-29.21
218.813	-14.37
219.198	-21.4
219.583	13.49
219.968	-21.93
220.353	-15.2
220.738	29.24
221.122	18.95
221.507	-23.71
221.892	-34.88
222.276	-0.67
222.661	-4.34
223.046	11.86
223.43	7.49
223.815	4.72
224.199	-6.11
224.583	15.68
224.968	6.85
225.352	9.01
225.736	-12.09
226.121	-0.27
226.505	-5.43
226.889	5.61
227.273	4.62
227.657	10.63
228.041	4.8
228.425	1.78
228.809	5.41
229.193	5.8
229.577	0.64
229.961	6.09
230.344	3.89
230.728	3.88
231.112	4.09
231.495	4.05
231.879	2.25
232.263	3.64
232.646	3.6
233.03	2.29
233.413	1.58
233.797	3.92
234.18	4.56
234.563	8.33
234.946	2.26
235.33	3.92
235.713	3.74
236.096	3.31
236.479	4.63
236.862	2.33
237.245	3.4
237.628	4.06
238.011	5.9
238.394	6.12
238.777	3.68
239.16	2.64
239.543	3.56
239.925	3.17
240.308	1.19
240.691	2.98
241.073	5.54
241.456	2.69
241.838	2.34
242.221	3.12
242.603	3.79
242.986	3.89
243.368	4.17
243.75	4.08
244.133	3.75
244.515	4.07
244.897	4.02
245.279	3.82
245.661	3.08
246.043	2.9
246.425	2.6
246.807	4.29
247.189	4.09
247.571	4.26
247.953	3.66
248.335	3.66
248.717	3.69
249.098	3.71
249.48	3.64
249.862	3.61
250.243	3.73
250.625	3.16
251.006	4.09
251.388	2.83
251.769	2.85
252.151	3.72
252.532	3.5
252.913	2.52
253.295	3.67
253.676	3.72
254.057	3.29
254.438	3.41
254.819	3.07
255.2	3.74
255.581	2.89
255.962	1.45
256.343	2.8
256.724	2.64
257.105	3.79
257.486	2.83
257.867	3.27
258.247	2.73
258.628	2.35
259.009	2.52
259.389	3.54
259.77	2.68
260.15	2.16
260.531	2.52
260.911	3.89
261.292	3.4
261.672	3.53
262.052	3.53
262.432	3.7
262.813	3.41
263.193	3.39
263.573	2.92
263.953	2.56
264.333	3.57
264.713	3.42
265.093	2.74
265.473	3.35
265.853	1.82
266.233	2.66
266.612	1.28
266.992	2.08
267.372	3.31
267.752	2.77
268.131	3.67
268.511	3.86
268.89	3.78
269.27	3.17
269.649	2.11
270.029	3.28
270.408	4.33
270.787	3.81
271.167	3.63
271.546	3.71
271.925	2.59
272.304	3.23
272.683	3.68
273.062	3.06
273.441	3.34
273.82	3.02
274.199	3.16
274.578	3.15
274.957	3.29
275.336	3.24
275.715	3.18
276.093	3.11
276.472	2.93
276.851	3.36
277.229	2.87
277.608	2.57
277.986	2.84
278.365	2.69
278.743	3.26
279.122	2.37
279.5	3.11
279.878	3.72
280.257	3.27
280.635	2.9
281.013	3.35
281.391	3.85
281.769	2.86
282.147	3.74
282.525	3.39
282.903	2.84
283.281	3.41
283.659	4.17
284.037	3.07
284.415	3.52
284.792	3.17
285.17	2.88
285.548	2.68
285.925	2.79
286.303	2.96
286.68	3.16
287.058	2.89
287.435	3.11
287.813	3.22
288.19	2.89
288.567	3.13
288.945	3.59
289.322	2.7
289.699	2.73
290.076	3.03
290.453	2.94
290.83	2.64
291.207	2.28
291.584	2.87
291.961	3.68
292.338	3.22
292.715	3.23
293.092	3.06
293.469	3.32
293.845	3.59
294.222	2.92
294.599	3.16
294.975	2.86
295.352	3.51
295.728	2.47
296.105	2.95
296.481	3.19
296.858	3.2
297.234	2.97
297.61	3.42
297.986	3.1
298.363	3.64
298.739	3.24
299.115	2.9
299.491	3.15
299.867	3.29
300.243	3.24
300.619	3.13
300.995	3.02
301.371	3.03
301.746	2.9
302.122	3.86
302.498	2.84
302.874	3.44
303.249	3.21
303.625	3.16
304	3.31
304.376	3.07
304.751	2.48
305.127	3.79
305.502	2.97
305.878	2.48
306.253	2.73
306.628	3.48
307.003	2.65
307.378	3.17
307.754	3.57
308.129	2.62
308.504	3.22
308.879	2.84
309.254	4.02
309.629	3.72
310.003	3.06
310.378	3.39
310.753	3.44
311.128	3.72
311.502	3.47
311.877	3.92
312.252	2.37
312.626	3.12
313.001	3.21
313.375	3.64
313.75	3.19
314.124	3.41
314.498	3.31
314.873	3.48
315.247	3.04
315.621	3.36
315.995	2.55
316.369	3.27
316.743	2.8
317.117	3.43
317.491	3.14
317.865	3.14
318.239	3.52
318.613	3.34
318.987	2.83
319.361	2.53
319.734	3.14
320.108	2.83
320.482	3.28
320.855	3.69
321.229	3.51
321.602	2.82
321.976	3.64
322.349	3.12
322.723	2.34
323.096	3.58
323.469	2.95
323.843	2.77
324.216	4.12
324.589	3.52
324.962	3.41
325.335	3.4
325.708	3.07
326.081	2.89
326.454	3.29
326.827	3.4
327.2	3.51
327.573	3.76
327.945	3.65
328.318	3.14
328.691	2.56
329.063	2.87
329.436	3.07
329.809	3.69
330.181	2.87
330.553	2.59
330.926	3.17
331.298	3.55
331.671	3.05
332.043	3.98
332.415	3.48
332.787	3.5
333.159	4.09
333.532	3.52
333.904	2.7
334.276	3.51
334.648	3.36
335.02	3.85
335.391	3.06
335.763	2.83
336.135	3.06
336.507	3.58
336.879	3.57
337.25	3.06
337.622	2.91
337.993	3.27
338.365	3.32
338.736	3.54
339.108	3.55
339.479	3.12
339.851	3.63
340.222	3.77
340.593	3.15
340.964	3.52
341.336	4.21
341.707	3.01
342.078	3.82
342.449	3.71
342.82	3.38
343.191	3.78
343.562	3.25
343.933	3.64
344.303	3.07
344.674	3.37
345.045	3.66
345.416	3.56
345.786	3.11
346.157	3.89
346.527	2.84
346.898	3.27
347.268	3.44
347.639	3.35
348.009	3.66
348.38	3.32
348.75	3.18
349.12	2.99
349.49	3.86
349.861	3.84
350.231	3.01
350.601	3.64
350.971	3.29
351.341	3.38
351.711	3.73
352.081	3.51
352.45	3.7
352.82	3.81
353.19	3.1
353.56	3.39
353.929	3.79
354.299	3.55
354.669	3.11
355.038	3.98
355.408	3.71
355.777	3.59
356.147	3.2
356.516	3.72
356.885	3.9
357.254	3.75
357.624	4.19
357.993	3.8
358.362	3.32
358.731	3.37
359.1	3.6
359.469	3.61
359.838	3.65
360.207	3.31
360.576	3.69
360.945	3.9
361.314	4.16
361.682	3.55
362.051	3.55
362.42	3.95
362.788	3.61
363.157	3.69
363.525	3.8
363.894	3.69
364.262	3.43
364.631	3.67
364.999	3.48
365.367	3.47
365.735	4.38
366.104	3.84
366.472	3.69
366.84	3.51
367.208	3.29
367.576	4.07
367.944	3.98
368.312	3.9
368.68	3.41
369.048	3.86
369.416	3.59
369.783	3.6
370.151	3.83
370.519	3.93
370.886	3.72
371.254	3.65
371.621	3.93
371.989	4.07
372.356	3.57
372.724	3.48
373.091	3.51
373.458	3.86
373.826	3.49
374.193	3.38
374.56	4.03
374.927	4.03
375.294	3.66
375.661	3.41
376.028	3.79
376.395	3.77
376.762	3.95
377.129	3.66
377.496	3.62
377.863	3.69
378.229	3.49
378.596	3.72
378.963	3.67
379.329	3.92
379.696	3.82
380.062	4.01
380.429	3.65
380.795	4.08
381.161	3.88
381.528	4.08
381.894	3.89
382.26	3.49
382.626	4.02
382.993	3.53
383.359	4.04
383.725	3.62
384.091	3.79
384.457	4.26
384.823	3.69
385.188	3.84
385.554	3.87
385.92	3.89
386.286	4.04
386.651	3.89
387.017	4.11
387.383	3.88
387.748	3.61
388.114	4.05
388.479	3.65
388.845	4.15
389.21	3.83
389.575	3.9
389.94	4
390.306	3.87
390.671	3.92
391.036	3.54
391.401	3.57
391.766	3.94
392.131	3.68
392.496	4.06
392.861	3.64
393.226	4.2
393.591	3.94
393.956	3.61
394.32	3.85
394.685	3.73
395.05	3.77
395.414	3.77
395.779	3.62
396.143	3.97
396.508	4.09
396.872	3.92
397.236	3.93
397.601	3.75
397.965	3.92
398.329	3.93
398.694	4.13
399.058	4.2
399.422	3.81
399.786	4.14
400.15	3.89
400.514	3.82
400.878	3.77
401.242	4.1
401.605	3.96
401.969	3.94
402.333	3.91
402.697	3.89
403.06	3.9
403.424	3.99
403.787	4
404.151	4.1
404.514	3.94
404.878	3.89
405.241	4.21
405.604	3.9
405.968	3.95
406.331	4.07
406.694	4.16
407.057	4.19
407.42	4.23
407.783	3.99
408.146	4.1
408.509	3.95
408.872	3.92
409.235	4.36
409.598	4.12
409.961	4.23
410.323	4.25
410.686	3.97
411.049	3.84
411.411	3.85
411.774	3.94
412.136	4.15
412.499	4.07
412.861	3.72
413.223	3.96
413.586	3.94
413.948	4.16
414.31	4.09
414.672	3.8
415.035	3.64
415.397	4.39
415.759	3.91
416.121	4.27
416.483	4.02
416.845	4.22
417.206	4.26
417.568	4.14
417.93	3.87
418.292	4.21
418.653	4.02
419.015	4.16
419.377	4.12
419.738	4.09
420.1	4.07
420.461	3.96
420.822	3.97
421.184	4.03
421.545	4.1
421.906	4
422.267	4.03
422.629	3.97
422.99	3.95
423.351	4
423.712	4.11
424.073	3.98
424.434	3.94
424.795	3.91
425.155	4
425.516	3.93
425.877	4
426.238	4.02
426.598	4.11
426.959	3.98
427.32	3.86
427.68	4.06
428.041	3.96
428.401	4.09
428.761	4.05
429.122	4.09
429.482	3.87
429.842	4.18
430.202	4.17
430.563	4.16
430.923	4.16
431.283	4.34
431.643	4.03
432.003	4.13
432.363	4.25
432.722	3.96
433.082	4.23
433.442	4.36
433.802	4
434.161	4.13
434.521	4.24
434.881	4.29
435.24	4.01
435.6	4.19
435.959	4.08
436.319	4.02
436.678	4.21
437.037	4.05
437.396	4.22
437.756	4.17
438.115	4.15
438.474	4.08
438.833	4.08
439.192	4.1
439.551	4.41
439.91	4.36
440.269	4.31
440.628	4.22
440.987	4.3
441.345	3.98
441.704	4.23
442.063	4.19
442.421	4.18
442.78	4.08
443.138	4.1
443.497	4.2
443.855	3.94
444.214	4.19
444.572	4.37
444.93	4.25
445.288	4.32
445.647	4.38
446.005	4.21
446.363	4.42
446.721	4.33
447.079	4.09
447.437	4.05
447.795	4.22
448.153	4.06
448.51	4.17
448.868	4.2
449.226	4.15
449.584	4.18
449.941	4.29
450.299	4.3
450.656	4.22
451.014	4.22
451.371	4.1
451.729	4.21
452.086	4.47
452.443	4.26
452.801	4.27
453.158	4.24
453.515	4.12
453.872	4.31
454.229	4.15
454.586	4.31
454.943	4.39
455.3	4.3
455.657	4.15
456.014	4.1
456.371	4.24
456.727	4.29
457.084	4.32
457.441	4.42
457.797	4.27
458.154	4.55
458.51	4.39
458.867	4.38
459.223	4.45
459.58	4.29
459.936	4.45
460.292	4.32
460.648	4.27
461.005	4.28
461.361	4.38
461.717	4.3
462.073	4.22
462.429	4.27
462.785	4.26
463.141	4.29
463.496	4.29
463.852	4.49
464.208	4.3
464.564	4.44
464.919	4.5
465.275	4.29
465.631	4.56
465.986	4.56
466.342	4.24
466.697	4.17
467.052	4.4
467.408	4.55
467.763	4.56
468.118	4.42
468.473	4.35
468.829	4.39
469.184	4.31
469.539	4.48
469.894	4.31
470.249	4.48
470.603	4.7
470.958	4.53
471.313	4.63
471.668	4.68
472.023	4.56
472.377	4.43
472.732	4.49
473.086	4.25
473.441	4.34
473.795	4.57
474.15	4.48
474.504	4.48
474.859	4.42
475.213	4.41
475.567	4.31
475.921	4.25
476.275	4.46
476.63	4.54
476.984	4.53
477.338	4.41
477.692	4.32
478.045	4.54
478.399	4.41
478.753	4.57
479.107	4.6
479.461	4.28
479.814	4.47
480.168	4.38
480.521	4.48
480.875	4.59
481.228	4.51
481.582	4.5
481.935	4.35
482.289	4.6
482.642	4.48
482.995	4.27
483.348	4.37
483.701	4.42
484.055	4.48
484.408	4.57
484.761	4.42
485.114	4.3
485.466	4.25
485.819	4.18
486.172	4.19
486.525	4.24
486.878	4.36
487.23	4.4
487.583	4.39
487.936	4.49
488.288	4.46
488.641	4.38
488.993	4.31
489.345	4.25
489.698	4.32
490.05	4.34
490.402	4.39
490.754	4.43
491.107	4.47
491.459	4.58
491.811	4.55
492.163	4.54
492.515	4.51
492.866	4.6
493.218	4.4
493.57	4.35
493.922	4.35
494.274	4.47
494.625	4.54
494.977	4.58
495.328	4.61
495.68	4.61
496.031	4.63
496.383	4.6
496.734	4.79
497.086	4.74
497.437	4.79
497.788	4.72
498.139	4.64
498.49	4.67
498.842	4.57
499.193	4.65
499.544	4.66
499.894	4.65
500.245	4.7
500.596	4.56
500.947	4.84
501.298	4.53
501.648	4.73
501.999	4.79
502.35	4.82
502.7	4.71
503.051	4.65
503.401	4.61
503.752	4.88
504.102	4.7
504.452	4.82
504.803	4.78
505.153	4.68
505.503	4.77
505.853	4.72
506.203	4.8
506.553	4.76
506.903	4.76
507.253	4.8
507.603	4.8
507.953	4.78
508.303	4.88
508.652	4.67
509.002	4.85
509.352	4.9
509.701	4.67
510.051	4.84
510.4	4.77
510.75	4.76
511.099	4.65
511.449	4.77
511.798	4.83
512.147	4.82
512.496	4.72
512.846	4.95
513.195	4.81
513.544	4.72
513.893	4.91
514.242	4.78
514.591	4.95
514.939	4.79
515.288	4.85
515.637	4.9
515.986	4.89
516.334	4.98
516.683	4.97
517.032	4.91
517.38	5.02
517.729	4.91
518.077	4.79
518.426	5.1
518.774	5.08
519.122	4.89
519.47	4.94
519.819	4.81
520.167	4.94
520.515	4.82
520.863	4.84
521.211	4.96
521.559	4.98
521.907	4.9
522.255	4.97
522.602	4.91
522.95	4.87
523.298	4.95
523.645	5.18
523.993	5.03
524.341	5.17
524.688	5.08
525.036	5.1
525.383	5.13
525.73	5.12
526.078	5.08
526.425	5.07
526.772	5.18
527.119	5
527.466	4.95
527.814	4.91
528.161	4.92
528.508	5.09
528.854	5.06
529.201	4.95
529.548	5.03
529.895	5
530.242	4.84
530.588	4.82
530.935	4.87
531.282	4.93
531.628	4.91
531.975	5.06
532.321	5.08
532.667	5.09
533.014	5.14
533.36	5.29
533.706	5.1
534.052	5.17
534.399	5.06
534.745	5.07
535.091	5.03
535.437	5.05
535.783	5.1
536.129	5.16
536.474	5.19
536.82	5.16
537.166	5.29
537.512	5.23
537.857	5.34
538.203	5.35
538.549	5.19
538.894	5.27
539.239	5.36
539.585	5.3
539.93	5.3
540.276	5.52
540.621	5.45
540.966	5.43
541.311	5.3
541.656	5.32
542.001	5.3
542.346	5.54
542.691	5.26
543.036	5.22
543.381	5.22
543.726	5.27
544.071	5.35
544.415	5.42
544.76	5.38
545.105	5.47
545.449	5.48
545.794	5.62
546.138	5.54
546.483	5.62
546.827	5.64
547.171	5.54
547.516	5.77
547.86	5.52
548.204	5.55
548.548	5.47
548.892	5.58
549.236	5.59
549.58	5.61
549.924	5.67
550.268	5.78
550.612	5.75
550.956	5.89
551.3	5.73
551.643	5.91
551.987	5.88
552.33	5.83
552.674	5.94
553.017	5.82
553.361	5.62
553.704	6
554.048	5.92
554.391	5.86
554.734	5.91
555.077	5.86
555.42	5.83
555.764	5.98
556.107	5.7
556.45	5.88
556.793	6.17
557.135	6.07
557.478	6.3
557.821	6.2
558.164	6.12
558.507	6.1
558.849	6.29
559.192	6.27
559.534	6.13
559.877	6.39
560.219	5.98
560.562	6.46
560.904	6.13
561.246	6.08
561.589	6.31
561.931	6.1
562.273	6.09
562.615	6.35
562.957	6.24
563.299	6.18
563.641	6.28
563.983	6.23
564.325	6.25
564.667	6.22
565.008	6.38
565.35	6.4
565.692	6.13
566.033	6.26
566.375	6.55
566.716	6.69
567.058	6.28
567.399	6.2
567.741	6.47
568.082	6.34
568.423	6.32
568.764	6.31
569.105	6.54
569.447	6.58
569.788	6.41
570.129	6.77
570.47	6.51
570.811	6.66
571.151	6.71
571.492	6.78
571.833	6.72
572.174	6.72
572.514	6.96
572.855	6.83
573.195	6.74
573.536	6.79
573.876	6.63
574.217	6.65
574.557	6.62
574.898	6.93
575.238	6.93
575.578	6.78
575.918	6.99
576.258	7.03
576.598	7.01
576.938	7.11
577.278	6.88
577.618	6.79
577.958	6.83
578.298	6.93
578.638	6.91
578.977	6.96
579.317	7.15
579.657	7.21
579.996	7.14
580.336	7.13
580.675	7.26
581.014	7.5
581.354	7.31
581.693	7.27
582.032	7.18
582.372	7.25
582.711	7.41
583.05	7.33
583.389	7.53
583.728	7.36
584.067	7.62
584.406	7.62
584.745	7.46
585.083	7.56
585.422	7.68
585.761	7.63
586.1	7.74
586.438	7.34
586.777	7.85
587.115	7.66
587.454	7.75
587.792	7.34
588.13	7.92
588.469	7.51
588.807	7.69
589.145	7.53
589.483	7.89
589.821	7.76
590.159	7.75
590.497	8.27
590.835	8.13
591.173	7.9
591.511	8.11
591.849	8.11
592.187	7.96
592.524	8.13
592.862	8.25
593.2	8.14
593.537	7.77
593.875	8
594.212	8.21
594.55	8.03
594.887	8.56
595.224	8.2
595.561	8.24
595.899	8.15
596.236	8.29
596.573	8.13
596.91	8
597.247	8.07
597.584	8.58
597.921	8.41
598.258	8.21
598.594	8.5
598.931	8.21
599.268	8.43
599.604	8.44
599.941	8.66
600.277	8.47
600.614	8.42
600.95	8.43
601.287	8.82
601.623	8.49
601.959	8.56
602.296	8.92
602.632	8.68
602.968	8.79
603.304	8.8
603.64	8.64
603.976	9.06
604.312	8.72
604.648	8.81
604.984	9.28
605.319	8.79
605.655	8.85
605.991	8.83
606.326	8.94
606.662	8.9
606.998	8.92
607.333	9.18
607.668	9.19
608.004	9.13
608.339	9.45
608.674	9.13
609.01	9.19
609.345	9.03
609.68	9.42
610.015	9.28
610.35	9.63
610.685	9.26
611.02	9.3
611.355	9.59
611.689	9.38
612.024	9.42
612.359	9.06
612.694	9.64
613.028	9.47
613.363	9.65
613.697	9.85
614.032	9.63
614.366	9.66
614.7	10.24
615.035	9.6
615.369	9.68
615.703	10.08
616.037	10.01
616.371	9.45
616.705	9.9
617.039	10.04
617.373	10.04
617.707	9.53
618.041	9.72
618.375	10.36
618.709	9.87
619.042	10.22
619.376	10.36
619.71	10.39
620.043	10.24
620.377	10.09
620.71	10.49
621.043	9.94
621.377	10.75
621.71	10.46
622.043	10.7
622.376	10.17
622.709	10.39
623.043	10.62
623.376	10.82
623.709	10.31
624.041	10.85
624.374	10.27
624.707	10.33
625.04	10.91
625.373	10.41
625.705	10.78
626.038	10.73
626.37	10.77
626.703	10.96
627.035	10.77
627.368	10.95
627.7	10.91
628.032	10.99
628.365	11.2
628.697	10.86
629.029	10.58
629.361	10.9
629.693	11.02
630.025	10.78
630.357	11.05
630.689	11.27
631.021	11.19
631.353	11.3
631.684	11.03
632.016	11.05
632.348	11.31
632.679	11.4
633.011	11.6
633.342	11.59
633.674	11.64
634.005	11.54
634.336	11.46
634.668	12.22
634.999	11.45
635.33	11.65
635.661	11.71
635.992	11.58
636.323	11.57
636.654	11.69
636.985	11.59
637.316	11.65
637.647	11.59
637.977	12.28
638.308	12.19
638.639	11.62
638.969	11.85
639.3	11.89
639.63	11.19
639.961	12.07
640.291	11.92
640.622	12.39
640.952	12.02
641.282	12.5
641.612	12.29
641.943	11.92
642.273	11.85
642.603	12.49
642.933	12.14
643.263	12.79
643.592	12.2
643.922	12.09
644.252	12.56
644.582	12.33
644.911	12.15
645.241	12.72
645.571	12.51
645.9	12.43
646.23	12.58
646.559	12.66
646.888	12.47
647.218	12.62
647.547	12.79
647.876	12.95
648.205	13.11
648.534	12.47
648.863	12.75
649.192	13.07
649.521	12.98
649.85	13.21
650.179	12.87
650.508	13.15
650.837	13.06
651.165	12.71
651.494	13.56
651.822	13.24
652.151	13.29
652.479	12.89
652.808	13.18
653.136	13.42
653.465	12.62
653.793	12.95
654.121	13.56
654.449	13.48
654.777	13.82
655.105	13.37
655.433	13.18
655.761	13.61
656.089	13.78
656.417	13.32
656.745	13.58
657.073	13.31
657.4	14.49
657.728	13.76
658.056	13.57
658.383	13.7
658.711	14.32
659.038	13.59
659.365	14.27
659.693	13.87
660.02	13.41
660.347	13.9
660.674	14.44
661.001	13.79
661.329	13.58
661.656	14.34
661.982	14.16
662.309	14.13
662.636	13.84
662.963	14.47
663.29	14.73
663.616	14.52
663.943	13.86
664.27	14.8
664.596	15
664.923	14.95
665.249	14.3
665.576	13.96
665.902	15.14
666.228	14.94
666.554	15.45
666.881	14.41
667.207	14.55
667.533	14.91
667.859	14.99
668.185	15.59
668.511	15
668.837	14.5
669.162	14.91
669.488	14.08
669.814	14.98
670.139	15.46
670.465	15.74
670.791	15.46
671.116	15.45
671.442	15.11
671.767	15.36
672.092	15.56
672.418	15.68
672.743	15.19
673.068	15.35
673.393	15.51
673.718	15.61
674.043	16
674.368	15.24
674.693	16.58
675.018	15.89
675.343	16.12
675.667	15.89
675.992	15.92
676.317	16.3
676.641	15.82
676.966	15.68
677.29	15.93
677.615	15.53
677.939	16.24
678.264	16.94
678.588	16.79
678.912	16.51
679.236	17.09
679.56	15.67
679.885	16.62
680.209	15.82
680.532	16.38
680.856	16.51
681.18	15.74
681.504	17.14
681.828	16.55
682.152	16.35
682.475	16
682.799	16.83
683.122	16.16
683.446	16.51
683.769	17.15
684.093	16.31
684.416	16.87
684.739	16.53
685.062	16.26
685.386	17.28
685.709	16.52
686.032	17.1
686.355	16.95
686.678	16.39
687.001	17
687.324	17.19
687.646	16.99
