Data from 427_crown_Reflection__3__147.txt Node

Date: Fri Dec 15 17:57:33 CST 2023
User: ToomeyLab
Spectrometer: FLMS14357
Trigger mode: 0
Integration Time (sec): 1.000000E-2
Scans to average: 100
Electric dark correction enabled: true
Nonlinearity correction enabled: false
Boxcar width: 0
XAxis mode: Wavelengths
Number of Pixels in Spectrum: 2048
>>>>>Begin Spectral Data<<<<<
189.047	14.45
189.435	14.45
189.823	14.45
190.211	144.08
190.599	-4.17
190.987	144.08
191.375	-741.97
191.763	1370.11
192.151	1418.06
192.538	87.5
192.926	116.4
193.314	88.23
193.702	-88.37
194.089	477.31
194.477	522.79
194.864	95.56
195.252	164.92
195.639	145.23
196.027	130.63
196.414	443.52
196.801	112.5
197.189	-64.83
197.576	438.45
197.963	-60.65
198.351	-97.22
198.738	-18.04
199.125	154.13
199.512	56.13
199.899	47.41
200.286	45.52
200.673	-48.4
201.06	2.71
201.447	-10.1
201.833	44.48
202.22	42.47
202.607	31.9
202.994	36.53
203.38	30.6
203.767	56.37
204.154	39.73
204.54	57.45
204.927	-5.6
205.313	-13.81
205.699	42.01
206.086	52.26
206.472	48.61
206.858	1.01
207.245	-159.51
207.631	7.75
208.017	1.52
208.403	13.77
208.789	8.19
209.175	38.66
209.561	-2.03
209.947	-36.89
210.333	-16.74
210.719	18.62
211.105	27.85
211.491	-6.24
211.876	2.65
212.262	60.5
212.648	29.79
213.034	30.31
213.419	-1.12
213.805	9.64
214.19	-1.89
214.576	16.99
214.961	-5.26
215.346	-50.83
215.732	5.35
216.117	9.44
216.502	-12.25
216.888	11.62
217.273	37.75
217.658	24.08
218.043	29.73
218.428	-36.06
218.813	-47.34
219.198	-57.27
219.583	6.57
219.968	20.74
220.353	19.62
220.738	-1.24
221.122	36.22
221.507	-29.21
221.892	-23.63
222.276	-17.52
222.661	1.62
223.046	18.49
223.43	8.39
223.815	33.03
224.199	-10.21
224.583	0.69
224.968	0.42
225.352	22.33
225.736	1.61
226.121	2.75
226.505	8.97
226.889	8.85
227.273	2.79
227.657	7.55
228.041	7.87
228.425	9.28
228.809	16.2
229.193	4.51
229.577	6.86
229.961	6.25
230.344	6.07
230.728	6.13
231.112	6.8
231.495	6.46
231.879	6.91
232.263	7.18
232.646	5.56
233.03	6.71
233.413	5.35
233.797	5.21
234.18	5.41
234.563	5.06
234.946	5.7
235.33	5.47
235.713	7.58
236.096	6.22
236.479	8.08
236.862	4.88
237.245	7.65
237.628	4.17
238.011	7.32
238.394	6.55
238.777	7.95
239.16	6.22
239.543	6.25
239.925	7.07
240.308	7.32
240.691	8.5
241.073	7.49
241.456	5.7
241.838	5.55
242.221	5.08
242.603	6.77
242.986	6.21
243.368	6.86
243.75	6.45
244.133	5.52
244.515	6.33
244.897	6.01
245.279	5.97
245.661	6.04
246.043	5.42
246.425	5.15
246.807	7.48
247.189	6.53
247.571	6.63
247.953	6.58
248.335	5.61
248.717	5.97
249.098	5.76
249.48	6.04
249.862	5.52
250.243	6.1
250.625	5.58
251.006	6.69
251.388	5.19
251.769	6.53
252.151	5.88
252.532	4.62
252.913	4.83
253.295	5.74
253.676	5.49
254.057	5.98
254.438	5.83
254.819	5.73
255.2	5.5
255.581	5.62
255.962	4.23
256.343	6.64
256.724	5.35
257.105	5.36
257.486	4.99
257.867	5.53
258.247	4.68
258.628	5.52
259.009	5.07
259.389	5.72
259.77	5.01
260.15	4.71
260.531	4.27
260.911	5.96
261.292	5.27
261.672	5.55
262.052	5.55
262.432	5.77
262.813	5.96
263.193	5.37
263.573	4.95
263.953	6.04
264.333	5.89
264.713	5.33
265.093	4.98
265.473	6.05
265.853	5.38
266.233	5.02
266.612	2.57
266.992	5.19
267.372	5.17
267.752	4.09
268.131	5.15
268.511	5.59
268.89	4.97
269.27	5.1
269.649	4.44
270.029	5.16
270.408	5.85
270.787	5.87
271.167	5.24
271.546	6.08
271.925	4.67
272.304	5.29
272.683	5.77
273.062	5.29
273.441	5.69
273.82	4.65
274.199	5.38
274.578	5.1
274.957	5.26
275.336	5.3
275.715	4.99
276.093	5.03
276.472	4.76
276.851	5.28
277.229	4.69
277.608	4.98
277.986	4.48
278.365	5.24
278.743	5.37
279.122	5.34
279.5	4.9
279.878	5.19
280.257	4.63
280.635	4.88
281.013	4.64
281.391	5.03
281.769	5.44
282.147	5.62
282.525	5.99
282.903	4.54
283.281	5.43
283.659	4.91
284.037	5.12
284.415	5.4
284.792	5.07
285.17	4.04
285.548	4.6
285.925	5.17
286.303	5.02
286.68	5.17
287.058	4.66
287.435	4.95
287.813	4.7
288.19	4.68
288.567	4.52
288.945	5.08
289.322	4.96
289.699	5.09
290.076	4.91
290.453	4.56
290.83	4.66
291.207	4.39
291.584	4.7
291.961	5.19
292.338	4.3
292.715	4.9
293.092	5.02
293.469	4.59
293.845	4.77
294.222	4.74
294.599	5.55
294.975	4.15
295.352	5.53
295.728	4.34
296.105	4.35
296.481	5.02
296.858	4.47
297.234	4.68
297.61	4.3
297.986	4.85
298.363	4.72
298.739	4.61
299.115	4.41
299.491	4.77
299.867	4.52
300.243	5
300.619	4.24
300.995	4.46
301.371	4.52
301.746	5.4
302.122	5.38
302.498	4.43
302.874	5.24
303.249	4.55
303.625	4.73
304	4.88
304.376	4.87
304.751	4.68
305.127	5.04
305.502	3.74
305.878	3.92
306.253	4.26
306.628	5.03
307.003	4.48
307.378	4.96
307.754	5.43
308.129	4.18
308.504	5.39
308.879	5.19
309.254	5.13
309.629	4.85
310.003	4.75
310.378	5.18
310.753	4.76
311.128	4.51
311.502	4.85
311.877	5.28
312.252	4.77
312.626	4.63
313.001	4.89
313.375	4.25
313.75	4.2
314.124	4.62
314.498	4.31
314.873	4.22
315.247	4.44
315.621	4.69
315.995	4.09
316.369	4.52
316.743	4.8
317.117	4.73
317.491	4.53
317.865	4.28
318.239	5.01
318.613	4.65
318.987	4.9
319.361	3.98
319.734	4.97
320.108	4.63
320.482	4.13
320.855	4.69
321.229	4.55
321.602	3.86
321.976	4.93
322.349	4.51
322.723	4.28
323.096	5.13
323.469	3.92
323.843	4.08
324.216	4.87
324.589	3.95
324.962	4.52
325.335	4.3
325.708	4.01
326.081	4.71
326.454	4.83
326.827	4.85
327.2	4.85
327.573	4.92
327.945	4.78
328.318	4.29
328.691	3.68
329.063	4.13
329.436	4.23
329.809	4.89
330.181	5.12
330.553	4.66
330.926	4.59
331.298	4.34
331.671	5.02
332.043	4.97
332.415	4.73
332.787	4.28
333.159	5.08
333.532	5.11
333.904	4.66
334.276	4.11
334.648	4.32
335.02	4.85
335.391	4.6
335.763	4.12
336.135	4.46
336.507	4.49
336.879	4.76
337.25	4.1
337.622	4.06
337.993	4.43
338.365	4.9
338.736	5.16
339.108	4.47
339.479	4.33
339.851	3.96
340.222	4.18
340.593	4.83
340.964	4.04
341.336	4.92
341.707	4.55
342.078	5.43
342.449	4.6
342.82	4.49
343.191	4.72
343.562	4.61
343.933	4.62
344.303	4.56
344.674	4.59
345.045	4.5
345.416	5.29
345.786	4.2
346.157	4.4
346.527	4.45
346.898	4
347.268	4.99
347.639	4.7
348.009	4.88
348.38	4.47
348.75	4.89
349.12	4.44
349.49	5.24
349.861	5.02
350.231	4.41
350.601	4.26
350.971	4.74
351.341	4.94
351.711	4.17
352.081	4.71
352.45	4.51
352.82	4.8
353.19	4.79
353.56	4.63
353.929	4.86
354.299	4.5
354.669	4.46
355.038	4.92
355.408	4.5
355.777	4.86
356.147	4.3
356.516	4.91
356.885	4.93
357.254	4.65
357.624	5.16
357.993	4.95
358.362	4.49
358.731	4.36
359.1	4.69
359.469	4.83
359.838	4.88
360.207	4.55
360.576	4.55
360.945	4.34
361.314	5.25
361.682	4.4
362.051	4.58
362.42	4.7
362.788	4.52
363.157	4.84
363.525	4.97
363.894	4.68
364.262	4.62
364.631	4.74
364.999	4.87
365.367	4.13
365.735	5.49
366.104	5.05
366.472	4.79
366.84	4.64
367.208	4.96
367.576	4.91
367.944	4.64
368.312	4.45
368.68	4.69
369.048	4.95
369.416	4.75
369.783	4.45
370.151	4.87
370.519	5.2
370.886	5
371.254	4.64
371.621	5.23
371.989	4.75
372.356	4.2
372.724	4.67
373.091	4.69
373.458	4.74
373.826	4.66
374.193	5.22
374.56	4.93
374.927	4.9
375.294	4.72
375.661	4.75
376.028	4.55
376.395	5.11
376.762	5.02
377.129	4.81
377.496	4.86
377.863	4.69
378.229	4.56
378.596	4.83
378.963	4.97
379.329	4.82
379.696	5
380.062	5.14
380.429	4.7
380.795	4.79
381.161	4.8
381.528	5.07
381.894	4.96
382.26	4.44
382.626	4.9
382.993	4.7
383.359	5.02
383.725	4.99
384.091	4.87
384.457	4.91
384.823	4.71
385.188	5.26
385.554	4.71
385.92	4.46
386.286	5.38
386.651	5.02
387.017	5.27
387.383	5.05
387.748	5.08
388.114	5.17
388.479	4.74
388.845	4.81
389.21	4.91
389.575	5.07
389.94	5.11
390.306	5.08
390.671	5.19
391.036	4.65
391.401	4.49
391.766	4.98
392.131	4.68
392.496	4.94
392.861	4.76
393.226	5.14
393.591	4.99
393.956	4.97
394.32	4.73
394.685	4.7
395.05	4.99
395.414	4.84
395.779	4.77
396.143	4.86
396.508	5.05
396.872	5.06
397.236	5.23
397.601	4.58
397.965	4.9
398.329	4.99
398.694	5.19
399.058	5.03
399.422	4.7
399.786	5.14
400.15	5.19
400.514	5.09
400.878	5.07
401.242	5.11
401.605	4.99
401.969	5.27
402.333	4.95
402.697	4.97
403.06	5.1
403.424	5.08
403.787	5.02
404.151	5.1
404.514	5.09
404.878	5.04
405.241	5.36
405.604	4.89
405.968	5.24
406.331	4.91
406.694	4.88
407.057	4.93
407.42	5.54
407.783	4.92
408.146	5.2
408.509	5.11
408.872	4.89
409.235	5.02
409.598	5.3
409.961	5.25
410.323	5.11
410.686	4.92
411.049	5.07
411.411	5.04
411.774	4.96
412.136	4.96
412.499	4.88
412.861	4.9
413.223	4.88
413.586	5.27
413.948	5.02
414.31	5.37
414.672	4.77
415.035	4.89
415.397	5.29
415.759	4.85
416.121	5.06
416.483	5
416.845	5.16
417.206	4.92
417.568	5.22
417.93	4.82
418.292	5.09
418.653	5.13
419.015	5.06
419.377	5.15
419.738	5.08
420.1	5.04
420.461	5.07
420.822	5.06
421.184	5.03
421.545	4.89
421.906	4.8
422.267	5.1
422.629	5.01
422.99	4.96
423.351	4.97
423.712	5.01
424.073	5.11
424.434	5.04
424.795	5.11
425.155	5.11
425.516	4.93
425.877	4.9
426.238	4.88
426.598	5.06
426.959	5.04
427.32	4.87
427.68	5.02
428.041	4.99
428.401	5
428.761	5.11
429.122	5.13
429.482	5.05
429.842	5.27
430.202	4.98
430.563	5.17
430.923	4.98
431.283	5.38
431.643	5.14
432.003	5.1
432.363	5.31
432.722	4.96
433.082	5.21
433.442	5.15
433.802	4.92
434.161	4.86
434.521	5.29
434.881	5.16
435.24	4.97
435.6	5.12
435.959	4.95
436.319	5.09
436.678	5.04
437.037	5.07
437.396	5.28
437.756	5.16
438.115	5.22
438.474	5.52
438.833	5.22
439.192	5.2
439.551	5.26
439.91	5.18
440.269	5
440.628	5.21
440.987	5.17
441.345	5.07
441.704	5.13
442.063	5.16
442.421	5.07
442.78	5.04
443.138	5.04
443.497	5.13
443.855	5.18
444.214	5.17
444.572	5.14
444.93	5.09
445.288	5.21
445.647	5.42
446.005	5.08
446.363	5.18
446.721	5.34
447.079	5.14
447.437	5.03
447.795	5.22
448.153	4.97
448.51	5.13
448.868	5.14
449.226	5.14
449.584	5.03
449.941	5.24
450.299	5.18
450.656	5.14
451.014	5.22
451.371	5.11
451.729	5.21
452.086	5.31
452.443	5.13
452.801	5.25
453.158	5.24
453.515	5.12
453.872	5.38
454.229	5.1
454.586	5.17
454.943	5.34
455.3	5.24
455.657	5.09
456.014	5.09
456.371	5.28
456.727	5.24
457.084	5.19
457.441	5.23
457.797	5.34
458.154	5.33
458.51	5.33
458.867	5.33
459.223	5.41
459.58	5.23
459.936	5.36
460.292	5.32
460.648	5.3
461.005	5.13
461.361	5.19
461.717	5.19
462.073	5.08
462.429	5.17
462.785	5.29
463.141	5.29
463.496	5.28
463.852	5.51
464.208	5.19
464.564	5.24
464.919	5.37
465.275	5.54
465.631	5.44
465.986	5.22
466.342	5.35
466.697	5.14
467.052	5.4
467.408	5.4
467.763	5.09
468.118	5.35
468.473	5.36
468.829	5.31
469.184	5.08
469.539	5.35
469.894	5.15
470.249	5.42
470.603	5.44
470.958	5.44
471.313	5.44
471.668	5.4
472.023	5.24
472.377	5.3
472.732	5.31
473.086	5.32
473.441	5.08
473.795	5.45
474.15	5.52
474.504	5.46
474.859	5.45
475.213	5.22
475.567	5.31
475.921	5.28
476.275	5.31
476.63	5.28
476.984	5.63
477.338	5.41
477.692	5.17
478.045	5.37
478.399	5.3
478.753	5.41
479.107	5.39
479.461	5.23
479.814	5.35
480.168	5.15
480.521	5.27
480.875	5.19
481.228	5.31
481.582	5.34
481.935	5.29
482.289	5.29
482.642	5.49
482.995	5.19
483.348	5.25
483.701	5.28
484.055	5.22
484.408	5.27
484.761	5.12
485.114	5.16
485.466	4.95
485.819	4.92
486.172	4.97
486.525	5.01
486.878	5.02
487.23	5.07
487.583	5.27
487.936	5.25
488.288	5.21
488.641	5.16
488.993	5.02
489.345	5.04
489.698	5.04
490.05	5.03
490.402	5.14
490.754	5.12
491.107	5.2
491.459	5.22
491.811	5.24
492.163	5.21
492.515	5.15
492.866	5.25
493.218	5.2
493.57	5.08
493.922	5.08
494.274	5.2
494.625	5.3
494.977	5.34
495.328	5.32
495.68	5.33
496.031	5.28
496.383	5.4
496.734	5.45
497.086	5.5
497.437	5.34
497.788	5.32
498.139	5.27
498.49	5.34
498.842	5.22
499.193	5.24
499.544	5.34
499.894	5.29
500.245	5.38
500.596	5.17
500.947	5.39
501.298	5.42
501.648	5.45
501.999	5.56
502.35	5.32
502.7	5.45
503.051	5.28
503.401	5.48
503.752	5.53
504.102	5.52
504.452	5.38
504.803	5.36
505.153	5.32
505.503	5.23
505.853	5.27
506.203	5.37
506.553	5.45
506.903	5.28
507.253	5.24
507.603	5.3
507.953	5.51
508.303	5.49
508.652	5.23
509.002	5.4
509.352	5.31
509.701	5.36
510.051	5.24
510.4	5.35
510.75	5.27
511.099	5.34
511.449	5.37
511.798	5.31
512.147	5.39
512.496	5.38
512.846	5.37
513.195	5.25
513.544	5.36
513.893	5.54
514.242	5.32
514.591	5.49
514.939	5.41
515.288	5.27
515.637	5.5
515.986	5.46
516.334	5.49
516.683	5.41
517.032	5.27
517.38	5.48
517.729	5.51
518.077	5.2
518.426	5.57
518.774	5.46
519.122	5.39
519.47	5.27
519.819	5.25
520.167	5.36
520.515	5.18
520.863	5.33
521.211	5.4
521.559	5.46
521.907	5.33
522.255	5.36
522.602	5.41
522.95	5.38
523.298	5.36
523.645	5.4
523.993	5.35
524.341	5.47
524.688	5.45
525.036	5.43
525.383	5.46
525.73	5.56
526.078	5.34
526.425	5.42
526.772	5.32
527.119	5.35
527.466	5.18
527.814	5.27
528.161	5.29
528.508	5.36
528.854	5.26
529.201	5.27
529.548	5.23
529.895	5.21
530.242	5.11
530.588	5.05
530.935	5.07
531.282	5.13
531.628	5.14
531.975	5.21
532.321	5.29
532.667	5.36
533.014	5.35
533.36	5.27
533.706	5.31
534.052	5.32
534.399	5.29
534.745	5.2
535.091	5.13
535.437	5.22
535.783	5.21
536.129	5.25
536.474	5.23
536.82	5.25
537.166	5.34
537.512	5.43
537.857	5.33
538.203	5.39
538.549	5.32
538.894	5.29
539.239	5.32
539.585	5.45
539.93	5.24
540.276	5.44
540.621	5.48
540.966	5.36
541.311	5.32
541.656	5.31
542.001	5.27
542.346	5.39
542.691	5.24
543.036	5.22
543.381	5.09
543.726	5.08
544.071	5.19
544.415	5.3
544.76	5.21
545.105	5.25
545.449	5.29
545.794	5.27
546.138	5.29
546.483	5.47
546.827	5.51
547.171	5.4
547.516	5.41
547.86	5.35
548.204	5.34
548.548	5.24
548.892	5.37
549.236	5.26
549.58	5.33
549.924	5.41
550.268	5.4
550.612	5.39
550.956	5.58
551.3	5.44
551.643	5.56
551.987	5.54
552.33	5.42
552.674	5.46
553.017	5.31
553.361	5.22
553.704	5.44
554.048	5.35
554.391	5.42
554.734	5.28
555.077	5.5
555.42	5.35
555.764	5.48
556.107	5.48
556.45	5.22
556.793	5.51
557.135	5.52
557.478	5.69
557.821	5.56
558.164	5.32
558.507	5.46
558.849	5.65
559.192	5.59
559.534	5.36
559.877	5.54
560.219	5.47
560.562	5.47
560.904	5.62
561.246	5.62
561.589	5.43
561.931	5.64
562.273	5.26
562.615	5.53
562.957	5.39
563.299	5.29
563.641	5.33
563.983	5.52
564.325	5.29
564.667	5.44
565.008	5.37
565.35	5.53
565.692	5.34
566.033	5.45
566.375	5.45
566.716	5.42
567.058	5.33
567.399	5.36
567.741	5.4
568.082	5.43
568.423	5.33
568.764	5.35
569.105	5.51
569.447	5.47
569.788	5.49
570.129	5.4
570.47	5.3
570.811	5.56
571.151	5.38
571.492	5.42
571.833	5.68
572.174	5.36
572.514	5.27
572.855	5.42
573.195	5.27
573.536	5.46
573.876	5.22
574.217	5.36
574.557	5.41
574.898	5.41
575.238	5.42
575.578	5.47
575.918	5.65
576.258	5.46
576.598	5.52
576.938	5.2
577.278	5.45
577.618	5.33
577.958	5.39
578.298	5.38
578.638	5.31
578.977	5.27
579.317	5.22
579.657	5.23
579.996	5.29
580.336	5.51
580.675	5.59
581.014	5.42
581.354	5.51
581.693	5.4
582.032	5.37
582.372	5.4
582.711	5.27
583.05	5.45
583.389	5.41
583.728	5.19
584.067	5.41
584.406	5.25
584.745	5.39
585.083	5.65
585.422	5.7
585.761	5.59
586.1	5.5
586.438	5.47
586.777	5.68
587.115	5.4
587.454	5.32
587.792	5.37
588.13	5.64
588.469	5.49
588.807	5.43
589.145	5.27
589.483	5.31
589.821	5.48
590.159	5.47
590.497	5.55
590.835	5.84
591.173	5.55
591.511	5.49
591.849	5.41
592.187	5.43
592.524	5.45
592.862	5.44
593.2	5.56
593.537	5.32
593.875	5.13
594.212	5.27
594.55	5.39
594.887	5.65
595.224	5.26
595.561	5.49
595.899	5.4
596.236	5.4
596.573	5.48
596.91	5.11
597.247	5.25
597.584	5.82
597.921	5.53
598.258	5.15
598.594	5.49
598.931	5.3
599.268	5.47
599.604	5.29
599.941	5.34
600.277	5.51
600.614	5.23
600.95	5.22
601.287	5.69
601.623	5.56
601.959	5.21
602.296	5.57
602.632	5.5
602.968	5.58
603.304	5.49
603.64	5.36
603.976	5.32
604.312	5.17
604.648	5.38
604.984	5.48
605.319	5.39
605.655	5.4
605.991	5.29
606.326	5.52
606.662	5.39
606.998	5.21
607.333	5.31
607.668	5.49
608.004	5.53
608.339	5.66
608.674	5.58
609.01	5.38
609.345	5.49
609.68	5.71
610.015	5.35
610.35	5.26
610.685	5.43
611.02	5.36
611.355	5.44
611.689	5.33
612.024	5.35
612.359	5.42
612.694	5.32
613.028	5.4
613.363	5.57
613.697	5.78
614.032	5.55
614.366	5.35
614.7	5.41
615.035	5.62
615.369	5.16
615.703	5.87
616.037	5.45
616.371	5
616.705	5.35
617.039	5.23
617.373	5.63
617.707	5.05
618.041	5.21
618.375	5.15
618.709	5.39
619.042	5.21
619.376	5.7
619.71	5.83
620.043	5.6
620.377	5.58
620.71	5.3
621.043	5.24
621.377	5.56
621.71	5.42
622.043	5.43
622.376	5.57
622.709	5.76
623.043	5.46
623.376	5.76
623.709	5.58
624.041	6.05
624.374	5.5
624.707	5.68
625.04	5.9
625.373	5.02
625.705	5.21
626.038	5.2
626.37	5.71
626.703	5.05
627.035	5.49
627.368	6.26
627.7	5.45
628.032	5.51
628.365	5.81
628.697	5.43
629.029	5.29
629.361	5.35
629.693	5.74
630.025	5.23
630.357	5.53
630.689	5.6
631.021	5.35
631.353	5.4
631.684	5.5
632.016	5.14
632.348	5.33
632.679	5.44
633.011	5.75
633.342	5.96
633.674	5.38
634.005	6.07
634.336	5.42
634.668	5.91
634.999	5.44
635.33	5.55
635.661	5.81
635.992	5.66
636.323	5.46
636.654	5.97
636.985	5.66
637.316	5.19
637.647	5.16
637.977	5.78
638.308	5.68
638.639	4.98
638.969	5.26
639.3	5.37
639.63	5.05
639.961	5.34
640.291	5.05
640.622	5.55
640.952	5.36
641.282	5.75
641.612	5.53
641.943	5.18
642.273	5.45
642.603	5.3
642.933	5.44
643.263	5.74
643.592	5.39
643.922	5.31
644.252	5.49
644.582	5.81
644.911	5.46
645.241	5.16
645.571	5.56
645.9	4.75
646.23	5.57
646.559	5.51
646.888	5.45
647.218	5.25
647.547	5.52
647.876	5.12
648.205	5.42
648.534	5.4
648.863	5
649.192	6.3
649.521	5.43
649.85	5.73
650.179	5.18
650.508	5.31
650.837	5.39
651.165	4.95
651.494	5.42
651.822	6.09
652.151	5.01
652.479	5.49
652.808	5.31
653.136	5.6
653.465	4.54
653.793	5.15
654.121	5
654.449	6
654.777	5.11
655.105	5.51
655.433	4.63
655.761	5.52
656.089	5.46
656.417	5.33
656.745	5.07
657.073	5.44
657.4	5.99
657.728	5.81
658.056	5.49
658.383	5.88
658.711	6.03
659.038	6.04
659.365	5.75
659.693	5.09
660.02	5.68
660.347	5.89
660.674	5.28
661.001	5.45
661.329	4.62
661.656	5.12
661.982	5.42
662.309	5.25
662.636	5.05
662.963	5.9
663.29	5.79
663.616	5.55
663.943	4.8
664.27	5.39
664.596	5.73
664.923	5.41
665.249	5.54
665.576	5.3
665.902	6.06
666.228	5.61
666.554	5.64
666.881	5.65
667.207	4.78
667.533	5.3
667.859	5.45
668.185	5.51
668.511	5.26
668.837	4.07
669.162	5.3
669.488	5.06
669.814	6.14
670.139	5.44
670.465	6.47
670.791	6.04
671.116	6.21
671.442	5.22
671.767	5.72
672.092	5.89
672.418	5.37
672.743	6.05
673.068	5.12
673.393	5.73
673.718	5.68
674.043	5.88
674.368	5.58
674.693	6.38
675.018	5.68
675.343	5.62
675.667	4.86
675.992	5.58
676.317	5.33
676.641	5.24
676.966	5.47
677.29	5.62
677.615	6.17
677.939	5.72
678.264	6.55
678.588	5.75
678.912	6.21
679.236	6.36
679.56	5.32
679.885	6.12
680.209	5.49
680.532	5.74
680.856	6.28
681.18	5.88
681.504	6.03
681.828	5.8
682.152	5.27
682.475	5.47
682.799	5.7
683.122	5.83
683.446	5.37
683.769	6.24
684.093	5.2
684.416	5.89
684.739	5.88
685.062	5.57
685.386	6.16
685.709	5.7
686.032	5.89
686.355	6.08
686.678	5.67
687.001	6.27
687.324	6.72
687.646	5.49
687.969	6.38
688.292	5.32
688.614	5.64
688.937	6.35
689.26	5.66
689.582	5.67
689.904	5.99
690.227	6.11
690.549	5.76
690.871	6.57
691.194	6.11
691.516	5.85
691.838	5.45
692.16	4.99
692.482	6.2
