Data from 427_crown_Reflection__0__144.txt Node

Date: Fri Dec 15 17:57:04 CST 2023
User: ToomeyLab
Spectrometer: FLMS14357
Trigger mode: 0
Integration Time (sec): 1.000000E-2
Scans to average: 100
Electric dark correction enabled: true
Nonlinearity correction enabled: false
Boxcar width: 0
XAxis mode: Wavelengths
Number of Pixels in Spectrum: 2048
>>>>>Begin Spectral Data<<<<<
189.047	-43.3
189.435	-43.3
189.823	-43.3
190.211	-61.97
190.599	341.01
190.987	56.41
191.375	61.97
191.763	1655.98
192.151	-181.02
192.538	304.31
192.926	-44.08
193.314	53.82
193.702	-46.89
194.089	293.06
194.477	2959.56
194.864	186.41
195.252	70.03
195.639	151.28
196.027	104.5
196.414	325.07
196.801	-0.33
197.189	193.51
197.576	182.09
197.963	-93.04
198.351	-62.03
198.738	-32.76
199.125	111.54
199.512	4.27
199.899	-4.02
200.286	34
200.673	0.53
201.06	25.95
201.447	-17.34
201.833	11.79
202.22	34.7
202.607	-6.92
202.994	-11.81
203.38	0.09
203.767	46.75
204.154	70.14
204.54	18.62
204.927	-42.15
205.313	-29.39
205.699	20.99
206.086	9.19
206.472	34.37
206.858	60.06
207.245	-37.7
207.631	8.19
208.017	17.66
208.403	-41.58
208.789	22.46
209.175	11.36
209.561	-18.34
209.947	-2.56
210.333	-101.91
210.719	-8.32
211.105	31.38
211.491	-17.68
211.876	17.58
212.262	3.72
212.648	-14.98
213.034	11.92
213.419	-14.31
213.805	-8.94
214.19	-11.54
214.576	-7.93
214.961	-36.99
215.346	-58.03
215.732	-12.19
216.117	13.32
216.502	8.14
216.888	-9.19
217.273	8.75
217.658	-24.53
218.043	33.08
218.428	-61.39
218.813	-15.72
219.198	-29.1
219.583	-9.79
219.968	-12.88
220.353	-20.17
220.738	22.32
221.122	-0.95
221.507	-46.06
221.892	-2.02
222.276	-23.23
222.661	-4.43
223.046	-4.56
223.43	6.19
223.815	1.88
224.199	-18.01
224.583	4.94
224.968	-3.17
225.352	15.56
225.736	-2.64
226.121	-13.61
226.505	-2.07
226.889	6.77
227.273	-0.07
227.657	9.13
228.041	2.06
228.425	2.16
228.809	5.3
229.193	7.28
229.577	1.39
229.961	2.72
230.344	4.63
230.728	2.39
231.112	4.27
231.495	2.45
231.879	1.68
232.263	3.71
232.646	4.14
233.03	4.23
233.413	3.23
233.797	2.76
234.18	1.98
234.563	4.55
234.946	2.25
235.33	4.1
235.713	3.51
236.096	2.15
236.479	5.62
236.862	2.71
237.245	3.44
237.628	2.94
238.011	3.81
238.394	4.93
238.777	4.03
239.16	-0.51
239.543	5.45
239.925	4.28
240.308	2.43
240.691	3.13
241.073	4.27
241.456	2.02
241.838	4.14
242.221	2.39
242.603	4.7
242.986	3.6
243.368	4.41
243.75	3.46
244.133	3.41
244.515	4.11
244.897	4.24
245.279	4.27
245.661	3.53
246.043	3.12
246.425	3.87
246.807	4.71
247.189	4.01
247.571	4.04
247.953	3.56
248.335	3.65
248.717	3.95
249.098	3.53
249.48	3.77
249.862	4.03
250.243	3.67
250.625	3.26
251.006	3.91
251.388	2.57
251.769	3.14
252.151	3.63
252.532	4.01
252.913	2.79
253.295	1.81
253.676	3.36
254.057	3.47
254.438	3.63
254.819	2.95
255.2	2.1
255.581	2.8
255.962	2.24
256.343	3.83
256.724	2.9
257.105	3.77
257.486	2.72
257.867	3.29
258.247	3.95
258.628	3.55
259.009	3.24
259.389	3.2
259.77	2.29
260.15	2.57
260.531	2.61
260.911	3.61
261.292	3.59
261.672	3.64
262.052	3.63
262.432	3.92
262.813	3.43
263.193	2.94
263.573	3.4
263.953	2.95
264.333	3.99
264.713	3.23
265.093	2.95
265.473	3.52
265.853	1.97
266.233	4.5
266.612	1.18
266.992	2.81
267.372	2.57
267.752	2.61
268.131	3.51
268.511	3.51
268.89	3.85
269.27	3.22
269.649	2.41
270.029	2.48
270.408	4.32
270.787	3.91
271.167	3.53
271.546	3.86
271.925	2.47
272.304	2.96
272.683	3.59
273.062	3.06
273.441	3.49
273.82	2.82
274.199	3.63
274.578	3.17
274.957	3.11
275.336	3.38
275.715	3.36
276.093	3.26
276.472	3.01
276.851	3.1
277.229	3.35
277.608	2.66
277.986	3.37
278.365	3.37
278.743	3.22
279.122	3.41
279.5	2.75
279.878	4.06
280.257	3.37
280.635	3.09
281.013	3.34
281.391	3.49
281.769	3.19
282.147	4.32
282.525	3.91
282.903	3.17
283.281	3.34
283.659	3.36
284.037	3.25
284.415	3.38
284.792	3.76
285.17	2.75
285.548	2.61
285.925	3.33
286.303	3.12
286.68	2.84
287.058	3.08
287.435	3.42
287.813	3.09
288.19	3.25
288.567	2.72
288.945	3.65
289.322	3.24
289.699	2.97
290.076	3.1
290.453	2.86
290.83	3.29
291.207	3.12
291.584	3.24
291.961	3.54
292.338	2.8
292.715	3.71
293.092	3.27
293.469	3.47
293.845	3.83
294.222	2.83
294.599	2.82
294.975	3.03
295.352	3.17
295.728	3.06
296.105	3.13
296.481	2.93
296.858	3.14
297.234	3.22
297.61	3.11
297.986	2.99
298.363	3.29
298.739	3.06
299.115	3.06
299.491	3.03
299.867	3.46
300.243	3.62
300.619	2.93
300.995	3.39
301.371	3.49
301.746	2.64
302.122	3.79
302.498	3.39
302.874	3.39
303.249	3.11
303.625	3.18
304	3.56
304.376	3.1
304.751	2.97
305.127	4.18
305.502	2.88
305.878	2.92
306.253	3.18
306.628	3.67
307.003	3.43
307.378	3.29
307.754	2.85
308.129	2.55
308.504	2.61
308.879	3.33
309.254	3.89
309.629	3.64
310.003	2.96
310.378	3.06
310.753	3.31
311.128	3
311.502	3.22
311.877	3.62
312.252	2.92
312.626	3.24
313.001	3.21
313.375	3.68
313.75	3.24
314.124	3.49
314.498	2.97
314.873	2.98
315.247	3.11
315.621	3.2
315.995	2.39
316.369	2.79
316.743	3.36
317.117	3.25
317.491	2.75
317.865	2.93
318.239	2.89
318.613	2.92
318.987	3.35
319.361	3.01
319.734	3.44
320.108	4.06
320.482	2.93
320.855	3.84
321.229	3.41
321.602	2.96
321.976	3.7
322.349	2.95
322.723	3.53
323.096	3.56
323.469	2.58
323.843	2.74
324.216	3.89
324.589	3.36
324.962	3.49
325.335	3.31
325.708	3.38
326.081	2.9
326.454	3.26
326.827	2.43
327.2	3.79
327.573	3.48
327.945	2.92
328.318	2.95
328.691	2.77
329.063	3.26
329.436	3.12
329.809	3.61
330.181	2.75
330.553	3.2
330.926	3.59
331.298	3.18
331.671	3.11
332.043	3.98
332.415	2.94
332.787	3.62
333.159	4.1
333.532	4.15
333.904	3.13
334.276	2.9
334.648	4.11
335.02	3.65
335.391	3.15
335.763	2.89
336.135	2.8
336.507	3.39
336.879	3.31
337.25	2.85
337.622	3.49
337.993	3.39
338.365	3.54
338.736	3.45
339.108	3.63
339.479	3.28
339.851	3.67
340.222	3.07
340.593	3.38
340.964	2.9
341.336	4.41
341.707	2.85
342.078	3.37
342.449	3.74
342.82	3.06
343.191	3.36
343.562	3.73
343.933	3.4
344.303	3.73
344.674	2.86
345.045	3.05
345.416	3.81
345.786	2.58
346.157	3.5
346.527	2.93
346.898	3.38
347.268	3.69
347.639	3.09
348.009	3.19
348.38	3.53
348.75	3.11
349.12	3.24
349.49	3.41
349.861	3.2
350.231	3.32
350.601	3.35
350.971	3.55
351.341	3.19
351.711	3.3
352.081	3.64
352.45	3.17
352.82	3.68
353.19	3.31
353.56	2.78
353.929	3.26
354.299	3.11
354.669	3.21
355.038	3.7
355.408	2.96
355.777	3.34
356.147	3.12
356.516	3.37
356.885	3.43
357.254	3.52
357.624	3.65
357.993	3.37
358.362	3.2
358.731	3.03
359.1	3.22
359.469	3.49
359.838	3.58
360.207	3.38
360.576	3.21
360.945	3.15
361.314	3.88
361.682	3.26
362.051	3.16
362.42	3.58
362.788	3.17
363.157	3.58
363.525	3.48
363.894	3.4
364.262	3.47
364.631	3.24
364.999	3.55
365.367	2.84
365.735	3.72
366.104	3.78
366.472	3.66
366.84	3.16
367.208	3.24
367.576	3.46
367.944	3.7
368.312	3.17
368.68	3.24
369.048	3.55
369.416	3.95
369.783	3.04
370.151	3.17
370.519	3.95
370.886	3.84
371.254	3.08
371.621	3.19
371.989	3.6
372.356	2.97
372.724	3.77
373.091	3.32
373.458	3.15
373.826	3.34
374.193	3.09
374.56	3.53
374.927	3.98
375.294	3.4
375.661	3.02
376.028	3.48
376.395	3.36
376.762	3.27
377.129	3.49
377.496	3.29
377.863	3.5
378.229	2.8
378.596	3.51
378.963	3.45
379.329	3.07
379.696	3.48
380.062	3.23
380.429	3.05
380.795	3.1
381.161	3.6
381.528	3.69
381.894	3.64
382.26	3.51
382.626	3.34
382.993	3.3
383.359	3.71
383.725	3.34
384.091	3.41
384.457	3.59
384.823	3.46
385.188	3.51
385.554	3.31
385.92	3.59
386.286	3.75
386.651	3.66
387.017	3.85
387.383	3.64
387.748	3.27
388.114	4.06
388.479	3.45
388.845	3.34
389.21	3.44
389.575	3.87
389.94	3.45
390.306	3.64
390.671	3.9
391.036	3.05
391.401	3.05
391.766	3.49
392.131	3.51
392.496	3.6
392.861	3.33
393.226	3.53
393.591	3.5
393.956	3.47
394.32	3.58
394.685	3.38
395.05	3.38
395.414	3.43
395.779	3.54
396.143	3.73
396.508	3.48
396.872	3.63
397.236	3.79
397.601	3.44
397.965	3.65
398.329	3.64
398.694	3.62
399.058	3.2
399.422	3.5
399.786	3.82
400.15	3.49
400.514	3.59
400.878	3.72
401.242	3.62
401.605	3.91
401.969	3.92
402.333	3.76
402.697	3.65
403.06	3.37
403.424	3.67
403.787	3.63
404.151	3.9
404.514	3.57
404.878	3.55
405.241	3.72
405.604	3.44
405.968	3.58
406.331	3.67
406.694	3.77
407.057	3.78
407.42	3.85
407.783	3.38
408.146	3.62
408.509	3.57
408.872	3.54
409.235	3.79
409.598	3.72
409.961	3.67
410.323	3.79
410.686	3.78
411.049	3.33
411.411	3.31
411.774	3.7
412.136	3.63
412.499	3.73
412.861	3.61
413.223	3.63
413.586	3.53
413.948	3.73
414.31	3.72
414.672	3.67
415.035	3.53
415.397	3.79
415.759	3.51
416.121	3.69
416.483	3.4
416.845	3.77
417.206	3.56
417.568	3.92
417.93	3.43
418.292	3.73
418.653	3.66
419.015	3.82
419.377	3.67
419.738	3.73
420.1	3.61
420.461	3.76
420.822	3.66
421.184	3.58
421.545	3.72
421.906	3.65
422.267	3.59
422.629	3.69
422.99	3.65
423.351	3.62
423.712	3.69
424.073	3.64
424.434	3.62
424.795	3.69
425.155	3.62
425.516	3.55
425.877	3.6
426.238	3.65
426.598	3.79
426.959	3.63
427.32	3.6
427.68	3.6
428.041	3.58
428.401	3.81
428.761	3.76
429.122	3.75
429.482	3.53
429.842	3.86
430.202	3.85
430.563	3.69
430.923	3.71
431.283	3.97
431.643	3.72
432.003	3.71
432.363	3.76
432.722	3.88
433.082	3.8
433.442	3.62
433.802	3.47
434.161	3.7
434.521	3.79
434.881	3.74
435.24	3.51
435.6	3.69
435.959	3.54
436.319	3.77
436.678	3.69
437.037	3.75
437.396	3.77
437.756	3.83
438.115	3.79
438.474	4.03
438.833	3.66
439.192	3.79
439.551	3.81
439.91	3.62
440.269	3.77
440.628	3.69
440.987	3.92
441.345	3.75
441.704	3.72
442.063	3.8
442.421	3.77
442.78	3.65
443.138	3.68
443.497	3.8
443.855	3.66
444.214	3.73
444.572	3.84
444.93	3.79
445.288	3.73
445.647	3.85
446.005	3.76
446.363	3.83
446.721	3.92
447.079	3.54
447.437	3.76
447.795	3.78
448.153	3.61
448.51	3.75
448.868	3.69
449.226	3.68
449.584	3.87
449.941	3.83
450.299	3.8
450.656	3.8
451.014	3.95
451.371	3.79
451.729	3.76
452.086	3.98
452.443	3.75
452.801	3.91
453.158	3.83
453.515	3.84
453.872	3.96
454.229	3.79
454.586	3.7
454.943	3.96
455.3	3.89
455.657	3.87
456.014	3.74
456.371	3.83
456.727	3.91
457.084	3.96
457.441	3.76
457.797	3.85
458.154	4.01
458.51	3.96
458.867	3.92
459.223	4.06
459.58	3.88
459.936	3.91
460.292	3.81
460.648	3.9
461.005	3.82
461.361	3.87
461.717	3.76
462.073	3.69
462.429	3.84
462.785	3.76
463.141	3.86
463.496	3.98
463.852	4.07
464.208	3.97
464.564	4
464.919	3.88
465.275	3.89
465.631	4.12
465.986	3.85
466.342	3.66
466.697	3.68
467.052	3.94
467.408	4.06
467.763	3.92
468.118	3.72
468.473	3.84
468.829	4.09
469.184	3.92
469.539	3.99
469.894	3.85
470.249	3.99
470.603	3.89
470.958	4.07
471.313	3.96
471.668	3.92
472.023	3.95
472.377	4.09
472.732	3.87
473.086	3.81
473.441	3.77
473.795	4.11
474.15	3.88
474.504	3.95
474.859	3.95
475.213	3.76
475.567	3.85
475.921	3.95
476.275	3.97
476.63	3.98
476.984	4.12
477.338	4.11
477.692	3.78
478.045	3.84
478.399	3.91
478.753	3.94
479.107	3.92
479.461	3.84
479.814	3.9
480.168	3.93
480.521	3.9
480.875	3.97
481.228	4.06
481.582	4.05
481.935	3.89
482.289	3.91
482.642	4.03
482.995	3.91
483.348	3.79
483.701	3.9
484.055	3.84
484.408	3.93
484.761	3.85
485.114	3.81
485.466	3.74
485.819	3.68
486.172	3.72
486.525	3.78
486.878	3.84
487.23	3.86
487.583	3.95
487.936	3.86
488.288	3.92
488.641	3.91
488.993	3.76
489.345	3.82
489.698	3.84
490.05	3.77
490.402	3.84
490.754	3.88
491.107	3.96
491.459	3.96
491.811	3.97
492.163	3.94
492.515	4.02
492.866	3.97
493.218	3.86
493.57	3.85
493.922	3.87
494.274	4.01
494.625	4
494.977	4.07
495.328	4.08
495.68	4.06
496.031	4.14
496.383	4.09
496.734	4.22
497.086	4.18
497.437	4.09
497.788	4.15
498.139	3.95
498.49	4.07
498.842	3.99
499.193	4.07
499.544	3.91
499.894	4.11
500.245	4
500.596	4.05
500.947	4.14
501.298	3.94
501.648	4.23
501.999	4.15
502.35	4.15
502.7	4.05
503.051	4
503.401	4.18
503.752	4.4
504.102	4.05
504.452	4.09
504.803	4.19
505.153	4.16
505.503	4.05
505.853	4.12
506.203	4.14
506.553	4.1
506.903	4.11
507.253	4.08
507.603	3.9
507.953	4.23
508.303	4.37
508.652	3.99
509.002	4.01
509.352	4.18
509.701	4.16
510.051	4.06
510.4	4.06
510.75	4
511.099	3.99
511.449	4
511.798	4.06
512.147	4.17
512.496	3.98
512.846	4.3
513.195	4.09
513.544	4.09
513.893	4.2
514.242	4.15
514.591	4.23
514.939	4.05
515.288	4.06
515.637	4.25
515.986	4.21
516.334	4.19
516.683	4.22
517.032	4.15
517.38	4.16
517.729	4.09
518.077	4.05
518.426	4.19
518.774	4.2
519.122	4.09
519.47	4.16
519.819	4.02
520.167	4.13
520.515	4.08
520.863	4.04
521.211	4.16
521.559	4.22
521.907	4.18
522.255	4.08
522.602	4.18
522.95	4.08
523.298	4.25
523.645	4.29
523.993	4.21
524.341	4.26
524.688	4.28
525.036	4.12
525.383	4.24
525.73	4.33
526.078	4.3
526.425	4.17
526.772	4.3
527.119	4.12
527.466	4.12
527.814	4.17
528.161	4.22
528.508	4.24
528.854	4.14
529.201	4.15
529.548	4.09
529.895	4.07
530.242	4.01
530.588	3.93
530.935	4.04
531.282	4.03
531.628	4.11
531.975	4.04
532.321	4.12
532.667	4.22
533.014	4.21
533.36	4.2
533.706	4.19
534.052	4.16
534.399	4.11
534.745	4.12
535.091	4.09
535.437	4.09
535.783	4.25
536.129	4.16
536.474	4.17
536.82	4.15
537.166	4.27
537.512	4.3
537.857	4.35
538.203	4.23
538.549	4.23
538.894	4.18
539.239	4.28
539.585	4.27
539.93	4.08
540.276	4.39
540.621	4.34
540.966	4.31
541.311	4.19
541.656	4.22
542.001	4.22
542.346	4.32
542.691	4.15
543.036	4.12
543.381	4.05
543.726	4.09
544.071	4.17
544.415	4.27
544.76	4.16
545.105	4.24
545.449	4.2
545.794	4.27
546.138	4.27
546.483	4.34
546.827	4.4
547.171	4.3
547.516	4.46
547.86	4.21
548.204	4.21
548.548	4.28
548.892	4.27
549.236	4.27
549.58	4.3
549.924	4.42
550.268	4.43
550.612	4.58
550.956	4.53
551.3	4.48
551.643	4.55
551.987	4.56
552.33	4.3
552.674	4.52
553.017	4.3
553.361	4.19
553.704	4.53
554.048	4.42
554.391	4.29
554.734	4.3
555.077	4.45
555.42	4.24
555.764	4.25
556.107	4.25
556.45	4.27
556.793	4.44
557.135	4.33
557.478	4.55
557.821	4.44
558.164	4.36
558.507	4.47
558.849	4.39
559.192	4.38
559.534	4.45
559.877	4.53
560.219	4.45
560.562	4.62
560.904	4.38
561.246	4.34
561.589	4.67
561.931	4.37
562.273	4.32
562.615	4.49
562.957	4.59
563.299	4.24
563.641	4.37
563.983	4.51
564.325	4.12
564.667	4.52
565.008	4.53
565.35	4.39
565.692	4.32
566.033	4.52
566.375	4.69
566.716	4.77
567.058	4.44
567.399	4.29
567.741	4.26
568.082	4.37
568.423	4.33
568.764	4.31
569.105	4.59
569.447	4.66
569.788	4.53
570.129	4.78
570.47	4.31
570.811	4.53
571.151	4.45
571.492	4.67
571.833	4.59
572.174	4.37
572.514	4.53
572.855	4.47
573.195	4.45
573.536	4.54
573.876	4.29
574.217	4.36
574.557	4.52
574.898	4.67
575.238	4.55
575.578	4.52
575.918	4.58
576.258	4.62
576.598	4.56
576.938	4.53
577.278	4.55
577.618	4.46
577.958	4.56
578.298	4.53
578.638	4.44
578.977	4.66
579.317	4.4
579.657	4.69
579.996	4.48
580.336	4.67
580.675	4.56
581.014	4.55
581.354	4.62
581.693	4.56
582.032	4.39
582.372	4.41
582.711	4.84
583.05	4.4
583.389	4.53
583.728	4.52
584.067	4.96
584.406	4.48
584.745	4.66
585.083	4.75
585.422	4.66
585.761	4.66
586.1	4.56
586.438	4.66
586.777	4.73
587.115	4.83
587.454	4.49
587.792	4.65
588.13	4.66
588.469	4.47
588.807	4.72
589.145	4.5
589.483	4.91
589.821	4.32
590.159	4.68
590.497	4.85
590.835	5
591.173	4.54
591.511	4.71
591.849	4.65
592.187	4.66
592.524	4.66
592.862	4.78
593.2	4.67
593.537	4.51
593.875	4.48
594.212	4.48
594.55	4.79
594.887	4.78
595.224	4.57
595.561	4.49
595.899	4.41
596.236	4.59
596.573	4.87
596.91	4.36
597.247	4.43
597.584	4.99
597.921	4.83
598.258	4.78
598.594	4.61
598.931	4.54
599.268	4.59
599.604	4.65
599.941	4.71
600.277	4.68
600.614	4.79
600.95	4.52
601.287	5.1
601.623	4.79
601.959	4.69
602.296	4.59
602.632	4.54
602.968	4.77
603.304	4.99
603.64	5
603.976	4.77
604.312	4.73
604.648	4.51
604.984	4.79
605.319	4.82
605.655	4.75
605.991	4.88
606.326	4.8
606.662	4.71
606.998	4.49
607.333	4.93
607.668	4.79
608.004	4.9
608.339	4.84
608.674	4.88
609.01	4.7
609.345	4.57
609.68	4.67
610.015	4.71
610.35	4.79
610.685	4.67
611.02	4.79
611.355	4.92
611.689	4.88
612.024	4.97
612.359	4.69
612.694	4.98
613.028	4.53
613.363	4.98
613.697	4.92
614.032	5.1
614.366	4.71
614.7	5.03
615.035	5.02
615.369	4.68
615.703	5.14
616.037	4.97
616.371	4.59
616.705	4.71
617.039	4.94
617.373	4.65
617.707	4.49
618.041	4.57
618.375	4.82
618.709	4.98
619.042	4.64
619.376	5.29
619.71	5.16
620.043	5.12
620.377	4.97
620.71	5.12
621.043	4.91
621.377	4.89
621.71	5.07
622.043	4.89
622.376	4.54
622.709	5.03
623.043	5.17
623.376	5.09
623.709	4.98
624.041	4.99
624.374	4.87
624.707	4.9
625.04	5.07
625.373	4.39
625.705	4.7
626.038	4.81
626.37	4.8
626.703	4.89
627.035	5.35
627.368	5.12
627.7	4.79
628.032	4.71
628.365	4.96
628.697	4.63
629.029	4.85
629.361	4.81
629.693	4.93
630.025	4.76
630.357	5.26
630.689	4.99
631.021	4.93
631.353	4.97
631.684	4.78
632.016	4.88
632.348	5.19
632.679	5.06
633.011	5.06
633.342	5.27
633.674	4.8
634.005	4.97
634.336	4.92
634.668	5.41
634.999	4.69
635.33	4.73
635.661	5.08
635.992	4.96
636.323	4.91
636.654	5.31
636.985	5.08
637.316	5.02
637.647	5.18
637.977	5.34
638.308	5.37
638.639	4.55
638.969	4.66
639.3	4.85
639.63	4.4
639.961	5.02
640.291	4.77
640.622	5.54
640.952	4.67
641.282	4.93
641.612	4.95
641.943	5.24
642.273	5.36
642.603	5.28
642.933	5.07
643.263	5.22
643.592	4.78
643.922	4.61
644.252	5.09
644.582	5.08
644.911	4.74
645.241	5.25
645.571	4.99
645.9	4.78
646.23	5.07
646.559	4.81
646.888	4.99
647.218	5.02
647.547	5.03
647.876	5.06
648.205	4.85
648.534	4.84
648.863	4.48
649.192	5.39
649.521	4.96
649.85	4.61
650.179	5.5
650.508	4.54
650.837	4.73
651.165	4.42
651.494	5.05
651.822	5.22
652.151	4.75
652.479	5.2
652.808	4.34
653.136	5.14
653.465	4.55
653.793	5.12
654.121	4.33
654.449	5.35
654.777	4.95
655.105	5.15
655.433	4.75
655.761	4.81
656.089	5.55
656.417	5.68
656.745	4.83
657.073	4.78
657.4	5.64
657.728	5.12
658.056	4.72
658.383	4.54
658.711	5.18
659.038	5.16
659.365	6.06
659.693	5.26
660.02	4.91
660.347	4.96
660.674	5.44
661.001	5.31
661.329	4.62
661.656	4.94
661.982	5.29
662.309	4.8
662.636	5.04
662.963	5.61
663.29	5.25
663.616	5.37
663.943	5.16
664.27	4.98
664.596	4.98
664.923	5.48
665.249	5.17
665.576	4.75
665.902	5.67
666.228	5.37
666.554	4.74
666.881	4.91
667.207	5.2
667.533	5.34
667.859	5.61
668.185	5.17
668.511	4.63
668.837	4.39
669.162	4.23
669.488	4.2
669.814	5.18
670.139	5.47
670.465	5.24
670.791	5.92
671.116	6.39
671.442	5.35
671.767	5.33
672.092	5.73
672.418	5.6
672.743	4.96
673.068	5.07
673.393	5.32
673.718	4.79
674.043	4.7
674.368	4.83
674.693	6.37
675.018	4.79
675.343	5.18
675.667	5.89
675.992	5.65
676.317	5.5
676.641	5.87
676.966	5.4
677.29	5.38
677.615	5.85
677.939	5.87
678.264	5.52
678.588	5.04
678.912	5.69
679.236	5.57
679.56	4.31
679.885	5.56
680.209	4.85
680.532	4.98
680.856	5.79
681.18	4.87
681.504	5.38
681.828	6.05
682.152	5.06
682.475	5.5
682.799	5.76
683.122	5.72
683.446	5.03
683.769	6.17
684.093	5.19
684.416	5.71
684.739	5.47
685.062	4.62
685.386	6.35
685.709	5.81
686.032	4.82
686.355	6.04
686.678	5.14
687.001	5.51
687.324	5.79
687.646	5.24
687.969	4.95
688.292	5.42
688.614	4.91
688.937	6.6
689.26	5.11
689.582	5.4
689.904	5.59
690.227	5.16
690.549	5.92
690.871	5.95
691.194	5.54
691.516	5.26
