Data from 427_forehead_Reflection__3__152.txt Node

Date: Fri Dec 15 17:58:43 CST 2023
User: ToomeyLab
Spectrometer: FLMS14357
Trigger mode: 0
Integration Time (sec): 1.000000E-2
Scans to average: 100
Electric dark correction enabled: true
Nonlinearity correction enabled: false
Boxcar width: 0
XAxis mode: Wavelengths
Number of Pixels in Spectrum: 2048
>>>>>Begin Spectral Data<<<<<
189.047	106.22
189.435	106.22
189.823	106.22
190.211	719.47
190.599	163.45
190.987	66.93
191.375	-283.68
191.763	-1823.91
192.151	953.7
192.538	279.43
192.926	-48.36
193.314	80.84
193.702	-339.6
194.089	-505.56
194.477	-2720.59
194.864	-92.08
195.252	201.95
195.639	91.62
196.027	97.59
196.414	205.5
196.801	98.66
197.189	100.39
197.576	462.97
197.963	134.73
198.351	-21.25
198.738	6.56
199.125	123.13
199.512	-4.38
199.899	44.26
200.286	23.69
200.673	-16.08
201.06	-2.67
201.447	-26.67
201.833	-2.89
202.22	34.6
202.607	42.46
202.994	6.22
203.38	-22.26
203.767	53.02
204.154	46.48
204.54	60.63
204.927	13.2
205.313	26.97
205.699	44.93
206.086	35.2
206.472	40.59
206.858	77.58
207.245	35.03
207.631	30.26
208.017	51.23
208.403	-4.23
208.789	41.73
209.175	37.83
209.561	-23.65
209.947	22.45
210.333	1.14
210.719	3.82
211.105	42.89
211.491	-0.59
211.876	27.58
212.262	7.04
212.648	28.22
213.034	50.68
213.419	-8.01
213.805	-4.2
214.19	36.66
214.576	25.8
214.961	-6.08
215.346	-32.37
215.732	-38.89
216.117	18.12
216.502	-47.23
216.888	-12.11
217.273	44
217.658	-11.15
218.043	34.64
218.428	-17.67
218.813	-7.1
219.198	-38.61
219.583	9.72
219.968	-0.56
220.353	-16.15
220.738	42.15
221.122	10.57
221.507	8.51
221.892	-31.47
222.276	-19.81
222.661	-6.97
223.046	14.81
223.43	16.72
223.815	18.35
224.199	0.43
224.583	-2.95
224.968	-0.46
225.352	16.76
225.736	-6.11
226.121	-12.99
226.505	5.53
226.889	10.77
227.273	7.64
227.657	9.04
228.041	4.76
228.425	1.98
228.809	6.55
229.193	7.63
229.577	5.66
229.961	5.78
230.344	4.97
230.728	3.53
231.112	4.41
231.495	3.56
231.879	4.46
232.263	3.38
232.646	4.81
233.03	3.22
233.413	2.07
233.797	3.57
234.18	4.09
234.563	6.59
234.946	4.19
235.33	4.93
235.713	3.58
236.096	4.41
236.479	5.98
236.862	3.47
237.245	5.85
237.628	3.18
238.011	5.28
238.394	4.63
238.777	2.35
239.16	3.12
239.543	5.81
239.925	5.14
240.308	6.8
240.691	4.87
241.073	5.27
241.456	2.61
241.838	2.68
242.221	3.25
242.603	4.76
242.986	3.92
243.368	3.52
243.75	4.1
244.133	3.59
244.515	3.71
244.897	3.4
245.279	4.24
245.661	3.19
246.043	1.44
246.425	3.3
246.807	4.54
247.189	4.66
247.571	4.23
247.953	4.79
248.335	4.08
248.717	4.02
249.098	3.59
249.48	3.93
249.862	3.77
250.243	4.16
250.625	4.03
251.006	3.97
251.388	3.16
251.769	2.68
252.151	4.97
252.532	4.19
252.913	4.18
253.295	3.75
253.676	4.45
254.057	3.79
254.438	3.97
254.819	4.02
255.2	3.24
255.581	3.22
255.962	3.73
256.343	4.16
256.724	2.72
257.105	2.91
257.486	3.38
257.867	3.48
258.247	3.43
258.628	3.67
259.009	3.69
259.389	3.87
259.77	3.41
260.15	3.51
260.531	3.43
260.911	4.58
261.292	3.85
261.672	3.96
262.052	3.91
262.432	4.24
262.813	4.17
263.193	3.93
263.573	3.49
263.953	4.02
264.333	4.32
264.713	4.81
265.093	3.18
265.473	3.63
265.853	2.99
266.233	4
266.612	1.94
266.992	3.44
267.372	4.28
267.752	4.06
268.131	3.82
268.511	4.26
268.89	4.38
269.27	4.07
269.649	3.53
270.029	3.26
270.408	4.62
270.787	4.22
271.167	4.05
271.546	4.17
271.925	3.33
272.304	3.91
272.683	4.47
273.062	3.94
273.441	4.02
273.82	3.62
274.199	3.45
274.578	3.71
274.957	3.36
275.336	3.85
275.715	4.07
276.093	3.97
276.472	3.88
276.851	3.37
277.229	3.36
277.608	4.18
277.986	4.17
278.365	4.36
278.743	4.22
279.122	3.69
279.5	3.66
279.878	3.91
280.257	4.11
280.635	3.43
281.013	3.52
281.391	3.84
281.769	3.71
282.147	4.7
282.525	4.72
282.903	3.85
283.281	3.51
283.659	4.15
284.037	3.47
284.415	4.19
284.792	4.38
285.17	3.2
285.548	3.4
285.925	4.07
286.303	3.82
286.68	3.75
287.058	3.86
287.435	3.7
287.813	3.62
288.19	3.76
288.567	3.55
288.945	3.8
289.322	4.16
289.699	4.07
290.076	4.24
290.453	4.11
290.83	3.83
291.207	3.89
291.584	4.01
291.961	4.3
292.338	3.88
292.715	4.32
293.092	3.95
293.469	3.73
293.845	4.52
294.222	3.54
294.599	4.01
294.975	3.93
295.352	4.64
295.728	4.06
296.105	4.11
296.481	4.85
296.858	4.65
297.234	4.06
297.61	4.09
297.986	4.18
298.363	4.44
298.739	4.63
299.115	3.99
299.491	4.25
299.867	4.59
300.243	4.76
300.619	4.33
300.995	4.39
301.371	4.64
301.746	4.23
302.122	4.69
302.498	4.61
302.874	5.07
303.249	4.96
303.625	4.83
304	4.69
304.376	4.32
304.751	3.97
305.127	5.34
305.502	4.68
305.878	4.11
306.253	4.74
306.628	5.82
307.003	4.59
307.378	5.47
307.754	5.58
308.129	5.04
308.504	5.4
308.879	5.48
309.254	6.01
309.629	5.79
310.003	5.58
310.378	5.97
310.753	5.69
311.128	5.94
311.502	5.05
311.877	6.02
312.252	5.37
312.626	5.54
313.001	5.65
313.375	6.14
313.75	5.51
314.124	5.71
314.498	5.76
314.873	6.09
315.247	6.03
315.621	6.33
315.995	5.3
316.369	6.47
316.743	6.13
317.117	6.52
317.491	6.18
317.865	6.69
318.239	6.52
318.613	6.13
318.987	6.75
319.361	6.06
319.734	7.14
320.108	7.31
320.482	6.62
320.855	7.23
321.229	7.44
321.602	7.15
321.976	7.41
322.349	6.37
322.723	6.87
323.096	7.58
323.469	6.92
323.843	7.08
324.216	7.26
324.589	7.54
324.962	7.6
325.335	7.06
325.708	7.55
326.081	7
326.454	7.37
326.827	7.32
327.2	7.74
327.573	7.9
327.945	7.53
328.318	7.55
328.691	7.34
329.063	7.86
329.436	7.77
329.809	8.68
330.181	7.78
330.553	8.09
330.926	8.62
331.298	8.26
331.671	8.4
332.043	8.75
332.415	8.6
332.787	8.16
333.159	9.19
333.532	8.81
333.904	8.75
334.276	8.94
334.648	8.68
335.02	9.27
335.391	8.67
335.763	8.51
336.135	9.27
336.507	9.28
336.879	8.96
337.25	9.04
337.622	9.43
337.993	9.28
338.365	9.67
338.736	9.44
339.108	9.35
339.479	9.42
339.851	9.49
340.222	9.32
340.593	9.97
340.964	9.62
341.336	10.2
341.707	8.97
342.078	9.92
342.449	9.79
342.82	9.9
343.191	10.11
343.562	9.9
343.933	9.86
344.303	10.28
344.674	10.05
345.045	10.04
345.416	10.39
345.786	9.45
346.157	10.33
346.527	10.04
346.898	9.91
347.268	10.43
347.639	10.57
348.009	10.4
348.38	10.51
348.75	10.61
349.12	10.9
349.49	11.68
349.861	10.74
350.231	11.03
350.601	10.74
350.971	11.51
351.341	11.17
351.711	10.91
352.081	10.84
352.45	10.75
352.82	11.17
353.19	11.37
353.56	11.33
353.929	11.45
354.299	11.29
354.669	11.44
355.038	11.89
355.408	11.84
355.777	11.48
356.147	11.22
356.516	11.67
356.885	11.51
357.254	11.8
357.624	12.22
357.993	12.42
358.362	11.7
358.731	11.66
359.1	12.23
359.469	11.88
359.838	12.31
360.207	12.03
360.576	12.25
360.945	12.24
361.314	12.56
361.682	12.04
362.051	12.14
362.42	12.6
362.788	12.26
363.157	12.6
363.525	12.72
363.894	12.41
364.262	12.47
364.631	12.6
364.999	12.96
365.367	12.45
365.735	13.4
366.104	13.02
366.472	13.12
366.84	13
367.208	13.18
367.576	13.2
367.944	13.21
368.312	13.09
368.68	13.01
369.048	13.24
369.416	13.52
369.783	13.41
370.151	13.24
370.519	14.15
370.886	13.67
371.254	13.74
371.621	13.93
371.989	13.71
372.356	13.47
372.724	14.13
373.091	13.55
373.458	13.89
373.826	14.37
374.193	13.78
374.56	14.27
374.927	14.37
375.294	14.3
375.661	14
376.028	14.31
376.395	14.14
376.762	14.18
377.129	14.28
377.496	14.67
377.863	13.95
378.229	14.22
378.596	14.73
378.963	14.55
379.329	14.78
379.696	15.03
380.062	14.61
380.429	14.79
380.795	14.96
381.161	15.35
381.528	15.32
381.894	14.92
382.26	14.54
382.626	15.81
382.993	14.98
383.359	15.79
383.725	15.58
384.091	15.61
384.457	15.81
384.823	15.11
385.188	15.88
385.554	15.63
385.92	15.81
386.286	16.15
386.651	15.93
387.017	16.06
387.383	16.19
387.748	15.8
388.114	16.15
388.479	16.23
388.845	16.3
389.21	16.59
389.575	16.53
389.94	16.54
390.306	16.42
390.671	16.66
391.036	16.7
391.401	16.43
391.766	16.75
392.131	16.52
392.496	16.64
392.861	16.95
393.226	16.84
393.591	16.9
393.956	16.88
394.32	17.01
394.685	16.99
395.05	17.18
395.414	17.1
395.779	16.63
396.143	17.24
396.508	16.92
396.872	17.43
397.236	16.99
397.601	17.07
397.965	17.04
398.329	17.56
398.694	17.76
399.058	17.87
399.422	17.59
399.786	17.71
400.15	17.86
400.514	17.66
400.878	17.82
401.242	18.12
401.605	17.86
401.969	18.18
402.333	17.8
402.697	17.93
403.06	18.17
403.424	18.2
403.787	18.18
404.151	18.6
404.514	18.17
404.878	18.45
405.241	18.71
405.604	18.44
405.968	18.62
406.331	18.71
406.694	18.79
407.057	18.67
407.42	18.79
407.783	18.55
408.146	18.56
408.509	18.97
408.872	18.73
409.235	19.3
409.598	19.17
409.961	19.09
410.323	19.32
410.686	19.1
411.049	18.86
411.411	18.94
411.774	19.3
412.136	19.24
412.499	19.24
412.861	19.52
413.223	19.27
413.586	19.48
413.948	19.53
414.31	19.8
414.672	19.55
415.035	19.65
415.397	20.12
415.759	19.8
416.121	20.06
416.483	19.82
416.845	19.82
417.206	20.11
417.568	20.48
417.93	19.94
418.292	19.94
418.653	20.23
419.015	20.12
419.377	20.16
419.738	20.31
420.1	20.25
420.461	19.96
420.822	20.19
421.184	20.37
421.545	20.36
421.906	20.07
422.267	20.22
422.629	20.34
422.99	20.26
423.351	20.28
423.712	20.32
424.073	20.48
424.434	20.43
424.795	20.54
425.155	20.69
425.516	20.46
425.877	20.62
426.238	20.68
426.598	20.81
426.959	20.79
427.32	20.72
427.68	21.02
428.041	21.01
428.401	21.21
428.761	21.08
429.122	21.35
429.482	21.36
429.842	21.78
430.202	21.76
430.563	21.82
430.923	21.57
431.283	21.73
431.643	21.86
432.003	22.03
432.363	21.94
432.722	21.95
433.082	22.05
433.442	22.02
433.802	21.95
434.161	22
434.521	22.37
434.881	22.17
435.24	21.94
435.6	22.19
435.959	22.06
436.319	22.02
436.678	22.23
437.037	22.42
437.396	22.54
437.756	22.53
438.115	22.49
438.474	22.6
438.833	22.41
439.192	22.66
439.551	22.7
439.91	22.88
440.269	22.66
440.628	22.88
440.987	22.82
441.345	22.82
441.704	22.81
442.063	23.02
442.421	22.93
442.78	22.93
443.138	22.94
443.497	23.02
443.855	23.11
444.214	23.16
444.572	23.32
444.93	23.48
445.288	23.48
445.647	23.56
446.005	23.55
446.363	23.39
446.721	23.6
447.079	23.52
447.437	23.47
447.795	23.39
448.153	23.32
448.51	23.39
448.868	23.48
449.226	23.51
449.584	23.49
449.941	23.79
450.299	23.86
450.656	23.88
451.014	24.1
451.371	24.08
451.729	24.17
452.086	24.49
452.443	24.3
452.801	24.46
453.158	24.5
453.515	24.45
453.872	24.72
454.229	24.38
454.586	24.4
454.943	24.67
455.3	24.86
455.657	24.72
456.014	24.9
456.371	24.85
456.727	24.85
457.084	25.07
457.441	24.89
457.797	25.11
458.154	25.2
458.51	25.11
458.867	25.28
459.223	25.28
459.58	25.31
459.936	25.33
460.292	25.31
460.648	25.33
461.005	25.13
461.361	25.28
461.717	25.23
462.073	25.01
462.429	24.92
462.785	25.38
463.141	25.28
463.496	25.48
463.852	25.9
464.208	25.65
464.564	26
464.919	25.95
465.275	26.01
465.631	26.15
465.986	26.12
466.342	26.21
466.697	25.95
467.052	25.93
467.408	26.08
467.763	26.24
468.118	26.34
468.473	26.38
468.829	26.42
469.184	26.18
469.539	26.44
469.894	26.37
470.249	26.77
470.603	26.75
470.958	26.46
471.313	26.88
471.668	26.81
472.023	26.71
472.377	26.83
472.732	27.1
473.086	26.92
473.441	26.96
473.795	27.14
474.15	27.22
474.504	27.28
474.859	27.15
475.213	27.17
475.567	27.25
475.921	27.1
476.275	27.22
476.63	27.39
476.984	27.52
477.338	27.6
477.692	27.51
478.045	27.32
478.399	27.55
478.753	27.67
479.107	27.46
479.461	27.47
479.814	27.63
480.168	27.58
480.521	27.46
480.875	27.65
481.228	27.55
481.582	27.63
481.935	27.93
482.289	27.87
482.642	27.92
482.995	27.57
483.348	27.69
483.701	27.58
484.055	27.63
484.408	27.62
484.761	27.57
485.114	27.22
485.466	26.97
485.819	26.93
486.172	26.85
486.525	26.9
486.878	26.84
487.23	27.23
487.583	27.35
487.936	27.58
488.288	27.63
488.641	27.71
488.993	27.47
489.345	27.35
489.698	27.43
490.05	27.46
490.402	27.48
490.754	27.57
491.107	27.88
491.459	27.98
491.811	28.18
492.163	28.42
492.515	28.42
492.866	28.37
493.218	28.23
493.57	27.86
493.922	27.97
494.274	28.07
494.625	28.16
494.977	28.37
495.328	28.69
495.68	29.2
496.031	29.06
496.383	29.33
496.734	29.31
497.086	29.51
497.437	29.43
497.788	29.47
498.139	29.43
498.49	29.36
498.842	29.4
499.193	29.47
499.544	29.33
499.894	29.52
500.245	29.51
500.596	29.39
500.947	29.77
501.298	29.68
501.648	29.65
501.999	29.86
502.35	29.77
502.7	29.76
503.051	29.84
503.401	30.24
503.752	30.34
504.102	30.16
504.452	30.18
504.803	30.33
505.153	30.27
505.503	30.09
505.853	30.24
506.203	30.31
506.553	30.21
506.903	30.24
507.253	30.35
507.603	30.47
507.953	30.68
508.303	30.61
508.652	30.48
509.002	30.78
509.352	30.77
509.701	30.56
510.051	30.58
510.4	30.51
510.75	30.47
511.099	30.67
511.449	30.71
511.798	30.63
512.147	30.67
512.496	30.8
512.846	30.83
513.195	30.89
513.544	30.99
513.893	30.94
514.242	30.93
514.591	30.99
514.939	30.84
515.288	31.07
515.637	31.22
515.986	31.01
516.334	31.24
516.683	31.37
517.032	31.39
517.38	31.57
517.729	31.48
518.077	31.35
518.426	31.54
518.774	31.46
519.122	31.29
519.47	31.34
519.819	31.14
520.167	31.33
520.515	31.04
520.863	31.21
521.211	31.15
521.559	31.19
521.907	31.39
522.255	31.46
522.602	31.7
522.95	31.56
523.298	31.87
523.645	31.87
523.993	31.73
524.341	31.92
524.688	31.85
525.036	31.89
525.383	32.33
525.73	32.09
526.078	32.1
526.425	32.21
526.772	32.13
527.119	31.98
527.466	31.8
527.814	31.71
528.161	31.74
528.508	31.59
528.854	31.65
529.201	31.84
529.548	31.59
529.895	31.56
530.242	31.3
530.588	31.11
530.935	31.13
531.282	31.19
531.628	31.19
531.975	31.4
532.321	31.8
532.667	31.81
533.014	32.02
533.36	32.2
533.706	32.3
534.052	32.32
534.399	32.16
534.745	32.16
535.091	32.02
535.437	31.85
535.783	32
536.129	32.09
536.474	32.25
536.82	32.1
537.166	32.72
537.512	32.82
537.857	32.71
538.203	32.91
538.549	32.58
538.894	32.69
539.239	32.66
539.585	32.75
539.93	32.9
540.276	33.09
540.621	33.34
540.966	33.21
541.311	33.53
541.656	33.2
542.001	33.24
542.346	33.36
542.691	32.97
543.036	32.67
543.381	32.56
543.726	32.55
544.071	32.62
544.415	32.77
544.76	32.71
545.105	32.95
545.449	33.09
545.794	33.16
546.138	33.49
546.483	33.55
546.827	33.78
547.171	33.77
547.516	33.97
547.86	33.84
548.204	33.93
548.548	33.52
548.892	33.78
549.236	33.82
549.58	33.87
549.924	33.99
550.268	34.15
550.612	34.35
550.956	34.29
551.3	34.42
551.643	34.56
551.987	34.63
552.33	34.83
552.674	34.42
553.017	34.58
553.361	34.59
553.704	34.67
554.048	34.7
554.391	34.73
554.734	34.64
555.077	34.67
555.42	34.31
555.764	34.52
556.107	34.55
556.45	34.73
556.793	35.12
557.135	35.04
557.478	35.24
557.821	35.08
558.164	34.87
558.507	35.19
558.849	35.3
559.192	35.12
559.534	35.39
559.877	35.21
560.219	35.4
560.562	35.49
560.904	35.29
561.246	35.48
561.589	35.51
561.931	35.56
562.273	35.52
562.615	35.66
562.957	35.85
563.299	35.27
563.641	35.63
563.983	35.67
564.325	35.55
564.667	35.59
565.008	35.74
565.35	35.68
565.692	35.55
566.033	35.48
566.375	35.86
566.716	35.92
567.058	35.76
567.399	35.71
567.741	35.55
568.082	35.81
568.423	35.89
568.764	35.6
569.105	35.73
569.447	35.68
569.788	35.54
570.129	36
570.47	36.08
570.811	36.07
571.151	36.16
571.492	36.2
571.833	36.3
572.174	36.11
572.514	36.28
572.855	36.37
573.195	36.19
573.536	36.03
573.876	36.11
574.217	35.96
574.557	36.15
574.898	36.07
575.238	36.13
575.578	36.19
575.918	36.32
576.258	36.29
576.598	36.4
576.938	36.46
577.278	36.44
577.618	36.29
577.958	36.38
578.298	36.43
578.638	36.72
578.977	36.63
579.317	36.71
579.657	37.02
579.996	36.64
580.336	36.68
580.675	36.83
581.014	37.27
581.354	36.97
581.693	37.41
582.032	37.56
582.372	37.11
582.711	37.12
583.05	37.22
583.389	37.44
583.728	37.4
584.067	37.49
584.406	37.37
584.745	37.33
585.083	37.31
585.422	37.53
585.761	37.3
586.1	37.36
586.438	37.47
586.777	37.69
587.115	37.61
587.454	37.28
587.792	37.47
588.13	37.88
588.469	37.58
588.807	37.66
589.145	37.71
589.483	37.64
589.821	37.68
590.159	37.49
590.497	37.94
590.835	37.87
591.173	37.59
591.511	37.83
591.849	37.84
592.187	37.79
592.524	37.98
592.862	37.81
593.2	38.11
593.537	37.7
593.875	38.13
594.212	38.08
594.55	38.04
594.887	38.28
595.224	37.69
595.561	38.29
595.899	38.1
596.236	38.06
596.573	38.37
596.91	37.89
597.247	38.06
597.584	38.23
597.921	37.98
598.258	38.05
598.594	38.38
598.931	38.16
599.268	37.92
599.604	37.93
599.941	38.27
600.277	38.43
600.614	38.13
600.95	38.22
601.287	38.6
601.623	38.5
601.959	38.23
602.296	38.82
602.632	38.66
602.968	38.52
603.304	38.74
603.64	38.64
603.976	38.65
604.312	38.95
604.648	39.05
604.984	39.12
605.319	38.52
605.655	38.7
605.991	39.02
606.326	38.76
606.662	38.64
606.998	38.35
607.333	38.85
607.668	38.62
608.004	38.77
608.339	38.8
608.674	39.06
609.01	38.84
609.345	39.52
609.68	39.4
610.015	39
610.35	39.1
610.685	39.05
611.02	39.25
611.355	39
611.689	39.12
612.024	39.08
612.359	39.06
612.694	39.16
613.028	38.82
613.363	39.13
613.697	39.33
614.032	39.43
614.366	39.29
614.7	39.48
615.035	39.13
615.369	39.5
615.703	39.67
616.037	39.54
616.371	40.16
616.705	39.36
617.039	40.11
617.373	40.02
617.707	39.62
618.041	40.05
618.375	39.96
618.709	39.62
619.042	39.84
619.376	39.79
619.71	40.33
620.043	39.87
620.377	39.9
620.71	39.51
621.043	40.32
621.377	40
621.71	40.27
622.043	40.1
622.376	39.71
622.709	40.35
623.043	40.38
623.376	40.3
623.709	40.03
624.041	40.44
624.374	40.03
624.707	40.44
625.04	40.73
625.373	40.41
625.705	40.66
626.038	40.37
626.37	40.01
626.703	40.36
627.035	40.82
627.368	40.65
627.7	40.64
628.032	40.45
628.365	40.5
628.697	40.52
629.029	40.62
629.361	40.44
629.693	40.45
630.025	40.82
630.357	40.63
630.689	40.86
631.021	40.88
631.353	40.84
631.684	40.82
632.016	40.76
632.348	40.73
632.679	40.71
633.011	41.17
633.342	41.03
633.674	40.8
634.005	40.74
634.336	41.08
634.668	41.53
634.999	41.1
635.33	41.24
635.661	40.52
635.992	41.17
636.323	40.87
636.654	41.41
636.985	41.24
637.316	41.47
637.647	41
637.977	41.17
638.308	41.23
638.639	40.83
638.969	41.27
639.3	40.97
639.63	40.93
639.961	41.42
640.291	41.47
640.622	41.42
640.952	41.73
641.282	41.49
641.612	41.83
641.943	41.55
642.273	41.77
642.603	41.54
642.933	41.4
643.263	42.07
643.592	41.8
643.922	41.71
644.252	41.74
644.582	42.17
644.911	41.64
645.241	42.07
645.571	41.31
645.9	42.17
646.23	42.18
646.559	42.45
646.888	41.84
647.218	42.02
647.547	41.64
647.876	42.44
648.205	42.28
648.534	41.99
648.863	41.56
649.192	41.83
649.521	42.23
649.85	41.59
650.179	42.23
650.508	41.48
650.837	42.14
651.165	41.12
651.494	41.79
651.822	42.53
652.151	42.25
652.479	42.12
652.808	41.89
653.136	42.2
653.465	41.97
653.793	41.73
654.121	42.31
654.449	42.71
654.777	42.22
655.105	42.42
655.433	41.71
655.761	42.7
656.089	43.13
656.417	42.31
656.745	42.33
657.073	42.21
657.4	42.76
657.728	42.88
658.056	42.59
658.383	42.09
658.711	42.88
659.038	43.16
659.365	42.61
659.693	42.42
660.02	42.86
660.347	42.28
660.674	42.77
661.001	42.21
661.329	41.98
661.656	42.86
661.982	42.39
662.309	43.04
662.636	42.71
662.963	42.48
663.29	42.65
663.616	42.51
663.943	42.45
664.27	43.53
664.596	43.53
664.923	43.03
665.249	43.09
665.576	42.43
665.902	43.24
666.228	43.09
666.554	43.33
666.881	43.02
667.207	43.58
667.533	43.02
667.859	43.14
668.185	43.02
668.511	42.17
668.837	43.37
669.162	43.45
669.488	42.74
669.814	43.57
670.139	43.56
