Data from 427_chest_Reflection__0__139.txt Node

Date: Fri Dec 15 17:55:32 CST 2023
User: ToomeyLab
Spectrometer: FLMS14357
Trigger mode: 0
Integration Time (sec): 1.000000E-2
Scans to average: 100
Electric dark correction enabled: true
Nonlinearity correction enabled: false
Boxcar width: 0
XAxis mode: Wavelengths
Number of Pixels in Spectrum: 2048
>>>>>Begin Spectral Data<<<<<
189.047	-2.63
189.435	-2.63
189.823	-2.63
190.211	296.71
190.599	64.25
190.987	54.8
191.375	-12.5
191.763	696.2
192.151	-296.76
192.538	164.89
192.926	136.4
193.314	156.73
193.702	-123.63
194.089	125.46
194.477	-2212.5
194.864	62.23
195.252	134.5
195.639	126.9
196.027	-38.49
196.414	248.23
196.801	117.54
197.189	243.96
197.576	-8.58
197.963	100.43
198.351	-69.16
198.738	12.34
199.125	123.64
199.512	-39.53
199.899	24.07
200.286	22.26
200.673	23.71
201.06	62.55
201.447	0.31
201.833	0.29
202.22	3.83
202.607	9.28
202.994	28.67
203.38	24.03
203.767	80.19
204.154	12.86
204.54	23.87
204.927	-31.69
205.313	-39.4
205.699	38.97
206.086	23.42
206.472	22.99
206.858	44.48
207.245	-33.96
207.631	32.63
208.017	25.84
208.403	-9.52
208.789	18.38
209.175	13.7
209.561	-48.35
209.947	-9.34
210.333	-85.45
210.719	24.07
211.105	0.25
211.491	-2.37
211.876	11.28
212.262	-37.18
212.648	0.98
213.034	21.45
213.419	-20.02
213.805	8.74
214.19	4.29
214.576	2.37
214.961	8.02
215.346	-43.35
215.732	7.14
216.117	2.72
216.502	12.68
216.888	21.02
217.273	14.55
217.658	-2.93
218.043	6.93
218.428	-5.34
218.813	-42.56
219.198	-30.09
219.583	-11.86
219.968	9.44
220.353	-36.92
220.738	4.19
221.122	-4.67
221.507	-30.62
221.892	-34.99
222.276	-0.78
222.661	9.51
223.046	6.36
223.43	23.62
223.815	23.35
224.199	7.26
224.583	3.65
224.968	7.04
225.352	8.19
225.736	4.5
226.121	-7.24
226.505	-4.68
226.889	4.64
227.273	-0.52
227.657	0.97
228.041	2.18
228.425	0.12
228.809	11.11
229.193	5.04
229.577	2.99
229.961	4.07
230.344	3.54
230.728	2
231.112	2.81
231.495	2.9
231.879	2.29
232.263	3.79
232.646	4.4
233.03	3.77
233.413	1.02
233.797	3.15
234.18	3.46
234.563	4.14
234.946	1.52
235.33	3.56
235.713	2.97
236.096	2
236.479	4.53
236.862	3.15
237.245	4.49
237.628	0.32
238.011	2.16
238.394	4.52
238.777	2.5
239.16	1.47
239.543	3.54
239.925	3.1
240.308	3.26
240.691	3.59
241.073	3.81
241.456	3.05
241.838	2.96
242.221	1.68
242.603	3.5
242.986	2.56
243.368	3.52
243.75	2.91
244.133	2.58
244.515	3.01
244.897	3.33
245.279	2.58
245.661	1.63
246.043	1.73
246.425	2.51
246.807	3.02
247.189	4.34
247.571	3.15
247.953	3.29
248.335	3.03
248.717	2.93
249.098	2.62
249.48	3.16
249.862	2.96
250.243	2.7
250.625	3
251.006	3.05
251.388	1.96
251.769	2.79
252.151	3.19
252.532	3.66
252.913	2.45
253.295	2.9
253.676	2.92
254.057	2.75
254.438	2.46
254.819	2.66
255.2	2.25
255.581	2.64
255.962	2.12
256.343	2.63
256.724	1.96
257.105	2.84
257.486	1.44
257.867	4.55
258.247	2.04
258.628	3.52
259.009	2.11
259.389	2.96
259.77	2.87
260.15	1.75
260.531	2.28
260.911	2.98
261.292	2.76
261.672	2.93
262.052	2.97
262.432	2.92
262.813	2.85
263.193	2.86
263.573	2.68
263.953	3.05
264.333	3.41
264.713	2.42
265.093	1.67
265.473	2.07
265.853	2.39
266.233	2.9
266.612	0.74
266.992	1
267.372	3.82
267.752	2.7
268.131	2.61
268.511	3.05
268.89	2.65
269.27	2.21
269.649	2.55
270.029	3.89
270.408	3.66
270.787	2.65
271.167	3.56
271.546	3.59
271.925	1.84
272.304	2.94
272.683	3.59
273.062	2.65
273.441	2.74
273.82	2.25
274.199	3.02
274.578	2.93
274.957	2.68
275.336	2.98
275.715	2.69
276.093	2.39
276.472	2.94
276.851	2.45
277.229	2.39
277.608	1.93
277.986	1.96
278.365	2.72
278.743	2.29
279.122	2.62
279.5	2.47
279.878	2.86
280.257	2.9
280.635	1.83
281.013	2.62
281.391	2.8
281.769	3.18
282.147	3.53
282.525	3.09
282.903	2.11
283.281	2.85
283.659	3.18
284.037	3.15
284.415	2.82
284.792	3.62
285.17	2.39
285.548	2.88
285.925	3.14
286.303	3.27
286.68	2.22
287.058	2.73
287.435	2.79
287.813	3.03
288.19	2.82
288.567	2.64
288.945	2.76
289.322	2.57
289.699	2.73
290.076	2.74
290.453	2.94
290.83	2.73
291.207	3.06
291.584	3.18
291.961	3.33
292.338	3.04
292.715	3.04
293.092	2.49
293.469	2.96
293.845	3.68
294.222	2.53
294.599	2.37
294.975	2.74
295.352	3.33
295.728	2.71
296.105	2.82
296.481	3.03
296.858	3.27
297.234	2.52
297.61	3.21
297.986	3.17
298.363	3.27
298.739	3.33
299.115	2.86
299.491	2.57
299.867	2.99
300.243	3.52
300.619	3.09
300.995	3.22
301.371	3.26
301.746	2.84
302.122	3.6
302.498	3.13
302.874	3.57
303.249	3.42
303.625	3.57
304	3.31
304.376	2.89
304.751	2.61
305.127	3.68
305.502	3.3
305.878	2.92
306.253	3.45
306.628	3.52
307.003	2.88
307.378	3.49
307.754	3.43
308.129	2.51
308.504	3.46
308.879	3.26
309.254	4.11
309.629	3.88
310.003	3.53
310.378	3.81
310.753	3.18
311.128	3.24
311.502	3.31
311.877	3.6
312.252	3.38
312.626	3.38
313.001	3.14
313.375	3.49
313.75	3.25
314.124	3.27
314.498	3.64
314.873	3.62
315.247	3.24
315.621	3.67
315.995	2.29
316.369	3.34
316.743	3.52
317.117	3.49
317.491	3.62
317.865	3.68
318.239	3.68
318.613	3.39
318.987	3.77
319.361	2.61
319.734	3.93
320.108	3.66
320.482	3.87
320.855	3.44
321.229	4.08
321.602	3.56
321.976	4.32
322.349	4.15
322.723	4.06
323.096	4.06
323.469	3.14
323.843	4.03
324.216	4.18
324.589	3.83
324.962	4.27
325.335	3.51
325.708	3.63
326.081	3.58
326.454	4
326.827	3.65
327.2	4.11
327.573	4.39
327.945	3.45
328.318	3.52
328.691	3.39
329.063	3.4
329.436	3.51
329.809	4.27
330.181	3.53
330.553	3.79
330.926	4.48
331.298	4.07
331.671	3.53
332.043	4.37
332.415	3.82
332.787	3.77
333.159	4.22
333.532	3.62
333.904	4.04
334.276	3.93
334.648	4.1
335.02	3.98
335.391	3.73
335.763	3.24
336.135	4.07
336.507	4.11
336.879	3.84
337.25	3.83
337.622	4.1
337.993	3.8
338.365	4.01
338.736	4.11
339.108	4.04
339.479	3.54
339.851	3.96
340.222	4.05
340.593	4.8
340.964	3.83
341.336	4.69
341.707	3.32
342.078	4.56
342.449	3.8
342.82	4.32
343.191	4.19
343.562	3.76
343.933	3.66
344.303	3.72
344.674	3.87
345.045	4.1
345.416	4.3
345.786	3.38
346.157	4.02
346.527	3.35
346.898	3.8
347.268	4.23
347.639	4.04
348.009	4.09
348.38	3.82
348.75	4.5
349.12	4.19
349.49	4.54
349.861	4.32
350.231	3.96
350.601	3.97
350.971	4.29
351.341	4.53
351.711	4.25
352.081	4.23
352.45	3.92
352.82	4.18
353.19	4.23
353.56	3.69
353.929	3.91
354.299	4.08
354.669	3.46
355.038	3.88
355.408	3.9
355.777	4.13
356.147	4.07
356.516	4.32
356.885	3.95
357.254	3.6
357.624	4.35
357.993	4.44
358.362	3.95
358.731	3.69
359.1	4.11
359.469	4.17
359.838	3.88
360.207	4.07
360.576	3.76
360.945	4.16
361.314	4.29
361.682	3.94
362.051	3.94
362.42	4.11
362.788	3.96
363.157	4.25
363.525	4.26
363.894	4.3
364.262	4.22
364.631	3.8
364.999	4.35
365.367	3.45
365.735	4.75
366.104	4.28
366.472	4.46
366.84	3.75
367.208	4.09
367.576	4.85
367.944	4.72
368.312	4.29
368.68	4.04
369.048	4.03
369.416	4.28
369.783	3.85
370.151	4.28
370.519	4.85
370.886	4.15
371.254	4.13
371.621	4.34
371.989	4.57
372.356	3.83
372.724	4.29
373.091	4.04
373.458	4.21
373.826	4.29
374.193	4.28
374.56	4.57
374.927	4.7
375.294	4.23
375.661	4.34
376.028	4.19
376.395	4.08
376.762	4.6
377.129	4.39
377.496	4.35
377.863	4.58
378.229	3.7
378.596	4.22
378.963	4.11
379.329	4.08
379.696	4.52
380.062	4.29
380.429	4.27
380.795	4.18
381.161	4.31
381.528	4.52
381.894	4.08
382.26	4.12
382.626	4.79
382.993	4.22
383.359	4.91
383.725	4.36
384.091	4.42
384.457	4.78
384.823	4.35
385.188	4.8
385.554	4.36
385.92	4.66
386.286	4.79
386.651	4.52
387.017	4.97
387.383	4.37
387.748	4.32
388.114	4.57
388.479	4.13
388.845	4.58
389.21	4.72
389.575	4.79
389.94	4.57
390.306	4.6
390.671	4.7
391.036	4.19
391.401	4.15
391.766	4.58
392.131	4.59
392.496	4.72
392.861	4.21
393.226	4.6
393.591	4.57
393.956	4.61
394.32	4.77
394.685	4.25
395.05	4.68
395.414	4.5
395.779	4.42
396.143	4.65
396.508	4.68
396.872	4.82
397.236	4.75
397.601	4.36
397.965	4.65
398.329	4.66
398.694	4.74
399.058	4.61
399.422	4.36
399.786	4.65
400.15	4.65
400.514	4.64
400.878	4.73
401.242	5.01
401.605	4.94
401.969	4.69
402.333	4.53
402.697	4.6
403.06	4.67
403.424	4.66
403.787	4.82
404.151	4.96
404.514	4.74
404.878	4.5
405.241	4.72
405.604	4.58
405.968	4.76
406.331	4.82
406.694	4.88
407.057	4.85
407.42	4.72
407.783	4.53
408.146	4.87
408.509	4.71
408.872	4.76
409.235	4.78
409.598	5.02
409.961	4.76
410.323	4.81
410.686	4.73
411.049	4.76
411.411	4.65
411.774	4.64
412.136	4.93
412.499	4.9
412.861	4.59
413.223	4.77
413.586	4.83
413.948	4.83
414.31	4.87
414.672	4.82
415.035	4.61
415.397	5.03
415.759	4.82
416.121	5.09
416.483	4.82
416.845	4.98
417.206	4.69
417.568	5.01
417.93	4.6
418.292	4.91
418.653	4.94
419.015	5.04
419.377	4.95
419.738	4.91
420.1	4.93
420.461	4.93
420.822	4.89
421.184	4.81
421.545	4.93
421.906	4.68
422.267	4.83
422.629	4.74
422.99	4.89
423.351	4.85
423.712	4.86
424.073	4.83
424.434	4.82
424.795	4.82
425.155	4.8
425.516	4.81
425.877	4.9
426.238	4.86
426.598	4.9
426.959	4.92
427.32	4.95
427.68	4.9
428.041	4.99
428.401	4.97
428.761	5.17
429.122	5.03
429.482	4.91
429.842	5.11
430.202	5.08
430.563	5.12
430.923	4.89
431.283	5.27
431.643	5.09
432.003	5.17
432.363	5.29
432.722	5.02
433.082	4.98
433.442	5.22
433.802	5.1
434.161	4.99
434.521	5.46
434.881	5.13
435.24	5.01
435.6	4.99
435.959	5.2
436.319	5.23
436.678	5.17
437.037	5.24
437.396	5.31
437.756	5.21
438.115	5.16
438.474	5.38
438.833	4.94
439.192	5.19
439.551	5.33
439.91	5.3
440.269	5.27
440.628	5.1
440.987	5.2
441.345	5.1
441.704	5.2
442.063	5.2
442.421	5.11
442.78	5.18
443.138	5.18
443.497	5.26
443.855	5.27
444.214	5.34
444.572	5.31
444.93	5.29
445.288	5.34
445.647	5.49
446.005	5.49
446.363	5.31
446.721	5.28
447.079	5.21
447.437	5.33
447.795	5.39
448.153	5.23
448.51	5.27
448.868	5.18
449.226	5.31
449.584	5.29
449.941	5.52
450.299	5.31
450.656	5.34
451.014	5.35
451.371	5.31
451.729	5.35
452.086	5.66
452.443	5.46
452.801	5.48
453.158	5.56
453.515	5.36
453.872	5.63
454.229	5.5
454.586	5.38
454.943	5.47
455.3	5.57
455.657	5.59
456.014	5.46
456.371	5.58
456.727	5.53
457.084	5.58
457.441	5.44
457.797	5.48
458.154	5.78
458.51	5.6
458.867	5.73
459.223	5.73
459.58	5.71
459.936	5.48
460.292	5.51
460.648	5.62
461.005	5.49
461.361	5.58
461.717	5.67
462.073	5.44
462.429	5.48
462.785	5.58
463.141	5.69
463.496	5.59
463.852	5.7
464.208	5.75
464.564	5.77
464.919	5.69
465.275	5.79
465.631	5.67
465.986	5.8
466.342	5.67
466.697	5.62
467.052	5.74
467.408	5.83
467.763	5.79
468.118	5.76
468.473	5.53
468.829	5.75
469.184	5.56
469.539	5.6
469.894	5.65
470.249	5.86
470.603	5.92
470.958	5.89
471.313	5.78
471.668	6
472.023	5.91
472.377	5.83
472.732	5.84
473.086	5.79
473.441	5.86
473.795	5.98
474.15	5.97
474.504	5.95
474.859	6.02
475.213	5.71
475.567	5.79
475.921	5.99
476.275	6.1
476.63	6.03
476.984	5.87
477.338	5.95
477.692	5.95
478.045	5.9
478.399	5.86
478.753	6.1
479.107	6.07
479.461	5.88
479.814	5.96
480.168	6.01
480.521	5.94
480.875	5.96
481.228	5.95
481.582	5.99
481.935	5.96
482.289	6.01
482.642	6.01
482.995	6.1
483.348	5.96
483.701	5.88
484.055	6.07
484.408	6.03
484.761	5.88
485.114	5.84
485.466	5.7
485.819	5.64
486.172	5.67
486.525	5.68
486.878	5.75
487.23	5.79
487.583	5.92
487.936	5.91
488.288	5.94
488.641	6
488.993	5.9
489.345	5.78
489.698	5.79
490.05	5.84
490.402	5.85
490.754	5.89
491.107	5.93
491.459	6.07
491.811	6.08
492.163	6.12
492.515	6.06
492.866	6.14
493.218	6
493.57	5.96
493.922	5.88
494.274	6.04
494.625	6.06
494.977	6.2
495.328	6.21
495.68	6.31
496.031	6.29
496.383	6.13
496.734	6.54
497.086	6.42
497.437	6.32
497.788	6.41
498.139	6.3
498.49	6.38
498.842	6.22
499.193	6.36
499.544	6.3
499.894	6.42
500.245	6.44
500.596	6.12
500.947	6.45
501.298	6.42
501.648	6.49
501.999	6.55
502.35	6.47
502.7	6.52
503.051	6.21
503.401	6.33
503.752	6.77
504.102	6.43
504.452	6.64
504.803	6.54
505.153	6.48
505.503	6.7
505.853	6.53
506.203	6.6
506.553	6.39
506.903	6.59
507.253	6.45
507.603	6.49
507.953	6.78
508.303	6.82
508.652	6.5
509.002	6.6
509.352	6.55
509.701	6.57
510.051	6.6
510.4	6.47
510.75	6.6
511.099	6.67
511.449	6.54
511.798	6.66
512.147	6.54
512.496	6.71
512.846	6.79
513.195	6.84
513.544	6.74
513.893	6.71
514.242	6.67
514.591	6.85
514.939	6.72
515.288	6.68
515.637	6.88
515.986	6.8
516.334	6.75
516.683	7
517.032	6.89
517.38	6.98
517.729	7
518.077	6.74
518.426	6.82
518.774	7
519.122	6.79
519.47	6.9
519.819	6.68
520.167	6.86
520.515	6.74
520.863	6.83
521.211	6.78
521.559	6.89
521.907	6.87
522.255	6.99
522.602	6.92
522.95	6.97
523.298	6.95
523.645	7.08
523.993	6.98
524.341	7.09
524.688	7.06
525.036	7.1
525.383	7.1
525.73	7.17
526.078	7.13
526.425	7.03
526.772	7.2
527.119	7.04
527.466	6.9
527.814	7.05
528.161	6.96
528.508	7.09
528.854	6.98
529.201	6.99
529.548	6.96
529.895	6.9
530.242	6.78
530.588	6.83
530.935	6.81
531.282	6.86
531.628	6.94
531.975	6.88
532.321	7.03
532.667	7.09
533.014	7.25
533.36	7.14
533.706	7.18
534.052	7.18
534.399	7.19
534.745	7.22
535.091	7.1
535.437	7.09
535.783	7.19
536.129	7.18
536.474	7.21
536.82	7.31
537.166	7.4
537.512	7.35
537.857	7.48
538.203	7.4
538.549	7.25
538.894	7.28
539.239	7.5
539.585	7.39
539.93	7.39
540.276	7.63
540.621	7.54
540.966	7.66
541.311	7.37
541.656	7.58
542.001	7.55
542.346	7.7
542.691	7.5
543.036	7.46
543.381	7.27
543.726	7.26
544.071	7.42
544.415	7.55
544.76	7.43
545.105	7.47
545.449	7.52
545.794	7.71
546.138	7.74
546.483	7.67
546.827	7.8
547.171	7.77
547.516	7.82
547.86	7.78
548.204	7.75
548.548	7.82
548.892	7.88
549.236	7.82
549.58	7.89
549.924	7.96
550.268	8.03
550.612	7.88
550.956	8.07
551.3	7.91
551.643	8.27
551.987	8.27
552.33	8.22
552.674	8.07
553.017	8.18
553.361	8.1
553.704	8.35
554.048	8.05
554.391	8.11
554.734	8.25
555.077	8.2
555.42	8.06
555.764	8.21
556.107	7.94
556.45	8.18
556.793	8.25
557.135	8.29
557.478	8.54
557.821	8.37
558.164	8.24
558.507	8.46
558.849	8.36
559.192	8.64
559.534	8.57
559.877	8.57
560.219	8.47
560.562	8.59
560.904	8.65
561.246	8.52
561.589	8.59
561.931	8.55
562.273	8.44
562.615	8.72
562.957	8.59
563.299	8.55
563.641	8.58
563.983	8.72
564.325	8.49
564.667	8.59
565.008	8.52
565.35	8.77
565.692	8.59
566.033	8.64
566.375	8.97
566.716	9.07
567.058	8.87
567.399	8.66
567.741	8.61
568.082	8.94
568.423	8.77
568.764	8.76
569.105	8.89
569.447	8.91
569.788	8.76
570.129	8.95
570.47	9.07
570.811	9.01
571.151	9.07
571.492	9.16
571.833	9.04
572.174	8.93
572.514	9.01
572.855	9.09
573.195	8.81
573.536	8.97
573.876	8.8
574.217	9.07
574.557	9.09
574.898	9.13
575.238	9.19
575.578	8.96
575.918	9.43
576.258	9.33
576.598	9.08
576.938	9.22
577.278	9.28
577.618	9.08
577.958	9.04
578.298	9.37
578.638	9.21
578.977	9.44
579.317	9.42
579.657	9.58
579.996	9.6
580.336	9.65
580.675	9.23
581.014	9.64
581.354	9.38
581.693	9.62
582.032	9.48
582.372	9.32
582.711	9.59
583.05	9.54
583.389	9.87
583.728	9.51
584.067	9.73
584.406	9.77
584.745	9.61
585.083	9.98
585.422	9.45
585.761	9.95
586.1	9.95
586.438	9.84
586.777	10.19
587.115	10.35
587.454	10.08
587.792	9.9
588.13	10.5
588.469	9.91
588.807	9.85
589.145	9.93
589.483	9.7
589.821	10.32
590.159	10.03
590.497	10.01
590.835	10.41
591.173	10
591.511	10.14
591.849	10.08
592.187	10.21
592.524	10.23
592.862	10.2
593.2	10.27
593.537	10.33
593.875	10.12
594.212	10.29
594.55	10.33
594.887	10.48
595.224	9.99
595.561	10.63
595.899	10.18
596.236	10.32
596.573	10.33
596.91	10.2
597.247	10.38
597.584	10.68
597.921	10.3
598.258	10.27
598.594	10.36
598.931	10.4
599.268	10.33
599.604	10.41
599.941	10.38
600.277	10.49
600.614	10.57
600.95	10.49
601.287	10.72
601.623	10.72
601.959	10.5
602.296	10.62
602.632	10.55
602.968	11.16
603.304	10.64
603.64	10.66
603.976	10.87
604.312	10.8
604.648	10.67
604.984	10.75
605.319	10.79
605.655	10.89
605.991	11.07
606.326	10.96
606.662	10.95
606.998	10.83
607.333	10.93
607.668	10.95
608.004	11.07
608.339	11.13
608.674	11.14
609.01	10.96
609.345	11.22
609.68	11.27
610.015	11.05
610.35	11.16
610.685	10.99
611.02	11.22
611.355	11.29
611.689	11.09
612.024	11.09
612.359	11.02
612.694	11.08
613.028	11.18
613.363	11.57
613.697	11.47
614.032	11.58
614.366	11.15
614.7	11.44
615.035	11.26
615.369	11.36
615.703	11.6
616.037	11.53
616.371	11
616.705	11.27
617.039	11.48
617.373	11.31
617.707	11.42
618.041	11.32
618.375	11.63
618.709	11.66
619.042	11.79
619.376	11.94
619.71	11.72
620.043	12.11
620.377	11.59
620.71	11.44
621.043	11.4
621.377	12.15
621.71	11.66
622.043	11.67
622.376	11.5
622.709	12
623.043	12.04
623.376	12.12
623.709	12.12
624.041	12.04
624.374	12.04
624.707	12.23
625.04	12.05
625.373	11.61
625.705	11.53
626.038	11.8
626.37	11.96
626.703	12.1
627.035	11.97
627.368	12.4
627.7	12.03
628.032	12.11
628.365	12.36
628.697	12.24
629.029	11.69
629.361	12.22
629.693	12.12
630.025	12.04
630.357	12.65
630.689	12.32
631.021	12.06
631.353	12.58
631.684	12.09
632.016	12.25
632.348	12.62
632.679	12.58
633.011	12.55
633.342	12.8
633.674	12.29
634.005	12.68
634.336	12.59
634.668	12.88
634.999	12.28
635.33	13.11
635.661	12.67
635.992	12.29
636.323	12.45
636.654	12.93
636.985	12.96
637.316	12.55
637.647	12.23
637.977	13.02
638.308	12.65
638.639	12.32
638.969	12.88
639.3	12.85
639.63	12.14
639.961	12.8
640.291	12.68
640.622	12.83
640.952	12.83
641.282	13.1
641.612	13.09
641.943	12.61
642.273	13.27
642.603	13.32
642.933	13.08
643.263	13.28
643.592	13.12
643.922	13.01
644.252	12.87
644.582	12.88
644.911	12.58
645.241	12.73
645.571	13.03
645.9	12.97
646.23	13.07
646.559	13.68
646.888	13.15
647.218	12.88
647.547	13.37
647.876	12.96
648.205	13.48
648.534	12.9
648.863	13.11
649.192	13.58
649.521	13
649.85	13.16
650.179	13.13
650.508	13.01
650.837	13.09
651.165	12.96
651.494	13.78
651.822	13.44
652.151	13.05
652.479	13.19
652.808	12.72
653.136	13.66
653.465	12.79
653.793	13.23
654.121	13
654.449	13.35
654.777	13.87
655.105	14.09
655.433	13.67
655.761	13.63
656.089	13.79
656.417	13.83
656.745	13.52
657.073	13.23
657.4	14.09
657.728	13.61
658.056	13.37
658.383	13.33
658.711	14.06
659.038	14.17
659.365	13.86
659.693	13.7
660.02	13.69
660.347	13.22
660.674	14.31
661.001	13.78
661.329	13.27
661.656	13.99
661.982	13.86
662.309	13.85
662.636	13.7
662.963	14.05
663.29	14.03
663.616	14.01
663.943	13.59
664.27	13.52
664.596	13.95
664.923	13.94
665.249	14.42
665.576	14.01
665.902	14.14
666.228	13.78
666.554	14.64
666.881	14.24
667.207	13.92
667.533	13.68
667.859	14.18
668.185	14.61
668.511	13.44
668.837	12.94
669.162	14.56
669.488	13.84
669.814	14.75
670.139	14.6
670.465	15.05
670.791	14.75
671.116	14.74
671.442	14.07
671.767	14.76
672.092	14.77
672.418	14.51
672.743	14.44
673.068	14.46
673.393	14.92
673.718	14.95
674.043	14.58
674.368	14.89
674.693	15.22
675.018	14.86
675.343	14.89
675.667	14.18
675.992	14.91
676.317	15.25
676.641	14.79
676.966	14.76
677.29	14.64
677.615	14.76
677.939	14.83
678.264	15.44
678.588	15.03
678.912	15.2
679.236	15.13
679.56	14.48
679.885	15.68
680.209	14.09
680.532	14.88
680.856	15.66
681.18	14.37
681.504	14.45
681.828	15.11
682.152	14.99
682.475	14.65
682.799	15.08
683.122	15.17
683.446	14.9
683.769	15.71
684.093	14.67
684.416	15.11
684.739	15.15
685.062	15.05
685.386	15.73
685.709	14.55
686.032	15.34
