Data from 427_crown_Reflection__2__146.txt Node

Date: Fri Dec 15 17:57:24 CST 2023
User: ToomeyLab
Spectrometer: FLMS14357
Trigger mode: 0
Integration Time (sec): 1.000000E-2
Scans to average: 100
Electric dark correction enabled: true
Nonlinearity correction enabled: false
Boxcar width: 0
XAxis mode: Wavelengths
Number of Pixels in Spectrum: 2048
>>>>>Begin Spectral Data<<<<<
189.047	19.32
189.435	19.32
189.823	19.32
190.211	18.42
190.599	313.16
190.987	-1.28
191.375	-740.53
191.763	-893.48
192.151	1124.07
192.538	239.28
192.926	-36.85
193.314	88.58
193.702	-140.75
194.089	-1527.78
194.477	-2767.65
194.864	31.42
195.252	136.43
195.639	69.35
196.027	110.62
196.414	22.25
196.801	134.27
197.189	-82.04
197.576	61.89
197.963	-57.39
198.351	6
198.738	3.05
199.125	-9.06
199.512	-24.3
199.899	11.56
200.286	57.22
200.673	56.56
201.06	-5.5
201.447	-14.41
201.833	30.12
202.22	7.76
202.607	39.87
202.994	14.3
203.38	-25.74
203.767	65.48
204.154	26.74
204.54	49.35
204.927	-66.71
205.313	-5.19
205.699	18.23
206.086	55.25
206.472	-20.07
206.858	42.62
207.245	-119.06
207.631	9.82
208.017	9.26
208.403	24.28
208.789	43.01
209.175	-10.95
209.561	-18.47
209.947	29.95
210.333	-2.95
210.719	4.6
211.105	30.76
211.491	0.87
211.876	3.89
212.262	10.09
212.648	27.24
213.034	25.49
213.419	-16.25
213.805	-31.68
214.19	-41.05
214.576	22.38
214.961	1.08
215.346	-45.79
215.732	2.14
216.117	36.6
216.502	9.79
216.888	37.35
217.273	19.11
217.658	4.35
218.043	3.23
218.428	-32.83
218.813	-35.65
219.198	-56.33
219.583	7.51
219.968	19.39
220.353	-22.04
220.738	49.63
221.122	16.82
221.507	-33.45
221.892	-24.56
222.276	-23.21
222.661	-9.89
223.046	5.1
223.43	21.67
223.815	11.88
224.199	-10.59
224.583	4.44
224.968	6.3
225.352	8.83
225.736	-9.97
226.121	-8.9
226.505	-1.3
226.889	1.6
227.273	6.55
227.657	8.02
228.041	4.45
228.425	5.06
228.809	8.97
229.193	2.8
229.577	2.47
229.961	4.5
230.344	4.44
230.728	4.94
231.112	5.82
231.495	5.66
231.879	4.57
232.263	4.61
232.646	6.08
233.03	6.55
233.413	5.24
233.797	5.6
234.18	4.48
234.563	4.35
234.946	0.06
235.33	5.03
235.713	5.37
236.096	3.62
236.479	7.25
236.862	5.8
237.245	5.13
237.628	4.24
238.011	4.38
238.394	6.45
238.777	5.85
239.16	3.54
239.543	4.16
239.925	5.47
240.308	5.1
240.691	5.53
241.073	5.24
241.456	5.51
241.838	3.88
242.221	3.55
242.603	4.49
242.986	5.26
243.368	5.22
243.75	5.25
244.133	4.5
244.515	5.02
244.897	5.15
245.279	5.34
245.661	4.52
246.043	4.43
246.425	4.55
246.807	4.87
247.189	4.81
247.571	5.25
247.953	5.26
248.335	4.89
248.717	4.8
249.098	4.48
249.48	4.85
249.862	4.41
250.243	4.92
250.625	4.54
251.006	4.96
251.388	3.28
251.769	5.31
252.151	4.68
252.532	4.48
252.913	4.32
253.295	4.29
253.676	4.4
254.057	4.6
254.438	4.77
254.819	3.61
255.2	4.69
255.581	4.59
255.962	3.12
256.343	3.99
256.724	3.6
257.105	5.47
257.486	3.38
257.867	5.64
258.247	3.76
258.628	3.06
259.009	4.47
259.389	4.58
259.77	4.18
260.15	4.21
260.531	4.06
260.911	4.68
261.292	4.24
261.672	4.58
262.052	4.45
262.432	4.95
262.813	4.37
263.193	4.66
263.573	3.65
263.953	4.71
264.333	4.12
264.713	3.79
265.093	4.04
265.473	4.7
265.853	4.07
266.233	4
266.612	2.1
266.992	3.25
267.372	4.15
267.752	4.89
268.131	4.65
268.511	4.3
268.89	5.2
269.27	4.27
269.649	3.96
270.029	4.19
270.408	5.21
270.787	4.5
271.167	4.41
271.546	4.85
271.925	3.57
272.304	4.19
272.683	4.3
273.062	3.87
273.441	4.73
273.82	3.81
274.199	4.13
274.578	4.82
274.957	4.02
275.336	4.04
275.715	3.91
276.093	3.52
276.472	4
276.851	4.3
277.229	3.66
277.608	3.14
277.986	4.14
278.365	4.43
278.743	4.08
279.122	4.4
279.5	4.42
279.878	4.3
280.257	4.25
280.635	3.93
281.013	3.73
281.391	4.35
281.769	4.6
282.147	4.7
282.525	5
282.903	4.48
283.281	3.98
283.659	4.6
284.037	4.32
284.415	4.34
284.792	4.95
285.17	3.15
285.548	3.82
285.925	4
286.303	3.96
286.68	4.04
287.058	3.79
287.435	4
287.813	4.06
288.19	4.09
288.567	3.98
288.945	4.59
289.322	3.97
289.699	3.62
290.076	4.31
290.453	4.06
290.83	4.61
291.207	4.17
291.584	3.98
291.961	4.31
292.338	4.06
292.715	3.99
293.092	4.07
293.469	3.76
293.845	4.75
294.222	3.37
294.599	3.86
294.975	4.02
295.352	4.54
295.728	3.47
296.105	3.81
296.481	4.08
296.858	4.24
297.234	3.35
297.61	3.9
297.986	3.89
298.363	4.05
298.739	3.94
299.115	3.86
299.491	3.78
299.867	3.81
300.243	4.13
300.619	3.68
300.995	3.78
301.371	3.77
301.746	3.5
302.122	4.39
302.498	3.9
302.874	3.79
303.249	4.02
303.625	3.93
304	4.46
304.376	4.09
304.751	2.86
305.127	4.33
305.502	3.64
305.878	3.31
306.253	4.2
306.628	4.43
307.003	3.49
307.378	4.01
307.754	4.14
308.129	3.02
308.504	4.18
308.879	3.37
309.254	4.74
309.629	4.43
310.003	3.52
310.378	4.01
310.753	4.66
311.128	4.01
311.502	3.94
311.877	4.49
312.252	3.58
312.626	3.76
313.001	3.62
313.375	4.3
313.75	3.34
314.124	4.16
314.498	4.18
314.873	3.54
315.247	3.8
315.621	4.18
315.995	3.01
316.369	4.26
316.743	3.68
317.117	3.69
317.491	3.67
317.865	3.88
318.239	3.54
318.613	4.12
318.987	4.31
319.361	3.12
319.734	4.28
320.108	4.41
320.482	3.46
320.855	3.81
321.229	3.6
321.602	3.62
321.976	4.12
322.349	3.12
322.723	4.01
323.096	3.74
323.469	3.02
323.843	4.06
324.216	3.7
324.589	3.8
324.962	4.24
325.335	4.21
325.708	3.51
326.081	3.85
326.454	3.91
326.827	3.4
327.2	3.58
327.573	4.04
327.945	4.48
328.318	3.32
328.691	3.16
329.063	3.53
329.436	3.89
329.809	4.35
330.181	4.02
330.553	4.19
330.926	3.41
331.298	3.63
331.671	3.71
332.043	4.37
332.415	4.21
332.787	3.74
333.159	4.6
333.532	4.48
333.904	3.84
334.276	3.53
334.648	3.76
335.02	3.83
335.391	3.91
335.763	3.4
336.135	4.11
336.507	4.1
336.879	3.81
337.25	3.74
337.622	3.78
337.993	3.86
338.365	4.28
338.736	4
339.108	4.27
339.479	3.74
339.851	3.54
340.222	3.43
340.593	4.32
340.964	3.97
341.336	4.43
341.707	3.04
342.078	4.05
342.449	4.59
342.82	3.44
343.191	3.79
343.562	3.68
343.933	3.79
344.303	3.82
344.674	4.2
345.045	3.48
345.416	4.26
345.786	3.57
346.157	4.14
346.527	3.75
346.898	3.72
347.268	4.25
347.639	3.96
348.009	3.69
348.38	3.85
348.75	3.72
349.12	4.02
349.49	4.23
349.861	3.89
350.231	3.81
350.601	3.74
350.971	4.24
351.341	3.86
351.711	4.03
352.081	4.13
352.45	3.65
352.82	4.37
353.19	3.76
353.56	3.29
353.929	3.96
354.299	3.61
354.669	3.61
355.038	4.26
355.408	3.62
355.777	4.22
356.147	3.89
356.516	3.7
356.885	3.86
357.254	4.11
357.624	4.23
357.993	4.37
358.362	3.71
358.731	3.55
359.1	4.03
359.469	4
359.838	3.87
360.207	3.96
360.576	4.16
360.945	4.14
361.314	4.6
361.682	3.78
362.051	3.82
362.42	4.15
362.788	4.16
363.157	4.27
363.525	4.22
363.894	4.1
364.262	3.99
364.631	4.04
364.999	4.41
365.367	3.6
365.735	5.18
366.104	4.29
366.472	4.28
366.84	4.01
367.208	4
367.576	4.46
367.944	4.07
368.312	4.05
368.68	3.88
369.048	4.4
369.416	4.3
369.783	3.93
370.151	4.37
370.519	4.46
370.886	4.76
371.254	4.11
371.621	4.44
371.989	4.49
372.356	3.78
372.724	4.12
373.091	3.69
373.458	4.03
373.826	4.15
374.193	4.27
374.56	4.57
374.927	4.29
375.294	4.43
375.661	4.08
376.028	4.14
376.395	4
376.762	4.18
377.129	4.03
377.496	3.88
377.863	4.2
378.229	3.72
378.596	4.03
378.963	4.18
379.329	4.06
379.696	4.31
380.062	3.93
380.429	4.1
380.795	4.25
381.161	4.29
381.528	4.23
381.894	3.93
382.26	4.1
382.626	4.21
382.993	4.07
383.359	4.44
383.725	4.07
384.091	4.35
384.457	4.47
384.823	4.07
385.188	4.18
385.554	4.45
385.92	4.27
386.286	4.28
386.651	4.28
387.017	4.56
387.383	4.21
387.748	3.93
388.114	4.54
388.479	4.04
388.845	4.6
389.21	4.53
389.575	4.48
389.94	4.36
390.306	3.96
390.671	4.51
391.036	4.19
391.401	3.81
391.766	4.34
392.131	4.22
392.496	4.39
392.861	4.12
393.226	4.32
393.591	4.23
393.956	3.95
394.32	4.26
394.685	4.13
395.05	4.2
395.414	4.35
395.779	4.03
396.143	4.29
396.508	4.44
396.872	4.6
397.236	4.47
397.601	4.24
397.965	4.54
398.329	4.23
398.694	4.32
399.058	4.41
399.422	4.11
399.786	4.66
400.15	4.29
400.514	4.11
400.878	4.59
401.242	4.43
401.605	4.5
401.969	4.38
402.333	4.3
402.697	4.52
403.06	4.31
403.424	4.14
403.787	4.11
404.151	4.52
404.514	4.4
404.878	4.27
405.241	4.5
405.604	4.19
405.968	4.59
406.331	4.29
406.694	4.65
407.057	4.36
407.42	4.49
407.783	4.14
408.146	4.46
408.509	4.22
408.872	4.15
409.235	4.29
409.598	4.49
409.961	4.42
410.323	4.61
410.686	4.36
411.049	4.28
411.411	4.39
411.774	4.17
412.136	4.35
412.499	4.27
412.861	4.42
413.223	4.5
413.586	4.39
413.948	4.66
414.31	4.47
414.672	4.11
415.035	4.15
415.397	4.71
415.759	4.31
416.121	4.57
416.483	4.49
416.845	4.28
417.206	4.33
417.568	4.8
417.93	4.37
418.292	4.35
418.653	4.6
419.015	4.53
419.377	4.42
419.738	4.33
420.1	4.55
420.461	4.43
420.822	4.46
421.184	4.42
421.545	4.33
421.906	4.18
422.267	4.27
422.629	4.24
422.99	4.34
423.351	4.36
423.712	4.31
424.073	4.39
424.434	4.34
424.795	4.31
425.155	4.42
425.516	4.25
425.877	4.3
426.238	4.21
426.598	4.39
426.959	4.3
427.32	4.21
427.68	4.27
428.041	4.48
428.401	4.43
428.761	4.3
429.122	4.61
429.482	4.4
429.842	4.58
430.202	4.51
430.563	4.59
430.923	4.29
431.283	4.71
431.643	4.46
432.003	4.38
432.363	4.53
432.722	4.3
433.082	4.59
433.442	4.39
433.802	4.33
434.161	4.29
434.521	4.63
434.881	4.67
435.24	4.35
435.6	4.37
435.959	4.36
436.319	4.56
436.678	4.39
437.037	4.53
437.396	4.62
437.756	4.54
438.115	4.41
438.474	4.73
438.833	4.25
439.192	4.36
439.551	4.49
439.91	4.45
440.269	4.39
440.628	4.42
440.987	4.54
441.345	4.33
441.704	4.46
442.063	4.3
442.421	4.48
442.78	4.4
443.138	4.27
443.497	4.53
443.855	4.31
444.214	4.42
444.572	4.58
444.93	4.49
445.288	4.43
445.647	4.67
446.005	4.35
446.363	4.45
446.721	4.52
447.079	4.27
447.437	4.42
447.795	4.41
448.153	4.15
448.51	4.35
448.868	4.35
449.226	4.54
449.584	4.39
449.941	4.53
450.299	4.5
450.656	4.47
451.014	4.48
451.371	4.37
451.729	4.44
452.086	4.64
452.443	4.41
452.801	4.72
453.158	4.53
453.515	4.22
453.872	4.62
454.229	4.44
454.586	4.43
454.943	4.42
455.3	4.56
455.657	4.43
456.014	4.41
456.371	4.69
456.727	4.61
457.084	4.73
457.441	4.54
457.797	4.72
458.154	4.77
458.51	4.54
458.867	4.68
459.223	4.7
459.58	4.5
459.936	4.51
460.292	4.54
460.648	4.49
461.005	4.49
461.361	4.52
461.717	4.37
462.073	4.34
462.429	4.42
462.785	4.58
463.141	4.45
463.496	4.63
463.852	4.69
464.208	4.53
464.564	4.53
464.919	4.64
465.275	4.56
465.631	4.58
465.986	4.46
466.342	4.56
466.697	4.44
467.052	4.47
467.408	4.72
467.763	4.63
468.118	4.5
468.473	4.49
468.829	4.61
469.184	4.48
469.539	4.55
469.894	4.39
470.249	4.74
470.603	4.79
470.958	4.82
471.313	4.65
471.668	4.51
472.023	4.6
472.377	4.55
472.732	4.57
473.086	4.53
473.441	4.57
473.795	4.66
474.15	4.73
474.504	4.54
474.859	4.72
475.213	4.51
475.567	4.63
475.921	4.62
476.275	4.61
476.63	4.75
476.984	4.76
477.338	4.84
477.692	4.44
478.045	4.69
478.399	4.43
478.753	4.67
479.107	4.6
479.461	4.59
479.814	4.53
480.168	4.53
480.521	4.69
480.875	4.69
481.228	4.5
481.582	4.57
481.935	4.58
482.289	4.56
482.642	4.61
482.995	4.49
483.348	4.44
483.701	4.48
484.055	4.5
484.408	4.5
484.761	4.43
485.114	4.3
485.466	4.15
485.819	4.13
486.172	4.23
486.525	4.33
486.878	4.43
487.23	4.51
487.583	4.54
487.936	4.5
488.288	4.42
488.641	4.43
488.993	4.31
489.345	4.25
489.698	4.34
490.05	4.32
490.402	4.44
490.754	4.42
491.107	4.57
491.459	4.54
491.811	4.54
492.163	4.67
492.515	4.45
492.866	4.58
493.218	4.41
493.57	4.25
493.922	4.38
494.274	4.54
494.625	4.6
494.977	4.62
495.328	4.68
495.68	4.62
496.031	4.73
496.383	4.54
496.734	4.7
497.086	4.71
497.437	4.7
497.788	4.6
498.139	4.46
498.49	4.56
498.842	4.4
499.193	4.56
499.544	4.6
499.894	4.56
500.245	4.67
500.596	4.57
500.947	4.66
501.298	4.49
501.648	4.72
501.999	4.75
502.35	4.65
502.7	4.59
503.051	4.48
503.401	4.59
503.752	4.66
504.102	4.54
504.452	4.77
504.803	4.68
505.153	4.6
505.503	4.6
505.853	4.69
506.203	4.48
506.553	4.65
506.903	4.54
507.253	4.66
507.603	4.57
507.953	4.71
508.303	4.73
508.652	4.52
509.002	4.66
509.352	4.63
509.701	4.61
510.051	4.45
510.4	4.61
510.75	4.53
511.099	4.6
511.449	4.62
511.798	4.56
512.147	4.66
512.496	4.64
512.846	4.64
513.195	4.57
513.544	4.71
513.893	4.71
514.242	4.44
514.591	4.77
514.939	4.57
515.288	4.55
515.637	4.59
515.986	4.66
516.334	4.74
516.683	4.76
517.032	4.67
517.38	4.73
517.729	4.63
518.077	4.51
518.426	4.6
518.774	4.58
519.122	4.62
519.47	4.56
519.819	4.4
520.167	4.62
520.515	4.54
520.863	4.57
521.211	4.62
521.559	4.71
521.907	4.67
522.255	4.57
522.602	4.67
522.95	4.68
523.298	4.76
523.645	4.78
523.993	4.58
524.341	4.83
524.688	4.64
525.036	4.58
525.383	4.79
525.73	4.87
526.078	4.69
526.425	4.57
526.772	4.71
527.119	4.49
527.466	4.5
527.814	4.54
528.161	4.57
528.508	4.63
528.854	4.6
529.201	4.54
529.548	4.47
529.895	4.36
530.242	4.27
530.588	4.31
530.935	4.33
531.282	4.46
531.628	4.54
531.975	4.61
532.321	4.6
532.667	4.61
533.014	4.61
533.36	4.76
533.706	4.61
534.052	4.59
534.399	4.54
534.745	4.45
535.091	4.39
535.437	4.42
535.783	4.52
536.129	4.58
536.474	4.57
536.82	4.66
537.166	4.73
537.512	4.7
537.857	4.57
538.203	4.62
538.549	4.44
538.894	4.51
539.239	4.55
539.585	4.63
539.93	4.52
540.276	4.74
540.621	4.72
540.966	4.68
541.311	4.51
541.656	4.62
542.001	4.54
542.346	4.66
542.691	4.49
543.036	4.38
543.381	4.27
543.726	4.39
544.071	4.55
544.415	4.63
544.76	4.62
545.105	4.61
545.449	4.59
545.794	4.61
546.138	4.65
546.483	4.75
546.827	4.6
547.171	4.68
547.516	4.88
547.86	4.66
548.204	4.58
548.548	4.56
548.892	4.59
549.236	4.57
549.58	4.6
549.924	4.75
550.268	4.84
550.612	4.78
550.956	4.76
551.3	4.63
551.643	4.83
551.987	4.87
552.33	4.7
552.674	4.67
553.017	4.69
553.361	4.73
553.704	4.74
554.048	4.6
554.391	4.62
554.734	4.66
555.077	4.74
555.42	4.66
555.764	4.69
556.107	4.67
556.45	4.5
556.793	4.7
557.135	4.75
557.478	4.98
557.821	4.8
558.164	4.59
558.507	4.76
558.849	4.75
559.192	4.75
559.534	4.73
559.877	4.89
560.219	4.49
560.562	5.02
560.904	4.7
561.246	4.7
561.589	4.64
561.931	4.74
562.273	4.67
562.615	4.75
562.957	4.66
563.299	4.46
563.641	4.81
563.983	4.82
564.325	4.63
564.667	4.58
565.008	4.83
565.35	4.88
565.692	4.61
566.033	4.79
566.375	4.87
566.716	5.02
567.058	4.68
567.399	4.63
567.741	4.63
568.082	4.68
568.423	4.62
568.764	4.64
569.105	4.62
569.447	4.78
569.788	4.68
570.129	4.72
570.47	4.75
570.811	4.69
571.151	4.96
571.492	4.81
571.833	4.78
572.174	4.75
572.514	4.81
572.855	4.57
573.195	4.68
573.536	4.73
573.876	4.58
574.217	4.56
574.557	4.85
574.898	4.97
575.238	4.83
575.578	4.61
575.918	4.89
576.258	4.8
576.598	4.84
576.938	4.6
577.278	4.7
577.618	4.58
577.958	4.65
578.298	4.77
578.638	4.74
578.977	4.76
579.317	4.64
579.657	4.67
579.996	4.94
580.336	5
580.675	4.76
581.014	4.81
581.354	4.62
581.693	4.77
582.032	4.54
582.372	4.7
582.711	4.68
583.05	4.75
583.389	4.64
583.728	4.5
584.067	4.87
584.406	4.7
584.745	4.78
585.083	4.76
585.422	4.83
585.761	5.17
586.1	4.73
586.438	4.84
586.777	4.63
587.115	5.08
587.454	4.66
587.792	4.8
588.13	4.97
588.469	4.42
588.807	4.89
589.145	4.84
589.483	4.76
589.821	4.74
590.159	4.6
590.497	4.94
590.835	4.99
591.173	4.76
591.511	5
591.849	4.63
592.187	5.01
592.524	4.81
592.862	4.63
593.2	4.84
593.537	5.02
593.875	4.58
594.212	4.61
594.55	4.87
594.887	4.86
595.224	4.71
595.561	4.79
595.899	4.87
596.236	4.79
596.573	4.83
596.91	4.32
597.247	4.67
597.584	4.96
597.921	4.75
598.258	4.73
598.594	4.9
598.931	4.5
599.268	4.84
599.604	4.55
599.941	4.93
600.277	5.05
600.614	4.66
600.95	4.51
601.287	4.73
601.623	4.62
601.959	4.51
602.296	4.68
602.632	4.74
602.968	4.86
603.304	4.77
603.64	4.75
603.976	4.76
604.312	4.85
604.648	4.48
604.984	4.78
605.319	4.85
605.655	4.57
605.991	4.71
606.326	4.73
606.662	4.74
606.998	4.42
607.333	4.72
607.668	4.84
608.004	4.76
608.339	5.2
608.674	4.8
609.01	4.78
609.345	4.47
609.68	5.03
610.015	4.64
610.35	4.64
610.685	4.57
611.02	4.77
611.355	4.74
611.689	4.82
612.024	4.79
612.359	4.73
612.694	4.51
613.028	4.63
613.363	4.86
613.697	5.07
614.032	4.82
614.366	4.8
614.7	4.98
615.035	4.73
615.369	4.94
615.703	5.01
616.037	4.89
616.371	4.56
616.705	4.75
617.039	4.72
617.373	4.66
617.707	4.89
618.041	4.48
618.375	4.84
618.709	4.93
619.042	4.42
619.376	4.99
619.71	4.66
620.043	5.02
620.377	4.92
620.71	4.43
621.043	4.69
621.377	4.83
621.71	4.61
622.043	4.33
622.376	4.25
622.709	5
623.043	5.12
623.376	4.84
623.709	4.56
624.041	4.85
624.374	4.93
624.707	4.47
625.04	5.23
625.373	4.49
625.705	4.84
626.038	4.68
626.37	4.73
626.703	4.63
627.035	5.14
627.368	5.28
627.7	4.78
628.032	4.65
628.365	4.94
628.697	4.8
629.029	4.51
629.361	4.97
629.693	4.84
630.025	4.76
630.357	5.02
630.689	4.86
631.021	4.96
631.353	4.88
631.684	4.82
632.016	4.77
632.348	5.03
632.679	5.04
633.011	4.83
633.342	5.04
633.674	4.69
634.005	5.24
634.336	4.88
634.668	5.39
634.999	4.71
635.33	5.05
635.661	4.64
635.992	4.79
636.323	4.99
636.654	4.99
636.985	4.96
637.316	4.72
637.647	4.36
637.977	5.12
638.308	4.9
638.639	4.5
638.969	4.7
639.3	4.99
639.63	4.2
639.961	4.98
640.291	4.79
640.622	4.85
640.952	4.89
641.282	4.93
641.612	4.86
641.943	4.48
642.273	5.25
642.603	5.08
642.933	4.83
643.263	4.92
643.592	4.59
643.922	5.19
644.252	4.33
644.582	4.9
644.911	4.45
645.241	4.99
645.571	4.89
645.9	4.35
646.23	4.46
646.559	4.88
646.888	4.49
647.218	4.45
647.547	5.14
647.876	4.65
648.205	5.29
648.534	4.62
648.863	4.33
649.192	4.91
649.521	4.76
649.85	4.48
650.179	4.77
650.508	4.78
650.837	4.45
651.165	4.44
651.494	4.44
651.822	4.91
652.151	4.58
652.479	5.03
652.808	4.62
653.136	4.67
653.465	4.37
653.793	4.27
654.121	4.2
654.449	4.94
654.777	4.82
655.105	5.03
655.433	5.24
655.761	4.96
656.089	4.92
656.417	4.74
656.745	4.39
657.073	4.17
657.4	5.39
657.728	5.36
658.056	4.63
658.383	4.87
658.711	4.8
659.038	4.84
659.365	4.84
659.693	5.19
660.02	4.9
660.347	4.97
660.674	5.15
661.001	5.05
661.329	3.96
661.656	4.7
661.982	4.99
662.309	4.66
662.636	4.56
662.963	4.98
663.29	5.11
663.616	5.11
663.943	4.68
664.27	4.79
664.596	5.53
664.923	4.85
665.249	4.28
665.576	4.78
665.902	5.77
666.228	5.42
666.554	5.45
666.881	4.71
667.207	5.21
667.533	4.35
667.859	5.04
668.185	5.5
668.511	4.86
668.837	4.13
669.162	4.72
669.488	4.4
669.814	5.07
670.139	4.81
670.465	5.12
670.791	5.23
671.116	5.84
671.442	4.72
671.767	4.79
672.092	5.46
672.418	4.87
672.743	5.22
673.068	4.5
673.393	5.34
673.718	4.71
674.043	4.63
674.368	5.04
674.693	5.67
675.018	4.78
675.343	4.41
675.667	4.49
675.992	5.22
676.317	4.52
676.641	5.18
676.966	5.44
677.29	4.38
677.615	5.08
677.939	5.47
678.264	5.15
678.588	5.03
678.912	5.24
679.236	5.57
679.56	4.37
679.885	6.18
680.209	4.71
680.532	4.65
680.856	5.39
681.18	5.28
681.504	5.09
681.828	4.9
682.152	4.16
682.475	4.86
682.799	4.85
683.122	5.53
683.446	4.82
683.769	5.51
684.093	4.57
684.416	4.89
684.739	4.94
685.062	4.51
685.386	5.55
685.709	5.01
686.032	5.02
686.355	5.37
686.678	4.34
687.001	4.92
687.324	5.46
687.646	5.19
687.969	4.64
688.292	5.23
688.614	4.84
688.937	6.96
689.26	5.32
689.582	5.11
689.904	4.01
690.227	5
690.549	4.75
690.871	5.98
691.194	4.71
691.516	4.56
691.838	4.71
692.16	4.08
692.482	4.95
692.804	4.6
