Data from 427_crown_Reflection__4__148.txt Node

Date: Fri Dec 15 17:57:42 CST 2023
User: ToomeyLab
Spectrometer: FLMS14357
Trigger mode: 0
Integration Time (sec): 1.000000E-2
Scans to average: 100
Electric dark correction enabled: true
Nonlinearity correction enabled: false
Boxcar width: 0
XAxis mode: Wavelengths
Number of Pixels in Spectrum: 2048
>>>>>Begin Spectral Data<<<<<
189.047	43.64
189.435	43.64
189.823	43.64
190.211	-129.61
190.599	294.08
190.987	79.03
191.375	-61.97
191.763	213.59
192.151	-330.09
192.538	126.1
192.926	143.8
193.314	103.72
193.702	60.77
194.089	1121.76
194.477	2828.68
194.864	129.44
195.252	175.53
195.639	88.09
196.027	139.13
196.414	418.39
196.801	69.77
197.189	82.98
197.576	246.01
197.963	-20.26
198.351	-47.63
198.738	15.22
199.125	23.64
199.512	-47.48
199.899	15.38
200.286	14.37
200.673	-3.86
201.06	-14.85
201.447	6.04
201.833	6.22
202.22	10.74
202.607	38.91
202.994	-4.82
203.38	-7.95
203.767	30.24
204.154	22.39
204.54	20.01
204.927	-59.98
205.313	-38.74
205.699	22.79
206.086	40.95
206.472	6.38
206.858	67.75
207.245	-70.08
207.631	34.08
208.017	-21.58
208.403	57.81
208.789	56.37
209.175	-13.85
209.561	-11.09
209.947	3.08
210.333	-20.59
210.719	5.27
211.105	47.55
211.491	8.02
211.876	24.56
212.262	32.35
212.648	16.34
213.034	0.84
213.419	-25.71
213.805	8.39
214.19	-25.88
214.576	-26.51
214.961	19.94
215.346	-10.76
215.732	47
216.117	34.76
216.502	-10.47
216.888	34.88
217.273	19.54
217.658	-10.73
218.043	19.55
218.428	-27.66
218.813	-65.5
219.198	-16.76
219.583	19.03
219.968	9.91
220.353	-1.4
220.738	51.43
221.122	16.96
221.507	-24.32
221.892	-23.46
222.276	-23.62
222.661	-10.07
223.046	9.73
223.43	22.18
223.815	9.25
224.199	1.85
224.583	-2.08
224.968	4.14
225.352	26.01
225.736	-0.84
226.121	-0.78
226.505	12.79
226.889	16.76
227.273	-2.99
227.657	9.32
228.041	9.4
228.425	5.55
228.809	8.87
229.193	8.07
229.577	4.88
229.961	7.77
230.344	8.12
230.728	8.15
231.112	8.42
231.495	7.73
231.879	7.79
232.263	10.05
232.646	9.29
233.03	8.27
233.413	8.57
233.797	7.89
234.18	5.63
234.563	6.71
234.946	6.37
235.33	9.92
235.713	7.7
236.096	9.49
236.479	9.86
236.862	7.62
237.245	8.67
237.628	6.67
238.011	9.32
238.394	10
238.777	9.06
239.16	7.04
239.543	6.85
239.925	8.96
240.308	6.96
240.691	8.55
241.073	7.99
241.456	8.17
241.838	8.26
242.221	6.94
242.603	7.84
242.986	7.84
243.368	7.76
243.75	8.02
244.133	7.48
244.515	8.24
244.897	7.1
245.279	7.66
245.661	7.42
246.043	6.7
246.425	6.63
246.807	8.41
247.189	8.23
247.571	7.76
247.953	7.86
248.335	7.75
248.717	7.71
249.098	7.4
249.48	7.54
249.862	7.11
250.243	7.67
250.625	7.39
251.006	7.65
251.388	6.24
251.769	6.53
252.151	8.27
252.532	7.27
252.913	6.24
253.295	7.66
253.676	7.43
254.057	7.91
254.438	7.05
254.819	7.05
255.2	6.66
255.581	6.46
255.962	6.07
256.343	6.82
256.724	6.71
257.105	5.82
257.486	6.36
257.867	6.95
258.247	7.28
258.628	6.33
259.009	5.96
259.389	7.28
259.77	6.68
260.15	5.65
260.531	6.27
260.911	7.63
261.292	6.86
261.672	7.15
262.052	7.07
262.432	7.1
262.813	6.74
263.193	6.65
263.573	6.94
263.953	6.66
264.333	7.12
264.713	6.97
265.093	6.12
265.473	6.48
265.853	5.8
266.233	6.81
266.612	5.14
266.992	6.38
267.372	7.08
267.752	7.29
268.131	6.82
268.511	7.84
268.89	7.09
269.27	6.86
269.649	5.96
270.029	6.3
270.408	7.05
270.787	6.46
271.167	7.16
271.546	6.49
271.925	5.61
272.304	6.71
272.683	7.7
273.062	6.57
273.441	7.03
273.82	6.08
274.199	6.52
274.578	6.6
274.957	6.5
275.336	6.27
275.715	6.54
276.093	6.22
276.472	6.48
276.851	6.8
277.229	6.5
277.608	5.83
277.986	5.77
278.365	6.36
278.743	6.66
279.122	6.31
279.5	6.61
279.878	6.31
280.257	5.95
280.635	5.75
281.013	5.47
281.391	6.83
281.769	6.22
282.147	6.67
282.525	7.23
282.903	6.17
283.281	6.21
283.659	6.58
284.037	6.2
284.415	6.68
284.792	6.71
285.17	5.8
285.548	5.65
285.925	6.39
286.303	6.62
286.68	6.29
287.058	6.32
287.435	6.07
287.813	6.15
288.19	6.14
288.567	6.47
288.945	7
289.322	6.16
289.699	5.76
290.076	5.74
290.453	5.88
290.83	5.93
291.207	5.84
291.584	6.47
291.961	6.34
292.338	5.84
292.715	6.72
293.092	6.25
293.469	6.3
293.845	6.13
294.222	6.13
294.599	6.09
294.975	6.05
295.352	6.58
295.728	5.77
296.105	5.81
296.481	6.13
296.858	6.03
297.234	6.07
297.61	6.03
297.986	6.1
298.363	6.18
298.739	6.26
299.115	5.85
299.491	5.91
299.867	5.7
300.243	5.95
300.619	6.03
300.995	6.05
301.371	5.87
301.746	5.56
302.122	6.02
302.498	5.79
302.874	6.42
303.249	6.01
303.625	5.36
304	6.54
304.376	6.23
304.751	5.29
305.127	6.71
305.502	5.26
305.878	5.51
306.253	5.86
306.628	6
307.003	5.78
307.378	5.56
307.754	5.95
308.129	5.21
308.504	5.7
308.879	5.73
309.254	6.86
309.629	6.22
310.003	5.62
310.378	6.12
310.753	5.88
311.128	5.51
311.502	6.19
311.877	6.08
312.252	5.84
312.626	6.16
313.001	5.65
313.375	6.08
313.75	5.4
314.124	5.56
314.498	5.98
314.873	5.86
315.247	5.29
315.621	5.59
315.995	5.25
316.369	5.9
316.743	5.26
317.117	5.94
317.491	5.78
317.865	5.26
318.239	6.11
318.613	5.72
318.987	5.66
319.361	5.13
319.734	5.82
320.108	6.09
320.482	6.81
320.855	5.66
321.229	5.4
321.602	5.62
321.976	5.94
322.349	5.41
322.723	5.56
323.096	5.95
323.469	5.42
323.843	5.43
324.216	5.98
324.589	5.57
324.962	5.6
325.335	5.46
325.708	5.8
326.081	5.47
326.454	5.71
326.827	4.96
327.2	5.77
327.573	5.88
327.945	5.36
328.318	5.29
328.691	5.09
329.063	5.09
329.436	5.38
329.809	6.31
330.181	5.83
330.553	6.07
330.926	5.54
331.298	5.95
331.671	5.25
332.043	5.97
332.415	5.83
332.787	5.55
333.159	5.77
333.532	5.67
333.904	5.76
334.276	5.7
334.648	5.66
335.02	5.31
335.391	5.37
335.763	5.73
336.135	5.59
336.507	5.76
336.879	5.78
337.25	5.11
337.622	5.56
337.993	5.52
338.365	5.52
338.736	5.86
339.108	5.82
339.479	5.7
339.851	5.64
340.222	5.35
340.593	5.61
340.964	5.72
341.336	6.39
341.707	5.72
342.078	6.1
342.449	6.05
342.82	6.08
343.191	6.34
343.562	6.06
343.933	5.77
344.303	6.04
344.674	5.62
345.045	6.05
345.416	5.85
345.786	5.22
346.157	5.71
346.527	5.45
346.898	4.94
347.268	6.23
347.639	5.62
348.009	5.69
348.38	5.41
348.75	5.97
349.12	5.63
349.49	5.92
349.861	5.65
350.231	6.11
350.601	5.68
350.971	5.85
351.341	6.38
351.711	5.43
352.081	6.04
352.45	5.56
352.82	6.12
353.19	5.66
353.56	5.64
353.929	6.19
354.299	5.52
354.669	5.25
355.038	6.11
355.408	5.81
355.777	6.09
356.147	6.05
356.516	6.05
356.885	5.55
357.254	5.99
357.624	6.57
357.993	5.95
358.362	5.32
358.731	5.59
359.1	5.43
359.469	5.99
359.838	5.85
360.207	5.21
360.576	5.64
360.945	5.81
361.314	6.13
361.682	5.58
362.051	5.77
362.42	6.23
362.788	5.85
363.157	5.92
363.525	6.17
363.894	6.03
364.262	5.89
364.631	5.73
364.999	6.05
365.367	5.57
365.735	6.43
366.104	5.84
366.472	5.95
366.84	5.57
367.208	5.9
367.576	6.04
367.944	6.42
368.312	6.08
368.68	5.61
369.048	5.99
369.416	6.14
369.783	5.54
370.151	6.2
370.519	6.19
370.886	5.82
371.254	6.12
371.621	6.25
371.989	6.17
372.356	5.69
372.724	6.06
373.091	5.8
373.458	6.1
373.826	5.99
374.193	6.1
374.56	6.25
374.927	6.07
375.294	6.03
375.661	6.16
376.028	5.39
376.395	5.36
376.762	5.67
377.129	6.34
377.496	5.8
377.863	6.16
378.229	5.45
378.596	6.14
378.963	6.1
379.329	5.66
379.696	6.12
380.062	5.98
380.429	5.99
380.795	6.03
381.161	6.04
381.528	6.02
381.894	6.12
382.26	5.7
382.626	6.04
382.993	6.03
383.359	6.34
383.725	5.96
384.091	6.21
384.457	6.24
384.823	6.14
385.188	6.4
385.554	6.13
385.92	6.36
386.286	6
386.651	5.92
387.017	6.24
387.383	6.22
387.748	6.3
388.114	6.54
388.479	5.98
388.845	6.29
389.21	6.29
389.575	6.1
389.94	6.09
390.306	6.2
390.671	6.42
391.036	5.77
391.401	5.93
391.766	5.97
392.131	5.91
392.496	6.23
392.861	6.05
393.226	6.19
393.591	5.91
393.956	6.06
394.32	6.04
394.685	5.88
395.05	6.34
395.414	5.96
395.779	5.99
396.143	6.21
396.508	5.95
396.872	6.24
397.236	6.37
397.601	5.97
397.965	6.36
398.329	6.46
398.694	6.45
399.058	6.15
399.422	5.98
399.786	6.2
400.15	6.35
400.514	6.33
400.878	6.24
401.242	6.53
401.605	6.35
401.969	6.01
402.333	6.3
402.697	6.16
403.06	6.16
403.424	6.26
403.787	6.34
404.151	6.49
404.514	6.37
404.878	6.21
405.241	6.57
405.604	6.32
405.968	6.32
406.331	6.08
406.694	6.36
407.057	6.24
407.42	6.27
407.783	6.08
408.146	6.3
408.509	6.05
408.872	6.13
409.235	6.36
409.598	6.49
409.961	6.11
410.323	6.27
410.686	6.01
411.049	6
411.411	6.2
411.774	6.52
412.136	6.42
412.499	6.19
412.861	6.13
413.223	6.15
413.586	6.5
413.948	6.29
414.31	6.18
414.672	6.18
415.035	6.32
415.397	6.78
415.759	6.24
416.121	6.39
416.483	6.44
416.845	6.29
417.206	6.21
417.568	6.33
417.93	6.22
418.292	6.34
418.653	6.45
419.015	6.5
419.377	6.4
419.738	6.37
420.1	6.42
420.461	6.42
420.822	6.31
421.184	6.26
421.545	6.24
421.906	6.23
422.267	6.3
422.629	6.33
422.99	6.24
423.351	6.06
423.712	6.33
424.073	6.38
424.434	6.23
424.795	6.24
425.155	6.32
425.516	6.21
425.877	6.17
426.238	6.15
426.598	6.28
426.959	6.24
427.32	6.33
427.68	6.28
428.041	6.32
428.401	6.41
428.761	6.3
429.122	6.35
429.482	6.13
429.842	6.44
430.202	6.59
430.563	6.22
430.923	6.42
431.283	6.5
431.643	6.52
432.003	6.41
432.363	6.5
432.722	6.32
433.082	6.39
433.442	6.29
433.802	6.42
434.161	6.49
434.521	6.74
434.881	6.56
435.24	6.46
435.6	6.34
435.959	6.4
436.319	6.37
436.678	6.46
437.037	6.42
437.396	6.49
437.756	6.5
438.115	6.29
438.474	6.62
438.833	6.31
439.192	6.39
439.551	6.66
439.91	6.52
440.269	6.48
440.628	6.49
440.987	6.66
441.345	6.31
441.704	6.48
442.063	6.42
442.421	6.43
442.78	6.46
443.138	6.27
443.497	6.41
443.855	6.44
444.214	6.63
444.572	6.54
444.93	6.45
445.288	6.69
445.647	6.6
446.005	6.53
446.363	6.64
446.721	6.66
447.079	6.23
447.437	6.41
447.795	6.54
448.153	6.45
448.51	6.41
448.868	6.3
449.226	6.45
449.584	6.41
449.941	6.48
450.299	6.52
450.656	6.58
451.014	6.66
451.371	6.43
451.729	6.5
452.086	6.74
452.443	6.59
452.801	6.71
453.158	6.65
453.515	6.63
453.872	6.63
454.229	6.51
454.586	6.42
454.943	6.57
455.3	6.65
455.657	6.52
456.014	6.62
456.371	6.54
456.727	6.47
457.084	6.77
457.441	6.46
457.797	6.56
458.154	6.85
458.51	6.63
458.867	6.56
459.223	6.72
459.58	6.63
459.936	6.78
460.292	6.57
460.648	6.74
461.005	6.57
461.361	6.62
461.717	6.54
462.073	6.38
462.429	6.43
462.785	6.49
463.141	6.7
463.496	6.53
463.852	6.68
464.208	6.68
464.564	6.78
464.919	6.69
465.275	6.77
465.631	6.82
465.986	6.79
466.342	6.8
466.697	6.67
467.052	6.64
467.408	6.72
467.763	6.63
468.118	6.77
468.473	6.67
468.829	6.7
469.184	6.59
469.539	6.7
469.894	6.68
470.249	6.86
470.603	6.71
470.958	6.77
471.313	6.86
471.668	6.88
472.023	6.85
472.377	6.76
472.732	6.74
473.086	6.63
473.441	6.61
473.795	6.76
474.15	6.83
474.504	6.85
474.859	6.7
475.213	6.61
475.567	6.6
475.921	6.75
476.275	6.7
476.63	6.57
476.984	6.94
477.338	6.81
477.692	6.42
478.045	6.65
478.399	6.73
478.753	6.84
479.107	6.59
479.461	6.76
479.814	6.79
480.168	6.65
480.521	6.6
480.875	6.55
481.228	6.8
481.582	6.76
481.935	6.75
482.289	6.89
482.642	6.81
482.995	6.77
483.348	6.67
483.701	6.73
484.055	6.74
484.408	6.74
484.761	6.66
485.114	6.64
485.466	6.49
485.819	6.45
486.172	6.38
486.525	6.33
486.878	6.36
487.23	6.36
487.583	6.5
487.936	6.63
488.288	6.63
488.641	6.66
488.993	6.57
489.345	6.54
489.698	6.49
490.05	6.46
490.402	6.45
490.754	6.43
491.107	6.53
491.459	6.56
491.811	6.58
492.163	6.62
492.515	6.64
492.866	6.8
493.218	6.74
493.57	6.65
493.922	6.53
494.274	6.5
494.625	6.53
494.977	6.62
495.328	6.68
495.68	6.68
496.031	6.74
496.383	6.7
496.734	6.84
497.086	6.89
497.437	6.84
497.788	6.88
498.139	6.68
498.49	6.85
498.842	6.62
499.193	6.66
499.544	6.69
499.894	6.79
500.245	6.73
500.596	6.8
500.947	6.75
501.298	6.77
501.648	6.9
501.999	6.9
502.35	6.81
502.7	6.75
503.051	6.68
503.401	6.85
503.752	6.88
504.102	6.85
504.452	6.78
504.803	6.9
505.153	6.85
505.503	6.72
505.853	6.86
506.203	6.9
506.553	6.81
506.903	6.9
507.253	6.73
507.603	6.79
507.953	6.94
508.303	6.89
508.652	6.74
509.002	7.08
509.352	6.88
509.701	6.86
510.051	6.74
510.4	6.81
510.75	6.98
511.099	6.83
511.449	6.76
511.798	6.85
512.147	6.85
512.496	6.77
512.846	6.83
513.195	6.85
513.544	6.86
513.893	6.93
514.242	6.83
514.591	6.96
514.939	6.78
515.288	6.67
515.637	6.84
515.986	6.84
516.334	7.01
516.683	6.85
517.032	6.88
517.38	6.94
517.729	6.98
518.077	6.81
518.426	6.82
518.774	6.98
519.122	6.89
519.47	6.89
519.819	6.79
520.167	6.9
520.515	6.8
520.863	6.79
521.211	6.75
521.559	6.9
521.907	6.76
522.255	6.83
522.602	6.9
522.95	6.76
523.298	6.89
523.645	6.9
523.993	6.94
524.341	6.91
524.688	6.93
525.036	6.9
525.383	6.94
525.73	7.09
526.078	6.91
526.425	6.81
526.772	7.03
527.119	6.84
527.466	6.87
527.814	6.78
528.161	6.82
528.508	6.79
528.854	6.74
529.201	6.81
529.548	6.68
529.895	6.77
530.242	6.7
530.588	6.63
530.935	6.6
531.282	6.56
531.628	6.57
531.975	6.59
532.321	6.74
532.667	6.72
533.014	6.8
533.36	6.77
533.706	6.86
534.052	6.88
534.399	6.81
534.745	6.76
535.091	6.76
535.437	6.82
535.783	6.7
536.129	6.75
536.474	6.79
536.82	6.81
537.166	6.9
537.512	6.78
537.857	6.91
538.203	6.96
538.549	6.89
538.894	6.84
539.239	6.83
539.585	6.76
539.93	6.85
540.276	6.87
540.621	6.95
540.966	6.83
541.311	6.9
541.656	6.83
542.001	6.94
542.346	6.99
542.691	6.83
543.036	6.81
543.381	6.69
543.726	6.68
544.071	6.74
544.415	6.8
544.76	6.67
545.105	6.76
545.449	6.81
545.794	6.84
546.138	6.76
546.483	6.83
546.827	6.85
547.171	6.83
547.516	7.01
547.86	6.84
548.204	6.84
548.548	6.81
548.892	6.91
549.236	6.99
549.58	6.8
549.924	6.98
550.268	6.86
550.612	7.03
550.956	7.08
551.3	6.88
551.643	7.21
551.987	7
552.33	7.04
552.674	7
553.017	6.91
553.361	6.78
553.704	7.16
554.048	6.85
554.391	6.92
554.734	6.95
555.077	7.09
555.42	6.84
555.764	6.86
556.107	6.83
556.45	6.89
556.793	6.95
557.135	6.88
557.478	7.29
557.821	7.1
558.164	6.91
558.507	7.03
558.849	6.92
559.192	7.19
559.534	7.01
559.877	7.01
560.219	6.94
560.562	7.13
560.904	6.94
561.246	6.95
561.589	7.1
561.931	7.05
562.273	6.82
562.615	6.99
562.957	7.07
563.299	6.81
563.641	7.07
563.983	6.9
564.325	6.78
564.667	6.9
565.008	6.83
565.35	6.95
565.692	6.82
566.033	7.01
566.375	7.22
566.716	7.3
567.058	6.98
567.399	6.95
567.741	6.89
568.082	7.1
568.423	6.91
568.764	6.96
569.105	7.02
569.447	6.97
569.788	6.82
570.129	6.84
570.47	6.97
570.811	7
571.151	6.89
571.492	7.02
571.833	6.95
572.174	6.96
572.514	7
572.855	6.78
573.195	7
573.536	7.07
573.876	6.91
574.217	6.89
574.557	6.88
574.898	7.02
575.238	6.96
575.578	6.98
575.918	7.11
576.258	7.16
576.598	6.99
576.938	6.96
577.278	7.05
577.618	6.88
577.958	6.99
578.298	6.76
578.638	6.97
578.977	6.97
579.317	6.78
579.657	6.89
579.996	7.06
580.336	6.85
580.675	6.93
581.014	7.14
581.354	6.79
581.693	6.93
582.032	6.92
582.372	7.01
582.711	7.03
583.05	6.74
583.389	6.9
583.728	6.77
584.067	6.97
584.406	7.01
584.745	7.11
585.083	7
585.422	6.87
585.761	7.01
586.1	7.03
586.438	6.88
586.777	7.04
587.115	7.05
587.454	6.98
587.792	7.04
588.13	7.15
588.469	6.95
588.807	7.08
589.145	6.97
589.483	6.82
589.821	7
590.159	7.05
590.497	7.42
590.835	7.29
591.173	6.73
591.511	7.04
591.849	6.98
592.187	7.29
592.524	7.04
592.862	6.89
593.2	6.99
593.537	6.94
593.875	6.97
594.212	6.93
594.55	7.05
594.887	7.34
595.224	6.9
595.561	7.01
595.899	7.15
596.236	7.17
596.573	7.34
596.91	6.69
597.247	6.78
597.584	7.2
597.921	7.02
598.258	6.91
598.594	6.97
598.931	6.98
599.268	7.07
599.604	6.96
599.941	7.02
600.277	6.92
600.614	6.77
600.95	6.67
601.287	7.08
601.623	7.1
601.959	6.83
602.296	6.96
602.632	6.97
602.968	7.31
603.304	7.14
603.64	6.88
603.976	7.06
604.312	6.87
604.648	6.9
604.984	7.07
605.319	7.08
605.655	6.86
605.991	6.87
606.326	6.95
606.662	6.99
606.998	6.78
607.333	6.92
607.668	7.03
608.004	7.05
608.339	7.08
608.674	7.13
609.01	6.59
609.345	6.79
609.68	7.25
610.015	6.78
610.35	6.95
610.685	7.09
611.02	6.95
611.355	6.77
611.689	6.98
612.024	6.96
612.359	6.76
612.694	6.75
613.028	6.88
613.363	6.85
613.697	7.08
614.032	7.08
614.366	7.17
614.7	6.74
615.035	6.88
615.369	7.03
615.703	6.9
616.037	7.15
616.371	6.86
616.705	6.85
617.039	6.83
617.373	6.95
617.707	6.72
618.041	6.97
618.375	7.16
618.709	6.93
619.042	6.47
619.376	6.94
619.71	7.3
620.043	7.27
620.377	6.96
620.71	7.15
621.043	7.15
621.377	6.86
621.71	7.12
622.043	7.01
622.376	6.94
622.709	6.87
623.043	6.81
623.376	7.24
623.709	6.57
624.041	7.16
624.374	6.83
624.707	6.64
625.04	7.07
625.373	6.39
625.705	6.96
626.038	6.82
626.37	7.07
626.703	7.03
627.035	6.99
627.368	7.43
627.7	6.95
628.032	7.08
628.365	7.04
628.697	7.03
629.029	6.79
629.361	7.12
629.693	7.09
630.025	7.09
630.357	6.98
630.689	7.2
631.021	6.79
631.353	6.8
631.684	6.78
632.016	6.52
632.348	6.94
632.679	7.09
633.011	7.02
633.342	7.19
633.674	7.02
634.005	7.62
634.336	6.99
634.668	7.3
634.999	6.87
635.33	7.1
635.661	7.25
635.992	7.12
636.323	7.14
636.654	7.5
636.985	7.4
637.316	7.1
637.647	6.93
637.977	7.44
638.308	7.51
638.639	6.62
638.969	6.95
639.3	7.22
639.63	6.55
639.961	6.95
640.291	7.05
640.622	7.32
640.952	7.06
641.282	7.59
641.612	6.92
641.943	6.44
642.273	7.06
642.603	7
642.933	7.32
643.263	7.06
643.592	6.94
643.922	6.69
644.252	6.77
644.582	7.2
644.911	6.92
645.241	6.84
645.571	6.73
645.9	7.01
646.23	7
646.559	7.53
646.888	7.06
647.218	6.86
647.547	7.23
647.876	6.71
648.205	7.12
648.534	6.91
648.863	6.55
649.192	7.44
649.521	7.04
649.85	7.21
650.179	6.73
650.508	7.01
650.837	6.73
651.165	6.85
651.494	7.22
651.822	7.11
652.151	6.61
652.479	7.01
652.808	6.7
653.136	7.41
653.465	6.46
653.793	6.61
654.121	6.89
654.449	7.23
654.777	7.17
655.105	7.22
655.433	6.79
655.761	6.51
656.089	7.26
656.417	7.01
656.745	6.68
657.073	6.97
657.4	7.88
657.728	6.92
658.056	6.59
658.383	6.93
658.711	7.13
659.038	7.38
659.365	7.47
659.693	7.6
660.02	6.83
660.347	7.01
660.674	7.03
661.001	6.88
661.329	6.54
661.656	7.45
661.982	6.78
662.309	6.96
662.636	6.86
662.963	7.05
663.29	7.29
663.616	7.26
663.943	6.7
664.27	6.9
664.596	7.34
664.923	7.19
665.249	6.92
665.576	6.48
665.902	7.59
666.228	6.82
666.554	7
666.881	7.5
667.207	6.98
667.533	7.33
667.859	7.01
668.185	6.63
668.511	7.02
668.837	6.06
669.162	7.13
669.488	6.48
669.814	7.14
670.139	7.93
670.465	8.06
670.791	7.31
671.116	7.94
671.442	6.95
671.767	6.86
672.092	7.68
672.418	7.16
672.743	7.28
673.068	6.8
673.393	7.13
673.718	6.52
674.043	7.31
674.368	6.91
674.693	8.39
675.018	6.77
675.343	7.03
675.667	7.34
675.992	7.06
676.317	7.03
676.641	7.38
676.966	7.76
677.29	7.04
677.615	7.52
677.939	7.23
678.264	7.98
678.588	7.51
678.912	7.46
679.236	7.6
679.56	6.81
679.885	7.61
680.209	6.82
680.532	7.27
680.856	7.65
681.18	6.67
681.504	6.75
681.828	7.53
682.152	7.16
682.475	6.69
682.799	7.45
683.122	7.3
683.446	6.77
683.769	7.6
684.093	7.3
684.416	7.78
684.739	7.66
685.062	6.92
685.386	7.68
685.709	7.14
686.032	7.46
686.355	7.86
686.678	6.94
687.001	8.16
687.324	8.46
687.646	7.12
687.969	7.11
688.292	7.21
688.614	7.18
688.937	7.41
689.26	6.77
689.582	7.87
689.904	7.03
690.227	6.97
690.549	7.62
690.871	7.51
691.194	6.93
691.516	6.66
691.838	7.67
692.16	6.67
692.482	7.75
