Data from 427_forehead_Reflection__2__151.txt Node

Date: Fri Dec 15 17:58:34 CST 2023
User: ToomeyLab
Spectrometer: FLMS14357
Trigger mode: 0
Integration Time (sec): 1.000000E-2
Scans to average: 100
Electric dark correction enabled: true
Nonlinearity correction enabled: false
Boxcar width: 0
XAxis mode: Wavelengths
Number of Pixels in Spectrum: 2048
>>>>>Begin Spectral Data<<<<<
189.047	-40.57
189.435	-40.57
189.823	-40.57
190.211	263.82
190.599	-33.55
190.987	53.67
191.375	220.39
191.763	-1333.15
192.151	1498.61
192.538	228.19
192.926	-2.02
193.314	-9
193.702	-94
194.089	624.54
194.477	227.21
194.864	38.59
195.252	212.38
195.639	93.07
196.027	17.39
196.414	223.76
196.801	-58.94
197.189	185.37
197.576	48.31
197.963	-250.92
198.351	18.23
198.738	-10.2
199.125	152.37
199.512	38.6
199.899	48.19
200.286	55.71
200.673	42.52
201.06	21.46
201.447	49.28
201.833	51.36
202.22	29.79
202.607	27.77
202.994	25.52
203.38	18.79
203.767	40.46
204.154	41.43
204.54	33.46
204.927	-26.9
205.313	-7.36
205.699	46.16
206.086	42.14
206.472	56.26
206.858	23.91
207.245	165.39
207.631	31.28
208.017	43.04
208.403	20.7
208.789	17.58
209.175	-1.7
209.561	-33.58
209.947	-8.77
210.333	8.26
210.719	7.88
211.105	19.74
211.491	10.03
211.876	21.66
212.262	25.75
212.648	19.04
213.034	30.3
213.419	-25.34
213.805	35.02
214.19	18.32
214.576	19.35
214.961	28.08
215.346	-12.16
215.732	4.87
216.117	5.47
216.502	-1.2
216.888	10.29
217.273	41.68
217.658	6.32
218.043	28.18
218.428	-14.88
218.813	-21.02
219.198	-17.53
219.583	44.83
219.968	32.61
220.353	7.59
220.738	26.32
221.122	20.62
221.507	17.52
221.892	-4.9
222.276	-4.77
222.661	2.67
223.046	12.54
223.43	19.22
223.815	17.95
224.199	3.52
224.583	17.36
224.968	10.86
225.352	26.65
225.736	15.25
226.121	2.88
226.505	2.47
226.889	12.42
227.273	1.96
227.657	14.32
228.041	3.98
228.425	6.47
228.809	4.88
229.193	9.34
229.577	7.39
229.961	6.69
230.344	4.06
230.728	4.3
231.112	5.41
231.495	4.67
231.879	5.28
232.263	5.56
232.646	7.02
233.03	4.83
233.413	2.66
233.797	4.63
234.18	4.03
234.563	3.75
234.946	3.58
235.33	6.87
235.713	4.42
236.096	5.71
236.479	6.04
236.862	5.08
237.245	7.48
237.628	2.98
238.011	4.89
238.394	6.83
238.777	6.13
239.16	3.82
239.543	4.87
239.925	7.14
240.308	4.03
240.691	7.5
241.073	6.59
241.456	3.48
241.838	4.85
242.221	5.61
242.603	5.18
242.986	5.43
243.368	5.18
243.75	5.39
244.133	4.78
244.515	5.36
244.897	5.05
245.279	4.79
245.661	4.88
246.043	4.6
246.425	4
246.807	6.01
247.189	5.71
247.571	5.5
247.953	5.18
248.335	5.1
248.717	4.98
249.098	4.9
249.48	4.86
249.862	4.8
250.243	4.83
250.625	4.85
251.006	5.34
251.388	4.34
251.769	5.33
252.151	5.06
252.532	5.5
252.913	3.46
253.295	4.97
253.676	5.07
254.057	5.39
254.438	4.69
254.819	4.42
255.2	2.68
255.581	5.37
255.962	4.23
256.343	5.15
256.724	4.44
257.105	4.13
257.486	4.27
257.867	6.12
258.247	4.5
258.628	4.67
259.009	4.94
259.389	5.2
259.77	3.97
260.15	4.04
260.531	3.9
260.911	5.36
261.292	4.63
261.672	4.95
262.052	4.99
262.432	5.02
262.813	5.11
263.193	5.01
263.573	4.59
263.953	5.16
264.333	5.97
264.713	4.77
265.093	4.8
265.473	5.08
265.853	3.26
266.233	4.72
266.612	3.1
266.992	3.61
267.372	4.93
267.752	5.27
268.131	5.04
268.511	5.6
268.89	5.52
269.27	4.31
269.649	4.37
270.029	4.13
270.408	5.49
270.787	4.99
271.167	5.15
271.546	4.67
271.925	3.58
272.304	4.67
272.683	4.98
273.062	4.28
273.441	5.12
273.82	4.47
274.199	4.5
274.578	4.59
274.957	4.92
275.336	4.29
275.715	4.88
276.093	4.27
276.472	4.96
276.851	4.83
277.229	4.59
277.608	4.24
277.986	5.04
278.365	4.54
278.743	4.68
279.122	4.71
279.5	4.72
279.878	5.1
280.257	4.43
280.635	4.59
281.013	4.81
281.391	5.17
281.769	5.24
282.147	5.45
282.525	5.69
282.903	5.03
283.281	4.5
283.659	5.59
284.037	4.66
284.415	4.86
284.792	5.11
285.17	3.91
285.548	4.28
285.925	5.38
286.303	5.03
286.68	4.44
287.058	4.67
287.435	4.7
287.813	4.67
288.19	4.77
288.567	4.6
288.945	5.12
289.322	4.64
289.699	4.59
290.076	5.17
290.453	4.71
290.83	4.32
291.207	4.55
291.584	5.23
291.961	4.88
292.338	5.26
292.715	5.82
293.092	5.04
293.469	4.98
293.845	5.79
294.222	4.74
294.599	5.1
294.975	5.31
295.352	5.65
295.728	5.11
296.105	4.98
296.481	5.67
296.858	5.38
297.234	5.62
297.61	5.62
297.986	5.51
298.363	5.91
298.739	5.58
299.115	5.33
299.491	5.43
299.867	5.91
300.243	6.16
300.619	5.44
300.995	5.42
301.371	6.03
301.746	5.52
302.122	6.42
302.498	5.72
302.874	5.8
303.249	6.1
303.625	6.24
304	6.06
304.376	6.09
304.751	5.67
305.127	7.31
305.502	5.49
305.878	5.66
306.253	6.22
306.628	7.04
307.003	5.67
307.378	6.73
307.754	6.09
308.129	6.26
308.504	6.58
308.879	6.07
309.254	7.51
309.629	7.08
310.003	6.99
310.378	6.91
310.753	7.25
311.128	7.3
311.502	7.07
311.877	7.19
312.252	6.54
312.626	6.87
313.001	7.06
313.375	7.25
313.75	7.04
314.124	7.57
314.498	6.89
314.873	7.49
315.247	6.93
315.621	7.75
315.995	7.12
316.369	8.15
316.743	7.72
317.117	8.32
317.491	7.82
317.865	8.17
318.239	8.57
318.613	8.02
318.987	8.21
319.361	8.21
319.734	8.32
320.108	8.88
320.482	9.07
320.855	8.34
321.229	8.13
321.602	8.68
321.976	8.86
322.349	9.11
322.723	8.61
323.096	9.81
323.469	8.06
323.843	8.97
324.216	9.25
324.589	9.12
324.962	8.6
325.335	8.87
325.708	8.9
326.081	9.14
326.454	9.25
326.827	8.75
327.2	9.45
327.573	9.48
327.945	9.12
328.318	9.44
328.691	9.02
329.063	9.52
329.436	9.48
329.809	10.75
330.181	9.63
330.553	10.41
330.926	10.4
331.298	10.4
331.671	9.68
332.043	10.68
332.415	9.9
332.787	10.25
333.159	11.41
333.532	10.73
333.904	10.52
334.276	10.41
334.648	10.64
335.02	10.67
335.391	10.34
335.763	10.53
336.135	10.98
336.507	11.29
336.879	11.12
337.25	10.88
337.622	10.73
337.993	11.57
338.365	10.78
338.736	11.34
339.108	11.76
339.479	10.86
339.851	10.99
340.222	11.52
340.593	11.48
340.964	11.36
341.336	11.5
341.707	11
342.078	11.93
342.449	11.93
342.82	11.82
343.191	11.85
343.562	11.36
343.933	11.96
344.303	11.9
344.674	12.02
345.045	11.25
345.416	11.99
345.786	12.11
346.157	12.25
346.527	11.58
346.898	11.75
347.268	12.47
347.639	11.86
348.009	12.3
348.38	12.43
348.75	12.77
349.12	11.99
349.49	12.64
349.861	13.33
350.231	12.6
350.601	13.02
350.971	12.93
351.341	12.79
351.711	12.89
352.081	13
352.45	12.8
352.82	13.29
353.19	13.19
353.56	12.79
353.929	13.08
354.299	13.2
354.669	13.16
355.038	13.58
355.408	13.2
355.777	13.27
356.147	13.21
356.516	13.81
356.885	13.73
357.254	13.83
357.624	14.15
357.993	13.99
358.362	13.61
358.731	13.42
359.1	14.04
359.469	13.89
359.838	13.99
360.207	13.92
360.576	14
360.945	14.29
361.314	14.75
361.682	14.22
362.051	14.13
362.42	14.83
362.788	14.39
363.157	14.38
363.525	14.57
363.894	14.46
364.262	14.69
364.631	14.49
364.999	14.65
365.367	14.67
365.735	15.43
366.104	14.92
366.472	14.82
366.84	15.08
367.208	15.35
367.576	14.85
367.944	15.56
368.312	15.24
368.68	15.21
369.048	15.6
369.416	15.35
369.783	15.57
370.151	15.98
370.519	15.92
370.886	15.8
371.254	15.76
371.621	16.23
371.989	16.34
372.356	15.78
372.724	15.9
373.091	15.93
373.458	16.09
373.826	16.31
374.193	16.17
374.56	16.55
374.927	16.37
375.294	16.72
375.661	16.49
376.028	16.26
376.395	16.46
376.762	16.58
377.129	16.55
377.496	16.85
377.863	16.75
378.229	16.48
378.596	17.07
378.963	17.02
379.329	16.85
379.696	17.25
380.062	17.32
380.429	17.23
380.795	17.34
381.161	17.13
381.528	17.82
381.894	17.48
382.26	17.68
382.626	17.71
382.993	17.48
383.359	17.72
383.725	17.59
384.091	17.81
384.457	18.12
384.823	17.99
385.188	17.89
385.554	17.88
385.92	18.31
386.286	18.11
386.651	18.32
387.017	18.5
387.383	18.31
387.748	18.11
388.114	18.76
388.479	18.33
388.845	18.52
389.21	18.51
389.575	18.92
389.94	18.65
390.306	18.72
390.671	19.03
391.036	18.58
391.401	18.49
391.766	18.97
392.131	18.99
392.496	19.19
392.861	18.96
393.226	19.15
393.591	19.19
393.956	19.26
394.32	19.57
394.685	19.09
395.05	19.14
395.414	19.37
395.779	19.57
396.143	19.96
396.508	19.56
396.872	19.61
397.236	19.91
397.601	19.84
397.965	19.8
398.329	20.24
398.694	20.44
399.058	20.11
399.422	20
399.786	20.42
400.15	20
400.514	20.34
400.878	20.1
401.242	20.49
401.605	20.69
401.969	20.96
402.333	20.78
402.697	20.54
403.06	20.7
403.424	20.72
403.787	20.65
404.151	20.91
404.514	20.77
404.878	20.71
405.241	21.16
405.604	20.96
405.968	21.16
406.331	20.86
406.694	21.29
407.057	21.18
407.42	21.27
407.783	21.23
408.146	21.34
408.509	21.28
408.872	21.28
409.235	21.83
409.598	21.86
409.961	21.97
410.323	21.72
410.686	22.07
411.049	21.63
411.411	21.82
411.774	22.04
412.136	21.99
412.499	21.7
412.861	22.08
413.223	21.95
413.586	22.31
413.948	22.48
414.31	22.02
414.672	22.1
415.035	22.31
415.397	22.71
415.759	22.23
416.121	22.63
416.483	22.52
416.845	22.8
417.206	22.74
417.568	22.63
417.93	22.46
418.292	22.67
418.653	22.58
419.015	22.94
419.377	22.71
419.738	22.91
420.1	22.79
420.461	22.83
420.822	22.79
421.184	22.88
421.545	22.78
421.906	22.86
422.267	22.94
422.629	22.86
422.99	22.83
423.351	22.86
423.712	22.96
424.073	23.16
424.434	22.92
424.795	23.17
425.155	23.21
425.516	23.34
425.877	23.15
426.238	23.36
426.598	23.44
426.959	23.51
427.32	23.35
427.68	23.59
428.041	23.71
428.401	23.8
428.761	23.99
429.122	24.16
429.482	24.31
429.842	24.64
430.202	24.49
430.563	24.68
430.923	24.29
431.283	24.43
431.643	24.57
432.003	24.71
432.363	24.64
432.722	25.03
433.082	24.92
433.442	24.71
433.802	24.65
434.161	24.85
434.521	25.29
434.881	24.92
435.24	24.95
435.6	24.92
435.959	24.99
436.319	25.14
436.678	25.06
437.037	25.06
437.396	25.37
437.756	25.42
438.115	25.64
438.474	25.58
438.833	25.4
439.192	25.67
439.551	25.86
439.91	25.74
440.269	25.58
440.628	25.54
440.987	25.76
441.345	25.63
441.704	25.76
442.063	25.61
442.421	25.81
442.78	25.8
443.138	25.71
443.497	25.74
443.855	25.88
444.214	26.01
444.572	26.16
444.93	26.39
445.288	26.24
445.647	26.53
446.005	26.44
446.363	26.43
446.721	26.64
447.079	26.16
447.437	26.31
447.795	26.27
448.153	26.38
448.51	26.36
448.868	26.29
449.226	26.56
449.584	26.45
449.941	26.61
450.299	26.8
450.656	26.92
451.014	26.91
451.371	27.08
451.729	27.1
452.086	27.43
452.443	27.16
452.801	27.26
453.158	27.46
453.515	27.52
453.872	27.68
454.229	27.56
454.586	27.57
454.943	27.44
455.3	27.59
455.657	27.66
456.014	27.68
456.371	27.68
456.727	27.76
457.084	27.98
457.441	27.9
457.797	28.08
458.154	28.46
458.51	28.04
458.867	28.66
459.223	28.6
459.58	28.17
459.936	28.56
460.292	28.36
460.648	28.2
461.005	28.22
461.361	28.08
461.717	28
462.073	28.02
462.429	28.18
462.785	28.23
463.141	28.3
463.496	28.47
463.852	28.49
464.208	28.69
464.564	29.28
464.919	29.22
465.275	29.24
465.631	29.46
465.986	29.04
466.342	29.1
466.697	29.29
467.052	29.44
467.408	29.48
467.763	29.56
468.118	29.49
468.473	29.4
468.829	29.33
469.184	29.4
469.539	29.35
469.894	29.55
470.249	29.87
470.603	29.97
470.958	29.87
471.313	29.84
471.668	29.99
472.023	29.87
472.377	29.75
472.732	29.87
473.086	30
473.441	29.78
473.795	30.36
474.15	30.28
474.504	30.4
474.859	30.25
475.213	30.4
475.567	30.05
475.921	30.29
476.275	30.73
476.63	30.56
476.984	30.41
477.338	30.71
477.692	30.47
478.045	30.86
478.399	30.78
478.753	30.71
479.107	30.72
479.461	30.6
479.814	30.72
480.168	30.67
480.521	30.63
480.875	30.88
481.228	30.9
481.582	30.97
481.935	31.03
482.289	30.98
482.642	30.86
482.995	30.87
483.348	30.74
483.701	30.99
484.055	30.91
484.408	30.75
484.761	30.64
485.114	30.3
485.466	29.78
485.819	29.84
486.172	29.88
486.525	29.96
486.878	30.06
487.23	30.35
487.583	30.59
487.936	30.81
488.288	30.77
488.641	30.8
488.993	30.49
489.345	30.51
489.698	30.48
490.05	30.45
490.402	30.6
490.754	30.8
491.107	30.98
491.459	31.13
491.811	31.57
492.163	31.52
492.515	31.55
492.866	31.51
493.218	31.25
493.57	31.04
493.922	31.1
494.274	31.36
494.625	31.47
494.977	31.77
495.328	32.11
495.68	32.36
496.031	32.46
496.383	32.52
496.734	32.78
497.086	32.81
497.437	32.62
497.788	32.81
498.139	32.53
498.49	32.46
498.842	32.56
499.193	32.62
499.544	32.71
499.894	32.71
500.245	32.85
500.596	32.96
500.947	33.19
501.298	33.02
501.648	33.2
501.999	33.28
502.35	33.39
502.7	33.21
503.051	33.37
503.401	33.77
503.752	33.77
504.102	33.75
504.452	33.65
504.803	33.64
505.153	33.59
505.503	33.66
505.853	33.68
506.203	33.71
506.553	33.78
506.903	33.57
507.253	33.66
507.603	33.61
507.953	33.99
508.303	33.87
508.652	33.75
509.002	34.13
509.352	33.94
509.701	34.09
510.051	34.07
510.4	33.98
510.75	33.92
511.099	33.93
511.449	34.07
511.798	33.93
512.147	34.1
512.496	34.22
512.846	34.31
513.195	34.15
513.544	34.3
513.893	34.51
514.242	34.17
514.591	34.6
514.939	34.51
515.288	34.42
515.637	34.67
515.986	34.69
516.334	35
516.683	34.7
517.032	34.74
517.38	35.2
517.729	34.94
518.077	34.88
518.426	34.98
518.774	34.91
519.122	35.13
519.47	34.85
519.819	34.67
520.167	34.77
520.515	34.37
520.863	34.47
521.211	34.7
521.559	34.92
521.907	34.96
522.255	34.89
522.602	35.23
522.95	35.07
523.298	35.42
523.645	35.4
523.993	35.49
524.341	35.53
524.688	35.52
525.036	35.58
525.383	35.74
525.73	35.77
526.078	35.65
526.425	35.55
526.772	35.53
527.119	35.41
527.466	35.14
527.814	35.15
528.161	35.15
528.508	35.34
528.854	35.34
529.201	35.33
529.548	35.14
529.895	35.03
530.242	34.57
530.588	34.48
530.935	34.48
531.282	34.63
531.628	34.76
531.975	35.19
532.321	35.36
532.667	35.57
533.014	35.77
533.36	35.6
533.706	36.02
534.052	35.88
534.399	35.85
534.745	35.79
535.091	35.43
535.437	35.45
535.783	35.64
536.129	35.61
536.474	35.85
536.82	36.1
537.166	36.2
537.512	36.55
537.857	36.38
538.203	36.31
538.549	36.17
538.894	36.22
539.239	36.33
539.585	36.35
539.93	36.6
540.276	36.95
540.621	36.91
540.966	37.04
541.311	37.1
541.656	37
542.001	36.98
542.346	37.04
542.691	36.51
543.036	36.13
543.381	35.93
543.726	36.19
544.071	36.19
544.415	36.35
544.76	36.51
545.105	36.51
545.449	36.83
545.794	36.83
546.138	37.22
546.483	37.27
546.827	37.64
547.171	37.63
547.516	37.7
547.86	37.46
548.204	37.52
548.548	37.33
548.892	37.43
549.236	37.65
549.58	37.62
549.924	37.88
550.268	37.85
550.612	38.06
550.956	38.25
551.3	38.15
551.643	38.32
551.987	38.7
552.33	38.86
552.674	38.34
553.017	38.54
553.361	38.43
553.704	38.6
554.048	38.45
554.391	38.43
554.734	38.29
555.077	38.38
555.42	38.46
555.764	38.42
556.107	38.37
556.45	38.62
556.793	38.58
557.135	38.9
557.478	38.91
557.821	38.94
558.164	38.98
558.507	39.23
558.849	38.99
559.192	39.4
559.534	39.22
559.877	39.39
560.219	39.41
560.562	39.21
560.904	39.27
561.246	39.44
561.589	39.57
561.931	39.57
562.273	39.22
562.615	39.35
562.957	39.56
563.299	39.32
563.641	39.22
563.983	39.74
564.325	39.45
564.667	39.45
565.008	39.57
565.35	39.84
565.692	39.68
566.033	39.78
566.375	39.63
566.716	39.98
567.058	39.78
567.399	39.4
567.741	39.56
568.082	39.45
568.423	39.48
568.764	39.59
569.105	39.81
569.447	39.76
569.788	39.78
570.129	39.76
570.47	39.93
570.811	39.91
571.151	40.23
571.492	39.81
571.833	40.34
572.174	39.92
572.514	40.47
572.855	40.04
573.195	40.07
573.536	40.11
573.876	40.21
574.217	39.91
574.557	40.01
574.898	39.9
575.238	40.07
575.578	40.16
575.918	40.13
576.258	40.34
576.598	40.68
576.938	40.35
577.278	40.21
577.618	40.38
577.958	40.29
578.298	40.55
578.638	40.65
578.977	40.53
579.317	40.81
579.657	40.93
579.996	40.9
580.336	40.79
580.675	41.07
581.014	41.36
581.354	41.02
581.693	41.18
582.032	41.25
582.372	41.31
582.711	41.15
583.05	41.04
583.389	41.58
583.728	41.21
584.067	41.45
584.406	41.18
584.745	41.47
585.083	41.48
585.422	41.96
585.761	41.47
586.1	41.55
586.438	41.74
586.777	42.03
587.115	41.77
587.454	41.9
587.792	41.51
588.13	41.85
588.469	41.66
588.807	41.66
589.145	41.6
589.483	41.98
589.821	41.94
590.159	41.94
590.497	42.24
590.835	41.99
591.173	41.63
591.511	41.92
591.849	41.7
592.187	41.8
592.524	42.09
592.862	41.95
593.2	41.79
593.537	41.8
593.875	42.4
594.212	42.09
594.55	42.06
594.887	42.58
595.224	42.12
595.561	42.13
595.899	42.42
596.236	42.25
596.573	42.82
596.91	41.88
597.247	42.2
597.584	42.45
597.921	42.52
598.258	42.29
598.594	42.42
598.931	41.97
599.268	42.08
599.604	41.8
599.941	42.21
600.277	42.33
600.614	42.4
600.95	42.86
601.287	42.59
601.623	42.48
601.959	42.91
602.296	43.23
602.632	43.08
602.968	42.98
603.304	42.53
603.64	42.44
603.976	42.46
604.312	42.91
604.648	43.17
604.984	43.13
605.319	42.66
605.655	42.84
605.991	42.7
606.326	42.81
606.662	42.61
606.998	42.4
607.333	42.66
607.668	42.83
608.004	43.01
608.339	43.15
608.674	43.38
609.01	42.88
609.345	43.71
609.68	43.3
610.015	43.24
610.35	43.14
610.685	43.16
611.02	43.24
611.355	43.13
611.689	43.2
612.024	43.41
612.359	43.35
612.694	43.18
613.028	43.07
613.363	43.53
613.697	43.5
614.032	43.47
614.366	43.88
614.7	43.9
615.035	43.97
615.369	44.07
615.703	43.97
616.037	44.14
616.371	44.08
616.705	44.02
617.039	44.45
617.373	43.62
617.707	44.26
618.041	44.3
618.375	44.43
618.709	44.19
619.042	43.81
619.376	44.44
619.71	44.23
620.043	44.71
620.377	44.27
620.71	43.66
621.043	44.21
621.377	44.58
621.71	44.52
622.043	44.55
622.376	44.23
622.709	44.76
623.043	44.56
623.376	44.87
623.709	44.57
624.041	44.87
624.374	44.83
624.707	44.89
625.04	45.02
625.373	44.76
625.705	44.84
626.038	44.44
626.37	44.47
626.703	44.52
627.035	44.84
627.368	44.83
627.7	45.03
628.032	44.7
628.365	45.06
628.697	44.59
629.029	44.57
629.361	44.93
629.693	44.89
630.025	45.05
630.357	44.96
630.689	45.51
631.021	44.92
631.353	45.26
631.684	45.14
632.016	45.4
632.348	45.25
632.679	45.04
633.011	45.14
633.342	45.48
633.674	45.72
634.005	45.24
634.336	45.28
634.668	45.79
634.999	45.68
635.33	45.77
635.661	45.36
635.992	45.38
636.323	45.01
636.654	46.02
636.985	45.64
637.316	45.74
637.647	45.37
637.977	45.59
638.308	45.79
638.639	45.19
638.969	45.63
639.3	45.36
639.63	45.99
639.961	45.77
640.291	45.88
640.622	46.12
640.952	45.91
641.282	46.38
641.612	46.1
641.943	46.2
642.273	45.74
642.603	46.24
642.933	46.22
643.263	46.57
643.592	45.91
643.922	46.75
644.252	46.27
644.582	46.15
644.911	46.38
645.241	46.73
645.571	46.18
645.9	46.49
646.23	46.68
646.559	46.58
646.888	46.66
647.218	46.34
647.547	46.26
647.876	45.8
648.205	46.17
648.534	46.36
648.863	46.05
649.192	46.4
649.521	47
649.85	46.9
650.179	46.9
650.508	46.73
650.837	46.26
651.165	46.49
651.494	46.69
651.822	46.47
652.151	47.11
652.479	46.72
652.808	46.44
653.136	46.22
653.465	46.17
653.793	46.39
654.121	47.12
654.449	47.14
654.777	46.82
655.105	46.7
655.433	47.15
655.761	46.79
656.089	47.34
656.417	47.14
656.745	47.67
657.073	46.31
657.4	47.48
657.728	46.85
658.056	46.89
658.383	47.54
658.711	47.13
659.038	47.28
659.365	47.66
659.693	47.22
660.02	47.25
660.347	47.14
660.674	47.7
661.001	47.23
661.329	46.64
661.656	47.48
661.982	46.6
662.309	47.51
662.636	46.79
662.963	47.71
663.29	47.77
663.616	47.34
663.943	46.65
664.27	47.76
664.596	47.89
664.923	48.15
665.249	47.71
665.576	47.43
665.902	47.64
666.228	48.32
666.554	48.06
666.881	48.16
667.207	47.79
667.533	47.44
667.859	47.85
668.185	47.94
668.511	48.13
668.837	47.79
669.162	47.88
669.488	47.8
669.814	48.02
