Data from 1597-1_chest_Reflection__1__31.txt Node

Date: Fri Nov 11 16:24:37 CST 2022
User: ToomeyLab
Spectrometer: FLMS14357
Trigger mode: 0
Integration Time (sec): 1.000000E-2
Scans to average: 100
Electric dark correction enabled: true
Nonlinearity correction enabled: false
Boxcar width: 0
XAxis mode: Wavelengths
Number of Pixels in Spectrum: 2048
>>>>>Begin Spectral Data<<<<<
189.047	76.71
189.435	76.71
189.823	76.71
190.211	-94.26
190.599	93.5
190.987	802.56
191.375	88.27
191.763	-207.16
192.151	1608.7
192.538	-2548.94
192.926	60.49
193.314	-91.96
193.702	266.21
194.089	-26.53
194.477	-76.39
194.864	-121.45
195.252	115.86
195.639	27.27
196.027	-30.3
196.414	111.81
196.801	332.49
197.189	-6.93
197.576	-14.47
197.963	68.55
198.351	6.93
198.738	-60.09
199.125	4.8
199.512	38.57
199.899	-0.43
200.286	11.64
200.673	2.33
201.06	-40.68
201.447	21.04
201.833	21.35
202.22	24.62
202.607	65.63
202.994	38.91
203.38	12.4
203.767	17.9
204.154	-16.74
204.54	46.57
204.927	35.05
205.313	24.64
205.699	19.8
206.086	29.57
206.472	43.03
206.858	10.34
207.245	12.99
207.631	17.38
208.017	-7.24
208.403	-0.02
208.789	-40.6
209.175	-1.68
209.561	16.99
209.947	24.67
210.333	32.1
210.719	33.66
211.105	-21.47
211.491	-55.35
211.876	31.34
212.262	-41.08
212.648	-11.58
213.034	10.41
213.419	16.67
213.805	11.85
214.19	-16.92
214.576	17.42
214.961	-40.26
215.346	-57.01
215.732	-41.16
216.117	20.76
216.502	0.3
216.888	-1.17
217.273	38.48
217.658	-10.28
218.043	-7.42
218.428	-13.66
218.813	32.72
219.198	-19.74
219.583	-4.62
219.968	18.92
220.353	-20.53
220.738	-21.1
221.122	2.18
221.507	22.29
221.892	-1.01
222.276	16.97
222.661	-2.63
223.046	11.58
223.43	3.73
223.815	5.62
224.199	11.27
224.583	-9.67
224.968	12.17
225.352	2.73
225.736	9.22
226.121	1
226.505	5.12
226.889	8.45
227.273	4.36
227.657	-2.39
228.041	1.18
228.425	4.07
228.809	4.73
229.193	1.65
229.577	3.17
229.961	2.15
230.344	1.81
230.728	2.81
231.112	3.15
231.495	3.24
231.879	2.47
232.263	1.7
232.646	1.37
233.03	1.99
233.413	1
233.797	2.47
234.18	3.03
234.563	0.28
234.946	0.24
235.33	1.74
235.713	1.6
236.096	1.61
236.479	2.4
236.862	3.77
237.245	3.05
237.628	2.25
238.011	1.81
238.394	3.39
238.777	1.92
239.16	2.08
239.543	2.42
239.925	3.27
240.308	1.14
240.691	1.44
241.073	2.18
241.456	0.78
241.838	3.23
242.221	2.34
242.603	1.69
242.986	2.6
243.368	1.57
243.75	2.63
244.133	2.26
244.515	2.05
244.897	2.32
245.279	2.38
245.661	1.65
246.043	2.95
246.425	2.89
246.807	1.46
247.189	1.34
247.571	0.81
247.953	2.16
248.335	2.8
248.717	2.24
249.098	2.28
249.48	2.54
249.862	2.25
250.243	2.06
250.625	2.33
251.006	2.29
251.388	1.89
251.769	3.22
252.151	2.01
252.532	3.09
252.913	2.05
253.295	1.76
253.676	2.09
254.057	2.58
254.438	2.35
254.819	1.59
255.2	3.32
255.581	2.07
255.962	2.04
256.343	2.28
256.724	2.19
257.105	2.68
257.486	2.05
257.867	2.19
258.247	2.34
258.628	3.11
259.009	1.84
259.389	2.46
259.77	2.96
260.15	2.64
260.531	1.88
260.911	2.32
261.292	2.42
261.672	2.2
262.052	2.17
262.432	2.86
262.813	2.16
263.193	2.07
263.573	2.61
263.953	2.75
264.333	2.46
264.713	1.59
265.093	2.73
265.473	3.54
265.853	2.04
266.233	1.93
266.612	1.82
266.992	1.96
267.372	2.23
267.752	2.33
268.131	1.88
268.511	2.44
268.89	2.92
269.27	2.17
269.649	1.63
270.029	2
270.408	2.28
270.787	2.91
271.167	1.76
271.546	2.81
271.925	2.27
272.304	2.72
272.683	2.23
273.062	2.53
273.441	2.13
273.82	2.12
274.199	2.36
274.578	2.43
274.957	1.64
275.336	2.54
275.715	2.05
276.093	2.37
276.472	1.99
276.851	1.97
277.229	1.98
277.608	2.2
277.986	2.25
278.365	2.67
278.743	2.37
279.122	1.92
279.5	1.91
279.878	2.2
280.257	2.86
280.635	1.9
281.013	2.17
281.391	1.74
281.769	2.76
282.147	1.88
282.525	2.15
282.903	2.77
283.281	2.35
283.659	1.97
284.037	2.32
284.415	2.36
284.792	2.59
285.17	2
285.548	2.5
285.925	2.37
286.303	2.5
286.68	2.29
287.058	2.13
287.435	2.48
287.813	2.19
288.19	2.31
288.567	2
288.945	1.73
289.322	1.83
289.699	2.18
290.076	2.19
290.453	2.01
290.83	2.27
291.207	2.19
291.584	2.18
291.961	1.84
292.338	2.81
292.715	2.28
293.092	1.95
293.469	2.36
293.845	2.18
294.222	2.81
294.599	2.5
294.975	2.16
295.352	2.59
295.728	2.08
296.105	1.95
296.481	1.98
296.858	2.14
297.234	2.38
297.61	1.96
297.986	1.4
298.363	2.24
298.739	2.17
299.115	2.2
299.491	2.43
299.867	2.29
300.243	2.28
300.619	1.92
300.995	1.92
301.371	2.08
301.746	2.41
302.122	2.32
302.498	1.4
302.874	2.3
303.249	1.98
303.625	2
304	1.92
304.376	2.93
304.751	2.37
305.127	2.71
305.502	2.74
305.878	2.65
306.253	2.48
306.628	2.55
307.003	2.23
307.378	2.56
307.754	2.8
308.129	2.77
308.504	2.21
308.879	2.1
309.254	2.04
309.629	2.33
310.003	2.33
310.378	1.78
310.753	1.96
311.128	2.56
311.502	2.02
311.877	2.49
312.252	2.05
312.626	1.96
313.001	2.36
313.375	2.33
313.75	2.58
314.124	2.28
314.498	3.11
314.873	2.47
315.247	2.54
315.621	1.89
315.995	2.29
316.369	2.54
316.743	2.56
317.117	2.32
317.491	2.58
317.865	2.14
318.239	2.5
318.613	2.18
318.987	2.6
319.361	2.28
319.734	2.48
320.108	2.79
320.482	1.74
320.855	2.08
321.229	2.67
321.602	2.51
321.976	2.05
322.349	2.61
322.723	2.64
323.096	2.59
323.469	2.73
323.843	2.99
324.216	1.69
324.589	2.45
324.962	2.41
325.335	3.06
325.708	2.25
326.081	2.26
326.454	2.28
326.827	2.47
327.2	2.31
327.573	2.62
327.945	2.42
328.318	2.58
328.691	2.73
329.063	2.62
329.436	2.51
329.809	2.32
330.181	2.92
330.553	2.72
330.926	2.24
331.298	2.67
331.671	2.78
332.043	2.96
332.415	2.53
332.787	2.65
333.159	2.91
333.532	2.23
333.904	2.39
334.276	2.75
334.648	2.25
335.02	2.86
335.391	2.42
335.763	2.42
336.135	2.39
336.507	2.83
336.879	2.53
337.25	1.85
337.622	2.64
337.993	2.7
338.365	2.86
338.736	2.43
339.108	2.46
339.479	2.74
339.851	2.29
340.222	2.2
340.593	1.71
340.964	2.05
341.336	2.41
341.707	2.55
342.078	2.61
342.449	2.67
342.82	2.55
343.191	2.99
343.562	3.07
343.933	1.92
344.303	2.8
344.674	2.65
345.045	2.35
345.416	2.55
345.786	2.42
346.157	2.63
346.527	2.58
346.898	1.95
347.268	2.71
347.639	2.46
348.009	2.52
348.38	2.5
348.75	2.95
349.12	2.57
349.49	2.68
349.861	2.39
350.231	2.58
350.601	3.14
350.971	2.35
351.341	2.47
351.711	2.56
352.081	1.82
352.45	2.68
352.82	2.75
353.19	2.21
353.56	2.39
353.929	2.82
354.299	2.69
354.669	2.58
355.038	2.66
355.408	2.23
355.777	2.74
356.147	2.58
356.516	2.42
356.885	2.6
357.254	2.53
357.624	2.72
357.993	2.93
358.362	2.56
358.731	2.63
359.1	2.28
359.469	2.65
359.838	2.78
360.207	2.72
360.576	2.62
360.945	2.66
361.314	2.63
361.682	2.74
362.051	2.47
362.42	2.5
362.788	2.39
363.157	2.75
363.525	2.78
363.894	2.43
364.262	2.36
364.631	2.59
364.999	2.67
365.367	2.5
365.735	2.6
366.104	2.25
366.472	2.75
366.84	2.54
367.208	2.57
367.576	2.61
367.944	2.77
368.312	2.7
368.68	2.61
369.048	2.49
369.416	2.23
369.783	2.29
370.151	2.54
370.519	2.76
370.886	2.49
371.254	2.46
371.621	3.03
371.989	2.51
372.356	2.46
372.724	2.61
373.091	2.58
373.458	2.66
373.826	2.8
374.193	2.54
374.56	2.56
374.927	2.73
375.294	2.63
375.661	3.13
376.028	2.65
376.395	3.03
376.762	2.39
377.129	2.62
377.496	2.6
377.863	2.65
378.229	3
378.596	2.6
378.963	2.43
379.329	2.58
379.696	2.76
380.062	2.61
380.429	2.35
380.795	2.8
381.161	2.98
381.528	2.77
381.894	2.87
382.26	2.61
382.626	2.57
382.993	2.85
383.359	2.7
383.725	2.88
384.091	2.76
384.457	2.61
384.823	2.6
385.188	2.69
385.554	2.59
385.92	2.57
386.286	2.66
386.651	2.81
387.017	2.68
387.383	2.8
387.748	2.61
388.114	2.48
388.479	2.73
388.845	2.45
389.21	2.67
389.575	2.6
389.94	2.69
390.306	2.65
390.671	2.49
391.036	2.67
391.401	2.52
391.766	2.9
392.131	2.41
392.496	2.77
392.861	2.56
393.226	2.7
393.591	2.56
393.956	2.82
394.32	2.85
394.685	2.77
395.05	3.01
395.414	2.84
395.779	2.84
396.143	2.89
396.508	2.64
396.872	2.72
397.236	2.67
397.601	2.82
397.965	2.71
398.329	2.74
398.694	2.53
399.058	2.68
399.422	2.93
399.786	2.95
400.15	2.57
400.514	2.65
400.878	2.79
401.242	2.93
401.605	2.81
401.969	2.8
402.333	2.76
402.697	2.54
403.06	2.85
403.424	2.81
403.787	2.95
404.151	2.61
404.514	2.75
404.878	3.01
405.241	2.6
405.604	2.77
405.968	3.13
406.331	2.6
406.694	2.73
407.057	2.73
407.42	2.66
407.783	2.57
408.146	3.02
408.509	2.75
408.872	3.09
409.235	2.93
409.598	2.69
409.961	2.9
410.323	2.69
410.686	2.98
411.049	2.97
411.411	2.79
411.774	2.84
412.136	2.81
412.499	3
412.861	2.85
413.223	2.95
413.586	2.78
413.948	2.75
414.31	2.94
414.672	3.04
415.035	2.68
415.397	2.81
415.759	2.83
416.121	2.92
416.483	2.94
416.845	2.78
417.206	2.9
417.568	2.86
417.93	2.86
418.292	2.73
418.653	2.89
419.015	2.71
419.377	2.91
419.738	2.93
420.1	2.8
420.461	2.81
420.822	2.72
421.184	2.77
421.545	2.79
421.906	2.8
422.267	2.88
422.629	2.75
422.99	2.76
423.351	2.76
423.712	2.87
424.073	2.79
424.434	2.8
424.795	2.96
425.155	2.82
425.516	2.84
425.877	2.92
426.238	2.82
426.598	2.82
426.959	2.81
427.32	2.88
427.68	2.83
428.041	2.97
428.401	2.85
428.761	3.03
429.122	3.02
429.482	2.97
429.842	3.04
430.202	2.88
430.563	2.81
430.923	2.94
431.283	3
431.643	3.01
432.003	3.14
432.363	2.91
432.722	2.9
433.082	3.01
433.442	2.96
433.802	2.91
434.161	2.89
434.521	3
434.881	2.77
435.24	2.89
435.6	2.74
435.959	2.91
436.319	2.89
436.678	2.73
437.037	2.99
437.396	2.82
437.756	2.89
438.115	2.82
438.474	2.89
438.833	3.06
439.192	2.87
439.551	2.83
439.91	3
440.269	3.02
440.628	2.94
440.987	3.02
441.345	3.06
441.704	2.97
442.063	3.09
442.421	2.83
442.78	3.05
443.138	2.94
443.497	2.97
443.855	2.94
444.214	2.88
444.572	2.99
444.93	3.06
445.288	3.07
445.647	2.89
446.005	2.94
446.363	3.05
446.721	2.94
447.079	2.94
447.437	2.98
447.795	2.97
448.153	2.97
448.51	3
448.868	2.96
449.226	3.03
449.584	2.97
449.941	3.02
450.299	2.98
450.656	3.07
451.014	3.08
451.371	2.95
451.729	3.01
452.086	3.01
452.443	3.16
452.801	3.1
453.158	2.88
453.515	2.87
453.872	3.07
454.229	2.94
454.586	2.98
454.943	3.14
455.3	3
455.657	3.06
456.014	3.09
456.371	2.93
456.727	3.05
457.084	3.06
457.441	3.09
457.797	3.03
458.154	2.99
458.51	2.91
458.867	3.12
459.223	3.13
459.58	3.07
459.936	3.21
460.292	3.05
460.648	3.09
461.005	3.22
461.361	3.11
461.717	3
462.073	3.14
462.429	3.12
462.785	3.03
463.141	3.15
463.496	3.22
463.852	3.32
464.208	3.17
464.564	3.23
464.919	3.21
465.275	3.08
465.631	3.18
465.986	3.21
466.342	3.22
466.697	3.24
467.052	3.3
467.408	3.16
467.763	3.22
468.118	3.15
468.473	3.13
468.829	3.24
469.184	3.26
469.539	3.28
469.894	3.24
470.249	3.23
470.603	3.29
470.958	3.31
471.313	3.18
471.668	3.16
472.023	3.52
472.377	3.4
472.732	3.21
473.086	3.19
473.441	3.28
473.795	3.26
474.15	3.25
474.504	3.37
474.859	3.29
475.213	3.22
475.567	3.47
475.921	3.26
476.275	3.37
476.63	3.34
476.984	3.45
477.338	3.24
477.692	3.27
478.045	3.21
478.399	3.23
478.753	3.3
479.107	3.22
479.461	3.25
479.814	3.33
480.168	3.31
480.521	3.3
480.875	3.31
481.228	3.3
481.582	3.31
481.935	3.38
482.289	3.41
482.642	3.39
482.995	3.4
483.348	3.26
483.701	3.36
484.055	3.28
484.408	3.29
484.761	3.28
485.114	3.14
485.466	3.12
485.819	3.16
486.172	3.13
486.525	3.2
486.878	3.22
487.23	3.22
487.583	3.3
487.936	3.32
488.288	3.31
488.641	3.25
488.993	3.28
489.345	3.23
489.698	3.27
490.05	3.2
490.402	3.24
490.754	3.33
491.107	3.39
491.459	3.41
491.811	3.39
492.163	3.43
492.515	3.4
492.866	3.34
493.218	3.3
493.57	3.27
493.922	3.35
494.274	3.37
494.625	3.32
494.977	3.39
495.328	3.53
495.68	3.5
496.031	3.5
496.383	3.57
496.734	3.51
497.086	3.51
497.437	3.55
497.788	3.66
498.139	3.48
498.49	3.51
498.842	3.53
499.193	3.5
499.544	3.6
499.894	3.58
500.245	3.59
500.596	3.61
500.947	3.56
501.298	3.65
501.648	3.75
501.999	3.56
502.35	3.6
502.7	3.63
503.051	3.56
503.401	3.6
503.752	3.49
504.102	3.62
504.452	3.58
504.803	3.58
505.153	3.65
505.503	3.78
505.853	3.73
506.203	3.78
506.553	3.71
506.903	3.7
507.253	3.9
507.603	3.71
507.953	3.81
508.303	3.75
508.652	3.6
509.002	3.68
509.352	3.75
509.701	3.69
510.051	3.59
510.4	3.73
510.75	3.73
511.099	3.68
511.449	3.62
511.798	3.73
512.147	3.73
512.496	3.84
512.846	3.79
513.195	3.67
513.544	3.78
513.893	3.82
514.242	3.88
514.591	3.81
514.939	3.85
515.288	3.78
515.637	3.74
515.986	3.86
516.334	3.86
516.683	3.91
517.032	3.84
517.38	3.8
517.729	3.84
518.077	3.82
518.426	3.99
518.774	3.82
519.122	3.84
519.47	3.8
519.819	3.84
520.167	3.75
520.515	3.86
520.863	3.9
521.211	3.95
521.559	3.94
521.907	3.96
522.255	4
522.602	3.91
522.95	4.01
523.298	3.98
523.645	3.97
523.993	3.99
524.341	4.13
524.688	4.01
525.036	4.08
525.383	3.96
525.73	3.96
526.078	4.09
526.425	3.92
526.772	4.01
527.119	3.99
527.466	3.92
527.814	3.94
528.161	3.91
528.508	3.98
528.854	3.93
529.201	4.03
529.548	3.98
529.895	3.88
530.242	3.88
530.588	3.9
530.935	3.87
531.282	3.96
531.628	3.92
531.975	4.01
532.321	3.99
532.667	4.08
533.014	4.04
533.36	4.1
533.706	4.16
534.052	4.1
534.399	4.13
534.745	4.08
535.091	4.04
535.437	4.1
535.783	4.1
536.129	4.1
536.474	4.14
536.82	4.23
537.166	4.23
537.512	4.25
537.857	4.27
538.203	4.19
538.549	4.18
538.894	4.26
539.239	4.25
539.585	4.27
539.93	4.31
540.276	4.32
540.621	4.31
540.966	4.41
541.311	4.32
541.656	4.3
542.001	4.36
542.346	4.34
542.691	4.25
543.036	4.29
543.381	4.19
543.726	4.26
544.071	4.26
544.415	4.35
544.76	4.29
545.105	4.41
545.449	4.42
545.794	4.43
546.138	4.54
546.483	4.49
546.827	4.45
547.171	4.49
547.516	4.46
547.86	4.48
548.204	4.5
548.548	4.57
548.892	4.55
549.236	4.61
549.58	4.62
549.924	4.67
550.268	4.83
550.612	4.71
550.956	4.72
551.3	4.93
551.643	4.86
551.987	4.81
552.33	4.72
552.674	4.67
553.017	4.82
553.361	4.81
553.704	4.78
554.048	4.81
554.391	4.85
554.734	4.89
555.077	4.87
555.42	4.91
555.764	4.82
556.107	4.78
556.45	4.78
556.793	4.97
557.135	4.84
557.478	4.95
557.821	4.97
558.164	5.08
558.507	5.11
558.849	4.92
559.192	4.91
559.534	5.02
559.877	5.23
560.219	5.11
560.562	5.03
560.904	4.89
561.246	5
561.589	5.12
561.931	5.16
562.273	5.18
562.615	5.06
562.957	5.26
563.299	5.23
563.641	5.17
563.983	5.16
564.325	5.07
564.667	5.07
565.008	5.06
565.35	5.39
565.692	5.12
566.033	5.26
566.375	5.32
566.716	5.35
567.058	5.29
567.399	5.36
567.741	5.33
568.082	5.49
568.423	5.42
568.764	5.34
569.105	5.34
569.447	5.32
569.788	5.43
570.129	5.38
570.47	5.39
570.811	5.65
571.151	5.69
571.492	5.6
571.833	5.7
572.174	5.67
572.514	5.49
572.855	5.61
573.195	5.76
573.536	5.59
573.876	5.65
574.217	5.47
574.557	5.47
574.898	5.59
575.238	5.7
575.578	5.62
575.918	5.64
576.258	5.73
576.598	5.78
576.938	5.77
577.278	5.86
577.618	5.86
577.958	5.75
578.298	5.67
578.638	5.93
578.977	5.86
579.317	5.86
579.657	5.93
579.996	5.96
580.336	5.92
580.675	5.96
581.014	5.96
581.354	5.96
581.693	5.89
582.032	6.21
582.372	6.09
582.711	6.07
583.05	6.02
583.389	6.22
583.728	6.11
584.067	6.12
584.406	6.17
584.745	6.35
585.083	6.2
585.422	6.36
585.761	6.43
586.1	6.17
586.438	6.29
586.777	6.39
587.115	6.45
587.454	6.59
587.792	6.72
588.13	6.61
588.469	6.41
588.807	6.33
589.145	6.63
589.483	6.38
589.821	6.38
590.159	6.45
590.497	6.48
590.835	6.39
591.173	6.52
591.511	6.61
591.849	6.39
592.187	6.63
592.524	6.5
592.862	6.73
593.2	6.76
593.537	6.54
593.875	6.71
594.212	6.85
594.55	6.79
594.887	6.74
595.224	6.66
595.561	6.79
595.899	6.8
596.236	6.86
596.573	6.94
596.91	6.74
597.247	6.6
597.584	6.81
597.921	6.69
598.258	6.91
598.594	6.81
598.931	7.08
599.268	6.79
599.604	6.82
599.941	6.97
600.277	6.74
600.614	7.11
600.95	7.13
601.287	7.2
601.623	7.13
601.959	6.98
602.296	7.2
602.632	7.17
602.968	7.12
603.304	7.42
603.64	7.28
603.976	7.25
604.312	7.05
604.648	7.27
604.984	7.43
605.319	7.29
605.655	7.39
605.991	7.4
606.326	7.25
606.662	7.39
606.998	7.36
607.333	7.43
607.668	7.39
608.004	7.43
608.339	7.57
608.674	7.4
609.01	7.38
609.345	7.33
609.68	7.79
610.015	7.66
610.35	7.63
610.685	7.55
611.02	7.77
611.355	7.56
611.689	7.73
612.024	7.67
612.359	7.45
612.694	7.59
613.028	7.6
613.363	7.87
613.697	8.1
614.032	8.06
614.366	7.71
614.7	8.02
615.035	7.86
615.369	8
615.703	7.89
616.037	8.14
616.371	7.81
616.705	8.2
617.039	7.87
617.373	8.01
617.707	8.16
618.041	8.2
618.375	8.33
618.709	8.3
619.042	8.22
619.376	8.23
619.71	8.18
620.043	8.33
620.377	8.07
620.71	8.18
621.043	8.27
621.377	8.17
621.71	8.43
622.043	8.44
622.376	8.45
622.709	8.35
623.043	8
623.376	8.47
623.709	8.56
624.041	8.61
624.374	8.65
624.707	8.53
625.04	8.37
625.373	8.58
625.705	8.71
626.038	8.45
626.37	8.69
626.703	8.69
627.035	8.64
627.368	8.7
627.7	8.72
628.032	8.52
628.365	8.92
628.697	8.93
629.029	8.78
629.361	8.64
629.693	8.62
630.025	8.7
630.357	8.8
630.689	8.95
631.021	8.91
631.353	9.04
631.684	9.06
632.016	8.91
632.348	9.18
632.679	9.12
633.011	8.83
633.342	8.67
633.674	8.97
634.005	9.1
634.336	8.87
634.668	9.01
634.999	8.76
635.33	9.45
635.661	9.39
635.992	9.39
636.323	9.32
636.654	9.52
636.985	9.52
637.316	9.51
637.647	9.28
637.977	9.52
638.308	9.41
638.639	9.58
638.969	9.67
639.3	9.18
639.63	9.31
639.961	9.27
640.291	9.49
640.622	9.74
640.952	9.78
641.282	9.76
641.612	10.14
641.943	9.79
642.273	10.1
642.603	9.57
642.933	9.76
643.263	9.76
643.592	9.62
643.922	9.8
644.252	10.05
644.582	9.77
644.911	9.84
645.241	10.16
645.571	9.98
645.9	9.71
646.23	9.96
646.559	9.61
646.888	10.18
647.218	9.89
647.547	10.42
647.876	9.83
648.205	10.15
648.534	9.91
648.863	10.34
649.192	10.29
649.521	10.31
649.85	9.92
650.179	10.09
650.508	10.23
650.837	10.61
651.165	10.57
651.494	10.83
651.822	9.97
652.151	10.62
652.479	10.71
652.808	10.61
653.136	10.46
653.465	10.68
653.793	10.79
654.121	10.59
654.449	10.57
654.777	10.54
655.105	10.86
655.433	9.89
655.761	10.4
656.089	10.68
656.417	10.67
656.745	10.52
657.073	10.71
657.4	10.89
657.728	11.05
658.056	10.58
658.383	10.85
658.711	11.23
659.038	10.92
659.365	10.64
659.693	11.18
660.02	11.17
660.347	11.22
660.674	10.95
661.001	11.31
661.329	10.72
661.656	10.98
661.982	11.1
662.309	11.22
662.636	11.17
662.963	10.79
663.29	11.38
663.616	11.52
663.943	11.32
664.27	11.31
664.596	11.46
664.923	10.85
665.249	11.4
665.576	11.46
665.902	11.41
666.228	11.24
666.554	11.39
666.881	11.11
667.207	11.25
667.533	11.99
667.859	10.91
668.185	11.46
668.511	11.67
668.837	11.61
669.162	11.44
669.488	11.95
669.814	11.33
670.139	12.12
670.465	11.7
670.791	11.5
671.116	12.07
671.442	11.73
671.767	11.87
672.092	11.76
672.418	11.84
672.743	11.41
673.068	11.11
673.393	11.5
673.718	11.79
674.043	11.26
674.368	11.96
674.693	12.13
675.018	12.47
675.343	12.26
675.667	12.2
675.992	12.4
676.317	12.25
676.641	11.91
676.966	11.51
677.29	11.99
677.615	12.29
677.939	12.48
678.264	12.07
678.588	13.11
678.912	12.33
679.236	11.88
679.56	12.99
679.885	12.67
680.209	12.52
680.532	12.5
680.856	12.53
681.18	12.41
681.504	12.08
681.828	12.38
682.152	12.9
682.475	12.4
682.799	12.71
683.122	13.05
683.446	12.66
683.769	12.91
684.093	12.58
684.416	12.69
684.739	12.61
685.062	12.81
685.386	12.93
685.709	13.54
686.032	12.81
686.355	12.33
686.678	13.1
687.001	13.46
687.324	13.43
687.646	12.88
687.969	12.99
688.292	13.44
688.614	12.77
688.937	12.95
689.26	13.58
689.582	13.47
689.904	12.78
