Data from 1597-1_crown_Reflection__0__35.txt Node

Date: Fri Nov 11 16:26:06 CST 2022
User: ToomeyLab
Spectrometer: FLMS14357
Trigger mode: 0
Integration Time (sec): 1.000000E-2
Scans to average: 100
Electric dark correction enabled: true
Nonlinearity correction enabled: false
Boxcar width: 0
XAxis mode: Wavelengths
Number of Pixels in Spectrum: 2048
>>>>>Begin Spectral Data<<<<<
189.047	24.19
189.435	24.19
189.823	24.19
190.211	75.31
190.599	217.74
190.987	199.23
191.375	-26.77
191.763	131.32
192.151	1687.58
192.538	-742.55
192.926	21.91
193.314	335.37
193.702	-42.4
194.089	16.36
194.477	158.76
194.864	-127.53
195.252	13.27
195.639	-37.9
196.027	27.66
196.414	51.47
196.801	-218.86
197.189	71.74
197.576	-117.93
197.963	-62.38
198.351	22.72
198.738	-30.7
199.125	-17.67
199.512	73.11
199.899	5.24
200.286	-1.69
200.673	7.38
201.06	-33.28
201.447	26.72
201.833	34.44
202.22	24.79
202.607	34.63
202.994	23.89
203.38	23.28
203.767	-6.92
204.154	-42.69
204.54	36.92
204.927	7.9
205.313	10.5
205.699	3.09
206.086	6.37
206.472	8.84
206.858	20.9
207.245	13.25
207.631	16.07
208.017	1.12
208.403	4.33
208.789	-16.92
209.175	30.71
209.561	16.78
209.947	-10.95
210.333	7.68
210.719	6.47
211.105	5.48
211.491	-46.86
211.876	9.19
212.262	-22.41
212.648	2.19
213.034	11.09
213.419	13.04
213.805	25.94
214.19	-24.33
214.576	22.31
214.961	13.33
215.346	-67.55
215.732	-16.15
216.117	9.75
216.502	13.47
216.888	9.33
217.273	-8.91
217.658	-12.01
218.043	-1.14
218.428	-27.64
218.813	21.58
219.198	-25.21
219.583	-11.77
219.968	14.66
220.353	11.14
220.738	1.04
221.122	-4.7
221.507	21.49
221.892	-3.83
222.276	-0.84
222.661	7.98
223.046	4.68
223.43	2.9
223.815	-2.1
224.199	6.23
224.583	-2.97
224.968	6.81
225.352	3.03
225.736	0.63
226.121	-1.32
226.505	3.07
226.889	10.46
227.273	9.55
227.657	-0.34
228.041	4.03
228.425	4.66
228.809	7.79
229.193	2.7
229.577	6.78
229.961	4.03
230.344	5.78
230.728	5.75
231.112	5.68
231.495	5.89
231.879	5.69
232.263	3.47
232.646	3.9
233.03	4.14
233.413	3.95
233.797	4.36
234.18	4.1
234.563	5.41
234.946	3.19
235.33	4.97
235.713	5.74
236.096	2.44
236.479	6.14
236.862	5.94
237.245	5.17
237.628	4.33
238.011	4.92
238.394	5
238.777	4.51
239.16	5.56
239.543	2.91
239.925	7.31
240.308	4.13
240.691	5.41
241.073	4.03
241.456	5.62
241.838	4.66
242.221	4.88
242.603	4.09
242.986	3.95
243.368	4.3
243.75	5.1
244.133	4.7
244.515	5.11
244.897	4.68
245.279	4.47
245.661	5.32
246.043	4.31
246.425	4.77
246.807	4.62
247.189	3.4
247.571	3.31
247.953	4.57
248.335	4.4
248.717	4.37
249.098	4.43
249.48	4.77
249.862	4.46
250.243	4.19
250.625	4.29
251.006	5.27
251.388	4.53
251.769	4.72
252.151	5.52
252.532	5.75
252.913	3.89
253.295	3.77
253.676	4.74
254.057	4.3
254.438	4.47
254.819	4.15
255.2	4.68
255.581	4
255.962	3.1
256.343	4.6
256.724	4.39
257.105	4.35
257.486	4.95
257.867	4.42
258.247	3.97
258.628	3.69
259.009	4.37
259.389	4.91
259.77	4.55
260.15	4.23
260.531	3.95
260.911	4.27
261.292	4.07
261.672	4.07
262.052	4.26
262.432	4.62
262.813	3.99
263.193	4.01
263.573	4.8
263.953	4.14
264.333	4.44
264.713	4.06
265.093	4.55
265.473	4.66
265.853	3.21
266.233	4.21
266.612	4.47
266.992	3.4
267.372	4.38
267.752	4.37
268.131	3.68
268.511	4.5
268.89	4.3
269.27	4.14
269.649	4.05
270.029	2.89
270.408	3.62
270.787	4.39
271.167	3.89
271.546	4.35
271.925	4.39
272.304	4.55
272.683	3.88
273.062	4.08
273.441	4.08
273.82	4.13
274.199	4.5
274.578	4.48
274.957	3.85
275.336	4.28
275.715	4.11
276.093	4.99
276.472	4.61
276.851	4.12
277.229	4.41
277.608	4.53
277.986	4.34
278.365	4.48
278.743	3.67
279.122	3.81
279.5	4.02
279.878	3.89
280.257	4.2
280.635	3.94
281.013	3.89
281.391	3.95
281.769	5.05
282.147	3.85
282.525	3.47
282.903	4.11
283.281	3.95
283.659	3.59
284.037	3.86
284.415	3.9
284.792	4.01
285.17	3.94
285.548	4.1
285.925	3.84
286.303	3.59
286.68	3.84
287.058	3.8
287.435	3.9
287.813	3.9
288.19	4.08
288.567	3.8
288.945	3.26
289.322	3.89
289.699	4.21
290.076	3.72
290.453	3.6
290.83	3.89
291.207	3.79
291.584	3.7
291.961	3.96
292.338	3.88
292.715	3.6
293.092	3.8
293.469	4.05
293.845	4.21
294.222	4.04
294.599	4.1
294.975	3.45
295.352	3.53
295.728	3.64
296.105	3.66
296.481	3.57
296.858	3.85
297.234	3.69
297.61	3.26
297.986	2.98
298.363	3.61
298.739	3.64
299.115	3.36
299.491	3.4
299.867	3.51
300.243	3.68
300.619	3.98
300.995	3.32
301.371	3.58
301.746	4.09
302.122	3.7
302.498	3.59
302.874	3.38
303.249	3.68
303.625	3.26
304	3.71
304.376	3.78
304.751	3.88
305.127	3.8
305.502	3.84
305.878	4.21
306.253	3.58
306.628	4.16
307.003	3.37
307.378	3.4
307.754	3.65
308.129	3.84
308.504	3.39
308.879	3.63
309.254	2.63
309.629	3.59
310.003	3.56
310.378	2.86
310.753	3.55
311.128	3.53
311.502	2.96
311.877	3.58
312.252	3.23
312.626	3.06
313.001	3.32
313.375	3.62
313.75	3.54
314.124	3.79
314.498	3.84
314.873	3.44
315.247	3.57
315.621	3.61
315.995	3.13
316.369	3.54
316.743	3.4
317.117	3.65
317.491	3.42
317.865	3.16
318.239	3.49
318.613	3.74
318.987	3.53
319.361	3.22
319.734	3.38
320.108	4.01
320.482	2.83
320.855	3.33
321.229	3.73
321.602	3.24
321.976	2.82
322.349	3.61
322.723	3.26
323.096	3.61
323.469	3.52
323.843	3.91
324.216	3.63
324.589	3.58
324.962	3.55
325.335	4.08
325.708	3.13
326.081	3.51
326.454	3.07
326.827	3.65
327.2	2.99
327.573	3.4
327.945	3.5
328.318	3.5
328.691	3.64
329.063	3.77
329.436	3.4
329.809	3.28
330.181	3.31
330.553	3.93
330.926	3.1
331.298	3.31
331.671	3.32
332.043	3.96
332.415	3.85
332.787	3.63
333.159	3.58
333.532	3.11
333.904	3.22
334.276	3.67
334.648	3.39
335.02	3.46
335.391	3.59
335.763	3.36
336.135	3.71
336.507	3.36
336.879	3.49
337.25	2.83
337.622	3.83
337.993	3.47
338.365	3.52
338.736	3.09
339.108	3.1
339.479	3.79
339.851	3.36
340.222	3.05
340.593	3.19
340.964	3.23
341.336	2.97
341.707	3.44
342.078	3.43
342.449	3.41
342.82	3.39
343.191	3.84
343.562	3.6
343.933	2.92
344.303	3.77
344.674	3.92
345.045	3.32
345.416	3.29
345.786	3.45
346.157	3.42
346.527	3.16
346.898	3.43
347.268	3.4
347.639	3.59
348.009	3.23
348.38	3.37
348.75	3.6
349.12	3.41
349.49	3.53
349.861	3.41
350.231	3.45
350.601	3.68
350.971	3.57
351.341	3.21
351.711	3.51
352.081	2.75
352.45	3.17
352.82	3.68
353.19	3.14
353.56	4.07
353.929	3.9
354.299	3.65
354.669	3.33
355.038	3.63
355.408	3.24
355.777	3.32
356.147	3.31
356.516	3.67
356.885	3.35
357.254	3.55
357.624	3.36
357.993	3.59
358.362	3.57
358.731	3.6
359.1	3.26
359.469	3.43
359.838	3.7
360.207	3.7
360.576	3.64
360.945	3.58
361.314	3.92
361.682	3.51
362.051	3.29
362.42	3.47
362.788	3.48
363.157	3.51
363.525	3.64
363.894	3.41
364.262	3.56
364.631	3.57
364.999	3.33
365.367	3.84
365.735	3.6
366.104	3.47
366.472	3.64
366.84	3.87
367.208	3.41
367.576	3.72
367.944	3.87
368.312	3.76
368.68	3.68
369.048	3.62
369.416	3.3
369.783	3.41
370.151	3.5
370.519	4.22
370.886	3.69
371.254	3.8
371.621	3.61
371.989	3.53
372.356	3.5
372.724	3.73
373.091	3.78
373.458	3.5
373.826	3.71
374.193	3.47
374.56	3.59
374.927	3.76
375.294	3.6
375.661	3.91
376.028	3.85
376.395	3.65
376.762	3.77
377.129	3.72
377.496	3.66
377.863	3.58
378.229	3.63
378.596	3.54
378.963	3.49
379.329	3.97
379.696	3.55
380.062	3.54
380.429	3.67
380.795	3.72
381.161	3.88
381.528	3.66
381.894	3.94
382.26	3.58
382.626	3.74
382.993	4.02
383.359	3.59
383.725	3.97
384.091	3.84
384.457	3.7
384.823	3.66
385.188	3.71
385.554	3.81
385.92	3.7
386.286	3.74
386.651	3.85
387.017	3.44
387.383	3.81
387.748	3.66
388.114	3.89
388.479	3.96
388.845	3.74
389.21	3.74
389.575	3.76
389.94	4.04
390.306	3.74
390.671	3.97
391.036	3.57
391.401	3.62
391.766	3.8
392.131	3.4
392.496	3.98
392.861	3.88
393.226	3.78
393.591	3.64
393.956	3.82
394.32	3.94
394.685	3.88
395.05	3.89
395.414	3.94
395.779	3.76
396.143	3.98
396.508	3.86
396.872	3.92
397.236	4.03
397.601	3.8
397.965	3.74
398.329	3.79
398.694	3.76
399.058	3.78
399.422	3.88
399.786	3.9
400.15	3.56
400.514	3.72
400.878	3.95
401.242	3.87
401.605	3.86
401.969	4.07
402.333	3.87
402.697	3.82
403.06	4.03
403.424	3.94
403.787	3.76
404.151	3.76
404.514	3.81
404.878	4.06
405.241	3.85
405.604	3.78
405.968	3.93
406.331	3.61
406.694	3.9
407.057	3.89
407.42	3.81
407.783	4.02
408.146	4.02
408.509	3.91
408.872	4.06
409.235	4
409.598	3.65
409.961	4
410.323	4.09
410.686	3.86
411.049	3.99
411.411	3.83
411.774	3.89
412.136	3.95
412.499	4.08
412.861	3.83
413.223	3.94
413.586	3.82
413.948	3.92
414.31	3.78
414.672	4.16
415.035	3.88
415.397	3.91
415.759	4.15
416.121	3.95
416.483	3.93
416.845	3.89
417.206	4.1
417.568	4.06
417.93	3.84
418.292	3.69
418.653	3.9
419.015	3.73
419.377	4.04
419.738	4.03
420.1	3.89
420.461	3.89
420.822	3.87
421.184	3.79
421.545	3.83
421.906	3.94
422.267	3.91
422.629	3.9
422.99	3.84
423.351	3.92
423.712	3.89
424.073	3.77
424.434	3.78
424.795	3.95
425.155	3.98
425.516	3.92
425.877	3.94
426.238	3.86
426.598	3.82
426.959	3.84
427.32	3.84
427.68	3.89
428.041	4.05
428.401	3.84
428.761	4.03
429.122	3.97
429.482	4.05
429.842	4
430.202	4.08
430.563	3.84
430.923	3.87
431.283	4.06
431.643	4.2
432.003	4.19
432.363	4.07
432.722	4.01
433.082	3.94
433.442	3.98
433.802	4.14
434.161	4.07
434.521	4.09
434.881	3.86
435.24	3.95
435.6	3.96
435.959	3.89
436.319	3.86
436.678	3.83
437.037	4.11
437.396	3.9
437.756	4.09
438.115	3.86
438.474	3.99
438.833	3.9
439.192	4.06
439.551	3.88
439.91	4.02
440.269	4.09
440.628	3.93
440.987	4.15
441.345	4.04
441.704	3.94
442.063	4.13
442.421	3.87
442.78	3.95
443.138	3.92
443.497	3.93
443.855	3.92
444.214	3.93
444.572	4
444.93	4.08
445.288	4.04
445.647	3.9
446.005	3.98
446.363	3.83
446.721	3.89
447.079	4.07
447.437	3.97
447.795	3.86
448.153	3.94
448.51	3.92
448.868	4.01
449.226	4
449.584	3.94
449.941	3.89
450.299	4.03
450.656	4.07
451.014	4.11
451.371	3.95
451.729	4.09
452.086	4.08
452.443	4.09
452.801	4.05
453.158	4.04
453.515	4.05
453.872	4.09
454.229	3.93
454.586	3.94
454.943	4.04
455.3	3.99
455.657	4.16
456.014	4.04
456.371	4.03
456.727	4.06
457.084	4.09
457.441	4.14
457.797	4.06
458.154	4.09
458.51	4.06
458.867	4.01
459.223	4.09
459.58	4.08
459.936	4.18
460.292	3.99
460.648	4.04
461.005	4.07
461.361	4
461.717	3.95
462.073	4.02
462.429	4.08
462.785	3.98
463.141	4.02
463.496	3.95
463.852	4.01
464.208	4.14
464.564	4.11
464.919	4.03
465.275	4.05
465.631	3.99
465.986	4.04
466.342	4.17
466.697	4.02
467.052	4.26
467.408	4.12
467.763	4.08
468.118	4.05
468.473	3.93
468.829	4.04
469.184	4.26
469.539	4.21
469.894	4.07
470.249	3.99
470.603	3.92
470.958	4.18
471.313	4.14
471.668	4.1
472.023	4.27
472.377	4.29
472.732	4.06
473.086	3.95
473.441	4.11
473.795	4.13
474.15	4.08
474.504	4.23
474.859	4.16
475.213	4.07
475.567	4.19
475.921	4.25
476.275	4.08
476.63	4.12
476.984	4.16
477.338	4.15
477.692	4.16
478.045	4.22
478.399	4.07
478.753	4.18
479.107	4.1
479.461	4.15
479.814	4.11
480.168	4.15
480.521	4.06
480.875	4.14
481.228	4.06
481.582	4.07
481.935	4.17
482.289	4.2
482.642	4.06
482.995	4.12
483.348	4
483.701	4.08
484.055	4.07
484.408	3.96
484.761	3.93
485.114	3.83
485.466	3.75
485.819	3.81
486.172	3.82
486.525	3.87
486.878	3.95
487.23	3.97
487.583	4.02
487.936	3.97
488.288	3.96
488.641	3.84
488.993	3.89
489.345	3.87
489.698	3.87
490.05	3.85
490.402	3.9
490.754	4.04
491.107	4.02
491.459	4.05
491.811	4.02
492.163	4.04
492.515	3.99
492.866	3.94
493.218	3.84
493.57	3.85
493.922	3.89
494.274	3.94
494.625	4.03
494.977	4.04
495.328	4.08
495.68	4.08
496.031	4.14
496.383	4.08
496.734	4.05
497.086	4.08
497.437	4.03
497.788	4.12
498.139	4
498.49	4.04
498.842	4.09
499.193	4.03
499.544	4.07
499.894	4.18
500.245	4.09
500.596	4.14
500.947	4.13
501.298	4.22
501.648	4.09
501.999	4.21
502.35	4.18
502.7	4.18
503.051	4.03
503.401	4.12
503.752	4.09
504.102	4.16
504.452	4.12
504.803	4.08
505.153	4.19
505.503	4.16
505.853	4.15
506.203	4.16
506.553	4.18
506.903	4.06
507.253	4.18
507.603	4.15
507.953	4.22
508.303	4.03
508.652	4.01
509.002	4.03
509.352	4.2
509.701	4.09
510.051	4.06
510.4	4.03
510.75	4.06
511.099	4.05
511.449	4.06
511.798	4.1
512.147	4.11
512.496	4.14
512.846	4
513.195	4.03
513.544	4.18
513.893	4.12
514.242	4.05
514.591	4.08
514.939	4.19
515.288	4.19
515.637	4.06
515.986	4.17
516.334	4.12
516.683	4.1
517.032	4.04
517.38	4.09
517.729	4.22
518.077	4.11
518.426	4.19
518.774	3.94
519.122	4.04
519.47	3.97
519.819	3.96
520.167	4.05
520.515	4.04
520.863	4.07
521.211	4.02
521.559	4.05
521.907	4.14
522.255	4.14
522.602	4.09
522.95	4.11
523.298	4.14
523.645	4.04
523.993	4.17
524.341	4.08
524.688	4.13
525.036	4.08
525.383	4.03
525.73	4.03
526.078	4.09
526.425	4.07
526.772	4.07
527.119	3.98
527.466	3.9
527.814	3.99
528.161	3.99
528.508	3.98
528.854	3.97
529.201	3.97
529.548	4.01
529.895	3.85
530.242	3.83
530.588	3.79
530.935	3.82
531.282	3.94
531.628	3.89
531.975	3.95
532.321	3.92
532.667	4
533.014	3.99
533.36	3.91
533.706	3.94
534.052	3.97
534.399	3.88
534.745	3.9
535.091	3.82
535.437	3.9
535.783	3.91
536.129	3.97
536.474	4.06
536.82	3.95
537.166	4.03
537.512	4
537.857	4.11
538.203	3.89
538.549	3.94
538.894	4.01
539.239	3.92
539.585	4.05
539.93	4.01
540.276	4.06
540.621	4.05
540.966	4.03
541.311	4.19
541.656	3.94
542.001	4.12
542.346	4.04
542.691	3.86
543.036	3.85
543.381	3.76
543.726	3.82
544.071	3.88
544.415	3.98
544.76	3.89
545.105	4.02
545.449	3.99
545.794	4.03
546.138	3.98
546.483	4.06
546.827	4.01
547.171	3.98
547.516	3.91
547.86	3.97
548.204	3.87
548.548	3.95
548.892	3.91
549.236	4.01
549.58	4.05
549.924	4.13
550.268	4.22
550.612	4.05
550.956	4.14
551.3	4.17
551.643	4.1
551.987	3.99
552.33	4.08
552.674	3.92
553.017	4.05
553.361	3.99
553.704	4.01
554.048	4.03
554.391	3.93
554.734	4.1
555.077	4.08
555.42	3.92
555.764	4
556.107	3.94
556.45	3.89
556.793	4.1
557.135	4.08
557.478	4.01
557.821	4.03
558.164	4.06
558.507	4
558.849	3.93
559.192	3.91
559.534	3.95
559.877	4.15
560.219	4.06
560.562	4.01
560.904	3.92
561.246	3.95
561.589	4.15
561.931	4.04
562.273	4.14
562.615	3.88
562.957	3.96
563.299	4.13
563.641	3.93
563.983	3.98
564.325	3.93
564.667	3.98
565.008	3.91
565.35	4.05
565.692	3.9
566.033	4.17
566.375	3.97
566.716	3.96
567.058	3.94
567.399	4.01
567.741	3.94
568.082	4.05
568.423	3.94
568.764	3.79
569.105	3.97
569.447	3.96
569.788	4.06
570.129	4.05
570.47	4.03
570.811	4.15
571.151	4.11
571.492	3.98
571.833	4.05
572.174	4.11
572.514	4.17
572.855	3.92
573.195	4.04
573.536	3.9
573.876	3.89
574.217	3.95
574.557	3.83
574.898	3.9
575.238	3.98
575.578	4.01
575.918	3.89
576.258	3.9
576.598	3.99
576.938	3.84
577.278	3.99
577.618	4.08
577.958	4.06
578.298	4.18
578.638	3.91
578.977	4.05
579.317	3.89
579.657	4.08
579.996	4
580.336	4.13
580.675	3.95
581.014	3.9
581.354	4.09
581.693	3.81
582.032	4.08
582.372	3.94
582.711	4.09
583.05	3.76
583.389	4.14
583.728	3.92
584.067	3.96
584.406	4.03
584.745	3.98
585.083	4.19
585.422	3.93
585.761	3.95
586.1	3.99
586.438	3.93
586.777	4.16
587.115	3.99
587.454	4.04
587.792	3.97
588.13	4.17
588.469	4.1
588.807	4.17
589.145	3.95
589.483	3.79
589.821	3.81
590.159	3.94
590.497	4.14
590.835	3.69
591.173	3.99
591.511	4.16
591.849	3.72
592.187	3.85
592.524	3.98
592.862	4.17
593.2	4.09
593.537	3.67
593.875	3.88
594.212	4.04
594.55	3.98
594.887	4.06
595.224	3.98
595.561	4.06
595.899	3.92
596.236	3.75
596.573	3.83
596.91	3.84
597.247	3.82
597.584	3.95
597.921	3.78
598.258	3.88
598.594	3.82
598.931	3.97
599.268	3.88
599.604	4.04
599.941	3.96
600.277	3.75
600.614	4.07
600.95	4.06
601.287	4.05
601.623	3.66
601.959	3.82
602.296	4.06
602.632	3.93
602.968	3.78
603.304	3.89
603.64	3.92
603.976	3.96
604.312	3.86
604.648	3.77
604.984	4
605.319	3.76
605.655	3.8
605.991	3.77
606.326	3.72
606.662	3.74
606.998	3.87
607.333	3.9
607.668	3.97
608.004	4
608.339	3.97
608.674	3.98
609.01	3.75
609.345	3.74
609.68	4.06
610.015	3.87
610.35	3.95
610.685	3.88
611.02	3.78
611.355	3.92
611.689	3.9
612.024	4.17
612.359	3.65
612.694	3.78
613.028	3.87
613.363	4.07
613.697	4
614.032	4.09
614.366	3.76
614.7	3.78
615.035	4.13
615.369	4.07
615.703	3.85
616.037	4.1
616.371	3.66
616.705	4.09
617.039	3.8
617.373	3.9
617.707	3.97
618.041	3.65
618.375	4.09
618.709	3.84
619.042	3.88
619.376	3.87
619.71	4
620.043	4.07
620.377	4.06
620.71	3.97
621.043	4.03
621.377	3.94
621.71	3.95
622.043	3.89
622.376	4.1
622.709	4
623.043	3.76
623.376	3.77
623.709	3.81
624.041	4.19
624.374	3.8
624.707	3.96
625.04	4.14
625.373	3.89
625.705	3.67
626.038	3.87
626.37	3.87
626.703	3.92
627.035	3.89
627.368	3.98
627.7	3.65
628.032	3.79
628.365	4.17
628.697	4.09
629.029	3.96
629.361	3.7
629.693	3.7
630.025	3.49
630.357	3.9
630.689	3.92
631.021	3.77
631.353	3.68
631.684	4.11
632.016	3.66
632.348	3.69
632.679	4.09
633.011	3.81
633.342	3.68
633.674	3.93
634.005	3.92
634.336	3.75
634.668	3.89
634.999	3.56
635.33	3.65
635.661	4.1
635.992	4.01
636.323	4.02
636.654	4.08
636.985	3.93
637.316	3.98
637.647	3.85
637.977	3.93
638.308	3.66
638.639	3.81
638.969	4.09
639.3	3.96
639.63	4.07
639.961	4.21
640.291	4.01
640.622	3.83
640.952	3.61
641.282	3.99
641.612	4.15
641.943	4
642.273	3.95
642.603	3.78
642.933	3.99
643.263	3.73
643.592	4.04
643.922	4.02
644.252	3.91
644.582	4.01
644.911	3.99
645.241	3.99
645.571	4.06
645.9	3.66
646.23	3.84
646.559	3.56
646.888	4.27
647.218	3.75
647.547	4.08
647.876	3.7
648.205	3.7
648.534	3.89
648.863	3.88
649.192	4.17
649.521	3.87
649.85	3.92
650.179	3.72
650.508	3.83
650.837	4.11
651.165	4.02
651.494	4.22
651.822	3.65
652.151	3.71
652.479	4.69
652.808	3.83
653.136	3.84
653.465	4.25
653.793	4.08
654.121	4.08
654.449	3.9
654.777	4.03
655.105	4.27
655.433	3.74
655.761	3.86
656.089	3.95
656.417	4.53
656.745	3.84
657.073	3.65
657.4	3.72
657.728	4.08
658.056	3.69
658.383	4.01
658.711	4.21
659.038	4.09
659.365	3.73
659.693	3.63
660.02	4.3
660.347	4.22
660.674	3.87
661.001	4.14
661.329	3.84
661.656	3.86
661.982	4
662.309	3.89
662.636	4.01
662.963	3.94
663.29	3.97
663.616	3.93
663.943	3.99
664.27	3.76
664.596	4.11
664.923	3.96
665.249	3.85
665.576	3.74
665.902	4.14
666.228	3.94
666.554	3.97
666.881	3.66
667.207	3.4
667.533	4.05
667.859	3.69
668.185	3.88
668.511	3.96
668.837	3.96
669.162	3.7
669.488	3.76
669.814	3.97
670.139	4.53
670.465	4.1
670.791	3.54
671.116	3.67
671.442	3.77
671.767	4.07
672.092	3.85
672.418	3.66
672.743	3.91
673.068	3.29
673.393	3.64
673.718	3.96
674.043	4.06
674.368	4.18
674.693	3.89
675.018	4.11
675.343	4.55
675.667	4.6
675.992	4.41
676.317	3.88
676.641	4.17
676.966	3.29
677.29	3.46
677.615	4.22
677.939	4.61
678.264	3.83
678.588	4.63
678.912	4.24
679.236	4.71
679.56	4.21
679.885	4.44
680.209	3.6
680.532	3.78
680.856	4.44
681.18	3.65
681.504	3.99
681.828	3.44
682.152	4.25
682.475	3.78
682.799	3.79
683.122	4.03
683.446	3.89
683.769	4.36
684.093	3.7
684.416	4.36
684.739	3.94
685.062	3.89
685.386	4.01
685.709	4.6
686.032	3.59
686.355	3.65
686.678	3.34
687.001	4.58
687.324	4.26
687.646	4.09
687.969	4.12
688.292	4.18
688.614	4.46
688.937	3.83
689.26	4.67
689.582	4.29
689.904	3.88
690.227	4.31
690.549	4.55
690.871	4.7
691.194	4.24
691.516	4.68
691.838	4.14
692.16	3.21
692.482	3.86
692.804	4.2
693.126	3.97
693.448	3.96
