Data from 1597-1_crown_Reflection__1__36.txt Node

Date: Fri Nov 11 16:26:18 CST 2022
User: ToomeyLab
Spectrometer: FLMS14357
Trigger mode: 0
Integration Time (sec): 1.000000E-2
Scans to average: 100
Electric dark correction enabled: true
Nonlinearity correction enabled: false
Boxcar width: 0
XAxis mode: Wavelengths
Number of Pixels in Spectrum: 2048
>>>>>Begin Spectral Data<<<<<
189.047	68.14
189.435	68.14
189.823	68.14
190.211	-60.82
190.599	77.23
190.987	226.47
191.375	-34.38
191.763	214.21
192.151	1442.55
192.538	-669.15
192.926	43.78
193.314	55.79
193.702	426.87
194.089	13.85
194.477	185.15
194.864	-278.07
195.252	5.77
195.639	164.06
196.027	24
196.414	131.66
196.801	579
197.189	34.29
197.576	-11.72
197.963	-27.42
198.351	-24.77
198.738	-25.64
199.125	8.9
199.512	-38.22
199.899	5.61
200.286	4.22
200.673	15.95
201.06	-47.27
201.447	4.87
201.833	20.36
202.22	6.21
202.607	23.51
202.994	23.1
203.38	13.56
203.767	-1.81
204.154	-52.51
204.54	34.36
204.927	-15.95
205.313	-3.39
205.699	10.56
206.086	10.58
206.472	29.33
206.858	-4.67
207.245	35.15
207.631	-4.73
208.017	-23.1
208.403	-1.81
208.789	-22.29
209.175	-10.09
209.561	25.55
209.947	8.34
210.333	-7.48
210.719	-20.62
211.105	-15.38
211.491	-82.16
211.876	4.42
212.262	-65.74
212.648	-3.38
213.034	-7.39
213.419	2.04
213.805	0.85
214.19	-20.02
214.576	10.98
214.961	-26.7
215.346	-75.83
215.732	-43.73
216.117	21.37
216.502	25.39
216.888	2.63
217.273	-10.75
217.658	-1.31
218.043	-8.2
218.428	-43.97
218.813	10.89
219.198	-30.8
219.583	9.68
219.968	0.51
220.353	-48.31
220.738	-19.5
221.122	-22.95
221.507	0.08
221.892	-8.71
222.276	-1.9
222.661	11
223.046	4.45
223.43	5.13
223.815	-2.65
224.199	7.94
224.583	3.05
224.968	10.01
225.352	-12.21
225.736	2.57
226.121	7.64
226.505	0.8
226.889	-5.14
227.273	-3.05
227.657	-0.73
228.041	-2.39
228.425	4.64
228.809	5.42
229.193	-0.07
229.577	3.21
229.961	1.54
230.344	3.44
230.728	2.95
231.112	3.19
231.495	3
231.879	1.1
232.263	-0.29
232.646	0.85
233.03	0.63
233.413	0.8
233.797	1.79
234.18	0.65
234.563	2.43
234.946	-0.59
235.33	2.95
235.713	1.66
236.096	-0.88
236.479	2.38
236.862	2.83
237.245	3.05
237.628	2.98
238.011	2.56
238.394	0.98
238.777	1.8
239.16	3.79
239.543	0.87
239.925	2.01
240.308	0.51
240.691	2.08
241.073	0.23
241.456	0.81
241.838	2.52
242.221	1.89
242.603	1.96
242.986	1.8
243.368	1.49
243.75	2.13
244.133	2.42
244.515	2.13
244.897	1.98
245.279	2.01
245.661	2.23
246.043	1.77
246.425	2.43
246.807	1.58
247.189	1.02
247.571	1.01
247.953	2.28
248.335	2.43
248.717	2.09
249.098	2.22
249.48	2.42
249.862	1.9
250.243	2.06
250.625	2.33
251.006	2.51
251.388	1.9
251.769	2.48
252.151	1.29
252.532	2.37
252.913	1.46
253.295	1.82
253.676	1.9
254.057	2.11
254.438	1.82
254.819	2.63
255.2	2.38
255.581	2.68
255.962	1.43
256.343	2.37
256.724	2.25
257.105	0.95
257.486	2.45
257.867	1.72
258.247	2.52
258.628	1.82
259.009	2.36
259.389	2.01
259.77	2.68
260.15	2.84
260.531	2.1
260.911	2.07
261.292	2.14
261.672	1.98
262.052	2.3
262.432	2.57
262.813	2.16
263.193	2.48
263.573	3.23
263.953	2.15
264.333	2.29
264.713	1.92
265.093	2.07
265.473	2.37
265.853	1.78
266.233	0.82
266.612	2.01
266.992	1.56
267.372	1.68
267.752	2.4
268.131	2.13
268.511	2.42
268.89	2.1
269.27	1.8
269.649	1.29
270.029	1.5
270.408	1.79
270.787	3.16
271.167	2.21
271.546	2.83
271.925	2.58
272.304	2.51
272.683	1.98
273.062	2.35
273.441	1.87
273.82	1.9
274.199	2.04
274.578	2.18
274.957	1.48
275.336	2.07
275.715	2.01
276.093	2.74
276.472	2.01
276.851	1.91
277.229	2.45
277.608	2.23
277.986	2
278.365	2.22
278.743	2.07
279.122	2.1
279.5	1.77
279.878	1.74
280.257	2.52
280.635	1.97
281.013	2.38
281.391	2.26
281.769	2.55
282.147	1.95
282.525	1.94
282.903	2.56
283.281	2.05
283.659	1.48
284.037	1.61
284.415	1.62
284.792	2.45
285.17	1.84
285.548	2.36
285.925	2.07
286.303	1.77
286.68	1.56
287.058	2.11
287.435	2.08
287.813	1.97
288.19	1.94
288.567	2.1
288.945	1.44
289.322	1.64
289.699	2.1
290.076	1.89
290.453	1.65
290.83	2.27
291.207	1.99
291.584	1.72
291.961	1.85
292.338	2.05
292.715	1.82
293.092	1.65
293.469	2.43
293.845	2
294.222	2.54
294.599	1.64
294.975	1.59
295.352	1.77
295.728	1.71
296.105	1.85
296.481	1.41
296.858	1.77
297.234	1.43
297.61	1.79
297.986	1.33
298.363	1.79
298.739	2.12
299.115	1.89
299.491	2.11
299.867	1.93
300.243	1.45
300.619	2.27
300.995	1.47
301.371	1.5
301.746	1.91
302.122	1.76
302.498	1.64
302.874	1.52
303.249	2.17
303.625	1.53
304	1.6
304.376	1.64
304.751	2.16
305.127	1.83
305.502	2.06
305.878	2.29
306.253	1.95
306.628	1.87
307.003	1.7
307.378	1.97
307.754	1.89
308.129	1.86
308.504	2.09
308.879	1.46
309.254	1.23
309.629	2.06
310.003	2.08
310.378	1.22
310.753	1.66
311.128	2.09
311.502	1.4
311.877	1.86
312.252	1.71
312.626	1.81
313.001	1.53
313.375	1.66
313.75	2.45
314.124	1.96
314.498	1.77
314.873	1.68
315.247	1.83
315.621	1.84
315.995	1.64
316.369	2.18
316.743	1.5
317.117	1.62
317.491	1.81
317.865	1.91
318.239	1.8
318.613	1.37
318.987	2.18
319.361	1.49
319.734	2.1
320.108	1.34
320.482	1.58
320.855	1.97
321.229	2.22
321.602	1.42
321.976	1.51
322.349	1.5
322.723	1.67
323.096	2.22
323.469	2
323.843	2.55
324.216	1.6
324.589	1.6
324.962	1.33
325.335	2.21
325.708	1.71
326.081	1.55
326.454	2.15
326.827	2.04
327.2	1.39
327.573	2.11
327.945	1.75
328.318	2.14
328.691	2.21
329.063	1.81
329.436	1.83
329.809	1.89
330.181	2.24
330.553	2.14
330.926	1.81
331.298	1.8
331.671	1.92
332.043	2.12
332.415	1.62
332.787	2.01
333.159	1.84
333.532	1.46
333.904	1.4
334.276	1.73
334.648	1.33
335.02	2.3
335.391	1.68
335.763	1.81
336.135	1.75
336.507	1.9
336.879	2.15
337.25	1.03
337.622	1.92
337.993	1.69
338.365	1.74
338.736	1.83
339.108	1.62
339.479	2.01
339.851	1.34
340.222	1.78
340.593	1.39
340.964	1.82
341.336	1.6
341.707	1.43
342.078	1.88
342.449	1.99
342.82	1.61
343.191	2.46
343.562	2.01
343.933	1.47
344.303	2.29
344.674	1.33
345.045	1.98
345.416	1.72
345.786	1.85
346.157	1.57
346.527	1.93
346.898	1.62
347.268	2.1
347.639	2.12
348.009	2.02
348.38	2.03
348.75	2.27
349.12	1.98
349.49	1.52
349.861	1.54
350.231	1.55
350.601	2.55
350.971	2.15
351.341	1.91
351.711	1.68
352.081	1.54
352.45	1.93
352.82	1.88
353.19	1.77
353.56	2.03
353.929	2.03
354.299	1.72
354.669	1.76
355.038	1.68
355.408	1.77
355.777	2.18
356.147	1.7
356.516	1.91
356.885	1.7
357.254	1.63
357.624	1.93
357.993	1.75
358.362	1.74
358.731	1.92
359.1	1.52
359.469	1.88
359.838	1.86
360.207	1.96
360.576	1.77
360.945	1.96
361.314	2.08
361.682	1.66
362.051	1.74
362.42	1.64
362.788	1.75
363.157	2.04
363.525	2.16
363.894	1.85
364.262	1.82
364.631	1.85
364.999	2.04
365.367	2.13
365.735	1.95
366.104	1.88
366.472	1.8
366.84	2.17
367.208	2.03
367.576	1.79
367.944	2.11
368.312	1.95
368.68	2.13
369.048	1.86
369.416	1.79
369.783	1.57
370.151	1.92
370.519	2.15
370.886	1.95
371.254	1.67
371.621	2.04
371.989	1.77
372.356	1.85
372.724	2.03
373.091	1.79
373.458	1.69
373.826	1.98
374.193	2.12
374.56	1.99
374.927	2
375.294	1.93
375.661	2.27
376.028	1.64
376.395	2.13
376.762	1.9
377.129	2.15
377.496	1.93
377.863	1.97
378.229	2.13
378.596	1.94
378.963	2.03
379.329	1.9
379.696	2.16
380.062	2.03
380.429	1.89
380.795	2.17
381.161	2.32
381.528	2.14
381.894	2.42
382.26	2
382.626	2.14
382.993	2.13
383.359	1.63
383.725	1.95
384.091	2
384.457	2.11
384.823	2.06
385.188	2.06
385.554	2.26
385.92	2.06
386.286	1.9
386.651	2
387.017	1.85
387.383	1.88
387.748	1.56
388.114	2.14
388.479	1.97
388.845	1.66
389.21	2.19
389.575	1.88
389.94	2.23
390.306	1.88
390.671	2.28
391.036	2.13
391.401	2.1
391.766	2.08
392.131	1.52
392.496	1.99
392.861	2.03
393.226	2.08
393.591	1.9
393.956	2.21
394.32	2.28
394.685	2.28
395.05	2.1
395.414	2.08
395.779	1.82
396.143	2.13
396.508	2.05
396.872	2.06
397.236	1.99
397.601	2.22
397.965	2.06
398.329	1.89
398.694	1.91
399.058	1.88
399.422	2.02
399.786	2.17
400.15	1.97
400.514	2.05
400.878	2.16
401.242	2.09
401.605	2.05
401.969	2.15
402.333	2.15
402.697	1.98
403.06	2.03
403.424	1.96
403.787	2.19
404.151	2.13
404.514	2.06
404.878	2.15
405.241	1.94
405.604	2.02
405.968	2.2
406.331	2.05
406.694	2.32
407.057	1.99
407.42	2.11
407.783	2.12
408.146	2.28
408.509	2.22
408.872	2.18
409.235	2.12
409.598	2.06
409.961	1.91
410.323	2.14
410.686	2.38
411.049	2.12
411.411	2.04
411.774	2.05
412.136	2.03
412.499	2.07
412.861	1.99
413.223	1.98
413.586	2.08
413.948	2.15
414.31	2.24
414.672	2.31
415.035	2.33
415.397	2.34
415.759	2.26
416.121	2.29
416.483	2.06
416.845	2.2
417.206	2.21
417.568	2.24
417.93	2.19
418.292	2.06
418.653	2.05
419.015	2.13
419.377	2.11
419.738	2.24
420.1	2.1
420.461	2.07
420.822	2.03
421.184	2.01
421.545	2.09
421.906	2.11
422.267	2.05
422.629	2.09
422.99	2.06
423.351	2.09
423.712	2.14
424.073	2.13
424.434	2.03
424.795	2.2
425.155	2.19
425.516	2.16
425.877	2.04
426.238	2.09
426.598	2.07
426.959	2.01
427.32	2.14
427.68	2.1
428.041	2.21
428.401	2.16
428.761	2.08
429.122	2.25
429.482	2.33
429.842	2.21
430.202	2.35
430.563	2.11
430.923	2.07
431.283	2.22
431.643	2.13
432.003	2.31
432.363	2.16
432.722	2.25
433.082	2.1
433.442	2.1
433.802	2.32
434.161	2.15
434.521	2.2
434.881	2.05
435.24	2.15
435.6	1.98
435.959	2.14
436.319	2.04
436.678	2.07
437.037	2.14
437.396	2.12
437.756	2.14
438.115	1.97
438.474	2.01
438.833	2.1
439.192	2.21
439.551	2.07
439.91	2.29
440.269	2.29
440.628	2.19
440.987	2.19
441.345	2.18
441.704	2.12
442.063	2.3
442.421	2.13
442.78	2.16
443.138	2.06
443.497	2.07
443.855	2.19
444.214	2.22
444.572	2.19
444.93	2.14
445.288	2.22
445.647	2.01
446.005	2.17
446.363	2.13
446.721	2.07
447.079	2.03
447.437	2.13
447.795	2.05
448.153	2.08
448.51	2.12
448.868	2.12
449.226	2.21
449.584	2.23
449.941	2.15
450.299	2.2
450.656	2.24
451.014	2.32
451.371	2.07
451.729	2.09
452.086	2.21
452.443	2.25
452.801	2.14
453.158	2.22
453.515	2.13
453.872	2.27
454.229	2.15
454.586	2.2
454.943	2.19
455.3	2.18
455.657	2.3
456.014	2.13
456.371	2.21
456.727	2.15
457.084	2.2
457.441	2.26
457.797	2.2
458.154	2.19
458.51	2.18
458.867	2.2
459.223	2.16
459.58	2.14
459.936	2.19
460.292	2.11
460.648	2.1
461.005	2.18
461.361	2.17
461.717	2.08
462.073	2.18
462.429	2.27
462.785	2.2
463.141	2.26
463.496	2.23
463.852	2.31
464.208	2.23
464.564	2.2
464.919	2.29
465.275	2.13
465.631	2.28
465.986	2.21
466.342	2.23
466.697	2.26
467.052	2.33
467.408	2.24
467.763	2.06
468.118	2.22
468.473	2.22
468.829	2.32
469.184	2.35
469.539	2.27
469.894	2.21
470.249	2.27
470.603	2.11
470.958	2.46
471.313	2.33
471.668	2.41
472.023	2.35
472.377	2.26
472.732	2.4
473.086	2.32
473.441	2.37
473.795	2.41
474.15	2.3
474.504	2.35
474.859	2.25
475.213	2.23
475.567	2.28
475.921	2.32
476.275	2.3
476.63	2.2
476.984	2.28
477.338	2.26
477.692	2.27
478.045	2.31
478.399	2.16
478.753	2.19
479.107	2.24
479.461	2.32
479.814	2.22
480.168	2.21
480.521	2.27
480.875	2.32
481.228	2.26
481.582	2.27
481.935	2.23
482.289	2.31
482.642	2.15
482.995	2.29
483.348	2.15
483.701	2.3
484.055	2.19
484.408	2.22
484.761	2.08
485.114	2.05
485.466	1.97
485.819	2.04
486.172	2.08
486.525	2.18
486.878	2.21
487.23	2.22
487.583	2.23
487.936	2.23
488.288	2.15
488.641	2.17
488.993	2.12
489.345	2.07
489.698	2.13
490.05	2.08
490.402	2.14
490.754	2.28
491.107	2.2
491.459	2.27
491.811	2.24
492.163	2.19
492.515	2.15
492.866	2.1
493.218	2.05
493.57	2.05
493.922	2.2
494.274	2.28
494.625	2.23
494.977	2.24
495.328	2.28
495.68	2.26
496.031	2.2
496.383	2.31
496.734	2.31
497.086	2.28
497.437	2.19
497.788	2.26
498.139	2.17
498.49	2.2
498.842	2.29
499.193	2.24
499.544	2.24
499.894	2.32
500.245	2.29
500.596	2.29
500.947	2.3
501.298	2.37
501.648	2.41
501.999	2.42
502.35	2.29
502.7	2.39
503.051	2.3
503.401	2.18
503.752	2.27
504.102	2.23
504.452	2.34
504.803	2.32
505.153	2.38
505.503	2.22
505.853	2.29
506.203	2.38
506.553	2.45
506.903	2.24
507.253	2.28
507.603	2.35
507.953	2.31
508.303	2.28
508.652	2.21
509.002	2.32
509.352	2.33
509.701	2.39
510.051	2.26
510.4	2.25
510.75	2.31
511.099	2.28
511.449	2.26
511.798	2.23
512.147	2.32
512.496	2.32
512.846	2.27
513.195	2.22
513.544	2.25
513.893	2.29
514.242	2.37
514.591	2.27
514.939	2.28
515.288	2.34
515.637	2.29
515.986	2.32
516.334	2.28
516.683	2.45
517.032	2.26
517.38	2.29
517.729	2.38
518.077	2.26
518.426	2.31
518.774	2.2
519.122	2.16
519.47	2.12
519.819	2.26
520.167	2.17
520.515	2.28
520.863	2.3
521.211	2.24
521.559	2.28
521.907	2.25
522.255	2.34
522.602	2.34
522.95	2.28
523.298	2.29
523.645	2.37
523.993	2.42
524.341	2.44
524.688	2.32
525.036	2.36
525.383	2.31
525.73	2.2
526.078	2.3
526.425	2.28
526.772	2.31
527.119	2.2
527.466	2.12
527.814	2.21
528.161	2.23
528.508	2.24
528.854	2.24
529.201	2.3
529.548	2.22
529.895	2.08
530.242	2.12
530.588	2.1
530.935	2.1
531.282	2.26
531.628	2.27
531.975	2.28
532.321	2.29
532.667	2.28
533.014	2.26
533.36	2.25
533.706	2.22
534.052	2.25
534.399	2.22
534.745	2.19
535.091	2.15
535.437	2.2
535.783	2.28
536.129	2.34
536.474	2.34
536.82	2.3
537.166	2.2
537.512	2.24
537.857	2.36
538.203	2.22
538.549	2.15
538.894	2.25
539.239	2.26
539.585	2.24
539.93	2.38
540.276	2.31
540.621	2.35
540.966	2.3
541.311	2.32
541.656	2.14
542.001	2.37
542.346	2.24
542.691	2.14
543.036	2.17
543.381	2.19
543.726	2.2
544.071	2.27
544.415	2.26
544.76	2.27
545.105	2.35
545.449	2.3
545.794	2.29
546.138	2.29
546.483	2.3
546.827	2.32
547.171	2.31
547.516	2.18
547.86	2.3
548.204	2.29
548.548	2.26
548.892	2.31
549.236	2.31
549.58	2.4
549.924	2.28
550.268	2.44
550.612	2.35
550.956	2.32
551.3	2.53
551.643	2.49
551.987	2.38
552.33	2.42
552.674	2.37
553.017	2.39
553.361	2.41
553.704	2.42
554.048	2.31
554.391	2.27
554.734	2.22
555.077	2.3
555.42	2.34
555.764	2.31
556.107	2.38
556.45	2.27
556.793	2.36
557.135	2.3
557.478	2.27
557.821	2.4
558.164	2.28
558.507	2.35
558.849	2.34
559.192	2.44
559.534	2.33
559.877	2.4
560.219	2.46
560.562	2.31
560.904	2.28
561.246	2.25
561.589	2.46
561.931	2.35
562.273	2.3
562.615	2.3
562.957	2.32
563.299	2.4
563.641	2.2
563.983	2.3
564.325	2.25
564.667	2.4
565.008	2.29
565.35	2.52
565.692	2.33
566.033	2.39
566.375	2.32
566.716	2.25
567.058	2.27
567.399	2.26
567.741	2.31
568.082	2.29
568.423	2.4
568.764	2.34
569.105	2.29
569.447	2.24
569.788	2.34
570.129	2.32
570.47	2.31
570.811	2.33
571.151	2.46
571.492	2.36
571.833	2.55
572.174	2.36
572.514	2.35
572.855	2.28
573.195	2.48
573.536	2.32
573.876	2.38
574.217	2.19
574.557	2.23
574.898	2.29
575.238	2.41
575.578	2.3
575.918	2.21
576.258	2.39
576.598	2.33
576.938	2.2
577.278	2.48
577.618	2.42
577.958	2.19
578.298	2.39
578.638	2.32
578.977	2.4
579.317	2.41
579.657	2.3
579.996	2.33
580.336	2.43
580.675	2.37
581.014	2.31
581.354	2.36
581.693	2.13
582.032	2.4
582.372	2.44
582.711	2.41
583.05	2.28
583.389	2.4
583.728	2.28
584.067	2.36
584.406	2.38
584.745	2.46
585.083	2.37
585.422	2.36
585.761	2.37
586.1	2.32
586.438	2.28
586.777	2.58
587.115	2.36
587.454	2.54
587.792	2.59
588.13	2.41
588.469	2.63
588.807	2.31
589.145	2.38
589.483	2.3
589.821	2.29
590.159	2.47
590.497	2.46
590.835	2.32
591.173	2.25
591.511	2.7
591.849	2.26
592.187	2.4
592.524	2.56
592.862	2.5
593.2	2.47
593.537	2.27
593.875	2.3
594.212	2.53
594.55	2.69
594.887	2.48
595.224	2.39
595.561	2.36
595.899	2.22
596.236	2.4
596.573	2.41
596.91	2.3
597.247	2.11
597.584	2.39
597.921	2.28
598.258	2.33
598.594	2.25
598.931	2.33
599.268	2.25
599.604	2.48
599.941	2.37
600.277	2.18
600.614	2.62
600.95	2.39
601.287	2.47
601.623	2.43
601.959	2.28
602.296	2.16
602.632	2.25
602.968	2.2
603.304	2.44
603.64	2.23
603.976	2.5
604.312	2.25
604.648	2.12
604.984	2.34
605.319	2.45
605.655	2.23
605.991	2.29
606.326	2.38
606.662	2.2
606.998	2.25
607.333	2.47
607.668	2.48
608.004	2.26
608.339	2.42
608.674	2.51
609.01	2.13
609.345	2.2
609.68	2.39
610.015	2.53
610.35	2.58
610.685	2.37
611.02	2.38
611.355	2.26
611.689	2.53
612.024	2.49
612.359	2.09
612.694	2.46
613.028	2.33
613.363	2.41
613.697	2.33
614.032	2.28
614.366	2.27
614.7	2.21
615.035	2.24
615.369	2.46
615.703	2.25
616.037	2.34
616.371	2.56
616.705	2.26
617.039	2.27
617.373	2.43
617.707	2.34
618.041	2.01
618.375	2.65
618.709	2.2
619.042	2.42
619.376	2.27
619.71	2.23
620.043	2.36
620.377	2.23
620.71	2.17
621.043	2.29
621.377	2.13
621.71	2.33
622.043	1.91
622.376	2.1
622.709	2.52
623.043	2.25
623.376	2.66
623.709	2.21
624.041	2.5
624.374	2.7
624.707	2.22
625.04	2.44
625.373	2.22
625.705	2.3
626.038	2.3
626.37	2.14
626.703	2.52
627.035	2.1
627.368	2.16
627.7	2.34
628.032	2.1
628.365	2.59
628.697	2.59
629.029	2.37
629.361	2.18
629.693	2.29
630.025	2.2
630.357	2.33
630.689	2.56
631.021	2.19
631.353	2.17
631.684	2.33
632.016	2.44
632.348	2.65
632.679	2.56
633.011	1.99
633.342	2
633.674	2.35
634.005	2.63
634.336	2.34
634.668	1.85
634.999	2.09
635.33	2.37
635.661	2.34
635.992	2.28
636.323	2.34
636.654	2.73
636.985	2.33
637.316	2.35
637.647	2.35
637.977	2.47
638.308	2.26
638.639	2.37
638.969	2.5
639.3	2.41
639.63	2.54
639.961	2.43
640.291	2.46
640.622	2.45
640.952	2.49
641.282	2.26
641.612	2.47
641.943	2.52
642.273	2.45
642.603	2.1
642.933	2.32
643.263	2.2
643.592	2.61
643.922	2.03
644.252	2.57
644.582	2.19
644.911	2.38
645.241	2.69
645.571	2.47
645.9	2.46
646.23	2.34
646.559	1.99
646.888	2.52
647.218	2.02
647.547	2.61
647.876	2.16
648.205	2.41
648.534	2.35
648.863	2.42
649.192	2.5
649.521	2.49
649.85	2.58
650.179	2.06
650.508	2.16
650.837	2.78
651.165	2.88
651.494	2.17
651.822	2.24
652.151	2.24
652.479	2.5
652.808	2.37
653.136	2.24
653.465	2.88
653.793	2.56
654.121	2.36
654.449	2.45
654.777	2.49
655.105	2.7
655.433	2.33
655.761	1.69
656.089	2.11
656.417	2.1
656.745	2.36
657.073	2.79
657.4	2.31
657.728	2.61
658.056	2.03
658.383	2.28
658.711	2.66
659.038	2.25
659.365	2.33
659.693	2.43
660.02	2.78
660.347	2.19
660.674	2.3
661.001	2.43
661.329	2.4
661.656	2.56
661.982	2.54
662.309	2.55
662.636	2.29
662.963	2.73
663.29	2.46
663.616	2.63
663.943	2.48
664.27	2.42
664.596	2.65
664.923	2.4
665.249	2.52
665.576	2.33
665.902	2.56
666.228	2.77
666.554	2.5
666.881	2.03
667.207	2.03
667.533	2.72
667.859	2.12
668.185	2.36
668.511	2.63
668.837	2.08
669.162	2.76
669.488	2.21
669.814	2.64
670.139	2.79
670.465	2.48
670.791	1.92
671.116	2.04
671.442	2.47
671.767	2.35
672.092	2.49
672.418	2.27
672.743	2.65
673.068	2.43
673.393	1.98
673.718	2.57
674.043	2.57
674.368	2.07
674.693	2.99
675.018	2.38
675.343	2.32
675.667	2.36
675.992	2.6
676.317	2.76
676.641	2.41
676.966	1.86
677.29	1.58
677.615	2.39
677.939	2.74
678.264	2.68
678.588	2.54
678.912	2.35
679.236	2.31
679.56	2.45
679.885	2.97
680.209	2.36
680.532	2.4
680.856	2.81
681.18	2.57
681.504	2.59
681.828	1.56
682.152	3.21
682.475	2.44
682.799	2.31
683.122	2.48
683.446	2.57
683.769	3.15
684.093	2.14
684.416	2.52
684.739	2.98
685.062	2.32
685.386	2.98
685.709	2.55
686.032	2.54
686.355	2.36
686.678	2.73
687.001	3.37
687.324	2.13
687.646	2.72
687.969	2.45
688.292	2.72
688.614	1.9
688.937	2.44
689.26	2.05
689.582	2.99
689.904	2.23
690.227	2.72
690.549	2.56
690.871	2.3
691.194	3.02
691.516	2.75
691.838	2.51
692.16	1.98
692.482	2.47
692.804	2.5
693.126	2.5
