Data from 1597-1_crown_Reflection__3__38.txt Node

Date: Fri Nov 11 16:26:40 CST 2022
User: ToomeyLab
Spectrometer: FLMS14357
Trigger mode: 0
Integration Time (sec): 1.000000E-2
Scans to average: 100
Electric dark correction enabled: true
Nonlinearity correction enabled: false
Boxcar width: 0
XAxis mode: Wavelengths
Number of Pixels in Spectrum: 2048
>>>>>Begin Spectral Data<<<<<
189.047	3.87
189.435	3.87
189.823	3.87
190.211	80.14
190.599	103.67
190.987	562.79
191.375	-106.77
191.763	408.17
192.151	1217.08
192.538	5498.94
192.926	-24.85
193.314	-334.24
193.702	507.82
194.089	-27.16
194.477	91.46
194.864	-2.61
195.252	154.53
195.639	21.09
196.027	-61.73
196.414	102.84
196.801	190.25
197.189	26.35
197.576	-68.31
197.963	58.06
198.351	8.32
198.738	-50.77
199.125	59.3
199.512	-6.25
199.899	-5.08
200.286	52.52
200.673	29
201.06	-45.55
201.447	45.24
201.833	70.17
202.22	48.13
202.607	61.72
202.994	23.64
203.38	30.24
203.767	39.91
204.154	8.87
204.54	23.73
204.927	31.95
205.313	30.32
205.699	9.29
206.086	24.21
206.472	13.98
206.858	19.65
207.245	12.55
207.631	3.11
208.017	6.5
208.403	21.3
208.789	-31.64
209.175	47.96
209.561	6.42
209.947	6.82
210.333	21.1
210.719	30.22
211.105	43.51
211.491	-71.42
211.876	37.98
212.262	-3.95
212.648	4.03
213.034	18.2
213.419	2.01
213.805	9.8
214.19	-4.64
214.576	32.33
214.961	-6.99
215.346	-59.65
215.732	-30.57
216.117	30.33
216.502	25.02
216.888	1.24
217.273	14.41
217.658	11.19
218.043	-4.17
218.428	-21.4
218.813	42.02
219.198	-1.93
219.583	2.97
219.968	10.99
220.353	-13.44
220.738	2.05
221.122	-23.18
221.507	15.25
221.892	5.71
222.276	-0.99
222.661	17.1
223.046	5.95
223.43	22.09
223.815	7.79
224.199	5.85
224.583	-0.91
224.968	16.48
225.352	-8.19
225.736	10.32
226.121	16.9
226.505	9.74
226.889	7.06
227.273	12.27
227.657	0.5
228.041	9.36
228.425	9.01
228.809	8.74
229.193	4.09
229.577	7.57
229.961	6.75
230.344	8.05
230.728	7.74
231.112	8.07
231.495	8.08
231.879	6.38
232.263	7.13
232.646	6.88
233.03	6.74
233.413	6.32
233.797	8.28
234.18	9.17
234.563	7.2
234.946	5.9
235.33	5.55
235.713	8.3
236.096	5.8
236.479	7.05
236.862	7.88
237.245	7.16
237.628	8.22
238.011	6.78
238.394	6.58
238.777	7.31
239.16	6.77
239.543	6.15
239.925	8.66
240.308	5.88
240.691	6.61
241.073	5.09
241.456	6.34
241.838	7.51
242.221	6.54
242.603	6.28
242.986	6.32
243.368	6.53
243.75	6.73
244.133	6.24
244.515	7.11
244.897	6.59
245.279	6.59
245.661	6.98
246.043	7.39
246.425	7.94
246.807	6.61
247.189	6.44
247.571	5.9
247.953	6.81
248.335	6.79
248.717	6.53
249.098	6.48
249.48	6.41
249.862	6.21
250.243	6.33
250.625	6.35
251.006	6.57
251.388	6.6
251.769	6.91
252.151	7.06
252.532	6.67
252.913	5.56
253.295	6.01
253.676	6.28
254.057	6.3
254.438	6.52
254.819	6.88
255.2	6.66
255.581	7.51
255.962	6.15
256.343	5.81
256.724	5.76
257.105	6.21
257.486	7.18
257.867	6.11
258.247	6.82
258.628	6.21
259.009	6.78
259.389	6.2
259.77	7.34
260.15	6.65
260.531	5.83
260.911	5.89
261.292	6.12
261.672	5.98
262.052	5.97
262.432	6.53
262.813	6.14
263.193	5.62
263.573	6.58
263.953	5.71
264.333	5.87
264.713	5.49
265.093	6.02
265.473	6.87
265.853	5.86
266.233	6.98
266.612	5.21
266.992	5.74
267.372	5.99
267.752	6.24
268.131	6.27
268.511	6.6
268.89	5.93
269.27	5.39
269.649	5.5
270.029	5.69
270.408	5.77
270.787	6.46
271.167	6.11
271.546	6.17
271.925	6.09
272.304	6.29
272.683	5.81
273.062	6.03
273.441	5.22
273.82	5.43
274.199	5.72
274.578	6.03
274.957	5.5
275.336	5.63
275.715	5.77
276.093	6.05
276.472	5.25
276.851	5.64
277.229	6.25
277.608	5.59
277.986	5.68
278.365	6.42
278.743	5.68
279.122	5.32
279.5	5.54
279.878	5.64
280.257	5.58
280.635	5.27
281.013	5.43
281.391	5.22
281.769	6.74
282.147	5.6
282.525	5.76
282.903	5.86
283.281	5.72
283.659	5.59
284.037	5.53
284.415	5.29
284.792	5.98
285.17	5.68
285.548	5.62
285.925	5.47
286.303	5.26
286.68	5.83
287.058	5.63
287.435	5.68
287.813	5.33
288.19	5.53
288.567	5.5
288.945	4.81
289.322	4.84
289.699	4.94
290.076	5.08
290.453	5.3
290.83	5.36
291.207	5.47
291.584	5.21
291.961	5.09
292.338	5.74
292.715	5.6
293.092	5.38
293.469	5.39
293.845	5.54
294.222	5.9
294.599	5.23
294.975	5.21
295.352	5.25
295.728	5.27
296.105	5.37
296.481	4.6
296.858	5.2
297.234	5.23
297.61	5.59
297.986	5.13
298.363	5.03
298.739	5.1
299.115	5.13
299.491	5.08
299.867	5.19
300.243	4.98
300.619	5.01
300.995	5.05
301.371	4.54
301.746	5.31
302.122	5.26
302.498	4.76
302.874	4.72
303.249	4.7
303.625	5.12
304	5.08
304.376	5.01
304.751	5.28
305.127	5.17
305.502	5.16
305.878	5.48
306.253	5.15
306.628	4.85
307.003	5.48
307.378	5.74
307.754	5.33
308.129	5.22
308.504	5.09
308.879	4.77
309.254	4.24
309.629	5.02
310.003	5.02
310.378	4.56
310.753	4.56
311.128	5.28
311.502	4.8
311.877	4.91
312.252	4.7
312.626	4.74
313.001	4.92
313.375	5.39
313.75	5.14
314.124	5.3
314.498	5.43
314.873	5.06
315.247	4.8
315.621	4.95
315.995	4.72
316.369	5.37
316.743	5.17
317.117	4.79
317.491	5.11
317.865	4.89
318.239	4.91
318.613	5.02
318.987	5.43
319.361	4.86
319.734	4.58
320.108	4.88
320.482	4.54
320.855	5.04
321.229	5.41
321.602	4.57
321.976	4.52
322.349	4.86
322.723	4.96
323.096	5.13
323.469	4.96
323.843	5.61
324.216	4.46
324.589	4.57
324.962	4.26
325.335	5.23
325.708	5
326.081	4.63
326.454	5.06
326.827	4.84
327.2	4.58
327.573	4.94
327.945	4.48
328.318	4.89
328.691	5.25
329.063	5.24
329.436	4.86
329.809	4.56
330.181	4.83
330.553	5.27
330.926	4.67
331.298	4.61
331.671	4.91
332.043	5.42
332.415	4.94
332.787	4.9
333.159	5.04
333.532	4.44
333.904	4.4
334.276	4.6
334.648	4.76
335.02	4.87
335.391	4.76
335.763	5.16
336.135	4.63
336.507	4.87
336.879	4.77
337.25	4.46
337.622	4.95
337.993	4.99
338.365	4.92
338.736	5.04
339.108	5.38
339.479	5.21
339.851	4.43
340.222	4.64
340.593	4.68
340.964	5
341.336	4.75
341.707	4.7
342.078	4.64
342.449	5.01
342.82	4.65
343.191	5.18
343.562	4.95
343.933	4.63
344.303	5.43
344.674	5.18
345.045	4.64
345.416	4.83
345.786	4.91
346.157	4.97
346.527	4.99
346.898	4.91
347.268	4.87
347.639	5.56
348.009	5
348.38	4.79
348.75	5.21
349.12	4.64
349.49	4.98
349.861	4.32
350.231	4.76
350.601	5.34
350.971	4.92
351.341	4.79
351.711	4.73
352.081	4.47
352.45	4.97
352.82	5.08
353.19	4.93
353.56	5.25
353.929	5.31
354.299	5.06
354.669	5
355.038	5.31
355.408	4.85
355.777	5.21
356.147	5.07
356.516	4.89
356.885	5.04
357.254	4.99
357.624	5.16
357.993	4.95
358.362	4.78
358.731	4.73
359.1	4.76
359.469	5.16
359.838	5.09
360.207	5.06
360.576	4.77
360.945	5.34
361.314	5.13
361.682	5.09
362.051	4.85
362.42	4.89
362.788	4.74
363.157	4.93
363.525	5.13
363.894	4.88
364.262	4.77
364.631	4.8
364.999	4.85
365.367	5
365.735	5.15
366.104	4.75
366.472	5.15
366.84	5.37
367.208	4.76
367.576	5.16
367.944	5.03
368.312	5.13
368.68	5.32
369.048	5.36
369.416	5.11
369.783	4.92
370.151	5.32
370.519	5.44
370.886	5.05
371.254	4.85
371.621	5.37
371.989	4.84
372.356	4.87
372.724	5.17
373.091	4.91
373.458	5
373.826	5.13
374.193	5.2
374.56	4.82
374.927	5.2
375.294	5.2
375.661	5.43
376.028	5.33
376.395	5.12
376.762	4.99
377.129	5.22
377.496	5.12
377.863	5.33
378.229	5.13
378.596	5.31
378.963	5.07
379.329	5.17
379.696	4.99
380.062	5.42
380.429	5.06
380.795	5.18
381.161	5.4
381.528	5.62
381.894	5.38
382.26	4.99
382.626	5.22
382.993	5.48
383.359	5.11
383.725	5.25
384.091	5.2
384.457	5.32
384.823	5.1
385.188	5.38
385.554	5.1
385.92	5.1
386.286	5.14
386.651	4.97
387.017	5.28
387.383	5.27
387.748	5.09
388.114	5.3
388.479	5.28
388.845	5.28
389.21	5.38
389.575	5.16
389.94	5.24
390.306	5.13
390.671	5.09
391.036	5.2
391.401	5.51
391.766	5.31
392.131	5.21
392.496	5.3
392.861	5.31
393.226	5.28
393.591	5.23
393.956	5.3
394.32	5.39
394.685	5.37
395.05	5.59
395.414	5.48
395.779	5.33
396.143	5.46
396.508	5.24
396.872	5.57
397.236	5.33
397.601	5.48
397.965	5.38
398.329	5.35
398.694	5.21
399.058	5.28
399.422	5.35
399.786	5.45
400.15	5.28
400.514	5.3
400.878	5.48
401.242	5.37
401.605	5.37
401.969	5.23
402.333	5.44
402.697	5.41
403.06	5.45
403.424	5.3
403.787	5.35
404.151	5.25
404.514	5.3
404.878	5.45
405.241	5.63
405.604	5.23
405.968	5.4
406.331	5.32
406.694	5.45
407.057	5.46
407.42	5.39
407.783	5.48
408.146	5.54
408.509	5.27
408.872	5.69
409.235	5.52
409.598	5.35
409.961	5.36
410.323	5.43
410.686	5.55
411.049	5.48
411.411	5.36
411.774	5.41
412.136	5.42
412.499	5.39
412.861	5.55
413.223	5.29
413.586	5.36
413.948	5.35
414.31	5.47
414.672	5.62
415.035	5.7
415.397	5.51
415.759	5.53
416.121	5.69
416.483	5.48
416.845	5.63
417.206	5.47
417.568	5.46
417.93	5.42
418.292	5.3
418.653	5.32
419.015	5.35
419.377	5.51
419.738	5.55
420.1	5.45
420.461	5.37
420.822	5.38
421.184	5.41
421.545	5.32
421.906	5.41
422.267	5.4
422.629	5.4
422.99	5.21
423.351	5.35
423.712	5.46
424.073	5.36
424.434	5.46
424.795	5.54
425.155	5.43
425.516	5.38
425.877	5.43
426.238	5.34
426.598	5.39
426.959	5.33
427.32	5.57
427.68	5.47
428.041	5.56
428.401	5.42
428.761	5.44
429.122	5.64
429.482	5.4
429.842	5.65
430.202	5.52
430.563	5.46
430.923	5.41
431.283	5.61
431.643	5.74
432.003	5.67
432.363	5.73
432.722	5.5
433.082	5.53
433.442	5.53
433.802	5.75
434.161	5.46
434.521	5.55
434.881	5.61
435.24	5.53
435.6	5.48
435.959	5.56
436.319	5.39
436.678	5.45
437.037	5.39
437.396	5.43
437.756	5.51
438.115	5.32
438.474	5.47
438.833	5.44
439.192	5.64
439.551	5.51
439.91	5.65
440.269	5.58
440.628	5.5
440.987	5.62
441.345	5.52
441.704	5.49
442.063	5.57
442.421	5.48
442.78	5.48
443.138	5.45
443.497	5.41
443.855	5.44
444.214	5.46
444.572	5.67
444.93	5.56
445.288	5.69
445.647	5.52
446.005	5.67
446.363	5.56
446.721	5.47
447.079	5.42
447.437	5.55
447.795	5.48
448.153	5.51
448.51	5.51
448.868	5.44
449.226	5.45
449.584	5.51
449.941	5.43
450.299	5.53
450.656	5.62
451.014	5.63
451.371	5.4
451.729	5.6
452.086	5.67
452.443	5.68
452.801	5.49
453.158	5.58
453.515	5.51
453.872	5.78
454.229	5.65
454.586	5.58
454.943	5.59
455.3	5.59
455.657	5.74
456.014	5.47
456.371	5.61
456.727	5.56
457.084	5.66
457.441	5.7
457.797	5.65
458.154	5.6
458.51	5.74
458.867	5.82
459.223	5.61
459.58	5.73
459.936	5.73
460.292	5.63
460.648	5.51
461.005	5.56
461.361	5.56
461.717	5.49
462.073	5.59
462.429	5.57
462.785	5.49
463.141	5.52
463.496	5.53
463.852	5.74
464.208	5.62
464.564	5.6
464.919	5.73
465.275	5.69
465.631	5.75
465.986	5.54
466.342	5.81
466.697	5.75
467.052	5.77
467.408	5.61
467.763	5.68
468.118	5.64
468.473	5.73
468.829	5.75
469.184	5.88
469.539	5.71
469.894	5.6
470.249	5.64
470.603	5.59
470.958	5.83
471.313	5.65
471.668	5.77
472.023	5.71
472.377	5.81
472.732	5.7
473.086	5.68
473.441	5.72
473.795	5.71
474.15	5.76
474.504	5.83
474.859	5.74
475.213	5.77
475.567	5.72
475.921	5.85
476.275	5.87
476.63	5.64
476.984	5.79
477.338	5.78
477.692	5.67
478.045	5.64
478.399	5.68
478.753	5.74
479.107	5.68
479.461	5.63
479.814	5.72
480.168	5.88
480.521	5.71
480.875	5.76
481.228	5.7
481.582	5.71
481.935	5.81
482.289	5.75
482.642	5.67
482.995	5.74
483.348	5.53
483.701	5.67
484.055	5.51
484.408	5.53
484.761	5.43
485.114	5.34
485.466	5.28
485.819	5.32
486.172	5.26
486.525	5.31
486.878	5.38
487.23	5.38
487.583	5.51
487.936	5.54
488.288	5.47
488.641	5.53
488.993	5.39
489.345	5.35
489.698	5.38
490.05	5.37
490.402	5.38
490.754	5.46
491.107	5.48
491.459	5.51
491.811	5.57
492.163	5.59
492.515	5.56
492.866	5.43
493.218	5.39
493.57	5.32
493.922	5.41
494.274	5.42
494.625	5.46
494.977	5.51
495.328	5.61
495.68	5.58
496.031	5.63
496.383	5.73
496.734	5.71
497.086	5.69
497.437	5.58
497.788	5.67
498.139	5.66
498.49	5.56
498.842	5.61
499.193	5.6
499.544	5.61
499.894	5.61
500.245	5.63
500.596	5.68
500.947	5.56
501.298	5.7
501.648	5.66
501.999	5.76
502.35	5.71
502.7	5.65
503.051	5.59
503.401	5.6
503.752	5.63
504.102	5.59
504.452	5.69
504.803	5.69
505.153	5.62
505.503	5.6
505.853	5.78
506.203	5.78
506.553	5.85
506.903	5.62
507.253	5.7
507.603	5.73
507.953	5.72
508.303	5.84
508.652	5.61
509.002	5.6
509.352	5.81
509.701	5.69
510.051	5.59
510.4	5.56
510.75	5.53
511.099	5.61
511.449	5.65
511.798	5.56
512.147	5.6
512.496	5.69
512.846	5.66
513.195	5.57
513.544	5.72
513.893	5.65
514.242	5.66
514.591	5.59
514.939	5.56
515.288	5.63
515.637	5.56
515.986	5.72
516.334	5.68
516.683	5.64
517.032	5.67
517.38	5.79
517.729	5.82
518.077	5.67
518.426	5.75
518.774	5.51
519.122	5.52
519.47	5.53
519.819	5.58
520.167	5.49
520.515	5.54
520.863	5.59
521.211	5.63
521.559	5.51
521.907	5.66
522.255	5.69
522.602	5.65
522.95	5.72
523.298	5.63
523.645	5.62
523.993	5.65
524.341	5.68
524.688	5.66
525.036	5.69
525.383	5.65
525.73	5.6
526.078	5.59
526.425	5.5
526.772	5.58
527.119	5.6
527.466	5.51
527.814	5.47
528.161	5.46
528.508	5.49
528.854	5.41
529.201	5.45
529.548	5.52
529.895	5.38
530.242	5.32
530.588	5.27
530.935	5.27
531.282	5.36
531.628	5.36
531.975	5.38
532.321	5.39
532.667	5.52
533.014	5.51
533.36	5.48
533.706	5.51
534.052	5.54
534.399	5.5
534.745	5.43
535.091	5.39
535.437	5.41
535.783	5.37
536.129	5.38
536.474	5.49
536.82	5.46
537.166	5.44
537.512	5.54
537.857	5.56
538.203	5.49
538.549	5.45
538.894	5.52
539.239	5.47
539.585	5.51
539.93	5.57
540.276	5.54
540.621	5.54
540.966	5.57
541.311	5.56
541.656	5.41
542.001	5.62
542.346	5.44
542.691	5.43
543.036	5.36
543.381	5.33
543.726	5.3
544.071	5.34
544.415	5.4
544.76	5.4
545.105	5.45
545.449	5.46
545.794	5.49
546.138	5.45
546.483	5.54
546.827	5.54
547.171	5.43
547.516	5.36
547.86	5.51
548.204	5.43
548.548	5.38
548.892	5.46
549.236	5.44
549.58	5.53
549.924	5.62
550.268	5.6
550.612	5.52
550.956	5.59
551.3	5.76
551.643	5.67
551.987	5.52
552.33	5.62
552.674	5.59
553.017	5.57
553.361	5.58
553.704	5.58
554.048	5.53
554.391	5.62
554.734	5.55
555.077	5.59
555.42	5.51
555.764	5.64
556.107	5.57
556.45	5.43
556.793	5.48
557.135	5.51
557.478	5.39
557.821	5.64
558.164	5.41
558.507	5.66
558.849	5.42
559.192	5.63
559.534	5.52
559.877	5.62
560.219	5.64
560.562	5.54
560.904	5.63
561.246	5.39
561.589	5.68
561.931	5.48
562.273	5.59
562.615	5.6
562.957	5.38
563.299	5.58
563.641	5.43
563.983	5.58
564.325	5.43
564.667	5.53
565.008	5.63
565.35	5.53
565.692	5.59
566.033	5.62
566.375	5.54
566.716	5.59
567.058	5.51
567.399	5.54
567.741	5.61
568.082	5.52
568.423	5.59
568.764	5.49
569.105	5.56
569.447	5.36
569.788	5.42
570.129	5.58
570.47	5.49
570.811	5.55
571.151	5.67
571.492	5.5
571.833	5.51
572.174	5.58
572.514	5.5
572.855	5.43
573.195	5.66
573.536	5.48
573.876	5.44
574.217	5.41
574.557	5.35
574.898	5.47
575.238	5.53
575.578	5.33
575.918	5.44
576.258	5.56
576.598	5.6
576.938	5.48
577.278	5.62
577.618	5.65
577.958	5.46
578.298	5.56
578.638	5.48
578.977	5.3
579.317	5.36
579.657	5.67
579.996	5.53
580.336	5.61
580.675	5.37
581.014	5.48
581.354	5.37
581.693	5.36
582.032	5.59
582.372	5.39
582.711	5.5
583.05	5.44
583.389	5.64
583.728	5.57
584.067	5.61
584.406	5.44
584.745	5.54
585.083	5.37
585.422	5.51
585.761	5.64
586.1	5.5
586.438	5.5
586.777	5.51
587.115	5.39
587.454	5.52
587.792	5.56
588.13	5.47
588.469	5.65
588.807	5.57
589.145	5.56
589.483	5.52
589.821	5.27
590.159	5.65
590.497	5.58
590.835	5.44
591.173	5.54
591.511	5.57
591.849	5.44
592.187	5.56
592.524	5.5
592.862	5.57
593.2	5.59
593.537	5.33
593.875	5.53
594.212	5.47
594.55	5.49
594.887	5.58
595.224	5.45
595.561	5.29
595.899	5.46
596.236	5.48
596.573	5.18
596.91	5.36
597.247	5.35
597.584	5.36
597.921	5.35
598.258	5.44
598.594	5.29
598.931	5.42
599.268	5.22
599.604	5.3
599.941	5.59
600.277	5.2
600.614	5.52
600.95	5.57
601.287	5.44
601.623	5.23
601.959	5.14
602.296	5.31
602.632	5.47
602.968	5.34
603.304	5.45
603.64	5.34
603.976	5.56
604.312	5.55
604.648	5.13
604.984	5.47
605.319	5.34
605.655	5.45
605.991	5.38
606.326	5.28
606.662	5.21
606.998	5.39
607.333	5.33
607.668	5.44
608.004	5.33
608.339	5.59
608.674	5.47
609.01	5.24
609.345	5.2
609.68	5.71
610.015	5.45
610.35	5.44
610.685	5.34
611.02	5.67
611.355	5.3
611.689	5.45
612.024	5.28
612.359	5.16
612.694	5.2
613.028	5.27
613.363	5.57
613.697	5.25
614.032	5.45
614.366	5.27
614.7	5.44
615.035	5.43
615.369	5.54
615.703	5.47
616.037	5.63
616.371	5.49
616.705	5.47
617.039	5.14
617.373	5.4
617.707	5.7
618.041	5.54
618.375	5.54
618.709	5.43
619.042	5.4
619.376	5.56
619.71	5.43
620.043	5.31
620.377	5.45
620.71	5.25
621.043	5.51
621.377	5.14
621.71	5.43
622.043	5.35
622.376	5.36
622.709	5.66
623.043	5.34
623.376	5.61
623.709	5.25
624.041	5.32
624.374	5.54
624.707	5.47
625.04	5.39
625.373	5.4
625.705	5.25
626.038	5.23
626.37	5.33
626.703	5.59
627.035	5.27
627.368	5.46
627.7	5.3
628.032	5.14
628.365	5.62
628.697	5.67
629.029	5.32
629.361	5.19
629.693	5.28
630.025	5.2
630.357	5.32
630.689	5.68
631.021	5.27
631.353	5.31
631.684	5.53
632.016	5.35
632.348	5.3
632.679	5.38
633.011	5.04
633.342	4.96
633.674	5.46
634.005	5.51
634.336	5
634.668	5.29
634.999	5.19
635.33	5.28
635.661	5.49
635.992	5.41
636.323	5.29
636.654	5.61
636.985	5.73
637.316	5.46
637.647	5.29
637.977	5.05
638.308	5.02
638.639	5.32
638.969	5.79
639.3	5.27
639.63	5.46
639.961	5.17
640.291	5.29
640.622	5.25
640.952	5.37
641.282	5.31
641.612	5.55
641.943	5.43
642.273	5.52
642.603	5.24
642.933	5.21
643.263	5.18
643.592	5.62
643.922	5.17
644.252	5.47
644.582	5.39
644.911	5.7
645.241	5.64
645.571	5.93
645.9	5.73
646.23	5.28
646.559	5.4
646.888	5.33
647.218	4.71
647.547	5.76
647.876	5.03
648.205	5.57
648.534	5.4
648.863	5.46
649.192	5.4
649.521	5.68
649.85	5.02
650.179	5.29
650.508	5.49
650.837	5.44
651.165	5.7
651.494	5.52
651.822	5.4
652.151	5.44
652.479	5.91
652.808	5.15
653.136	5.13
653.465	5.85
653.793	5.53
654.121	5.66
654.449	5.3
654.777	5.18
655.105	5.18
655.433	5.31
655.761	5.55
656.089	5.28
656.417	5.74
656.745	5.02
657.073	5.33
657.4	5.38
657.728	5.65
658.056	4.7
658.383	5.3
658.711	5.23
659.038	5.19
659.365	5.44
659.693	5.16
660.02	5.67
660.347	5.59
660.674	5.37
661.001	5.61
661.329	5.4
661.656	5.5
661.982	5.38
662.309	5.36
662.636	5.38
662.963	5.27
663.29	5.75
663.616	5.49
663.943	5.57
664.27	5.22
664.596	6.03
664.923	5.67
665.249	5.69
665.576	5.14
665.902	5.57
666.228	5.9
666.554	5.32
666.881	5.65
667.207	4.92
667.533	5.63
667.859	4.92
668.185	5.02
668.511	5.21
668.837	5.4
669.162	5.36
669.488	5.42
669.814	5.1
670.139	5.92
670.465	5.34
670.791	5.38
671.116	5.67
671.442	5.07
671.767	5.7
672.092	5.4
672.418	5.33
672.743	5.71
673.068	5.23
673.393	4.81
673.718	5.05
674.043	6.14
674.368	5.38
674.693	5.54
675.018	5.29
675.343	5.61
675.667	5.49
675.992	5.23
676.317	5.34
676.641	5.44
676.966	5.46
677.29	5.05
677.615	5.99
677.939	6.09
678.264	5.74
678.588	5.93
678.912	5.49
679.236	5.55
679.56	6.15
679.885	5.92
680.209	5.31
680.532	4.99
680.856	6.21
681.18	5.41
681.504	5.47
681.828	4.94
682.152	5.82
682.475	5.62
682.799	5.7
683.122	6.07
683.446	5.14
683.769	6.07
684.093	5.46
684.416	5.87
684.739	5.39
685.062	5.62
685.386	5.8
685.709	6.17
686.032	5.2
686.355	5.19
686.678	5.45
687.001	5.94
687.324	5.29
687.646	5.85
687.969	5.4
688.292	5.83
688.614	5.22
688.937	5.2
689.26	5.56
689.582	5.11
689.904	4.99
690.227	6.06
690.549	5.84
690.871	5.85
691.194	5.56
691.516	6.24
691.838	5.82
692.16	6.03
692.482	5.23
692.804	5.41
