Data from 1597-1_crown_Reflection__2__37.txt Node

Date: Fri Nov 11 16:26:29 CST 2022
User: ToomeyLab
Spectrometer: FLMS14357
Trigger mode: 0
Integration Time (sec): 1.000000E-2
Scans to average: 100
Electric dark correction enabled: true
Nonlinearity correction enabled: false
Boxcar width: 0
XAxis mode: Wavelengths
Number of Pixels in Spectrum: 2048
>>>>>Begin Spectral Data<<<<<
189.047	43.48
189.435	43.48
189.823	43.48
190.211	17.79
190.599	94.57
190.987	213.55
191.375	124.11
191.763	-36.91
192.151	1041.61
192.538	-5321.28
192.926	-105.69
193.314	-35.05
193.702	-20.63
194.089	36.97
194.477	357.24
194.864	-79.72
195.252	222.11
195.639	107.71
196.027	55.82
196.414	93.39
196.801	195.72
197.189	14.17
197.576	-14.04
197.963	51.91
198.351	45.5
198.738	-34.57
199.125	5.28
199.512	47.48
199.899	-12
200.286	18.02
200.673	12.69
201.06	-7.47
201.447	53.37
201.833	25.88
202.22	24.7
202.607	37.61
202.994	35.48
203.38	8.54
203.767	4.32
204.154	-49.97
204.54	28.36
204.927	31.62
205.313	43.98
205.699	3.66
206.086	40.11
206.472	37.69
206.858	13.42
207.245	24.26
207.631	35.81
208.017	22.28
208.403	-1.87
208.789	-31.06
209.175	53.61
209.561	40.71
209.947	30.34
210.333	30.03
210.719	39.61
211.105	6.88
211.491	-57.8
211.876	18.96
212.262	-25.18
212.648	-4.7
213.034	14.11
213.419	26.92
213.805	22.39
214.19	-4.89
214.576	20.04
214.961	9.54
215.346	-87.43
215.732	-24.57
216.117	26
216.502	2.84
216.888	3.29
217.273	11.25
217.658	3.26
218.043	-2.53
218.428	-1.04
218.813	38.58
219.198	-16.82
219.583	4.84
219.968	12.97
220.353	4.33
220.738	-14.14
221.122	-24.58
221.507	29.03
221.892	9.76
222.276	21.07
222.661	-8.75
223.046	25.18
223.43	5.87
223.815	9.47
224.199	7.88
224.583	11.86
224.968	15.12
225.352	10.53
225.736	14.04
226.121	7.75
226.505	8.94
226.889	17.78
227.273	7.96
227.657	-1.77
228.041	5.73
228.425	7.63
228.809	8.41
229.193	6.59
229.577	8.72
229.961	6.28
230.344	7.15
230.728	5.75
231.112	5.91
231.495	6.43
231.879	5.63
232.263	6.58
232.646	7.35
233.03	5.79
233.413	5.46
233.797	4.4
234.18	6.91
234.563	4.9
234.946	4.2
235.33	7.21
235.713	5.4
236.096	3.83
236.479	6.48
236.862	6.88
237.245	6.15
237.628	5.62
238.011	7.93
238.394	7.15
238.777	7.03
239.16	7.74
239.543	5.63
239.925	8.75
240.308	4.93
240.691	6.16
241.073	5.86
241.456	3.95
241.838	6.81
242.221	6.3
242.603	6.25
242.986	5.97
243.368	5.65
243.75	5.85
244.133	5.83
244.515	6.01
244.897	5.72
245.279	5.71
245.661	5.62
246.043	6.64
246.425	6.56
246.807	5.27
247.189	4.91
247.571	4.93
247.953	5.93
248.335	5.98
248.717	5.54
249.098	5.57
249.48	5.82
249.862	6.08
250.243	5.65
250.625	5.64
251.006	5.98
251.388	5.88
251.769	5.9
252.151	5.45
252.532	6.15
252.913	4.86
253.295	4.96
253.676	5.88
254.057	5.9
254.438	6.18
254.819	5.91
255.2	7.66
255.581	6.5
255.962	5.72
256.343	5.99
256.724	6.22
257.105	6.12
257.486	6.62
257.867	5.93
258.247	6.41
258.628	4.98
259.009	5.21
259.389	5.55
259.77	6.35
260.15	5.97
260.531	5.65
260.911	5.41
261.292	5.35
261.672	5.48
262.052	5.59
262.432	6.04
262.813	5.13
263.193	5.17
263.573	5.86
263.953	5.17
264.333	5.43
264.713	5.47
265.093	5.72
265.473	6.45
265.853	5.36
266.233	5.11
266.612	5.66
266.992	5.59
267.372	5.34
267.752	5.55
268.131	5.3
268.511	5.16
268.89	5.67
269.27	4.95
269.649	4.56
270.029	4.95
270.408	4.69
270.787	6.28
271.167	5.25
271.546	6.06
271.925	5.43
272.304	5.58
272.683	5.1
273.062	5.35
273.441	5.25
273.82	4.82
274.199	4.91
274.578	5.04
274.957	4.83
275.336	5.16
275.715	5.38
276.093	5.62
276.472	5.3
276.851	4.86
277.229	4.98
277.608	5.08
277.986	4.72
278.365	5.66
278.743	4.98
279.122	4.65
279.5	4.81
279.878	5.22
280.257	4.93
280.635	4.79
281.013	5.29
281.391	4.88
281.769	6.13
282.147	5.33
282.525	5.17
282.903	5.23
283.281	5.16
283.659	5.28
284.037	4.99
284.415	5.3
284.792	5.3
285.17	5.01
285.548	5.49
285.925	4.97
286.303	4.99
286.68	4.83
287.058	4.77
287.435	5.25
287.813	4.55
288.19	4.94
288.567	5.12
288.945	4.69
289.322	4.98
289.699	5.01
290.076	4.4
290.453	5.05
290.83	5.17
291.207	4.99
291.584	4.77
291.961	4.95
292.338	5.08
292.715	4.95
293.092	4.64
293.469	5.07
293.845	4.97
294.222	5.33
294.599	5.2
294.975	4.54
295.352	4.64
295.728	4.52
296.105	5.06
296.481	4.22
296.858	4.56
297.234	5.01
297.61	4.91
297.986	4.34
298.363	4.93
298.739	4.73
299.115	4.63
299.491	4.82
299.867	4.81
300.243	4.74
300.619	5.02
300.995	5
301.371	4.5
301.746	5.03
302.122	4.56
302.498	4.63
302.874	4.77
303.249	4.58
303.625	4.49
304	4.36
304.376	4.87
304.751	5.05
305.127	5.16
305.502	4.52
305.878	4.86
306.253	4.9
306.628	4.83
307.003	4.68
307.378	4.88
307.754	4.8
308.129	4.97
308.504	4.62
308.879	4.24
309.254	4.35
309.629	4.36
310.003	4.65
310.378	3.95
310.753	4.31
311.128	4.61
311.502	4.48
311.877	4.84
312.252	4.54
312.626	4.36
313.001	4.69
313.375	4.38
313.75	4.58
314.124	4.76
314.498	4.75
314.873	4.46
315.247	4.79
315.621	4.2
315.995	4.29
316.369	4.75
316.743	4.27
317.117	4.61
317.491	4.43
317.865	4.99
318.239	4.32
318.613	4.65
318.987	4.56
319.361	3.83
319.734	4.22
320.108	4.43
320.482	3.91
320.855	4.37
321.229	4.87
321.602	4.52
321.976	4.36
322.349	4.38
322.723	4.9
323.096	4.77
323.469	5.07
323.843	5.16
324.216	4.02
324.589	4.52
324.962	4.97
325.335	5.03
325.708	4.06
326.081	4.39
326.454	4.34
326.827	4.45
327.2	4.14
327.573	4.23
327.945	4.21
328.318	4.9
328.691	4.58
329.063	4.47
329.436	4.68
329.809	4.49
330.181	4.59
330.553	4.78
330.926	4.09
331.298	4.58
331.671	4.41
332.043	4.62
332.415	4.44
332.787	4.56
333.159	4.42
333.532	4.97
333.904	4.39
334.276	4.54
334.648	4.49
335.02	4.67
335.391	4.89
335.763	4.34
336.135	4.57
336.507	4.62
336.879	4.44
337.25	4.01
337.622	4.49
337.993	4.3
338.365	4.17
338.736	4.42
339.108	4.03
339.479	4.48
339.851	3.89
340.222	3.88
340.593	3.99
340.964	4.06
341.336	4.11
341.707	4.17
342.078	4.35
342.449	4.7
342.82	4.13
343.191	4.82
343.562	4.38
343.933	3.87
344.303	4.78
344.674	4.48
345.045	4
345.416	4.5
345.786	4.57
346.157	3.78
346.527	4.45
346.898	4.12
347.268	4.63
347.639	4.98
348.009	4.28
348.38	4.28
348.75	4.4
349.12	4.42
349.49	4.27
349.861	4.34
350.231	3.83
350.601	4.92
350.971	4.36
351.341	4.51
351.711	4.16
352.081	4.08
352.45	4.14
352.82	4.75
353.19	4.37
353.56	4.9
353.929	4.63
354.299	4.87
354.669	4.56
355.038	4.3
355.408	4.2
355.777	4.5
356.147	4.5
356.516	4.62
356.885	4.33
357.254	4.3
357.624	4.51
357.993	4.42
358.362	4.42
358.731	4.26
359.1	4.42
359.469	4.48
359.838	4.67
360.207	4.57
360.576	4.59
360.945	4.44
361.314	4.67
361.682	4.61
362.051	4.29
362.42	4.35
362.788	4.24
363.157	4.68
363.525	4.47
363.894	4.52
364.262	4.17
364.631	4.18
364.999	4.33
365.367	4.53
365.735	4.43
366.104	4.59
366.472	4.54
366.84	4.48
367.208	4.47
367.576	4.66
367.944	4.67
368.312	4.54
368.68	4.76
369.048	4.47
369.416	4.38
369.783	4.67
370.151	4.7
370.519	5
370.886	4.86
371.254	4.53
371.621	4.51
371.989	4.41
372.356	4.68
372.724	4.58
373.091	4.72
373.458	4.39
373.826	4.83
374.193	4.53
374.56	4.78
374.927	4.57
375.294	4.96
375.661	5.05
376.028	4.52
376.395	4.86
376.762	4.53
377.129	4.73
377.496	4.62
377.863	4.4
378.229	4.75
378.596	4.59
378.963	4.6
379.329	4.57
379.696	4.46
380.062	4.66
380.429	4.48
380.795	4.55
381.161	4.8
381.528	4.78
381.894	4.91
382.26	4.54
382.626	4.69
382.993	4.64
383.359	4.64
383.725	4.79
384.091	4.61
384.457	4.77
384.823	4.85
385.188	4.77
385.554	4.83
385.92	4.62
386.286	4.79
386.651	4.73
387.017	4.6
387.383	4.85
387.748	4.75
388.114	4.73
388.479	4.79
388.845	4.76
389.21	4.69
389.575	4.51
389.94	4.74
390.306	4.78
390.671	4.72
391.036	4.85
391.401	4.65
391.766	4.68
392.131	4.59
392.496	4.64
392.861	4.71
393.226	4.84
393.591	4.68
393.956	5.02
394.32	4.81
394.685	4.62
395.05	4.93
395.414	5.01
395.779	4.78
396.143	4.83
396.508	4.69
396.872	4.69
397.236	4.79
397.601	4.78
397.965	4.89
398.329	4.81
398.694	4.74
399.058	4.61
399.422	4.88
399.786	5.04
400.15	5.05
400.514	4.79
400.878	4.98
401.242	4.93
401.605	4.85
401.969	5
402.333	4.83
402.697	5.09
403.06	4.91
403.424	4.52
403.787	4.91
404.151	4.79
404.514	4.91
404.878	5.04
405.241	4.95
405.604	4.85
405.968	5.15
406.331	4.84
406.694	5.08
407.057	4.98
407.42	4.94
407.783	4.76
408.146	5.04
408.509	5.04
408.872	5.09
409.235	5.07
409.598	4.79
409.961	4.91
410.323	4.91
410.686	5.02
411.049	5.15
411.411	4.9
411.774	4.94
412.136	4.86
412.499	5.12
412.861	4.93
413.223	5.05
413.586	5.13
413.948	5.1
414.31	5.09
414.672	5.1
415.035	4.99
415.397	5.29
415.759	5.09
416.121	5.14
416.483	5.1
416.845	5.09
417.206	5.05
417.568	4.99
417.93	4.99
418.292	4.96
418.653	5.09
419.015	4.93
419.377	5.11
419.738	5.08
420.1	4.89
420.461	5.04
420.822	5
421.184	4.93
421.545	4.89
421.906	5.01
422.267	4.93
422.629	4.87
422.99	4.9
423.351	4.93
423.712	4.93
424.073	4.87
424.434	4.98
424.795	5.07
425.155	5.06
425.516	4.84
425.877	5
426.238	4.85
426.598	4.95
426.959	4.96
427.32	5.06
427.68	5.06
428.041	5.22
428.401	5.02
428.761	5.12
429.122	5.16
429.482	5.19
429.842	5.12
430.202	5.13
430.563	5.13
430.923	5.16
431.283	5.21
431.643	5.16
432.003	5.2
432.363	5.25
432.722	5.15
433.082	5.17
433.442	5.23
433.802	5.19
434.161	5.22
434.521	5.21
434.881	5
435.24	5.09
435.6	5.12
435.959	5.09
436.319	5.04
436.678	5.17
437.037	5.11
437.396	4.96
437.756	5.15
438.115	4.98
438.474	5.21
438.833	5.19
439.192	5.22
439.551	5.12
439.91	5.26
440.269	5.18
440.628	5.12
440.987	5.35
441.345	5.15
441.704	5.15
442.063	5.27
442.421	5.03
442.78	5.06
443.138	5.17
443.497	5.07
443.855	5.18
444.214	5.27
444.572	5.25
444.93	5.27
445.288	5.49
445.647	5.21
446.005	5.23
446.363	5.16
446.721	5.17
447.079	5.16
447.437	5.13
447.795	5.11
448.153	5.07
448.51	5.08
448.868	5.15
449.226	5.1
449.584	5.24
449.941	5.06
450.299	5.15
450.656	5.23
451.014	5.26
451.371	5.24
451.729	5.26
452.086	5.31
452.443	5.36
452.801	5.28
453.158	5.16
453.515	5.23
453.872	5.24
454.229	5.31
454.586	5.23
454.943	5.2
455.3	5.16
455.657	5.29
456.014	5.21
456.371	5.22
456.727	5.3
457.084	5.26
457.441	5.28
457.797	5.29
458.154	5.42
458.51	5.21
458.867	5.34
459.223	5.21
459.58	5.3
459.936	5.38
460.292	5.39
460.648	5.36
461.005	5.41
461.361	5.26
461.717	5.08
462.073	5.34
462.429	5.38
462.785	5.24
463.141	5.27
463.496	5.29
463.852	5.3
464.208	5.57
464.564	5.45
464.919	5.33
465.275	5.33
465.631	5.43
465.986	5.3
466.342	5.42
466.697	5.38
467.052	5.38
467.408	5.55
467.763	5.41
468.118	5.37
468.473	5.35
468.829	5.53
469.184	5.52
469.539	5.55
469.894	5.48
470.249	5.45
470.603	5.47
470.958	5.62
471.313	5.49
471.668	5.55
472.023	5.62
472.377	5.42
472.732	5.44
473.086	5.36
473.441	5.38
473.795	5.47
474.15	5.6
474.504	5.48
474.859	5.53
475.213	5.52
475.567	5.46
475.921	5.56
476.275	5.46
476.63	5.59
476.984	5.53
477.338	5.46
477.692	5.41
478.045	5.43
478.399	5.31
478.753	5.55
479.107	5.44
479.461	5.54
479.814	5.42
480.168	5.54
480.521	5.52
480.875	5.52
481.228	5.55
481.582	5.53
481.935	5.45
482.289	5.65
482.642	5.47
482.995	5.48
483.348	5.38
483.701	5.5
484.055	5.38
484.408	5.43
484.761	5.26
485.114	5.2
485.466	5.14
485.819	5.12
486.172	5.13
486.525	5.17
486.878	5.28
487.23	5.29
487.583	5.4
487.936	5.36
488.288	5.29
488.641	5.35
488.993	5.29
489.345	5.24
489.698	5.29
490.05	5.25
490.402	5.27
490.754	5.36
491.107	5.37
491.459	5.46
491.811	5.47
492.163	5.41
492.515	5.43
492.866	5.27
493.218	5.22
493.57	5.28
493.922	5.3
494.274	5.39
494.625	5.32
494.977	5.49
495.328	5.51
495.68	5.53
496.031	5.53
496.383	5.71
496.734	5.6
497.086	5.71
497.437	5.61
497.788	5.65
498.139	5.44
498.49	5.55
498.842	5.47
499.193	5.54
499.544	5.55
499.894	5.7
500.245	5.62
500.596	5.6
500.947	5.55
501.298	5.69
501.648	5.71
501.999	5.61
502.35	5.6
502.7	5.68
503.051	5.67
503.401	5.62
503.752	5.64
504.102	5.56
504.452	5.73
504.803	5.53
505.153	5.65
505.503	5.62
505.853	5.73
506.203	5.83
506.553	5.84
506.903	5.61
507.253	5.79
507.603	5.61
507.953	5.8
508.303	5.76
508.652	5.59
509.002	5.59
509.352	5.7
509.701	5.67
510.051	5.73
510.4	5.56
510.75	5.59
511.099	5.58
511.449	5.63
511.798	5.65
512.147	5.62
512.496	5.67
512.846	5.72
513.195	5.58
513.544	5.71
513.893	5.66
514.242	5.69
514.591	5.73
514.939	5.81
515.288	5.7
515.637	5.65
515.986	5.83
516.334	5.69
516.683	5.83
517.032	5.74
517.38	5.74
517.729	5.74
518.077	5.69
518.426	5.75
518.774	5.64
519.122	5.68
519.47	5.64
519.819	5.66
520.167	5.57
520.515	5.67
520.863	5.63
521.211	5.67
521.559	5.63
521.907	5.73
522.255	5.77
522.602	5.79
522.95	5.78
523.298	5.81
523.645	5.75
523.993	5.71
524.341	5.84
524.688	5.8
525.036	5.86
525.383	5.75
525.73	5.76
526.078	5.78
526.425	5.64
526.772	5.75
527.119	5.78
527.466	5.66
527.814	5.61
528.161	5.66
528.508	5.68
528.854	5.63
529.201	5.73
529.548	5.62
529.895	5.52
530.242	5.51
530.588	5.51
530.935	5.5
531.282	5.59
531.628	5.59
531.975	5.58
532.321	5.64
532.667	5.71
533.014	5.75
533.36	5.67
533.706	5.73
534.052	5.75
534.399	5.65
534.745	5.64
535.091	5.59
535.437	5.63
535.783	5.63
536.129	5.59
536.474	5.74
536.82	5.73
537.166	5.76
537.512	5.82
537.857	5.85
538.203	5.7
538.549	5.69
538.894	5.74
539.239	5.83
539.585	5.73
539.93	5.87
540.276	5.8
540.621	5.84
540.966	5.9
541.311	5.9
541.656	5.82
542.001	5.87
542.346	5.85
542.691	5.66
543.036	5.7
543.381	5.64
543.726	5.7
544.071	5.74
544.415	5.68
544.76	5.65
545.105	5.77
545.449	5.79
545.794	5.79
546.138	5.81
546.483	5.87
546.827	5.88
547.171	5.83
547.516	5.78
547.86	5.86
548.204	5.84
548.548	5.89
548.892	5.78
549.236	6.01
549.58	5.97
549.924	5.91
550.268	6
550.612	6
550.956	6.02
551.3	6.06
551.643	6.09
551.987	5.96
552.33	5.96
552.674	5.83
553.017	5.9
553.361	5.99
553.704	6.04
554.048	6.03
554.391	5.98
554.734	6.12
555.077	6.07
555.42	6
555.764	6.09
556.107	6.08
556.45	5.98
556.793	6.12
557.135	6.06
557.478	5.91
557.821	6.17
558.164	6.23
558.507	6.15
558.849	5.98
559.192	6.23
559.534	6.15
559.877	6.29
560.219	6.18
560.562	6.04
560.904	6.06
561.246	6
561.589	6.14
561.931	6.09
562.273	5.99
562.615	6.03
562.957	6
563.299	6.26
563.641	6.02
563.983	6
564.325	6.09
564.667	6.06
565.008	6.08
565.35	6.12
565.692	5.97
566.033	6.18
566.375	6.06
566.716	6.19
567.058	6.05
567.399	6.32
567.741	6.14
568.082	6.04
568.423	6.21
568.764	6.09
569.105	6.14
569.447	5.9
569.788	6.08
570.129	6.08
570.47	6.08
570.811	6.18
571.151	6.15
571.492	6.17
571.833	6.14
572.174	6.26
572.514	6.19
572.855	6.05
573.195	6.13
573.536	6.08
573.876	6.09
574.217	5.97
574.557	6.02
574.898	6.13
575.238	6.18
575.578	6.08
575.918	6.07
576.258	6.23
576.598	6.24
576.938	6.16
577.278	6.25
577.618	6.17
577.958	6.28
578.298	6.29
578.638	6.11
578.977	6.07
579.317	6.16
579.657	6.19
579.996	6.25
580.336	6.38
580.675	6.13
581.014	6.26
581.354	6.37
581.693	6.43
582.032	6.31
582.372	6.49
582.711	6.45
583.05	6.07
583.389	6.44
583.728	6.25
584.067	6.37
584.406	6.09
584.745	6.31
585.083	6.36
585.422	6.26
585.761	6.57
586.1	6.39
586.438	6.19
586.777	6.32
587.115	6.26
587.454	6.38
587.792	6.41
588.13	6.29
588.469	6.36
588.807	6.38
589.145	6.33
589.483	6.25
589.821	6.24
590.159	6.18
590.497	6.35
590.835	6.14
591.173	6.36
591.511	6.43
591.849	6.22
592.187	6.31
592.524	6.21
592.862	6.34
593.2	6.47
593.537	6.13
593.875	6.31
594.212	6.37
594.55	6.3
594.887	6.5
595.224	6.59
595.561	6.48
595.899	6.47
596.236	6.45
596.573	6.23
596.91	6.39
597.247	6.14
597.584	6.26
597.921	6.24
598.258	6.28
598.594	6.27
598.931	6.28
599.268	6.23
599.604	6.4
599.941	6.21
600.277	6.26
600.614	6.32
600.95	6.51
601.287	6.6
601.623	6.41
601.959	6.4
602.296	6.31
602.632	6.34
602.968	6.39
603.304	6.47
603.64	6.43
603.976	6.46
604.312	6.54
604.648	6.32
604.984	6.4
605.319	6.38
605.655	6.34
605.991	6.3
606.326	6.4
606.662	6.21
606.998	6.25
607.333	6.38
607.668	6.36
608.004	6.53
608.339	6.79
608.674	6.42
609.01	6.3
609.345	6.3
609.68	6.81
610.015	6.5
610.35	6.47
610.685	6.33
611.02	6.38
611.355	6.32
611.689	6.4
612.024	6.48
612.359	6.12
612.694	6.26
613.028	6.41
613.363	6.35
613.697	6.4
614.032	6.52
614.366	6.17
614.7	6.38
615.035	6.61
615.369	6.59
615.703	6.51
616.037	6.6
616.371	6.54
616.705	6.47
617.039	6.22
617.373	6.56
617.707	6.64
618.041	6.57
618.375	6.67
618.709	6.62
619.042	6.74
619.376	6.63
619.71	6.62
620.043	6.53
620.377	6.34
620.71	6.45
621.043	6.6
621.377	6.72
621.71	6.63
622.043	6.35
622.376	6.52
622.709	6.5
623.043	6.35
623.376	6.66
623.709	6.49
624.041	6.65
624.374	6.74
624.707	6.58
625.04	6.54
625.373	6.42
625.705	6.68
626.038	6.52
626.37	6.37
626.703	6.53
627.035	6.4
627.368	6.79
627.7	6.68
628.032	6.34
628.365	6.79
628.697	6.95
629.029	6.54
629.361	6.36
629.693	6.29
630.025	6.39
630.357	6.62
630.689	6.54
631.021	6.48
631.353	6.62
631.684	6.99
632.016	6.61
632.348	6.68
632.679	6.65
633.011	6.3
633.342	6.5
633.674	6.48
634.005	6.85
634.336	6.34
634.668	6.51
634.999	6.25
635.33	6.7
635.661	6.77
635.992	6.75
636.323	6.71
636.654	6.88
636.985	6.85
637.316	6.48
637.647	6.46
637.977	6.7
638.308	6.6
638.639	6.7
638.969	6.89
639.3	6.75
639.63	6.63
639.961	6.72
640.291	6.91
640.622	6.87
640.952	6.85
641.282	6.99
641.612	6.9
641.943	6.47
642.273	6.62
642.603	6.55
642.933	6.48
643.263	6.82
643.592	6.96
643.922	6.57
644.252	6.66
644.582	6.65
644.911	6.74
645.241	6.96
645.571	6.57
645.9	6.89
646.23	6.77
646.559	6.87
646.888	6.85
647.218	6.41
647.547	6.84
647.876	6.65
648.205	6.81
648.534	6.77
648.863	6.97
649.192	7.29
649.521	6.59
649.85	6.51
650.179	6.44
650.508	6.86
650.837	6.82
651.165	7.39
651.494	6.98
651.822	6.74
652.151	6.89
652.479	7.14
652.808	6.96
653.136	6.95
653.465	7.05
653.793	7.1
654.121	6.89
654.449	6.88
654.777	6.6
655.105	7.14
655.433	6.46
655.761	6.73
656.089	6.49
656.417	6.99
656.745	6.78
657.073	6.72
657.4	6.75
657.728	7.04
658.056	6.45
658.383	6.78
658.711	7.01
659.038	6.69
659.365	6.9
659.693	6.89
660.02	7.39
660.347	7.11
660.674	6.42
661.001	7
661.329	6.66
661.656	6.95
661.982	6.85
662.309	6.86
662.636	7.03
662.963	7.18
663.29	6.99
663.616	7.2
663.943	7.1
664.27	7.04
664.596	7.03
664.923	7.12
665.249	6.89
665.576	7.07
665.902	6.88
666.228	6.77
666.554	6.95
666.881	7.02
667.207	6.69
667.533	7.37
667.859	6.62
668.185	7.12
668.511	7.22
668.837	6.83
669.162	6.94
669.488	6.96
669.814	7.13
670.139	7.38
670.465	7.07
670.791	6.29
671.116	7.15
671.442	7.22
671.767	7.22
672.092	6.95
672.418	6.97
672.743	6.62
673.068	6.8
673.393	6.9
673.718	7.23
674.043	7.19
674.368	7.04
674.693	7.23
675.018	6.8
675.343	7.34
675.667	7.36
675.992	7.41
676.317	7.4
676.641	7.01
676.966	6.68
677.29	6.85
677.615	7.54
677.939	7.57
678.264	7.28
678.588	8
678.912	7.81
679.236	7.14
679.56	7.62
679.885	7.48
680.209	7.36
680.532	6.43
680.856	7.72
681.18	7.43
681.504	7.1
681.828	7.1
682.152	7.49
682.475	6.82
682.799	7.39
683.122	6.76
683.446	7.14
683.769	7.27
684.093	6.89
684.416	7.04
684.739	7.57
685.062	7.08
685.386	7.31
685.709	7.24
686.032	7.32
686.355	6.75
686.678	7.56
687.001	7.67
687.324	6.98
687.646	6.98
687.969	7.55
688.292	7.65
688.614	7.53
688.937	7.33
689.26	7.36
689.582	7.35
689.904	6.97
690.227	7.45
690.549	7.39
690.871	7.39
691.194	7.43
691.516	8.12
691.838	7.34
692.16	7.33
692.482	7.62
692.804	6.95
